SpectraSuite Data File
++++++++++++++++++++++++++++++++++++
Date: Fri Oct 25 10:44:46 EDT 2013
User: price-jones
Dark Spectrum Present: No
Reference Spectrum Present: No
Number of Sampled Component Spectra: 1
Spectrometers: USB2+H05261
Integration Time (usec): 100000 (USB2+H05261)
Spectra Averaged: 1 (USB2+H05261)
Boxcar Smoothing: 0 (USB2+H05261)
Correct for Electrical Dark: No (USB2+H05261)
Strobe/Lamp Enabled: No (USB2+H05261)
Correct for Detector Non-linearity: No (USB2+H05261)
Correct for Stray Light: No (USB2+H05261)
Number of Pixels in Processed Spectrum: 2048
>>>>>Begin Processed Spectral Data<<<<<
365.73	166.18
365.92	166.18
366.12	166.18
366.32	0.00
366.52	91.28
366.72	70.22
366.91	0.00
367.11	14.04
367.31	95.96
367.51	21.06
367.70	37.45
367.90	30.43
368.10	11.70
368.30	32.77
368.49	39.79
368.69	37.45
368.89	49.15
369.09	91.28
369.28	0.00
369.48	39.79
369.68	42.13
369.87	81.92
370.07	119.37
370.27	93.62
370.47	205.97
370.66	395.55
370.86	423.64
371.06	414.27
371.25	447.04
371.45	451.72
371.65	496.19
371.84	351.08
372.04	351.08
372.24	454.06
372.44	500.87
372.63	369.80
372.83	458.74
373.03	496.19
373.22	437.68
373.42	552.37
373.62	531.30
373.81	491.51
374.01	524.28
374.21	538.32
374.40	552.37
374.60	526.62
374.79	528.96
374.99	524.28
375.19	559.39
375.38	589.82
375.58	629.60
375.78	543.00
375.97	589.82
376.17	634.29
376.37	514.92
376.56	622.58
376.76	592.16
376.95	521.94
377.15	669.39
377.35	624.92
377.54	561.73
377.74	601.52
377.93	571.09
378.13	643.65
378.33	624.92
378.52	606.20
378.72	589.82
378.91	617.90
379.11	566.41
379.31	650.67
379.50	589.82
379.70	671.73
379.89	706.84
380.09	706.84
380.28	603.86
380.48	606.20
380.68	688.12
380.87	650.67
381.07	655.35
381.26	704.50
381.46	655.35
381.65	582.79
381.85	603.86
382.04	655.35
382.24	662.37
382.43	713.86
382.63	674.07
382.83	692.80
383.02	730.25
383.22	676.41
383.41	709.18
383.61	753.65
383.80	695.14
384.00	669.39
384.19	739.61
384.39	730.25
384.58	734.93
384.78	741.95
384.97	751.31
385.17	821.53
385.36	793.44
385.56	793.44
385.75	781.74
385.95	802.80
386.14	784.08
386.34	690.46
386.53	847.27
386.72	819.19
386.92	863.66
387.11	866.00
387.31	802.80
387.50	802.80
387.70	823.87
387.89	802.80
388.09	774.72
388.28	830.89
388.48	898.77
388.67	891.74
388.86	866.00
389.06	875.36
389.25	924.51
389.45	870.68
389.64	877.70
389.84	1013.45
390.03	849.61
390.22	873.02
390.42	856.64
390.61	887.06
390.81	908.13
391.00	1029.84
391.19	961.96
391.39	905.79
391.58	968.98
391.78	1041.54
391.97	901.11
392.16	978.34
392.36	947.92
392.55	954.94
392.75	945.58
392.94	926.85
393.13	1004.09
393.33	947.92
393.52	952.60
393.71	1095.37
393.91	1032.18
394.10	1043.88
394.29	1029.84
394.49	1050.90
394.68	1121.12
394.88	1125.80
395.07	1132.82
395.26	1102.39
395.46	1139.84
395.65	1142.18
395.84	1181.97
396.04	1172.61
396.23	1116.44
396.42	1083.67
396.62	1125.80
396.81	1158.57
397.00	1100.05
397.19	1186.65
397.39	1256.87
397.58	1280.27
397.77	1291.98
397.97	1355.17
398.16	1306.02
398.35	1320.06
398.55	1301.34
398.74	1308.36
398.93	1387.94
399.12	1273.25
399.32	1331.76
399.51	1373.89
399.70	1448.79
399.90	1371.55
400.09	1427.73
400.28	1453.47
400.47	1373.89
400.67	1451.13
400.86	1504.96
401.05	1416.02
401.24	1495.60
401.44	1502.62
401.63	1413.68
401.82	1507.30
402.01	1497.94
402.21	1551.78
402.40	1551.78
402.59	1551.78
402.78	1549.43
402.97	1516.67
403.17	1535.39
403.36	1626.67
403.55	1521.35
403.74	1685.19
403.93	1638.38
404.13	1645.40
404.32	1825.62
404.51	1589.22
404.70	1675.82
404.89	1675.82
405.09	1790.51
405.28	1668.80
405.47	1757.74
405.66	1844.34
405.85	1846.68
406.05	1823.28
406.24	1858.39
406.43	1846.68
406.62	1909.88
406.81	1909.88
407.00	1750.72
407.20	1713.27
407.39	1870.09
407.58	1944.99
407.77	1980.09
407.96	2003.50
408.15	1977.75
408.34	1912.22
408.54	2022.22
408.73	2038.61
408.92	2047.97
409.11	2052.65
409.30	2024.56
409.49	2071.37
409.68	2085.42
409.87	2036.27
410.07	2078.40
410.26	2143.93
410.45	2146.27
410.64	2284.36
410.83	2134.57
411.02	2129.89
411.21	2354.58
411.40	2286.70
411.59	2410.75
411.78	2349.90
411.98	2349.90
412.17	2373.30
412.36	2403.73
412.55	2415.43
412.74	2588.63
412.93	2473.95
413.12	2310.11
413.31	2593.31
413.50	2551.18
413.69	2630.76
413.88	2668.21
414.07	2558.21
414.26	2633.10
414.45	2651.83
414.64	2679.91
414.83	2775.88
415.02	2698.64
415.22	2736.09
415.41	2843.75
415.60	2841.41
415.79	2860.13
415.98	3000.57
416.17	2963.12
416.36	2848.43
416.55	2979.50
416.74	2920.99
416.93	2953.76
417.12	3033.33
417.31	2892.90
417.50	2972.48
417.69	3211.22
417.88	3166.74
418.07	3141.00
418.26	3012.27
418.45	3073.12
418.64	3166.74
418.83	3089.51
419.02	3141.00
419.21	3236.96
419.39	3279.09
419.58	3178.45
419.77	3117.59
419.96	3311.86
420.15	3372.71
420.34	3405.48
420.53	3342.28
420.72	3414.84
420.91	3454.63
421.10	3503.78
421.29	3452.29
421.48	3412.50
421.67	3459.31
421.86	3440.59
422.05	3393.78
422.24	3393.78
422.43	3386.76
422.61	3606.77
422.80	3543.57
422.99	3527.19
423.18	3536.55
423.37	3534.21
423.56	3555.27
423.75	3463.99
423.94	3410.16
424.13	3295.47
424.32	3454.63
424.50	3520.17
424.69	3548.25
424.88	3522.51
425.07	3665.28
425.26	3592.72
425.45	3506.12
425.64	3585.70
425.83	3506.12
426.01	3611.45
426.20	3616.13
426.39	3609.11
426.58	3487.40
426.77	3574.00
426.96	3604.42
427.15	3597.40
427.33	3831.46
427.52	3730.81
427.71	3751.88
427.90	3684.00
428.09	3775.28
428.28	3749.54
428.46	3847.84
428.65	3737.84
428.84	3882.95
429.03	3948.48
429.22	3761.24
429.40	3726.13
429.59	4004.66
429.78	3737.84
429.97	3461.65
430.16	3712.09
430.34	3702.73
430.53	3810.39
430.72	3857.20
430.91	3999.98
431.10	3988.27
431.28	4056.15
431.47	4180.20
431.66	4407.23
431.85	4222.33
432.03	4184.88
432.22	4362.76
432.41	4170.83
432.60	4393.19
432.79	4311.27
432.97	4273.82
433.16	4234.03
433.35	4212.96
433.54	4294.88
433.72	4402.55
433.91	4334.67
434.10	4292.54
434.28	4292.54
434.47	4526.60
434.66	4451.70
434.85	4294.88
435.03	4557.02
435.22	4498.51
435.41	4519.57
435.59	4507.87
435.78	4526.60
435.97	4538.30
436.16	4648.30
436.34	4641.28
436.53	4608.51
436.72	4781.71
436.90	4718.52
437.09	4805.12
437.28	4580.43
437.46	4608.51
437.65	4798.10
437.84	4786.40
438.02	4671.71
438.21	4805.12
438.40	4517.23
438.58	4873.00
438.77	4896.40
438.96	4926.83
439.14	5029.81
439.33	5078.96
439.52	5170.24
439.70	5212.37
439.89	5217.05
440.08	5139.82
440.26	5273.23
440.45	5118.75
440.63	5350.46
440.82	5406.64
441.01	5385.57
441.19	5458.13
441.38	5544.73
441.57	5469.83
441.75	5600.90
441.94	5722.61
442.12	5621.97
442.31	5572.82
442.50	5708.57
442.68	5713.25
442.87	5734.31
443.05	5724.95
443.24	5762.40
443.43	5954.32
443.61	5736.65
443.80	6127.52
443.98	5614.95
444.17	5731.97
444.35	5778.78
444.54	6087.73
444.73	5991.77
444.91	5713.25
445.10	5858.36
445.28	5916.87
445.47	5795.17
445.65	5722.61
445.84	5898.15
446.02	5947.30
446.21	5926.24
446.39	6017.52
446.58	6085.39
446.77	6148.59
446.95	5874.74
447.14	6267.95
447.32	6080.71
447.51	6057.31
447.69	5863.04
447.88	6104.12
448.06	5926.24
448.25	6059.65
448.43	5921.56
448.62	6113.48
448.80	6085.39
448.99	6146.25
449.17	6209.44
449.36	6047.94
449.54	6387.32
449.73	6237.53
449.91	6284.34
450.10	6331.15
450.28	6417.75
450.46	6413.07
450.65	6530.09
450.83	6607.33
451.02	6516.05
451.20	6466.90
451.39	6572.22
451.57	6567.54
451.76	6518.39
451.94	6494.99
452.13	6600.31
452.31	6630.74
452.49	6490.31
452.68	6698.61
452.86	6548.82
453.05	6670.53
453.23	6808.62
453.42	6693.93
453.60	6654.14
453.78	6796.92
453.97	6738.40
454.15	6682.23
454.34	6607.33
454.52	6897.56
454.70	6789.89
454.89	6792.23
455.07	6946.71
455.26	6661.16
455.44	6923.30
455.62	6885.86
455.81	6780.53
455.99	7070.76
456.17	7157.36
456.36	7056.72
456.54	7030.97
456.73	7255.66
456.91	7391.41
457.09	7431.20
457.28	7468.65
457.46	7171.40
457.64	7349.28
457.83	7377.37
458.01	7171.40
458.19	7534.18
458.38	7473.33
458.56	7288.43
458.74	7407.80
458.93	7597.38
459.11	7466.31
459.29	7538.87
459.48	7452.27
459.66	7625.47
459.84	7618.44
460.03	7705.04
460.21	7714.41
460.39	7798.66
460.57	7691.00
460.76	7808.03
460.94	7798.66
461.12	7707.38
461.31	7756.54
461.49	7782.28
461.67	7824.41
461.85	7889.95
462.04	8124.00
462.22	8266.77
462.40	8074.85
462.59	8063.15
462.77	8030.38
462.95	8175.49
463.13	7967.18
463.32	8053.78
463.50	8259.75
463.68	8411.89
463.86	8102.93
464.05	8152.09
464.23	8046.76
464.41	8262.09
464.59	8266.77
464.78	8435.29
464.96	8418.91
465.14	8276.13
465.32	8327.63
465.50	8493.80
465.69	8432.95
465.87	8491.46
466.05	8297.20
466.23	8533.59
466.41	8580.40
466.60	8596.79
466.78	8423.59
466.96	8416.57
467.14	8578.06
467.32	8475.08
467.51	8493.80
467.69	8507.85
467.87	8636.58
468.05	8872.97
468.23	8451.67
468.41	8573.38
468.60	8769.99
468.78	8828.50
468.96	8699.77
469.14	8706.79
469.32	9046.17
469.50	8664.66
469.69	9027.45
469.87	9067.24
470.05	8987.66
470.23	8933.82
470.41	8884.67
470.59	9001.70
470.77	9085.96
470.95	9114.05
471.14	9071.92
471.32	9128.09
471.50	9544.70
471.68	9305.97
471.86	9364.48
472.04	9350.44
472.22	9879.40
472.40	9282.56
472.58	9638.33
472.77	9572.79
472.95	9685.14
473.13	10097.07
473.31	9633.64
473.49	9490.87
473.67	9626.62
473.85	9799.82
474.03	10068.98
474.21	10001.11
474.39	10090.05
474.57	10094.73
474.75	10078.35
474.93	10352.19
475.12	10073.67
475.30	10197.71
475.48	10338.15
475.66	10466.88
475.84	10483.26
476.02	10530.07
476.20	10406.02
476.38	10464.54
476.56	10817.96
476.74	10619.01
476.92	10670.50
477.10	11005.20
477.28	11117.54
477.46	11126.91
477.64	11300.11
477.82	11405.43
478.00	11447.56
478.18	11557.57
478.36	11524.80
478.54	11733.11
478.72	11695.66
478.90	11960.14
479.08	11716.72
479.26	11852.47
479.44	11866.52
479.62	12133.34
479.80	12009.29
479.98	12421.22
480.16	12325.26
480.34	12631.87
480.52	12697.41
480.70	12718.47
480.88	12528.89
481.06	12549.95
481.24	12592.08
481.41	13076.57
481.59	12957.21
481.77	13245.09
481.95	13081.25
482.13	13315.31
482.31	13341.05
482.49	13628.94
482.67	13738.94
482.85	13783.41
483.03	13851.29
483.21	14008.11
483.39	14242.16
483.57	14139.18
483.74	14328.76
483.92	14317.06
484.10	14185.99
484.28	14628.35
484.46	14736.01
484.64	14993.47
484.82	14640.05
485.00	14829.63
485.18	15459.24
485.35	15227.53
485.53	15185.40
485.71	14827.29
485.89	15370.30
486.07	15494.35
486.25	15314.13
486.43	15644.14
486.61	15513.07
486.78	16093.52
486.96	16023.31
487.14	16163.74
487.32	16299.49
487.50	16414.18
487.68	16716.11
487.85	16772.28
488.03	17296.56
488.21	17172.51
488.39	17345.71
488.57	17137.40
488.75	17366.78
488.92	17720.20
489.10	18019.78
489.28	17809.14
489.46	18075.96
489.64	18073.62
489.81	18731.31
489.99	18412.99
490.17	18691.52
490.35	18778.12
490.53	18735.99
490.70	19019.19
490.88	18853.02
491.06	19206.44
491.24	19126.86
491.41	19204.10
491.59	19082.39
491.77	19342.19
491.95	19534.11
492.13	19660.50
492.30	19772.85
492.48	20119.24
492.66	20072.43
492.84	19983.49
493.01	20306.49
493.19	20255.00
493.37	20554.58
493.54	20680.97
493.72	21001.63
493.90	20828.43
494.08	20926.73
494.25	21486.12
494.43	21387.82
494.61	21607.83
494.79	21589.10
494.96	21582.08
495.14	21886.35
495.32	22155.51
495.49	22061.89
495.67	22111.04
495.85	22171.89
496.02	22202.32
496.20	22375.52
496.38	22876.40
496.55	22754.69
496.73	22904.48
496.91	22906.82
497.09	22998.10
497.26	23204.07
497.44	23323.44
497.62	23571.54
497.79	23534.09
497.97	23534.09
498.14	23660.48
498.32	23503.66
498.50	23910.91
498.67	24025.60
498.85	24030.28
499.03	24364.98
499.20	23889.85
499.38	24336.89
499.56	24587.33
499.73	24416.47
499.91	24484.34
500.08	24638.82
500.26	24858.83
500.44	24694.99
500.61	24781.59
500.79	24999.26
500.97	24835.42
501.14	25092.88
501.32	25589.08
501.49	25333.96
501.67	25078.84
501.84	25177.14
502.02	25673.34
502.20	25722.49
502.37	26155.49
502.55	25703.76
502.72	25635.89
502.90	25799.73
503.07	25886.32
503.25	26033.78
503.43	25855.90
503.60	26302.94
503.78	25993.99
503.95	25984.63
504.13	26403.58
504.30	26197.62
504.48	26464.44
504.65	26981.70
504.83	26899.78
505.01	27391.29
505.18	27271.92
505.36	27178.30
505.53	26993.40
505.71	27690.88
505.88	27461.51
506.06	27580.87
506.23	27955.36
506.41	27936.63
506.58	27817.27
506.76	27969.40
506.93	27875.78
507.11	27866.42
507.28	27875.78
507.46	28053.66
507.63	27859.40
507.81	28402.40
507.98	28025.57
508.16	28393.04
508.33	28620.07
508.50	28350.91
508.68	28657.52
508.85	28856.46
509.03	28706.67
509.20	28734.76
509.38	29048.39
509.55	28933.70
509.73	29167.76
509.90	28987.53
510.08	28973.49
510.25	29355.00
510.42	29584.37
510.60	29834.81
510.77	29961.20
510.95	30029.07
511.12	29778.64
511.30	30295.89
511.47	30136.74
511.64	30139.08
511.82	30279.51
511.99	29883.96
512.17	30291.21
512.34	30169.51
512.51	30621.23
512.69	30719.53
512.86	30646.97
513.04	30579.10
513.21	30174.19
513.38	30918.48
513.56	30682.08
513.73	30726.55
513.90	31129.12
514.08	30937.20
514.25	31248.49
514.43	30876.35
514.60	31271.90
514.77	31339.77
514.95	31714.26
515.12	31915.54
515.29	31407.65
515.47	31772.77
515.64	32142.58
515.81	31428.71
515.99	31887.46
516.16	31531.70
516.33	31672.13
516.51	31749.37
516.68	31253.17
516.85	32027.89
517.03	31566.81
517.20	32060.66
517.37	32077.04
517.54	32191.73
517.72	31941.29
517.89	31791.50
518.06	32488.98
518.24	32512.38
518.41	32446.85
518.58	32535.79
518.75	32444.51
518.93	32786.22
519.10	32711.33
519.27	32914.95
519.45	32943.04
519.62	32837.72
519.79	33453.28
519.96	33146.67
520.14	33184.12
520.31	33305.82
520.48	33195.82
520.65	33376.04
520.83	33750.52
521.00	33923.72
521.17	34204.59
521.34	33797.34
521.52	33886.28
521.69	33909.68
521.86	34054.79
522.03	33975.22
522.20	34359.06
522.38	34646.95
522.55	34277.15
522.72	34316.93
522.89	34665.67
523.07	34583.76
523.24	34197.57
523.41	34855.26
523.58	34586.10
523.75	34586.10
523.92	35281.24
524.10	35136.12
524.27	34930.16
524.44	35309.32
524.61	35264.85
524.78	35644.02
524.96	35054.20
525.13	35262.51
525.30	35543.38
525.47	35655.72
525.64	35330.39
525.81	35627.63
525.98	35585.50
526.16	35491.88
526.33	35211.02
526.50	35225.06
526.67	35337.41
526.84	35892.12
527.01	35363.15
527.18	35587.85
527.36	36189.36
527.53	35793.81
527.70	36430.44
527.87	36229.15
528.04	36301.71
528.21	35754.02
528.38	36395.33
528.55	36128.51
528.72	36238.51
528.89	36535.76
529.07	36559.17
529.24	36350.86
529.41	36751.09
529.58	36645.77
529.75	36364.90
529.92	36896.20
530.09	36912.59
530.26	37118.56
530.43	36989.83
530.60	36603.64
530.77	36950.04
530.94	37574.96
531.11	37186.43
531.28	37010.89
531.46	37165.37
531.63	37357.29
531.80	37179.41
531.97	37177.07
532.14	37127.92
532.31	36961.74
532.48	37385.38
532.65	37387.72
532.82	37734.12
532.99	37675.60
533.16	37177.07
533.33	37806.67
533.50	38307.55
533.67	38036.05
533.84	37586.66
534.01	38019.66
534.18	37734.12
534.35	38045.41
534.52	37879.23
534.69	38059.45
534.86	38230.31
535.03	38139.03
535.20	38520.54
535.37	38431.60
535.54	38782.68
535.71	38373.08
535.88	38291.16
536.05	38726.50
536.22	38944.17
536.38	38607.14
536.55	38698.42
536.72	38789.70
536.89	38146.05
537.06	38785.02
537.23	38829.49
537.40	38663.31
537.57	38773.31
537.74	38888.00
537.91	39098.65
538.08	39171.21
538.25	38752.25
538.42	38508.83
538.59	39688.46
538.75	39103.33
538.92	39295.25
539.09	39562.08
539.26	38941.83
539.43	39262.49
539.60	39632.29
539.77	39304.62
539.94	39433.35
540.11	39510.58
540.28	39288.23
540.44	39643.99
540.61	39739.96
540.78	39714.21
540.95	39669.74
541.12	39234.40
541.29	39583.14
541.46	39746.98
541.62	39770.38
541.79	39878.05
541.96	39746.98
542.13	39906.13
542.30	39814.85
542.47	39782.09
542.63	40208.06
542.80	40397.65
542.97	40596.59
543.14	40460.84
543.31	40261.90
543.48	40421.05
543.64	41003.85
543.81	40612.98
543.98	40638.72
544.15	40641.06
544.32	41247.26
544.48	40783.83
544.65	40837.67
544.82	40964.06
544.99	40650.42
545.16	40804.90
545.32	41230.88
545.49	41069.38
545.66	41317.48
545.83	41333.86
546.00	41649.83
546.16	40975.76
546.33	40868.09
546.50	40966.40
546.67	41359.61
546.83	40605.95
547.00	41317.48
547.17	40893.84
547.34	41298.75
547.50	41296.41
547.67	41471.95
547.84	41462.59
548.00	42064.11
548.17	41806.65
548.34	41879.21
548.51	41797.29
548.67	41825.37
548.84	41846.44
549.01	41586.64
549.18	41642.81
549.34	41516.42
549.51	41661.54
549.68	41940.06
549.84	41715.37
550.01	42021.98
550.18	41537.49
550.34	42251.35
550.51	41888.57
550.68	41951.76
550.84	41773.88
551.01	42241.99
551.18	41680.26
551.34	42155.39
551.51	42347.31
551.68	42555.62
551.84	42691.37
552.01	42394.12
552.18	42094.53
552.34	42129.64
552.51	42541.58
552.68	42057.09
552.84	41872.18
553.01	42745.20
553.18	42754.57
553.34	42260.71
553.51	42431.57
553.67	42536.90
553.84	42731.16
554.01	42490.09
554.17	42852.87
554.34	42253.69
554.51	42693.71
554.67	42815.42
554.84	42873.93
555.00	42567.32
555.17	42738.18
555.33	43075.22
555.50	42674.99
555.67	42684.35
555.83	42497.11
556.00	42906.70
556.16	43222.67
556.33	42689.03
556.50	42850.53
556.66	43356.08
556.83	43122.03
556.99	43278.85
557.16	43299.91
557.32	42927.77
557.49	43386.51
557.65	42876.27
557.82	42803.72
557.98	43107.99
558.15	42876.27
558.32	43384.17
558.48	43320.98
558.65	42995.64
558.81	42993.30
558.98	43138.41
559.14	43105.65
559.31	43140.75
559.47	43690.78
559.64	43770.36
559.80	43676.74
559.97	43196.93
560.13	43435.66
560.30	43131.39
560.46	43306.93
560.63	43533.96
560.79	43309.27
560.96	43896.75
561.12	43505.88
561.29	43468.43
561.45	43761.00
561.61	43840.57
561.78	43187.56
561.94	43138.41
562.11	43899.09
562.27	43775.04
562.44	43709.50
562.60	43845.26
562.77	43391.19
562.93	43613.54
563.10	43440.34
563.26	43393.53
563.42	43988.03
563.59	43463.75
563.75	43529.28
563.92	43641.63
564.08	43950.58
564.24	43817.17
564.41	43730.57
564.57	43784.40
564.74	43761.00
564.90	43950.58
565.07	43629.93
565.23	43571.41
565.39	43590.14
565.56	44067.61
565.72	43880.36
565.88	43971.64
566.05	43976.33
566.21	43945.90
566.38	43690.78
566.54	43810.15
566.70	44219.74
566.87	44264.21
567.03	44016.11
567.19	44261.87
567.36	43866.32
567.52	44208.04
567.68	44191.65
567.85	44083.99
568.01	43945.90
568.17	44072.29
568.34	43981.01
568.50	43941.22
568.66	44034.84
568.83	44069.95
568.99	43648.65
569.15	43550.35
569.32	43969.30
569.48	43807.81
569.64	44100.37
569.81	44395.28
569.97	44217.40
570.13	44175.27
570.30	44018.46
570.46	43730.57
570.62	44039.52
570.78	43672.06
570.95	43812.49
571.11	44095.69
571.27	43952.92
571.43	43903.77
571.60	44229.10
571.76	43929.51
571.92	44449.11
572.09	44261.87
572.25	44062.93
572.41	43728.23
572.57	43945.90
572.74	44938.29
572.90	44236.12
573.06	43903.77
573.22	44552.10
573.38	44128.46
573.55	44100.37
573.71	44556.78
573.87	44172.93
574.03	44140.16
574.20	44091.01
574.36	44076.97
574.52	44261.87
574.68	44170.59
574.84	44224.42
575.01	44493.58
575.17	44341.45
575.33	44009.09
575.49	44343.79
575.65	44357.83
575.82	44708.91
575.98	44573.16
576.14	44552.10
576.30	44561.46
576.46	44486.56
576.62	44425.71
576.79	44598.91
576.95	43929.51
577.11	44458.48
577.27	44655.08
577.43	44741.68
577.59	44055.90
577.75	44664.44
577.92	43620.56
578.08	44210.38
578.24	44605.93
578.40	44676.15
578.56	44226.76
578.72	44107.40
578.88	44718.28
579.04	44741.68
579.21	44044.20
579.37	44402.30
579.53	44526.35
579.69	44189.31
579.85	44786.15
580.01	44727.64
580.17	44259.53
580.33	44711.25
580.49	44535.71
580.65	44554.44
580.82	44414.01
580.98	43718.87
581.14	44399.96
581.30	44615.29
581.46	44442.09
581.62	44538.05
581.78	44538.05
581.94	44842.32
582.10	44561.46
582.26	44538.05
582.42	44538.05
582.58	44514.65
582.74	44856.37
582.90	44914.88
583.06	44556.78
583.22	44708.91
583.38	44959.35
583.54	44575.50
583.70	44872.75
583.86	44634.02
584.02	44404.64
584.18	44673.81
584.34	44720.62
584.50	44516.99
584.66	43873.34
584.82	44547.42
584.98	44589.55
585.14	45036.59
585.30	44493.58
585.46	44549.76
585.62	44460.82
585.78	44339.11
585.94	44264.21
586.10	44554.44
586.26	44566.14
586.42	44479.54
586.58	44877.43
586.74	44360.17
586.90	44666.78
587.06	44247.83
587.22	44673.81
587.38	44280.60
587.54	44519.33
587.70	45003.82
587.86	44762.75
588.02	44666.78
588.18	44786.15
588.34	44676.15
588.49	44432.73
588.65	44175.27
588.81	44247.83
588.97	44341.45
589.13	44509.97
589.29	44547.42
589.45	44610.61
589.61	44446.77
589.77	44385.92
589.93	44666.78
590.08	44898.50
590.24	44832.96
