SpectraSuite Data File
++++++++++++++++++++++++++++++++++++
Date: Fri Oct 25 11:23:45 EDT 2013
User: price-jones
Dark Spectrum Present: No
Reference Spectrum Present: No
Number of Sampled Component Spectra: 1
Spectrometers: USB2+H05261
Integration Time (usec): 100000 (USB2+H05261)
Spectra Averaged: 1 (USB2+H05261)
Boxcar Smoothing: 0 (USB2+H05261)
Correct for Electrical Dark: No (USB2+H05261)
Strobe/Lamp Enabled: No (USB2+H05261)
Correct for Detector Non-linearity: No (USB2+H05261)
Correct for Stray Light: No (USB2+H05261)
Number of Pixels in Processed Spectrum: 2048
>>>>>Begin Processed Spectral Data<<<<<
365.73	269.16
365.92	269.16
366.12	269.16
366.32	128.73
366.52	138.09
366.72	191.92
366.91	63.19
367.11	170.86
367.31	147.45
367.51	102.98
367.70	79.58
367.90	74.90
368.10	124.05
368.30	121.71
368.49	117.03
368.69	154.48
368.89	208.31
369.09	74.90
369.28	184.90
369.48	156.82
369.68	180.22
369.87	173.20
370.07	191.92
370.27	243.42
370.47	243.42
370.66	566.41
370.86	592.16
371.06	547.69
371.25	599.18
371.45	660.03
371.65	713.86
371.84	746.63
372.04	716.20
372.24	727.91
372.44	678.76
372.63	755.99
372.83	636.63
373.03	737.27
373.22	727.91
373.42	770.04
373.62	807.48
373.81	821.53
374.01	786.42
374.21	833.23
374.40	915.15
374.60	858.98
374.79	798.12
374.99	873.02
375.19	788.76
375.38	800.46
375.58	866.00
375.78	856.64
375.97	903.45
376.17	912.81
376.37	926.85
376.56	917.49
376.76	826.21
376.95	940.90
377.15	917.49
377.35	912.81
377.54	912.81
377.74	894.08
377.93	835.57
378.13	950.26
378.33	990.05
378.52	940.90
378.72	929.19
378.91	947.92
379.11	908.13
379.31	891.74
379.50	940.90
379.70	1015.79
379.89	961.96
380.09	983.02
380.28	1022.81
380.48	1008.77
380.68	978.34
380.87	990.05
381.07	961.96
381.26	1013.45
381.46	997.07
381.65	985.37
381.85	1053.24
382.04	1011.11
382.24	1060.26
382.43	1074.31
382.63	1048.56
382.83	1013.45
383.02	1062.60
383.22	1107.07
383.41	1111.75
383.61	1118.78
383.80	1167.93
384.00	1027.50
384.19	1086.01
384.39	1111.75
384.58	1018.13
384.78	1076.65
384.97	1153.88
385.17	1123.46
385.36	1158.57
385.56	1231.12
385.75	1221.76
385.95	1273.25
386.14	1252.19
386.34	1125.80
386.53	1167.93
386.72	1149.20
386.92	1191.33
387.11	1205.38
387.31	1210.06
387.50	1247.51
387.70	1270.91
387.89	1193.67
388.09	1238.14
388.28	1334.11
388.48	1252.19
388.67	1390.28
388.86	1364.53
389.06	1345.81
389.25	1359.85
389.45	1315.38
389.64	1284.95
389.84	1355.17
390.03	1329.42
390.22	1338.79
390.42	1313.04
390.61	1423.05
390.81	1479.22
391.00	1383.26
391.19	1369.21
391.39	1446.45
391.58	1462.83
391.78	1404.32
391.97	1521.35
392.16	1507.30
392.36	1598.59
392.55	1540.07
392.75	1544.75
392.94	1507.30
393.13	1535.39
393.33	1547.09
393.52	1570.50
393.71	1624.33
393.91	1619.65
394.10	1593.90
394.29	1624.33
394.49	1563.48
394.68	1626.67
394.88	1544.75
395.07	1652.42
395.26	1689.87
395.46	1708.59
395.65	1790.51
395.84	1792.85
396.04	1734.34
396.23	1771.79
396.42	1762.42
396.62	1832.64
396.81	1912.22
397.00	1863.07
397.19	1795.19
397.39	1795.19
397.58	1811.57
397.77	1764.76
397.97	1842.00
398.16	1769.44
398.35	1947.33
398.55	1757.74
398.74	1944.99
398.93	1930.94
399.12	1996.48
399.32	1914.56
399.51	1989.46
399.70	1921.58
399.90	1881.79
400.09	2071.37
400.28	2026.90
400.47	1912.22
400.67	2099.46
400.86	2043.29
401.05	2036.27
401.24	2120.53
401.44	2202.44
401.63	2197.76
401.82	2132.23
402.01	2029.24
402.21	2209.47
402.40	2216.49
402.59	2284.36
402.78	2335.85
402.97	2195.42
403.17	2160.31
403.36	2307.77
403.55	2270.32
403.74	2399.05
403.93	2366.28
404.13	2328.83
404.32	2403.73
404.51	2331.17
404.70	2443.52
404.89	2359.26
405.09	2504.37
405.28	2495.01
405.47	2415.43
405.66	2471.61
405.85	2471.61
406.05	2373.30
406.24	2539.48
406.43	2588.63
406.62	2642.46
406.81	2682.25
407.00	2569.91
407.20	2502.03
407.39	2579.27
407.58	2663.53
407.77	2715.02
407.96	2815.66
408.15	2782.90
408.34	2757.15
408.54	2862.48
408.73	2789.92
408.92	2853.11
409.11	2920.99
409.30	2902.26
409.49	2930.35
409.68	2972.48
409.87	2932.69
410.07	2939.71
410.26	3108.23
410.45	2881.20
410.64	3038.02
410.83	3007.59
411.02	3059.08
411.21	3206.53
411.40	3110.57
411.59	3260.37
411.78	3215.90
411.98	3211.22
412.17	3302.50
412.36	3251.00
412.55	3342.28
412.74	3339.94
412.93	3557.61
413.12	3506.12
413.31	3576.34
413.50	3569.32
413.69	3503.78
413.88	3527.19
414.07	3510.80
414.26	3559.95
414.45	3630.17
414.64	3812.73
414.83	3794.01
415.02	3761.24
415.22	3779.97
415.41	3859.54
415.60	3896.99
415.79	3868.91
415.98	3878.27
416.17	3918.06
416.36	4016.36
416.55	3967.21
416.74	3999.98
416.93	4063.17
417.12	4053.81
417.31	4133.39
417.50	4227.01
417.69	4400.21
417.88	4215.30
418.07	4301.90
418.26	4222.33
418.45	4341.69
418.64	4519.57
418.83	4491.49
419.02	4484.47
419.21	4512.55
419.39	4568.73
419.58	4479.79
419.77	4568.73
419.96	4435.32
420.15	4690.43
420.34	4615.54
420.53	4678.73
420.72	4528.94
420.91	4737.24
421.10	4624.90
421.29	4830.87
421.48	4685.75
421.67	4718.52
421.86	4840.23
422.05	4868.31
422.24	4772.35
422.43	4802.78
422.61	4919.81
422.80	4971.30
422.99	4903.42
423.18	4980.66
423.37	4954.91
423.56	4959.60
423.75	5029.81
423.94	4957.25
424.13	4545.32
424.32	4791.08
424.50	4966.62
424.69	5116.41
424.88	5172.58
425.07	4964.28
425.26	4910.44
425.45	4851.93
425.64	5013.43
425.83	5022.79
426.01	5121.09
426.20	5090.67
426.39	5083.64
426.58	5006.41
426.77	5057.90
426.96	5203.01
427.15	5093.01
427.33	5247.48
427.52	5132.79
427.71	5357.49
427.90	5144.50
428.09	5303.65
428.28	5439.40
428.46	5301.31
428.65	5378.55
428.84	5645.37
429.03	5462.81
429.22	5406.64
429.40	5516.64
429.59	5490.90
429.78	5390.25
429.97	5313.02
430.16	5540.05
430.34	5624.31
430.53	5720.27
430.72	5713.25
430.91	5671.12
431.10	5736.65
431.28	5935.60
431.47	5764.74
431.66	5898.15
431.85	5685.16
432.03	5926.24
432.22	5951.98
432.41	5984.75
432.60	5961.34
432.79	6031.56
432.97	6134.54
433.16	5980.07
433.35	5996.45
433.54	5825.59
433.72	6125.18
433.91	6017.52
434.10	6148.59
434.28	6054.97
434.47	6225.82
434.66	6237.53
434.85	6415.41
435.03	6583.93
435.22	6237.53
435.41	6513.71
435.59	6396.68
435.78	6427.11
435.97	6408.39
436.16	6459.88
436.34	6548.82
436.53	6373.28
436.72	6539.46
436.90	6555.84
437.09	6630.74
437.28	6595.63
437.46	6619.04
437.65	6675.21
437.84	6665.85
438.02	6792.23
438.21	6782.87
438.40	6691.59
438.58	6913.94
438.77	7066.08
438.96	7080.12
439.14	7157.36
439.33	7122.25
439.52	7241.62
439.70	7255.66
439.89	7300.13
440.08	7330.56
440.26	7529.50
440.45	7412.48
440.63	7255.66
440.82	7632.49
441.01	7618.44
441.19	7688.66
441.38	7885.26
441.57	7744.83
441.75	7819.73
441.94	7815.05
442.12	8116.98
442.31	7999.95
442.50	8046.76
442.68	8140.38
442.87	8100.59
443.05	8201.24
443.24	8376.78
443.43	8177.83
443.61	8290.18
443.80	8344.01
443.98	8208.26
444.17	7793.98
444.35	8292.52
444.54	8353.37
444.73	8250.39
444.91	8336.99
445.10	8470.40
445.28	8358.05
445.47	8210.60
445.65	8369.76
445.84	8290.18
446.02	8411.89
446.21	8554.66
446.39	8547.64
446.58	8475.08
446.77	8402.52
446.95	8479.76
447.14	8463.38
447.32	8374.44
447.51	8503.17
447.69	8599.13
447.88	8566.36
448.06	8662.32
448.25	8475.08
448.43	8704.45
448.62	8566.36
448.80	8575.72
448.99	8823.82
449.17	8863.61
449.36	8702.11
449.54	8835.52
449.73	8933.82
449.91	8875.31
450.10	9111.71
450.28	8997.02
450.46	9116.39
450.65	8971.27
450.83	8889.35
451.02	9128.09
451.20	9280.22
451.39	9104.68
451.57	9207.67
451.76	9214.69
451.94	9139.79
452.13	9095.32
452.31	9397.25
452.49	9139.79
452.68	9376.19
452.86	9355.12
453.05	9481.51
453.23	9472.15
453.42	9535.34
453.60	9287.25
453.78	9579.81
453.97	9387.89
454.15	9523.64
454.34	9427.68
454.52	9533.00
454.70	9708.54
454.89	9692.16
455.07	9703.86
455.26	9818.55
455.44	9963.66
455.62	10050.26
455.81	9942.60
455.99	10160.27
456.17	9919.19
456.36	9963.66
456.54	10448.15
456.73	10190.69
456.91	10473.90
457.09	10338.15
457.28	10691.57
457.46	10490.28
457.64	10574.54
457.83	10593.26
458.01	10338.15
458.19	10712.63
458.38	10537.09
458.56	10853.06
458.74	10724.33
458.93	10953.71
459.11	10820.30
459.29	10829.66
459.48	10799.23
459.66	10750.08
459.84	11082.44
460.03	10944.34
460.21	11145.63
460.39	10913.92
460.57	10984.13
460.76	11360.96
460.94	11115.20
461.12	11274.36
461.31	11208.83
461.49	11171.38
461.67	11014.56
461.85	11602.04
462.04	11557.57
462.22	11449.90
462.40	11569.27
462.59	11494.37
462.77	11604.38
462.95	11700.34
463.13	11428.84
463.32	11667.57
463.50	11939.07
463.68	11747.15
463.86	11800.98
464.05	11812.68
464.23	11646.51
464.41	12128.66
464.59	11634.80
464.78	12154.40
464.96	12039.72
465.14	11761.19
465.32	12100.57
465.50	12098.23
465.69	12313.56
465.87	11964.82
466.05	12053.76
466.23	12184.83
466.41	12411.86
466.60	12746.56
466.78	12325.26
466.96	12383.77
467.14	12194.19
467.32	12236.32
467.51	12472.71
467.69	12210.57
467.87	12348.67
468.05	12681.02
468.23	12367.39
468.41	12608.47
468.60	12634.21
468.78	12826.14
468.96	12650.60
469.14	12898.69
469.32	13132.75
469.50	12704.43
469.69	13121.04
469.87	13039.12
470.05	12879.97
470.23	13099.98
470.41	13144.45
470.59	13104.66
470.77	13280.20
470.95	13081.25
471.14	13600.85
471.32	13104.66
471.50	13788.10
471.68	13455.74
471.86	13846.61
472.04	13666.39
472.22	13928.53
472.40	13703.84
472.58	13914.48
472.77	13872.36
472.95	14295.99
473.13	14415.36
473.31	14052.58
473.49	14340.46
473.67	14136.84
473.85	14284.29
474.03	14888.15
474.21	14827.29
474.39	14710.27
474.57	14682.18
474.75	14848.36
474.93	14998.15
475.12	15023.90
475.30	15122.20
475.48	14885.81
475.66	15316.47
475.84	15143.27
476.02	15515.41
476.20	15353.91
476.38	15800.96
476.56	16107.57
476.74	15999.90
476.92	15913.30
477.10	16025.65
477.28	16173.10
477.46	16329.92
477.64	16194.17
477.82	16718.45
478.00	17118.68
478.18	16739.51
478.36	16814.41
478.54	17359.75
478.72	17130.38
478.90	17528.27
479.08	17696.79
479.26	17654.66
479.44	17811.48
479.62	17802.11
479.80	18115.75
479.98	18146.17
480.16	18799.18
480.34	18295.97
480.52	18480.87
480.70	18616.62
480.88	18677.48
481.06	18527.68
481.24	18867.06
481.41	19066.00
481.59	19482.62
481.77	19587.94
481.95	19709.65
482.13	19646.46
482.31	20056.05
482.49	20142.65
482.67	20088.82
482.85	20793.32
483.03	20676.29
483.21	20854.17
483.39	21088.23
483.57	21041.42
483.74	21116.31
483.92	21539.95
484.10	21268.45
484.28	21935.50
484.46	22120.40
484.64	22412.97
484.82	22120.40
485.00	22724.26
485.18	22995.76
485.35	23040.23
485.53	22761.71
485.71	23058.96
485.89	23620.69
486.07	23328.12
486.25	23498.98
486.43	23590.26
486.61	24175.39
486.78	24474.98
486.96	24149.65
487.14	24533.50
487.32	24570.94
487.50	24952.45
487.68	25179.48
487.85	25551.63
488.03	25869.94
488.21	25944.84
488.39	25916.75
488.57	25975.27
488.75	26466.78
488.92	26689.13
489.10	26623.59
489.28	26787.43
489.46	27311.71
489.64	26972.33
489.81	27452.14
489.99	27950.68
490.17	27538.74
490.35	28224.52
490.53	28449.21
490.70	28650.50
490.88	28397.72
491.06	28891.57
491.24	28924.34
491.41	29113.92
491.59	29383.09
491.77	29614.80
491.95	29907.37
492.13	30202.27
492.30	30490.16
492.48	30096.95
492.66	30054.82
492.84	30490.16
493.01	30937.20
493.19	30838.90
493.37	31140.83
493.54	31246.15
493.72	31199.34
493.90	31730.64
494.08	31552.76
494.25	31950.65
494.43	32175.34
494.61	32388.33
494.79	32318.12
494.96	32900.91
495.14	32512.38
495.32	33125.60
495.49	33347.95
495.67	32879.85
495.85	33525.83
496.02	33682.65
496.20	33834.78
496.38	34333.32
496.55	34597.80
496.73	34967.60
496.91	34733.55
497.09	35040.16
497.26	35108.04
497.44	35314.00
497.62	35440.39
497.79	36023.19
497.97	35763.39
498.14	36388.31
498.32	36622.36
498.50	36250.22
498.67	36673.85
498.85	36666.83
499.03	36517.04
499.20	37088.13
499.38	36767.48
499.56	37008.55
499.73	37591.34
499.91	37652.20
500.08	37668.58
500.26	37574.96
500.44	37785.61
500.61	38422.23
500.79	37780.93
500.97	38321.59
501.14	38682.03
501.32	38707.78
501.49	38527.56
501.67	38803.74
501.84	38871.62
502.02	38824.81
502.20	39194.61
502.37	39222.70
502.55	39608.89
502.72	39723.57
502.90	39639.31
503.07	39901.45
503.25	39901.45
503.43	40203.38
503.60	39990.39
503.78	40737.02
503.95	40095.72
504.13	40519.35
504.30	40978.10
504.48	40802.56
504.65	40556.80
504.83	40865.75
505.01	41354.93
505.18	41193.43
505.36	41926.02
505.53	41350.24
505.71	41844.10
505.88	41961.12
506.06	41663.88
506.23	41916.65
506.41	42113.26
506.58	42569.66
506.76	42344.97
506.93	42777.97
507.11	42604.77
507.28	43335.02
507.46	42513.49
507.63	43330.34
507.81	43360.76
507.98	43264.80
508.16	43356.08
508.33	43524.60
508.50	43920.15
508.68	44053.56
508.85	44229.10
509.03	43629.93
509.20	44727.64
509.38	44516.99
509.55	44598.91
509.73	45043.61
509.90	44729.98
510.08	44781.47
510.25	45050.63
510.42	44968.71
510.60	45001.48
510.77	45434.48
510.95	45539.80
511.12	45375.97
511.30	45654.49
511.47	45567.89
511.64	46087.49
511.82	46160.05
511.99	46024.29
512.17	46485.38
512.34	46153.02
512.51	46368.35
512.69	46689.01
512.86	46754.54
513.04	46438.57
513.21	47339.68
513.38	46850.50
513.56	46902.00
513.73	46784.97
513.90	47379.46
514.08	47262.44
514.25	47449.68
514.43	47662.67
514.60	47540.96
514.77	48105.03
514.95	47639.26
515.12	47555.00
515.29	47971.62
515.47	48163.54
515.64	48264.19
515.81	47927.15
515.99	48060.56
516.16	48821.23
516.33	48430.36
516.51	48554.41
516.68	48507.60
516.85	48952.30
517.03	49031.88
517.20	49191.04
517.37	49113.80
517.54	49165.29
517.72	49310.41
517.89	49312.75
518.06	49223.81
518.24	49375.94
518.41	49776.17
518.58	49476.58
518.75	49839.37
518.93	49256.57
519.10	49872.14
519.27	49766.81
519.45	50160.02
519.62	50253.64
519.79	50457.27
519.96	50408.12
520.14	50218.53
520.31	50167.04
520.48	50277.05
520.65	50593.02
520.83	50806.01
521.00	50752.18
521.17	50588.34
521.34	50604.72
521.52	50885.59
521.69	50972.19
521.86	51236.67
522.03	51210.92
522.20	51461.36
522.38	51774.99
522.55	51550.30
522.72	51447.32
522.89	51866.27
523.07	51962.23
523.24	51412.21
523.41	51943.51
523.58	51697.75
523.75	51922.44
523.92	51810.10
524.10	52193.95
524.27	52039.47
524.44	51945.85
524.61	52006.70
524.78	52360.12
524.96	52296.93
525.13	52619.92
525.30	52669.08
525.47	52491.19
525.64	52336.72
525.81	53081.01
525.98	52713.55
526.16	52662.05
526.33	52914.83
526.50	53195.70
526.67	53116.12
526.84	52966.32
527.01	52877.38
527.18	53092.71
527.36	53193.36
527.53	53532.73
527.70	53722.32
527.87	53258.89
528.04	53481.24
528.21	53460.18
528.38	53418.05
528.55	53752.74
528.72	53605.29
528.89	53635.72
529.07	53406.34
529.24	53453.15
529.41	53743.38
529.58	53799.55
529.75	53656.78
529.92	53834.66
530.09	54181.06
530.26	54099.14
530.43	54080.42
530.60	53996.16
530.77	53801.89
530.94	54075.74
531.11	54143.61
531.28	54475.97
531.46	54312.13
531.63	54218.51
531.80	54349.58
531.97	54712.36
532.14	54316.81
532.31	54384.69
532.48	54707.68
532.65	54602.36
532.82	54511.08
532.99	54731.09
533.16	54808.32
533.33	54904.29
533.50	55203.88
533.67	54653.85
533.84	54724.07
534.01	55033.02
534.18	54899.61
534.35	55220.26
534.52	55147.70
534.69	55470.70
534.86	55035.36
535.03	55297.50
535.20	55185.15
535.37	55545.59
535.54	55475.38
535.71	55344.31
535.88	55880.29
536.05	55440.27
536.22	55739.86
536.38	55679.00
536.55	55716.45
536.72	55512.83
536.89	55606.45
537.06	55702.41
537.23	55971.57
537.40	55732.84
537.57	56060.51
537.74	55831.14
537.91	56259.46
538.08	55978.59
538.25	55959.87
538.42	56069.87
538.59	56236.05
538.75	56126.05
538.92	56093.28
539.09	56439.68
539.26	56420.95
539.43	56147.11
539.60	56343.72
539.77	56474.79
539.94	56491.17
540.11	56322.65
540.28	56509.89
540.44	56643.30
540.61	56437.34
540.78	56573.09
540.95	56727.56
541.12	56694.80
541.29	56591.81
541.46	56708.84
541.62	56535.64
541.79	56601.18
541.96	56542.66
542.13	56722.88
542.30	56842.25
542.47	56933.53
542.63	57106.73
542.80	56851.61
542.97	57216.74
543.14	57254.18
543.31	57291.63
543.48	57205.03
543.64	57874.43
543.81	57305.68
543.98	57425.04
544.15	57247.16
544.32	57701.23
544.48	57649.74
544.65	57483.56
544.82	57621.65
544.99	57439.09
545.16	57609.95
545.32	57626.33
545.49	57939.96
545.66	57820.59
545.83	57792.51
546.00	57785.49
546.16	57628.67
546.33	57633.35
546.50	57661.44
546.67	57961.03
546.83	57584.20
547.00	57820.59
547.17	57808.89
547.34	58005.50
547.50	58267.64
547.67	58087.42
547.84	57982.09
548.00	58382.32
548.17	58354.24
548.34	58122.52
548.51	58583.61
548.67	58312.11
548.84	58291.04
549.01	58080.39
549.18	58354.24
549.34	58272.32
549.51	58515.73
549.68	58410.41
549.84	58431.47
550.01	58525.10
550.18	58370.62
550.34	58497.01
550.51	58808.30
550.68	58473.60
550.84	58372.96
551.01	58850.43
551.18	58578.93
551.34	58466.58
551.51	58670.21
551.68	58805.96
551.84	58663.19
552.01	58536.80
552.18	58838.73
552.34	58759.15
552.51	58845.75
552.68	58812.98
552.84	58728.72
553.01	59110.23
553.18	58866.81
553.34	59105.55
553.51	58693.61
553.67	58883.20
553.84	59241.30
554.01	59168.74
554.17	59014.27
554.34	59224.92
554.51	59054.06
554.67	59070.44
554.84	59178.10
555.00	58988.52
555.17	58918.31
555.33	59264.70
555.50	59257.68
555.67	58976.82
555.83	59131.29
556.00	59248.32
556.16	59316.20
556.33	59339.60
556.50	59217.89
556.66	59339.60
556.83	59229.60
556.99	59632.17
557.16	59578.34
557.32	59564.29
557.49	59554.93
557.65	59379.39
557.82	59447.27
557.98	59561.95
558.15	59613.44
558.32	59728.13
558.48	59412.16
558.65	59657.91
558.81	59592.38
558.98	59496.42
559.14	59737.49
559.31	59803.03
559.47	59728.13
559.64	59800.69
559.80	59779.62
559.97	59803.03
560.13	59831.11
560.30	59744.51
560.46	59714.09
560.63	60072.19
560.79	59920.05
560.96	60032.40
561.12	59985.59
561.29	60069.85
561.45	60142.41
561.61	59847.50
561.78	60154.11
561.94	59973.89
562.11	59690.68
562.27	59948.14
562.44	60257.09
562.60	60079.21
562.77	60090.91
562.93	59725.79
563.10	60217.30
563.26	59957.50
563.42	60327.31
563.59	60072.19
563.75	60018.36
563.92	60240.71
564.08	60111.98
564.24	60374.12
564.41	60243.05
564.57	60137.72
564.74	60205.60
564.90	60165.81
565.07	60219.64
565.23	60191.56
565.39	60083.89
565.56	60322.63
565.72	60383.48
565.88	60200.92
566.05	60313.26
566.21	60119.00
566.38	60413.91
566.54	60413.91
566.70	60535.62
566.87	60282.84
567.03	60294.54
567.19	60411.57
567.36	60547.32
567.52	60423.27
567.68	60554.34
567.85	60488.80
568.01	60317.95
568.17	60549.66
568.34	60514.55
568.50	60374.12
568.66	60224.32
568.83	60409.23
568.99	60528.59
569.15	60690.09
569.32	60509.87
569.48	60556.68
569.64	60748.60
569.81	60474.76
569.97	60404.55
570.13	60598.81
570.30	60449.02
570.46	60514.55
570.62	60549.66
570.78	60776.69
570.95	60486.46
571.11	60781.37
571.27	60523.91
571.43	60404.55
571.60	60811.80
571.76	60662.00
571.92	60762.65
572.09	60701.79
572.25	60666.69
572.41	60486.46
572.57	60664.35
572.74	60994.36
572.90	60734.56
573.06	60823.50
573.22	60629.24
573.38	60584.77
573.55	60711.16
573.71	60898.40
573.87	60633.92
574.03	60657.32
574.20	60729.88
574.36	60837.54
574.52	60807.12
574.68	60935.85
574.84	61013.08
575.01	60800.10
575.17	60795.42
575.33	60872.65
575.49	60657.32
575.65	60907.76
575.82	60975.64
575.98	60891.38
576.14	61036.49
576.30	60884.36
576.46	60692.43
576.62	60830.52
576.79	60781.37
576.95	60825.84
577.11	60713.50
577.27	61029.47
577.43	60994.36
577.59	60980.32
577.75	60874.99
577.92	60779.03
578.08	60970.96
578.24	60921.80
578.40	60947.55
578.56	61041.17
578.72	60867.97
578.88	61087.98
579.04	60977.98
579.21	60947.55
579.37	61125.43
579.53	61010.74
579.69	60903.08
579.85	60832.86
580.01	61006.06
580.17	60872.65
580.33	61244.80
580.49	61006.06
580.65	61055.21
580.82	60912.44
580.98	60865.63
581.14	60942.87
581.30	60968.61
581.46	61190.97
581.62	61017.77
581.78	60821.16
581.94	61190.97
582.10	61188.63
582.26	61057.56
582.42	61048.19
582.58	60952.23
582.74	61022.45
582.90	61064.58
583.06	61233.10
583.22	60762.65
583.38	60860.95
583.54	61284.59
583.70	61169.90
583.86	61062.24
584.02	61109.05
584.18	61153.52
584.34	61240.12
584.50	61024.79
584.66	60970.96
584.82	60736.90
584.98	61247.14
585.14	61181.60
585.30	60898.40
585.46	61167.56
585.62	61083.30
585.78	61272.88
585.94	61113.73
586.10	61153.52
586.26	60982.66
586.42	61169.90
586.58	61233.10
586.74	61286.93
586.90	60800.10
587.06	61212.03
587.22	61139.47
587.38	61066.92
587.54	61247.14
587.70	61378.21
587.86	61209.69
588.02	61104.37
588.18	61338.42
588.34	60966.27
588.49	61146.50
