SpectraSuite Data File
++++++++++++++++++++++++++++++++++++
Date: Fri Oct 25 11:23:36 EDT 2013
User: price-jones
Dark Spectrum Present: No
Reference Spectrum Present: No
Number of Sampled Component Spectra: 1
Spectrometers: USB2+H05261
Integration Time (usec): 100000 (USB2+H05261)
Spectra Averaged: 1 (USB2+H05261)
Boxcar Smoothing: 0 (USB2+H05261)
Correct for Electrical Dark: No (USB2+H05261)
Strobe/Lamp Enabled: No (USB2+H05261)
Correct for Detector Non-linearity: No (USB2+H05261)
Correct for Stray Light: No (USB2+H05261)
Number of Pixels in Processed Spectrum: 2048
>>>>>Begin Processed Spectral Data<<<<<
365.73	252.78
365.92	252.78
366.12	252.78
366.32	159.16
366.52	149.79
366.72	166.18
366.91	72.56
367.11	149.79
367.31	93.62
367.51	93.62
367.70	135.75
367.90	74.90
368.10	86.60
368.30	168.52
368.49	65.54
368.69	135.75
368.89	189.58
369.09	131.07
369.28	189.58
369.48	187.24
369.68	135.75
369.87	198.95
370.07	182.56
370.27	318.31
370.47	332.36
370.66	528.96
370.86	634.29
371.06	580.45
371.25	662.37
371.45	674.07
371.65	603.86
371.84	720.88
372.04	718.54
372.24	795.78
372.44	702.16
372.63	763.01
372.83	718.54
373.03	744.29
373.22	720.88
373.42	758.33
373.62	758.33
373.81	716.20
374.01	828.55
374.21	777.06
374.40	741.95
374.60	847.27
374.79	777.06
374.99	821.53
375.19	833.23
375.38	816.85
375.58	840.25
375.78	814.51
375.97	849.61
376.17	933.87
376.37	884.72
376.56	851.96
376.76	697.48
376.95	826.21
377.15	837.91
377.35	870.68
377.54	877.70
377.74	910.47
377.93	830.89
378.13	891.74
378.33	875.36
378.52	919.83
378.72	947.92
378.91	917.49
379.11	910.47
379.31	973.66
379.50	959.62
379.70	957.28
379.89	917.49
380.09	987.71
380.28	1008.77
380.48	1008.77
380.68	1008.77
380.87	924.51
381.07	908.13
381.26	1039.20
381.46	1046.22
381.65	954.94
381.85	966.64
382.04	1139.84
382.24	1067.28
382.43	1060.26
382.63	1067.28
382.83	1067.28
383.02	1121.12
383.22	1104.73
383.41	1069.62
383.61	1121.12
383.80	1177.29
384.00	1086.01
384.19	1153.88
384.39	1153.88
384.58	1121.12
384.78	1151.54
384.97	1160.91
385.17	1135.16
385.36	1151.54
385.56	1191.33
385.75	1245.16
385.95	1245.16
386.14	1226.44
386.34	1158.57
386.53	1151.54
386.72	1128.14
386.92	1217.08
387.11	1249.85
387.31	1254.53
387.50	1188.99
387.70	1191.33
387.89	1287.29
388.09	1217.08
388.28	1280.27
388.48	1317.72
388.67	1277.93
388.86	1261.55
389.06	1299.00
389.25	1317.72
389.45	1446.45
389.64	1364.53
389.84	1315.38
390.03	1350.49
390.22	1355.17
390.42	1380.92
390.61	1355.17
390.81	1423.05
391.00	1479.22
391.19	1432.41
391.39	1416.02
391.58	1439.43
391.78	1439.43
391.97	1469.86
392.16	1413.68
392.36	1476.88
392.55	1497.94
392.75	1472.20
392.94	1490.92
393.13	1544.75
393.33	1488.58
393.52	1589.22
393.71	1575.18
393.91	1603.27
394.10	1612.63
394.29	1551.78
394.49	1516.67
394.68	1575.18
394.88	1652.42
395.07	1673.48
395.26	1666.46
395.46	1687.53
395.65	1741.36
395.84	1673.48
396.04	1795.19
396.23	1750.72
396.42	1783.49
396.62	1877.11
396.81	1746.04
397.00	1823.28
397.19	1764.76
397.39	1795.19
397.58	1860.73
397.77	1806.89
397.97	1830.30
398.16	1996.48
398.35	1959.03
398.55	1907.54
398.74	1944.99
398.93	1987.11
399.12	1975.41
399.32	1919.24
399.51	1940.30
399.70	1982.43
399.90	2022.22
400.09	1989.46
400.28	2141.59
400.47	2024.56
400.67	1984.77
400.86	2022.22
401.05	2052.65
401.24	2122.87
401.44	2150.95
401.63	2146.27
401.82	2207.13
402.01	2099.46
402.21	2120.53
402.40	2101.80
402.59	2157.97
402.78	2251.60
402.97	2228.19
403.17	2209.47
403.36	2305.43
403.55	2179.04
403.74	2246.91
403.93	2483.31
404.13	2359.26
404.32	2392.03
404.51	2431.82
404.70	2410.75
404.89	2326.49
405.09	2502.03
405.28	2399.05
405.47	2455.22
405.66	2546.50
405.85	2539.48
406.05	2565.23
406.24	2490.33
406.43	2597.99
406.62	2679.91
406.81	2616.72
407.00	2504.37
407.20	2644.81
407.39	2605.02
407.58	2658.85
407.77	2712.68
407.96	2708.00
408.15	2874.18
408.34	2745.45
408.54	2780.56
408.73	2761.83
408.92	2778.22
409.11	2890.56
409.30	2932.69
409.49	3080.14
409.68	2984.18
409.87	2963.12
410.07	2913.97
410.26	3014.61
410.45	3073.12
410.64	3049.72
410.83	3075.46
411.02	3012.27
411.21	3199.51
411.40	3112.91
411.59	3262.71
411.78	3101.21
411.98	3253.34
412.17	3297.81
412.36	3361.01
412.55	3461.65
412.74	3426.54
412.93	3456.97
413.12	3304.84
413.31	3550.59
413.50	3417.18
413.69	3506.12
413.88	3510.80
414.07	3611.45
414.26	3698.05
414.45	3630.17
414.64	3674.64
414.83	3679.32
415.02	3747.20
415.22	3850.18
415.41	3932.10
415.60	3913.38
415.79	3908.69
415.98	3960.19
416.17	3955.51
416.36	4039.76
416.55	3939.12
416.74	4007.00
416.93	4159.13
417.12	4332.33
417.31	4243.39
417.50	4149.77
417.69	4231.69
417.88	4409.57
418.07	4376.80
418.26	4287.86
418.45	4374.46
418.64	4421.27
418.83	4388.50
419.02	4503.19
419.21	4538.30
419.39	4566.39
419.58	4416.59
419.77	4528.94
419.96	4566.39
420.15	4643.62
420.34	4685.75
420.53	4676.39
420.72	4664.69
420.91	4601.49
421.10	4770.01
421.29	4760.65
421.48	4557.02
421.67	4826.18
421.86	4559.36
422.05	4816.82
422.24	4734.90
422.43	4983.00
422.61	5100.03
422.80	5015.77
422.99	4884.70
423.18	5043.85
423.37	5034.49
423.56	4966.62
423.75	4842.57
423.94	4861.29
424.13	4638.94
424.32	4784.06
424.50	5022.79
424.69	5015.77
424.88	4957.25
425.07	4896.40
425.26	5015.77
425.45	4936.19
425.64	4999.38
425.83	4964.28
426.01	5100.03
426.20	5067.26
426.39	5172.58
426.58	5011.09
426.77	5083.64
426.96	5156.20
427.15	5135.14
427.33	5212.37
427.52	5188.97
427.71	5324.72
427.90	5245.14
428.09	5479.19
428.28	5336.42
428.46	5268.55
428.65	5526.00
428.84	5570.48
429.03	5633.67
429.22	5266.21
429.40	5495.58
429.59	5446.43
429.78	5308.34
429.97	5219.39
430.16	5542.39
430.34	5694.52
430.53	5600.90
430.72	5746.02
430.91	5619.63
431.10	5614.95
431.28	5830.27
431.47	5853.68
431.66	5893.47
431.85	5872.40
432.03	5975.39
432.22	5928.58
432.41	5806.87
432.60	5937.94
432.79	5970.71
432.97	5966.03
433.16	6101.78
433.35	5984.75
433.54	6101.78
433.72	6160.29
433.91	5893.47
434.10	6223.48
434.28	6005.81
434.47	6218.80
434.66	6319.45
434.85	6193.06
435.03	6338.17
435.22	6249.23
435.41	6473.92
435.59	6345.19
435.78	6506.69
435.97	6420.09
436.16	6546.48
436.34	6366.26
436.53	6513.71
436.72	6663.51
436.90	6506.69
437.09	6516.05
437.28	6359.24
437.46	6642.44
437.65	6649.46
437.84	6757.13
438.02	6796.92
438.21	6565.20
438.40	6733.72
438.58	6923.30
438.77	7096.50
438.96	7063.74
439.14	7047.35
439.33	7258.00
439.52	7059.06
439.70	7265.02
439.89	7253.32
440.08	7293.11
440.26	7438.22
440.45	7162.04
440.63	7543.55
440.82	7644.19
441.01	7581.00
441.19	7777.60
441.38	7882.92
441.57	7655.89
441.75	7915.69
441.94	8109.96
442.12	8124.00
442.31	7976.55
442.50	7850.16
442.68	7997.61
442.87	8131.02
443.05	7871.22
443.24	8226.98
443.43	8320.60
443.61	8273.79
443.80	8336.99
443.98	7955.48
444.17	7847.82
444.35	8044.42
444.54	8318.26
444.73	8252.73
444.91	8189.53
445.10	8463.38
445.28	8301.88
445.47	8283.16
445.65	8259.75
445.84	8437.63
446.02	8566.36
446.21	8411.89
446.39	8409.54
446.58	8489.12
446.77	8650.62
446.95	8276.13
447.14	8430.61
447.32	8463.38
447.51	8395.50
447.69	8423.59
447.88	8664.66
448.06	8542.96
448.25	8374.44
448.43	8695.09
448.62	8664.66
448.80	8496.14
448.99	8627.21
449.17	8875.31
449.36	8650.62
449.54	9015.74
449.73	8945.53
449.91	9060.21
450.10	8978.30
450.28	9013.40
450.46	9259.16
450.65	8999.36
450.83	9050.85
451.02	9076.60
451.20	8961.91
451.39	9144.47
451.57	9055.53
451.76	9081.28
451.94	9076.60
452.13	9308.31
452.31	9352.78
452.49	9390.23
452.68	9219.37
452.86	9378.53
453.05	9238.09
453.23	9497.89
453.42	9320.01
453.60	9245.12
453.78	9558.75
453.97	9504.92
454.15	9401.93
454.34	9427.68
454.52	9811.53
454.70	9563.43
454.89	9783.44
455.07	9816.21
455.26	9858.34
455.44	9928.55
455.62	10019.83
455.81	9949.62
455.99	10225.80
456.17	10303.04
456.36	9991.75
456.54	10099.41
456.73	10207.08
456.91	10686.89
457.09	10473.90
457.28	10611.99
457.46	10434.11
457.64	10670.50
457.83	10429.43
458.01	10548.79
458.19	10689.23
458.38	10593.26
458.56	10593.26
458.74	10721.99
458.93	10616.67
459.11	10696.25
459.29	10970.09
459.48	10658.80
459.66	10712.63
459.84	10867.11
460.03	11052.01
460.21	10892.85
460.39	10801.57
460.57	10949.03
460.76	11052.01
460.94	11311.81
461.12	11145.63
461.31	11236.91
461.49	11246.27
461.67	10902.22
461.85	11243.93
462.04	11426.50
462.22	11410.11
462.40	11756.51
462.59	11529.48
462.77	11454.58
462.95	11564.59
463.13	11571.61
463.32	11786.94
463.50	11639.48
463.68	11948.43
463.86	11847.79
464.05	11796.30
464.23	11751.83
464.41	11817.36
464.59	11709.70
464.78	12056.10
464.96	12037.38
465.14	11824.39
465.32	12283.13
465.50	12219.94
465.69	12297.17
465.87	12156.74
466.05	12016.31
466.23	12404.84
466.41	12503.14
466.60	12589.74
466.78	12315.90
466.96	12067.80
467.14	12266.75
467.32	12367.39
467.51	12643.57
467.69	12358.03
467.87	12620.17
468.05	12648.26
468.23	12432.93
468.41	12578.04
468.60	12589.74
468.78	12816.77
468.96	12716.13
469.14	12784.01
469.32	12912.74
469.50	12683.36
469.69	13008.70
469.87	13228.71
470.05	13146.79
470.23	13322.33
470.41	13114.02
470.59	13331.69
470.77	13324.67
470.95	13310.63
471.14	13804.48
471.32	13202.96
471.50	13851.29
471.68	13626.60
471.86	13556.38
472.04	13886.40
472.22	14019.81
472.40	13675.75
472.58	13884.06
472.77	13862.99
472.95	14057.26
473.13	14761.76
473.31	14085.34
473.49	14026.83
473.67	14228.12
473.85	14345.14
474.03	14799.21
474.21	14417.70
474.39	14661.12
474.57	14787.50
474.75	14871.76
474.93	15035.60
475.12	15014.54
475.30	15335.19
475.48	15019.22
475.66	15173.69
475.84	15236.89
476.02	15492.01
476.20	15758.83
476.38	15592.65
476.56	15805.64
476.74	15999.90
476.92	15728.40
477.10	15936.71
477.28	16121.61
477.46	16297.15
477.64	16444.60
477.82	16580.36
478.00	16950.16
478.18	16924.41
478.36	16659.93
478.54	17322.30
478.72	17385.50
478.90	17626.57
479.08	17790.41
479.26	17640.62
479.44	17579.76
479.62	17727.22
479.80	18155.54
479.98	18480.87
480.16	18553.43
480.34	18251.50
480.52	18485.55
480.70	18679.82
480.88	18487.89
481.06	18799.18
481.24	18771.10
481.41	18963.02
481.59	19323.46
481.77	19499.00
481.95	19695.61
482.13	19564.54
482.31	19861.79
482.49	20409.47
482.67	20386.07
482.85	20650.55
483.03	20596.71
483.21	20980.56
483.39	20982.90
483.57	20952.48
483.74	21200.57
483.92	21490.80
484.10	21413.56
484.28	22066.57
484.46	22190.62
484.64	22101.68
484.82	21832.52
485.00	22377.86
485.18	22815.54
485.35	23047.26
485.53	23096.41
485.71	22820.22
485.89	23592.60
486.07	23367.91
486.25	23616.01
486.43	23597.28
486.61	23843.04
486.78	24065.39
486.96	24287.74
487.14	24725.42
487.32	24922.02
487.50	25064.80
487.68	24875.21
487.85	25184.16
488.03	25818.45
488.21	26096.97
488.39	26061.87
488.57	26211.66
488.75	26176.55
488.92	26525.29
489.10	26785.09
489.28	27065.96
489.46	27255.54
489.64	27243.84
489.81	27559.81
489.99	27721.30
490.17	27992.81
490.35	28596.67
490.53	28416.44
490.70	28505.38
490.88	28421.13
491.06	29184.14
491.24	28374.31
491.41	29291.80
491.59	29628.84
491.77	29340.96
491.95	29717.78
492.13	29876.94
492.30	30113.33
492.48	30368.45
492.66	30363.77
492.84	30616.55
493.01	31129.12
493.19	30668.04
493.37	30976.99
493.54	31159.55
493.72	31599.57
493.90	31386.58
494.08	31938.95
494.25	31864.05
494.43	31786.82
494.61	32360.25
494.79	32723.03
494.96	32739.41
495.14	33064.75
495.32	33322.21
495.49	33198.16
495.67	33336.25
495.85	33666.27
496.02	34040.75
496.20	34080.54
496.38	34281.83
496.55	34117.99
496.73	34951.22
496.91	34642.27
497.09	34930.16
497.26	35026.12
497.44	35276.55
497.62	35367.84
497.79	35819.56
497.97	35512.95
498.14	36627.04
498.32	36123.83
498.50	36081.70
498.67	36825.99
498.85	36816.63
499.03	36723.01
499.20	37223.88
499.38	36996.85
499.56	37195.79
499.73	37132.60
499.91	37263.67
500.08	37652.20
500.26	37666.24
500.44	37612.41
500.61	37736.46
500.79	38377.76
500.97	38223.29
501.14	38932.47
501.32	38658.63
501.49	38476.07
501.67	38773.31
501.84	39267.17
502.02	39063.54
502.20	39192.27
502.37	39824.22
502.55	39494.20
502.72	39688.46
502.90	39557.39
503.07	39620.59
503.25	39985.71
503.43	39548.03
503.60	39920.18
503.78	40266.58
503.95	40203.38
504.13	41027.25
504.30	40971.08
504.48	40442.12
504.65	41141.94
504.83	41045.97
505.01	41352.58
505.18	41282.37
505.36	41794.95
505.53	41368.97
505.71	41432.16
505.88	41783.24
506.06	41706.01
506.23	42045.38
506.41	42094.53
506.58	42490.09
506.76	41970.49
506.93	42705.41
507.11	42742.86
507.28	42754.57
507.46	42808.40
507.63	42969.90
507.81	43442.68
507.98	43466.09
508.16	43295.23
508.33	43349.06
508.50	43365.45
508.68	43856.96
508.85	44198.68
509.03	43718.87
509.20	44135.48
509.38	44343.79
509.55	44566.14
509.73	44825.94
509.90	44884.45
510.08	44486.56
510.25	44900.84
510.42	45198.09
510.60	44945.31
510.77	45404.05
510.95	45413.41
511.12	45368.94
511.30	45584.27
511.47	45797.26
511.64	45993.87
511.82	45717.68
511.99	45745.77
512.17	46281.75
512.34	46043.02
512.51	46347.29
512.69	46316.86
512.86	46480.70
513.04	46784.97
513.21	46773.27
513.38	46665.60
513.56	47136.05
513.73	46890.29
513.90	47346.70
514.08	46920.72
514.25	47409.89
514.43	47550.32
514.60	47632.24
514.77	47330.31
514.95	47910.77
515.12	47817.14
515.29	47929.49
515.47	47945.87
515.64	48004.39
515.81	48282.91
515.99	48437.39
516.16	48849.32
516.33	48655.06
516.51	48954.64
516.68	48512.28
516.85	48945.28
517.03	48818.89
517.20	49024.86
517.37	48566.12
517.54	48832.94
517.72	49038.90
517.89	49172.31
518.06	49230.83
518.24	49233.17
518.41	49900.22
518.58	49752.77
518.75	49610.00
518.93	49617.02
519.10	49591.27
519.27	49790.22
519.45	49949.37
519.62	49968.10
519.79	50113.21
519.96	49970.44
520.14	50148.32
520.31	50050.02
520.48	50483.01
520.65	50546.21
520.83	51063.47
521.00	51065.81
521.17	50831.75
521.34	50824.73
521.52	51035.38
521.69	50824.73
521.86	51063.47
522.03	51257.73
522.20	51760.95
522.38	51625.20
522.55	51152.41
522.72	51316.25
522.89	51297.52
523.07	51695.41
523.24	51760.95
523.41	51915.42
523.58	51779.67
523.75	52119.05
523.92	51952.87
524.10	52493.54
524.27	52317.99
524.44	52278.21
524.61	52032.45
524.78	52090.96
524.96	52463.11
525.13	52603.54
525.30	52753.33
525.47	52526.30
525.64	52409.28
525.81	52662.05
525.98	52877.38
526.16	52956.96
526.33	52732.27
526.50	52903.13
526.67	52851.64
526.84	53240.17
527.01	52914.83
527.18	52872.70
527.36	53205.06
527.53	53373.58
527.70	53450.81
527.87	53518.69
528.04	53506.99
528.21	53483.58
528.38	53226.12
528.55	53441.45
528.72	53457.84
528.89	53488.26
529.07	53420.39
529.24	53764.45
529.41	53928.28
529.58	53848.71
529.75	53937.65
529.92	53825.30
530.09	53904.88
530.26	53970.41
530.43	53818.28
530.60	54106.16
530.77	53947.01
530.94	54152.97
531.11	54157.66
531.28	54300.43
531.46	54480.65
531.63	54277.02
531.80	54347.24
531.97	54438.52
532.14	54506.40
532.31	54485.33
532.48	54782.58
532.65	54742.79
532.82	54363.62
532.99	54990.89
533.16	54686.62
533.33	54962.80
533.50	54983.86
533.67	55091.53
533.84	54939.39
534.01	54960.46
534.18	55070.46
534.35	55543.25
534.52	55054.08
534.69	55346.65
534.86	55412.18
535.03	55208.56
535.20	55419.20
535.37	55271.75
535.54	55578.36
535.71	55213.24
535.88	55753.90
536.05	55648.58
536.22	55760.92
536.38	55688.37
536.55	55861.57
536.72	55856.88
536.89	55725.81
537.06	55784.33
537.23	56079.24
537.40	55679.00
537.57	55561.98
537.74	55931.78
537.91	56011.36
538.08	56034.77
538.25	56062.85
538.42	55990.30
538.59	56229.03
538.75	56067.53
538.92	56198.60
539.09	56156.47
539.26	56100.30
539.43	55969.23
539.60	56339.04
539.77	56367.12
539.94	56451.38
540.11	56406.91
540.28	56610.54
540.44	56741.61
540.61	56727.56
540.78	56402.23
540.95	56439.68
541.12	56612.88
541.29	56495.85
541.46	56629.26
541.62	56722.88
541.79	56914.81
541.96	56631.60
542.13	56680.75
542.30	56821.19
542.47	56905.44
542.63	57045.88
542.80	57076.30
542.97	57151.20
543.14	57251.84
543.31	57336.10
543.48	57186.31
543.64	57535.05
543.81	57411.00
543.98	57701.23
544.15	57256.53
544.32	57359.51
544.48	57385.25
544.65	57432.07
544.82	57595.90
544.99	57528.03
545.16	57455.47
545.32	57317.38
545.49	57860.38
545.66	57844.00
545.83	57691.86
546.00	57883.79
546.16	57776.12
546.33	57623.99
546.50	57488.24
546.67	57722.29
546.83	57436.75
547.00	57708.25
547.17	57841.66
547.34	57963.37
547.50	58230.19
547.67	58122.52
547.84	58127.20
548.00	58272.32
548.17	58272.32
548.34	58145.93
548.51	58403.39
548.67	58379.98
548.84	58159.97
549.01	58085.07
549.18	58157.63
549.34	58237.21
549.51	58262.96
549.68	58279.34
549.84	58209.12
550.01	58534.46
550.18	58370.62
550.34	58504.03
550.51	58625.74
550.68	58873.84
550.84	58534.46
551.01	58555.52
551.18	58412.75
551.34	58602.33
551.51	58602.33
551.68	58625.74
551.84	58642.12
552.01	58602.33
552.18	58937.03
552.34	58595.31
552.51	59056.40
552.68	58480.63
552.84	58787.24
553.01	59068.10
553.18	58894.90
553.34	58934.69
553.51	58897.24
553.67	58834.05
553.84	59058.74
554.01	59021.29
554.17	58967.46
554.34	59150.02
554.51	59157.04
554.67	59168.74
554.84	59166.40
555.00	59145.34
555.17	59100.87
555.33	59285.77
555.50	59157.04
555.67	59030.65
555.83	58969.80
556.00	59196.83
556.16	59547.91
556.33	59508.12
556.50	59412.16
556.66	59430.88
556.83	59178.10
556.99	59557.27
557.16	59360.67
557.32	59711.75
557.49	59510.46
557.65	59414.50
557.82	59597.06
557.98	59451.95
558.15	59681.32
558.32	59550.25
558.48	59559.61
558.65	59402.80
558.81	59512.80
558.98	59634.51
559.14	59489.40
559.31	59772.60
559.47	59760.90
559.64	59662.60
559.80	59744.51
559.97	59735.15
560.13	59828.77
560.30	59819.41
560.46	59835.80
560.63	59732.81
560.79	59852.18
560.96	60229.01
561.12	59964.52
561.29	60039.42
561.45	60051.12
561.61	59901.33
561.78	59803.03
561.94	59742.17
562.11	59903.67
562.27	60172.83
562.44	60147.09
562.60	60111.98
562.77	60097.94
562.93	59863.88
563.10	60128.36
563.26	60182.19
563.42	60243.05
563.59	60004.31
563.75	60210.28
563.92	60135.38
564.08	60102.62
564.24	60498.17
564.41	60381.14
564.57	60226.66
564.74	60156.45
564.90	60362.42
565.07	60271.14
565.23	60266.45
565.39	60294.54
565.56	60413.91
565.72	60147.09
565.88	60285.18
566.05	60217.30
566.21	60381.14
566.38	60371.78
566.54	60327.31
566.70	60224.32
566.87	60395.18
567.03	60271.14
567.19	60654.98
567.36	60357.74
567.52	60413.91
567.68	60601.15
567.85	60331.99
568.01	60493.49
568.17	60303.90
568.34	60502.85
568.50	60533.28
568.66	60432.63
568.83	60704.13
568.99	60526.25
569.15	60582.43
569.32	60395.18
569.48	60608.17
569.64	60645.62
569.81	60617.53
569.97	60357.74
570.13	60662.00
570.30	60343.69
570.46	60624.56
570.62	60582.43
570.78	60467.74
570.95	60605.83
571.11	60718.18
571.27	60549.66
571.43	60779.03
571.60	60715.84
571.76	60601.15
571.92	60762.65
572.09	60779.03
572.25	60659.66
572.41	60594.13
572.57	60584.77
572.74	60968.61
572.90	60552.00
573.06	60762.65
573.22	60790.73
573.38	60664.35
573.55	60748.60
573.71	60818.82
573.87	60584.77
574.03	60533.28
574.20	60566.04
574.36	60654.98
574.52	60776.69
574.68	60849.25
574.84	60914.78
575.01	60870.31
575.17	60835.20
575.33	60694.77
575.49	60825.84
575.65	60736.90
575.82	60846.91
575.98	60910.10
576.14	61052.87
576.30	61041.17
576.46	60889.04
576.62	60790.73
576.79	60776.69
576.95	60739.24
577.11	60947.55
577.27	60783.71
577.43	60874.99
577.59	60767.33
577.75	60729.88
577.92	60713.50
578.08	60849.25
578.24	60729.88
578.40	60921.80
578.56	61097.34
578.72	60968.61
578.88	61013.08
579.04	61146.50
579.21	61151.18
579.37	60994.36
579.53	61095.00
579.69	60762.65
579.85	60975.64
580.01	60996.70
580.17	60954.57
580.33	61052.87
580.49	61158.20
580.65	60919.46
580.82	60989.68
580.98	60814.14
581.14	60968.61
581.30	61179.26
581.46	61034.15
581.62	61090.32
581.78	60985.00
581.94	60949.89
582.10	61076.28
582.26	61099.68
582.42	60804.78
582.58	61020.11
582.74	61031.81
582.90	60956.91
583.06	61162.88
583.22	60851.59
583.38	60935.85
583.54	61116.07
583.70	61064.58
583.86	61120.75
584.02	60973.30
584.18	61038.83
584.34	60933.51
584.50	61076.28
584.66	60870.31
584.82	60921.80
584.98	61148.84
585.14	61020.11
585.30	61151.18
585.46	60961.59
585.62	61205.01
585.78	61331.40
585.94	61006.06
586.10	61139.47
586.26	61153.52
586.42	61160.54
586.58	61190.97
586.74	61031.81
586.90	61174.58
587.06	60970.96
587.22	61275.22
587.38	61144.16
587.54	61179.26
587.70	61226.07
587.86	61087.98
588.02	61354.80
588.18	61378.21
588.34	61155.86
588.49	61179.26
