SpectraSuite Data File
++++++++++++++++++++++++++++++++++++
Date: Fri Oct 25 11:34:16 EDT 2013
User: price-jones
Dark Spectrum Present: No
Reference Spectrum Present: No
Number of Sampled Component Spectra: 1
Spectrometers: USB2+H05261
Integration Time (usec): 100000 (USB2+H05261)
Spectra Averaged: 1 (USB2+H05261)
Boxcar Smoothing: 0 (USB2+H05261)
Correct for Electrical Dark: No (USB2+H05261)
Strobe/Lamp Enabled: No (USB2+H05261)
Correct for Detector Non-linearity: No (USB2+H05261)
Correct for Stray Light: No (USB2+H05261)
Number of Pixels in Processed Spectrum: 2048
>>>>>Begin Processed Spectral Data<<<<<
365.73	299.59
365.92	299.59
366.12	299.59
366.32	196.60
366.52	212.99
366.72	196.60
366.91	243.42
367.11	191.92
367.31	182.56
367.51	177.88
367.70	196.60
367.90	173.20
368.10	227.03
368.30	180.22
368.49	163.84
368.69	177.88
368.89	163.84
369.09	138.09
369.28	161.50
369.48	212.99
369.68	227.03
369.87	208.31
370.07	212.99
370.27	255.12
370.47	346.40
370.66	510.24
370.86	468.11
371.06	472.79
371.25	533.64
371.45	533.64
371.65	519.60
371.84	535.98
372.04	505.56
372.24	566.41
372.44	528.96
372.63	561.73
372.83	575.77
373.03	650.67
373.22	587.47
373.42	571.09
373.62	543.00
373.81	592.16
374.01	674.07
374.21	641.31
374.40	554.71
374.60	615.56
374.79	669.39
374.99	706.84
375.19	634.29
375.38	702.16
375.58	704.50
375.78	627.26
375.97	599.18
376.17	765.36
376.37	676.41
376.56	704.50
376.76	575.77
376.95	653.01
377.15	660.03
377.35	645.99
377.54	660.03
377.74	723.23
377.93	706.84
378.13	718.54
378.33	678.76
378.52	704.50
378.72	758.33
378.91	685.78
379.11	760.67
379.31	669.39
379.50	692.80
379.70	667.05
379.89	702.16
380.09	713.86
380.28	645.99
380.48	770.04
380.68	669.39
380.87	716.20
381.07	699.82
381.26	688.12
381.46	688.12
381.65	690.46
381.85	674.07
382.04	788.76
382.24	802.80
382.43	763.01
382.63	767.70
382.83	697.48
383.02	760.67
383.22	823.87
383.41	812.17
383.61	856.64
383.80	912.81
384.00	779.40
384.19	807.48
384.39	807.48
384.58	910.47
384.78	788.76
384.97	802.80
385.17	727.91
385.36	753.65
385.56	915.15
385.75	854.30
385.95	763.01
386.14	861.32
386.34	823.87
386.53	910.47
386.72	858.98
386.92	915.15
387.11	858.98
387.31	812.17
387.50	833.23
387.70	849.61
387.89	889.40
388.09	851.96
388.28	875.36
388.48	924.51
388.67	950.26
388.86	847.27
389.06	933.87
389.25	943.24
389.45	1046.22
389.64	924.51
389.84	1020.47
390.03	922.17
390.22	971.32
390.42	891.74
390.61	943.24
390.81	952.60
391.00	931.53
391.19	1015.79
391.39	1015.79
391.58	959.62
391.78	1069.62
391.97	990.05
392.16	1022.81
392.36	959.62
392.55	1006.43
392.75	1027.50
392.94	999.41
393.13	1116.44
393.33	1029.84
393.52	994.73
393.71	1039.20
393.91	997.07
394.10	1083.67
394.29	1090.69
394.49	1041.54
394.68	1057.92
394.88	1107.07
395.07	1132.82
395.26	1039.20
395.46	1118.78
395.65	1130.48
395.84	1149.20
396.04	1219.42
396.23	1184.31
396.42	1217.08
396.62	1149.20
396.81	1245.16
397.00	1186.65
397.19	1259.21
397.39	1156.22
397.58	1191.33
397.77	1240.48
397.97	1221.76
398.16	1247.51
398.35	1219.42
398.55	1306.02
398.74	1259.21
398.93	1254.53
399.12	1245.16
399.32	1291.98
399.51	1345.81
399.70	1378.58
399.90	1280.27
400.09	1399.64
400.28	1366.87
400.47	1350.49
400.67	1411.34
400.86	1359.85
401.05	1404.32
401.24	1322.40
401.44	1465.18
401.63	1401.98
401.82	1373.89
402.01	1378.58
402.21	1427.73
402.40	1453.47
402.59	1413.68
402.78	1411.34
402.97	1481.56
403.17	1469.86
403.36	1507.30
403.55	1544.75
403.74	1540.07
403.93	1479.22
404.13	1554.12
404.32	1533.05
404.51	1568.16
404.70	1516.67
404.89	1556.46
405.09	1645.40
405.28	1626.67
405.47	1624.33
405.66	1746.04
405.85	1579.86
406.05	1654.76
406.24	1680.50
406.43	1703.91
406.62	1755.40
406.81	1741.36
407.00	1729.66
407.20	1640.72
407.39	1724.97
407.58	1781.15
407.77	1921.58
407.96	1844.34
408.15	1870.09
408.34	1846.68
408.54	1827.96
408.73	1921.58
408.92	1792.85
409.11	1827.96
409.30	1982.43
409.49	1935.62
409.68	1968.39
409.87	1998.82
410.07	1982.43
410.26	2099.46
410.45	2040.95
410.64	2031.58
410.83	1970.73
411.02	2162.66
411.21	2122.87
411.40	2031.58
411.59	2202.44
411.78	2097.12
411.98	2087.76
412.17	2214.15
412.36	2249.25
412.55	2275.00
412.74	2237.55
412.93	2328.83
413.12	2232.87
413.31	2321.81
413.50	2200.10
413.69	2324.15
413.88	2382.67
414.07	2387.35
414.26	2480.97
414.45	2422.45
414.64	2415.43
414.83	2490.33
415.02	2462.24
415.22	2427.14
415.41	2590.97
415.60	2600.34
415.79	2492.67
415.98	2679.91
416.17	2654.17
416.36	2579.27
416.55	2626.08
416.74	2782.90
416.93	2703.32
417.12	2700.98
417.31	2717.36
417.50	2841.41
417.69	2925.67
417.88	2771.19
418.07	2764.17
418.26	2878.86
418.45	2967.80
418.64	3023.97
418.83	2878.86
419.02	2869.50
419.21	3087.17
419.39	3159.72
419.58	2937.37
419.77	3059.08
419.96	3021.63
420.15	3089.51
420.34	2956.10
420.53	3075.46
420.72	3215.90
420.91	3026.31
421.10	3084.83
421.29	3049.72
421.48	3042.70
421.67	3143.34
421.86	3255.69
422.05	3148.02
422.24	3126.96
422.43	3225.26
422.61	3225.26
422.80	3265.05
422.99	3304.84
423.18	3262.71
423.37	3330.58
423.56	3281.43
423.75	3332.92
423.94	3339.94
424.13	3091.85
424.32	3227.60
424.50	3311.86
424.69	3286.11
424.88	3365.69
425.07	3328.24
425.26	3143.34
425.45	3206.53
425.64	3215.90
425.83	3431.23
426.01	3337.60
426.20	3403.14
426.39	3440.59
426.58	3295.47
426.77	3297.81
426.96	3375.05
427.15	3346.97
427.33	3545.91
427.52	3372.71
427.71	3557.61
427.90	3456.97
428.09	3461.65
428.28	3524.85
428.46	3730.81
428.65	3611.45
428.84	3695.71
429.03	3735.50
429.22	3468.67
429.40	3749.54
429.59	3681.66
429.78	3417.18
429.97	3564.64
430.16	3630.17
430.34	3763.58
430.53	3691.02
430.72	3719.11
430.91	3754.22
431.10	3861.88
431.28	3822.09
431.47	3761.24
431.66	3838.48
431.85	3859.54
432.03	3922.74
432.22	4079.55
432.41	3922.74
432.60	4035.08
432.79	4016.36
432.97	4051.47
433.16	3978.91
433.35	3882.95
433.54	4023.38
433.72	4072.53
433.91	4121.68
434.10	4098.28
434.28	3964.87
434.47	4070.19
434.66	4070.19
434.85	4121.68
435.03	4219.99
435.22	4212.96
435.41	4351.06
435.59	4208.28
435.78	4311.27
435.97	4203.60
436.16	4327.65
436.34	4163.81
436.53	4313.61
436.72	4294.88
436.90	4250.41
437.09	4477.44
437.28	4358.08
437.46	4489.15
437.65	4304.25
437.84	4437.66
438.02	4264.46
438.21	4463.40
438.40	4332.33
438.58	4559.36
438.77	4629.58
438.96	4564.04
439.14	4638.94
439.33	4552.34
439.52	4699.80
439.70	4784.06
439.89	4690.43
440.08	4760.65
440.26	4870.65
440.45	4821.50
440.63	4959.60
440.82	5050.88
441.01	4926.83
441.19	5116.41
441.38	4954.91
441.57	5069.60
441.75	5268.55
441.94	5181.95
442.12	5284.93
442.31	5366.85
442.50	5256.84
442.68	5146.84
442.87	5411.32
443.05	5432.38
443.24	5383.23
443.43	5245.14
443.61	5376.21
443.80	5518.98
443.98	5315.36
444.17	5210.03
444.35	5467.49
444.54	5542.39
444.73	5439.40
444.91	5469.83
445.10	5533.03
445.28	5540.05
445.47	5336.42
445.65	5439.40
445.84	5523.66
446.02	5598.56
446.21	5547.07
446.39	5687.50
446.58	5612.60
446.77	5511.96
446.95	5474.51
447.14	5479.19
447.32	5542.39
447.51	5568.13
447.69	5612.60
447.88	5572.82
448.06	5650.05
448.25	5568.13
448.43	5568.13
448.62	5621.97
448.80	5518.98
448.99	5743.67
449.17	5769.42
449.36	5682.82
449.54	5755.38
449.73	5863.04
449.91	5853.68
450.10	6066.67
450.28	5914.53
450.46	5959.00
450.65	5994.11
450.83	6024.54
451.02	5928.58
451.20	6022.20
451.39	6047.94
451.57	5935.60
451.76	5963.68
451.94	5935.60
452.13	6076.03
452.31	6076.03
452.49	5832.62
452.68	6061.99
452.86	6026.88
453.05	6289.02
453.23	6239.87
453.42	6003.47
453.60	6176.67
453.78	6094.76
453.97	6162.63
454.15	6183.70
454.34	6171.99
454.52	6455.20
454.70	6436.47
454.89	6293.70
455.07	6401.37
455.26	6415.41
455.44	6352.21
455.62	6483.28
455.81	6532.44
455.99	6448.18
456.17	6520.73
456.36	6483.28
456.54	6626.06
456.73	6544.14
456.91	6820.32
457.09	6789.89
457.28	7021.61
457.46	6679.89
457.64	7033.31
457.83	6782.87
458.01	6764.15
458.19	6930.33
458.38	6743.08
458.56	6942.03
458.74	6820.32
458.93	6984.16
459.11	6869.47
459.29	6988.84
459.48	6890.54
459.66	7119.91
459.84	7028.63
460.03	7194.81
460.21	7138.63
460.39	7171.40
460.57	7269.70
460.76	7295.45
460.94	7236.94
461.12	7236.94
461.31	7178.42
461.49	7346.94
461.67	7183.10
461.85	7435.88
462.04	7243.96
462.22	7836.11
462.40	7487.37
462.59	7536.52
462.77	7412.48
462.95	7527.16
463.13	7508.44
463.32	7644.19
463.50	7660.57
463.68	7609.08
463.86	7566.95
464.05	7470.99
464.23	7496.74
464.41	7749.51
464.59	7557.59
464.78	7864.20
464.96	7669.94
465.14	7632.49
465.32	7810.37
465.50	7688.66
465.69	7751.85
465.87	7829.09
466.05	7864.20
466.23	7747.17
466.41	7866.54
466.60	7899.31
466.78	7815.05
466.96	7737.81
467.14	7936.76
467.32	8021.02
467.51	7981.23
467.69	7826.75
467.87	8173.15
468.05	8100.59
468.23	8009.31
468.41	8072.51
468.60	8128.68
468.78	8046.76
468.96	8002.29
469.14	8262.09
469.32	8208.26
469.50	8166.13
469.69	8435.29
469.87	8341.67
470.05	8451.67
470.23	8571.04
470.41	8676.37
470.59	8580.40
470.77	8538.27
470.95	8346.35
471.14	8697.43
471.32	8521.89
471.50	8767.65
471.68	8608.49
471.86	8856.59
472.04	8734.88
472.22	9034.47
472.40	8725.52
472.58	8905.74
472.77	9067.24
472.95	9001.70
473.13	9205.33
473.31	8945.53
473.49	9259.16
473.67	9116.39
473.85	9170.22
474.03	9427.68
474.21	9378.53
474.39	9418.32
474.57	9462.79
474.75	9614.92
474.93	9556.41
475.12	9628.96
475.30	9696.84
475.48	9769.40
475.66	9767.06
475.84	9624.28
476.02	9736.63
476.20	9968.34
476.38	9982.38
476.56	10328.78
476.74	10345.17
476.92	10127.50
477.10	10040.90
477.28	10406.02
477.46	10321.76
477.64	10352.19
477.82	10546.45
478.00	10817.96
478.18	10869.45
478.36	10792.21
478.54	10986.47
478.72	11040.31
478.90	11047.33
479.08	11272.02
479.26	11239.25
479.44	11311.81
479.62	11473.31
479.80	11473.31
479.98	11590.33
480.16	11719.06
480.34	11569.27
480.52	12006.95
480.70	11901.62
480.88	11777.58
481.06	11871.20
481.24	12154.40
481.41	12257.39
481.59	12133.34
481.77	12325.26
481.95	12367.39
482.13	12526.55
482.31	12383.77
482.49	13125.72
482.67	12886.99
482.85	13011.04
483.03	13095.30
483.21	13177.22
483.39	13242.75
483.57	13640.64
483.74	13315.31
483.92	13427.65
484.10	13338.71
484.28	14134.50
484.46	13935.55
484.64	13940.23
484.82	13877.04
485.00	14185.99
485.18	14363.87
485.35	14595.58
485.53	14429.40
485.71	14731.33
485.89	15037.94
486.07	14651.75
486.25	14934.96
486.43	14850.70
486.61	15080.07
486.78	15222.84
486.96	15103.48
487.14	15723.72
487.32	15737.76
487.50	15655.84
487.68	15721.38
487.85	15971.82
488.03	16182.46
488.21	16322.90
488.39	16112.25
488.57	16486.73
488.75	16706.74
488.92	16901.01
489.10	17006.33
489.28	16861.22
489.46	17219.32
489.64	17221.66
489.81	17380.82
489.99	17401.88
490.17	17579.76
490.35	17535.29
490.53	17809.14
490.70	18045.53
490.88	17923.82
491.06	18146.17
491.24	18157.88
491.41	18146.17
491.59	18593.22
491.77	18644.71
491.95	18918.55
492.13	18824.93
492.30	19227.50
492.48	18878.76
492.66	19005.15
492.84	19274.31
493.01	19407.72
493.19	19601.99
493.37	19651.14
493.54	19201.76
493.72	19896.89
493.90	19978.81
494.08	20060.73
494.25	20210.53
494.43	20409.47
494.61	20580.33
494.79	20833.11
494.96	20458.62
495.14	20802.68
495.32	20837.79
495.49	20769.91
495.67	20772.25
495.85	21268.45
496.02	21135.04
496.20	21493.14
496.38	21226.32
496.55	21984.65
496.73	22054.87
496.91	21774.00
497.09	21593.78
497.26	21947.20
497.44	21965.93
497.62	22471.48
497.79	22588.51
497.97	22462.12
498.14	22820.22
498.32	22668.09
498.50	23143.22
498.67	23147.90
498.85	22974.70
499.03	23550.47
499.20	23147.90
499.38	23391.31
499.56	23545.79
499.73	23426.42
499.91	23517.70
500.08	23878.15
500.26	23225.14
500.44	24341.57
500.61	24130.92
500.79	24105.18
500.97	24070.07
501.14	24486.68
501.32	24680.95
501.49	24589.67
501.67	24458.60
501.84	25116.29
502.02	24657.54
502.20	25036.71
502.37	24793.29
502.55	24800.32
502.72	25172.46
502.90	25165.44
503.07	24734.78
503.25	25308.21
503.43	25165.44
503.60	25078.84
503.78	25589.08
503.95	25537.59
504.13	25528.22
504.30	25575.03
504.48	25565.67
504.65	25376.09
504.83	25909.73
505.01	26401.24
505.18	25511.84
505.36	26122.72
505.53	26232.72
505.71	26471.46
505.88	26237.41
506.06	26235.06
506.23	26778.07
506.41	26665.72
506.58	26719.56
506.76	27049.57
506.93	26721.90
507.11	26930.20
507.28	27276.60
507.46	27246.18
507.63	27122.13
507.81	27730.67
507.98	27220.43
508.16	27374.91
508.33	27674.49
508.50	27873.44
508.68	27953.02
508.85	27824.29
509.03	27761.09
509.20	27880.46
509.38	28629.43
509.55	28098.13
509.73	28402.40
509.90	28444.53
510.08	28140.26
510.25	28458.57
510.42	28856.46
510.60	28826.04
510.77	28893.91
510.95	29120.95
511.12	28439.85
511.30	29027.32
511.47	29139.67
511.64	28992.22
511.82	29226.27
511.99	29310.53
512.17	29397.13
512.34	29369.04
512.51	29748.21
512.69	29762.25
512.86	29881.62
513.04	29663.95
513.21	30174.19
513.38	29397.13
513.56	30150.78
513.73	29642.88
513.90	30078.22
514.08	29912.05
514.25	30429.30
514.43	30583.78
514.60	30677.40
514.77	30866.98
514.95	30419.94
515.12	30646.97
515.29	30593.14
515.47	31189.98
515.64	31208.70
515.81	30904.43
515.99	30728.89
516.16	31292.96
516.33	31297.64
516.51	31449.78
516.68	31536.38
516.85	31236.79
517.03	31395.95
517.20	31690.85
517.37	31449.78
517.54	31541.06
517.72	31445.10
517.89	31779.79
518.06	32013.85
518.24	31796.18
518.41	31824.26
518.58	31824.26
518.75	32070.02
518.93	32388.33
519.10	31952.99
519.27	31826.60
519.45	32474.93
519.62	32650.47
519.79	32463.23
519.96	32596.64
520.14	32659.84
520.31	32299.39
520.48	32793.25
520.65	32603.66
520.83	33326.89
521.00	33235.61
521.17	32898.57
521.34	33453.28
521.52	32957.08
521.69	33525.83
521.86	33612.43
522.03	33916.70
522.20	33556.26
522.38	34178.84
522.55	34155.44
522.72	33769.25
522.89	33626.48
523.07	33982.24
523.24	33493.07
523.41	34073.52
523.58	33926.07
523.75	34384.81
523.92	34384.81
524.10	34174.16
524.27	34192.89
524.44	34272.46
524.61	34415.24
524.78	34267.78
524.96	34469.07
525.13	34892.71
525.30	34939.52
525.47	34862.28
525.64	34712.49
525.81	35484.86
525.98	35049.52
526.16	34895.05
526.33	34855.26
526.50	35344.43
526.67	35433.37
526.84	35084.63
527.01	35196.98
527.18	35283.58
527.36	35679.13
527.53	35667.42
527.70	36121.49
527.87	35709.55
528.04	35777.43
528.21	35892.12
528.38	35566.78
528.55	36224.47
528.72	35814.88
528.89	36121.49
529.07	36161.28
529.24	35878.07
529.41	36245.54
529.58	35941.27
529.75	36390.65
529.92	36165.96
530.09	36383.63
530.26	36236.17
530.43	36058.29
530.60	36264.26
530.77	36383.63
530.94	36266.60
531.11	36617.68
531.28	36329.80
531.46	36769.82
531.63	36821.31
531.80	36617.68
531.97	36837.69
532.14	37055.36
532.31	37165.37
532.48	37612.41
532.65	37130.26
532.82	37165.37
532.99	37357.29
533.16	37413.46
533.33	37439.21
533.50	37223.88
533.67	37663.90
533.84	37315.16
534.01	37577.30
534.18	37418.14
534.35	37507.08
534.52	37867.53
534.69	37935.40
534.86	38326.27
535.03	37703.69
535.20	37991.58
535.37	38129.67
535.54	37963.49
535.71	38103.92
535.88	38370.74
536.05	38024.34
536.22	38396.49
536.38	38593.09
536.55	38270.10
536.72	38363.72
536.89	38284.14
537.06	38637.56
537.23	38649.27
537.40	38359.04
537.57	38352.02
537.74	38384.79
537.91	38883.32
538.08	38803.74
538.25	38593.09
538.42	38672.67
538.59	38998.01
538.75	38871.62
538.92	38962.90
539.09	39405.26
539.26	38806.08
539.43	39058.86
539.60	39182.91
539.77	39164.18
539.94	39913.16
540.11	39459.09
540.28	39739.96
540.44	39084.61
540.61	39117.37
540.78	39250.78
540.95	39548.03
541.12	39360.79
541.29	39519.95
541.46	39433.35
541.62	39599.52
541.79	39665.06
541.96	39466.11
542.13	39725.91
542.30	39522.29
542.47	39948.26
542.63	39931.88
542.80	40025.50
542.97	40098.06
543.14	40315.73
543.31	40030.18
543.48	40336.79
543.64	40783.83
543.81	40390.62
543.98	40542.76
544.15	40814.26
544.32	40638.72
544.48	41111.51
544.65	40884.48
544.82	40538.08
544.99	40617.66
545.16	41160.66
545.32	40620.00
545.49	41113.85
545.66	41195.77
545.83	41212.15
546.00	41223.86
546.16	41003.85
546.33	40732.34
546.50	40891.50
546.67	41006.19
546.83	41144.28
547.00	40884.48
547.17	41312.80
547.34	41511.74
547.50	41380.67
547.67	41764.52
547.84	41303.43
548.00	41729.41
548.17	41956.44
548.34	41860.48
548.51	41752.82
548.67	41500.04
548.84	41935.38
549.01	41593.66
549.18	41567.91
549.34	42096.88
549.51	42258.37
549.68	41893.25
549.84	42054.75
550.01	42043.04
550.18	42043.04
550.34	42471.36
550.51	42412.85
550.68	42220.92
550.84	41897.93
551.01	42026.66
551.18	41841.76
551.34	42043.04
551.51	42150.71
551.68	42309.86
551.84	41867.50
552.01	42443.27
552.18	42485.40
552.34	42223.26
552.51	42419.87
552.68	42160.07
552.84	42827.12
553.01	42651.58
553.18	42443.27
553.34	42885.64
553.51	42494.77
553.67	42850.53
553.84	42576.69
554.01	43007.34
554.17	42745.20
554.34	43044.79
554.51	43033.09
554.67	43100.97
554.84	43337.36
555.00	43239.06
555.17	43225.01
555.33	43276.51
555.50	42887.98
555.67	43281.19
555.83	43276.51
556.00	42969.90
556.16	43964.62
556.33	43505.88
556.50	43545.67
556.66	43454.39
556.83	43133.73
556.99	43707.16
557.16	43770.36
557.32	43704.82
557.49	43655.67
557.65	43519.92
557.82	43768.02
557.98	43627.59
558.15	43323.32
558.32	43798.44
558.48	43405.23
558.65	43842.92
558.81	43697.80
558.98	44016.11
559.14	43763.34
559.31	44065.27
559.47	43723.55
559.64	43318.64
559.80	44261.87
559.97	43749.29
560.13	43536.30
560.30	43756.32
560.46	44252.51
560.63	44018.46
560.79	43873.34
560.96	44168.25
561.12	44252.51
561.29	44343.79
561.45	44498.26
561.61	44161.23
561.78	43978.67
561.94	43634.61
562.11	44247.83
562.27	44369.54
562.44	44217.40
562.60	44406.98
562.77	44091.01
562.93	44353.15
563.10	44694.87
563.26	44144.84
563.42	44830.62
563.59	44481.88
563.75	43871.00
563.92	44486.56
564.08	44409.32
564.24	44821.26
564.41	44570.82
564.57	44130.80
564.74	44472.52
564.90	44238.47
565.07	44460.82
565.23	44254.85
565.39	44458.48
565.56	45336.18
565.72	44526.35
565.88	44446.77
566.05	44975.73
566.21	44238.47
566.38	44559.12
566.54	45113.83
566.70	45013.18
566.87	45062.33
567.03	44605.93
567.19	44641.04
567.36	44992.12
567.52	45006.16
567.68	45109.14
567.85	44322.72
568.01	45411.07
568.17	45277.66
568.34	44924.24
568.50	44945.31
568.66	44577.84
568.83	44886.79
568.99	44753.38
569.15	45008.50
569.32	44921.90
569.48	44385.92
569.64	45303.41
569.81	45179.36
569.97	45130.21
570.13	45574.91
570.30	44961.69
570.46	45284.68
570.62	45305.75
570.78	45322.13
570.95	45029.57
571.11	45572.57
571.27	45057.65
571.43	44896.16
571.60	45043.61
571.76	44914.88
571.92	45251.92
572.09	45291.71
572.25	45017.86
572.41	45184.04
572.57	44933.60
572.74	45439.16
572.90	44928.92
573.06	45116.17
573.22	45132.55
573.38	45413.41
573.55	45518.74
573.71	45794.92
573.87	45195.74
574.03	45507.04
574.20	45799.60
574.36	45418.10
574.52	45574.91
574.68	45642.79
574.84	45521.08
575.01	45544.48
575.17	45242.56
575.33	45310.43
575.49	45542.14
575.65	45270.64
575.82	45387.67
575.98	45258.94
576.14	45705.98
576.30	45766.84
576.46	45670.87
576.62	45394.69
576.79	45542.14
576.95	44964.03
577.11	45776.20
577.27	45528.10
577.43	45635.77
577.59	45448.52
577.75	45453.20
577.92	45413.41
578.08	45900.25
578.24	45879.18
578.40	45888.54
578.56	45511.72
578.72	45633.42
578.88	45518.74
579.04	45837.05
579.21	45301.07
579.37	45876.84
579.53	45951.74
579.69	45446.18
579.85	45904.93
580.01	45815.99
580.17	45296.39
580.33	45790.24
580.49	45539.80
580.65	45764.49
580.82	44989.78
580.98	45661.51
581.14	45319.79
581.30	45722.37
581.46	45790.24
581.62	45514.06
581.78	45261.28
581.94	46281.75
582.10	45621.72
582.26	45923.65
582.42	45734.07
582.58	45815.99
582.74	45659.17
582.90	45855.78
583.06	46237.28
583.22	45921.31
583.38	45928.33
583.54	45722.37
583.70	45851.09
583.86	45935.35
584.02	45771.52
584.18	45900.25
584.34	45998.55
584.50	46146.00
584.66	45947.06
584.82	45935.35
584.98	45989.19
585.14	46089.83
585.30	45914.29
585.46	45612.36
585.62	45855.78
585.78	46007.91
585.94	45598.32
586.10	45947.06
586.26	45570.23
586.42	45855.78
586.58	45448.52
586.74	45560.87
586.90	45710.66
587.06	45769.18
587.22	46181.11
587.38	46014.93
587.54	45654.49
587.70	45937.69
587.86	45862.80
588.02	45954.08
588.18	46026.63
588.34	46047.70
588.49	46036.00
588.65	45654.49
588.81	45727.05
588.97	46183.45
589.13	46141.32
589.29	45471.93
589.45	46127.28
589.61	46155.36
589.77	46085.15
589.93	46000.89
590.08	45869.82
