SpectraSuite Data File
++++++++++++++++++++++++++++++++++++
Date: Fri Oct 25 11:34:03 EDT 2013
User: price-jones
Dark Spectrum Present: No
Reference Spectrum Present: No
Number of Sampled Component Spectra: 1
Spectrometers: USB2+H05261
Integration Time (usec): 100000 (USB2+H05261)
Spectra Averaged: 1 (USB2+H05261)
Boxcar Smoothing: 0 (USB2+H05261)
Correct for Electrical Dark: No (USB2+H05261)
Strobe/Lamp Enabled: No (USB2+H05261)
Correct for Detector Non-linearity: No (USB2+H05261)
Correct for Stray Light: No (USB2+H05261)
Number of Pixels in Processed Spectrum: 2048
>>>>>Begin Processed Spectral Data<<<<<
365.73	285.55
365.92	285.55
366.12	285.55
366.32	163.84
366.52	227.03
366.72	212.99
366.91	107.66
367.11	145.11
367.31	210.65
367.51	189.58
367.70	264.48
367.90	126.39
368.10	170.86
368.30	173.20
368.49	196.60
368.69	191.92
368.89	231.71
369.09	184.90
369.28	229.37
369.48	229.37
369.68	215.33
369.87	299.59
370.07	269.16
370.27	241.08
370.47	285.55
370.66	442.36
370.86	528.96
371.06	568.75
371.25	566.41
371.45	512.58
371.65	528.96
371.84	545.34
372.04	524.28
372.24	545.34
372.44	545.34
372.63	582.79
372.83	550.03
373.03	620.24
373.22	606.20
373.42	554.71
373.62	660.03
373.81	676.41
374.01	664.71
374.21	655.35
374.40	648.33
374.60	615.56
374.79	596.84
374.99	603.86
375.19	641.31
375.38	709.18
375.58	603.86
375.78	716.20
375.97	716.20
376.17	711.52
376.37	709.18
376.56	667.05
376.76	629.60
376.95	699.82
377.15	674.07
377.35	720.88
377.54	716.20
377.74	638.97
377.93	660.03
378.13	697.48
378.33	711.52
378.52	638.97
378.72	774.72
378.91	760.67
379.11	688.12
379.31	669.39
379.50	676.41
379.70	678.76
379.89	697.48
380.09	793.44
380.28	692.80
380.48	737.27
380.68	819.19
380.87	770.04
381.07	772.38
381.26	777.06
381.46	755.99
381.65	737.27
381.85	795.78
382.04	770.04
382.24	788.76
382.43	725.57
382.63	798.12
382.83	709.18
383.02	830.89
383.22	781.74
383.41	723.23
383.61	795.78
383.80	807.48
384.00	875.36
384.19	835.57
384.39	767.70
384.58	767.70
384.78	842.59
384.97	889.40
385.17	880.04
385.36	821.53
385.56	868.34
385.75	826.21
385.95	901.11
386.14	870.68
386.34	791.10
386.53	929.19
386.72	856.64
386.92	786.42
387.11	910.47
387.31	912.81
387.50	931.53
387.70	849.61
387.89	819.19
388.09	870.68
388.28	943.24
388.48	940.90
388.67	964.30
388.86	896.43
389.06	861.32
389.25	954.94
389.45	943.24
389.64	961.96
389.84	950.26
390.03	898.77
390.22	1029.84
390.42	947.92
390.61	858.98
390.81	945.58
391.00	973.66
391.19	931.53
391.39	936.21
391.58	1025.15
391.78	978.34
391.97	943.24
392.16	1029.84
392.36	1125.80
392.55	1153.88
392.75	1083.67
392.94	1118.78
393.13	1107.07
393.33	1001.75
393.52	1048.56
393.71	1114.10
393.91	1086.01
394.10	1078.99
394.29	1086.01
394.49	1156.22
394.68	1081.33
394.88	1121.12
395.07	1146.86
395.26	1100.05
395.46	1132.82
395.65	1062.60
395.84	1121.12
396.04	1228.78
396.23	1165.59
396.42	1226.44
396.62	1217.08
396.81	1313.04
397.00	1167.93
397.19	1249.85
397.39	1146.86
397.58	1228.78
397.77	1231.12
397.97	1205.38
398.16	1235.80
398.35	1240.48
398.55	1280.27
398.74	1275.59
398.93	1291.98
399.12	1383.26
399.32	1308.36
399.51	1233.46
399.70	1383.26
399.90	1301.34
400.09	1341.13
400.28	1322.40
400.47	1352.83
400.67	1409.00
400.86	1411.34
401.05	1373.89
401.24	1465.18
401.44	1472.20
401.63	1455.81
401.82	1451.13
402.01	1366.87
402.21	1432.41
402.40	1390.28
402.59	1490.92
402.78	1514.33
402.97	1600.93
403.17	1467.52
403.36	1540.07
403.55	1544.75
403.74	1530.71
403.93	1488.58
404.13	1500.28
404.32	1521.35
404.51	1551.78
404.70	1596.25
404.89	1514.33
405.09	1753.06
405.28	1638.38
405.47	1689.87
405.66	1694.55
405.85	1706.25
406.05	1575.18
406.24	1664.12
406.43	1671.14
406.62	1755.40
406.81	1750.72
407.00	1699.23
407.20	1785.83
407.39	1781.15
407.58	1804.55
407.77	1797.53
407.96	1858.39
408.15	1863.07
408.34	1818.60
408.54	1825.62
408.73	1872.43
408.92	1799.87
409.11	1952.01
409.30	2003.50
409.49	2024.56
409.68	1973.07
409.87	1961.37
410.07	1956.69
410.26	1937.96
410.45	1975.41
410.64	2024.56
410.83	2094.78
411.02	2122.87
411.21	2195.42
411.40	2066.69
411.59	2146.27
411.78	2062.01
411.98	2174.36
412.17	2195.42
412.36	2310.11
412.55	2270.32
412.74	2284.36
412.93	2375.64
413.12	2214.15
413.31	2431.82
413.50	2291.38
413.69	2356.92
413.88	2417.77
414.07	2415.43
414.26	2434.16
414.45	2436.50
414.64	2459.90
414.83	2375.64
415.02	2647.15
415.22	2635.44
415.41	2595.65
415.60	2649.49
415.79	2689.28
415.98	2658.85
416.17	2630.76
416.36	2654.17
416.55	2764.17
416.74	2705.66
416.93	2757.15
417.12	2881.20
417.31	2902.26
417.50	2808.64
417.69	2991.20
417.88	2885.88
418.07	2995.89
418.26	2818.00
418.45	2920.99
418.64	3040.36
418.83	3061.42
419.02	3045.04
419.21	3124.62
419.39	2906.95
419.58	2946.73
419.77	2953.76
419.96	3066.10
420.15	3028.65
420.34	3211.22
420.53	3035.67
420.72	3150.36
420.91	3194.83
421.10	3157.38
421.29	3159.72
421.48	3288.45
421.67	3236.96
421.86	3293.13
422.05	3300.16
422.24	3201.85
422.43	3157.38
422.61	3311.86
422.80	3391.44
422.99	3349.31
423.18	3346.97
423.37	3513.14
423.56	3337.60
423.75	3459.31
423.94	3311.86
424.13	3119.93
424.32	3169.09
424.50	3435.91
424.69	3506.12
424.88	3449.95
425.07	3398.46
425.26	3407.82
425.45	3318.88
425.64	3375.05
425.83	3370.37
426.01	3412.50
426.20	3398.46
426.39	3365.69
426.58	3466.33
426.77	3375.05
426.96	3398.46
427.15	3494.42
427.33	3566.98
427.52	3410.16
427.71	3445.27
427.90	3590.38
428.09	3686.34
428.28	3686.34
428.46	3536.55
428.65	3691.02
428.84	3679.32
429.03	3700.39
429.22	3700.39
429.40	3714.43
429.59	3714.43
429.78	3756.56
429.97	3583.36
430.16	3672.30
430.34	3772.94
430.53	3737.84
430.72	3777.62
430.91	3866.56
431.10	3794.01
431.28	3911.04
431.47	3859.54
431.66	3932.10
431.85	3927.42
432.03	3927.42
432.22	3955.51
432.41	4004.66
432.60	4086.58
432.79	3936.78
432.97	4044.45
433.16	4072.53
433.35	4032.74
433.54	3936.78
433.72	4198.92
433.91	3995.29
434.10	4138.07
434.28	4091.26
434.47	4177.86
434.66	4154.45
434.85	4198.92
435.03	4315.95
435.22	4290.20
435.41	4245.73
435.59	4341.69
435.78	4355.74
435.97	4353.40
436.16	4222.33
436.34	4322.97
436.53	4269.14
436.72	4428.29
436.90	4337.01
437.09	4430.63
437.28	4348.72
437.46	4381.48
437.65	4404.89
437.84	4542.98
438.02	4552.34
438.21	4578.09
438.40	4440.00
438.58	4652.98
438.77	4727.88
438.96	4725.54
439.14	4917.47
439.33	4917.47
439.52	4793.42
439.70	4739.58
439.89	4952.57
440.08	4940.87
440.26	4961.94
440.45	5048.54
440.63	5008.75
440.82	5137.48
441.01	5027.47
441.19	5100.03
441.38	5067.26
441.57	5198.33
441.75	5352.81
441.94	5228.76
442.12	5177.26
442.31	5261.52
442.50	5430.04
442.68	5434.72
442.87	5308.34
443.05	5504.94
443.24	5366.85
443.43	5617.29
443.61	5423.02
443.80	5638.35
443.98	5359.83
444.17	5114.07
444.35	5495.58
444.54	5542.39
444.73	5479.19
444.91	5600.90
445.10	5441.75
445.28	5558.77
445.47	5579.84
445.65	5547.07
445.84	5528.35
446.02	5504.94
446.21	5528.35
446.39	5533.03
446.58	5673.46
446.77	5713.25
446.95	5518.98
447.14	5645.37
447.32	5764.74
447.51	5748.36
447.69	5472.17
447.88	5753.04
448.06	5748.36
448.25	5884.11
448.43	5743.67
448.62	5624.31
448.80	5746.02
448.99	5832.62
449.17	5884.11
449.36	5769.42
449.54	5914.53
449.73	5902.83
449.91	5860.70
450.10	5982.41
450.28	6101.78
450.46	5930.92
450.65	6022.20
450.83	6047.94
451.02	5947.30
451.20	6054.97
451.39	5991.77
451.57	6157.95
451.76	5966.03
451.94	6085.39
452.13	6164.97
452.31	6019.86
452.49	6164.97
452.68	6122.84
452.86	6059.65
453.05	6251.57
453.23	6193.06
453.42	6076.03
453.60	6211.78
453.78	6359.24
453.97	6331.15
454.15	6359.24
454.34	6349.87
454.52	6361.58
454.70	6436.47
454.89	6658.82
455.07	6516.05
455.26	6480.94
455.44	6338.17
455.62	6567.54
455.81	6347.53
455.99	6558.18
456.17	6700.95
456.36	6696.27
456.54	6729.04
456.73	6906.92
456.91	7089.48
457.09	6820.32
457.28	7155.02
457.46	6715.00
457.64	6944.37
457.83	7023.95
458.01	6963.09
458.19	7019.27
458.38	6991.18
458.56	6902.24
458.74	7108.21
458.93	7145.66
459.11	7089.48
459.29	7007.56
459.48	7061.40
459.66	7068.42
459.84	7162.04
460.03	7456.95
460.21	7309.49
460.39	7272.04
460.57	7346.94
460.76	7258.00
460.94	7353.96
461.12	7260.34
461.31	7435.88
461.49	7232.26
461.67	7208.85
461.85	7658.23
462.04	7358.64
462.22	7911.01
462.40	7693.34
462.59	7590.36
462.77	7578.65
462.95	7548.23
463.13	7632.49
463.32	7644.19
463.50	7744.83
463.68	7555.25
463.86	7669.94
464.05	7693.34
464.23	7730.79
464.41	7817.39
464.59	7761.22
464.78	7824.41
464.96	7941.44
465.14	7733.13
465.32	8086.55
465.50	7885.26
465.69	8088.89
465.87	8053.78
466.05	7969.52
466.23	8044.42
466.41	8070.17
466.60	8280.82
466.78	7906.33
466.96	8025.70
467.14	7932.08
467.32	8046.76
467.51	8159.11
467.69	8032.72
467.87	8229.32
468.05	8304.22
468.23	8257.41
468.41	8301.88
468.60	8334.65
468.78	8641.26
468.96	8341.67
469.14	8397.84
469.32	8393.16
469.50	8290.18
469.69	8568.70
469.87	8769.99
470.05	8765.31
470.23	8631.90
470.41	8659.98
470.59	8741.90
470.77	8521.89
470.95	8634.24
471.14	8699.77
471.32	8610.83
471.50	9001.70
471.68	8961.91
471.86	8931.48
472.04	9224.05
472.22	9027.45
472.40	8936.17
472.58	9055.53
472.77	9151.49
472.95	9165.54
473.13	9689.82
473.31	9050.85
473.49	9184.26
473.67	9338.74
473.85	9364.48
474.03	9579.81
474.21	9645.35
474.39	9579.81
474.57	9678.12
474.75	9799.82
474.93	9715.56
475.12	9727.27
475.30	10010.47
475.48	9811.53
475.66	9816.21
475.84	9912.17
476.02	10108.77
476.20	9980.04
476.38	10284.31
476.56	10438.79
476.74	10401.34
476.92	10417.72
477.10	10459.85
477.28	10455.17
477.46	10544.11
477.64	10794.55
477.82	10651.78
478.00	11033.29
478.18	10988.82
478.36	11187.76
478.54	11173.72
478.72	11166.70
478.90	11367.98
479.08	11501.39
479.26	11400.75
479.44	11543.52
479.62	11358.62
479.80	11861.84
479.98	11971.84
480.16	12072.48
480.34	11836.09
480.52	11936.73
480.70	12201.21
480.88	12138.02
481.06	12056.10
481.24	12332.28
481.41	12311.22
481.59	12231.64
481.77	12957.21
481.95	12711.45
482.13	12896.35
482.31	12863.58
482.49	13095.30
482.67	13135.09
482.85	13188.92
483.03	13174.88
483.21	13399.57
483.39	13476.80
483.57	13472.12
483.74	13666.39
483.92	13921.51
484.10	13668.73
484.28	14078.32
484.46	14176.62
484.64	14370.89
484.82	14204.71
485.00	14417.70
485.18	14462.17
485.35	14705.59
485.53	14665.80
485.71	14820.27
485.89	15026.24
486.07	15087.09
486.25	15044.96
486.43	15112.84
486.61	15307.10
486.78	15557.54
486.96	15489.67
487.14	15800.96
487.32	15999.90
487.50	16173.10
487.68	16042.03
487.85	16372.05
488.03	16575.67
488.21	16643.55
488.39	16879.94
488.57	17067.19
488.75	16903.35
488.92	17280.18
489.10	17013.35
489.28	17226.34
489.46	17371.46
489.64	17301.24
489.81	17635.94
489.99	17954.25
490.17	17682.75
490.35	18075.96
490.53	18015.10
490.70	18307.67
490.88	18054.89
491.06	18492.57
491.24	18546.40
491.41	18633.00
491.59	19077.71
491.77	18740.67
491.95	18934.93
492.13	18939.62
492.30	19152.60
492.48	19297.72
492.66	19538.79
492.84	19709.65
493.01	19934.34
493.19	19822.00
493.37	20135.63
493.54	20004.56
493.72	20128.61
493.90	20119.24
494.08	20292.44
494.25	20760.55
494.43	20229.25
494.61	20882.26
494.79	20695.02
494.96	20950.14
495.14	21069.50
495.32	21308.24
495.49	21048.44
495.67	21575.06
495.85	21687.40
496.02	21568.04
496.20	22061.89
496.38	22068.91
496.55	22312.33
496.73	22459.78
496.91	21958.91
497.09	22324.03
497.26	22394.25
497.44	22427.01
497.62	22586.17
497.79	22948.95
497.97	22567.45
498.14	23030.87
498.32	23414.72
498.50	23267.27
498.67	23594.94
498.85	23295.35
499.03	23599.62
499.20	23618.35
499.38	23784.52
499.56	23936.66
499.73	24074.75
499.91	24105.18
500.08	24493.71
500.26	23796.23
500.44	24229.23
500.61	24369.66
500.79	24348.59
500.97	24421.15
501.14	24676.27
501.32	25001.60
501.49	24870.53
501.67	24842.45
501.84	24922.02
502.02	25184.16
502.20	24922.02
502.37	25238.00
502.55	25535.24
502.72	25015.65
502.90	25188.85
503.07	25390.13
503.25	25717.81
503.43	25696.74
503.60	25703.76
503.78	25942.50
503.95	25989.31
504.13	26136.76
504.30	26223.36
504.48	26195.28
504.65	26326.35
504.83	26658.70
505.01	27026.17
505.18	26572.10
505.36	26759.34
505.53	26752.32
505.71	26670.40
505.88	27552.79
506.06	26986.38
506.23	27236.81
506.41	27075.32
506.58	27014.46
506.76	27517.68
506.93	27805.56
507.11	27264.90
507.28	27548.11
507.46	27487.25
507.63	27992.81
507.81	27960.04
507.98	27531.72
508.16	27555.13
508.33	28116.86
508.50	28254.95
508.68	28364.95
508.85	28505.38
509.03	28198.77
509.20	28493.68
509.38	28814.34
509.55	28882.21
509.73	28669.22
509.90	28844.76
510.08	28723.05
510.25	29078.82
510.42	29256.70
510.60	29465.00
510.77	29055.41
510.95	29418.19
511.12	29392.45
511.30	29216.91
511.47	29633.52
511.64	29359.68
511.82	29661.61
511.99	29607.78
512.17	29720.12
512.34	29607.78
512.51	29972.90
512.69	30160.14
512.86	29937.79
513.04	30462.07
513.21	30572.08
513.38	30089.93
513.56	30279.51
513.73	30286.53
513.90	31019.12
514.08	30452.71
514.25	30967.63
514.43	31222.75
514.60	31096.36
514.77	31079.97
514.95	31215.72
515.12	31119.76
515.29	30684.42
515.47	31459.14
515.64	31435.74
515.81	31445.10
515.99	31505.95
516.16	31725.96
516.33	31318.71
516.51	31910.86
516.68	31714.26
516.85	32231.52
517.03	32395.35
517.20	32233.86
517.37	31985.76
517.54	32250.24
517.72	32491.32
517.89	32648.13
518.06	32067.68
518.24	32098.11
518.41	32589.62
518.58	32627.07
518.75	32460.89
518.93	32947.72
519.10	33015.60
519.27	32961.76
519.45	33109.22
519.62	32861.12
519.79	33303.48
519.96	33010.92
520.14	33071.77
520.31	33181.77
520.48	33057.73
520.65	33593.71
520.83	34057.14
521.00	33607.75
521.17	33673.29
521.34	33572.64
521.52	33773.93
521.69	33673.29
521.86	33937.77
522.03	34106.29
522.20	34010.32
522.38	34302.89
522.55	34752.27
522.72	34043.09
522.89	34384.81
523.07	34703.12
523.24	34541.63
523.41	34630.57
523.58	34562.69
523.75	34766.32
523.92	34464.39
524.10	35026.12
524.27	35138.46
524.44	34731.21
524.61	35248.47
524.78	35037.82
524.96	35264.85
525.13	35494.22
525.30	35426.35
525.47	35407.62
525.64	35405.28
525.81	35899.14
525.98	36048.93
526.16	35648.70
526.33	35618.27
526.50	35756.36
526.67	35819.56
526.84	35374.86
527.01	35679.13
527.18	36240.86
527.36	36095.74
527.53	35924.88
527.70	36004.46
527.87	36650.45
528.04	36039.57
528.21	35959.99
528.38	36570.87
528.55	36804.92
528.72	36271.28
528.89	36404.69
529.07	36669.17
529.24	36687.90
529.41	36875.14
529.58	36924.29
529.75	36769.82
529.92	36779.18
530.09	36793.22
530.26	37144.30
530.43	37191.11
530.60	36713.64
530.77	36802.58
530.94	37392.40
531.11	36994.51
531.28	37240.26
531.46	37340.91
531.63	37301.12
531.80	37366.65
531.97	37649.86
532.14	37338.57
532.31	37415.80
532.48	38022.00
532.65	37834.76
532.82	38014.98
532.99	37647.52
533.16	37640.50
533.33	38057.11
533.50	37755.18
533.67	37897.95
533.84	37738.80
534.01	38401.17
534.18	37965.83
534.35	38403.51
534.52	38557.99
534.69	38562.67
534.86	38440.96
535.03	38209.25
535.20	38614.16
535.37	38768.63
535.54	38927.79
535.71	38520.54
535.88	39154.82
536.05	38927.79
536.22	38829.49
536.38	39122.05
536.55	38990.98
536.72	38873.96
536.89	38838.85
537.06	39030.77
537.23	39154.82
537.40	38965.24
537.57	38824.81
537.74	39173.55
537.91	39487.18
538.08	39777.40
538.25	39171.21
538.42	39409.94
538.59	39503.56
538.75	39281.21
538.92	39746.98
539.09	39798.47
539.26	39903.79
539.43	39674.42
539.60	39908.47
539.77	39449.73
539.94	40275.94
540.11	40439.78
540.28	39786.77
540.44	40107.42
540.61	40201.04
540.78	40060.61
540.95	40205.72
541.12	40201.04
541.29	40278.28
541.46	40346.15
541.62	40182.32
541.79	40704.26
541.96	39966.99
542.13	40250.19
542.30	40332.11
542.47	40732.34
542.63	40868.09
542.80	40917.25
542.97	40856.39
543.14	41144.28
543.31	40961.72
543.48	40818.94
543.64	41525.78
543.81	41153.64
543.98	40849.37
544.15	41507.06
544.32	40928.95
544.48	41710.69
544.65	41261.30
544.82	41500.04
544.99	41191.09
545.16	41471.95
545.32	41322.16
545.49	41258.96
545.66	41867.50
545.83	41488.34
546.00	41858.14
546.16	41879.21
546.33	41509.40
546.50	41535.15
546.67	42146.03
546.83	41462.59
547.00	42382.42
547.17	42110.92
547.34	42286.46
547.50	42155.39
547.67	42473.70
547.84	42122.62
548.00	42532.22
548.17	42377.74
548.34	42300.50
548.51	42384.76
548.67	42223.26
548.84	42401.14
549.01	42305.18
549.18	42593.07
549.34	42717.12
549.51	42801.38
549.68	42197.52
549.84	42553.28
550.01	42838.83
550.18	42483.06
550.34	42693.71
550.51	42848.19
550.68	42923.08
550.84	42972.24
551.01	42979.26
551.18	42880.95
551.34	42780.31
551.51	43100.97
551.68	43243.74
551.84	43079.90
552.01	42941.81
552.18	43311.61
552.34	43271.82
552.51	42969.90
552.68	42986.28
552.84	43517.58
553.01	43349.06
553.18	43093.94
553.34	43667.37
553.51	42787.33
553.67	43304.59
553.84	43440.34
554.01	43648.65
554.17	43185.22
554.34	43646.31
554.51	43812.49
554.67	44116.76
554.84	43803.13
555.00	43744.61
555.17	43557.37
555.33	44236.12
555.50	43761.00
555.67	43758.66
555.83	43756.32
556.00	44240.81
556.16	44650.40
556.33	44191.65
556.50	44318.04
556.66	44416.35
556.83	43845.26
556.99	44451.45
557.16	44362.51
557.32	44027.82
557.49	44505.29
557.65	44336.77
557.82	44287.62
557.98	44037.18
558.15	44268.89
558.32	44404.64
558.48	44367.20
558.65	44217.40
558.81	44325.07
558.98	44559.12
559.14	44524.01
559.31	43938.88
559.47	44280.60
559.64	44467.84
559.80	44545.08
559.97	44601.25
560.13	44779.13
560.30	44650.40
560.46	44854.03
560.63	44648.06
560.79	44821.26
560.96	44905.52
561.12	45277.66
561.29	45052.97
561.45	44725.30
561.61	45076.38
561.78	44638.70
561.94	45034.25
562.11	45013.18
562.27	44755.72
562.44	45394.69
562.60	45364.26
562.77	44732.32
562.93	45123.19
563.10	45153.62
563.26	44619.97
563.42	45528.10
563.59	44985.10
563.75	45174.68
563.92	45280.00
564.08	44954.67
564.24	45074.04
564.41	45092.76
564.57	45677.90
564.74	45052.97
564.90	44994.46
565.07	44942.97
565.23	45448.52
565.39	45186.38
565.56	45563.21
565.72	45230.85
565.88	45326.81
566.05	45261.28
566.21	45450.86
566.38	45390.01
566.54	45382.99
566.70	45705.98
566.87	45654.49
567.03	45219.15
567.19	45490.65
567.36	45125.53
567.52	45319.79
567.68	45668.53
567.85	45776.20
568.01	45839.39
568.17	45361.92
568.34	45921.31
568.50	45755.13
568.66	45347.88
568.83	45265.96
568.99	45296.39
569.15	45907.27
569.32	45301.07
569.48	45991.53
569.64	45605.34
569.81	45736.41
569.97	45380.65
570.13	46045.36
570.30	45865.14
570.46	45722.37
570.62	45514.06
570.78	46110.89
570.95	45902.59
571.11	46143.66
571.27	45528.10
571.43	45588.95
571.60	46138.98
571.76	45708.32
571.92	45773.86
572.09	45918.97
572.25	45516.40
572.41	45684.92
572.57	45619.38
572.74	46373.03
572.90	46164.73
573.06	46007.91
573.22	46064.08
573.38	46082.81
573.55	46209.20
573.71	46176.43
573.87	46164.73
574.03	45556.19
574.20	46265.37
574.36	46019.61
574.52	46270.05
574.68	46075.79
574.84	46239.62
575.01	46277.07
575.17	46092.17
575.33	46192.81
575.49	46160.05
575.65	46064.08
575.82	46342.61
575.98	46167.07
576.14	46618.79
576.30	46712.41
576.46	46256.01
576.62	46354.31
576.79	46050.04
576.95	45867.48
577.11	45720.02
577.27	45982.16
577.43	46036.00
577.59	46337.93
577.75	46314.52
577.92	46164.73
578.08	46155.36
578.24	45869.82
578.40	46295.80
578.56	46553.26
578.72	46181.11
578.88	46979.23
579.04	46307.50
579.21	46291.12
579.37	46588.36
579.53	46520.49
579.69	46349.63
579.85	46515.81
580.01	46560.28
580.17	46286.43
580.33	46326.22
580.49	46506.44
580.65	46595.38
580.82	46326.22
580.98	45961.10
581.14	46043.02
581.30	46099.19
581.46	45982.16
581.62	46419.84
581.78	46153.02
581.94	46897.31
582.10	46438.57
582.26	46382.40
582.42	46637.51
582.58	46227.92
582.74	46672.62
582.90	46202.18
583.06	46693.69
583.22	46394.10
583.38	46602.41
583.54	46466.66
583.70	46539.21
583.86	46749.86
584.02	46731.14
584.18	46873.91
584.34	46761.56
584.50	46550.91
584.66	46429.21
584.82	46431.55
584.98	47033.07
585.14	46616.45
585.30	46527.51
585.46	46473.68
585.62	46485.38
585.78	46609.43
585.94	46169.41
586.10	46569.64
586.26	46656.24
586.42	46483.04
586.58	46681.98
586.74	46644.54
586.90	46483.04
587.06	46630.49
587.22	46761.56
587.38	46539.21
587.54	46593.04
587.70	46979.23
587.86	46373.03
588.02	46351.97
588.18	46398.78
588.34	46574.32
588.49	46803.69
588.65	46607.09
588.81	46880.93
588.97	46824.76
589.13	46674.96
589.29	46995.62
589.45	47459.04
589.61	47093.92
589.77	47037.75
589.93	46782.63
590.08	47391.17
