SpectraSuite Data File
++++++++++++++++++++++++++++++++++++
Date: Fri Oct 25 10:44:21 EDT 2013
User: price-jones
Dark Spectrum Present: No
Reference Spectrum Present: No
Number of Sampled Component Spectra: 1
Spectrometers: USB2+H05261
Integration Time (usec): 100000 (USB2+H05261)
Spectra Averaged: 1 (USB2+H05261)
Boxcar Smoothing: 0 (USB2+H05261)
Correct for Electrical Dark: No (USB2+H05261)
Strobe/Lamp Enabled: No (USB2+H05261)
Correct for Detector Non-linearity: No (USB2+H05261)
Correct for Stray Light: No (USB2+H05261)
Number of Pixels in Processed Spectrum: 2048
>>>>>Begin Processed Spectral Data<<<<<
365.73	126.39
365.92	126.39
366.12	126.39
366.32	35.11
366.52	25.75
366.72	79.58
366.91	0.00
367.11	42.13
367.31	0.00
367.51	51.49
367.70	56.17
367.90	35.11
368.10	9.36
368.30	79.58
368.49	67.88
368.69	65.54
368.89	46.81
369.09	28.09
369.28	0.00
369.48	81.92
369.68	91.28
369.87	77.24
370.07	74.90
370.27	110.01
370.47	173.20
370.66	306.61
370.86	454.06
371.06	470.45
371.25	421.30
371.45	484.49
371.65	477.47
371.84	400.23
372.04	475.13
372.24	521.94
372.44	519.60
372.63	475.13
372.83	561.73
373.03	514.92
373.22	519.60
373.42	519.60
373.62	557.05
373.81	580.45
374.01	538.32
374.21	554.71
374.40	543.00
374.60	608.54
374.79	519.60
374.99	645.99
375.19	531.30
375.38	535.98
375.58	613.22
375.78	575.77
375.97	648.33
376.17	653.01
376.37	580.45
376.56	615.56
376.76	554.71
376.95	552.37
377.15	688.12
377.35	681.10
377.54	653.01
377.74	655.35
377.93	671.73
378.13	709.18
378.33	645.99
378.52	699.82
378.72	655.35
378.91	683.44
379.11	627.26
379.31	641.31
379.50	690.46
379.70	746.63
379.89	755.99
380.09	730.25
380.28	746.63
380.48	655.35
380.68	723.23
380.87	655.35
381.07	713.86
381.26	720.88
381.46	777.06
381.65	744.29
381.85	725.57
382.04	727.91
382.24	699.82
382.43	704.50
382.63	660.03
382.83	692.80
383.02	695.14
383.22	854.30
383.41	741.95
383.61	777.06
383.80	765.36
384.00	767.70
384.19	816.85
384.39	870.68
384.58	774.72
384.78	755.99
384.97	777.06
385.17	763.01
385.36	793.44
385.56	821.53
385.75	753.65
385.95	896.43
386.14	828.55
386.34	858.98
386.53	896.43
386.72	882.38
386.92	1022.81
387.11	940.90
387.31	903.45
387.50	926.85
387.70	936.21
387.89	997.07
388.09	926.85
388.28	950.26
388.48	926.85
388.67	1006.43
388.86	957.28
389.06	1008.77
389.25	931.53
389.45	1013.45
389.64	985.37
389.84	992.39
390.03	961.96
390.22	1081.33
390.42	1013.45
390.61	1046.22
390.81	1046.22
391.00	1071.97
391.19	1048.56
391.39	1062.60
391.58	1041.54
391.78	1064.94
391.97	1102.39
392.16	1067.28
392.36	1130.48
392.55	1132.82
392.75	959.62
392.94	994.73
393.13	1015.79
393.33	1029.84
393.52	1064.94
393.71	1062.60
393.91	1095.37
394.10	1114.10
394.29	1137.50
394.49	1224.10
394.68	1205.38
394.88	1303.68
395.07	1240.48
395.26	1348.15
395.46	1280.27
395.65	1299.00
395.84	1280.27
396.04	1329.42
396.23	1214.74
396.42	1217.08
396.62	1102.39
396.81	1348.15
397.00	1261.55
397.19	1392.62
397.39	1401.98
397.58	1451.13
397.77	1394.96
397.97	1411.34
398.16	1462.83
398.35	1497.94
398.55	1514.33
398.74	1511.99
398.93	1703.91
399.12	1551.78
399.32	1577.52
399.51	1659.44
399.70	1631.35
399.90	1774.13
400.09	1631.35
400.28	1586.88
400.47	1673.48
400.67	1640.72
400.86	1717.95
401.05	1701.57
401.24	1748.38
401.44	1830.30
401.63	1748.38
401.82	1710.93
402.01	1713.27
402.21	1806.89
402.40	1820.94
402.59	1797.53
402.78	1874.77
402.97	1797.53
403.17	1874.77
403.36	1877.11
403.55	1952.01
403.74	1968.39
403.93	1982.43
404.13	2036.27
404.32	1893.49
404.51	1849.02
404.70	1935.62
404.89	1989.46
405.09	2134.57
405.28	2076.06
405.47	2104.14
405.66	2038.61
405.85	2083.08
406.05	2029.24
406.24	2052.65
406.43	2059.67
406.62	2118.18
406.81	2272.66
407.00	2146.27
407.20	2186.06
407.39	2104.14
407.58	2190.74
407.77	2394.37
407.96	2291.38
408.15	2340.54
408.34	2382.67
408.54	2406.07
408.73	2415.43
408.92	2394.37
409.11	2457.56
409.30	2385.01
409.49	2385.01
409.68	2279.68
409.87	2324.15
410.07	2410.75
410.26	2363.94
410.45	2464.58
410.64	2532.46
410.83	2504.37
411.02	2724.38
411.21	2733.75
411.40	2705.66
411.59	2670.55
411.78	2691.62
411.98	2717.36
412.17	2813.32
412.36	2745.45
412.55	2899.92
412.74	2825.03
412.93	2925.67
413.12	2839.07
413.31	2951.42
413.50	2958.44
413.69	3033.33
413.88	2963.12
414.07	2988.86
414.26	3138.66
414.45	3045.04
414.64	3155.04
414.83	3105.89
415.02	3269.73
415.22	3248.66
415.41	3353.99
415.60	3302.50
415.79	3318.88
415.98	3332.92
416.17	3325.90
416.36	3386.76
416.55	3323.56
416.74	3435.91
416.93	3365.69
417.12	3412.50
417.31	3468.67
417.50	3541.23
417.69	3634.85
417.88	3665.28
418.07	3471.01
418.26	3534.21
418.45	3620.81
418.64	3723.79
418.83	3627.83
419.02	3665.28
419.21	3616.13
419.39	3581.02
419.58	3700.39
419.77	3623.15
419.96	3789.33
420.15	3791.67
420.34	3838.48
420.53	3819.75
420.72	3920.40
420.91	3871.25
421.10	3971.89
421.29	4084.23
421.48	3889.97
421.67	3990.61
421.86	4004.66
422.05	3967.21
422.24	3915.72
422.43	3946.14
422.61	4114.66
422.80	4109.98
422.99	4051.47
423.18	4147.43
423.37	4109.98
423.56	4124.02
423.75	4131.05
423.94	4023.38
424.13	3854.86
424.32	4049.13
424.50	4241.05
424.69	4119.34
424.88	4149.77
425.07	4093.60
425.26	4154.45
425.45	4121.68
425.64	3955.51
425.83	3997.64
426.01	3960.19
426.20	4163.81
426.39	4180.20
426.58	4126.36
426.77	4077.21
426.96	4117.00
427.15	4255.09
427.33	4175.52
427.52	4198.92
427.71	4205.94
427.90	4243.39
428.09	4241.05
428.28	4329.99
428.46	4269.14
428.65	4358.08
428.84	4514.89
429.03	4599.15
429.22	4337.01
429.40	4128.70
429.59	4173.18
429.78	4044.45
429.97	4016.36
430.16	4201.26
430.34	4147.43
430.53	4367.44
430.72	4367.44
430.91	4278.50
431.10	4447.02
431.28	4627.24
431.47	4716.18
431.66	4812.14
431.85	4690.43
432.03	4706.82
432.22	4943.21
432.41	4910.44
432.60	4880.02
432.79	4861.29
432.97	4980.66
433.16	5006.41
433.35	4933.85
433.54	4620.22
433.72	4882.36
433.91	4837.89
434.10	4837.89
434.28	5008.75
434.47	4908.10
434.66	5128.11
434.85	5125.77
435.03	5156.20
435.22	5128.11
435.41	5212.37
435.59	5305.99
435.78	5280.25
435.97	5174.92
436.16	5280.25
436.34	5214.71
436.53	5298.97
436.72	5329.40
436.90	5336.42
437.09	5530.69
437.28	5446.43
437.46	5355.15
437.65	5523.66
437.84	5385.57
438.02	5313.02
438.21	5404.30
438.40	5364.51
438.58	5533.03
438.77	5551.75
438.96	5579.84
439.14	5900.49
439.33	5767.08
439.52	6052.63
439.70	5870.06
439.89	5888.79
440.08	5919.21
440.26	5935.60
440.45	6024.54
440.63	6036.24
440.82	6090.07
441.01	6146.25
441.19	6181.35
441.38	6338.17
441.57	6420.09
441.75	6347.53
441.94	6588.61
442.12	6530.09
442.31	6773.51
442.50	6752.45
442.68	6600.31
442.87	6726.70
443.05	6612.01
443.24	6785.21
443.43	6656.48
443.61	6696.27
443.80	6993.52
443.98	6747.76
444.17	6576.91
444.35	6942.03
444.54	6738.40
444.73	6651.80
444.91	6773.51
445.10	6696.27
445.28	6661.16
445.47	6604.99
445.65	6658.82
445.84	6759.47
446.02	6836.70
446.21	6815.64
446.39	6869.47
446.58	6977.14
446.77	6960.75
446.95	6745.42
447.14	6897.56
447.32	6979.48
447.51	7021.61
447.69	6920.96
447.88	6707.98
448.06	6888.20
448.25	6895.22
448.43	7002.88
448.62	6904.58
448.80	7030.97
448.99	7115.23
449.17	7019.27
449.36	6932.67
449.54	7215.87
449.73	7119.91
449.91	7330.56
450.10	7328.22
450.28	7414.82
450.46	7492.05
450.65	7513.12
450.83	7386.73
451.02	7389.07
451.20	7660.57
451.39	7566.95
451.57	7566.95
451.76	7290.77
451.94	7494.40
452.13	7548.23
452.31	7466.31
452.49	7428.86
452.68	7772.92
452.86	7513.12
453.05	7442.90
453.23	7529.50
453.42	7667.60
453.60	7625.47
453.78	7625.47
453.97	7688.66
454.15	7845.48
454.34	7557.59
454.52	7939.10
454.70	7920.37
454.89	7831.43
455.07	7988.25
455.26	7929.74
455.44	8241.03
455.62	8009.31
455.81	7950.80
455.99	7997.61
456.17	7999.95
456.36	7995.27
456.54	8306.56
456.73	8306.56
456.91	8517.21
457.09	8421.25
457.28	8702.11
457.46	8294.86
457.64	8470.40
457.83	8432.95
458.01	8290.18
458.19	8620.19
458.38	8421.25
458.56	8608.49
458.74	8510.19
458.93	8428.27
459.11	8664.66
459.29	8585.08
459.48	8493.80
459.66	8526.57
459.84	8500.83
460.03	8833.18
460.21	8807.44
460.39	8802.75
460.57	8863.61
460.76	8903.40
460.94	9029.79
461.12	8990.00
461.31	8940.85
461.49	9142.13
461.67	8889.35
461.85	9228.73
462.04	9100.00
462.22	9100.00
462.40	9261.50
462.59	9085.96
462.77	9338.74
462.95	9268.52
463.13	9268.52
463.32	9142.13
463.50	9376.19
463.68	9341.08
463.86	9263.84
464.05	9298.95
464.23	9193.62
464.41	9324.69
464.59	9357.46
464.78	9579.81
464.96	9504.92
465.14	9448.74
465.32	9430.02
465.50	9724.93
465.69	9570.45
465.87	9551.73
466.05	9537.68
466.23	9493.21
466.41	9401.93
466.60	9738.97
466.78	9633.64
466.96	9577.47
467.14	9476.83
467.32	9841.95
467.51	10092.39
467.69	9696.84
467.87	9504.92
468.05	9858.34
468.23	10024.51
468.41	9977.70
468.60	9921.53
468.78	10071.33
468.96	10045.58
469.14	10125.16
469.32	10181.33
469.50	9872.38
469.69	9944.94
469.87	10022.17
470.05	10071.33
470.23	10097.07
470.41	10153.24
470.59	10176.65
470.77	10506.66
470.95	10345.17
471.14	10415.38
471.32	10160.27
471.50	10665.82
471.68	10633.05
471.86	10565.18
472.04	10553.48
472.22	10932.64
472.40	10684.55
472.58	10827.32
472.77	10995.84
472.95	11063.71
473.13	11314.15
473.31	10995.84
473.49	11180.74
473.67	10923.28
473.85	11239.25
474.03	11412.45
474.21	11426.50
474.39	11524.80
474.57	11541.18
474.75	11665.23
474.93	11812.68
475.12	11714.38
475.30	11712.04
475.48	11571.61
475.66	11800.98
475.84	11719.06
476.02	12035.03
476.20	11786.94
476.38	11957.80
476.56	12170.79
476.74	12208.23
476.92	12386.12
477.10	12280.79
477.28	12741.88
477.46	12442.29
477.64	12606.13
477.82	12676.34
478.00	13018.06
478.18	13085.94
478.36	12936.14
478.54	13202.96
478.72	13371.48
478.90	13476.80
479.08	13645.32
479.26	13750.65
479.44	13500.21
479.62	13919.17
479.80	13755.33
479.98	13940.23
480.16	14218.75
480.34	14057.26
480.52	14263.22
480.70	14295.99
480.88	14380.25
481.06	14586.22
481.24	14637.71
481.41	14618.99
481.59	14916.23
481.77	14808.57
481.95	14946.66
482.13	15213.48
482.31	14822.61
482.49	15412.43
482.67	15169.01
482.85	15576.27
483.03	15770.53
483.21	15805.64
483.39	15602.01
483.57	15960.11
483.74	15960.11
483.92	16149.70
484.10	15903.94
484.28	16226.93
484.46	16402.47
484.64	16879.94
484.82	16730.15
485.00	16713.77
485.18	17020.38
485.35	17181.87
485.53	16613.12
485.71	16559.29
485.89	16837.81
486.07	16999.31
486.25	17319.96
486.43	17270.81
486.61	17579.76
486.78	17731.90
486.96	17860.63
487.14	18192.98
487.32	18412.99
487.50	18555.77
487.68	18909.19
487.85	18932.59
488.03	19241.54
488.21	19234.52
488.39	19286.01
488.57	19454.53
488.75	19346.87
488.92	19620.71
489.10	19817.32
489.28	19913.28
489.46	20482.03
489.64	20329.89
489.81	20879.92
489.99	20835.45
490.17	20772.25
490.35	21128.02
490.53	20947.79
490.70	21167.80
490.88	21228.66
491.06	21673.36
491.24	21500.16
491.41	21781.03
491.59	21474.42
491.77	21483.78
491.95	21706.13
492.13	22073.59
492.30	22239.77
492.48	22284.24
492.66	22728.94
492.84	22342.75
493.01	22906.82
493.19	22534.68
493.37	23040.23
493.54	23349.18
493.72	23440.47
493.90	23470.89
494.08	23456.85
494.25	23873.46
494.43	24091.13
494.61	24233.91
494.79	24198.80
494.96	24123.90
495.14	24353.27
495.32	24636.48
495.49	24474.98
495.67	24891.60
495.85	24788.61
496.02	25266.08
496.20	25097.56
496.38	24950.11
496.55	25315.23
496.73	25715.47
496.91	25671.00
497.09	26064.21
497.26	26087.61
497.44	25825.47
497.62	25951.86
497.79	26363.79
497.97	25986.97
498.14	26075.91
498.32	26155.49
498.50	26529.97
498.67	26810.84
498.85	26941.91
499.03	27150.21
499.20	27014.46
499.38	27117.45
499.56	27325.75
499.73	27215.75
499.91	27302.35
500.08	27161.92
500.26	26883.39
500.44	27431.08
500.61	27639.39
500.79	27269.58
500.97	27955.36
501.14	28070.04
501.32	27798.54
501.49	28051.32
501.67	27845.35
501.84	28577.94
502.02	28603.69
502.20	28390.70
502.37	28772.21
502.55	28664.54
502.72	28987.53
502.90	29090.52
503.07	28603.69
503.25	29067.11
503.43	28814.34
503.60	29425.22
503.78	29027.32
503.95	29092.86
504.13	29373.72
504.30	29708.42
504.48	29785.66
504.65	29703.74
504.83	29677.99
505.01	30096.95
505.18	30012.69
505.36	30363.77
505.53	30426.96
505.71	30499.52
505.88	30710.17
506.06	30181.21
506.23	30588.46
506.41	30307.60
506.58	30778.04
506.76	31105.72
506.93	30892.73
507.11	31007.42
507.28	31000.40
507.46	30703.15
507.63	30852.94
507.81	30855.28
507.98	31185.30
508.16	31442.76
508.33	31503.61
508.50	31878.10
508.68	32058.32
508.85	31990.44
509.03	32034.91
509.20	32173.00
509.38	32556.85
509.55	31913.20
509.73	31997.46
509.90	31744.69
510.08	32290.03
510.25	32205.77
510.42	32734.73
510.60	32701.96
510.77	32697.28
510.95	33057.73
511.12	32634.09
511.30	33125.60
511.47	33668.61
511.64	33558.60
511.82	33649.88
511.99	33247.31
512.17	33544.56
512.34	33031.98
512.51	33647.54
512.69	33701.37
512.86	33839.47
513.04	33797.34
513.21	33680.31
513.38	33699.03
513.56	33621.80
513.73	33532.86
513.90	33481.36
514.08	34288.85
514.25	34089.90
514.43	34363.75
514.60	34368.43
514.77	34611.84
514.95	34827.17
515.12	34724.19
515.29	34717.17
515.47	35070.59
515.64	35150.17
515.81	34766.32
515.99	34778.02
516.16	34698.44
516.33	34368.43
516.51	34656.31
516.68	34562.69
516.85	34054.79
517.03	34665.67
517.20	35239.11
517.37	35035.48
517.54	35426.35
517.72	35091.65
517.89	34763.98
518.06	35157.19
518.24	35030.80
518.41	35241.45
518.58	35295.28
518.75	35402.94
518.93	35929.56
519.10	35772.75
519.27	35599.55
519.45	35737.64
519.62	36266.60
519.79	36416.40
519.96	36100.42
520.14	37010.89
520.31	36531.08
520.48	36018.50
520.65	36505.34
520.83	36964.08
521.00	36772.16
521.17	37212.18
521.34	36828.33
521.52	36978.12
521.69	37408.78
521.86	37326.86
522.03	37354.95
522.20	37518.79
522.38	37399.42
522.55	37666.24
522.72	37174.73
522.89	37450.91
523.07	37312.82
523.24	37280.05
523.41	38192.86
523.58	37879.23
523.75	38335.63
523.92	37984.55
524.10	38246.69
524.27	38857.57
524.44	38426.92
524.61	38082.86
524.78	38483.09
524.96	38450.32
525.13	38717.14
525.30	39203.97
525.47	38653.95
525.64	38721.82
525.81	39147.80
525.98	38132.01
526.16	38576.71
526.33	38050.09
526.50	38082.86
526.67	38667.99
526.84	38054.77
527.01	38789.70
527.18	38773.31
527.36	39328.02
527.53	39054.18
527.70	39622.93
527.87	39421.64
528.04	39182.91
528.21	39580.80
528.38	39353.77
528.55	40102.74
528.72	40086.36
528.89	40488.93
529.07	39910.82
529.24	39517.60
529.41	39763.36
529.58	39742.30
529.75	39782.09
529.92	39784.43
530.09	39938.90
530.26	40147.21
530.43	40170.61
530.60	40278.28
530.77	40292.32
530.94	40402.33
531.11	40219.77
531.28	40299.34
531.46	40706.60
531.63	40624.68
531.80	40666.81
531.97	40435.10
532.14	40355.52
532.31	39985.71
532.48	40524.04
532.65	40966.40
532.82	40708.94
532.99	41134.92
533.16	40811.92
533.33	40807.24
533.50	40957.03
533.67	40926.61
533.84	40753.41
534.01	40858.73
534.18	40835.33
534.35	41453.23
534.52	40910.22
534.69	41645.15
534.86	41881.55
535.03	41411.10
535.20	41848.78
535.37	41734.09
535.54	42019.64
535.71	42026.66
535.88	41560.89
536.05	41207.47
536.22	41766.86
536.38	41844.10
536.55	42082.83
536.72	42019.64
536.89	41373.65
537.06	41556.21
537.23	41731.75
537.40	42036.02
537.57	41982.19
537.74	42134.32
537.91	42307.52
538.08	42155.39
538.25	42319.23
538.42	42333.27
538.59	42621.16
538.75	42192.84
538.92	42349.65
539.09	42150.71
539.26	42459.66
539.43	42536.90
539.60	42607.11
539.77	42323.91
539.94	42272.42
540.11	42272.42
540.28	42422.21
540.44	42415.19
540.61	42567.32
540.78	42204.54
540.95	42522.85
541.12	42052.41
541.29	42239.65
541.46	43000.32
541.62	43358.42
541.79	43356.08
541.96	42330.93
542.13	42864.57
542.30	43000.32
542.47	43103.31
542.63	43159.48
542.80	43044.79
542.97	43461.41
543.14	43672.06
543.31	43618.22
543.48	43646.31
543.64	43999.73
543.81	44009.09
543.98	43564.39
544.15	44027.82
544.32	43810.15
544.48	44133.14
544.65	43515.24
544.82	44353.15
544.99	43842.92
545.16	43999.73
545.32	44219.74
545.49	44495.92
545.66	44275.91
545.83	44179.95
546.00	44648.06
546.16	44222.08
546.33	44067.61
546.50	44065.27
546.67	44460.82
546.83	44329.75
547.00	44268.89
547.17	44591.89
547.34	44339.11
547.50	44004.41
547.67	44577.84
547.84	44432.73
548.00	44327.41
548.17	44837.64
548.34	44739.34
548.51	45034.25
548.67	44641.04
548.84	44643.38
549.01	45123.19
549.18	44713.59
549.34	44858.71
549.51	45095.10
549.68	44973.39
549.84	44938.29
550.01	45067.02
550.18	44732.32
550.34	45017.86
550.51	44992.12
550.68	44882.11
550.84	44692.53
551.01	45340.86
551.18	44765.09
551.34	45160.64
551.51	45198.09
551.68	44975.73
551.84	45399.37
552.01	45127.87
552.18	45144.25
552.34	45148.93
552.51	45179.36
552.68	45350.22
552.84	45102.12
553.01	45558.53
553.18	45443.84
553.34	45579.59
553.51	45270.64
553.67	45336.18
553.84	45663.85
554.01	45787.90
554.17	45378.31
554.34	45808.96
554.51	45544.48
554.67	45748.11
554.84	45511.72
555.00	45581.93
555.17	45689.60
555.33	45804.28
555.50	45923.65
555.67	45727.05
555.83	45518.74
556.00	46110.89
556.16	46017.27
556.33	45729.39
556.50	45581.93
556.66	45762.15
556.83	45851.09
556.99	46122.60
557.16	46171.75
557.32	46017.27
557.49	45921.31
557.65	46059.40
557.82	46052.38
557.98	46178.77
558.15	46206.86
558.32	45855.78
558.48	46279.41
558.65	46225.58
558.81	45680.24
558.98	45759.81
559.14	46485.38
559.31	45471.93
559.47	46272.39
559.64	46298.14
559.80	46192.81
559.97	45954.08
560.13	46256.01
560.30	46450.27
560.46	46113.23
560.63	46518.15
560.79	46363.67
560.96	46588.36
561.12	46520.49
561.29	46265.37
561.45	45989.19
561.61	46136.64
561.78	46363.67
561.94	46260.69
562.11	46394.10
562.27	46375.37
562.44	46253.67
562.60	46604.75
562.77	46646.88
562.93	46272.39
563.10	46749.86
563.26	46169.41
563.42	46672.62
563.59	46373.03
563.75	46494.74
563.92	46335.59
564.08	46721.77
564.24	46789.65
564.41	46384.74
564.57	46574.32
564.74	46588.36
564.90	46611.77
565.07	46319.20
565.23	46518.15
565.39	46190.47
565.56	46689.01
565.72	46674.96
565.88	46644.54
566.05	46501.76
566.21	46689.01
566.38	46483.04
566.54	46600.07
566.70	46831.78
566.87	47402.87
567.03	46492.40
567.19	47133.71
567.36	46784.97
567.52	46412.82
567.68	46607.09
567.85	46799.01
568.01	46564.96
568.17	46705.39
568.34	46897.31
568.50	47009.66
568.66	46894.97
568.83	46878.59
568.99	46632.83
569.15	46923.06
569.32	47332.65
569.48	46546.23
569.64	46581.34
569.81	46927.74
569.97	46817.74
570.13	46731.14
570.30	46328.56
570.46	46541.55
570.62	46438.57
570.78	46403.46
570.95	46719.43
571.11	47224.99
571.27	46724.11
571.43	46497.08
571.60	46913.70
571.76	46857.52
571.92	47203.92
572.09	47086.90
572.25	46791.99
572.41	46527.51
572.57	47213.29
572.74	47421.59
572.90	46902.00
573.06	47260.10
573.22	46803.69
573.38	46883.27
573.55	46852.84
573.71	46923.06
573.87	46960.51
574.03	46878.59
574.20	47105.62
574.36	47007.32
574.52	47248.39
574.68	46672.62
574.84	46866.89
575.01	47208.61
575.17	46686.67
575.33	46646.88
575.49	46976.89
575.65	46904.34
575.82	46944.12
575.98	46937.10
576.14	46997.96
576.30	47124.35
576.46	46930.08
576.62	47243.71
576.79	47220.31
576.95	46646.88
577.11	46852.84
577.27	46848.16
577.43	47002.64
577.59	46710.07
577.75	46674.96
577.92	46703.05
578.08	46466.66
578.24	46555.60
578.40	47014.34
578.56	47093.92
578.72	46976.89
578.88	46969.87
579.04	47051.79
579.21	46923.06
579.37	46768.58
579.53	47035.41
579.69	46389.42
579.85	47075.19
580.01	47007.32
580.17	46993.28
580.33	47608.84
580.49	47255.42
580.65	46866.89
580.82	47391.17
580.98	47091.58
581.14	46586.02
581.30	47456.70
581.46	47161.79
581.62	46899.65
581.78	47063.49
581.94	47363.08
582.10	46920.72
582.26	47257.76
582.42	46920.72
582.58	46948.81
582.74	46890.29
582.90	47208.61
583.06	47519.90
583.22	47072.85
583.38	47136.05
583.54	47367.76
583.70	47133.71
583.86	47466.06
584.02	47185.20
584.18	47044.77
584.34	47110.30
584.50	47061.15
584.66	47044.77
584.82	46665.60
584.98	47295.21
585.14	47206.26
585.30	47419.25
585.46	46885.61
585.62	46700.71
585.78	46960.51
585.94	46909.02
586.10	46993.28
586.26	46710.07
586.42	47337.33
586.58	47367.76
586.74	47201.58
586.90	46960.51
587.06	46894.97
587.22	47159.45
587.38	46766.24
587.54	47377.12
587.70	47182.86
587.86	46904.34
588.02	47037.75
588.18	47171.16
588.34	46960.51
588.49	46281.75
588.65	46361.33
588.81	46520.49
588.97	46461.97
589.13	46602.41
589.29	46658.58
589.45	46993.28
589.61	46859.87
589.77	47269.46
