SpectraSuite Data File
++++++++++++++++++++++++++++++++++++
Date: Fri Oct 25 11:25:32 EDT 2013
User: price-jones
Dark Spectrum Present: No
Reference Spectrum Present: No
Number of Sampled Component Spectra: 1
Spectrometers: USB2+H05261
Integration Time (usec): 100000 (USB2+H05261)
Spectra Averaged: 1 (USB2+H05261)
Boxcar Smoothing: 0 (USB2+H05261)
Correct for Electrical Dark: No (USB2+H05261)
Strobe/Lamp Enabled: No (USB2+H05261)
Correct for Detector Non-linearity: No (USB2+H05261)
Correct for Stray Light: No (USB2+H05261)
Number of Pixels in Processed Spectrum: 2048
>>>>>Begin Processed Spectral Data<<<<<
365.73	262.14
365.92	262.14
366.12	262.14
366.32	152.13
366.52	135.75
366.72	100.64
366.91	119.37
367.11	121.71
367.31	180.22
367.51	126.39
367.70	140.43
367.90	191.92
368.10	147.45
368.30	117.03
368.49	91.28
368.69	140.43
368.89	217.67
369.09	184.90
369.28	163.84
369.48	159.16
369.68	159.16
369.87	191.92
370.07	210.65
370.27	222.35
370.47	379.17
370.66	589.82
370.86	613.22
371.06	676.41
371.25	631.94
371.45	692.80
371.65	674.07
371.84	573.43
372.04	732.59
372.24	702.16
372.44	746.63
372.63	744.29
372.83	720.88
373.03	702.16
373.22	786.42
373.42	779.40
373.62	833.23
373.81	863.66
374.01	821.53
374.21	765.36
374.40	784.08
374.60	861.32
374.79	833.23
374.99	826.21
375.19	870.68
375.38	891.74
375.58	854.30
375.78	847.27
375.97	861.32
376.17	931.53
376.37	849.61
376.56	873.02
376.76	898.77
376.95	947.92
377.15	889.40
377.35	812.17
377.54	847.27
377.74	901.11
377.93	945.58
378.13	931.53
378.33	875.36
378.52	882.38
378.72	931.53
378.91	912.81
379.11	910.47
379.31	1008.77
379.50	959.62
379.70	971.32
379.89	1074.31
380.09	961.96
380.28	917.49
380.48	994.73
380.68	1013.45
380.87	973.66
381.07	1029.84
381.26	994.73
381.46	1034.52
381.65	1006.43
381.85	1055.58
382.04	1088.35
382.24	1078.99
382.43	1036.86
382.63	1076.65
382.83	1032.18
383.02	1076.65
383.22	1163.25
383.41	973.66
383.61	1149.20
383.80	1165.59
384.00	1167.93
384.19	1114.10
384.39	1153.88
384.58	1135.16
384.78	1174.95
384.97	1167.93
385.17	1160.91
385.36	1151.54
385.56	1198.35
385.75	1200.69
385.95	1196.01
386.14	1160.91
386.34	1217.08
386.53	1212.40
386.72	1226.44
386.92	1240.48
387.11	1226.44
387.31	1261.55
387.50	1247.51
387.70	1242.82
387.89	1263.89
388.09	1266.23
388.28	1217.08
388.48	1252.19
388.67	1371.55
388.86	1327.08
389.06	1308.36
389.25	1338.79
389.45	1343.47
389.64	1287.29
389.84	1254.53
390.03	1341.13
390.22	1352.83
390.42	1406.66
390.61	1411.34
390.81	1409.00
391.00	1336.45
391.19	1526.03
391.39	1434.75
391.58	1430.07
391.78	1401.98
391.97	1458.15
392.16	1476.88
392.36	1519.01
392.55	1540.07
392.75	1493.26
392.94	1446.45
393.13	1530.71
393.33	1437.09
393.52	1488.58
393.71	1533.05
393.91	1514.33
394.10	1607.95
394.29	1582.20
394.49	1584.54
394.68	1661.78
394.88	1664.12
395.07	1643.06
395.26	1643.06
395.46	1626.67
395.65	1696.89
395.84	1708.59
396.04	1811.57
396.23	1788.17
396.42	1671.14
396.62	1886.47
396.81	1741.36
397.00	1720.29
397.19	1729.66
397.39	1884.13
397.58	1865.41
397.77	1870.09
397.97	1872.43
398.16	1881.79
398.35	1912.22
398.55	1914.56
398.74	1975.41
398.93	1916.90
399.12	1959.03
399.32	1912.22
399.51	1928.60
399.70	1975.41
399.90	1944.99
400.09	1888.81
400.28	2029.24
400.47	2115.84
400.67	2160.31
400.86	2078.40
401.05	2139.25
401.24	2127.55
401.44	2207.13
401.63	2207.13
401.82	2073.71
402.01	2059.67
402.21	2104.14
402.40	2244.57
402.59	2146.27
402.78	2162.66
402.97	2195.42
403.17	2179.04
403.36	2331.17
403.55	2267.98
403.74	2349.90
403.93	2317.13
404.13	2249.25
404.32	2354.58
404.51	2363.94
404.70	2373.30
404.89	2359.26
405.09	2527.78
405.28	2434.16
405.47	2527.78
405.66	2406.07
405.85	2527.78
406.05	2497.35
406.24	2541.82
406.43	2576.93
406.62	2534.80
406.81	2614.38
407.00	2555.86
407.20	2537.14
407.39	2527.78
407.58	2612.04
407.77	2736.09
407.96	2668.21
408.15	2722.04
408.34	2693.96
408.54	2878.86
408.73	2761.83
408.92	2820.35
409.11	2808.64
409.30	2850.77
409.49	2825.03
409.68	2932.69
409.87	3042.70
410.07	2972.48
410.26	3021.63
410.45	2923.33
410.64	3052.06
410.83	2979.50
411.02	3021.63
411.21	3187.81
411.40	3143.34
411.59	3171.43
411.78	3152.70
411.98	3150.36
412.17	3279.09
412.36	3218.24
412.55	3314.20
412.74	3370.37
412.93	3485.06
413.12	3276.75
413.31	3485.06
413.50	3393.78
413.69	3438.25
413.88	3637.19
414.07	3508.46
414.26	3531.87
414.45	3602.08
414.64	3709.75
414.83	3756.56
415.02	3747.20
415.22	3796.35
415.41	3735.50
415.60	3838.48
415.79	3896.99
415.98	3939.12
416.17	3904.01
416.36	3889.97
416.55	4056.15
416.74	4007.00
416.93	4002.32
417.12	4086.58
417.31	4114.66
417.50	4166.15
417.69	4241.05
417.88	4278.50
418.07	4166.15
418.26	4322.97
418.45	4320.63
418.64	4463.40
418.83	4243.39
419.02	4285.52
419.21	4395.53
419.39	4617.88
419.58	4477.44
419.77	4372.12
419.96	4505.53
420.15	4503.19
420.34	4596.81
420.53	4582.77
420.72	4645.96
420.91	4599.15
421.10	4692.77
421.29	4751.29
421.48	4589.79
421.67	4655.33
421.86	4903.42
422.05	4770.01
422.24	4617.88
422.43	4770.01
422.61	4968.96
422.80	4896.40
422.99	4812.14
423.18	4971.30
423.37	5055.56
423.56	4961.94
423.75	4781.71
423.94	4842.57
424.13	4552.34
424.32	4800.44
424.50	4910.44
424.69	5142.16
424.88	5132.79
425.07	4957.25
425.26	4798.10
425.45	5053.22
425.64	4779.37
425.83	4856.61
426.01	5008.75
426.20	5057.90
426.39	5139.82
426.58	5008.75
426.77	5172.58
426.96	5181.95
427.15	5153.86
427.33	5184.29
427.52	5116.41
427.71	5245.14
427.90	5261.52
428.09	5313.02
428.28	5385.57
428.46	5371.53
428.65	5460.47
428.84	5551.75
429.03	5451.11
429.22	5317.70
429.40	5427.70
429.59	5488.56
429.78	5163.22
429.97	5179.61
430.16	5572.82
430.34	5537.71
430.53	5628.99
430.72	5631.33
430.91	5486.22
431.10	5685.16
431.28	5755.38
431.47	5715.59
431.66	5811.55
431.85	5778.78
432.03	5841.98
432.22	5825.59
432.41	5734.31
432.60	5820.91
432.79	5834.96
432.97	5827.93
433.16	6019.86
433.35	5849.00
433.54	6045.60
433.72	6064.33
433.91	6033.90
434.10	6022.20
434.28	6120.50
434.47	6197.74
434.66	6279.66
434.85	6216.46
435.03	6186.04
435.22	6296.04
435.41	6420.09
435.59	6136.88
435.78	6516.05
435.97	6572.22
436.16	6373.28
436.34	6394.34
436.53	6483.28
436.72	6712.66
436.90	6298.38
437.09	6504.35
437.28	6502.01
437.46	6523.07
437.65	6602.65
437.84	6502.01
438.02	6588.61
438.21	6696.27
438.40	6705.63
438.58	6862.45
438.77	6803.94
438.96	6888.20
439.14	7201.83
439.33	7007.56
439.52	7241.62
439.70	7143.32
439.89	7220.55
440.08	7239.28
440.26	7442.90
440.45	7335.24
440.63	7522.48
440.82	7630.15
441.01	7393.75
441.19	7595.04
441.38	7705.04
441.57	7468.65
441.75	7494.40
441.94	7836.11
442.12	8046.76
442.31	7915.69
442.50	8100.59
442.68	7957.82
442.87	7894.63
443.05	8042.08
443.24	8248.05
443.43	8037.40
443.61	8072.51
443.80	8250.39
443.98	7871.22
444.17	7789.30
444.35	8131.02
444.54	8245.71
444.73	8327.63
444.91	8224.64
445.10	8276.13
445.28	8112.30
445.47	8231.66
445.65	8320.60
445.84	8322.94
446.02	8381.46
446.21	8470.40
446.39	8145.06
446.58	8500.83
446.77	8479.76
446.95	8245.71
447.14	8383.80
447.32	8573.38
447.51	8526.57
447.69	8449.33
447.88	8451.67
448.06	8514.87
448.25	8423.59
448.43	8454.02
448.62	8493.80
448.80	8430.61
448.99	8725.52
449.17	8669.34
449.36	8638.92
449.54	8608.49
449.73	8788.71
449.91	9043.83
450.10	8975.95
450.28	8856.59
450.46	8945.53
450.65	8861.27
450.83	9207.67
451.02	9008.72
451.20	9249.80
451.39	9071.92
451.57	8819.14
451.76	9085.96
451.94	9163.20
452.13	9329.38
452.31	9357.46
452.49	9092.98
452.68	9401.93
452.86	9373.85
453.05	9305.97
453.23	9350.44
453.42	9341.08
453.60	9210.01
453.78	9462.79
453.97	9558.75
454.15	9565.77
454.34	9303.63
454.52	9671.09
454.70	9661.73
454.89	9708.54
455.07	9771.74
455.26	9778.76
455.44	9825.57
455.62	9778.76
455.81	9893.44
455.99	10045.58
456.17	10108.77
456.36	9973.02
456.54	9926.21
456.73	10277.29
456.91	10527.73
457.09	10394.32
457.28	10305.38
457.46	10242.18
457.64	10431.77
457.83	10326.44
458.01	10326.44
458.19	10813.28
458.38	10441.13
458.56	10626.03
458.74	10925.62
458.93	10490.28
459.11	10670.50
459.29	10834.34
459.48	10670.50
459.66	10855.40
459.84	10890.51
460.03	10902.22
460.21	11073.07
460.39	10862.43
460.57	10911.58
460.76	10635.39
460.94	11094.14
461.12	11103.50
461.31	11009.88
461.49	11173.72
461.67	11122.23
461.85	11290.74
462.04	11335.21
462.22	11749.49
462.40	11618.42
462.59	11360.96
462.77	11372.66
462.95	11665.23
463.13	11524.80
463.32	11522.46
463.50	11569.27
463.68	11566.93
463.86	11644.17
464.05	11407.77
464.23	11520.12
464.41	11740.13
464.59	11585.65
464.78	12035.03
464.96	12119.29
465.14	11920.35
465.32	11946.09
465.50	12079.50
465.69	11847.79
465.87	12182.49
466.05	11957.80
466.23	12168.45
466.41	12212.92
466.60	12166.10
466.78	12187.17
466.96	12131.00
467.14	12147.38
467.32	12299.52
467.51	12297.17
467.69	11953.12
467.87	12430.59
468.05	12437.61
468.23	12428.24
468.41	12461.01
468.60	12571.02
468.78	12769.96
468.96	12503.14
469.14	12652.94
469.32	12758.26
469.50	12526.55
469.69	12723.15
469.87	12919.76
470.05	12980.61
470.23	13188.92
470.41	12910.40
470.59	13088.28
470.77	13060.19
470.95	13036.78
471.14	13301.26
471.32	13219.35
471.50	13446.38
471.68	13444.04
471.86	13598.51
472.04	13617.24
472.22	13891.08
472.40	13502.55
472.58	13659.37
472.77	13907.46
472.95	13989.38
473.13	14420.04
473.31	13813.84
473.49	14200.03
473.67	14113.43
473.85	14127.47
474.03	14572.18
474.21	14483.24
474.39	14546.43
474.57	14588.56
474.75	14937.30
474.93	14874.10
475.12	14860.06
475.30	14846.02
475.48	15147.95
475.66	15227.53
475.84	15059.01
476.02	15435.83
476.20	15194.76
476.38	15602.01
476.56	15796.28
476.74	15550.52
476.92	15854.79
477.10	15742.44
477.28	15770.53
477.46	16173.10
477.64	16175.44
477.82	16308.85
478.00	16807.39
478.18	16596.74
478.36	17020.38
478.54	16915.05
478.72	16936.12
478.90	17350.39
479.08	17488.48
479.26	17827.86
479.44	17776.37
479.62	17638.28
479.80	18153.20
479.98	18073.62
480.16	18237.45
480.34	18050.21
480.52	18494.91
480.70	18427.04
480.88	18277.24
481.06	18820.25
481.24	18661.09
481.41	18904.51
481.59	19257.93
481.77	19463.90
481.95	19365.59
482.13	19686.25
482.31	19606.67
482.49	19997.54
482.67	19985.83
482.85	20100.52
483.03	20376.70
483.21	20444.58
483.39	20409.47
483.57	20624.80
483.74	20933.75
483.92	21312.92
484.10	21355.05
484.28	21575.06
484.46	21834.86
484.64	22665.75
484.82	21551.65
485.00	22382.54
485.18	22661.07
485.35	22773.41
485.53	22731.28
485.71	22700.86
485.89	23131.51
486.07	23449.83
486.25	23220.45
486.43	23688.56
486.61	23700.26
486.78	24278.38
486.96	23939.00
487.14	24655.20
487.32	24390.72
487.50	24350.93
487.68	24875.21
487.85	25223.95
488.03	25326.94
488.21	26103.99
488.39	25516.52
488.57	26185.91
488.75	26047.82
488.92	26452.73
489.10	26513.59
489.28	26780.41
489.46	26831.90
489.64	26789.77
489.81	27417.04
489.99	27625.34
490.17	27494.27
490.35	27812.59
490.53	28119.20
490.70	28456.23
490.88	27981.10
491.06	28568.58
491.24	28126.22
491.41	28884.55
491.59	29125.63
491.77	28776.89
491.95	29661.61
492.13	29486.07
492.30	29633.52
492.48	29926.09
492.66	30171.85
492.84	30110.99
493.01	30455.05
493.19	30483.14
493.37	30785.07
493.54	30953.58
493.72	31140.83
493.90	31218.07
494.08	31536.38
494.25	31819.58
494.43	31917.89
494.61	31622.98
494.79	32802.61
494.96	32027.89
495.14	32304.07
495.32	33329.23
495.49	32877.51
495.67	33001.55
495.85	33137.30
496.02	33069.43
496.20	34223.31
496.38	33780.95
496.55	33762.23
496.73	34705.46
496.91	34419.92
497.09	34930.16
497.26	34696.10
497.44	34871.64
497.62	35063.57
497.79	35381.88
497.97	34920.79
498.14	35552.74
498.32	35786.79
498.50	35833.60
498.67	36421.08
498.85	36105.10
499.03	36554.49
499.20	36779.18
499.38	36662.15
499.56	36811.95
499.73	37020.25
499.91	37523.47
500.08	37212.18
500.26	37254.31
500.44	37745.82
500.61	37525.81
500.79	37551.56
500.97	38033.71
501.14	38239.67
501.32	37919.02
501.49	38267.76
501.67	38667.99
501.84	38677.35
502.02	38801.40
502.20	38602.46
502.37	38848.21
502.55	38782.68
502.72	39208.65
502.90	39421.64
503.07	39147.80
503.25	39859.32
503.43	39309.30
503.60	39971.67
503.78	39922.52
503.95	40149.55
504.13	39985.71
504.30	40224.45
504.48	40854.05
504.65	40048.91
504.83	41038.95
505.01	41230.88
505.18	40896.18
505.36	41588.98
505.53	40919.59
505.71	41163.00
505.88	41647.49
506.06	41663.88
506.23	41523.44
506.41	41549.19
506.58	42017.30
506.76	42017.30
506.93	42305.18
507.11	41766.86
507.28	42059.43
507.46	42253.69
507.63	42717.12
507.81	42958.19
507.98	42721.80
508.16	42883.30
508.33	43131.39
508.50	42761.59
508.68	43309.27
508.85	43859.30
509.03	43374.81
509.20	43695.46
509.38	44231.44
509.55	44076.97
509.73	44100.37
509.90	44341.45
510.08	43943.56
510.25	44327.41
510.42	44734.66
510.60	44687.85
510.77	44821.26
510.95	45209.79
511.12	45146.59
511.30	44804.88
511.47	45003.82
511.64	45059.99
511.82	45600.66
511.99	45645.13
512.17	45474.27
512.34	45448.52
512.51	46138.98
512.69	46127.28
512.86	45965.78
513.04	45996.21
513.21	46635.17
513.38	46213.88
513.56	46637.51
513.73	46361.33
513.90	46887.95
514.08	46696.03
514.25	47091.58
514.43	47206.26
514.60	46866.89
514.77	47007.32
514.95	47524.58
515.12	47119.66
515.29	47131.37
515.47	47351.38
515.64	48231.42
515.81	47576.07
515.99	47922.47
516.16	48027.79
516.33	48135.46
516.51	48643.35
516.68	48271.21
516.85	48680.80
517.03	48617.61
517.20	48540.37
517.37	48306.32
517.54	48458.45
517.72	48381.21
517.89	49045.93
518.06	48928.90
518.24	48933.58
518.41	49186.36
518.58	48987.41
518.75	48802.51
518.93	49380.62
519.10	49228.49
519.27	49504.67
519.45	49743.41
519.62	49666.17
519.79	49659.15
519.96	49652.12
520.14	49799.58
520.31	49698.94
520.48	50167.04
520.65	49923.63
520.83	50300.45
521.00	50138.96
521.17	50307.47
521.34	50632.81
521.52	50696.00
521.69	50688.98
521.86	50461.95
522.03	50684.30
522.20	50855.16
522.38	51192.20
522.55	50993.25
522.72	51229.65
522.89	51461.36
523.07	51384.12
523.24	51110.28
523.41	51475.40
523.58	51089.21
523.75	51557.32
523.92	51463.70
524.10	51648.60
524.27	51796.06
524.44	51896.70
524.61	51906.06
524.78	51782.01
524.96	52168.20
525.13	51999.68
525.30	52088.62
525.47	52210.33
525.64	52189.27
525.81	52161.18
525.98	52465.45
526.16	52285.23
526.33	52388.21
526.50	53010.79
526.67	52633.97
526.84	52706.52
527.01	52437.36
527.18	52563.75
527.36	52718.23
527.53	52858.66
527.70	53247.19
527.87	52919.51
528.04	52905.47
528.21	53422.73
528.38	53216.76
528.55	53345.49
528.72	53294.00
528.89	53205.06
529.07	53125.48
529.24	53188.67
529.41	53537.41
529.58	53457.84
529.75	53169.95
529.92	53633.38
530.09	53853.39
530.26	53492.94
530.43	53904.88
530.60	53415.71
530.77	53595.93
530.94	53865.09
531.11	53935.30
531.28	54012.54
531.46	54284.04
531.63	54115.53
531.80	54061.69
531.97	54129.57
532.14	54532.14
532.31	54171.70
532.48	54534.48
532.65	54295.75
532.82	54408.09
532.99	54347.24
533.16	54426.82
533.33	54585.97
533.50	54829.39
533.67	54457.24
533.84	54487.67
534.01	54593.00
534.18	54880.88
534.35	54927.69
534.52	54663.21
534.69	54953.44
534.86	54925.35
535.03	54714.70
535.20	55121.96
535.37	55173.45
535.54	55217.92
535.71	55229.62
535.88	55107.91
536.05	55021.31
536.22	55409.84
536.38	55510.49
536.55	55416.86
536.72	55442.61
536.89	55257.71
537.06	55414.52
537.23	55559.64
537.40	55662.62
537.57	55702.41
537.74	55669.64
537.91	55899.01
538.08	55583.04
538.25	55669.64
538.42	55831.14
538.59	55966.89
538.75	55711.77
538.92	55838.16
539.09	56039.45
539.26	55826.46
539.43	55927.10
539.60	56212.65
539.77	56058.17
539.94	56121.37
540.11	56142.43
540.28	56175.20
540.44	56229.03
540.61	56299.25
540.78	56210.31
540.95	56465.42
541.12	56254.78
541.29	56479.47
541.46	56151.79
541.62	56423.29
541.79	56533.30
541.96	56210.31
542.13	56348.40
542.30	56512.23
542.47	56633.94
542.63	56507.55
542.80	56645.65
542.97	56853.95
543.14	57223.76
543.31	57333.76
543.48	57071.62
543.64	57532.71
543.81	57235.46
543.98	57172.27
544.15	57130.14
544.32	57188.65
544.48	57441.43
544.65	57373.55
544.82	57450.79
544.99	57111.41
545.16	57183.97
545.32	57153.54
545.49	57263.55
545.66	57675.48
545.83	57584.20
546.00	57471.85
546.16	57467.17
546.33	57350.15
546.50	57111.41
546.67	57598.24
546.83	57235.46
547.00	57513.98
547.17	57247.16
547.34	57523.35
547.50	57855.70
547.67	57832.30
547.84	57827.62
548.00	57900.17
548.17	58059.33
548.34	57673.14
548.51	57839.32
548.67	58127.20
548.84	57944.64
549.01	57963.37
549.18	57893.15
549.34	58174.02
549.51	58080.39
549.68	58197.42
549.84	58358.92
550.01	58185.72
550.18	58078.05
550.34	58211.46
550.51	58419.77
550.68	58347.21
550.84	58096.78
551.01	58375.30
551.18	58412.75
551.34	58206.78
551.51	58466.58
551.68	58553.18
551.84	58340.19
552.01	58195.08
552.18	58614.04
552.34	58260.62
552.51	58405.73
552.68	58459.56
552.84	58422.11
553.01	58864.47
553.18	58717.02
553.34	58642.12
553.51	58529.78
553.67	58820.00
553.84	58817.66
554.01	58761.49
554.17	58965.12
554.34	58824.68
554.51	58955.75
554.67	58946.39
554.84	58876.18
555.00	58850.43
555.17	58759.15
555.33	58869.15
555.50	58880.86
555.67	58735.74
555.83	58852.77
556.00	59040.01
556.16	59201.51
556.33	59325.56
556.50	59007.25
556.66	59231.94
556.83	59044.69
556.99	59187.47
557.16	59330.24
557.32	59440.24
557.49	59412.16
557.65	59025.97
557.82	59243.64
557.98	59168.74
558.15	59377.05
558.32	59433.22
558.48	59077.46
558.65	59393.43
558.81	59250.66
558.98	59323.22
559.14	59487.06
559.31	59648.55
559.47	59355.99
559.64	59524.50
559.80	59615.79
559.97	59606.42
560.13	59512.80
560.30	59803.03
560.46	59763.24
560.63	59449.61
560.79	59526.84
560.96	59725.79
561.12	59728.13
561.29	59817.07
561.45	59568.97
561.61	59669.62
561.78	59559.61
561.94	59676.64
562.11	59650.89
562.27	59718.77
562.44	59716.43
562.60	59849.84
562.77	59798.35
562.93	59606.42
563.10	60058.15
563.26	59758.56
563.42	59955.16
563.59	59887.29
563.75	60041.76
563.92	59758.56
564.08	59870.90
564.24	59987.93
564.41	60023.04
564.57	59849.84
564.74	59985.59
564.90	59781.96
565.07	59859.20
565.23	59964.52
565.39	59987.93
565.56	60074.53
565.72	59920.05
565.88	60048.78
566.05	60172.83
566.21	59941.12
566.38	60062.83
566.54	59934.10
566.70	60179.85
566.87	60170.49
567.03	60116.66
567.19	60327.31
567.36	60203.26
567.52	60133.04
567.68	60376.46
567.85	60163.47
568.01	60427.95
568.17	60104.96
568.34	60460.72
568.50	60261.77
568.66	60254.75
568.83	60327.31
568.99	60114.32
569.15	60399.86
569.32	60495.83
569.48	60107.30
569.64	60271.14
569.81	60315.61
569.97	60273.48
570.13	60285.18
570.30	60362.42
570.46	60554.34
570.62	60369.44
570.78	60367.10
570.95	60060.49
571.11	60404.55
571.27	60369.44
571.43	60477.10
571.60	60488.80
571.76	60229.01
571.92	60512.21
572.09	60472.42
572.25	60434.97
572.41	60317.95
572.57	60402.21
572.74	60533.28
572.90	60306.24
573.06	60624.56
573.22	60449.02
573.38	60626.90
573.55	60516.89
573.71	60659.66
573.87	60612.85
574.03	60378.80
574.20	60498.17
574.36	60645.62
574.52	60573.06
574.68	60533.28
574.84	60741.58
575.01	60601.15
575.17	60465.40
575.33	60477.10
575.49	60383.48
575.65	60500.51
575.82	60743.92
575.98	60622.22
576.14	60804.78
576.30	60673.71
576.46	60406.89
576.62	60577.75
576.79	60491.15
576.95	60582.43
577.11	60371.78
577.27	60715.84
577.43	60699.45
577.59	60523.91
577.75	60605.83
577.92	60472.42
578.08	60708.82
578.24	60722.86
578.40	60727.54
578.56	60821.16
578.72	60755.63
578.88	60816.48
579.04	60935.85
579.21	60580.09
579.37	60727.54
579.53	60701.79
579.69	60516.89
579.85	60704.13
580.01	60477.10
580.17	60608.17
580.33	60982.66
580.49	60879.67
580.65	60760.31
580.82	60830.52
580.98	60711.16
581.14	60727.54
581.30	60783.71
581.46	60877.33
581.62	60846.91
581.78	60591.79
581.94	60818.82
582.10	60596.47
582.26	60804.78
582.42	60640.94
582.58	60760.31
582.74	60664.35
582.90	60823.50
583.06	60825.84
583.22	60736.90
583.38	60842.23
583.54	60975.64
583.70	60715.84
583.86	60556.68
584.02	60786.05
584.18	60874.99
584.34	60800.10
584.50	60893.72
584.66	60734.56
584.82	60872.65
584.98	60795.42
585.14	60999.04
585.30	60764.99
585.46	60935.85
585.62	60797.76
585.78	61095.00
585.94	60676.05
586.10	60814.14
586.26	60823.50
586.42	60912.44
586.58	60874.99
586.74	61029.47
586.90	60931.17
587.06	60945.21
587.22	61017.77
587.38	60762.65
587.54	61001.38
587.70	60924.14
587.86	60917.12
588.02	60734.56
588.18	61062.24
588.34	60966.27
588.49	60860.95
