SpectraSuite Data File
++++++++++++++++++++++++++++++++++++
Date: Fri Oct 25 11:26:40 EDT 2013
User: price-jones
Dark Spectrum Present: No
Reference Spectrum Present: No
Number of Sampled Component Spectra: 1
Spectrometers: USB2+H05261
Integration Time (usec): 100000 (USB2+H05261)
Spectra Averaged: 1 (USB2+H05261)
Boxcar Smoothing: 0 (USB2+H05261)
Correct for Electrical Dark: No (USB2+H05261)
Strobe/Lamp Enabled: No (USB2+H05261)
Correct for Detector Non-linearity: No (USB2+H05261)
Correct for Stray Light: No (USB2+H05261)
Number of Pixels in Processed Spectrum: 2048
>>>>>Begin Processed Spectral Data<<<<<
365.73	224.69
365.92	224.69
366.12	224.69
366.32	110.01
366.52	177.88
366.72	180.22
366.91	133.41
367.11	107.66
367.31	105.32
367.51	126.39
367.70	229.37
367.90	138.09
368.10	177.88
368.30	131.07
368.49	140.43
368.69	168.52
368.89	102.98
369.09	105.32
369.28	255.12
369.48	154.48
369.68	191.92
369.87	227.03
370.07	182.56
370.27	224.69
370.47	318.31
370.66	603.86
370.86	617.90
371.06	655.35
371.25	650.67
371.45	709.18
371.65	713.86
371.84	791.10
372.04	690.46
372.24	709.18
372.44	718.54
372.63	737.27
372.83	741.95
373.03	741.95
373.22	720.88
373.42	737.27
373.62	746.63
373.81	873.02
374.01	828.55
374.21	835.57
374.40	793.44
374.60	917.49
374.79	833.23
374.99	798.12
375.19	870.68
375.38	840.25
375.58	866.00
375.78	777.06
375.97	889.40
376.17	903.45
376.37	887.06
376.56	861.32
376.76	926.85
376.95	870.68
377.15	884.72
377.35	933.87
377.54	903.45
377.74	919.83
377.93	877.70
378.13	842.59
378.33	903.45
378.52	863.66
378.72	931.53
378.91	1025.15
379.11	947.92
379.31	945.58
379.50	950.26
379.70	990.05
379.89	954.94
380.09	901.11
380.28	978.34
380.48	999.41
380.68	929.19
380.87	950.26
381.07	891.74
381.26	997.07
381.46	1018.13
381.65	1116.44
381.85	985.37
382.04	1121.12
382.24	1008.77
382.43	1043.88
382.63	1022.81
382.83	1128.14
383.02	1184.31
383.22	1095.37
383.41	1097.71
383.61	1071.97
383.80	1102.39
384.00	1088.35
384.19	1121.12
384.39	1146.86
384.58	1149.20
384.78	1231.12
384.97	1163.25
385.17	1196.01
385.36	1100.05
385.56	1163.25
385.75	1174.95
385.95	1226.44
386.14	1203.04
386.34	1224.10
386.53	1198.35
386.72	1308.36
386.92	1214.74
387.11	1200.69
387.31	1247.51
387.50	1299.00
387.70	1268.57
387.89	1336.45
388.09	1329.42
388.28	1291.98
388.48	1235.80
388.67	1416.02
388.86	1315.38
389.06	1416.02
389.25	1331.76
389.45	1413.68
389.64	1308.36
389.84	1441.77
390.03	1451.13
390.22	1394.96
390.42	1427.73
390.61	1352.83
390.81	1406.66
391.00	1474.54
391.19	1425.39
391.39	1444.11
391.58	1469.86
391.78	1479.22
391.97	1455.81
392.16	1540.07
392.36	1476.88
392.55	1453.47
392.75	1497.94
392.94	1511.99
393.13	1507.30
393.33	1614.97
393.52	1530.71
393.71	1621.99
393.91	1661.78
394.10	1640.72
394.29	1502.62
394.49	1596.25
394.68	1647.74
394.88	1645.40
395.07	1621.99
395.26	1685.19
395.46	1708.59
395.65	1636.03
395.84	1760.08
396.04	1724.97
396.23	1776.47
396.42	1746.04
396.62	1764.76
396.81	1769.44
397.00	1783.49
397.19	1729.66
397.39	1818.60
397.58	1781.15
397.77	1732.00
397.97	1853.70
398.16	1902.86
398.35	1895.83
398.55	1818.60
398.74	1907.54
398.93	1818.60
399.12	1923.92
399.32	1849.02
399.51	1973.07
399.70	1930.94
399.90	2036.27
400.09	2076.06
400.28	2097.12
400.47	2108.82
400.67	2097.12
400.86	2085.42
401.05	2069.03
401.24	2167.34
401.44	2106.48
401.63	2174.36
401.82	2073.71
402.01	2160.31
402.21	2186.06
402.40	2165.00
402.59	2209.47
402.78	2270.32
402.97	2256.28
403.17	2310.11
403.36	2249.25
403.55	2263.30
403.74	2373.30
403.93	2319.47
404.13	2389.69
404.32	2457.56
404.51	2424.80
404.70	2492.67
404.89	2455.22
405.09	2539.48
405.28	2427.14
405.47	2445.86
405.66	2464.58
405.85	2647.15
406.05	2520.76
406.24	2502.03
406.43	2616.72
406.62	2562.89
406.81	2700.98
407.00	2612.04
407.20	2518.42
407.39	2619.06
407.58	2708.00
407.77	2712.68
407.96	2841.41
408.15	2808.64
408.34	2672.89
408.54	2888.22
408.73	2698.64
408.92	2822.69
409.11	2827.37
409.30	2953.76
409.49	3063.76
409.68	2911.63
409.87	2909.29
410.07	2986.52
410.26	3056.74
410.45	3075.46
410.64	2925.67
410.83	3023.97
411.02	3122.27
411.21	3183.13
411.40	3112.91
411.59	3185.47
411.78	3178.45
411.98	3197.17
412.17	3157.38
412.36	3321.22
412.55	3342.28
412.74	3410.16
412.93	3557.61
413.12	3332.92
413.31	3482.72
413.50	3510.80
413.69	3506.12
413.88	3735.50
414.07	3627.83
414.26	3611.45
414.45	3829.12
414.64	3684.00
414.83	3775.28
415.02	3777.62
415.22	3810.39
415.41	3946.14
415.60	3873.59
415.79	3990.61
415.98	3988.27
416.17	4042.11
416.36	3960.19
416.55	4030.40
416.74	4018.70
416.93	4065.51
417.12	4128.70
417.31	4243.39
417.50	4187.22
417.69	4292.54
417.88	4351.06
418.07	4262.12
418.26	4451.70
418.45	4229.35
418.64	4493.83
418.83	4498.51
419.02	4425.95
419.21	4514.89
419.39	4606.17
419.58	4538.30
419.77	4542.98
419.96	4575.75
420.15	4610.86
420.34	4638.94
420.53	4627.24
420.72	4671.71
420.91	4676.39
421.10	4830.87
421.29	4671.71
421.48	4648.30
421.67	4784.06
421.86	4744.27
422.05	4812.14
422.24	4940.87
422.43	4833.21
422.61	4994.70
422.80	4896.40
422.99	4919.81
423.18	5006.41
423.37	5006.41
423.56	4983.00
423.75	4992.36
423.94	4816.82
424.13	4734.90
424.32	4812.14
424.50	5048.54
424.69	5181.95
424.88	4968.96
425.07	4957.25
425.26	4903.42
425.45	5006.41
425.64	5041.51
425.83	4985.34
426.01	5008.75
426.20	5146.84
426.39	4994.70
426.58	5018.11
426.77	5121.09
426.96	5071.94
427.15	5078.96
427.33	5158.54
427.52	5210.03
427.71	5210.03
427.90	5256.84
428.09	5352.81
428.28	5287.27
428.46	5408.98
428.65	5357.49
428.84	5530.69
429.03	5420.68
429.22	5263.86
429.40	5467.49
429.59	5362.17
429.78	5172.58
429.97	5242.80
430.16	5336.42
430.34	5584.52
430.53	5535.37
430.72	5582.18
430.91	5572.82
431.10	5825.59
431.28	5736.65
431.47	5909.85
431.66	5930.92
431.85	5846.66
432.03	6078.37
432.22	6083.05
432.41	6017.52
432.60	5837.30
432.79	5970.71
432.97	6043.26
433.16	5991.77
433.35	6008.16
433.54	6054.97
433.72	6181.35
433.91	6064.33
434.10	5991.77
434.28	6150.93
434.47	6174.33
434.66	6274.98
434.85	6345.19
435.03	6289.02
435.22	6370.94
435.41	6363.92
435.59	6509.03
435.78	6497.33
435.97	6324.13
436.16	6380.30
436.34	6544.14
436.53	6733.72
436.72	6649.46
436.90	6436.47
437.09	6518.39
437.28	6520.73
437.46	6600.31
437.65	6679.89
437.84	6789.89
438.02	6707.98
438.21	6640.10
438.40	6855.43
438.58	7229.91
438.77	7077.78
438.96	7037.99
439.14	7131.61
439.33	7218.21
439.52	7375.03
439.70	7293.11
439.89	7267.36
440.08	7339.92
440.26	7456.95
440.45	7482.69
440.63	7538.87
440.82	7730.79
441.01	7534.18
441.19	7700.36
441.38	7840.79
441.57	7819.73
441.75	7665.25
441.94	7978.89
442.12	8056.12
442.31	8013.99
442.50	8133.36
442.68	7985.91
442.87	8154.43
443.05	8107.62
443.24	8304.22
443.43	8250.39
443.61	8257.41
443.80	8493.80
443.98	8224.64
444.17	7775.26
444.35	8234.00
444.54	8358.05
444.73	8320.60
444.91	8449.33
445.10	8430.61
445.28	8374.44
445.47	8187.19
445.65	8215.28
445.84	8711.47
446.02	8685.73
446.21	8524.23
446.39	8388.48
446.58	8437.63
446.77	8559.34
446.95	8283.16
447.14	8386.14
447.32	8336.99
447.51	8498.49
447.69	8486.78
447.88	8631.90
448.06	8732.54
448.25	8500.83
448.43	8669.34
448.62	8688.07
448.80	8620.19
448.99	8769.99
449.17	8610.83
449.36	8713.81
449.54	8781.69
449.73	9088.30
449.91	8945.53
450.10	8905.74
450.28	8912.76
450.46	9146.81
450.65	9022.77
450.83	9130.43
451.02	8884.67
451.20	9233.41
451.39	9207.67
451.57	9214.69
451.76	9095.32
451.94	9383.21
452.13	9376.19
452.31	9434.70
452.49	8959.57
452.68	9465.13
452.86	9181.92
453.05	9394.91
453.23	9664.07
453.42	9404.27
453.60	9437.04
453.78	9540.02
453.97	9659.39
454.15	9425.34
454.34	9633.64
454.52	9769.40
454.70	9841.95
454.89	9563.43
455.07	9888.76
455.26	9881.74
455.44	9858.34
455.62	9858.34
455.81	10057.28
455.99	9937.91
456.17	10312.40
456.36	10160.27
456.54	10389.64
456.73	10469.22
456.91	10565.18
457.09	10443.47
457.28	10710.29
457.46	10462.19
457.64	10700.93
457.83	10471.56
458.01	10391.98
458.19	10815.62
458.38	10560.50
458.56	10794.55
458.74	10672.84
458.93	10993.50
459.11	10846.04
459.29	10729.02
459.48	10785.19
459.66	10806.25
459.84	10581.56
460.03	11131.59
460.21	11023.92
460.39	11026.26
460.57	11213.51
460.76	11398.41
460.94	11323.51
461.12	11260.32
461.31	11150.31
461.49	11276.70
461.67	11059.03
461.85	11342.24
462.04	11421.81
462.22	11742.47
462.40	11754.17
462.59	11548.20
462.77	11604.38
462.95	11756.51
463.13	11737.79
463.32	11700.34
463.50	11674.59
463.68	11955.46
463.86	12035.03
464.05	11564.59
464.23	11796.30
464.41	11910.99
464.59	11784.60
464.78	12264.41
464.96	12318.24
465.14	11695.66
465.32	12198.87
465.50	12084.19
465.69	12161.42
465.87	12142.70
466.05	12212.92
466.23	12121.63
466.41	12229.30
466.60	12355.69
466.78	12301.86
466.96	12154.40
467.14	12311.22
467.32	12559.31
467.51	12484.42
467.69	12334.62
467.87	12416.54
468.05	12589.74
468.23	12353.35
468.41	12435.27
468.60	12779.32
468.78	12915.08
468.96	12734.85
469.14	12788.69
469.32	13029.76
469.50	12587.40
469.69	13245.09
469.87	13060.19
470.05	13004.02
470.23	13422.97
470.41	13179.56
470.59	13212.32
470.77	13371.48
470.95	13420.63
471.14	13544.68
471.32	13184.24
471.50	13614.90
471.68	13561.06
471.86	13970.66
472.04	13839.59
472.22	14085.34
472.40	13701.50
472.58	13661.71
472.77	13809.16
472.95	14193.01
473.13	14398.98
473.31	14239.82
473.49	14188.33
473.67	14237.48
473.85	14583.88
474.03	14860.06
474.21	14609.62
474.39	14523.02
474.57	14876.44
474.75	14906.87
474.93	15091.77
475.12	15234.55
475.30	15075.39
475.48	14977.09
475.66	15281.36
475.84	14960.70
476.02	15393.70
476.20	15545.84
476.38	15852.45
476.56	16098.20
476.74	16205.87
476.92	15971.82
477.10	15880.53
477.28	16224.59
477.46	16184.80
477.64	16460.99
477.82	16573.33
478.00	17085.91
478.18	16807.39
478.36	16769.94
478.54	17179.53
478.72	17338.69
478.90	17778.71
479.08	17600.83
479.26	17392.52
479.44	18169.58
479.62	17879.35
479.80	18167.24
479.98	18256.18
480.16	18565.13
480.34	18506.62
480.52	18565.13
480.70	18757.05
480.88	18422.36
481.06	18829.61
481.24	18948.98
481.41	19501.34
481.59	19517.73
481.77	19304.74
481.95	19641.78
482.13	19772.85
482.31	19695.61
482.49	20161.37
482.67	20175.42
482.85	20297.13
483.03	20512.46
483.21	20844.81
483.39	21270.79
483.57	21036.74
483.74	21341.00
483.92	21324.62
484.10	21357.39
484.28	21844.22
484.46	22448.08
484.64	22286.58
484.82	21979.97
485.00	22609.58
485.18	22918.53
485.35	23353.87
485.53	23000.44
485.71	23271.95
485.89	23527.06
486.07	23323.44
486.25	23587.92
486.43	23566.85
486.61	23943.68
486.78	24112.20
486.96	24451.58
487.14	24793.29
487.32	24580.31
487.50	24896.28
487.68	24751.17
487.85	25432.26
488.03	25766.96
488.21	26108.68
488.39	26164.85
488.57	26253.79
488.75	26043.14
488.92	26345.07
489.10	26902.12
489.28	26581.46
489.46	27019.14
489.64	27262.56
489.81	27686.20
489.99	27992.81
490.17	27793.86
490.35	28507.72
490.53	28575.60
490.70	28533.47
490.88	28460.91
491.06	28617.73
491.24	28664.54
491.41	29163.08
491.59	29986.94
491.77	29362.02
491.95	29991.62
492.13	29888.64
492.30	30017.37
492.48	29928.43
492.66	30110.99
492.84	30551.01
493.01	31077.63
493.19	30843.58
493.37	30955.93
493.54	31290.62
493.72	31655.75
493.90	31339.77
494.08	31789.16
494.25	32158.96
494.43	32336.84
494.61	32573.24
494.79	32662.18
494.96	32339.18
495.14	32903.25
495.32	32992.19
495.49	33259.01
495.67	33425.19
495.85	33844.15
496.02	34263.10
496.20	34408.22
496.38	34206.93
496.55	34387.15
496.73	35192.30
496.91	34590.78
497.09	34749.93
497.26	34909.09
497.44	34953.56
497.62	35777.43
497.79	35908.50
497.97	35747.00
498.14	36137.87
498.32	36201.07
498.50	36299.37
498.67	36238.51
498.85	36470.23
499.03	36914.93
499.20	36767.48
499.38	37237.92
499.56	36968.76
499.73	37467.30
499.91	37544.53
500.08	37816.04
500.26	37654.54
500.44	37844.12
500.61	38188.18
500.79	37935.40
500.97	38321.59
501.14	38869.28
501.32	38817.78
501.49	38630.54
501.67	38452.66
501.84	39431.01
502.02	39475.48
502.20	39374.83
502.37	39477.82
502.55	39213.34
502.72	39927.20
502.90	39751.66
503.07	39775.06
503.25	40079.33
503.43	40055.93
503.60	40154.23
503.78	40392.97
503.95	40474.88
504.13	40767.45
504.30	40849.37
504.48	40624.68
504.65	40584.89
504.83	41053.00
505.01	41462.59
505.18	41380.67
505.36	41600.68
505.53	41165.34
505.71	41853.46
505.88	42178.79
506.06	41792.61
506.23	42141.35
506.41	42146.03
506.58	42073.47
506.76	42064.11
506.93	42972.24
507.11	41954.10
507.28	42686.69
507.46	42962.87
507.63	43332.68
507.81	43388.85
507.98	43112.67
508.16	43503.54
508.33	43786.74
508.50	43442.68
508.68	44044.20
508.85	44158.89
509.03	43566.73
509.20	44287.62
509.38	44219.74
509.55	44514.65
509.73	44734.66
509.90	44755.72
510.08	44989.78
510.25	44741.68
510.42	44776.79
510.60	44935.95
510.77	45401.71
510.95	45195.74
511.12	45785.56
511.30	45663.85
511.47	45312.77
511.64	45605.34
511.82	46052.38
511.99	45851.09
512.17	46092.17
512.34	46127.28
512.51	46550.91
512.69	46852.84
512.86	46649.22
513.04	46745.18
513.21	46775.61
513.38	46838.80
513.56	47117.32
513.73	47007.32
513.90	46852.84
514.08	46829.44
514.25	47828.85
514.43	47344.36
514.60	47629.90
514.77	47597.13
514.95	48203.33
515.12	47711.82
515.29	47665.01
515.47	47903.74
515.64	47983.32
515.81	48072.26
515.99	48243.12
516.16	48570.80
516.33	48402.28
516.51	48523.99
516.68	48608.25
516.85	48666.76
517.03	49139.55
517.20	49177.00
517.37	48804.85
517.54	49200.40
517.72	49022.52
517.89	49221.47
518.06	49275.30
518.24	49345.51
518.41	49373.60
518.58	49544.46
518.75	49392.33
518.93	49581.91
519.10	49682.55
519.27	50145.98
519.45	49830.01
519.62	49893.20
519.79	49984.48
519.96	50312.16
520.14	50480.67
520.31	49837.03
520.48	50607.06
520.65	50408.12
520.83	51077.51
521.00	50815.37
521.17	50740.47
521.34	50958.14
521.52	50916.01
521.69	51269.43
521.86	51379.44
522.03	51377.10
522.20	51452.00
522.38	51779.67
522.55	51320.93
522.72	51334.97
522.89	51547.96
523.07	51547.96
523.24	51641.58
523.41	51845.21
523.58	51613.49
523.75	52135.43
523.92	51924.78
524.10	51863.93
524.27	52280.55
524.44	52074.58
524.61	52271.18
524.78	52093.30
524.96	52362.46
525.13	52306.29
525.30	52430.34
525.47	52837.59
525.64	52683.12
525.81	52570.77
525.98	52779.08
526.16	52648.01
526.33	52830.57
526.50	53127.82
526.67	52987.39
526.84	52973.34
527.01	52645.67
527.18	53062.29
527.36	52919.51
527.53	53120.80
527.70	53638.06
527.87	53698.91
528.04	53174.63
528.21	53560.82
528.38	53434.43
528.55	53799.55
528.72	53418.05
528.89	53612.31
529.07	53329.11
529.24	53563.16
529.41	53834.66
529.58	53535.07
529.75	54033.61
529.92	53897.86
530.09	53792.53
530.26	54094.46
530.43	54176.38
530.60	53876.79
530.77	53806.58
530.94	54218.51
531.11	53977.43
531.28	54143.61
531.46	54209.15
531.63	54532.14
531.80	54363.62
531.97	54403.41
532.14	54454.90
532.31	54433.84
532.48	54578.95
532.65	54869.18
532.82	54691.30
532.99	54717.04
533.16	54808.32
533.33	54827.05
533.50	55028.34
533.67	54941.74
533.84	54869.18
534.01	54972.16
534.18	54941.74
534.35	55220.26
534.52	55246.00
534.69	55224.94
534.86	55458.99
535.03	55114.94
535.20	55234.30
535.37	55522.19
535.54	55683.69
535.71	55519.85
535.88	55749.22
536.05	55505.80
536.22	55882.63
536.38	55674.32
536.55	55557.30
536.72	55866.25
536.89	55655.60
537.06	55414.52
537.23	56023.06
537.40	55676.66
537.57	55781.99
537.74	55824.12
537.91	56327.33
538.08	55990.30
538.25	55791.35
538.42	56135.41
538.59	56074.55
538.75	55833.48
538.92	55980.93
539.09	56257.12
539.26	55894.33
539.43	56067.53
539.60	56528.62
539.77	56346.06
539.94	56545.00
540.11	56477.13
540.28	56467.76
540.44	56500.53
540.61	56514.58
540.78	56566.07
540.95	56750.97
541.12	56631.60
541.29	56545.00
541.46	56655.01
541.62	56741.61
541.79	56708.84
541.96	56409.25
542.13	56561.39
542.30	56638.62
542.47	57036.51
542.63	56942.89
542.80	57226.10
542.97	57308.02
543.14	57247.16
543.31	57354.83
543.48	57476.54
543.64	57572.50
543.81	57411.00
543.98	57623.99
544.15	57623.99
544.32	57291.63
544.48	57579.52
544.65	57293.97
544.82	57621.65
544.99	57656.76
545.16	57675.48
545.32	57502.28
545.49	57834.64
545.66	57717.61
545.83	57780.81
546.00	57780.81
546.16	57549.09
546.33	57738.68
546.50	57696.55
546.67	57888.47
546.83	57865.06
547.00	57848.68
547.17	57645.05
547.34	57855.70
547.50	57968.05
547.67	58262.96
547.84	57991.45
548.00	58026.56
548.17	58323.81
548.34	58117.84
548.51	58253.59
548.67	58342.53
548.84	58291.04
549.01	58202.10
549.18	58176.36
549.34	58473.60
549.51	58284.02
549.68	58410.41
549.84	58237.21
550.01	58564.88
550.18	58321.47
550.34	58527.44
550.51	58557.86
550.68	58618.72
550.84	58368.28
551.01	58705.32
551.18	58672.55
551.34	58436.16
551.51	58548.50
551.68	58791.92
551.84	58761.49
552.01	58553.18
552.18	58862.13
552.34	58520.41
552.51	58822.34
552.68	58508.71
552.84	58726.38
553.01	59077.46
553.18	58768.51
553.34	58803.62
553.51	58946.39
553.67	59030.65
553.84	58955.75
554.01	58958.09
554.17	59009.59
554.34	59000.22
554.51	59199.17
554.67	59098.53
554.84	59047.04
555.00	59011.93
555.17	59260.02
555.33	59192.15
555.50	58852.77
555.67	58958.09
555.83	59274.07
556.00	59145.34
556.16	59435.56
556.33	59217.89
556.50	59313.86
556.66	59414.50
556.83	59093.85
556.99	59512.80
557.16	59419.18
557.32	59538.55
557.49	59639.19
557.65	59435.56
557.82	59482.37
557.98	59320.88
558.15	59561.95
558.32	59463.65
558.48	59578.34
558.65	59512.80
558.81	59622.81
558.98	59580.68
559.14	59678.98
559.31	59625.15
559.47	59781.96
559.64	59810.05
559.80	59863.88
559.97	59646.21
560.13	59522.16
560.30	59714.09
560.46	59774.94
560.63	59922.40
560.79	59763.24
560.96	60116.66
561.12	60011.34
561.29	59880.27
561.45	59880.27
561.61	60004.31
561.78	60025.38
561.94	59791.33
562.11	59859.20
562.27	59824.09
562.44	60165.81
562.60	60238.37
562.77	60161.13
562.93	60013.68
563.10	60224.32
563.26	60062.83
563.42	60165.81
563.59	60104.96
563.75	59950.48
563.92	60067.51
564.08	59976.23
564.24	60186.88
564.41	60191.56
564.57	60149.43
564.74	60100.28
564.90	60406.89
565.07	60247.73
565.23	60144.75
565.39	60177.51
565.56	60111.98
565.72	60076.87
565.88	60430.29
566.05	60196.24
566.21	60301.56
566.38	60191.56
566.54	60317.95
566.70	60240.71
566.87	60252.41
567.03	60231.35
567.19	60580.09
567.36	60491.15
567.52	60402.21
567.68	60704.13
567.85	60268.79
568.01	60390.50
568.17	60172.83
568.34	60554.34
568.50	60266.45
568.66	60411.57
568.83	60575.40
568.99	60383.48
569.15	60500.51
569.32	60516.89
569.48	60292.20
569.64	60704.13
569.81	60502.85
569.97	60437.31
570.13	60685.41
570.30	60420.93
570.46	60514.55
570.62	60563.70
570.78	60509.87
570.95	60458.38
571.11	60732.22
571.27	60505.19
571.43	60537.96
571.60	60701.79
571.76	60800.10
571.92	60673.71
572.09	60814.14
572.25	60657.32
572.41	60556.68
572.57	60453.70
572.74	61050.53
572.90	60451.36
573.06	60640.94
573.22	60786.05
573.38	60720.52
573.55	60846.91
573.71	60860.95
573.87	60879.67
574.03	60739.24
574.20	60837.54
574.36	60652.64
574.52	61010.74
574.68	61052.87
574.84	60734.56
575.01	61010.74
575.17	60905.42
575.33	60636.26
575.49	60659.66
575.65	60757.97
575.82	60945.21
575.98	60870.31
576.14	61027.13
576.30	60617.53
576.46	60849.25
576.62	60856.27
576.79	60814.14
576.95	60942.87
577.11	60898.40
577.27	60889.04
577.43	60753.29
577.59	60973.30
577.75	60800.10
577.92	60921.80
578.08	60982.66
578.24	60750.94
578.40	60952.23
578.56	60926.49
578.72	60891.38
578.88	61008.40
579.04	61048.19
579.21	60804.78
579.37	60947.55
579.53	61090.32
579.69	60825.84
579.85	60903.08
580.01	60874.99
580.17	60919.46
580.33	60856.27
580.49	61083.30
580.65	60982.66
580.82	60961.59
580.98	60816.48
581.14	60907.76
581.30	60977.98
581.46	60858.61
581.62	60992.02
581.78	61052.87
581.94	60917.12
582.10	60863.29
582.26	61022.45
582.42	60977.98
582.58	60931.17
582.74	60910.10
582.90	60968.61
583.06	60994.36
583.22	60837.54
583.38	61062.24
583.54	60980.32
583.70	60996.70
583.86	60959.25
584.02	61050.53
584.18	61188.63
584.34	61062.24
584.50	60898.40
584.66	61134.79
584.82	60940.53
584.98	61190.97
585.14	61240.12
585.30	61057.56
585.46	61113.73
585.62	61153.52
585.78	61186.28
585.94	60933.51
586.10	60985.00
586.26	61038.83
586.42	61244.80
586.58	61226.07
586.74	61041.17
586.90	61169.90
587.06	61137.13
587.22	61195.65
587.38	61057.56
587.54	61186.28
587.70	61303.31
587.86	60989.68
588.02	61029.47
588.18	61324.38
588.34	61109.05
588.49	61212.03
