SpectraSuite Data File
++++++++++++++++++++++++++++++++++++
Date: Fri Oct 25 11:23:01 EDT 2013
User: price-jones
Dark Spectrum Present: No
Reference Spectrum Present: No
Number of Sampled Component Spectra: 1
Spectrometers: USB2+H05261
Integration Time (usec): 100000 (USB2+H05261)
Spectra Averaged: 1 (USB2+H05261)
Boxcar Smoothing: 0 (USB2+H05261)
Correct for Electrical Dark: No (USB2+H05261)
Strobe/Lamp Enabled: No (USB2+H05261)
Correct for Detector Non-linearity: No (USB2+H05261)
Correct for Stray Light: No (USB2+H05261)
Number of Pixels in Processed Spectrum: 2048
>>>>>Begin Processed Spectral Data<<<<<
365.73	252.78
365.92	252.78
366.12	252.78
366.32	154.48
366.52	81.92
366.72	170.86
366.91	154.48
367.11	86.60
367.31	117.03
367.51	156.82
367.70	145.11
367.90	149.79
368.10	53.83
368.30	140.43
368.49	107.66
368.69	128.73
368.89	135.75
369.09	131.07
369.28	147.45
369.48	198.95
369.68	161.50
369.87	191.92
370.07	210.65
370.27	334.70
370.47	325.33
370.66	552.37
370.86	624.92
371.06	688.12
371.25	660.03
371.45	702.16
371.65	613.22
371.84	688.12
372.04	685.78
372.24	683.44
372.44	683.44
372.63	685.78
372.83	788.76
373.03	699.82
373.22	748.97
373.42	744.29
373.62	718.54
373.81	725.57
374.01	854.30
374.21	856.64
374.40	800.46
374.60	800.46
374.79	802.80
374.99	765.36
375.19	849.61
375.38	849.61
375.58	737.27
375.78	908.13
375.97	905.79
376.17	924.51
376.37	777.06
376.56	849.61
376.76	880.04
376.95	807.48
377.15	795.78
377.35	973.66
377.54	861.32
377.74	947.92
377.93	842.59
378.13	915.15
378.33	961.96
378.52	905.79
378.72	926.85
378.91	983.02
379.11	964.30
379.31	926.85
379.50	905.79
379.70	940.90
379.89	997.07
380.09	922.17
380.28	1025.15
380.48	992.39
380.68	919.83
380.87	1018.13
381.07	959.62
381.26	1046.22
381.46	973.66
381.65	1055.58
381.85	1057.92
382.04	1011.11
382.24	1043.88
382.43	1057.92
382.63	1046.22
382.83	1100.05
383.02	1074.31
383.22	1137.50
383.41	1034.52
383.61	1076.65
383.80	1053.24
384.00	1078.99
384.19	1153.88
384.39	1093.03
384.58	1118.78
384.78	1158.57
384.97	1174.95
385.17	1170.27
385.36	1114.10
385.56	1193.67
385.75	1203.04
385.95	1233.46
386.14	1210.06
386.34	1088.35
386.53	1289.64
386.72	1214.74
386.92	1289.64
387.11	1240.48
387.31	1322.40
387.50	1240.48
387.70	1179.63
387.89	1228.78
388.09	1277.93
388.28	1228.78
388.48	1270.91
388.67	1331.76
388.86	1350.49
389.06	1296.66
389.25	1397.30
389.45	1303.68
389.64	1378.58
389.84	1401.98
390.03	1378.58
390.22	1514.33
390.42	1394.96
390.61	1287.29
390.81	1423.05
391.00	1561.14
391.19	1418.36
391.39	1432.41
391.58	1474.54
391.78	1469.86
391.97	1444.11
392.16	1469.86
392.36	1572.84
392.55	1511.99
392.75	1558.80
392.94	1497.94
393.13	1462.83
393.33	1526.03
393.52	1617.31
393.71	1556.46
393.91	1577.52
394.10	1610.29
394.29	1675.82
394.49	1579.86
394.68	1614.97
394.88	1636.03
395.07	1776.47
395.26	1682.85
395.46	1617.31
395.65	1689.87
395.84	1743.70
396.04	1771.79
396.23	1678.16
396.42	1678.16
396.62	1739.02
396.81	1837.32
397.00	1739.02
397.19	1778.81
397.39	1851.36
397.58	1839.66
397.77	1739.02
397.97	1912.22
398.16	1839.66
398.35	1963.71
398.55	1888.81
398.74	1923.92
398.93	2026.90
399.12	2062.01
399.32	1954.35
399.51	1991.80
399.70	2010.52
399.90	1823.28
400.09	1996.48
400.28	2073.71
400.47	2064.35
400.67	2108.82
400.86	2001.16
401.05	2052.65
401.24	2092.44
401.44	2150.95
401.63	2036.27
401.82	2148.61
402.01	2207.13
402.21	2155.63
402.40	2200.10
402.59	2139.25
402.78	2209.47
402.97	2303.09
403.17	2246.91
403.36	2284.36
403.55	2251.60
403.74	2392.03
403.93	2361.60
404.13	2382.67
404.32	2415.43
404.51	2375.64
404.70	2565.23
404.89	2403.73
405.09	2518.42
405.28	2492.67
405.47	2527.78
405.66	2551.18
405.85	2600.34
406.05	2434.16
406.24	2626.08
406.43	2595.65
406.62	2623.74
406.81	2682.25
407.00	2523.10
407.20	2616.72
407.39	2750.13
407.58	2747.79
407.77	2745.45
407.96	2761.83
408.15	2675.23
408.34	2700.98
408.54	2897.58
408.73	2902.26
408.92	2871.84
409.11	3000.57
409.30	2892.90
409.49	2867.16
409.68	2939.71
409.87	2935.03
410.07	3073.12
410.26	3033.33
410.45	3091.85
410.64	3066.10
410.83	3138.66
411.02	3164.40
411.21	3096.53
411.40	3126.96
411.59	3323.56
411.78	3281.43
411.98	3262.71
412.17	3293.13
412.36	3253.34
412.55	3361.01
412.74	3396.12
412.93	3487.40
413.12	3243.98
413.31	3623.15
413.50	3543.57
413.69	3475.70
413.88	3646.55
414.07	3726.13
414.26	3604.42
414.45	3625.49
414.64	3637.19
414.83	3726.13
415.02	3875.93
415.22	3768.26
415.41	3922.74
415.60	3974.23
415.79	3969.55
415.98	3859.54
416.17	3859.54
416.36	4009.34
416.55	3974.23
416.74	4124.02
416.93	4004.66
417.12	4163.81
417.31	4175.52
417.50	4301.90
417.69	4255.09
417.88	4339.35
418.07	4374.46
418.26	4341.69
418.45	4428.29
418.64	4510.21
418.83	4557.02
419.02	4585.11
419.21	4578.09
419.39	4613.20
419.58	4564.04
419.77	4498.51
419.96	4468.08
420.15	4603.83
420.34	4650.64
420.53	4784.06
420.72	4730.22
420.91	4765.33
421.10	4692.77
421.29	4770.01
421.48	4674.05
421.67	4786.40
421.86	4826.18
422.05	4650.64
422.24	4802.78
422.43	4999.38
422.61	4828.53
422.80	4959.60
422.99	4950.23
423.18	4943.21
423.37	4943.21
423.56	4964.28
423.75	4912.78
423.94	4758.31
424.13	4594.47
424.32	4826.18
424.50	5104.71
424.69	5210.03
424.88	5029.81
425.07	5102.37
425.26	4851.93
425.45	5055.56
425.64	4837.89
425.83	5149.18
426.01	5235.78
426.20	5224.08
426.39	5064.92
426.58	5228.76
426.77	5062.58
426.96	5181.95
427.15	5107.05
427.33	5198.33
427.52	5078.96
427.71	5383.23
427.90	5163.22
428.09	5224.08
428.28	5540.05
428.46	5366.85
428.65	5327.06
428.84	5633.67
429.03	5577.50
429.22	5458.13
429.40	5640.69
429.59	5453.45
429.78	5378.55
429.97	5359.83
430.16	5488.56
430.34	5591.54
430.53	5771.76
430.72	5715.59
430.91	5731.97
431.10	5652.39
431.28	5790.49
431.47	5832.62
431.66	5849.00
431.85	5881.77
432.03	5867.72
432.22	5921.56
432.41	6019.86
432.60	5858.36
432.79	5968.37
432.97	6054.97
433.16	5956.66
433.35	5961.34
433.54	5991.77
433.72	6169.65
433.91	6104.12
434.10	6237.53
434.28	6164.97
434.47	6148.59
434.66	6352.21
434.85	6291.36
435.03	6298.38
435.22	6289.02
435.41	6438.81
435.59	6445.84
435.78	6466.90
435.97	6459.88
436.16	6532.44
436.34	6399.02
436.53	6635.42
436.72	6740.74
436.90	6487.96
437.09	6658.82
437.28	6562.86
437.46	6649.46
437.65	6834.36
437.84	6820.32
438.02	6766.49
438.21	6857.77
438.40	6722.02
438.58	6944.37
438.77	7019.27
438.96	7063.74
439.14	7150.34
439.33	7351.62
439.52	7213.53
439.70	7157.36
439.89	7527.16
440.08	7470.99
440.26	7384.39
440.45	7330.56
440.63	7644.19
440.82	7592.70
441.01	7529.50
441.19	7693.34
441.38	7714.41
441.57	7859.52
441.75	7833.77
441.94	7969.52
442.12	8060.80
442.31	8177.83
442.50	8135.70
442.68	7971.86
442.87	8004.63
443.05	8114.64
443.24	8133.36
443.43	8091.23
443.61	8201.24
443.80	8655.30
443.98	7878.24
444.17	7861.86
444.35	8257.41
444.54	8304.22
444.73	8463.38
444.91	8208.26
445.10	8549.98
445.28	8430.61
445.47	8510.19
445.65	8432.95
445.84	8500.83
446.02	8650.62
446.21	8484.44
446.39	8557.00
446.58	8500.83
446.77	8587.43
446.95	8304.22
447.14	8496.14
447.32	8599.13
447.51	8411.89
447.69	8573.38
447.88	8540.61
448.06	8667.00
448.25	8491.46
448.43	8854.25
448.62	8547.64
448.80	8514.87
448.99	8596.79
449.17	8606.15
449.36	8784.03
449.54	8882.33
449.73	9018.08
449.91	9109.36
450.10	9029.79
450.28	9179.58
450.46	9270.86
450.65	9146.81
450.83	9020.42
451.02	9050.85
451.20	9469.81
451.39	9259.16
451.57	9123.41
451.76	8999.36
451.94	9291.93
452.13	9188.94
452.31	9298.95
452.49	9291.93
452.68	9256.82
452.86	9376.19
453.05	9568.11
453.23	9600.88
453.42	9444.06
453.60	9338.74
453.78	9568.11
453.97	9458.10
454.15	9628.96
454.34	9738.97
454.52	9755.35
454.70	9802.16
454.89	9701.52
455.07	9907.49
455.26	9844.29
455.44	9937.91
455.62	9900.47
455.81	9860.68
455.99	10003.45
456.17	10078.35
456.36	10099.41
456.54	10214.10
456.73	10305.38
456.91	10541.77
457.09	10537.09
457.28	10827.32
457.46	10338.15
457.64	10539.43
457.83	10579.22
458.01	10310.06
458.19	10670.50
458.38	10464.54
458.56	10764.12
458.74	10965.41
458.93	10857.75
459.11	10934.98
459.29	10972.43
459.48	10932.64
459.66	10909.24
459.84	11112.86
460.03	11192.44
460.21	11314.15
460.39	10848.38
460.57	11459.26
460.76	11117.54
460.94	11367.98
461.12	11267.34
461.31	11323.51
461.49	11410.11
461.67	11204.14
461.85	11662.89
462.04	11358.62
462.22	11669.91
462.40	11641.82
462.59	11599.70
462.77	11709.70
462.95	11569.27
463.13	11602.04
463.32	11623.10
463.50	11728.42
463.68	11974.18
463.86	11932.05
464.05	11646.51
464.23	11700.34
464.41	11894.60
464.59	11770.55
464.78	11967.16
464.96	12011.63
465.14	11913.33
465.32	12105.25
465.50	12170.79
465.69	12189.51
465.87	12145.04
466.05	12276.11
466.23	12255.04
466.41	12538.25
466.60	12613.15
466.78	12238.66
466.96	12318.24
467.14	12166.10
467.32	12369.73
467.51	12564.00
467.69	12339.30
467.87	12666.98
468.05	12709.11
468.23	12505.48
468.41	12435.27
468.60	12620.17
468.78	12826.14
468.96	12716.13
469.14	12933.80
469.32	12924.44
469.50	12816.77
469.69	12989.97
469.87	13132.75
470.05	13359.78
470.23	13275.52
470.41	13411.27
470.59	13277.86
470.77	13341.05
470.95	13427.65
471.14	13544.68
471.32	13432.33
471.50	13561.06
471.68	13851.29
471.86	13530.64
472.04	13970.66
472.22	14129.81
472.40	14066.62
472.58	14244.50
472.77	14059.60
472.95	14305.35
473.13	14705.59
473.31	14204.71
473.49	14237.48
473.67	14193.01
473.85	14324.08
474.03	14808.57
474.21	14607.28
474.39	14909.21
474.57	14766.44
474.75	14719.63
474.93	15492.01
475.12	15026.24
475.30	15201.78
475.48	15288.38
475.66	15602.01
475.84	15164.33
476.02	15480.30
476.20	15534.14
476.38	16032.67
476.56	16070.12
476.74	16011.60
476.92	16077.14
477.10	15903.94
477.28	16245.66
477.46	15981.18
477.64	16109.91
477.82	16872.92
478.00	17160.81
478.18	16802.71
478.36	16760.58
478.54	17310.60
478.72	17422.95
478.90	17486.14
479.08	17947.23
479.26	18001.06
479.44	17902.76
479.62	17841.90
479.80	18040.85
479.98	18066.60
480.16	18618.96
480.34	18195.32
480.52	18977.06
480.70	18885.78
480.88	18555.77
481.06	19009.83
481.24	19173.67
481.41	19098.77
481.59	19606.67
481.77	19772.85
481.95	19613.69
482.13	19735.40
482.31	19765.82
482.49	20456.28
482.67	20109.88
482.85	20493.73
483.03	20671.61
483.21	20772.25
483.39	21163.12
483.57	21015.67
483.74	21247.38
483.92	21394.84
484.10	21530.59
484.28	22080.61
484.46	22167.21
484.64	22342.75
484.82	22064.23
485.00	22892.78
485.18	22813.20
485.35	23274.29
485.53	22897.46
485.71	23534.09
485.89	23606.64
486.07	23068.32
486.25	23793.89
486.43	24067.73
486.61	23997.51
486.78	24297.10
486.96	24512.43
487.14	25022.67
487.32	24868.19
487.50	25291.83
487.68	25312.89
487.85	25621.84
488.03	25724.83
488.21	26118.04
488.39	25909.73
488.57	26141.44
488.75	26705.51
488.92	26764.03
489.10	26885.73
489.28	26810.84
489.46	27295.33
489.64	27145.53
489.81	27477.89
489.99	28013.87
490.17	28411.76
490.35	28151.96
490.53	28610.71
490.70	28587.30
490.88	28484.32
491.06	29036.69
491.24	29008.60
491.41	29373.72
491.59	29500.11
491.77	29624.16
491.95	29806.72
492.13	29930.77
492.30	30321.64
492.48	30536.97
492.66	30314.62
492.84	30426.96
493.01	31042.53
493.19	31171.25
493.37	31466.16
493.54	31433.39
493.72	31751.71
493.90	31950.65
494.08	32088.74
494.25	31889.80
494.43	32561.53
494.61	32851.76
494.79	32442.17
494.96	32730.05
495.14	32959.42
495.32	33230.93
495.49	33223.90
495.67	33141.99
495.85	33813.72
496.02	34117.99
496.20	34377.79
496.38	34501.84
496.55	34361.40
496.73	35194.64
496.91	34941.86
497.09	35093.99
497.26	35206.34
497.44	35515.29
497.62	35049.52
497.79	36025.53
497.97	35854.67
498.14	35796.15
498.32	36671.51
498.50	36591.94
498.67	36912.59
498.85	36407.03
499.03	36856.42
499.20	36882.16
499.38	37317.50
499.56	37263.67
499.73	37422.83
499.91	37965.83
500.08	37727.10
500.26	37556.24
500.44	37989.24
500.61	38272.44
500.79	38234.99
500.97	38433.94
501.14	38923.11
501.32	38909.07
501.49	38534.58
501.67	38990.98
501.84	39278.87
502.02	39063.54
502.20	39164.18
502.37	39653.36
502.55	40114.44
502.72	39632.29
502.90	39896.77
503.07	40119.12
503.25	39784.43
503.43	39751.66
503.60	40289.98
503.78	40533.40
503.95	40907.88
504.13	40680.85
504.30	40968.74
504.48	40842.35
504.65	41212.15
504.83	41556.21
505.01	41684.94
505.18	41450.89
505.36	41617.07
505.53	41624.09
505.71	42241.99
505.88	42183.48
506.06	41738.77
506.23	42279.44
506.41	42101.56
506.58	42410.51
506.76	42223.26
506.93	42862.23
507.11	42600.09
507.28	42625.84
507.46	42988.62
507.63	42770.95
507.81	43257.78
507.98	42948.83
508.16	43358.42
508.33	43973.98
508.50	43482.47
508.68	43786.74
508.85	44406.98
509.03	44210.38
509.20	44416.35
509.38	45167.66
509.55	44821.26
509.73	44828.28
509.90	45223.83
510.08	44744.02
510.25	45457.88
510.42	44982.76
510.60	44868.07
510.77	44959.35
510.95	45558.53
511.12	45394.69
511.30	45532.78
511.47	45600.66
511.64	45764.49
511.82	46529.85
511.99	46021.95
512.17	46080.47
512.34	46330.90
512.51	46852.84
512.69	46686.67
512.86	46225.58
513.04	47096.26
513.21	46897.31
513.38	46979.23
513.56	47075.19
513.73	47044.77
513.90	47016.68
514.08	47246.05
514.25	47571.39
514.43	47817.14
514.60	47838.21
514.77	47840.55
514.95	48163.54
515.12	47807.78
515.29	47997.37
515.47	48163.54
515.64	48308.66
515.81	48266.53
515.99	48135.46
516.16	48917.20
516.33	48683.14
516.51	49017.84
516.68	49022.52
516.85	48676.12
517.03	49303.38
517.20	49146.57
517.37	48849.32
517.54	49258.91
517.72	49338.49
517.89	49158.27
518.06	49619.36
518.24	49682.55
518.41	49734.04
518.58	49586.59
518.75	49471.90
518.93	49673.19
519.10	49724.68
519.27	50251.30
519.45	50082.78
519.62	50040.65
519.79	50464.29
519.96	50024.27
520.14	50445.57
520.31	50108.53
520.48	50504.08
520.65	50810.69
520.83	51217.94
521.00	51082.19
521.17	50871.54
521.34	50707.71
521.52	50876.22
521.69	51019.00
521.86	51199.22
522.03	51604.13
522.20	51562.00
522.38	51402.85
522.55	51660.30
522.72	51625.20
522.89	51695.41
523.07	51751.59
523.24	51599.45
523.41	51948.19
523.58	51730.52
523.75	52079.26
523.92	52135.43
524.10	52399.91
524.27	52470.13
524.44	52200.97
524.61	52341.40
524.78	52460.77
524.96	52652.69
525.13	52755.68
525.30	52748.65
525.47	52692.48
525.64	52666.73
525.81	52786.10
525.98	53368.90
526.16	52722.91
526.33	52783.76
526.50	53212.08
526.67	53162.93
526.84	53083.35
527.01	52999.09
527.18	53212.08
527.36	53345.49
527.53	53066.97
527.70	53647.42
527.87	53502.31
528.04	53301.02
528.21	53666.14
528.38	53483.58
528.55	53787.85
528.72	53347.83
528.89	53446.13
529.07	53528.05
529.24	53649.76
529.41	53811.26
529.58	53937.65
529.75	54115.53
529.92	54080.42
530.09	53944.67
530.26	54075.74
530.43	54312.13
530.60	53670.82
530.77	54375.33
530.94	54330.86
531.11	54431.50
531.28	54354.26
531.46	54333.20
531.63	54588.31
531.80	54485.33
531.97	54703.00
532.14	54618.74
532.31	54630.44
532.48	54787.26
532.65	54712.36
532.82	54649.17
532.99	55084.51
533.16	54780.24
533.33	54805.98
533.50	55049.40
533.67	54869.18
533.84	55100.89
534.01	55189.83
534.18	55018.97
534.35	55519.85
534.52	55545.59
534.69	55332.60
534.86	55288.13
535.03	55407.50
535.20	55519.85
535.37	55590.06
535.54	55725.81
535.71	55751.56
535.88	55573.68
536.05	55805.39
536.22	55763.26
536.38	55901.36
536.55	55763.26
536.72	55913.06
536.89	55899.01
537.06	55627.51
537.23	55758.58
537.40	55934.12
537.57	56097.96
537.74	56238.39
537.91	56093.28
538.08	56147.11
538.25	55957.53
538.42	56025.40
538.59	56355.42
538.75	56161.15
538.92	56222.01
539.09	56343.72
539.26	56324.99
539.43	56088.60
539.60	56596.49
539.77	56741.61
539.94	56622.24
540.11	56472.45
540.28	56638.62
540.44	57050.56
540.61	56767.35
540.78	56718.20
540.95	56638.62
541.12	56453.72
541.29	56266.48
541.46	56860.97
541.62	56811.82
541.79	56966.30
541.96	56889.06
542.13	56884.38
542.30	57106.73
542.47	57176.95
542.63	57036.51
542.80	57034.17
542.97	57272.91
543.14	57432.07
543.31	57340.78
543.48	57382.91
543.64	57783.15
543.81	57476.54
543.98	57722.29
544.15	57530.37
544.32	57883.79
544.48	57567.82
544.65	57403.98
544.82	57443.77
544.99	57546.75
545.16	57710.59
545.32	57612.29
545.49	57794.85
545.66	57811.23
545.83	58017.20
546.00	57876.77
546.16	57804.21
546.33	57708.25
546.50	57677.82
546.67	58000.82
546.83	57574.84
547.00	58145.93
547.17	57883.79
547.34	57799.53
547.50	58291.04
547.67	58213.80
547.84	58166.99
548.00	58269.98
548.17	58642.12
548.34	58375.30
548.51	58417.43
548.67	58429.13
548.84	58272.32
549.01	58401.05
549.18	58518.07
549.34	58590.63
549.51	58440.84
549.68	58588.29
549.84	58614.04
550.01	58525.10
550.18	58534.46
550.34	58838.73
550.51	58702.98
550.68	58740.42
550.84	58419.77
551.01	58707.66
551.18	58789.58
551.34	58742.77
551.51	58681.91
551.68	58679.57
551.84	58876.18
552.01	58562.54
552.18	58845.75
552.34	58674.89
552.51	58899.58
552.68	58831.71
552.84	58812.98
553.01	59206.19
553.18	58922.99
553.34	58820.00
553.51	58911.28
553.67	58855.11
553.84	58990.86
554.01	59103.21
554.17	59269.39
554.34	59236.62
554.51	59178.10
554.67	59215.55
554.84	59040.01
555.00	59234.28
555.17	59084.48
555.33	59133.63
555.50	59346.62
555.67	59421.52
555.83	59098.53
556.00	59112.57
556.16	59667.28
556.33	59494.08
556.50	59454.29
556.66	59458.97
556.83	59491.74
556.99	59590.04
557.16	59681.32
557.32	59781.96
557.49	59903.67
557.65	59306.83
557.82	59566.63
557.98	59653.23
558.15	59423.86
558.32	59753.88
558.48	59517.48
558.65	59646.21
558.81	59732.81
558.98	59798.35
559.14	59887.29
559.31	59800.69
559.47	59945.80
559.64	59688.34
559.80	59889.63
559.97	59842.82
560.13	59728.13
560.30	59973.89
560.46	59828.77
560.63	60013.68
560.79	59903.67
560.96	59964.52
561.12	60086.23
561.29	60013.68
561.45	60126.02
561.61	59999.63
561.78	59842.82
561.94	60062.83
562.11	60116.66
562.27	60107.30
562.44	60207.94
562.60	60123.68
562.77	60102.62
562.93	59950.48
563.10	60149.43
563.26	60018.36
563.42	60374.12
563.59	60147.09
563.75	60151.77
563.92	60320.29
564.08	59924.74
564.24	60182.19
564.41	60140.07
564.57	60317.95
564.74	60402.21
564.90	60299.22
565.07	60341.35
565.23	60331.99
565.39	60376.46
565.56	60409.23
565.72	60254.75
565.88	60306.24
566.05	60189.22
566.21	60390.50
566.38	60163.47
566.54	60402.21
566.70	60477.10
566.87	60561.36
567.03	60294.54
567.19	60659.66
567.36	60542.64
567.52	60399.86
567.68	60748.60
567.85	60470.08
568.01	60554.34
568.17	60479.44
568.34	60640.94
568.50	60573.06
568.66	60430.29
568.83	60537.96
568.99	60537.96
569.15	60786.05
569.32	60851.59
569.48	60493.49
569.64	60753.29
569.81	60711.16
569.97	60764.99
570.13	60687.75
570.30	60491.15
570.46	60654.98
570.62	60748.60
570.78	60678.39
570.95	60493.49
571.11	60701.79
571.27	60769.67
571.43	60669.03
571.60	60849.25
571.76	60779.03
571.92	60767.33
572.09	60619.88
572.25	60757.97
572.41	60715.84
572.57	60757.97
572.74	60961.59
572.90	60903.08
573.06	60966.27
573.22	60830.52
573.38	60755.63
573.55	60608.17
573.71	61034.15
573.87	60729.88
574.03	60858.61
574.20	60762.65
574.36	60781.37
574.52	60907.76
574.68	60999.04
574.84	61003.72
575.01	60879.67
575.17	60739.24
575.33	60825.84
575.49	60966.27
575.65	60797.76
575.82	61052.87
575.98	60905.42
576.14	61186.28
576.30	61109.05
576.46	60900.74
576.62	60879.67
576.79	60802.44
576.95	60739.24
577.11	60898.40
577.27	61277.57
577.43	61055.21
577.59	60954.57
577.75	60816.48
577.92	60949.89
578.08	60910.10
578.24	61027.13
578.40	60973.30
578.56	61270.54
578.72	60921.80
578.88	60985.00
579.04	61155.86
579.21	61062.24
579.37	61151.18
579.53	61109.05
579.69	60828.18
579.85	61092.66
580.01	61181.60
580.17	61043.51
580.33	61254.16
580.49	61104.37
580.65	61062.24
580.82	61031.81
580.98	61001.38
581.14	60907.76
581.30	61071.60
581.46	60917.12
581.62	61095.00
581.78	61109.05
581.94	61223.73
582.10	61022.45
582.26	61300.97
582.42	60975.64
582.58	61043.51
582.74	61090.32
582.90	61109.05
583.06	61146.50
583.22	60987.34
583.38	61123.09
583.54	61268.20
583.70	61226.07
583.86	61076.28
584.02	61006.06
584.18	61200.33
584.34	61181.60
584.50	61300.97
584.66	61066.92
584.82	60893.72
584.98	61099.68
585.14	61130.11
585.30	60996.70
585.46	61062.24
585.62	61272.88
585.78	61345.44
585.94	61153.52
586.10	61038.83
586.26	61338.42
586.42	61197.99
586.58	61516.30
586.74	61127.77
586.90	61048.19
587.06	60924.14
587.22	61286.93
587.38	61141.81
587.54	61429.70
587.70	61343.10
587.86	61326.72
588.02	61137.13
588.18	61354.80
588.34	61169.90
588.49	61125.43
