SpectraSuite Data File
++++++++++++++++++++++++++++++++++++
Date: Fri Oct 25 11:25:31 EDT 2013
User: price-jones
Dark Spectrum Present: No
Reference Spectrum Present: No
Number of Sampled Component Spectra: 1
Spectrometers: USB2+H05261
Integration Time (usec): 100000 (USB2+H05261)
Spectra Averaged: 1 (USB2+H05261)
Boxcar Smoothing: 0 (USB2+H05261)
Correct for Electrical Dark: No (USB2+H05261)
Strobe/Lamp Enabled: No (USB2+H05261)
Correct for Detector Non-linearity: No (USB2+H05261)
Correct for Stray Light: No (USB2+H05261)
Number of Pixels in Processed Spectrum: 2048
>>>>>Begin Processed Spectral Data<<<<<
365.73	241.08
365.92	241.08
366.12	241.08
366.32	227.03
366.52	154.48
366.72	140.43
366.91	124.05
367.11	131.07
367.31	159.16
367.51	140.43
367.70	124.05
367.90	163.84
368.10	170.86
368.30	135.75
368.49	142.77
368.69	140.43
368.89	126.39
369.09	131.07
369.28	180.22
369.48	140.43
369.68	236.39
369.87	182.56
370.07	198.95
370.27	194.26
370.47	311.29
370.66	566.41
370.86	599.18
371.06	589.82
371.25	765.36
371.45	610.88
371.65	723.23
371.84	613.22
372.04	662.37
372.24	711.52
372.44	678.76
372.63	777.06
372.83	784.08
373.03	655.35
373.22	688.12
373.42	718.54
373.62	763.01
373.81	826.21
374.01	814.51
374.21	774.72
374.40	854.30
374.60	856.64
374.79	828.55
374.99	784.08
375.19	819.19
375.38	739.61
375.58	875.36
375.78	828.55
375.97	889.40
376.17	917.49
376.37	833.23
376.56	835.57
376.76	844.93
376.95	875.36
377.15	858.98
377.35	880.04
377.54	887.06
377.74	866.00
377.93	924.51
378.13	938.55
378.33	908.13
378.52	917.49
378.72	945.58
378.91	950.26
379.11	936.21
379.31	884.72
379.50	952.60
379.70	926.85
379.89	926.85
380.09	973.66
380.28	952.60
380.48	1006.43
380.68	1039.20
380.87	1032.18
381.07	1060.26
381.26	1006.43
381.46	1001.75
381.65	1008.77
381.85	1083.67
382.04	1008.77
382.24	1095.37
382.43	1097.71
382.63	1018.13
382.83	961.96
383.02	1078.99
383.22	1142.18
383.41	1174.95
383.61	1102.39
383.80	1086.01
384.00	1081.33
384.19	1100.05
384.39	1174.95
384.58	1057.92
384.78	1067.28
384.97	1153.88
385.17	1158.57
385.36	1219.42
385.56	1160.91
385.75	1193.67
385.95	1123.46
386.14	1188.99
386.34	1146.86
386.53	1163.25
386.72	1233.46
386.92	1277.93
387.11	1231.12
387.31	1247.51
387.50	1233.46
387.70	1186.65
387.89	1210.06
388.09	1242.82
388.28	1280.27
388.48	1315.38
388.67	1338.79
388.86	1263.89
389.06	1296.66
389.25	1313.04
389.45	1329.42
389.64	1334.11
389.84	1399.64
390.03	1373.89
390.22	1369.21
390.42	1413.68
390.61	1394.96
390.81	1371.55
391.00	1437.09
391.19	1390.28
391.39	1392.62
391.58	1434.75
391.78	1448.79
391.97	1537.73
392.16	1516.67
392.36	1556.46
392.55	1579.86
392.75	1493.26
392.94	1472.20
393.13	1544.75
393.33	1530.71
393.52	1575.18
393.71	1584.54
393.91	1530.71
394.10	1521.35
394.29	1526.03
394.49	1643.06
394.68	1598.59
394.88	1586.88
395.07	1692.21
395.26	1680.50
395.46	1687.53
395.65	1753.06
395.84	1771.79
396.04	1813.92
396.23	1790.51
396.42	1806.89
396.62	1736.68
396.81	1685.19
397.00	1820.94
397.19	1788.17
397.39	1839.66
397.58	1879.45
397.77	1708.59
397.97	1830.30
398.16	1844.34
398.35	1886.47
398.55	1959.03
398.74	1872.43
398.93	1982.43
399.12	1921.58
399.32	1844.34
399.51	1928.60
399.70	1968.39
399.90	1947.33
400.09	2024.56
400.28	2008.18
400.47	1947.33
400.67	2129.89
400.86	1970.73
401.05	1991.80
401.24	2083.08
401.44	2186.06
401.63	2078.40
401.82	2172.02
402.01	2160.31
402.21	2174.36
402.40	2122.87
402.59	2179.04
402.78	2235.21
402.97	2282.02
403.17	2303.09
403.36	2230.53
403.55	2277.34
403.74	2347.56
403.93	2406.07
404.13	2417.77
404.32	2310.11
404.51	2335.85
404.70	2305.43
404.89	2389.69
405.09	2490.33
405.28	2417.77
405.47	2471.61
405.66	2541.82
405.85	2445.86
406.05	2532.46
406.24	2375.64
406.43	2590.97
406.62	2612.04
406.81	2693.96
407.00	2511.39
407.20	2567.57
407.39	2628.42
407.58	2588.63
407.77	2764.17
407.96	2708.00
408.15	2794.60
408.34	2736.09
408.54	2693.96
408.73	2853.11
408.92	2834.39
409.11	2860.13
409.30	2806.30
409.49	2855.45
409.68	2935.03
409.87	2928.01
410.07	2888.22
410.26	2949.08
410.45	2963.12
410.64	2991.20
410.83	3045.04
411.02	3080.14
411.21	3166.74
411.40	3091.85
411.59	3145.68
411.78	3171.43
411.98	3218.24
412.17	3148.02
412.36	3260.37
412.55	3307.18
412.74	3508.46
412.93	3342.28
413.12	3297.81
413.31	3548.25
413.50	3361.01
413.69	3344.63
413.88	3679.32
414.07	3527.19
414.26	3536.55
414.45	3555.27
414.64	3609.11
414.83	3611.45
415.02	3730.81
415.22	3864.22
415.41	3843.16
415.60	3726.13
415.79	3932.10
415.98	4032.74
416.17	3889.97
416.36	3988.27
416.55	3971.89
416.74	4147.43
416.93	3990.61
417.12	3936.78
417.31	4173.18
417.50	4098.28
417.69	4313.61
417.88	4381.48
418.07	4224.67
418.26	4304.25
418.45	4341.69
418.64	4374.46
418.83	4325.31
419.02	4306.59
419.21	4566.39
419.39	4519.57
419.58	4379.14
419.77	4374.46
419.96	4547.66
420.15	4568.73
420.34	4709.16
420.53	4589.79
420.72	4587.45
420.91	4589.79
421.10	4648.30
421.29	4823.84
421.48	4683.41
421.67	4755.97
421.86	4599.15
422.05	4800.44
422.24	4730.22
422.43	4732.56
422.61	4800.44
422.80	4842.57
422.99	4865.97
423.18	4957.25
423.37	4894.06
423.56	4725.54
423.75	4760.65
423.94	4746.61
424.13	4519.57
424.32	4596.81
424.50	5048.54
424.69	5025.13
424.88	4978.32
425.07	4751.29
425.26	4856.61
425.45	5048.54
425.64	4919.81
425.83	5020.45
426.01	5034.49
426.20	4889.38
426.39	5036.83
426.58	4980.66
426.77	4968.96
426.96	5046.20
427.15	5163.22
427.33	5252.16
427.52	5186.63
427.71	5217.05
427.90	5263.86
428.09	5247.48
428.28	5174.92
428.46	5378.55
428.65	5310.68
428.84	5451.11
429.03	5554.09
429.22	5301.31
429.40	5441.75
429.59	5425.36
429.78	5224.08
429.97	5224.08
430.16	5355.15
430.34	5448.77
430.53	5469.83
430.72	5605.58
430.91	5724.95
431.10	5530.69
431.28	5678.14
431.47	5748.36
431.66	5900.49
431.85	5832.62
432.03	5853.68
432.22	5895.81
432.41	5788.14
432.60	5827.93
432.79	5806.87
432.97	5879.43
433.16	5923.90
433.35	6087.73
433.54	5956.66
433.72	5982.41
433.91	5984.75
434.10	5921.56
434.28	6136.88
434.47	6186.04
434.66	6223.48
434.85	6256.25
435.03	6232.85
435.22	6274.98
435.41	6457.54
435.59	6349.87
435.78	6396.68
435.97	6354.55
436.16	6509.03
436.34	6347.53
436.53	6518.39
436.72	6640.10
436.90	6401.37
437.09	6420.09
437.28	6427.11
437.46	6469.24
437.65	6719.68
437.84	6658.82
438.02	6759.47
438.21	6693.93
438.40	6649.46
438.58	6993.52
438.77	6918.62
438.96	6860.11
439.14	6986.50
439.33	7190.13
439.52	7073.10
439.70	7089.48
439.89	7417.16
440.08	7232.26
440.26	7403.11
440.45	7414.82
440.63	7588.02
440.82	7531.84
441.01	7478.01
441.19	7447.58
441.38	7503.76
441.57	7653.55
441.75	7779.94
441.94	7899.31
442.12	7655.89
442.31	8011.65
442.50	8011.65
442.68	7896.97
442.87	7868.88
443.05	7941.44
443.24	8037.40
443.43	8013.99
443.61	8124.00
443.80	8435.29
443.98	8112.30
444.17	7805.69
444.35	8287.84
444.54	8215.28
444.73	8318.26
444.91	8390.82
445.10	8208.26
445.28	8159.11
445.47	8245.71
445.65	8341.67
445.84	8454.02
446.02	8383.80
446.21	8507.85
446.39	8241.03
446.58	8131.02
446.77	8381.46
446.95	8304.22
447.14	8287.84
447.32	8657.64
447.51	8561.68
447.69	8327.63
447.88	8280.82
448.06	8358.05
448.25	8519.55
448.43	8528.91
448.62	8456.36
448.80	8554.66
448.99	8603.81
449.17	8535.93
449.36	8610.83
449.54	8908.08
449.73	8837.86
449.91	9036.81
450.10	9095.32
450.28	9078.94
450.46	9114.05
450.65	9034.47
450.83	9055.53
451.02	8938.51
451.20	9022.77
451.39	9083.62
451.57	9069.58
451.76	8926.80
451.94	9025.11
452.13	9287.25
452.31	9371.50
452.49	9308.31
452.68	9205.33
452.86	9418.32
453.05	9413.63
453.23	9380.87
453.42	9137.45
453.60	9352.78
453.78	9598.54
453.97	9200.65
454.15	9474.49
454.34	9329.38
454.52	9729.61
454.70	9565.77
454.89	9767.06
455.07	9643.01
455.26	9696.84
455.44	9685.14
455.62	9867.70
455.81	9834.93
455.99	9628.96
456.17	9919.19
456.36	10052.60
456.54	10246.87
456.73	10284.31
456.91	10509.01
457.09	10258.57
457.28	10286.65
457.46	10195.37
457.64	10445.81
457.83	10492.62
458.01	10375.59
458.19	10424.75
458.38	10494.96
458.56	10672.84
458.74	10761.78
458.93	10707.95
459.11	10403.68
459.29	10707.95
459.48	10780.51
459.66	10492.62
459.84	10649.44
460.03	10853.06
460.21	10925.62
460.39	10820.30
460.57	11037.97
460.76	11007.54
460.94	10979.45
461.12	11049.67
461.31	10993.50
461.49	11103.50
461.67	11007.54
461.85	11412.45
462.04	11192.44
462.22	11714.38
462.40	11496.71
462.59	11239.25
462.77	11325.85
462.95	11592.67
463.13	11417.13
463.32	11452.24
463.50	11712.04
463.68	11559.91
463.86	11819.71
464.05	11538.84
464.23	11435.86
464.41	11847.79
464.59	11632.46
464.78	11983.54
464.96	11887.58
465.14	11698.00
465.32	12042.06
465.50	11971.84
465.69	11882.90
465.87	11960.14
466.05	11871.20
466.23	11836.09
466.41	12060.78
466.60	12414.20
466.78	12318.24
466.96	12074.82
467.14	12264.41
467.32	12355.69
467.51	12414.20
467.69	12051.42
467.87	12311.22
468.05	12432.93
468.23	12355.69
468.41	12351.01
468.60	12479.74
468.78	12702.09
468.96	12306.54
469.14	12800.39
469.32	12758.26
469.50	12650.60
469.69	12851.88
469.87	12905.71
470.05	12950.18
470.23	13027.42
470.41	13060.19
470.59	13069.55
470.77	13139.77
470.95	13107.00
471.14	13408.93
471.32	12964.23
471.50	13523.62
471.68	13575.11
471.86	13685.11
472.04	13472.12
472.22	13963.64
472.40	13364.46
472.58	13717.88
472.77	13804.48
472.95	13893.42
473.13	14590.90
473.31	14176.62
473.49	13834.91
473.67	14260.88
473.85	14382.59
474.03	14443.45
474.21	14663.46
474.39	14492.60
474.57	14398.98
474.75	14867.08
474.93	14878.79
475.12	14780.48
475.30	14941.98
475.48	14799.21
475.66	15133.90
475.84	15133.90
476.02	15283.70
476.20	14984.11
476.38	15658.18
476.56	15716.70
476.74	15950.75
476.92	15810.32
477.10	15527.11
477.28	16070.12
477.46	16006.92
477.64	15896.92
477.82	16388.43
478.00	16950.16
478.18	16582.70
478.36	16730.15
478.54	17008.67
478.72	17130.38
478.90	17221.66
479.08	17338.69
479.26	17547.00
479.44	17633.60
479.62	17537.63
479.80	17804.46
479.98	17984.68
480.16	18471.51
480.34	18190.64
480.52	18221.07
480.70	18452.78
480.88	18253.84
481.06	18637.69
481.24	18415.34
481.41	18799.18
481.59	19267.29
481.77	19335.17
481.95	19463.90
482.13	19318.78
482.31	19564.54
482.49	19852.42
482.67	19976.47
482.85	20088.82
483.03	20524.16
483.21	20732.47
483.39	20945.45
483.57	20535.86
483.74	21041.42
483.92	21329.30
484.10	20919.71
484.28	21544.63
484.46	21860.60
484.64	22132.11
484.82	21823.16
485.00	22312.33
485.18	22485.53
485.35	22731.28
485.53	22794.48
485.71	22794.48
485.89	23433.44
486.07	23131.51
486.25	23381.95
486.43	23346.84
486.61	23924.96
486.78	23747.08
486.96	23871.12
487.14	24453.92
487.32	24257.31
487.50	24617.75
487.68	24868.19
487.85	24900.96
488.03	25336.30
488.21	25530.56
488.39	25483.75
488.57	25731.85
488.75	25968.24
488.92	26228.04
489.10	26309.96
489.28	26405.92
489.46	26902.12
489.64	26859.99
489.81	27468.53
489.99	27325.75
490.17	27386.61
490.35	27880.46
490.53	27917.91
490.70	28013.87
490.88	28006.85
491.06	28491.34
491.24	28690.29
491.41	28826.04
491.59	28804.97
491.77	29017.96
491.95	29511.81
492.13	29474.37
492.30	29710.76
492.48	29844.17
492.66	29895.66
492.84	30019.71
493.01	30581.44
493.19	30115.67
493.37	30951.24
493.54	30675.06
493.72	31424.03
493.90	31187.64
494.08	31679.15
494.25	31311.69
494.43	31754.05
494.61	31917.89
494.79	32397.70
494.96	32318.12
495.14	32734.73
495.32	32741.75
495.49	33223.90
495.67	32929.00
495.85	33596.05
496.02	33750.52
496.20	33872.23
496.38	33720.10
496.55	33743.50
496.73	34766.32
496.91	34712.49
497.09	34799.08
497.26	34756.96
497.44	34448.00
497.62	34960.58
497.79	35545.72
497.97	35288.26
498.14	35405.28
498.32	35952.97
498.50	36030.21
498.67	36304.05
498.85	36006.80
499.03	36524.06
499.20	36645.77
499.38	36547.47
499.56	36797.90
499.73	36957.06
499.91	36804.92
500.08	37003.87
500.26	37266.01
500.44	37385.38
500.61	37628.79
500.79	37104.51
500.97	37720.07
501.14	38408.19
501.32	38387.13
501.49	38146.05
501.67	38242.01
501.84	38796.72
502.02	38775.66
502.20	38487.77
502.37	38981.62
502.55	38920.77
502.72	39105.67
502.90	39402.92
503.07	39423.98
503.25	39159.50
503.43	39288.23
503.60	39929.54
503.78	39833.58
503.95	39791.45
504.13	40105.08
504.30	40430.41
504.48	40048.91
504.65	40573.19
504.83	41076.40
505.01	40732.34
505.18	40699.58
505.36	41303.43
505.53	40891.50
505.71	41123.21
505.88	41326.84
506.06	40779.15
506.23	41469.61
506.41	41441.53
506.58	42003.25
506.76	41804.31
506.93	42541.58
507.11	41394.71
507.28	42424.55
507.46	42129.64
507.63	42525.19
507.81	42464.34
507.98	42330.93
508.16	42852.87
508.33	43173.52
508.50	43051.81
508.68	43035.43
508.85	43695.46
509.03	43639.29
509.20	43330.34
509.38	44126.12
509.55	44158.89
509.73	44142.50
509.90	44194.00
510.08	44158.89
510.25	44163.57
510.42	44383.58
510.60	44304.00
510.77	45015.52
510.95	45085.74
511.12	44839.98
511.30	44811.90
511.47	45455.54
511.64	45006.16
511.82	45787.90
511.99	45413.41
512.17	45731.73
512.34	45888.54
512.51	46108.55
512.69	46270.05
512.86	46106.21
513.04	46630.49
513.21	46487.72
513.38	46560.28
513.56	46773.27
513.73	46754.54
513.90	46756.88
514.08	46909.02
514.25	46976.89
514.43	47000.30
514.60	47234.35
514.77	47344.36
514.95	47611.18
515.12	46876.25
515.29	47632.24
515.47	47938.85
515.64	47810.12
515.81	47564.37
515.99	48217.38
516.16	48229.08
516.33	47634.58
516.51	48046.52
516.68	48268.87
516.85	48360.15
517.03	48636.33
517.20	48399.94
517.37	48292.27
517.54	48236.10
517.72	48966.35
517.89	48713.57
518.06	48837.62
518.24	48589.52
518.41	48722.93
518.58	49010.82
518.75	49223.81
518.93	49294.02
519.10	49387.64
519.27	49509.35
519.45	49177.00
519.62	49359.56
519.79	49432.11
519.96	49586.59
520.14	50026.61
520.31	50059.38
520.48	50265.34
520.65	50014.91
520.83	50113.21
521.00	50342.58
521.17	49970.44
521.34	50548.55
521.52	50719.41
521.69	50726.43
521.86	51009.64
522.03	50731.11
522.20	50836.44
522.38	51496.47
522.55	50925.38
522.72	51159.43
522.89	50635.15
523.07	51398.16
523.24	50925.38
523.41	51323.27
523.58	51358.38
523.75	51653.28
523.92	51529.23
524.10	51608.81
524.27	51779.67
524.44	52048.83
524.61	51910.74
524.78	52034.79
524.96	51657.96
525.13	52226.71
525.30	52058.20
525.47	52191.61
525.64	52163.52
525.81	52346.08
525.98	52467.79
526.16	52154.16
526.33	52149.48
526.50	52982.71
526.67	52669.08
526.84	52399.91
527.01	52203.31
527.18	52662.05
527.36	52753.33
527.53	52631.63
527.70	52982.71
527.87	53212.08
528.04	52940.58
528.21	52835.25
528.38	53066.97
528.55	53354.85
528.72	53076.33
528.89	53090.37
529.07	52942.92
529.24	53357.19
529.41	53572.52
529.58	53120.80
529.75	53375.92
529.92	53361.87
530.09	53635.72
530.26	53687.21
530.43	54059.35
530.60	53291.66
530.77	53715.29
530.94	54024.25
531.11	53989.14
531.28	54255.96
531.46	53869.77
531.63	54145.95
531.80	53710.61
531.97	54042.97
532.14	54504.06
532.31	53956.37
532.48	54227.87
532.65	54539.16
532.82	54349.58
532.99	54497.03
533.16	54382.35
533.33	54698.32
533.50	54593.00
533.67	54508.74
533.84	54726.41
534.01	54649.17
534.18	54894.92
534.35	55128.98
534.52	54803.64
534.69	55168.77
534.86	54843.43
535.03	54780.24
535.20	54892.58
535.37	54927.69
535.54	55028.34
535.71	55072.81
535.88	55143.02
536.05	55217.92
536.22	55185.15
536.38	55374.73
536.55	55379.42
536.72	55199.19
536.89	55246.00
537.06	55426.23
537.23	55800.71
537.40	55351.33
537.57	55590.06
537.74	55599.43
537.91	55737.52
538.08	55618.15
538.25	55643.90
538.42	55814.76
538.59	55948.17
538.75	55779.65
538.92	55945.83
539.09	55978.59
539.26	55903.70
539.43	55856.88
539.60	56076.90
539.77	56009.02
539.94	56416.27
540.11	55983.27
540.28	56324.99
540.44	56275.84
540.61	56266.48
540.78	56013.70
540.95	56130.73
541.12	56044.13
541.29	56238.39
541.46	56409.25
541.62	56519.26
541.79	56444.36
541.96	56158.81
542.13	56219.67
542.30	56306.27
542.47	56535.64
542.63	56601.18
542.80	56556.70
542.97	56903.10
543.14	56999.07
543.31	56898.42
543.48	56959.28
543.64	57301.00
543.81	57216.74
543.98	57073.96
544.15	57181.63
544.32	57249.50
544.48	57378.23
544.65	57085.67
544.82	57078.64
544.99	57027.15
545.16	57095.03
545.32	57296.31
545.49	57399.30
545.66	57694.21
545.83	57455.47
546.00	57668.46
546.16	57331.42
546.33	57427.38
546.50	57441.43
546.67	57776.12
546.83	57338.44
547.00	57623.99
547.17	57305.68
547.34	57565.48
547.50	57797.19
547.67	57839.32
547.84	57844.00
548.00	57932.94
548.17	58080.39
548.34	57804.21
548.51	57982.09
548.67	58148.27
548.84	57712.93
549.01	57836.98
549.18	57738.68
549.34	57893.15
549.51	58092.10
549.68	58237.21
549.84	58166.99
550.01	58127.20
550.18	58061.67
550.34	58258.27
550.51	58124.86
550.68	58262.96
550.84	57783.15
551.01	58262.96
551.18	58230.19
551.34	58340.19
551.51	58305.09
551.68	58365.94
551.84	58475.94
552.01	58157.63
552.18	58471.26
552.34	58347.21
552.51	58326.15
552.68	58361.26
552.84	58356.58
553.01	58876.18
553.18	58375.30
553.34	58576.59
553.51	58520.41
553.67	58920.65
553.84	58901.92
554.01	58726.38
554.17	58906.60
554.34	58878.52
554.51	58621.06
554.67	58838.73
554.84	58805.96
555.00	58693.61
555.17	58724.04
555.33	58698.30
555.50	58756.81
555.67	59021.29
555.83	58684.25
556.00	58883.20
556.16	59360.67
556.33	59353.65
556.50	59213.21
556.66	59128.95
556.83	58981.50
556.99	59201.51
557.16	59243.64
557.32	59210.87
557.49	59480.03
557.65	59180.45
557.82	59318.54
557.98	59119.59
558.15	59344.28
558.32	59377.05
558.48	59047.04
558.65	59318.54
558.81	59409.82
558.98	59234.28
559.14	59458.97
559.31	59323.22
559.47	59437.90
559.64	59643.87
559.80	59423.86
559.97	59393.43
560.13	59234.28
560.30	59437.90
560.46	59592.38
560.63	59510.46
560.79	59552.59
560.96	59540.89
561.12	59611.10
561.29	59751.54
561.45	59627.49
561.61	59641.53
561.78	59468.33
561.94	59774.94
562.11	59749.20
562.27	59732.81
562.44	59669.62
562.60	59788.98
562.77	59877.93
562.93	59674.30
563.10	59969.21
563.26	59810.05
563.42	60081.55
563.59	59976.23
563.75	59803.03
563.92	59941.12
564.08	59709.41
564.24	60039.42
564.41	59887.29
564.57	59880.27
564.74	59898.99
564.90	59866.22
565.07	60037.08
565.23	59971.55
565.39	59807.71
565.56	59835.80
565.72	59828.77
565.88	59863.88
566.05	59835.80
566.21	60006.65
566.38	59966.87
566.54	60114.32
566.70	60116.66
566.87	60313.26
567.03	59800.69
567.19	60268.79
567.36	60079.21
567.52	60001.97
567.68	60449.02
567.85	60303.90
568.01	60172.83
568.17	60062.83
568.34	60207.94
568.50	60140.07
568.66	59910.69
568.83	60280.50
568.99	60023.04
569.15	60217.30
569.32	60273.48
569.48	60261.77
569.64	60135.38
569.81	60313.26
569.97	60142.41
570.13	60308.58
570.30	60210.28
570.46	60334.33
570.62	60315.61
570.78	60247.73
570.95	60266.45
571.11	60601.15
571.27	60376.46
571.43	60327.31
571.60	60645.62
571.76	60385.82
571.92	60369.44
572.09	60479.44
572.25	60355.39
572.41	60268.79
572.57	60402.21
572.74	60533.28
572.90	60470.08
573.06	60376.46
573.22	60449.02
573.38	60470.08
573.55	60472.42
573.71	60654.98
573.87	60505.19
574.03	60402.21
574.20	60402.21
574.36	60662.00
574.52	60566.04
574.68	60547.32
574.84	60526.25
575.01	60582.43
575.17	60364.76
575.33	60502.85
575.49	60341.35
575.65	60449.02
575.82	60486.46
575.98	60612.85
576.14	60704.13
576.30	60779.03
576.46	60552.00
576.62	60666.69
576.79	60500.51
576.95	60605.83
577.11	60643.28
577.27	60727.54
577.43	60605.83
577.59	60643.28
577.75	60612.85
577.92	60603.49
578.08	60774.35
578.24	60835.20
578.40	60748.60
578.56	60762.65
578.72	60631.58
578.88	60732.22
579.04	61020.11
579.21	60516.89
579.37	60781.37
579.53	60715.84
579.69	60430.29
579.85	60535.62
580.01	60750.94
580.17	60547.32
580.33	60793.07
580.49	60882.02
580.65	60640.94
580.82	60587.11
580.98	60512.21
581.14	60552.00
581.30	60783.71
581.46	60706.47
581.62	60643.28
581.78	60458.38
581.94	60584.77
582.10	60867.97
582.26	60867.97
582.42	60800.10
582.58	60706.47
582.74	60690.09
582.90	60779.03
583.06	60617.53
583.22	60584.77
583.38	60779.03
583.54	60760.31
583.70	60776.69
583.86	60877.33
584.02	60755.63
584.18	60860.95
584.34	60774.35
584.50	60664.35
584.66	60743.92
584.82	60769.67
584.98	60870.31
585.14	60982.66
585.30	60839.89
585.46	61104.37
585.62	60577.75
585.78	60903.08
585.94	60680.73
586.10	60956.91
586.26	60896.06
586.42	60769.67
586.58	60874.99
586.74	60764.99
586.90	60910.10
587.06	60729.88
587.22	60977.98
587.38	60767.33
587.54	60900.74
587.70	61148.84
587.86	60870.31
588.02	60800.10
588.18	60968.61
588.34	60708.82
588.49	61031.81
