SpectraSuite Data File
++++++++++++++++++++++++++++++++++++
Date: Fri Oct 25 11:26:27 EDT 2013
User: price-jones
Dark Spectrum Present: No
Reference Spectrum Present: No
Number of Sampled Component Spectra: 1
Spectrometers: USB2+H05261
Integration Time (usec): 100000 (USB2+H05261)
Spectra Averaged: 1 (USB2+H05261)
Boxcar Smoothing: 0 (USB2+H05261)
Correct for Electrical Dark: No (USB2+H05261)
Strobe/Lamp Enabled: No (USB2+H05261)
Correct for Detector Non-linearity: No (USB2+H05261)
Correct for Stray Light: No (USB2+H05261)
Number of Pixels in Processed Spectrum: 2048
>>>>>Begin Processed Spectral Data<<<<<
365.73	215.33
365.92	215.33
366.12	215.33
366.32	133.41
366.52	86.60
366.72	180.22
366.91	156.82
367.11	112.35
367.31	91.28
367.51	184.90
367.70	152.13
367.90	152.13
368.10	81.92
368.30	126.39
368.49	112.35
368.69	220.01
368.89	128.73
369.09	145.11
369.28	177.88
369.48	149.79
369.68	215.33
369.87	159.16
370.07	222.35
370.27	304.27
370.47	355.76
370.66	531.30
370.86	683.44
371.06	650.67
371.25	704.50
371.45	692.80
371.65	688.12
371.84	685.78
372.04	681.10
372.24	692.80
372.44	688.12
372.63	753.65
372.83	826.21
373.03	725.57
373.22	777.06
373.42	758.33
373.62	753.65
373.81	800.46
374.01	781.74
374.21	847.27
374.40	765.36
374.60	821.53
374.79	833.23
374.99	830.89
375.19	788.76
375.38	784.08
375.58	755.99
375.78	870.68
375.97	858.98
376.17	816.85
376.37	858.98
376.56	814.51
376.76	961.96
376.95	793.44
377.15	943.24
377.35	905.79
377.54	926.85
377.74	854.30
377.93	889.40
378.13	994.73
378.33	926.85
378.52	945.58
378.72	1039.20
378.91	947.92
379.11	903.45
379.31	1039.20
379.50	875.36
379.70	954.94
379.89	976.00
380.09	978.34
380.28	1067.28
380.48	994.73
380.68	896.43
380.87	1020.47
381.07	1039.20
381.26	978.34
381.46	964.30
381.65	1015.79
381.85	1025.15
382.04	1116.44
382.24	1125.80
382.43	1025.15
382.63	1142.18
382.83	1039.20
383.02	1100.05
383.22	1135.16
383.41	1046.22
383.61	1057.92
383.80	1071.97
384.00	1078.99
384.19	1146.86
384.39	1149.20
384.58	1165.59
384.78	1174.95
384.97	1233.46
385.17	1081.33
385.36	1090.69
385.56	1240.48
385.75	1144.52
385.95	1135.16
386.14	1142.18
386.34	1146.86
386.53	1245.16
386.72	1240.48
386.92	1231.12
387.11	1273.25
387.31	1301.34
387.50	1226.44
387.70	1214.74
387.89	1376.24
388.09	1270.91
388.28	1289.64
388.48	1310.70
388.67	1301.34
388.86	1282.61
389.06	1373.89
389.25	1373.89
389.45	1383.26
389.64	1338.79
389.84	1242.82
390.03	1397.30
390.22	1387.94
390.42	1387.94
390.61	1460.49
390.81	1476.88
391.00	1465.18
391.19	1383.26
391.39	1434.75
391.58	1423.05
391.78	1406.66
391.97	1451.13
392.16	1455.81
392.36	1577.52
392.55	1558.80
392.75	1528.37
392.94	1479.22
393.13	1624.33
393.33	1500.28
393.52	1540.07
393.71	1556.46
393.91	1572.84
394.10	1572.84
394.29	1647.74
394.49	1582.20
394.68	1568.16
394.88	1671.14
395.07	1664.12
395.26	1746.04
395.46	1600.93
395.65	1771.79
395.84	1729.66
396.04	1785.83
396.23	1736.68
396.42	1722.63
396.62	1746.04
396.81	1788.17
397.00	1715.61
397.19	1811.57
397.39	1783.49
397.58	1799.87
397.77	1750.72
397.97	1884.13
398.16	1788.17
398.35	1982.43
398.55	1827.96
398.74	1867.75
398.93	1912.22
399.12	1900.52
399.32	2019.88
399.51	1949.67
399.70	2022.22
399.90	1839.66
400.09	2008.18
400.28	2134.57
400.47	2045.63
400.67	2115.84
400.86	2069.03
401.05	2012.86
401.24	2122.87
401.44	2076.06
401.63	2129.89
401.82	2244.57
402.01	2118.18
402.21	2129.89
402.40	2150.95
402.59	2225.85
402.78	2263.30
402.97	2263.30
403.17	2146.27
403.36	2267.98
403.55	2258.62
403.74	2427.14
403.93	2366.28
404.13	2263.30
404.32	2420.11
404.51	2284.36
404.70	2354.58
404.89	2471.61
405.09	2464.58
405.28	2478.63
405.47	2310.11
405.66	2504.37
405.85	2513.74
406.05	2525.44
406.24	2473.95
406.43	2534.80
406.62	2630.76
406.81	2724.38
407.00	2581.61
407.20	2649.49
407.39	2541.82
407.58	2656.51
407.77	2754.81
407.96	2703.32
408.15	2799.28
408.34	2806.30
408.54	2703.32
408.73	2745.45
408.92	2726.72
409.11	2902.26
409.30	2909.29
409.49	2918.65
409.68	2916.31
409.87	2892.90
410.07	3129.30
410.26	3035.67
410.45	3007.59
410.64	3061.42
410.83	2942.05
411.02	3030.99
411.21	3131.64
411.40	3243.98
411.59	3171.43
411.78	3180.79
411.98	3122.27
412.17	3269.73
412.36	3243.98
412.55	3358.67
412.74	3461.65
412.93	3459.31
413.12	3318.88
413.31	3431.23
413.50	3400.80
413.69	3459.31
413.88	3623.15
414.07	3449.95
414.26	3618.47
414.45	3618.47
414.64	3679.32
414.83	3691.02
415.02	3733.15
415.22	3719.11
415.41	3840.82
415.60	3721.45
415.79	3941.46
415.98	3955.51
416.17	4021.04
416.36	3896.99
416.55	4002.32
416.74	4058.49
416.93	4067.85
417.12	4100.62
417.31	4187.22
417.50	4205.94
417.69	4203.60
417.88	4227.01
418.07	4266.80
418.26	4325.31
418.45	4273.82
418.64	4449.36
418.83	4308.93
419.02	4348.72
419.21	4430.63
419.39	4456.38
419.58	4465.74
419.77	4348.72
419.96	4573.41
420.15	4451.70
420.34	4580.43
420.53	4542.98
420.72	4636.60
420.91	4657.67
421.10	4718.52
421.29	4788.74
421.48	4699.80
421.67	4702.14
421.86	4730.22
422.05	4861.29
422.24	4823.84
422.43	4826.18
422.61	4814.48
422.80	4863.63
422.99	4919.81
423.18	4877.68
423.37	4933.85
423.56	4870.65
423.75	4807.46
423.94	4786.40
424.13	4542.98
424.32	4753.63
424.50	4968.96
424.69	5107.05
424.88	4985.34
425.07	4887.04
425.26	4713.84
425.45	4877.68
425.64	5027.47
425.83	4830.87
426.01	5062.58
426.20	5109.39
426.39	5018.11
426.58	5186.63
426.77	5057.90
426.96	4952.57
427.15	5102.37
427.33	5057.90
427.52	5078.96
427.71	5207.69
427.90	5263.86
428.09	5226.42
428.28	5418.34
428.46	5308.34
428.65	5259.18
428.84	5460.47
429.03	5490.90
429.22	5188.97
429.40	5511.96
429.59	5357.49
429.78	5231.10
429.97	5238.12
430.16	5490.90
430.34	5551.75
430.53	5600.90
430.72	5619.63
430.91	5474.51
431.10	5556.43
431.28	5781.12
431.47	5715.59
431.66	5724.95
431.85	5741.33
432.03	5973.05
432.22	6064.33
432.41	5966.03
432.60	5860.70
432.79	5933.26
432.97	5928.58
433.16	5926.24
433.35	5902.83
433.54	6012.84
433.72	6129.86
433.91	6183.70
434.10	6111.14
434.28	6221.14
434.47	6106.46
434.66	6258.59
434.85	6186.04
435.03	6235.19
435.22	6377.96
435.41	6518.39
435.59	6293.70
435.78	6305.40
435.97	6370.94
436.16	6380.30
436.34	6347.53
436.53	6363.92
436.72	6504.35
436.90	6347.53
437.09	6612.01
437.28	6492.65
437.46	6441.15
437.65	6572.22
437.84	6576.91
438.02	6635.42
438.21	6562.86
438.40	6647.12
438.58	6998.20
438.77	6853.09
438.96	6843.73
439.14	7129.27
439.33	7190.13
439.52	7166.72
439.70	7260.34
439.89	7307.15
440.08	7396.09
440.26	7227.57
440.45	7344.60
440.63	7496.74
440.82	7398.43
441.01	7449.93
441.19	7534.18
441.38	7634.83
441.57	7644.19
441.75	7714.41
441.94	7845.48
442.12	7878.24
442.31	7873.56
442.50	7946.12
442.68	7953.14
442.87	7934.42
443.05	8056.12
443.24	8215.28
443.43	8037.40
443.61	7939.10
443.80	8461.04
443.98	8081.87
444.17	7859.52
444.35	8156.77
444.54	8308.90
444.73	8203.58
444.91	8196.56
445.10	8329.97
445.28	8154.43
445.47	8238.69
445.65	8142.72
445.84	8411.89
446.02	8411.89
446.21	8416.57
446.39	8234.00
446.58	8568.70
446.77	8514.87
446.95	8355.71
447.14	8313.58
447.32	8542.96
447.51	8449.33
447.69	8650.62
447.88	8442.31
448.06	8407.20
448.25	8409.54
448.43	8739.56
448.62	8589.77
448.80	8500.83
448.99	8671.68
449.17	8603.81
449.36	8631.90
449.54	8835.52
449.73	8961.91
449.91	8870.63
450.10	8821.48
450.28	9025.11
450.46	8973.61
450.65	8950.21
450.83	8968.93
451.02	9071.92
451.20	8987.66
451.39	9123.41
451.57	8903.40
451.76	9160.86
451.94	9004.04
452.13	9188.94
452.31	9345.76
452.49	8905.74
452.68	9320.01
452.86	9291.93
453.05	9430.02
453.23	9383.21
453.42	9317.67
453.60	9418.32
453.78	9621.94
453.97	9303.63
454.15	9451.08
454.34	9448.74
454.52	9680.46
454.70	9544.70
454.89	9671.09
455.07	9799.82
455.26	9799.82
455.44	9867.70
455.62	9767.06
455.81	9827.91
455.99	9949.62
456.17	9774.08
456.36	9994.09
456.54	10228.14
456.73	10104.09
456.91	10537.09
457.09	10321.76
457.28	10450.49
457.46	10211.76
457.64	10413.04
457.83	10555.82
458.01	10216.44
458.19	10633.05
458.38	10555.82
458.56	10560.50
458.74	10422.41
458.93	10572.20
459.11	10876.47
459.29	10686.89
459.48	10597.95
459.66	10665.82
459.84	10635.39
460.03	10789.87
460.21	10810.93
460.39	10710.29
460.57	10949.03
460.76	11096.48
460.94	11288.40
461.12	11044.99
461.31	11346.92
461.49	11009.88
461.67	11211.17
461.85	11363.30
462.04	11283.72
462.22	11492.03
462.40	11559.91
462.59	11489.69
462.77	11421.81
462.95	11555.22
463.13	11658.21
463.32	11768.21
463.50	11824.39
463.68	11803.32
463.86	11808.00
464.05	11709.70
464.23	11660.55
464.41	11763.53
464.59	11616.08
464.78	12077.16
464.96	11962.48
465.14	11913.33
465.32	11955.46
465.50	11903.96
465.69	12170.79
465.87	12095.89
466.05	11974.18
466.23	12023.33
466.41	12201.21
466.60	12486.76
466.78	12102.91
466.96	12100.57
467.14	12030.35
467.32	12259.73
467.51	12372.07
467.69	11999.93
467.87	12170.79
468.05	12620.17
468.23	12592.08
468.41	12334.62
468.60	12493.78
468.78	12748.90
468.96	12545.27
469.14	12688.04
469.32	13062.53
469.50	12699.75
469.69	12812.09
469.87	12926.78
470.05	12971.25
470.23	13193.60
470.41	12989.97
470.59	13212.32
470.77	12957.21
470.95	13219.35
471.14	13392.55
471.32	13146.79
471.50	13420.63
471.68	13748.31
471.86	13551.70
472.04	13441.70
472.22	14228.12
472.40	13298.92
472.58	13820.86
472.77	13755.33
472.95	14010.45
473.13	14537.07
473.31	14581.54
473.49	14127.47
473.67	14136.84
473.85	14200.03
474.03	14602.60
474.21	14352.16
474.39	14595.58
474.57	14530.05
474.75	14726.65
474.93	14796.87
475.12	14829.63
475.30	14916.23
475.48	15098.80
475.66	15030.92
475.84	15037.94
476.02	15459.24
476.20	15665.21
476.38	15576.27
476.56	16049.05
476.74	15702.65
476.92	15676.91
477.10	15782.23
477.28	16091.18
477.46	16252.68
477.64	16245.66
477.82	16123.95
478.00	17057.82
478.18	16540.57
478.36	16870.58
478.54	16884.62
478.72	17102.29
478.90	17076.55
479.08	17343.37
479.26	17507.21
479.44	17731.90
479.62	17628.92
479.80	17912.12
479.98	17919.14
480.16	18298.31
480.34	18244.48
480.52	18511.30
480.70	18417.68
480.88	18071.28
481.06	18850.67
481.24	18785.14
481.41	18939.62
481.59	19218.14
481.77	19208.78
481.95	19248.57
482.13	19623.05
482.31	19665.18
482.49	20224.57
482.67	20023.28
482.85	20573.31
483.03	20470.33
483.21	20725.44
483.39	20781.62
483.57	20849.49
483.74	20945.45
483.92	21359.73
484.10	21025.03
484.28	21326.96
484.46	21858.26
484.64	21717.83
484.82	21694.43
485.00	22160.19
485.18	22635.32
485.35	22836.61
485.53	22501.91
485.71	22974.70
485.89	23262.58
486.07	22843.63
486.25	22860.01
486.43	23384.29
486.61	23506.00
486.78	23819.63
486.96	23976.45
487.14	24350.93
487.32	24517.11
487.50	24608.39
487.68	25125.65
487.85	24938.41
488.03	25369.07
488.21	25605.46
488.39	25600.78
488.57	25923.77
488.75	26132.08
488.92	26396.56
489.10	26558.06
489.28	26431.67
489.46	27175.96
489.64	26656.36
489.81	27330.44
489.99	27681.52
490.17	27541.08
490.35	27765.78
490.53	28006.85
490.70	28701.99
490.88	28093.45
491.06	28402.40
491.24	28854.12
491.41	28706.67
491.59	29020.30
491.77	29266.06
491.95	29273.08
492.13	29570.33
492.30	29940.13
492.48	29582.03
492.66	29972.90
492.84	30148.44
493.01	30773.36
493.19	30225.68
493.37	31189.98
493.54	31089.34
493.72	31157.21
493.90	31311.69
494.08	31634.68
494.25	32030.23
494.43	31749.37
494.61	32184.71
494.79	32142.58
494.96	32400.04
495.14	32432.80
495.32	33163.05
495.49	33036.66
495.67	32863.46
495.85	33179.43
496.02	33567.96
496.20	33846.49
496.38	33610.09
496.55	34174.16
496.73	34602.48
496.91	34099.26
497.09	34396.51
497.26	34611.84
497.44	34534.60
497.62	34995.69
497.79	35395.92
497.97	35260.17
498.14	35833.60
498.32	35723.60
498.50	35791.47
498.67	36261.92
498.85	35871.05
499.03	36507.68
499.20	36425.76
499.38	36292.35
499.56	37062.38
499.73	37251.97
499.91	36987.49
500.08	37310.48
500.26	37097.49
500.44	37607.73
500.61	37453.25
500.79	37453.25
500.97	37926.04
501.14	38096.90
501.32	38703.10
501.49	38450.32
501.67	38157.75
501.84	38756.93
502.02	38742.89
502.20	38644.59
502.37	39154.82
502.55	39019.07
502.72	39285.89
502.90	39033.11
503.07	39239.08
503.25	39409.94
503.43	39622.93
503.60	39533.99
503.78	39952.94
503.95	40091.04
504.13	40463.18
504.30	40062.95
504.48	40252.53
504.65	40357.86
504.83	40875.12
505.01	41340.88
505.18	41153.64
505.36	41116.19
505.53	40762.77
505.71	41390.03
505.88	41581.96
506.06	41303.43
506.23	41514.08
506.41	41879.21
506.58	41577.28
506.76	41874.52
506.93	42368.38
507.11	42211.56
507.28	42014.96
507.46	42440.93
507.63	42822.44
507.81	43042.45
507.98	42712.44
508.16	42733.50
508.33	42983.94
508.50	43297.57
508.68	43161.82
508.85	43501.20
509.03	43203.95
509.20	43749.29
509.38	43971.64
509.55	44212.72
509.73	44257.19
509.90	44418.69
510.08	44112.08
510.25	44666.78
510.42	44528.69
510.60	44542.74
510.77	44903.18
510.95	44891.48
511.12	44933.60
511.30	44814.24
511.47	45006.16
511.64	44818.92
511.82	45338.52
511.99	45216.81
512.17	45654.49
512.34	45249.58
512.51	45610.02
512.69	46169.41
512.86	46120.26
513.04	46394.10
513.21	46515.81
513.38	46405.80
513.56	46705.39
513.73	46649.22
513.90	46759.22
514.08	46314.52
514.25	46820.08
514.43	46829.44
514.60	46831.78
514.77	46897.31
514.95	47686.07
515.12	47042.43
515.29	47311.59
515.47	47351.38
515.64	47751.61
515.81	47243.71
515.99	48069.92
516.16	48210.35
516.33	48285.25
516.51	48472.49
516.68	48669.10
516.85	48383.55
517.03	48554.41
517.20	48666.76
517.37	48465.47
517.54	48547.39
517.72	48788.47
517.89	48872.73
518.06	49457.86
518.24	48889.11
518.41	49514.03
518.58	48879.75
518.75	49177.00
518.93	49207.42
519.10	49090.40
519.27	49181.68
519.45	49326.79
519.62	49769.15
519.79	49752.77
519.96	49710.64
520.14	49996.18
520.31	49958.73
520.48	50298.11
520.65	49937.67
520.83	50712.39
521.00	50309.82
521.17	50468.97
521.34	50527.48
521.52	50260.66
521.69	50578.98
521.86	50831.75
522.03	50871.54
522.20	51239.01
522.38	51054.11
522.55	50932.40
522.72	51316.25
522.89	51220.28
523.07	51136.02
523.24	51175.81
523.41	51501.15
523.58	51178.15
523.75	51463.70
523.92	51543.28
524.10	51707.12
524.27	51728.18
524.44	51763.29
524.61	51838.18
524.78	51608.81
524.96	51927.13
525.13	52069.90
525.30	52310.97
525.47	52657.37
525.64	51957.55
525.81	52193.95
525.98	52343.74
526.16	52310.97
526.33	52399.91
526.50	52633.97
526.67	52439.70
526.84	52369.49
527.01	52734.61
527.18	52774.40
527.36	52928.87
527.53	52978.03
527.70	53151.23
527.87	53099.73
528.04	52928.87
528.21	53085.69
528.38	53116.12
528.55	53275.27
528.72	53277.61
528.89	53073.99
529.07	53272.93
529.24	53148.88
529.41	53326.77
529.58	53319.74
529.75	53418.05
529.92	53551.46
530.09	53724.66
530.26	53609.97
530.43	53956.37
530.60	53385.28
530.77	53404.00
530.94	53673.16
531.11	53609.97
531.28	53701.25
531.46	54234.89
531.63	54134.25
531.80	54176.38
531.97	54239.57
532.14	54202.13
532.31	54316.81
532.48	54628.10
532.65	54461.93
532.82	54309.79
532.99	54529.80
533.16	54169.36
533.33	54953.44
533.50	54946.42
533.67	54541.50
533.84	54560.23
534.01	54639.81
534.18	54817.69
534.35	54962.80
534.52	54665.55
534.69	54855.14
534.86	54955.78
535.03	54789.60
535.20	55070.46
535.37	55007.27
535.54	55257.71
535.71	54981.52
535.88	54813.01
536.05	55250.69
536.22	55295.16
536.38	55601.77
536.55	55311.54
536.72	55220.26
536.89	55395.80
537.06	55285.79
537.23	55604.11
537.40	55402.82
537.57	55489.42
537.74	55557.30
537.91	55643.90
538.08	55370.05
538.25	55377.08
538.42	55613.47
538.59	55980.93
538.75	55796.03
538.92	55920.08
539.09	56280.52
539.26	55955.19
539.43	56179.88
539.60	56128.39
539.77	56032.42
539.94	56161.15
540.11	56161.15
540.28	56317.97
540.44	56491.17
540.61	56175.20
540.78	56123.71
540.95	56027.74
541.12	56116.68
541.29	56156.47
541.46	56317.97
541.62	56505.21
541.79	56559.05
541.96	56315.63
542.13	56537.98
542.30	56566.07
542.47	56673.73
542.63	56416.27
542.80	56858.63
542.97	56816.50
543.14	57062.26
543.31	57050.56
543.48	56905.44
543.64	57183.97
543.81	57088.01
543.98	57286.95
544.15	57249.50
544.32	57354.83
544.48	57481.22
544.65	57174.61
544.82	57181.63
544.99	57305.68
545.16	57331.42
545.32	57029.49
545.49	57584.20
545.66	57549.09
545.83	57439.09
546.00	57598.24
546.16	57338.44
546.33	57588.88
546.50	57331.42
546.67	57635.69
546.83	57254.18
547.00	57411.00
547.17	57420.36
547.34	57478.88
547.50	57567.82
547.67	57869.75
547.84	57743.36
548.00	57867.40
548.17	58141.25
548.34	57881.45
548.51	58164.65
548.67	57942.30
548.84	57958.69
549.01	57883.79
549.18	58178.70
549.34	58066.35
549.51	58227.85
549.68	58026.56
549.84	58253.59
550.01	58218.49
550.18	58094.44
550.34	58241.89
550.51	58403.39
550.68	58169.33
550.84	58199.76
551.01	58464.24
551.18	58284.02
551.34	58148.27
551.51	58431.47
551.68	58628.08
551.84	58436.16
552.01	58246.57
552.18	58396.37
552.34	58335.51
552.51	58293.38
552.68	58368.28
552.84	58513.39
553.01	58637.44
553.18	58824.68
553.34	58731.06
553.51	58583.61
553.67	58585.95
553.84	58864.47
554.01	58780.21
554.17	58866.81
554.34	58925.33
554.51	58733.40
554.67	58845.75
554.84	58885.54
555.00	58829.37
555.17	58733.40
555.33	58993.20
555.50	58864.47
555.67	58920.65
555.83	58728.72
556.00	59096.19
556.16	59157.04
556.33	59367.69
556.50	58894.90
556.66	59018.95
556.83	59016.61
556.99	59185.13
557.16	59363.01
557.32	59283.43
557.49	59494.08
557.65	59152.36
557.82	59377.05
557.98	59189.81
558.15	59339.60
558.32	59480.03
558.48	59051.72
558.65	59337.26
558.81	59465.99
558.98	59344.28
559.14	59381.73
559.31	59503.44
559.47	59416.84
559.64	59611.10
559.80	59625.15
559.97	59765.58
560.13	59330.24
560.30	59358.33
560.46	59346.62
560.63	59519.82
560.79	59550.25
560.96	59838.14
561.12	59599.40
561.29	59515.14
561.45	59737.49
561.61	59723.45
561.78	59540.89
561.94	59550.25
562.11	59601.74
562.27	59852.18
562.44	59840.48
562.60	60086.23
562.77	59788.98
562.93	59686.00
563.10	60037.08
563.26	59566.63
563.42	60053.47
563.59	59964.52
563.75	59812.39
563.92	59952.82
564.08	59859.20
564.24	60104.96
564.41	59952.82
564.57	59994.95
564.74	59676.64
564.90	59955.16
565.07	60081.55
565.23	59805.37
565.39	59973.89
565.56	59941.12
565.72	59807.71
565.88	59973.89
566.05	60067.51
566.21	60065.17
566.38	60065.17
566.54	60025.38
566.70	60076.87
566.87	59980.91
567.03	59987.93
567.19	60135.38
567.36	60081.55
567.52	60104.96
567.68	60289.86
567.85	60198.58
568.01	60308.58
568.17	60121.34
568.34	60214.96
568.50	60229.01
568.66	60107.30
568.83	60226.66
568.99	59978.57
569.15	60214.96
569.32	60121.34
569.48	60203.26
569.64	60355.39
569.81	60121.34
569.97	60252.41
570.13	60374.12
570.30	60123.68
570.46	60156.45
570.62	60392.84
570.78	60331.99
570.95	60434.97
571.11	60322.63
571.27	60381.14
571.43	60437.31
571.60	60376.46
571.76	60324.97
571.92	60413.91
572.09	60186.88
572.25	60179.85
572.41	60376.46
572.57	60493.49
572.74	60598.81
572.90	60327.31
573.06	60523.91
573.22	60395.18
573.38	60514.55
573.55	60502.85
573.71	60725.20
573.87	60395.18
574.03	60662.00
574.20	60474.76
574.36	60659.66
574.52	60505.19
574.68	60535.62
574.84	60734.56
575.01	60633.92
575.17	60331.99
575.33	60537.96
575.49	60498.17
575.65	60552.00
575.82	60800.10
575.98	60460.72
576.14	60619.88
576.30	60694.77
576.46	60662.00
576.62	60566.04
576.79	60690.09
576.95	60383.48
577.11	60512.21
577.27	60821.16
577.43	60610.51
577.59	60743.92
577.75	60643.28
577.92	60750.94
578.08	60713.50
578.24	60526.25
578.40	60783.71
578.56	60863.29
578.72	60631.58
578.88	60750.94
579.04	60818.82
579.21	60584.77
579.37	60697.11
579.53	60746.26
579.69	60563.70
579.85	60568.38
580.01	60776.69
580.17	60713.50
580.33	60727.54
580.49	60884.36
580.65	60528.59
580.82	60591.79
580.98	60860.95
581.14	60917.12
581.30	60734.56
581.46	60678.39
581.62	60879.67
581.78	60697.11
581.94	60680.73
582.10	60905.42
582.26	60659.66
582.42	60652.64
582.58	60647.96
582.74	60659.66
582.90	60638.60
583.06	60743.92
583.22	60552.00
583.38	60748.60
583.54	60779.03
583.70	60853.93
583.86	60961.59
584.02	60676.05
584.18	60917.12
584.34	60921.80
584.50	60816.48
584.66	60781.37
584.82	60687.75
584.98	60956.91
585.14	60914.78
585.30	60755.63
585.46	60772.01
585.62	60879.67
585.78	60863.29
585.94	60526.25
586.10	61083.30
586.26	60889.04
586.42	60807.12
586.58	61062.24
586.74	60956.91
586.90	60732.22
587.06	60783.71
587.22	61073.94
587.38	60755.63
587.54	60987.34
587.70	61207.35
587.86	61010.74
588.02	60931.17
588.18	61015.43
588.34	60917.12
588.49	60851.59
