SpectraSuite Data File
++++++++++++++++++++++++++++++++++++
Date: Fri Oct 25 11:22:47 EDT 2013
User: price-jones
Dark Spectrum Present: No
Reference Spectrum Present: No
Number of Sampled Component Spectra: 1
Spectrometers: USB2+H05261
Integration Time (usec): 100000 (USB2+H05261)
Spectra Averaged: 1 (USB2+H05261)
Boxcar Smoothing: 0 (USB2+H05261)
Correct for Electrical Dark: No (USB2+H05261)
Strobe/Lamp Enabled: No (USB2+H05261)
Correct for Detector Non-linearity: No (USB2+H05261)
Correct for Stray Light: No (USB2+H05261)
Number of Pixels in Processed Spectrum: 2048
>>>>>Begin Processed Spectral Data<<<<<
365.73	180.22
365.92	180.22
366.12	180.22
366.32	124.05
366.52	133.41
366.72	128.73
366.91	98.30
367.11	156.82
367.31	93.62
367.51	147.45
367.70	110.01
367.90	133.41
368.10	163.84
368.30	187.24
368.49	163.84
368.69	166.18
368.89	189.58
369.09	154.48
369.28	105.32
369.48	163.84
369.68	194.26
369.87	208.31
370.07	224.69
370.27	187.24
370.47	304.27
370.66	540.66
370.86	613.22
371.06	660.03
371.25	653.01
371.45	667.05
371.65	711.52
371.84	678.76
372.04	627.26
372.24	718.54
372.44	753.65
372.63	741.95
372.83	777.06
373.03	748.97
373.22	748.97
373.42	674.07
373.62	767.70
373.81	802.80
374.01	840.25
374.21	802.80
374.40	755.99
374.60	840.25
374.79	844.93
374.99	739.61
375.19	842.59
375.38	842.59
375.58	851.96
375.78	903.45
375.97	823.87
376.17	856.64
376.37	835.57
376.56	915.15
376.76	835.57
376.95	809.83
377.15	877.70
377.35	908.13
377.54	894.08
377.74	894.08
377.93	903.45
378.13	910.47
378.33	926.85
378.52	882.38
378.72	952.60
378.91	990.05
379.11	957.28
379.31	922.17
379.50	903.45
379.70	978.34
379.89	1008.77
380.09	919.83
380.28	919.83
380.48	957.28
380.68	931.53
380.87	1102.39
381.07	1015.79
381.26	1083.67
381.46	1006.43
381.65	1043.88
381.85	994.73
382.04	1039.20
382.24	1050.90
382.43	1001.75
382.63	1060.26
382.83	1039.20
383.02	1132.82
383.22	1069.62
383.41	1039.20
383.61	1111.75
383.80	1095.37
384.00	1086.01
384.19	1041.54
384.39	1086.01
384.58	1100.05
384.78	1102.39
384.97	1135.16
385.17	1156.22
385.36	1137.50
385.56	1210.06
385.75	1160.91
385.95	1121.12
386.14	1135.16
386.34	1277.93
386.53	1153.88
386.72	1313.04
386.92	1331.76
387.11	1263.89
387.31	1233.46
387.50	1221.76
387.70	1277.93
387.89	1338.79
388.09	1289.64
388.28	1270.91
388.48	1268.57
388.67	1240.48
388.86	1317.72
389.06	1315.38
389.25	1291.98
389.45	1320.06
389.64	1263.89
389.84	1320.06
390.03	1467.52
390.22	1383.26
390.42	1324.74
390.61	1242.82
390.81	1392.62
391.00	1380.92
391.19	1502.62
391.39	1439.43
391.58	1315.38
391.78	1448.79
391.97	1542.41
392.16	1446.45
392.36	1460.49
392.55	1542.41
392.75	1420.71
392.94	1561.14
393.13	1530.71
393.33	1479.22
393.52	1528.37
393.71	1591.56
393.91	1614.97
394.10	1439.43
394.29	1561.14
394.49	1584.54
394.68	1699.23
394.88	1572.84
395.07	1659.44
395.26	1610.29
395.46	1659.44
395.65	1708.59
395.84	1799.87
396.04	1806.89
396.23	1647.74
396.42	1769.44
396.62	1797.53
396.81	1710.93
397.00	1820.94
397.19	1776.47
397.39	1795.19
397.58	1849.02
397.77	1804.55
397.97	1844.34
398.16	1827.96
398.35	1952.01
398.55	1905.20
398.74	1886.47
398.93	1926.26
399.12	1886.47
399.32	1863.07
399.51	1923.92
399.70	1959.03
399.90	1839.66
400.09	1998.82
400.28	2036.27
400.47	2031.58
400.67	2108.82
400.86	2066.69
401.05	2003.50
401.24	2087.76
401.44	1973.07
401.63	2179.04
401.82	2153.29
402.01	2087.76
402.21	2040.95
402.40	2162.66
402.59	2218.83
402.78	2253.94
402.97	2258.62
403.17	2326.49
403.36	2260.96
403.55	2289.04
403.74	2305.43
403.93	2408.41
404.13	2448.20
404.32	2506.71
404.51	2403.73
404.70	2385.01
404.89	2431.82
405.09	2406.07
405.28	2459.90
405.47	2464.58
405.66	2579.27
405.85	2520.76
406.05	2462.24
406.24	2548.84
406.43	2619.06
406.62	2602.68
406.81	2569.91
407.00	2518.42
407.20	2609.70
407.39	2679.91
407.58	2656.51
407.77	2757.15
407.96	2792.26
408.15	2827.37
408.34	2766.51
408.54	2761.83
408.73	2923.33
408.92	2757.15
409.11	2881.20
409.30	2960.78
409.49	2888.22
409.68	2977.16
409.87	2932.69
410.07	2939.71
410.26	2960.78
410.45	2878.86
410.64	3110.57
410.83	3021.63
411.02	3213.56
411.21	3213.56
411.40	3251.00
411.59	3192.49
411.78	3265.05
411.98	3215.90
412.17	3363.35
412.36	3300.16
412.55	3316.54
412.74	3332.92
412.93	3384.41
413.12	3353.99
413.31	3667.62
413.50	3463.99
413.69	3442.93
413.88	3634.85
414.07	3611.45
414.26	3620.81
414.45	3768.26
414.64	3562.30
414.83	3716.77
415.02	3861.88
415.22	3878.27
415.41	3892.31
415.60	3871.25
415.79	3726.13
415.98	3918.06
416.17	3911.04
416.36	3927.42
416.55	4051.47
416.74	4182.54
416.93	4074.87
417.12	4021.04
417.31	4039.76
417.50	4320.63
417.69	4271.48
417.88	4294.88
418.07	4259.78
418.26	4191.90
418.45	4264.46
418.64	4327.65
418.83	4367.44
419.02	4437.66
419.21	4475.10
419.39	4631.92
419.58	4514.89
419.77	4538.30
419.96	4456.38
420.15	4554.68
420.34	4683.41
420.53	4573.41
420.72	4697.46
420.91	4624.90
421.10	4732.56
421.29	4826.18
421.48	4648.30
421.67	4933.85
421.86	4842.57
422.05	4844.91
422.24	4933.85
422.43	4905.76
422.61	4912.78
422.80	5043.85
422.99	4985.34
423.18	5004.07
423.37	4961.94
423.56	5001.72
423.75	4971.30
423.94	4880.02
424.13	4531.28
424.32	4755.97
424.50	4901.08
424.69	5020.45
424.88	5085.98
425.07	5022.79
425.26	5041.51
425.45	4912.78
425.64	4936.19
425.83	4987.68
426.01	5029.81
426.20	5170.24
426.39	5153.86
426.58	5188.97
426.77	5121.09
426.96	5214.71
427.15	5088.32
427.33	5210.03
427.52	5270.89
427.71	5310.68
427.90	5240.46
428.09	5226.42
428.28	5327.06
428.46	5378.55
428.65	5416.00
428.84	5481.53
429.03	5432.38
429.22	5266.21
429.40	5446.43
429.59	5551.75
429.78	5355.15
429.97	5324.72
430.16	5540.05
430.34	5565.79
430.53	5757.72
430.72	5490.90
430.91	5678.14
431.10	5486.22
431.28	5668.78
431.47	5820.91
431.66	5776.44
431.85	5935.60
432.03	5937.94
432.22	6118.16
432.41	5923.90
432.60	5944.96
432.79	5865.38
432.97	6026.88
433.16	5937.94
433.35	5928.58
433.54	5893.47
433.72	6127.52
433.91	6115.82
434.10	6155.61
434.28	6129.86
434.47	6188.38
434.66	6253.91
434.85	6296.04
435.03	6445.84
435.22	6300.72
435.41	6445.84
435.59	6338.17
435.78	6635.42
435.97	6403.71
436.16	6509.03
436.34	6485.62
436.53	6509.03
436.72	6731.38
436.90	6410.73
437.09	6558.18
437.28	6544.14
437.46	6609.67
437.65	6602.65
437.84	6853.09
438.02	6698.61
438.21	6857.77
438.40	6658.82
438.58	7061.40
438.77	7049.69
438.96	7122.25
439.14	7241.62
439.33	7192.47
439.52	7262.68
439.70	7201.83
439.89	7550.57
440.08	7300.13
440.26	7410.14
440.45	7363.33
440.63	7307.15
440.82	7632.49
441.01	7478.01
441.19	7660.57
441.38	7667.60
441.57	7789.30
441.75	7988.25
441.94	8035.06
442.12	8124.00
442.31	8145.06
442.50	8297.20
442.68	8004.63
442.87	7974.21
443.05	8023.36
443.24	8198.90
443.43	8060.80
443.61	8187.19
443.80	8421.25
443.98	8241.03
444.17	7878.24
444.35	8386.14
444.54	8439.97
444.73	8449.33
444.91	8348.69
445.10	8383.80
445.28	8189.53
445.47	8112.30
445.65	8320.60
445.84	8346.35
446.02	8421.25
446.21	8461.04
446.39	8437.63
446.58	8561.68
446.77	8596.79
446.95	8348.69
447.14	8521.89
447.32	8545.30
447.51	8416.57
447.69	8472.74
447.88	8704.45
448.06	8664.66
448.25	8573.38
448.43	8458.70
448.62	8451.67
448.80	8650.62
448.99	8793.39
449.17	8917.44
449.36	8603.81
449.54	8929.14
449.73	8889.35
449.91	9149.15
450.10	8828.50
450.28	9123.41
450.46	9074.26
450.65	8985.32
450.83	9224.05
451.02	8994.68
451.20	9172.56
451.39	9071.92
451.57	9151.49
451.76	9008.72
451.94	9238.09
452.13	9413.63
452.31	9404.27
452.49	9310.65
452.68	9404.27
452.86	9249.80
453.05	9455.76
453.23	9596.20
453.42	9504.92
453.60	9570.45
453.78	9280.22
453.97	9591.52
454.15	9483.85
454.34	9535.34
454.52	9605.56
454.70	9547.05
454.89	9738.97
455.07	9928.55
455.26	9827.91
455.44	10054.94
455.62	10012.81
455.81	9963.66
455.99	9895.78
456.17	10033.88
456.36	10085.37
456.54	10207.08
456.73	10263.25
456.91	10485.60
457.09	10368.57
457.28	10450.49
457.46	10375.59
457.64	10396.66
457.83	10501.98
458.01	10534.75
458.19	10707.95
458.38	10501.98
458.56	10628.37
458.74	10808.59
458.93	10682.20
459.11	10902.22
459.29	10600.29
459.48	10906.90
459.66	10597.95
459.84	10895.19
460.03	11145.63
460.21	11098.82
460.39	10869.45
460.57	11049.67
460.76	11052.01
460.94	11272.02
461.12	11239.25
461.31	11115.20
461.49	10986.47
461.67	11428.84
461.85	11508.41
462.04	11424.15
462.22	11964.82
462.40	11723.74
462.59	11316.49
462.77	11543.52
462.95	11707.36
463.13	11655.87
463.32	11557.57
463.50	11999.93
463.68	11847.79
463.86	12063.12
464.05	11726.08
464.23	11908.65
464.41	12077.16
464.59	11721.40
464.78	12145.04
464.96	11936.73
465.14	11906.31
465.32	11782.26
465.50	12009.29
465.69	11971.84
465.87	12322.92
466.05	12105.25
466.23	12248.02
466.41	12325.26
466.60	12503.14
466.78	12126.32
466.96	12250.36
467.14	12432.93
467.32	12475.06
467.51	12503.14
467.69	12056.10
467.87	12547.61
468.05	12652.94
468.23	12578.04
468.41	12510.16
468.60	12753.58
468.78	12868.27
468.96	12596.76
469.14	12901.03
469.32	12964.23
469.50	12573.36
469.69	12973.59
469.87	13160.83
470.05	13081.25
470.23	13149.13
470.41	13125.72
470.59	13458.08
470.77	13036.78
470.95	13448.72
471.14	13635.96
471.32	12989.97
471.50	13830.23
471.68	13570.43
471.86	13905.12
472.04	13715.54
472.22	13788.10
472.40	13977.68
472.58	13783.41
472.77	14118.11
472.95	14171.94
473.13	14768.78
473.31	14036.19
473.49	14207.05
473.67	14548.77
473.85	14511.32
474.03	14778.14
474.21	14745.38
474.39	14651.75
474.57	14726.65
474.75	15096.46
474.93	15026.24
475.12	15112.84
475.30	15166.67
475.48	15293.06
475.66	15169.01
475.84	15042.62
476.02	15470.94
476.20	15522.43
476.38	15833.72
476.56	15976.50
476.74	16320.56
476.92	15749.46
477.10	15939.05
477.28	16065.44
477.46	16343.96
477.64	16175.44
477.82	16596.74
478.00	16947.82
478.18	16739.51
478.36	16924.41
478.54	17366.78
478.72	17422.95
478.90	17418.27
479.08	17792.75
479.26	17987.02
479.44	17809.14
479.62	18097.02
479.80	18085.32
479.98	18464.49
480.16	18703.22
480.34	18286.61
480.52	18644.71
480.70	18679.82
480.88	18480.87
481.06	18869.40
481.24	18801.52
481.41	19115.16
481.59	19276.65
481.77	19564.54
481.95	19733.06
482.13	19882.85
482.31	19960.09
482.49	20493.73
482.67	20365.00
482.85	20421.17
483.03	20669.27
483.21	21064.82
483.39	20800.34
483.57	21029.71
483.74	21109.29
483.92	21539.95
484.10	21296.53
484.28	21593.78
484.46	22492.55
484.64	22703.20
484.82	21989.33
485.00	22331.05
485.18	22967.68
485.35	23136.20
485.53	23044.91
485.71	22862.35
485.89	23857.08
486.07	23489.62
486.25	23765.80
486.43	24077.09
486.61	23894.53
486.78	24320.51
486.96	24269.01
487.14	24521.79
487.32	24734.78
487.50	24877.55
487.68	24999.26
487.85	25640.57
488.03	25474.39
488.21	25638.23
488.39	25593.76
488.57	26068.89
488.75	26326.35
488.92	26532.31
489.10	26817.86
489.28	26841.26
489.46	27215.75
489.64	26813.18
489.81	27683.86
489.99	27763.43
490.17	27901.53
490.35	27988.13
490.53	28762.84
490.70	28503.04
490.88	28477.30
491.06	28856.46
491.24	28765.18
491.41	29156.05
491.59	29127.97
491.77	29345.64
491.95	29549.26
492.13	30087.59
492.30	30155.46
492.48	30258.45
492.66	30342.70
492.84	30230.36
493.01	30785.07
493.19	30663.36
493.37	31246.15
493.54	31571.49
493.72	31482.55
493.90	31515.31
494.08	31988.10
494.25	32400.04
494.43	31990.44
494.61	32503.02
494.79	32779.20
494.96	32755.80
495.14	33055.39
495.32	33469.66
495.49	33397.10
495.67	33518.81
495.85	33834.78
496.02	33905.00
496.20	34197.57
496.38	33979.90
496.55	34169.48
496.73	34976.97
496.91	34485.45
497.09	34974.63
497.26	35161.87
497.44	35047.18
497.62	35349.11
497.79	35952.97
497.97	35590.19
498.14	36407.03
498.32	36430.44
498.50	36301.71
498.67	36978.12
498.85	36699.60
499.03	36811.95
499.20	37024.93
499.38	36919.61
499.56	36903.23
499.73	37174.73
499.91	37558.58
500.08	37689.65
500.26	37780.93
500.44	37717.73
500.61	38267.76
500.79	38005.62
500.97	38117.96
501.14	38621.18
501.32	38462.02
501.49	38284.14
501.67	38735.87
501.84	39391.22
502.02	39063.54
502.20	39449.73
502.37	39328.02
502.55	39124.40
502.72	39835.92
502.90	39676.76
503.07	39342.06
503.25	39894.43
503.43	39768.04
503.60	40046.57
503.78	40638.72
503.95	40212.74
504.13	40648.08
504.30	40542.76
504.48	40547.44
504.65	40858.73
504.83	41408.76
505.01	41319.82
505.18	41741.11
505.36	41626.43
505.53	41486.00
505.71	42120.28
505.88	41921.34
506.06	41567.91
506.23	42515.83
506.41	41698.98
506.58	42302.84
506.76	42281.78
506.93	42799.04
507.11	42740.52
507.28	42639.88
507.46	42726.48
507.63	42878.61
507.81	43562.05
507.98	43019.05
508.16	43543.33
508.33	43491.83
508.50	43454.39
508.68	43515.24
508.85	44023.14
509.03	43973.98
509.20	44151.87
509.38	44493.58
509.55	44701.89
509.73	44231.44
509.90	44655.08
510.08	44800.19
510.25	44477.20
510.42	44751.04
510.60	45289.37
510.77	45518.74
510.95	45975.14
511.12	45055.31
511.30	45382.99
511.47	45572.57
511.64	46019.61
511.82	46141.32
511.99	45792.58
512.17	45867.48
512.34	45677.90
512.51	46094.51
512.69	46452.61
512.86	46298.14
513.04	46813.05
513.21	46625.81
513.38	46939.44
513.56	47187.54
513.73	46962.85
513.90	47014.34
514.08	46906.68
514.25	47391.17
514.43	47452.02
514.60	47489.47
514.77	47798.42
514.95	47887.36
515.12	47463.72
515.29	47866.30
515.47	47758.63
515.64	48353.13
515.81	48322.70
515.99	48507.60
516.16	48748.68
516.33	48355.47
516.51	48921.88
516.68	48687.82
516.85	48708.89
517.03	49191.04
517.20	49188.70
517.37	48978.05
517.54	48699.53
517.72	49041.24
517.89	49151.25
518.06	49509.35
518.24	49771.49
518.41	49680.21
518.58	49378.28
518.75	49291.68
518.93	49752.77
519.10	49815.96
519.27	50050.02
519.45	49970.44
519.62	50160.02
519.79	50255.98
519.96	50035.97
520.14	50234.92
520.31	50199.81
520.48	50471.31
520.65	50693.66
520.83	50731.11
521.00	50770.90
521.17	50267.69
521.34	50773.24
521.52	50827.07
521.69	51260.07
521.86	50923.04
522.03	51498.81
522.20	51564.34
522.38	51505.83
522.55	51643.92
522.72	51533.92
522.89	51798.40
523.07	51913.08
523.24	51498.81
523.41	51941.17
523.58	51648.60
523.75	52219.69
523.92	51957.55
524.10	52406.94
524.27	52322.68
524.44	52313.31
524.61	52205.65
524.78	52507.58
524.96	52339.06
525.13	52442.04
525.30	52535.66
525.47	52526.30
525.64	52619.92
525.81	53050.58
525.98	52858.66
526.16	52795.46
526.33	52896.11
526.50	52989.73
526.67	52575.45
526.84	53052.92
527.01	53132.50
527.18	53024.84
527.36	53301.02
527.53	53301.02
527.70	53743.38
527.87	53350.17
528.04	53221.44
528.21	53324.43
528.38	53223.78
528.55	53572.52
528.72	53263.57
528.89	53680.19
529.07	53546.78
529.24	53502.31
529.41	54061.69
529.58	53649.76
529.75	53947.01
529.92	53804.24
530.09	53869.77
530.26	54028.93
530.43	54117.87
530.60	53832.32
530.77	54024.25
530.94	54300.43
531.11	54295.75
531.28	54028.93
531.46	54457.24
531.63	54487.67
531.80	54319.15
531.97	54602.36
532.14	54424.48
532.31	54639.81
532.48	54651.51
532.65	54855.14
532.82	54597.68
532.99	54845.77
533.16	54663.21
533.33	55079.83
533.50	55171.11
533.67	54869.18
533.84	54787.26
534.01	54946.42
534.18	55154.72
534.35	55351.33
534.52	55346.65
534.69	55370.05
534.86	55412.18
535.03	55278.77
535.20	55547.93
535.37	55400.48
535.54	55526.87
535.71	55505.80
535.88	55873.27
536.05	55552.62
536.22	55756.24
536.38	55842.84
536.55	55856.88
536.72	55730.50
536.89	55636.87
537.06	55786.67
537.23	55880.29
537.40	55873.27
537.57	55807.73
537.74	55943.48
537.91	56039.45
538.08	56011.36
538.25	55875.61
538.42	56250.09
538.59	56439.68
538.75	55917.74
538.92	56182.22
539.09	56493.51
539.26	56446.70
539.43	56196.26
539.60	56701.82
539.77	56523.94
539.94	56743.95
540.11	56502.87
540.28	56617.56
540.44	56502.87
540.61	56516.92
540.78	56432.66
540.95	56505.21
541.12	56411.59
541.29	56545.00
541.46	56809.48
541.62	56500.53
541.79	56959.28
541.96	56741.61
542.13	56423.29
542.30	56678.41
542.47	56788.42
542.63	57169.93
542.80	56865.66
542.97	57174.61
543.14	57352.49
543.31	57167.58
543.48	57375.89
543.64	57537.39
543.81	57549.09
543.98	57244.82
544.15	57137.16
544.32	57677.82
544.48	57745.70
544.65	57389.94
544.82	57427.38
544.99	57558.45
545.16	57411.00
545.32	57324.40
545.49	57682.50
545.66	57640.37
545.83	57811.23
546.00	57844.00
546.16	57532.71
546.33	57647.39
546.50	57736.34
546.67	58064.01
546.83	57619.31
547.00	57970.39
547.17	57712.93
547.34	57925.92
547.50	58024.22
547.67	58181.04
547.84	58148.27
548.00	57862.72
548.17	58192.74
548.34	58253.59
548.51	58440.84
548.67	58312.11
548.84	58365.94
549.01	58066.35
549.18	58064.01
549.34	58412.75
549.51	58246.57
549.68	58410.41
549.84	58539.14
550.01	58513.39
550.18	58515.73
550.34	58656.17
550.51	58749.79
550.68	58656.17
550.84	58262.96
551.01	58625.74
551.18	58588.29
551.34	58546.16
551.51	58539.14
551.68	58651.48
551.84	58578.93
552.01	58684.25
552.18	59030.65
552.34	58618.72
552.51	59072.78
552.68	58520.41
552.84	58864.47
553.01	58946.39
553.18	58890.22
553.34	58915.96
553.51	58698.30
553.67	58890.22
553.84	59075.12
554.01	58981.50
554.17	59159.38
554.34	59105.55
554.51	59002.56
554.67	58962.78
554.84	59171.08
555.00	58965.12
555.17	59152.36
555.33	59140.66
555.50	59023.63
555.67	59194.49
555.83	59157.04
556.00	59323.22
556.16	59625.15
556.33	59360.67
556.50	59461.31
556.66	59501.10
556.83	59358.33
556.99	59428.54
557.16	59770.26
557.32	59613.44
557.49	59599.40
557.65	59456.63
557.82	59320.88
557.98	59365.35
558.15	59365.35
558.32	59547.91
558.48	59302.15
558.65	59576.00
558.81	59758.56
558.98	59564.29
559.14	59744.51
559.31	59723.45
559.47	59758.56
559.64	59833.46
559.80	59779.62
559.97	59896.65
560.13	59784.30
560.30	59662.60
560.46	59966.87
560.63	59793.67
560.79	59695.36
560.96	60011.34
561.12	60097.94
561.29	60069.85
561.45	59849.84
561.61	60013.68
561.78	60011.34
561.94	60158.79
562.11	59945.80
562.27	60095.60
562.44	60004.31
562.60	60083.89
562.77	60210.28
562.93	59936.44
563.10	60079.21
563.26	60076.87
563.42	60315.61
563.59	60163.47
563.75	59952.82
563.92	60144.75
564.08	59997.29
564.24	60350.71
564.41	60243.05
564.57	60226.66
564.74	59969.21
564.90	60179.85
565.07	60214.96
565.23	60170.49
565.39	60055.81
565.56	60306.24
565.72	60217.30
565.88	60315.61
566.05	60287.52
566.21	59924.74
566.38	60259.43
566.54	60441.99
566.70	60329.65
566.87	60423.27
567.03	60212.62
567.19	60594.13
567.36	60413.91
567.52	60252.41
567.68	60458.38
567.85	60343.69
568.01	60666.69
568.17	60434.97
568.34	60453.70
568.50	60395.18
568.66	60413.91
568.83	60514.55
568.99	60500.51
569.15	60523.91
569.32	60722.86
569.48	60308.58
569.64	60544.98
569.81	60610.51
569.97	60647.96
570.13	60619.88
570.30	60647.96
570.46	60619.88
570.62	60507.53
570.78	60514.55
570.95	60544.98
571.11	60818.82
571.27	60521.57
571.43	60638.60
571.60	60678.39
571.76	60786.05
571.92	60804.78
572.09	60701.79
572.25	60666.69
572.41	60727.54
572.57	60647.96
572.74	60942.87
572.90	60662.00
573.06	60769.67
573.22	60662.00
573.38	60767.33
573.55	60650.30
573.71	60884.36
573.87	60750.94
574.03	60706.47
574.20	60666.69
574.36	60598.81
574.52	60748.60
574.68	60680.73
574.84	60989.68
575.01	60846.91
575.17	60935.85
575.33	60837.54
575.49	60629.24
575.65	60793.07
575.82	60933.51
575.98	60954.57
576.14	61116.07
576.30	61034.15
576.46	60690.09
576.62	60580.09
576.79	61048.19
576.95	60858.61
577.11	60949.89
577.27	60912.44
577.43	60718.18
577.59	60715.84
577.75	60877.33
577.92	60952.23
578.08	61027.13
578.24	60816.48
578.40	60945.21
578.56	61109.05
578.72	61024.79
578.88	60912.44
579.04	61228.41
579.21	61106.71
579.37	60992.02
579.53	61186.28
579.69	60842.23
579.85	60877.33
580.01	60924.14
580.17	60926.49
580.33	61097.34
580.49	61008.40
580.65	61169.90
580.82	61090.32
580.98	60776.69
581.14	60832.86
581.30	61212.03
581.46	61048.19
581.62	60907.76
581.78	61062.24
581.94	61265.86
582.10	60970.96
582.26	60992.02
582.42	60837.54
582.58	60975.64
582.74	60956.91
582.90	60821.16
583.06	61017.77
583.22	60863.29
583.38	61106.71
583.54	61113.73
583.70	61263.52
583.86	61095.00
584.02	61095.00
584.18	61221.39
584.34	60977.98
584.50	60776.69
584.66	60877.33
584.82	60980.32
584.98	61186.28
585.14	61221.39
585.30	60968.61
585.46	61085.64
585.62	61181.60
585.78	61249.48
585.94	61148.84
586.10	61123.09
586.26	60900.74
586.42	61057.56
586.58	60994.36
586.74	61160.54
586.90	61050.53
587.06	60994.36
587.22	61272.88
587.38	61165.22
587.54	61132.45
587.70	61315.01
587.86	61052.87
588.02	61212.03
588.18	61364.17
588.34	61340.76
588.49	61085.64
