SpectraSuite Data File
++++++++++++++++++++++++++++++++++++
Date: Fri Oct 25 10:47:44 EDT 2013
User: price-jones
Dark Spectrum Present: No
Reference Spectrum Present: No
Number of Sampled Component Spectra: 1
Spectrometers: USB2+H05261
Integration Time (usec): 100000 (USB2+H05261)
Spectra Averaged: 1 (USB2+H05261)
Boxcar Smoothing: 0 (USB2+H05261)
Correct for Electrical Dark: No (USB2+H05261)
Strobe/Lamp Enabled: No (USB2+H05261)
Correct for Detector Non-linearity: No (USB2+H05261)
Correct for Stray Light: No (USB2+H05261)
Number of Pixels in Processed Spectrum: 2048
>>>>>Begin Processed Spectral Data<<<<<
365.73	173.20
365.92	173.20
366.12	173.20
366.32	107.66
366.52	39.79
366.72	0.00
366.91	18.72
367.11	9.36
367.31	14.04
367.51	63.19
367.70	14.04
367.90	110.01
368.10	11.70
368.30	0.00
368.49	58.51
368.69	56.17
368.89	42.13
369.09	51.49
369.28	2.34
369.48	84.26
369.68	86.60
369.87	133.41
370.07	147.45
370.27	119.37
370.47	170.86
370.66	360.44
370.86	454.06
371.06	447.04
371.25	437.68
371.45	425.98
371.65	430.66
371.84	442.36
372.04	381.51
372.24	486.83
372.44	379.17
372.63	486.83
372.83	428.32
373.03	500.87
373.22	489.17
373.42	435.34
373.62	465.77
373.81	507.90
374.01	599.18
374.21	510.24
374.40	510.24
374.60	599.18
374.79	592.16
374.99	521.94
375.19	554.71
375.38	554.71
375.58	519.60
375.78	538.32
375.97	620.24
376.17	564.07
376.37	568.75
376.56	596.84
376.76	636.63
376.95	592.16
377.15	547.69
377.35	627.26
377.54	554.71
377.74	571.09
377.93	662.37
378.13	650.67
378.33	610.88
378.52	594.50
378.72	596.84
378.91	662.37
379.11	594.50
379.31	627.26
379.50	550.03
379.70	685.78
379.89	660.03
380.09	674.07
380.28	554.71
380.48	671.73
380.68	697.48
380.87	610.88
381.07	653.01
381.26	685.78
381.46	582.79
381.65	751.31
381.85	580.45
382.04	739.61
382.24	772.38
382.43	718.54
382.63	617.90
382.83	706.84
383.02	732.59
383.22	763.01
383.41	725.57
383.61	645.99
383.80	727.91
384.00	741.95
384.19	706.84
384.39	746.63
384.58	734.93
384.78	741.95
384.97	779.40
385.17	727.91
385.36	835.57
385.56	709.18
385.75	755.99
385.95	734.93
386.14	819.19
386.34	746.63
386.53	683.44
386.72	770.04
386.92	798.12
387.11	851.96
387.31	847.27
387.50	744.29
387.70	779.40
387.89	802.80
388.09	835.57
388.28	781.74
388.48	889.40
388.67	938.55
388.86	919.83
389.06	926.85
389.25	847.27
389.45	898.77
389.64	821.53
389.84	952.60
390.03	917.49
390.22	884.72
390.42	823.87
390.61	952.60
390.81	894.08
391.00	950.26
391.19	966.64
391.39	954.94
391.58	961.96
391.78	952.60
391.97	875.36
392.16	924.51
392.36	973.66
392.55	950.26
392.75	1018.13
392.94	933.87
393.13	931.53
393.33	877.70
393.52	973.66
393.71	1034.52
393.91	971.32
394.10	1029.84
394.29	1008.77
394.49	1128.14
394.68	1097.71
394.88	1139.84
395.07	1069.62
395.26	1151.54
395.46	1158.57
395.65	1109.41
395.84	1156.22
396.04	1114.10
396.23	1102.39
396.42	1170.27
396.62	1132.82
396.81	1172.61
397.00	1191.33
397.19	1172.61
397.39	1249.85
397.58	1210.06
397.77	1191.33
397.97	1240.48
398.16	1240.48
398.35	1273.25
398.55	1306.02
398.74	1296.66
398.93	1317.72
399.12	1352.83
399.32	1303.68
399.51	1235.80
399.70	1355.17
399.90	1301.34
400.09	1369.21
400.28	1378.58
400.47	1362.19
400.67	1437.09
400.86	1495.60
401.05	1401.98
401.24	1437.09
401.44	1451.13
401.63	1528.37
401.82	1437.09
402.01	1409.00
402.21	1551.78
402.40	1535.39
402.59	1418.36
402.78	1526.03
402.97	1558.80
403.17	1502.62
403.36	1600.93
403.55	1652.42
403.74	1640.72
403.93	1734.34
404.13	1680.50
404.32	1593.90
404.51	1556.46
404.70	1678.16
404.89	1603.27
405.09	1774.13
405.28	1675.82
405.47	1668.80
405.66	1748.38
405.85	1762.42
406.05	1715.61
406.24	1781.15
406.43	1860.73
406.62	1757.74
406.81	1825.62
407.00	1795.19
407.20	1797.53
407.39	1860.73
407.58	1872.43
407.77	1961.37
407.96	1942.64
408.15	1989.46
408.34	1898.17
408.54	1944.99
408.73	2040.95
408.92	1921.58
409.11	2001.16
409.30	2083.08
409.49	2057.33
409.68	1996.48
409.87	1907.54
410.07	2108.82
410.26	2071.37
410.45	2146.27
410.64	2197.76
410.83	2232.87
411.02	2211.81
411.21	2174.36
411.40	2066.69
411.59	2342.88
411.78	2321.81
411.98	2188.40
412.17	2282.02
412.36	2349.90
412.55	2228.19
412.74	2452.88
412.93	2370.96
413.12	2361.60
413.31	2431.82
413.50	2406.07
413.69	2389.69
413.88	2558.21
414.07	2562.89
414.26	2537.14
414.45	2590.97
414.64	2595.65
414.83	2612.04
415.02	2644.81
415.22	2628.42
415.41	2850.77
415.60	2724.38
415.79	2862.48
415.98	2822.69
416.17	2796.94
416.36	2913.97
416.55	2885.88
416.74	2864.82
416.93	2911.63
417.12	2782.90
417.31	2913.97
417.50	2874.18
417.69	3021.63
417.88	3014.61
418.07	3005.25
418.26	3056.74
418.45	3000.57
418.64	3279.09
418.83	3204.19
419.02	3222.92
419.21	3258.03
419.39	3293.13
419.58	2939.71
419.77	3208.87
419.96	3265.05
420.15	3428.88
420.34	3138.66
420.53	3281.43
420.72	3356.33
420.91	3307.18
421.10	3445.27
421.29	3405.48
421.48	3272.07
421.67	3503.78
421.86	3307.18
422.05	3353.99
422.24	3342.28
422.43	3417.18
422.61	3403.14
422.80	3576.34
422.99	3471.01
423.18	3541.23
423.37	3552.93
423.56	3639.53
423.75	3480.38
423.94	3445.27
424.13	3297.81
424.32	3391.44
424.50	3541.23
424.69	3606.77
424.88	3625.49
425.07	3485.06
425.26	3494.42
425.45	3581.02
425.64	3506.12
425.83	3536.55
426.01	3513.14
426.20	3576.34
426.39	3602.08
426.58	3719.11
426.77	3515.48
426.96	3440.59
427.15	3510.80
427.33	3648.90
427.52	3632.51
427.71	3623.15
427.90	3632.51
428.09	3712.09
428.28	3527.19
428.46	3655.92
428.65	3723.79
428.84	3941.46
429.03	3768.26
429.22	3716.77
429.40	3707.41
429.59	3763.58
429.78	3712.09
429.97	3545.91
430.16	3768.26
430.34	3861.88
430.53	3798.69
430.72	3758.90
430.91	3922.74
431.10	3934.44
431.28	4095.94
431.47	4138.07
431.66	4044.45
431.85	4102.96
432.03	4044.45
432.22	4077.21
432.41	4124.02
432.60	4154.45
432.79	4145.09
432.97	4353.40
433.16	4346.37
433.35	4149.77
433.54	4234.03
433.72	4397.87
433.91	4138.07
434.10	4112.32
434.28	4236.37
434.47	4196.58
434.66	4381.48
434.85	4334.67
435.03	4491.49
435.22	4311.27
435.41	4498.51
435.59	4299.56
435.78	4585.11
435.97	4617.88
436.16	4557.02
436.34	4489.15
436.53	4561.70
436.72	4636.60
436.90	4491.49
437.09	4657.67
437.28	4493.83
437.46	4692.77
437.65	4566.39
437.84	4720.86
438.02	4573.41
438.21	4758.31
438.40	4695.11
438.58	4805.12
438.77	4917.47
438.96	4725.54
439.14	4884.70
439.33	4992.36
439.52	4844.91
439.70	4961.94
439.89	5083.64
440.08	5006.41
440.26	5046.20
440.45	5022.79
440.63	5100.03
440.82	5277.91
441.01	5228.76
441.19	5423.02
441.38	5418.34
441.57	5355.15
441.75	5439.40
441.94	5565.79
442.12	5593.88
442.31	5614.95
442.50	5554.09
442.68	5720.27
442.87	5565.79
443.05	5776.44
443.24	5694.52
443.43	5565.79
443.61	5647.71
443.80	5689.84
443.98	5638.35
444.17	5420.68
444.35	5818.57
444.54	5954.32
444.73	5668.78
444.91	5685.16
445.10	5687.50
445.28	5694.52
445.47	5757.72
445.65	5682.82
445.84	5851.34
446.02	5757.72
446.21	5846.66
446.39	5722.61
446.58	5834.96
446.77	5905.17
446.95	5678.14
447.14	5837.30
447.32	6031.56
447.51	5846.66
447.69	5891.13
447.88	5994.11
448.06	5951.98
448.25	5902.83
448.43	6118.16
448.62	6001.13
448.80	5867.72
448.99	6164.97
449.17	6167.31
449.36	6076.03
449.54	6129.86
449.73	6171.99
449.91	6258.59
450.10	6267.95
450.28	6450.52
450.46	6340.51
450.65	6291.36
450.83	6394.34
451.02	6253.91
451.20	6513.71
451.39	6466.90
451.57	6445.84
451.76	6478.60
451.94	6396.68
452.13	6504.35
452.31	6223.48
452.49	6352.21
452.68	6565.20
452.86	6319.45
453.05	6307.74
453.23	6565.20
453.42	6579.25
453.60	6359.24
453.78	6658.82
453.97	6429.45
454.15	6586.27
454.34	6614.35
454.52	6693.93
454.70	6595.63
454.89	6764.15
455.07	6602.65
455.26	6740.74
455.44	6906.92
455.62	6885.86
455.81	6743.08
455.99	7014.59
456.17	6953.73
456.36	6913.94
456.54	7098.84
456.73	7157.36
456.91	7281.41
457.09	7183.10
457.28	7375.03
457.46	7183.10
457.64	7136.29
457.83	7096.50
458.01	7155.02
458.19	7389.07
458.38	7101.19
458.56	7330.56
458.74	7349.28
458.93	7269.70
459.11	7295.45
459.29	7419.50
459.48	7421.84
459.66	7246.30
459.84	7548.23
460.03	7517.80
460.21	7489.71
460.39	7569.29
460.57	7506.10
460.76	7707.38
460.94	7662.91
461.12	7716.75
461.31	7707.38
461.49	7550.57
461.67	7630.15
461.85	7798.66
462.04	7669.94
462.22	8248.05
462.40	7873.56
462.59	7817.39
462.77	7983.57
462.95	7950.80
463.13	8044.42
463.32	7960.16
463.50	7971.86
463.68	8032.72
463.86	8100.59
464.05	7791.64
464.23	8067.83
464.41	8006.97
464.59	8060.80
464.78	8168.47
464.96	7990.59
465.14	7908.67
465.32	8114.64
465.50	8318.26
465.69	8271.45
465.87	8219.96
466.05	8161.45
466.23	8210.60
466.41	8402.52
466.60	8290.18
466.78	8273.79
466.96	8325.29
467.14	8208.26
467.32	8346.35
467.51	8519.55
467.69	8290.18
467.87	8542.96
468.05	8671.68
468.23	8578.06
468.41	8435.29
468.60	8617.85
468.78	8507.85
468.96	8486.78
469.14	8702.11
469.32	8629.56
469.50	8828.50
469.69	8638.92
469.87	8922.12
470.05	8795.73
470.23	8997.02
470.41	8985.32
470.59	8833.18
470.77	8854.25
470.95	8891.70
471.14	9039.15
471.32	9032.13
471.50	9198.31
471.68	9151.49
471.86	9451.08
472.04	9418.32
472.22	9523.64
472.40	9188.94
472.58	9418.32
472.77	9453.42
472.95	9502.58
473.13	9956.64
473.31	9446.40
473.49	9657.05
473.67	9525.98
473.85	9661.73
474.03	10022.17
474.21	9865.36
474.39	9865.36
474.57	9879.40
474.75	9956.64
474.93	9973.02
475.12	9926.21
475.30	10012.81
475.48	10031.54
475.66	10174.31
475.84	10029.20
476.02	10293.68
476.20	10249.21
476.38	10665.82
476.56	10761.78
476.74	10574.54
476.92	10595.61
477.10	10600.29
477.28	10857.75
477.46	10775.83
477.64	10974.77
477.82	11084.78
478.00	11344.58
478.18	11185.42
478.36	11569.27
478.54	11609.06
478.72	11508.41
478.90	11531.82
479.08	11758.85
479.26	11918.01
479.44	11873.54
479.62	11833.75
479.80	11915.67
479.98	12175.47
480.16	12397.82
480.34	12259.73
480.52	12463.35
480.70	12238.66
480.88	12189.51
481.06	12306.54
481.24	12664.64
481.41	12968.91
481.59	12872.95
481.77	13046.15
481.95	13097.64
482.13	12894.01
482.31	13046.15
482.49	13341.05
482.67	13268.50
482.85	13579.79
483.03	13687.45
483.21	13837.25
483.39	13947.25
483.57	13935.55
483.74	13926.19
483.92	14216.41
484.10	14047.90
484.28	14340.46
484.46	14333.44
484.64	14682.18
484.82	14635.37
485.00	14686.86
485.18	14986.45
485.35	15239.23
485.53	14817.93
485.71	14927.94
485.89	15239.23
486.07	15136.24
486.25	15552.86
486.43	15314.13
486.61	15772.87
486.78	15880.53
486.96	15885.22
487.14	16210.55
487.32	16294.81
487.50	16255.02
487.68	16423.54
487.85	16554.61
488.03	16989.95
488.21	16840.15
488.39	16872.92
488.57	17249.75
488.75	17282.52
488.92	17380.82
489.10	17607.85
489.28	17790.41
489.46	18073.62
489.64	17884.03
489.81	18185.96
489.99	18342.78
490.17	18366.18
490.35	18677.48
490.53	18525.34
490.70	18675.13
490.88	18668.11
491.06	18801.52
491.24	18728.97
491.41	18906.85
491.59	18897.49
491.77	19344.53
491.95	19239.20
492.13	19625.39
492.30	19452.19
492.48	19803.27
492.66	20013.92
492.84	20238.61
493.01	20123.93
493.19	20063.07
493.37	20465.64
493.54	20348.62
493.72	20615.44
493.90	20734.81
494.08	20610.76
494.25	21247.38
494.43	21128.02
494.61	21373.77
494.79	21465.05
494.96	21373.77
495.14	21488.46
495.32	21666.34
495.49	21785.71
495.67	21900.39
495.85	21989.33
496.02	21921.46
496.20	22284.24
496.38	22401.27
496.55	22267.86
496.73	22998.10
496.91	22576.81
497.09	22838.95
497.26	22721.92
497.44	22937.25
497.62	22941.93
497.79	23534.09
497.97	23391.31
498.14	23496.64
498.32	23620.69
498.50	22925.55
498.67	23688.56
498.85	23576.22
499.03	23931.98
499.20	23768.14
499.38	23978.79
499.56	24079.43
499.73	24467.96
499.91	24130.92
500.08	24460.94
500.26	24421.15
500.44	24596.69
500.61	24912.66
500.79	24432.85
500.97	24802.66
501.14	25008.62
501.32	25046.07
501.49	25062.46
501.67	25296.51
501.84	25413.54
502.02	25331.62
502.20	25713.13
502.37	25191.19
502.55	25436.94
502.72	25743.55
502.90	25703.76
503.07	25682.70
503.25	25493.12
503.43	25551.63
503.60	25881.64
503.78	26129.74
503.95	25869.94
504.13	26206.98
504.30	26347.41
504.48	26593.17
504.65	26836.58
504.83	26703.17
505.01	26586.15
505.18	26850.63
505.36	27232.13
505.53	26871.69
505.71	27285.97
505.88	27248.52
506.06	26937.23
506.23	26998.08
506.41	27269.58
506.58	27285.97
506.76	27494.27
506.93	27480.23
507.11	27756.41
507.28	27859.40
507.46	27641.73
507.63	27777.48
507.81	27941.32
507.98	27955.36
508.16	28173.03
508.33	28273.67
508.50	28311.12
508.68	28383.68
508.85	28804.97
509.03	28790.93
509.20	28304.10
509.38	28819.02
509.55	28748.80
509.73	28711.35
509.90	29233.29
510.08	28769.86
510.25	29179.46
510.42	29436.92
510.60	29259.04
510.77	29202.86
510.95	29715.44
511.12	29284.78
511.30	29198.18
511.47	29696.72
511.64	29607.78
511.82	30010.35
511.99	29694.38
512.17	29923.75
512.34	29717.78
512.51	30101.63
512.69	30361.43
512.86	30326.32
513.04	30452.71
513.21	30639.95
513.38	30235.04
513.56	30258.45
513.73	30277.17
513.90	30579.10
514.08	30672.72
514.25	30909.11
514.43	30944.22
514.60	30984.01
514.77	30974.65
514.95	31084.65
515.12	30995.71
515.29	31208.70
515.47	31735.32
515.64	31688.51
515.81	31321.05
515.99	31372.54
516.16	31379.56
516.33	31321.05
516.51	31557.44
516.68	31335.09
516.85	31391.26
517.03	31756.39
517.20	31826.60
517.37	31517.65
517.54	32006.83
517.72	32158.96
517.89	32264.28
518.06	31943.63
518.24	32051.30
518.41	31957.67
518.58	32283.01
518.75	32381.31
518.93	32863.46
519.10	32577.92
519.27	32840.06
519.45	32725.37
519.62	33001.55
519.79	33043.68
519.96	33476.68
520.14	33336.25
520.31	32650.47
520.48	33436.89
520.65	32919.63
520.83	33717.76
521.00	33654.56
521.17	33439.23
521.34	33598.39
521.52	33832.44
521.69	33464.98
521.86	34160.12
522.03	33600.73
522.20	33745.84
522.38	33905.00
522.55	34115.65
522.72	33752.87
522.89	34195.23
523.07	34309.91
523.24	33862.87
523.41	34595.46
523.58	34125.01
523.75	34766.32
523.92	34389.49
524.10	35005.05
524.27	34902.07
524.44	34998.03
524.61	35204.00
524.78	34941.86
524.96	34899.73
525.13	35168.89
525.30	35433.37
525.47	35601.89
525.64	35669.76
525.81	35344.43
525.98	35054.20
526.16	35166.55
526.33	35110.38
526.50	35395.92
526.67	35133.78
526.84	35089.31
527.01	35534.01
527.18	35985.74
527.36	35660.40
527.53	35599.55
527.70	36187.02
527.87	36151.91
528.04	35810.20
528.21	36421.08
528.38	35674.45
528.55	36161.28
528.72	35934.24
528.89	36486.61
529.07	36198.73
529.24	36282.98
529.41	36299.37
529.58	36072.34
529.75	36360.22
529.92	36591.94
530.09	36676.19
530.26	36252.56
530.43	36657.47
530.60	36388.31
530.77	36451.50
530.94	36868.12
531.11	36732.37
531.28	37074.09
531.46	37397.08
531.63	37172.39
531.80	37043.66
531.97	37425.17
532.14	36968.76
532.31	37036.64
532.48	37448.57
532.65	37694.33
532.82	37067.06
532.99	37493.04
533.16	37436.87
533.33	37546.87
533.50	37804.33
533.67	37390.06
533.84	37694.33
534.01	37610.07
534.18	37977.53
534.35	38417.55
534.52	37872.21
534.69	37759.86
534.86	38022.00
535.03	37661.56
535.20	38022.00
535.37	38298.19
535.54	38529.90
535.71	38391.81
535.88	38485.43
536.05	38447.98
536.22	38087.54
536.38	38272.44
536.55	38630.54
536.72	38359.04
536.89	38150.73
537.06	38078.18
537.23	38565.01
537.40	38361.38
537.57	38384.79
537.74	38822.47
537.91	38740.55
538.08	39009.71
538.25	38513.52
538.42	38845.87
538.59	39241.42
538.75	38579.05
538.92	38972.26
539.09	39023.75
539.26	39103.33
539.43	39065.88
539.60	39321.00
539.77	38880.98
539.94	39318.66
540.11	38965.24
540.28	39150.14
540.44	39405.26
540.61	39072.90
540.78	39227.38
540.95	39328.02
541.12	39161.84
541.29	39061.20
541.46	39594.84
541.62	39552.71
541.79	39835.92
541.96	39494.20
542.13	39395.90
542.30	40093.38
542.47	39920.18
542.63	39569.10
542.80	39950.60
542.97	40566.16
543.14	40573.19
543.31	40313.39
543.48	40297.00
543.64	40547.44
543.81	40479.57
543.98	40320.41
544.15	40458.50
544.32	40926.61
544.48	40774.47
544.65	40378.92
544.82	40041.88
544.99	40142.53
545.16	40781.49
545.32	40694.89
545.49	40596.59
545.66	40704.26
545.83	41134.92
546.00	40931.29
546.16	40737.02
546.33	41017.89
546.50	40573.19
546.67	40931.29
546.83	40673.83
547.00	41048.32
547.17	40779.15
547.34	40774.47
547.50	40706.60
547.67	41130.23
547.84	41038.95
548.00	41642.81
548.17	41682.60
548.34	41291.73
548.51	41687.28
548.67	41631.11
548.84	41481.31
549.01	41553.87
549.18	41188.75
549.34	41757.50
549.51	41750.48
549.68	42052.41
549.84	42059.43
550.01	42024.32
550.18	41514.08
550.34	41691.96
550.51	41493.02
550.68	41567.91
550.84	41558.55
551.01	42066.45
551.18	41453.23
551.34	41462.59
551.51	42422.21
551.68	42263.05
551.84	42110.92
552.01	41890.91
552.18	42101.56
552.34	41897.93
552.51	42497.11
552.68	41738.77
552.84	42321.57
553.01	42490.09
553.18	42134.32
553.34	42281.78
553.51	42066.45
553.67	42412.85
553.84	42880.95
554.01	42370.72
554.17	42590.73
554.34	43042.45
554.51	42426.89
554.67	42777.97
554.84	42838.83
555.00	42113.26
555.17	42838.83
555.33	42623.50
555.50	42567.32
555.67	42553.28
555.83	42639.88
556.00	42663.28
556.16	43540.99
556.33	43166.50
556.50	42962.87
556.66	42843.51
556.83	42799.04
556.99	43217.99
557.16	43330.34
557.32	42693.71
557.49	43384.17
557.65	43196.93
557.82	42923.08
557.98	42850.53
558.15	43189.91
558.32	42997.98
558.48	42960.53
558.65	42946.49
558.81	43126.71
558.98	42937.13
559.14	43428.64
559.31	43040.11
559.47	43318.64
559.64	43650.99
559.80	43365.45
559.97	43449.70
560.13	43501.20
560.30	43526.94
560.46	43323.32
560.63	43269.48
560.79	43199.27
560.96	43859.30
561.12	43746.95
561.29	43688.44
561.45	43442.68
561.61	43522.26
561.78	43386.51
561.94	43798.44
562.11	43571.41
562.27	43580.78
562.44	43119.69
562.60	43878.02
562.77	43978.67
562.93	43625.25
563.10	43861.64
563.26	43646.31
563.42	44044.20
563.59	43931.86
563.75	43475.45
563.92	43945.90
564.08	43363.11
564.24	44100.37
564.41	43585.46
564.57	44046.54
564.74	44058.24
564.90	43878.02
565.07	43945.90
565.23	43999.73
565.39	43531.62
565.56	44044.20
565.72	44046.54
565.88	44175.27
566.05	43372.47
566.21	43618.22
566.38	44002.07
566.54	43753.97
566.70	43962.28
566.87	44252.51
567.03	43866.32
567.19	44673.81
567.36	43999.73
567.52	43856.96
567.68	44381.24
567.85	44044.20
568.01	44369.54
568.17	44229.10
568.34	44053.56
568.50	44102.71
568.66	43688.44
568.83	44081.65
568.99	44002.07
569.15	44062.93
569.32	43763.34
569.48	44528.69
569.64	44144.84
569.81	44348.47
569.97	44135.48
570.13	44039.52
570.30	43660.35
570.46	43800.79
570.62	43800.79
570.78	43868.66
570.95	44191.65
571.11	44135.48
571.27	44182.29
571.43	44137.82
571.60	44474.86
571.76	44088.67
571.92	44009.09
572.09	44175.27
572.25	44112.08
572.41	43990.37
572.57	44280.60
572.74	44509.97
572.90	44259.53
573.06	44355.49
573.22	44425.71
573.38	44556.78
573.55	44065.27
573.71	44458.48
573.87	44037.18
574.03	44325.07
574.20	44252.51
574.36	44273.57
574.52	44638.70
574.68	44072.29
574.84	44657.42
575.01	44158.89
575.17	44095.69
575.33	44306.34
575.49	44378.90
575.65	44275.91
575.82	44694.87
575.98	44577.84
576.14	44676.15
576.30	44495.92
576.46	44531.03
576.62	44191.65
576.79	44201.02
576.95	44240.81
577.11	44203.36
577.27	44437.41
577.43	44360.17
577.59	44163.57
577.75	44437.41
577.92	44210.38
578.08	44163.57
578.24	44186.97
578.40	44168.25
578.56	44516.99
578.72	44280.60
578.88	44776.79
579.04	44605.93
579.21	44201.02
579.37	44076.97
579.53	44442.09
579.69	44217.40
579.85	44652.74
580.01	44521.67
580.17	44025.48
580.33	44755.72
580.49	44758.06
580.65	44406.98
580.82	44657.42
580.98	44561.46
581.14	44215.06
581.30	44921.90
581.46	44657.42
581.62	44460.82
581.78	44201.02
581.94	44371.88
582.10	44357.83
582.26	44882.11
582.42	44486.56
582.58	44694.87
582.74	44477.20
582.90	44751.04
583.06	44634.02
583.22	44612.95
583.38	44816.58
583.54	44638.70
583.70	44210.38
583.86	44603.59
584.02	44296.98
584.18	44467.84
584.34	44479.54
584.50	44514.65
584.66	44285.28
584.82	44467.84
584.98	44863.39
585.14	44931.26
585.30	44406.98
585.46	44488.90
585.62	44318.04
585.78	44549.76
585.94	44336.77
586.10	44893.82
586.26	43899.09
586.42	44634.02
586.58	45069.36
586.74	44584.86
586.90	44266.55
587.06	44287.62
587.22	44634.02
587.38	44477.20
587.54	45221.49
587.70	44809.56
587.86	45003.82
588.02	44598.91
588.18	44797.85
588.34	45001.48
588.49	44233.78
588.65	44231.44
588.81	44397.62
588.97	44432.73
589.13	44666.78
589.29	44421.03
589.45	44692.53
589.61	44367.20
589.77	44790.83
589.93	44676.15
590.08	44924.24
590.24	44720.62
