SpectraSuite Data File
++++++++++++++++++++++++++++++++++++
Date: Fri Oct 25 11:23:20 EDT 2013
User: price-jones
Dark Spectrum Present: No
Reference Spectrum Present: No
Number of Sampled Component Spectra: 1
Spectrometers: USB2+H05261
Integration Time (usec): 100000 (USB2+H05261)
Spectra Averaged: 1 (USB2+H05261)
Boxcar Smoothing: 0 (USB2+H05261)
Correct for Electrical Dark: No (USB2+H05261)
Strobe/Lamp Enabled: No (USB2+H05261)
Correct for Detector Non-linearity: No (USB2+H05261)
Correct for Stray Light: No (USB2+H05261)
Number of Pixels in Processed Spectrum: 2048
>>>>>Begin Processed Spectral Data<<<<<
365.73	269.16
365.92	269.16
366.12	269.16
366.32	138.09
366.52	133.41
366.72	163.84
366.91	131.07
367.11	159.16
367.31	93.62
367.51	100.64
367.70	121.71
367.90	128.73
368.10	112.35
368.30	112.35
368.49	121.71
368.69	135.75
368.89	170.86
369.09	140.43
369.28	114.69
369.48	205.97
369.68	133.41
369.87	166.18
370.07	208.31
370.27	231.71
370.47	325.33
370.66	573.43
370.86	573.43
371.06	713.86
371.25	709.18
371.45	671.73
371.65	688.12
371.84	692.80
372.04	737.27
372.24	716.20
372.44	657.69
372.63	746.63
372.83	702.16
373.03	730.25
373.22	798.12
373.42	748.97
373.62	798.12
373.81	816.85
374.01	739.61
374.21	837.91
374.40	781.74
374.60	791.10
374.79	814.51
374.99	896.43
375.19	891.74
375.38	767.70
375.58	861.32
375.78	791.10
375.97	880.04
376.17	940.90
376.37	922.17
376.56	868.34
376.76	877.70
376.95	858.98
377.15	894.08
377.35	952.60
377.54	943.24
377.74	896.43
377.93	931.53
378.13	940.90
378.33	882.38
378.52	940.90
378.72	952.60
378.91	964.30
379.11	901.11
379.31	950.26
379.50	915.15
379.70	987.71
379.89	985.37
380.09	950.26
380.28	957.28
380.48	1064.94
380.68	992.39
380.87	1071.97
381.07	973.66
381.26	1057.92
381.46	1001.75
381.65	1071.97
381.85	1022.81
382.04	1020.47
382.24	1022.81
382.43	1071.97
382.63	1036.86
382.83	1043.88
383.02	1125.80
383.22	1097.71
383.41	1093.03
383.61	1078.99
383.80	1177.29
384.00	1125.80
384.19	1142.18
384.39	1067.28
384.58	1053.24
384.78	1167.93
384.97	1210.06
385.17	1177.29
385.36	1181.97
385.56	1086.01
385.75	1181.97
385.95	1235.80
386.14	1245.16
386.34	1151.54
386.53	1181.97
386.72	1266.23
386.92	1268.57
387.11	1172.61
387.31	1219.42
387.50	1270.91
387.70	1263.89
387.89	1310.70
388.09	1259.21
388.28	1217.08
388.48	1219.42
388.67	1324.74
388.86	1369.21
389.06	1219.42
389.25	1369.21
389.45	1359.85
389.64	1245.16
389.84	1345.81
390.03	1516.67
390.22	1357.51
390.42	1441.77
390.61	1348.15
390.81	1453.47
391.00	1434.75
391.19	1455.81
391.39	1390.28
391.58	1472.20
391.78	1416.02
391.97	1542.41
392.16	1514.33
392.36	1519.01
392.55	1547.09
392.75	1542.41
392.94	1483.90
393.13	1479.22
393.33	1549.43
393.52	1535.39
393.71	1584.54
393.91	1666.46
394.10	1551.78
394.29	1603.27
394.49	1666.46
394.68	1636.03
394.88	1652.42
395.07	1659.44
395.26	1638.38
395.46	1621.99
395.65	1708.59
395.84	1708.59
396.04	1877.11
396.23	1694.55
396.42	1755.40
396.62	1685.19
396.81	1844.34
397.00	1797.53
397.19	1870.09
397.39	1830.30
397.58	1802.21
397.77	1849.02
397.97	1842.00
398.16	1785.83
398.35	1977.75
398.55	1895.83
398.74	1834.98
398.93	1881.79
399.12	1977.75
399.32	1977.75
399.51	1994.14
399.70	2078.40
399.90	1984.77
400.09	2073.71
400.28	2087.76
400.47	2169.68
400.67	2080.74
400.86	2047.97
401.05	2115.84
401.24	2174.36
401.44	2157.97
401.63	2108.82
401.82	2214.15
402.01	2143.93
402.21	2204.78
402.40	2174.36
402.59	2202.44
402.78	2169.68
402.97	2232.87
403.17	2307.77
403.36	2340.54
403.55	2317.13
403.74	2303.09
403.93	2263.30
404.13	2436.50
404.32	2363.94
404.51	2380.32
404.70	2427.14
404.89	2413.09
405.09	2523.10
405.28	2614.38
405.47	2443.52
405.66	2504.37
405.85	2518.42
406.05	2626.08
406.24	2469.27
406.43	2532.46
406.62	2689.28
406.81	2626.08
407.00	2558.21
407.20	2572.25
407.39	2675.23
407.58	2768.85
407.77	2750.13
407.96	2733.75
408.15	2832.05
408.34	2729.06
408.54	2764.17
408.73	2906.95
408.92	2731.41
409.11	2890.56
409.30	2881.20
409.49	2918.65
409.68	2906.95
409.87	2944.39
410.07	2960.78
410.26	3026.31
410.45	3073.12
410.64	3000.57
410.83	3145.68
411.02	3129.30
411.21	3136.32
411.40	3183.13
411.59	3349.31
411.78	3222.92
411.98	3255.69
412.17	3262.71
412.36	3368.03
412.55	3344.63
412.74	3445.27
412.93	3438.25
413.12	3426.54
413.31	3517.83
413.50	3407.82
413.69	3557.61
413.88	3618.47
414.07	3681.66
414.26	3702.73
414.45	3662.94
414.64	3623.15
414.83	3822.09
415.02	3709.75
415.22	3782.31
415.41	3812.73
415.60	3892.31
415.79	3957.85
415.98	3889.97
416.17	4086.58
416.36	4056.15
416.55	3911.04
416.74	4063.17
416.93	4112.32
417.12	4070.19
417.31	4334.67
417.50	4250.41
417.69	4248.07
417.88	4227.01
418.07	4334.67
418.26	4442.34
418.45	4388.50
418.64	4458.72
418.83	4425.95
419.02	4400.21
419.21	4475.10
419.39	4578.09
419.58	4545.32
419.77	4475.10
419.96	4702.14
420.15	4603.83
420.34	4538.30
420.53	4678.73
420.72	4910.44
420.91	4716.18
421.10	4847.25
421.29	4774.69
421.48	4704.48
421.67	4727.88
421.86	4772.35
422.05	4966.62
422.24	4898.74
422.43	4844.91
422.61	4926.83
422.80	4905.76
422.99	5020.45
423.18	4936.19
423.37	4908.10
423.56	4971.30
423.75	5025.13
423.94	4875.34
424.13	4755.97
424.32	4767.67
424.50	5069.60
424.69	5214.71
424.88	5167.90
425.07	5081.30
425.26	5004.07
425.45	5006.41
425.64	5015.77
425.83	5018.11
426.01	5109.39
426.20	5107.05
426.39	5135.14
426.58	5100.03
426.77	5181.95
426.96	5273.23
427.15	5116.41
427.33	5266.21
427.52	5238.12
427.71	5364.51
427.90	5280.25
428.09	5385.57
428.28	5385.57
428.46	5387.91
428.65	5352.81
428.84	5584.52
429.03	5633.67
429.22	5369.19
429.40	5481.53
429.59	5570.48
429.78	5451.11
429.97	5296.63
430.16	5598.56
430.34	5673.46
430.53	5731.97
430.72	5905.17
430.91	5558.77
431.10	5802.19
431.28	5888.79
431.47	6085.39
431.66	5870.06
431.85	5643.03
432.03	5926.24
432.22	6050.28
432.41	5874.74
432.60	6029.22
432.79	6040.92
432.97	6186.04
433.16	5996.45
433.35	6099.44
433.54	6232.85
433.72	6164.97
433.91	6090.07
434.10	6043.26
434.28	6162.63
434.47	6242.21
434.66	6389.66
434.85	6417.75
435.03	6333.49
435.22	6445.84
435.41	6590.95
435.59	6471.58
435.78	6363.92
435.97	6511.37
436.16	6354.55
436.34	6623.72
436.53	6408.39
436.72	6717.34
436.90	6588.61
437.09	6619.04
437.28	6600.31
437.46	6569.88
437.65	6677.55
437.84	6867.13
438.02	6909.26
438.21	6829.68
438.40	6839.05
438.58	6897.56
438.77	6998.20
438.96	7028.63
439.14	7279.07
439.33	7358.64
439.52	7286.09
439.70	7375.03
439.89	7463.97
440.08	7536.52
440.26	7566.95
440.45	7581.00
440.63	7499.08
440.82	7698.02
441.01	7702.70
441.19	7625.47
441.38	7805.69
441.57	7583.34
441.75	7796.32
441.94	8093.57
442.12	8095.91
442.31	8074.85
442.50	8191.88
442.68	8070.17
442.87	8231.66
443.05	8238.69
443.24	8346.35
443.43	8285.50
443.61	8308.90
443.80	8788.71
443.98	8196.56
444.17	7829.09
444.35	8283.16
444.54	8257.41
444.73	8346.35
444.91	8341.67
445.10	8353.37
445.28	8329.97
445.47	8381.46
445.65	8432.95
445.84	8636.58
446.02	8484.44
446.21	8423.59
446.39	8596.79
446.58	8617.85
446.77	8564.02
446.95	8376.78
447.14	8510.19
447.32	8751.26
447.51	8505.51
447.69	8685.73
447.88	8358.05
448.06	8669.34
448.25	8681.05
448.43	8706.79
448.62	8667.00
448.80	8655.30
448.99	8901.06
449.17	8727.86
449.36	8812.12
449.54	9006.38
449.73	9181.92
449.91	9137.45
450.10	9170.22
450.28	9104.68
450.46	9233.41
450.65	9163.20
450.83	9198.31
451.02	9111.71
451.20	9261.50
451.39	9165.54
451.57	9259.16
451.76	9298.95
451.94	9160.86
452.13	9476.83
452.31	9343.42
452.49	9266.18
452.68	9430.02
452.86	9303.63
453.05	9584.49
453.23	9565.77
453.42	9605.56
453.60	9376.19
453.78	9689.82
453.97	9687.48
454.15	9678.12
454.34	9722.59
454.52	9731.95
454.70	9696.84
454.89	9837.27
455.07	9767.06
455.26	9757.69
455.44	10071.33
455.62	9879.40
455.81	10064.30
455.99	10097.07
456.17	10167.29
456.36	10307.72
456.54	10235.16
456.73	10176.65
456.91	10729.02
457.09	10396.66
457.28	10487.94
457.46	10436.45
457.64	10534.75
457.83	10768.80
458.01	10640.08
458.19	10939.66
458.38	10476.24
458.56	10876.47
458.74	10815.62
458.93	10757.10
459.11	10815.62
459.29	11002.86
459.48	11028.60
459.66	10895.19
459.84	11119.89
460.03	10993.50
460.21	11206.48
460.39	11105.84
460.57	11143.29
460.76	11307.13
460.94	11351.60
461.12	11311.81
461.31	11316.49
461.49	11494.37
461.67	11274.36
461.85	11749.49
462.04	11346.92
462.22	11758.85
462.40	11698.00
462.59	11637.14
462.77	11583.31
462.95	11578.63
463.13	11665.23
463.32	11669.91
463.50	11733.11
463.68	11915.67
463.86	12030.35
464.05	11974.18
464.23	11819.71
464.41	11819.71
464.59	11583.31
464.78	12004.61
464.96	12255.04
465.14	12152.06
465.32	11971.84
465.50	12411.86
465.69	12339.30
465.87	12285.47
466.05	12226.96
466.23	12592.08
466.41	12435.27
466.60	12681.02
466.78	12458.67
466.96	12461.01
467.14	12695.07
467.32	12549.95
467.51	12498.46
467.69	12517.18
467.87	12421.22
468.05	12828.48
468.23	12500.80
468.41	12383.77
468.60	12910.40
468.78	12903.37
468.96	12769.96
469.14	13081.25
469.32	13055.51
469.50	12795.71
469.69	13097.64
469.87	13046.15
470.05	13406.59
470.23	13139.77
470.41	13048.49
470.59	13479.15
470.77	13242.75
470.95	13188.92
471.14	13682.77
471.32	13130.41
471.50	13598.51
471.68	13792.78
471.86	13556.38
472.04	13816.18
472.22	14300.67
472.40	13809.16
472.58	14024.49
472.77	13973.00
472.95	14422.38
473.13	14527.71
473.31	14279.61
473.49	14246.84
473.67	14345.14
473.85	14216.41
474.03	14890.49
474.21	14864.74
474.39	15000.49
474.57	14733.67
474.75	15002.83
474.93	14991.13
475.12	15098.80
475.30	15365.62
475.48	15346.89
475.66	15307.10
475.84	15279.02
476.02	15646.48
476.20	15761.17
476.38	15850.11
476.56	16203.53
476.74	16161.40
476.92	16280.77
477.10	15985.86
477.28	16229.27
477.46	16386.09
477.64	16683.34
477.82	16788.66
478.00	17099.95
478.18	16922.07
478.36	17057.82
478.54	17334.01
478.72	17479.12
478.90	17652.32
479.08	17797.43
479.26	17776.37
479.44	17839.56
479.62	18118.09
479.80	18228.09
479.98	18394.27
480.16	18717.26
480.34	18347.46
480.52	18869.40
480.70	18714.92
480.88	18984.09
481.06	19110.47
481.24	18897.49
481.41	19367.93
481.59	19667.52
481.77	19852.42
481.95	20067.75
482.13	20107.54
482.31	20130.95
482.49	20390.75
482.67	20503.09
482.85	20786.30
483.03	20821.41
483.21	21109.29
483.39	21249.72
483.57	20917.37
483.74	21584.42
483.92	21734.21
484.10	21486.12
484.28	21764.64
484.46	22267.86
484.64	22852.99
484.82	22288.92
485.00	22824.90
485.18	23005.13
485.35	23115.13
485.53	23218.11
485.71	23295.35
485.89	23555.15
486.07	23690.90
486.25	23953.04
486.43	23889.85
486.61	24407.11
486.78	24397.74
486.96	24538.18
487.14	24893.94
487.32	25340.98
487.50	24957.13
487.68	25329.28
487.85	25614.82
488.03	25963.56
488.21	26363.79
488.39	26176.55
488.57	26293.58
488.75	26630.62
488.92	26724.24
489.10	27140.85
489.28	26991.06
489.46	27433.42
489.64	27309.37
489.81	28119.20
489.99	28170.69
490.17	28034.94
490.35	28460.91
490.53	28505.38
490.70	28678.58
490.88	28416.44
491.06	29017.96
491.24	29446.28
491.41	29518.84
491.59	29888.64
491.77	29937.79
491.95	29706.08
492.13	30134.40
492.30	30031.41
492.48	30529.95
492.66	30403.56
492.84	30700.81
493.01	31409.99
493.19	31243.81
493.37	31372.54
493.54	31894.48
493.72	31983.42
493.90	31952.99
494.08	31981.08
494.25	32357.91
494.43	32254.92
494.61	32938.36
494.79	32655.15
494.96	32779.20
495.14	33029.64
495.32	33420.51
495.49	33745.84
495.67	33596.05
495.85	33825.42
496.02	34026.71
496.20	34050.11
496.38	34443.32
496.55	34504.18
496.73	35363.15
496.91	34895.05
497.09	35206.34
497.26	35435.71
497.44	35119.74
497.62	35763.39
497.79	35988.08
497.97	35864.03
498.14	36259.58
498.32	36552.15
498.50	36439.80
498.67	37156.00
498.85	36718.32
499.03	37022.59
499.20	37233.24
499.38	37479.00
499.56	37490.70
499.73	37794.97
499.91	37738.80
500.08	37785.61
500.26	38003.28
500.44	38150.73
500.61	38113.28
500.79	38099.24
500.97	38604.80
501.14	38787.36
501.32	39278.87
501.49	38700.76
501.67	39033.11
501.84	39363.13
502.02	39337.38
502.20	39557.39
502.37	39796.13
502.55	39864.00
502.72	40114.44
502.90	40208.06
503.07	40126.14
503.25	40362.54
503.43	39941.24
503.60	40662.13
503.78	40416.37
503.95	40725.32
504.13	40882.14
504.30	40947.67
504.48	41146.62
504.65	41226.20
504.83	41043.63
505.01	41902.61
505.18	41680.26
505.36	41989.21
505.53	42003.25
505.71	42054.75
505.88	42347.31
506.06	41888.57
506.23	42424.55
506.41	42508.81
506.58	42920.74
506.76	42520.51
506.93	42927.77
507.11	43056.50
507.28	43140.75
507.46	43243.74
507.63	43442.68
507.81	43365.45
507.98	43014.37
508.16	43454.39
508.33	43299.91
508.50	43985.69
508.68	43852.28
508.85	44184.63
509.03	44226.76
509.20	44854.03
509.38	44889.13
509.55	44619.97
509.73	45045.95
509.90	45429.80
510.08	44952.33
510.25	45244.90
510.42	45326.81
510.60	45872.16
510.77	45588.95
510.95	45422.78
511.12	45635.77
511.30	45675.55
511.47	45645.13
511.64	46003.23
511.82	46651.56
511.99	46330.90
512.17	46419.84
512.34	46536.87
512.51	47002.64
512.69	47082.22
512.86	46506.44
513.04	47339.68
513.21	47040.09
513.38	47185.20
513.56	47388.83
513.73	47091.58
513.90	47260.10
514.08	47196.90
514.25	47571.39
514.43	47859.27
514.60	47700.12
514.77	47531.60
514.95	47903.74
515.12	47723.52
515.29	48032.47
515.47	48481.86
515.64	48713.57
515.81	48044.18
515.99	48744.00
516.16	49041.24
516.33	49045.93
516.51	48769.74
516.68	48619.95
516.85	49209.76
517.03	49160.61
517.20	49401.69
517.37	49249.55
517.54	49235.51
517.72	49319.77
517.89	49626.38
518.06	49462.54
518.24	49528.08
518.41	49460.20
518.58	49631.06
518.75	49563.18
518.93	50230.24
519.10	49865.11
519.27	50167.04
519.45	49968.10
519.62	49993.84
519.79	50024.27
519.96	50581.32
520.14	50593.02
520.31	50604.72
520.48	50314.50
520.65	50518.12
520.83	51145.39
521.00	51306.88
521.17	50845.80
521.34	50815.37
521.52	51164.11
521.69	51168.79
521.86	51487.10
522.03	51554.98
522.20	51810.10
522.38	51908.40
522.55	51796.06
522.72	51737.54
522.89	51798.40
523.07	51945.85
523.24	52053.51
523.41	51995.00
523.58	51950.53
523.75	52463.11
523.92	52018.41
524.10	52360.12
524.27	52678.44
524.44	52383.53
524.61	52399.91
524.78	52715.89
524.96	52584.82
525.13	52790.78
525.30	52989.73
525.47	52795.46
525.64	52844.62
525.81	53059.94
525.98	53298.68
526.16	53057.60
526.33	53022.50
526.50	53560.82
526.67	53195.70
526.84	53411.02
527.01	53195.70
527.18	53057.60
527.36	53324.43
527.53	53244.85
527.70	53748.06
527.87	53752.74
528.04	53408.68
528.21	53827.64
528.38	53537.41
528.55	54031.27
528.72	53895.52
528.89	53951.69
529.07	54120.21
529.24	53731.68
529.41	53832.32
529.58	54019.56
529.75	54211.49
529.92	54213.83
530.09	54122.55
530.26	54326.17
530.43	54312.13
530.60	54181.06
530.77	54309.79
530.94	54550.87
531.11	54262.98
531.28	54593.00
531.46	54377.67
531.63	54337.88
531.80	54672.57
531.97	54639.81
532.14	54894.92
532.31	54766.20
532.48	55033.02
532.65	54958.12
532.82	54855.14
532.99	55051.74
533.16	55063.44
533.33	54981.52
533.50	55220.26
533.67	55028.34
533.84	55145.36
534.01	55077.49
534.18	55288.13
534.35	55662.62
534.52	55405.16
534.69	55636.87
534.86	55611.13
535.03	55477.72
535.20	55374.73
535.37	55461.33
535.54	55704.75
535.71	55611.13
535.88	55693.05
536.05	55756.24
536.22	55800.71
536.38	55704.75
536.55	55742.20
536.72	55819.44
536.89	55543.25
537.06	55861.57
537.23	56339.04
537.40	56271.16
537.57	55948.17
537.74	56339.04
537.91	56179.88
538.08	56107.32
538.25	55952.85
538.42	56266.48
538.59	56718.20
538.75	56329.67
538.92	56519.26
539.09	56584.79
539.26	56477.13
539.43	56399.89
539.60	56463.08
539.77	56502.87
539.94	57088.01
540.11	56720.54
540.28	56690.12
540.44	56774.37
540.61	56914.81
540.78	56811.82
540.95	56711.18
541.12	56664.37
541.29	56692.46
541.46	56753.31
541.62	56697.14
541.79	56905.44
541.96	56650.33
542.13	56844.59
542.30	57165.24
542.47	57258.87
542.63	57104.39
542.80	57015.45
542.97	57345.47
543.14	57504.62
543.31	57373.55
543.48	57270.57
543.64	57911.88
543.81	57605.26
543.98	57659.10
544.15	57858.04
544.32	57925.92
544.48	57886.13
544.65	57846.34
544.82	57719.95
544.99	57656.76
545.16	58010.18
545.32	57694.21
545.49	58026.56
545.66	58143.59
545.83	57895.49
546.00	57956.35
546.16	57813.57
546.33	57881.45
546.50	57710.59
546.67	57886.13
546.83	57764.42
547.00	58216.14
547.17	58106.14
547.34	57848.68
547.50	58305.09
547.67	58387.00
547.84	58213.80
548.00	58110.82
548.17	58628.08
548.34	58473.60
548.51	58735.74
548.67	58501.69
548.84	58607.01
549.01	58272.32
549.18	58555.52
549.34	58513.39
549.51	58543.82
549.68	58485.31
549.84	58614.04
550.01	58747.45
550.18	58562.54
550.34	58550.84
550.51	58908.94
550.68	58660.85
550.84	58412.75
551.01	58899.58
551.18	58969.80
551.34	58946.39
551.51	58796.60
551.68	58829.37
551.84	58798.94
552.01	58590.63
552.18	58747.45
552.34	58789.58
552.51	59103.21
552.68	58918.31
552.84	58913.62
553.01	59180.45
553.18	59194.49
553.34	59091.51
553.51	59068.10
553.67	59119.59
553.84	59313.86
554.01	59114.91
554.17	59154.70
554.34	59292.79
554.51	59100.87
554.67	59355.99
554.84	59370.03
555.00	59159.38
555.17	59145.34
555.33	59440.24
555.50	59189.81
555.67	59400.46
555.83	59353.65
556.00	59515.14
556.16	59639.19
556.33	59519.82
556.50	59660.26
556.66	59568.97
556.83	59416.84
556.99	59803.03
557.16	59641.53
557.32	59725.79
557.49	59877.93
557.65	59629.83
557.82	59601.74
557.98	59625.15
558.15	59756.22
558.32	59711.75
558.48	59615.79
558.65	59756.22
558.81	59643.87
558.98	59847.50
559.14	59887.29
559.31	59934.10
559.47	59955.16
559.64	60210.28
559.80	59948.14
559.97	60140.07
560.13	59990.27
560.30	60102.62
560.46	60156.45
560.63	59913.03
560.79	60053.47
560.96	60109.64
561.12	60346.03
561.29	60126.02
561.45	60074.53
561.61	60083.89
561.78	59994.95
561.94	60074.53
562.11	60196.24
562.27	59969.21
562.44	60095.60
562.60	60343.69
562.77	60266.45
562.93	60144.75
563.10	60250.07
563.26	60111.98
563.42	60486.46
563.59	60233.69
563.75	60170.49
563.92	60374.12
564.08	60282.84
564.24	60411.57
564.41	60474.76
564.57	60437.31
564.74	60369.44
564.90	60509.87
565.07	60123.68
565.23	60308.58
565.39	60313.26
565.56	60381.14
565.72	60341.35
565.88	60418.59
566.05	60472.42
566.21	60467.74
566.38	60500.51
566.54	60640.94
566.70	60631.58
566.87	60832.86
567.03	60479.44
567.19	60605.83
567.36	60591.79
567.52	60441.99
567.68	60732.22
567.85	60587.11
568.01	60732.22
568.17	60678.39
568.34	60776.69
568.50	60523.91
568.66	60790.73
568.83	60474.76
568.99	60556.68
569.15	60591.79
569.32	60736.90
569.48	60685.41
569.64	60926.49
569.81	60650.30
569.97	60587.11
570.13	60678.39
570.30	60544.98
570.46	60835.20
570.62	60776.69
570.78	60669.03
570.95	60743.92
571.11	61041.17
571.27	60774.35
571.43	60865.63
571.60	60982.66
571.76	60772.01
571.92	60903.08
572.09	60956.91
572.25	60795.42
572.41	60825.84
572.57	60750.94
572.74	60853.93
572.90	60931.17
573.06	60931.17
573.22	60830.52
573.38	60926.49
573.55	60807.12
573.71	61041.17
573.87	60659.66
574.03	60844.57
574.20	60973.30
574.36	60889.04
574.52	61017.77
574.68	61057.56
574.84	61034.15
575.01	61001.38
575.17	60975.64
575.33	60874.99
575.49	61092.66
575.65	61167.56
575.82	60933.51
575.98	60860.95
576.14	61261.18
576.30	61258.84
576.46	60975.64
576.62	60907.76
576.79	60882.02
576.95	60877.33
577.11	61069.26
577.27	61324.38
577.43	61078.62
577.59	61003.72
577.75	60823.50
577.92	60945.21
578.08	61052.87
578.24	61223.73
578.40	61244.80
578.56	61282.25
578.72	61144.16
578.88	61137.13
579.04	61326.72
579.21	61212.03
579.37	61200.33
579.53	61235.44
579.69	60921.80
579.85	61031.81
580.01	61050.53
580.17	61055.21
580.33	61165.22
580.49	61237.78
580.65	61085.64
580.82	61095.00
580.98	61146.50
581.14	61043.51
581.30	61303.31
581.46	61057.56
581.62	61240.12
581.78	61139.47
581.94	61179.26
582.10	61247.14
582.26	61111.39
582.42	61378.21
582.58	61399.27
582.74	61092.66
582.90	61120.75
583.06	61233.10
583.22	61212.03
583.38	61338.42
583.54	61214.37
583.70	61366.51
583.86	61366.51
584.02	61151.18
584.18	61389.91
584.34	61214.37
584.50	61415.66
584.66	60959.25
584.82	60893.72
584.98	61265.86
585.14	61322.04
585.30	61059.90
585.46	61160.54
585.62	61214.37
585.78	61394.59
585.94	61106.71
586.10	61293.95
586.26	61247.14
586.42	61373.53
586.58	61549.07
586.74	61350.12
586.90	61174.58
587.06	61181.60
587.22	61427.36
587.38	61165.22
587.54	61427.36
587.70	61462.47
587.86	61450.77
588.02	61413.32
588.18	61504.60
588.34	61041.17
