SpectraSuite Data File
++++++++++++++++++++++++++++++++++++
Date: Fri Oct 25 11:25:43 EDT 2013
User: price-jones
Dark Spectrum Present: No
Reference Spectrum Present: No
Number of Sampled Component Spectra: 1
Spectrometers: USB2+H05261
Integration Time (usec): 100000 (USB2+H05261)
Spectra Averaged: 1 (USB2+H05261)
Boxcar Smoothing: 0 (USB2+H05261)
Correct for Electrical Dark: No (USB2+H05261)
Strobe/Lamp Enabled: No (USB2+H05261)
Correct for Detector Non-linearity: No (USB2+H05261)
Correct for Stray Light: No (USB2+H05261)
Number of Pixels in Processed Spectrum: 2048
>>>>>Begin Processed Spectral Data<<<<<
365.73	264.48
365.92	264.48
366.12	264.48
366.32	152.13
366.52	175.54
366.72	194.26
366.91	135.75
367.11	74.90
367.31	142.77
367.51	205.97
367.70	138.09
367.90	152.13
368.10	152.13
368.30	175.54
368.49	128.73
368.69	124.05
368.89	149.79
369.09	135.75
369.28	184.90
369.48	166.18
369.68	238.73
369.87	212.99
370.07	234.05
370.27	234.05
370.47	360.44
370.66	477.47
370.86	636.63
371.06	667.05
371.25	727.91
371.45	638.97
371.65	720.88
371.84	746.63
372.04	660.03
372.24	678.76
372.44	763.01
372.63	727.91
372.83	753.65
373.03	758.33
373.22	809.83
373.42	861.32
373.62	772.38
373.81	767.70
374.01	770.04
374.21	765.36
374.40	795.78
374.60	833.23
374.79	744.29
374.99	781.74
375.19	833.23
375.38	866.00
375.58	835.57
375.78	842.59
375.97	835.57
376.17	947.92
376.37	891.74
376.56	875.36
376.76	880.04
376.95	889.40
377.15	976.00
377.35	863.66
377.54	889.40
377.74	917.49
377.93	856.64
378.13	891.74
378.33	905.79
378.52	947.92
378.72	884.72
378.91	1008.77
379.11	922.17
379.31	917.49
379.50	961.96
379.70	1020.47
379.89	1029.84
380.09	997.07
380.28	938.55
380.48	959.62
380.68	957.28
380.87	938.55
381.07	1018.13
381.26	950.26
381.46	912.81
381.65	1041.54
381.85	987.71
382.04	1041.54
382.24	1111.75
382.43	983.02
382.63	1036.86
382.83	1067.28
383.02	1137.50
383.22	1174.95
383.41	1137.50
383.61	1224.10
383.80	1210.06
384.00	1100.05
384.19	1100.05
384.39	1217.08
384.58	1207.72
384.78	1165.59
384.97	1034.52
385.17	1170.27
385.36	1184.31
385.56	1184.31
385.75	1212.40
385.95	1203.04
386.14	1242.82
386.34	1235.80
386.53	1203.04
386.72	1226.44
386.92	1294.32
387.11	1235.80
387.31	1177.29
387.50	1207.72
387.70	1373.89
387.89	1310.70
388.09	1308.36
388.28	1193.67
388.48	1331.76
388.67	1233.46
388.86	1284.95
389.06	1322.40
389.25	1343.47
389.45	1259.21
389.64	1409.00
389.84	1392.62
390.03	1425.39
390.22	1448.79
390.42	1341.13
390.61	1420.71
390.81	1406.66
391.00	1441.77
391.19	1453.47
391.39	1446.45
391.58	1474.54
391.78	1504.96
391.97	1535.39
392.16	1409.00
392.36	1507.30
392.55	1479.22
392.75	1472.20
392.94	1495.60
393.13	1526.03
393.33	1488.58
393.52	1537.73
393.71	1619.65
393.91	1556.46
394.10	1582.20
394.29	1572.84
394.49	1561.14
394.68	1584.54
394.88	1666.46
395.07	1600.93
395.26	1645.40
395.46	1694.55
395.65	1629.01
395.84	1699.23
396.04	1778.81
396.23	1673.48
396.42	1703.91
396.62	1764.76
396.81	1790.51
397.00	1699.23
397.19	1762.42
397.39	1811.57
397.58	1734.34
397.77	1778.81
397.97	1816.26
398.16	1863.07
398.35	1830.30
398.55	1928.60
398.74	1940.30
398.93	1952.01
399.12	1940.30
399.32	1813.92
399.51	1881.79
399.70	2078.40
399.90	1963.71
400.09	1944.99
400.28	2001.16
400.47	1949.67
400.67	1970.73
400.86	2031.58
401.05	2029.24
401.24	2054.99
401.44	2050.31
401.63	2047.97
401.82	2085.42
402.01	2157.97
402.21	2136.91
402.40	2167.34
402.59	2202.44
402.78	2216.49
402.97	2296.07
403.17	2235.21
403.36	2303.09
403.55	2265.64
403.74	2211.81
403.93	2239.89
404.13	2349.90
404.32	2352.24
404.51	2366.28
404.70	2385.01
404.89	2483.31
405.09	2403.73
405.28	2441.18
405.47	2452.88
405.66	2466.92
405.85	2473.95
406.05	2457.56
406.24	2546.50
406.43	2518.42
406.62	2612.04
406.81	2677.57
407.00	2576.93
407.20	2583.95
407.39	2523.10
407.58	2752.47
407.77	2705.66
407.96	2693.96
408.15	2719.70
408.34	2693.96
408.54	2785.24
408.73	2761.83
408.92	2906.95
409.11	2932.69
409.30	2946.73
409.49	2850.77
409.68	2993.55
409.87	2888.22
410.07	2869.50
410.26	3038.02
410.45	2953.76
410.64	2986.52
410.83	2918.65
411.02	3002.91
411.21	3171.43
411.40	3061.42
411.59	3239.30
411.78	3227.60
411.98	3199.51
412.17	3112.91
412.36	3229.94
412.55	3344.63
412.74	3375.05
412.93	3274.41
413.12	3330.58
413.31	3531.87
413.50	3412.50
413.69	3379.73
413.88	3667.62
414.07	3557.61
414.26	3709.75
414.45	3648.90
414.64	3758.90
414.83	3716.77
415.02	3695.71
415.22	3786.99
415.41	3782.31
415.60	3943.80
415.79	3920.40
415.98	4009.34
416.17	3861.88
416.36	3896.99
416.55	3995.29
416.74	4032.74
416.93	4044.45
417.12	4058.49
417.31	4147.43
417.50	4159.13
417.69	4142.75
417.88	4248.07
418.07	4327.65
418.26	4255.09
418.45	4301.90
418.64	4531.28
418.83	4475.10
419.02	4276.16
419.21	4454.04
419.39	4266.80
419.58	4414.25
419.77	4512.55
419.96	4587.45
420.15	4575.75
420.34	4545.32
420.53	4524.26
420.72	4638.94
420.91	4725.54
421.10	4629.58
421.29	4865.97
421.48	4578.09
421.67	4786.40
421.86	4840.23
422.05	4711.50
422.24	4706.82
422.43	4816.82
422.61	4947.89
422.80	4863.63
422.99	4830.87
423.18	4936.19
423.37	4943.21
423.56	4865.97
423.75	4973.64
423.94	4753.63
424.13	4559.36
424.32	4791.08
424.50	5025.13
424.69	5074.28
424.88	5172.58
425.07	5118.75
425.26	4929.17
425.45	4901.08
425.64	5015.77
425.83	4968.96
426.01	5076.62
426.20	4950.23
426.39	5020.45
426.58	5055.56
426.77	4901.08
426.96	5076.62
427.15	5100.03
427.33	5217.05
427.52	5121.09
427.71	5214.71
427.90	5219.39
428.09	5191.31
428.28	5310.68
428.46	5598.56
428.65	5200.67
428.84	5371.53
429.03	5509.62
429.22	5275.57
429.40	5376.21
429.59	5561.11
429.78	5404.30
429.97	5193.65
430.16	5453.45
430.34	5495.58
430.53	5687.50
430.72	5589.20
430.91	5420.68
431.10	5572.82
431.28	5668.78
431.47	5741.33
431.66	5781.12
431.85	5671.12
432.03	5914.53
432.22	5930.92
432.41	5856.02
432.60	5839.64
432.79	6031.56
432.97	6022.20
433.16	6066.67
433.35	5975.39
433.54	6104.12
433.72	5942.62
433.91	6029.22
434.10	6286.68
434.28	6045.60
434.47	6129.86
434.66	6319.45
434.85	6195.40
435.03	6153.27
435.22	6094.76
435.41	6586.27
435.59	6392.00
435.78	6410.73
435.97	6256.25
436.16	6333.49
436.34	6389.66
436.53	6525.41
436.72	6574.56
436.90	6331.15
437.09	6504.35
437.28	6408.39
437.46	6530.09
437.65	6581.59
437.84	6759.47
438.02	6604.99
438.21	6616.69
438.40	6621.38
438.58	6970.12
438.77	6883.52
438.96	6942.03
439.14	7000.54
439.33	7199.49
439.52	7185.44
439.70	7150.34
439.89	7396.09
440.08	7356.30
440.26	7304.81
440.45	7190.13
440.63	7332.90
440.82	7557.59
441.01	7372.69
441.19	7683.98
441.38	7831.43
441.57	7824.41
441.75	7768.24
441.94	7819.73
442.12	7744.83
442.31	7939.10
442.50	8116.98
442.68	7915.69
442.87	7983.57
443.05	7934.42
443.24	8205.92
443.43	8046.76
443.61	8116.98
443.80	8276.13
443.98	8042.08
444.17	7733.13
444.35	8159.11
444.54	8463.38
444.73	8187.19
444.91	8344.01
445.10	8358.05
445.28	8390.82
445.47	8100.59
445.65	8311.24
445.84	8346.35
446.02	8294.86
446.21	8444.65
446.39	8341.67
446.58	8393.16
446.77	8491.46
446.95	8264.43
447.14	8322.94
447.32	8416.57
447.51	8395.50
447.69	8475.08
447.88	8631.90
448.06	8355.71
448.25	8446.99
448.43	8367.42
448.62	8451.67
448.80	8542.96
448.99	8554.66
449.17	8699.77
449.36	8608.49
449.54	8814.46
449.73	8762.97
449.91	9174.90
450.10	8713.81
450.28	9151.49
450.46	9060.21
450.65	9121.07
450.83	9022.77
451.02	8823.82
451.20	9109.36
451.39	9027.45
451.57	9135.11
451.76	9004.04
451.94	8943.19
452.13	9336.40
452.31	9357.46
452.49	9226.39
452.68	9472.15
452.86	9263.84
453.05	9282.56
453.23	9509.60
453.42	9336.40
453.60	9378.53
453.78	9420.66
453.97	9458.10
454.15	9483.85
454.34	9263.84
454.52	9591.52
454.70	9666.41
454.89	9713.22
455.07	9825.57
455.26	9886.42
455.44	10017.49
455.62	9919.19
455.81	9692.16
455.99	9984.73
456.17	10066.64
456.36	10087.71
456.54	10136.86
456.73	10043.24
456.91	10373.25
457.09	10171.97
457.28	10429.43
457.46	10382.62
457.64	10562.84
457.83	10207.08
458.01	10462.19
458.19	10642.42
458.38	10387.30
458.56	10448.15
458.74	10740.72
458.93	10604.97
459.11	10626.03
459.29	10623.69
459.48	10621.35
459.66	10684.55
459.84	10878.81
460.03	10946.69
460.21	10843.70
460.39	10773.49
460.57	10766.46
460.76	10810.93
460.94	11012.22
461.12	11052.01
461.31	10911.58
461.49	11066.05
461.67	11147.97
461.85	11475.65
462.04	11358.62
462.22	11517.78
462.40	11510.75
462.59	11461.60
462.77	11604.38
462.95	11389.05
463.13	11403.09
463.32	11550.54
463.50	11466.28
463.68	11932.05
463.86	11714.38
464.05	11733.11
464.23	11571.61
464.41	11763.53
464.59	11562.25
464.78	11988.22
464.96	11957.80
465.14	11674.59
465.32	11983.54
465.50	11803.32
465.69	12159.08
465.87	12212.92
466.05	12065.46
466.23	12035.03
466.41	12313.56
466.60	12294.83
466.78	12140.36
466.96	12219.94
467.14	12245.68
467.32	12236.32
467.51	12393.14
467.69	12023.33
467.87	12346.33
468.05	12636.55
468.23	12308.88
468.41	12531.23
468.60	12648.26
468.78	12542.93
468.96	12297.17
469.14	12966.57
469.32	12994.65
469.50	12697.41
469.69	12992.31
469.87	13102.32
470.05	12868.27
470.23	13034.44
470.41	13195.94
470.59	13053.17
470.77	12980.61
470.95	13327.01
471.14	13378.50
471.32	13181.90
471.50	13540.00
471.68	13664.05
471.86	13429.99
472.04	13554.04
472.22	13998.74
472.40	13685.11
472.58	13713.20
472.77	13970.66
472.95	13919.17
473.13	14448.13
473.31	14178.97
473.49	14286.63
473.67	14078.32
473.85	14214.07
474.03	14317.06
474.21	14623.67
474.39	14733.67
474.57	14820.27
474.75	14801.55
474.93	15234.55
475.12	14778.14
475.30	14836.66
475.48	15023.90
475.66	14883.47
475.84	15012.20
476.02	15461.58
476.20	15353.91
476.38	15583.29
476.56	16046.71
476.74	15899.26
476.92	15843.09
477.10	15690.95
477.28	16128.63
477.46	16058.42
477.64	16102.89
477.82	16484.39
478.00	16903.35
478.18	16716.11
478.36	16912.71
478.54	16931.44
478.72	17245.07
478.90	17184.21
479.08	17593.81
479.26	17467.42
479.44	17649.98
479.62	17774.03
479.80	17750.62
479.98	18167.24
480.16	18274.90
480.34	18235.11
480.52	18548.75
480.70	18427.04
480.88	18239.79
481.06	18499.59
481.24	18698.54
481.41	19063.66
481.59	19360.91
481.77	19241.54
481.95	19183.03
482.13	19644.12
482.31	19379.64
482.49	20011.58
482.67	19997.54
482.85	20643.52
483.03	20365.00
483.21	20493.73
483.39	20978.22
483.57	20688.00
483.74	20893.96
483.92	21336.32
484.10	21209.93
484.28	21589.10
484.46	21916.78
484.64	22239.77
484.82	22012.74
485.00	21888.69
485.18	22679.79
485.35	22712.56
485.53	22656.39
485.71	23117.47
485.89	23578.56
486.07	23243.86
486.25	23211.09
486.43	23377.27
486.61	23861.76
486.78	23864.10
486.96	23796.23
487.14	24409.45
487.32	24341.57
487.50	24678.61
487.68	25263.74
487.85	24746.48
488.03	25336.30
488.21	25799.73
488.39	25668.66
488.57	25511.84
488.75	26005.69
488.92	26579.12
489.10	26445.71
489.28	26307.62
489.46	27126.81
489.64	27072.98
489.81	27494.27
489.99	27646.41
490.17	27480.23
490.35	27646.41
490.53	27936.63
490.70	28203.46
490.88	27819.61
491.06	28238.56
491.24	28474.96
491.41	28774.55
491.59	29195.84
491.77	29303.51
491.95	29324.57
492.13	29633.52
492.30	29977.58
492.48	29834.81
492.66	30061.84
492.84	30284.19
493.01	30520.59
493.19	30546.33
493.37	31037.84
493.54	31395.95
493.72	31239.13
493.90	31377.22
494.08	31548.08
494.25	31786.82
494.43	31709.58
494.61	32538.13
494.79	32210.45
494.96	32659.84
495.14	32692.60
495.32	32891.55
495.49	32985.17
495.67	32999.21
495.85	33387.74
496.02	33376.04
496.20	34024.37
496.38	33673.29
496.55	33888.62
496.73	34632.91
496.91	34335.66
497.09	34085.22
497.26	34576.73
497.44	34675.04
497.62	34934.84
497.79	35697.85
497.97	34836.53
498.14	35796.15
498.32	36285.33
498.50	35819.56
498.67	36561.51
498.85	36226.81
499.03	36634.06
499.20	36201.07
499.38	36341.50
499.56	36666.83
499.73	36844.71
499.91	36921.95
500.08	37329.20
500.26	37184.09
500.44	37518.79
500.61	37787.95
500.79	37471.98
500.97	37600.71
501.14	38061.79
501.32	38183.50
501.49	38401.17
501.67	38534.58
501.84	38703.10
502.02	38831.83
502.20	38799.06
502.37	38579.05
502.55	38541.60
502.72	39344.41
502.90	39723.57
503.07	39171.21
503.25	39704.85
503.43	39564.42
503.60	39765.70
503.78	39824.22
503.95	39936.56
504.13	40100.40
504.30	40753.41
504.48	40556.80
504.65	40378.92
504.83	40697.24
505.01	41174.70
505.18	41097.47
505.36	40816.60
505.53	41177.04
505.71	41282.37
505.88	41514.08
506.06	41034.27
506.23	41778.56
506.41	41177.04
506.58	41872.18
506.76	41703.67
506.93	42532.22
507.11	42651.58
507.28	42108.58
507.46	42377.74
507.63	42227.95
507.81	43374.81
507.98	42679.67
508.16	42586.05
508.33	42965.21
508.50	43271.82
508.68	43360.76
508.85	43817.17
509.03	43812.49
509.20	43700.14
509.38	43945.90
509.55	43824.19
509.73	44074.63
509.90	44233.78
510.08	44594.23
510.25	44821.26
510.42	44308.68
510.60	44655.08
510.77	45144.25
510.95	44971.05
511.12	44975.73
511.30	44882.11
511.47	45272.98
511.64	45048.29
511.82	45406.39
511.99	45738.75
512.17	45766.84
512.34	45851.09
512.51	46307.50
512.69	46103.87
512.86	46162.39
513.04	46429.21
513.21	46848.16
513.38	46440.91
513.56	46476.02
513.73	46948.81
513.90	46609.43
514.08	46541.55
514.25	47103.28
514.43	47065.83
514.60	47463.72
514.77	47349.04
514.95	47477.77
515.12	47484.79
515.29	47646.29
515.47	47292.86
515.64	47878.00
515.81	48217.38
515.99	47473.09
516.16	48275.89
516.33	48245.46
516.51	48500.58
516.68	48526.33
516.85	47992.68
517.03	48444.41
517.20	48318.02
517.37	48531.01
517.54	48933.58
517.72	48601.22
517.89	48835.28
518.06	48626.97
518.24	49092.74
518.41	49127.84
518.58	49539.78
518.75	49350.20
518.93	49490.63
519.10	49013.16
519.27	49535.10
519.45	49448.50
519.62	49628.72
519.79	49792.56
519.96	50075.76
520.14	49680.21
520.31	50218.53
520.48	50258.32
520.65	50033.63
520.83	50356.63
521.00	50529.83
521.17	50213.85
521.34	50555.57
521.52	50321.52
521.69	50536.85
521.86	50543.87
522.03	50756.86
522.20	50780.26
522.38	51203.90
522.55	51110.28
522.72	50911.33
522.89	50953.46
523.07	51580.73
523.24	51475.40
523.41	51648.60
523.58	51147.73
523.75	51831.16
523.92	51580.73
524.10	51887.34
524.27	51943.51
524.44	51730.52
524.61	51894.36
524.78	51934.15
524.96	51924.78
525.13	51950.53
525.30	52058.20
525.47	52027.77
525.64	52128.41
525.81	52334.38
525.98	52680.78
526.16	52406.94
526.33	52280.55
526.50	52699.50
526.67	52526.30
526.84	52868.02
527.01	52743.97
527.18	52437.36
527.36	52715.89
527.53	52917.17
527.70	53095.05
527.87	52912.49
528.04	53134.84
528.21	53240.17
528.38	52917.17
528.55	53219.10
528.72	53085.69
528.89	53258.89
529.07	53024.84
529.24	53633.38
529.41	53291.66
529.58	53361.87
529.75	53408.68
529.92	53745.72
530.09	53715.29
530.26	53881.47
530.43	53778.49
530.60	53757.42
530.77	53560.82
530.94	53886.15
531.11	54092.12
531.28	54234.89
531.46	54007.86
531.63	54038.29
531.80	54113.19
531.97	54293.41
532.14	54274.68
532.31	54171.70
532.48	54564.91
532.65	54588.31
532.82	54459.58
532.99	54560.23
533.16	54595.34
533.33	54616.40
533.50	54941.74
533.67	54695.98
533.84	54805.98
534.01	54681.94
534.18	54595.34
534.35	55138.34
534.52	54712.36
534.69	54827.05
534.86	55051.74
535.03	54932.37
535.20	55159.41
535.37	55304.52
535.54	55267.07
535.71	54946.42
535.88	55327.92
536.05	55161.75
536.22	55470.70
536.38	55201.53
536.55	55538.57
536.72	55463.67
536.89	55290.48
537.06	55435.59
537.23	55540.91
537.40	55208.56
537.57	55508.14
537.74	55604.11
537.91	55866.25
538.08	55814.76
538.25	55430.91
538.42	55503.46
538.59	56100.30
538.75	55824.12
538.92	55894.33
539.09	55842.84
539.26	55957.53
539.43	55934.12
539.60	56067.53
539.77	56154.13
539.94	56315.63
540.11	56093.28
540.28	56238.39
540.44	56530.96
540.61	56198.60
540.78	56313.29
540.95	56310.95
541.12	56280.52
541.29	56432.66
541.46	56392.87
541.62	56292.22
541.79	56381.16
541.96	55952.85
542.13	56568.41
542.30	56526.28
542.47	56694.80
542.63	56900.76
542.80	56947.57
542.97	56842.25
543.14	56963.96
543.31	57008.43
543.48	57190.99
543.64	57354.83
543.81	57048.22
543.98	56954.60
544.15	57207.37
544.32	57080.98
544.48	57513.98
544.65	57354.83
544.82	57289.29
544.99	57111.41
545.16	57396.96
545.32	57066.94
545.49	57535.05
545.66	57645.05
545.83	57319.72
546.00	57642.71
546.16	57425.04
546.33	57546.75
546.50	57387.60
546.67	57542.07
546.83	57240.14
547.00	57715.27
547.17	57553.77
547.34	57771.44
547.50	57806.55
547.67	57874.43
547.84	58014.86
548.00	57820.59
548.17	58115.50
548.34	57897.83
548.51	58028.90
548.67	58021.88
548.84	57792.51
549.01	58012.52
549.18	57993.79
549.34	57975.07
549.51	58033.58
549.68	58232.53
549.84	58054.65
550.01	58150.61
550.18	58372.96
550.34	58145.93
550.51	58342.53
550.68	58110.82
550.84	58166.99
551.01	58239.55
551.18	58377.64
551.34	58379.98
551.51	58482.97
551.68	58234.87
551.84	58262.96
552.01	58340.19
552.18	58422.11
552.34	58562.54
552.51	58695.95
552.68	58344.87
552.84	58660.85
553.01	58965.12
553.18	58726.38
553.34	58745.11
553.51	58632.76
553.67	58562.54
553.84	58911.28
554.01	58857.45
554.17	58618.72
554.34	58843.41
554.51	58918.31
554.67	58742.77
554.84	58768.51
555.00	58894.90
555.17	58941.71
555.33	58986.18
555.50	58873.84
555.67	58869.15
555.83	59011.93
556.00	58967.46
556.16	59021.29
556.33	59243.64
556.50	59037.67
556.66	59011.93
556.83	58972.14
556.99	59363.01
557.16	59391.09
557.32	59334.92
557.49	59632.17
557.65	59325.56
557.82	59278.75
557.98	59253.00
558.15	59220.23
558.32	59388.75
558.48	59220.23
558.65	59365.35
558.81	59243.64
558.98	59189.81
559.14	59503.44
559.31	59435.56
559.47	59456.63
559.64	59578.34
559.80	59444.93
559.97	59639.19
560.13	59217.89
560.30	59423.86
560.46	59456.63
560.63	59796.01
560.79	59721.11
560.96	59648.55
561.12	59671.96
561.29	59632.17
561.45	59838.14
561.61	59693.02
561.78	59742.17
561.94	59604.08
562.11	59639.19
562.27	59714.09
562.44	59924.74
562.60	59870.90
562.77	59760.90
562.93	59529.19
563.10	60062.83
563.26	59655.57
563.42	60156.45
563.59	59964.52
563.75	59746.86
563.92	59945.80
564.08	59896.65
564.24	59910.69
564.41	59955.16
564.57	60060.49
564.74	59971.55
564.90	60250.07
565.07	59941.12
565.23	59936.44
565.39	59980.91
565.56	59891.97
565.72	60030.06
565.88	60142.41
566.05	60083.89
566.21	60044.10
566.38	60140.07
566.54	60163.47
566.70	60135.38
566.87	60170.49
567.03	59924.74
567.19	60392.84
567.36	60320.29
567.52	60271.14
567.68	60418.59
567.85	60123.68
568.01	60221.98
568.17	60121.34
568.34	60200.92
568.50	60310.92
568.66	60240.71
568.83	60282.84
568.99	60278.16
569.15	60528.59
569.32	60128.36
569.48	60200.92
569.64	60479.44
569.81	60217.30
569.97	60301.56
570.13	60453.70
570.30	60107.30
570.46	60289.86
570.62	60416.25
570.78	60486.46
570.95	60240.71
571.11	60406.89
571.27	60226.66
571.43	60324.97
571.60	60329.65
571.76	60441.99
571.92	60514.55
572.09	60563.70
572.25	60425.61
572.41	60184.54
572.57	60385.82
572.74	60615.19
572.90	60392.84
573.06	60353.05
573.22	60584.77
573.38	60673.71
573.55	60420.93
573.71	60587.11
573.87	60654.98
574.03	60425.61
574.20	60341.35
574.36	60423.27
574.52	60523.91
574.68	60603.49
574.84	60823.50
575.01	60591.79
575.17	60437.31
575.33	60413.91
575.49	60666.69
575.65	60690.09
575.82	60786.05
575.98	60568.38
576.14	60886.70
576.30	60779.03
576.46	60404.55
576.62	60540.30
576.79	60736.90
576.95	60427.95
577.11	60802.44
577.27	60636.26
577.43	60872.65
577.59	60664.35
577.75	60381.14
577.92	60566.04
578.08	60676.05
578.24	60767.33
578.40	60877.33
578.56	60910.10
578.72	60711.16
578.88	60814.14
579.04	60884.36
579.21	60699.45
579.37	60680.73
579.53	60832.86
579.69	60399.86
579.85	60725.20
580.01	60687.75
580.17	60444.33
580.33	60947.55
580.49	60968.61
580.65	60811.80
580.82	60837.54
580.98	60704.13
581.14	60874.99
581.30	60809.46
581.46	60734.56
581.62	60739.24
581.78	60701.79
581.94	60781.37
582.10	60685.41
582.26	60615.19
582.42	60535.62
582.58	60678.39
582.74	60722.86
582.90	60767.33
583.06	60762.65
583.22	60753.29
583.38	60643.28
583.54	60893.72
583.70	60704.13
583.86	60926.49
584.02	60750.94
584.18	60968.61
584.34	60832.86
584.50	60893.72
584.66	60823.50
584.82	60589.45
584.98	61195.65
585.14	61022.45
585.30	60659.66
585.46	60818.82
585.62	60907.76
585.78	60898.40
585.94	60769.67
586.10	60879.67
586.26	60870.31
586.42	60961.59
586.58	61059.90
586.74	61034.15
586.90	60860.95
587.06	60732.22
587.22	60945.21
587.38	60949.89
587.54	61029.47
587.70	61249.48
587.86	60851.59
588.02	60917.12
588.18	60853.93
588.34	60938.19
588.49	60926.49
