SpectraSuite Data File
++++++++++++++++++++++++++++++++++++
Date: Fri Oct 25 11:23:49 EDT 2013
User: price-jones
Dark Spectrum Present: No
Reference Spectrum Present: No
Number of Sampled Component Spectra: 1
Spectrometers: USB2+H05261
Integration Time (usec): 100000 (USB2+H05261)
Spectra Averaged: 1 (USB2+H05261)
Boxcar Smoothing: 0 (USB2+H05261)
Correct for Electrical Dark: No (USB2+H05261)
Strobe/Lamp Enabled: No (USB2+H05261)
Correct for Detector Non-linearity: No (USB2+H05261)
Correct for Stray Light: No (USB2+H05261)
Number of Pixels in Processed Spectrum: 2048
>>>>>Begin Processed Spectral Data<<<<<
365.73	182.56
365.92	182.56
366.12	182.56
366.32	72.56
366.52	131.07
366.72	154.48
366.91	152.13
367.11	177.88
367.31	128.73
367.51	98.30
367.70	63.19
367.90	112.35
368.10	182.56
368.30	102.98
368.49	135.75
368.69	212.99
368.89	107.66
369.09	187.24
369.28	217.67
369.48	149.79
369.68	196.60
369.87	194.26
370.07	243.42
370.27	229.37
370.47	285.55
370.66	580.45
370.86	624.92
371.06	674.07
371.25	653.01
371.45	585.13
371.65	716.20
371.84	660.03
372.04	648.33
372.24	737.27
372.44	662.37
372.63	763.01
372.83	723.23
373.03	748.97
373.22	821.53
373.42	791.10
373.62	828.55
373.81	809.83
374.01	821.53
374.21	833.23
374.40	826.21
374.60	837.91
374.79	887.06
374.99	821.53
375.19	858.98
375.38	784.08
375.58	870.68
375.78	889.40
375.97	908.13
376.17	894.08
376.37	763.01
376.56	868.34
376.76	875.36
376.95	884.72
377.15	891.74
377.35	858.98
377.54	924.51
377.74	866.00
377.93	943.24
378.13	849.61
378.33	959.62
378.52	945.58
378.72	1048.56
378.91	933.87
379.11	933.87
379.31	877.70
379.50	943.24
379.70	978.34
379.89	976.00
380.09	1018.13
380.28	1076.65
380.48	1036.86
380.68	999.41
380.87	1006.43
381.07	1067.28
381.26	1025.15
381.46	1107.07
381.65	1062.60
381.85	1114.10
382.04	1029.84
382.24	1004.09
382.43	1123.46
382.63	1041.54
382.83	980.68
383.02	1219.42
383.22	1121.12
383.41	1043.88
383.61	1043.88
383.80	1015.79
384.00	1165.59
384.19	1132.82
384.39	1121.12
384.58	1128.14
384.78	1210.06
384.97	1153.88
385.17	1179.63
385.36	1121.12
385.56	1226.44
385.75	1151.54
385.95	1128.14
386.14	1153.88
386.34	1146.86
386.53	1226.44
386.72	1256.87
386.92	1137.50
387.11	1160.91
387.31	1259.21
387.50	1266.23
387.70	1291.98
387.89	1210.06
388.09	1303.68
388.28	1245.16
388.48	1306.02
388.67	1296.66
388.86	1268.57
389.06	1341.13
389.25	1404.32
389.45	1355.17
389.64	1352.83
389.84	1369.21
390.03	1317.72
390.22	1394.96
390.42	1406.66
390.61	1341.13
390.81	1444.11
391.00	1406.66
391.19	1359.85
391.39	1486.24
391.58	1551.78
391.78	1479.22
391.97	1472.20
392.16	1465.18
392.36	1514.33
392.55	1497.94
392.75	1633.69
392.94	1554.12
393.13	1558.80
393.33	1556.46
393.52	1533.05
393.71	1579.86
393.91	1633.69
394.10	1582.20
394.29	1666.46
394.49	1544.75
394.68	1647.74
394.88	1636.03
395.07	1710.93
395.26	1664.12
395.46	1591.56
395.65	1720.29
395.84	1734.34
396.04	1851.36
396.23	1739.02
396.42	1741.36
396.62	1781.15
396.81	1916.90
397.00	1898.17
397.19	1776.47
397.39	1799.87
397.58	1778.81
397.77	1863.07
397.97	1825.62
398.16	1893.49
398.35	1956.69
398.55	1893.49
398.74	1827.96
398.93	1968.39
399.12	1881.79
399.32	1933.28
399.51	1970.73
399.70	2047.97
399.90	1973.07
400.09	2054.99
400.28	2078.40
400.47	2127.55
400.67	2101.80
400.86	2134.57
401.05	2080.74
401.24	2150.95
401.44	2148.61
401.63	2209.47
401.82	2202.44
402.01	2160.31
402.21	2162.66
402.40	2298.41
402.59	2200.10
402.78	2188.40
402.97	2239.89
403.17	2275.00
403.36	2338.20
403.55	2333.51
403.74	2314.79
403.93	2275.00
404.13	2338.20
404.32	2401.39
404.51	2436.50
404.70	2429.48
404.89	2462.24
405.09	2495.01
405.28	2502.03
405.47	2424.80
405.66	2534.80
405.85	2654.17
406.05	2422.45
406.24	2616.72
406.43	2513.74
406.62	2682.25
406.81	2605.02
407.00	2497.35
407.20	2523.10
407.39	2731.41
407.58	2616.72
407.77	2672.89
407.96	2789.92
408.15	2799.28
408.34	2820.35
408.54	2841.41
408.73	2899.92
408.92	2799.28
409.11	2883.54
409.30	2937.37
409.49	2881.20
409.68	2930.35
409.87	2813.32
410.07	2984.18
410.26	2899.92
410.45	3038.02
410.64	2965.46
410.83	3131.64
411.02	3075.46
411.21	3138.66
411.40	3258.03
411.59	3176.11
411.78	3227.60
411.98	3143.34
412.17	3215.90
412.36	3297.81
412.55	3318.88
412.74	3435.91
412.93	3417.18
413.12	3356.33
413.31	3435.91
413.50	3435.91
413.69	3414.84
413.88	3684.00
414.07	3630.17
414.26	3742.52
414.45	3742.52
414.64	3669.96
414.83	3726.13
415.02	3810.39
415.22	3812.73
415.41	3920.40
415.60	3801.03
415.79	3859.54
415.98	4042.11
416.17	4119.34
416.36	3911.04
416.55	4056.15
416.74	4053.81
416.93	3960.19
417.12	4095.94
417.31	4140.41
417.50	4081.89
417.69	4381.48
417.88	4203.60
418.07	4311.27
418.26	4194.24
418.45	4241.05
418.64	4404.89
418.83	4461.06
419.02	4535.96
419.21	4493.83
419.39	4606.17
419.58	4475.10
419.77	4456.38
419.96	4650.64
420.15	4674.05
420.34	4554.68
420.53	4662.35
420.72	4805.12
420.91	4613.20
421.10	4727.88
421.29	4809.80
421.48	4716.18
421.67	4702.14
421.86	4662.35
422.05	4837.89
422.24	4877.68
422.43	4802.78
422.61	4870.65
422.80	4978.32
422.99	5001.72
423.18	4957.25
423.37	4945.55
423.56	4945.55
423.75	4990.02
423.94	4884.70
424.13	4662.35
424.32	4690.43
424.50	5027.47
424.69	5032.15
424.88	5167.90
425.07	4917.47
425.26	4873.00
425.45	4964.28
425.64	4973.64
425.83	4983.00
426.01	5327.06
426.20	5158.54
426.39	5132.79
426.58	5018.11
426.77	5027.47
426.96	5261.52
427.15	5207.69
427.33	5261.52
427.52	5123.43
427.71	5327.06
427.90	5235.78
428.09	5343.44
428.28	5481.53
428.46	5420.68
428.65	5476.85
428.84	5425.36
429.03	5626.65
429.22	5228.76
429.40	5493.24
429.59	5530.69
429.78	5270.89
429.97	5423.02
430.16	5537.71
430.34	5549.41
430.53	5633.67
430.72	5565.79
430.91	5563.45
431.10	5633.67
431.28	5710.91
431.47	5949.64
431.66	5912.19
431.85	5788.14
432.03	5839.64
432.22	5867.72
432.41	5989.43
432.60	6155.61
432.79	5937.94
432.97	5923.90
433.16	6083.05
433.35	6001.13
433.54	5984.75
433.72	6183.70
433.91	6260.93
434.10	6155.61
434.28	6244.55
434.47	6183.70
434.66	6377.96
434.85	6370.94
435.03	6408.39
435.22	6223.48
435.41	6434.13
435.59	6614.35
435.78	6555.84
435.97	6609.67
436.16	6473.92
436.34	6441.15
436.53	6544.14
436.72	6672.87
436.90	6560.52
437.09	6644.78
437.28	6626.06
437.46	6560.52
437.65	6693.93
437.84	6736.06
438.02	6885.86
438.21	6871.81
438.40	6604.99
438.58	6808.62
438.77	7002.88
438.96	7082.46
439.14	7045.01
439.33	6946.71
439.52	7131.61
439.70	7229.91
439.89	7311.83
440.08	7220.55
440.26	7463.97
440.45	7379.71
440.63	7756.54
440.82	7578.65
441.01	7602.06
441.19	7758.88
441.38	7700.36
441.57	7847.82
441.75	7838.45
441.94	8088.89
442.12	8116.98
442.31	8093.57
442.50	8126.34
442.68	7896.97
442.87	8079.53
443.05	8135.70
443.24	8138.04
443.43	8255.07
443.61	8180.17
443.80	8362.73
443.98	8145.06
444.17	8067.83
444.35	8098.25
444.54	8390.82
444.73	8266.77
444.91	8458.70
445.10	8533.59
445.28	8496.14
445.47	8369.76
445.65	8383.80
445.84	8365.07
446.02	8325.29
446.21	8463.38
446.39	8470.40
446.58	8461.04
446.77	8505.51
446.95	8353.37
447.14	8547.64
447.32	8674.03
447.51	8594.45
447.69	8524.23
447.88	8706.79
448.06	8507.85
448.25	8472.74
448.43	8620.19
448.62	8645.94
448.80	8552.32
448.99	8641.26
449.17	8730.20
449.36	8896.38
449.54	8940.85
449.73	8980.64
449.91	8959.57
450.10	8879.99
450.28	9121.07
450.46	9097.66
450.65	8954.89
450.83	9217.03
451.02	9240.44
451.20	9121.07
451.39	9289.59
451.57	9064.89
451.76	9083.62
451.94	9263.84
452.13	9324.69
452.31	9561.09
452.49	9184.26
452.68	9535.34
452.86	9298.95
453.05	9474.49
453.23	9556.41
453.42	9504.92
453.60	9544.70
453.78	9617.26
453.97	9486.19
454.15	9460.45
454.34	9533.00
454.52	9816.21
454.70	9748.33
454.89	9795.14
455.07	9797.48
455.26	9958.98
455.44	10094.73
455.62	9846.63
455.81	10113.45
455.99	9980.04
456.17	10078.35
456.36	10111.11
456.54	10141.54
456.73	10228.14
456.91	10523.05
457.09	10394.32
457.28	10700.93
457.46	10270.27
457.64	10712.63
457.83	10483.26
458.01	10384.96
458.19	10817.96
458.38	10710.29
458.56	10820.30
458.74	10614.33
458.93	10719.65
459.11	10918.60
459.29	10714.97
459.48	11052.01
459.66	11035.63
459.84	11033.29
460.03	11131.59
460.21	10771.15
460.39	11101.16
460.57	11190.10
460.76	11384.37
460.94	11204.14
461.12	11152.65
461.31	11400.75
461.49	11150.31
461.67	11272.02
461.85	11531.82
462.04	11365.64
462.22	11723.74
462.40	11585.65
462.59	11779.92
462.77	11466.28
462.95	11620.76
463.13	11812.68
463.32	11545.86
463.50	11929.71
463.68	11758.85
463.86	11878.22
464.05	11592.67
464.23	11761.19
464.41	12116.95
464.59	11770.55
464.78	12243.34
464.96	12088.87
465.14	11847.79
465.32	12056.10
465.50	12145.04
465.69	12077.16
465.87	12138.02
466.05	12046.74
466.23	12339.30
466.41	12545.27
466.60	12428.24
466.78	12166.10
466.96	12306.54
467.14	12582.72
467.32	12503.14
467.51	12484.42
467.69	12348.67
467.87	12669.32
468.05	12669.32
468.23	12552.29
468.41	12734.85
468.60	12781.67
468.78	12835.50
468.96	12521.87
469.14	12762.94
469.32	13111.68
469.50	12835.50
469.69	13172.54
469.87	13102.32
470.05	13144.45
470.23	13249.77
470.41	13308.29
470.59	13324.67
470.77	13207.64
470.95	13322.33
471.14	13713.20
471.32	13226.37
471.50	13626.60
471.68	13540.00
471.86	13694.47
472.04	13544.68
472.22	13944.91
472.40	13785.76
472.58	13919.17
472.77	13961.30
472.95	14005.77
473.13	14616.65
473.31	14178.97
473.49	14455.15
473.67	14162.58
473.85	14473.87
474.03	14572.18
474.21	14698.56
474.39	14834.32
474.57	15005.17
474.75	14689.20
474.93	15002.83
475.12	14890.49
475.30	15295.40
475.48	14979.43
475.66	15164.33
475.84	15339.87
476.02	15683.93
476.20	15466.26
476.38	15850.11
476.56	16222.25
476.74	15948.41
476.92	15831.38
477.10	16049.05
477.28	16276.09
477.46	16292.47
477.64	16301.83
477.82	16453.97
478.00	16992.29
478.18	16657.59
478.36	16908.03
478.54	17399.54
478.72	17324.65
478.90	17507.21
479.08	17933.18
479.26	17750.62
479.44	18031.49
479.62	18008.08
479.80	18148.51
479.98	18183.62
480.16	18686.84
480.34	18518.32
480.52	18560.45
480.70	19061.32
480.88	18726.63
481.06	18785.14
481.24	18920.89
481.41	19192.39
481.59	19555.18
481.77	19594.96
481.95	19676.88
482.13	19875.83
482.31	19988.18
482.49	20442.24
482.67	20353.30
482.85	20643.52
483.03	20484.37
483.21	20650.55
483.39	20952.48
483.57	20982.90
483.74	21111.63
483.92	21326.96
484.10	21343.35
484.28	21979.97
484.46	21963.59
484.64	22803.84
484.82	21900.39
485.00	22199.98
485.18	23019.17
485.35	23192.37
485.53	22789.80
485.71	22995.76
485.89	23660.48
486.07	23475.57
486.25	23667.50
486.43	23861.76
486.61	23927.30
486.78	24002.19
486.96	24273.70
487.14	24636.48
487.32	24542.86
487.50	24844.79
487.68	24994.58
487.85	25207.57
488.03	25694.40
488.21	25954.20
488.39	25963.56
488.57	26405.92
488.75	26607.21
488.92	26801.47
489.10	26651.68
489.28	27028.51
489.46	27440.44
489.64	26984.04
489.81	27690.88
489.99	28329.84
490.17	28053.66
490.35	28261.97
490.53	28549.85
490.70	28692.63
490.88	28734.76
491.06	29301.17
491.24	28652.84
491.41	29237.97
491.59	29708.42
491.77	29764.59
491.95	29701.40
492.13	29984.60
492.30	30150.78
492.48	30314.62
492.66	29965.88
492.84	30628.25
493.01	31105.72
493.19	30616.55
493.37	30995.71
493.54	31431.05
493.72	31852.35
493.90	31454.46
494.08	31990.44
494.25	32011.51
494.43	32680.90
494.61	32758.14
494.79	33085.81
494.96	32706.65
495.14	33116.24
495.32	33600.73
495.49	33116.24
495.67	33645.20
495.85	34073.52
496.02	33979.90
496.20	34267.78
496.38	34052.45
496.55	34588.44
496.73	35187.61
496.91	34611.84
497.09	35131.44
497.26	35239.11
497.44	34719.51
497.62	35515.29
497.79	36154.26
497.97	35971.69
498.14	36168.30
498.32	36481.93
498.50	36851.73
498.67	36371.92
498.85	36687.90
499.03	36898.55
499.20	36690.24
499.38	37181.75
499.56	37343.25
499.73	37378.36
499.91	37448.57
500.08	37696.67
500.26	37764.54
500.44	37991.58
500.61	38174.14
500.79	37584.32
500.97	37996.26
501.14	38785.02
501.32	39035.45
501.49	38890.34
501.67	39166.52
501.84	39292.91
502.02	39290.57
502.20	39077.58
502.37	39672.08
502.55	39379.51
502.72	39548.03
502.90	39566.76
503.07	39826.56
503.25	40208.06
503.43	39854.64
503.60	40112.10
503.78	40549.78
503.95	40540.42
504.13	40975.76
504.30	41113.85
504.48	40730.00
504.65	40774.47
504.83	41254.28
505.01	41429.82
505.18	41083.42
505.36	41495.36
505.53	41322.16
505.71	41759.84
505.88	42274.76
506.06	41762.18
506.23	42183.48
506.41	42323.91
506.58	42277.10
506.76	42522.85
506.93	42731.16
507.11	42499.45
507.28	43100.97
507.46	43047.13
507.63	43257.78
507.81	43269.48
507.98	43182.88
508.16	43723.55
508.33	43608.86
508.50	43615.88
508.68	43620.56
508.85	44151.87
509.03	43922.49
509.20	43990.37
509.38	44453.79
509.55	44949.99
509.73	44589.55
509.90	44425.71
510.08	44767.43
510.25	45219.15
510.42	45193.40
510.60	45308.09
510.77	45495.33
510.95	45612.36
511.12	45184.04
511.30	45813.65
511.47	45949.40
511.64	45645.13
511.82	45921.31
511.99	45890.88
512.17	46183.45
512.34	45972.80
512.51	46953.49
512.69	46637.51
512.86	46511.13
513.04	46838.80
513.21	46564.96
513.38	46953.49
513.56	47487.13
513.73	47175.84
513.90	47030.72
514.08	47430.96
514.25	47559.69
514.43	47320.95
514.60	47880.34
514.77	47178.18
514.95	47941.19
515.12	47870.98
515.29	47730.54
515.47	47789.06
515.64	48430.36
515.81	47870.98
515.99	48252.48
516.16	48854.00
516.33	48821.23
516.51	48837.62
516.68	48996.77
516.85	48945.28
517.03	49223.81
517.20	49165.29
517.37	48917.20
517.54	49179.34
517.72	48964.01
517.89	49507.01
518.06	49471.90
518.24	49565.52
518.41	49155.93
518.58	49762.13
518.75	49488.29
518.93	49776.17
519.10	49504.67
519.27	49930.65
519.45	49961.08
519.62	50218.53
519.79	50113.21
519.96	50042.99
520.14	50403.44
520.31	50309.82
520.48	50555.57
520.65	50178.75
520.83	50972.19
521.00	50600.04
521.17	50703.03
521.34	50518.12
521.52	50993.25
521.69	50836.44
521.86	51447.32
522.03	51332.63
522.20	51414.55
522.38	51592.43
522.55	51669.67
522.72	51744.56
522.89	51147.73
523.07	51821.80
523.24	51718.82
523.41	51969.26
523.58	51442.63
523.75	52332.04
523.92	51936.49
524.10	52243.10
524.27	52336.72
524.44	52287.57
524.61	52151.82
524.78	52325.02
524.96	52245.44
525.13	52065.22
525.30	52753.33
525.47	52692.48
525.64	52605.88
525.81	52636.31
525.98	52573.11
526.16	52612.90
526.33	52893.77
526.50	53326.77
526.67	52800.15
526.84	53027.18
527.01	53155.91
527.18	52968.66
527.36	53226.12
527.53	53240.17
527.70	53682.53
527.87	53757.42
528.04	53340.81
528.21	53563.16
528.38	53832.32
528.55	53790.19
528.72	53719.98
528.89	53769.13
529.07	53492.94
529.24	53602.95
529.41	53858.07
529.58	53900.20
529.75	53932.96
529.92	53986.80
530.09	54312.13
530.26	54281.70
530.43	54380.01
530.60	54160.00
530.77	54003.18
530.94	54328.52
531.11	54108.50
531.28	54440.86
531.46	54447.88
531.63	54576.61
531.80	54185.74
531.97	54436.18
532.14	54738.11
532.31	54480.65
532.48	54775.56
532.65	54852.80
532.82	54593.00
532.99	54740.45
533.16	54698.32
533.33	54948.76
533.50	55227.28
533.67	54674.91
533.84	55208.56
534.01	55068.12
534.18	55072.81
534.35	55398.14
534.52	55253.03
534.69	55318.56
534.86	55545.59
535.03	55171.11
535.20	55360.69
535.37	55377.08
535.54	55393.46
535.71	55395.80
535.88	55620.49
536.05	55580.70
536.22	55835.82
536.38	55594.74
536.55	55716.45
536.72	55859.23
536.89	55739.86
537.06	55718.79
537.23	55796.03
537.40	55723.47
537.57	55987.95
537.74	55824.12
537.91	56023.06
538.08	56041.79
538.25	55847.52
538.42	55877.95
538.59	56322.65
538.75	56069.87
538.92	56451.38
539.09	56453.72
539.26	56397.55
539.43	56271.16
539.60	56453.72
539.77	56189.24
539.94	56629.26
540.11	56343.72
540.28	56559.05
540.44	56655.01
540.61	56467.76
540.78	56390.53
540.95	56425.64
541.12	56601.18
541.29	56875.02
541.46	56828.21
541.62	56743.95
541.79	56882.04
541.96	56666.71
542.13	56676.07
542.30	56837.57
542.47	56816.50
542.63	57123.11
542.80	57123.11
542.97	57214.40
543.14	57027.15
543.31	57488.24
543.48	57446.11
543.64	57413.34
543.81	57506.96
543.98	57703.57
544.15	57399.30
544.32	57649.74
544.48	57687.18
544.65	57338.44
544.82	57535.05
544.99	57315.04
545.16	57621.65
545.32	57413.34
545.49	57778.46
545.66	57813.57
545.83	57759.74
546.00	57916.56
546.16	57736.34
546.33	57907.19
546.50	57532.71
546.67	57762.08
546.83	57441.43
547.00	57855.70
547.17	57907.19
547.34	57862.72
547.50	58106.14
547.67	58094.44
547.84	58176.36
548.00	58218.49
548.17	58478.28
548.34	58302.74
548.51	58337.85
548.67	58206.78
548.84	58440.84
549.01	58038.26
549.18	58227.85
549.34	58431.47
549.51	58532.12
549.68	58546.16
549.84	58569.57
550.01	58597.65
550.18	58464.24
550.34	58604.67
550.51	58611.70
550.68	58688.93
550.84	58429.13
551.01	58707.66
551.18	58660.85
551.34	58768.51
551.51	58803.62
551.68	58796.60
551.84	58742.77
552.01	58712.34
552.18	58707.66
552.34	58592.97
552.51	58915.96
552.68	58543.82
552.84	58651.48
553.01	59023.63
553.18	59051.72
553.34	59047.04
553.51	58871.49
553.67	59063.42
553.84	58976.82
554.01	59044.69
554.17	59147.68
554.34	59250.66
554.51	59187.47
554.67	59196.83
554.84	59143.00
555.00	59269.39
555.17	59194.49
555.33	59224.92
555.50	59098.53
555.67	59185.13
555.83	59210.87
556.00	59243.64
556.16	59653.23
556.33	59339.60
556.50	59496.42
556.66	59686.00
556.83	59253.00
556.99	59597.06
557.16	59737.49
557.32	59435.56
557.49	59599.40
557.65	59391.09
557.82	59508.12
557.98	59573.66
558.15	59697.70
558.32	59573.66
558.48	59580.68
558.65	59554.93
558.81	59484.72
558.98	59697.70
559.14	59732.81
559.31	59833.46
559.47	59828.77
559.64	59817.07
559.80	59812.39
559.97	59901.33
560.13	59777.28
560.30	59936.44
560.46	59686.00
560.63	59826.43
560.79	59819.41
560.96	59957.50
561.12	60034.74
561.29	60088.57
561.45	59929.42
561.61	60067.51
561.78	59906.01
561.94	59896.65
562.11	59859.20
562.27	59894.31
562.44	60109.64
562.60	60163.47
562.77	60189.22
562.93	59852.18
563.10	60048.78
563.26	60069.85
563.42	60390.50
563.59	60292.20
563.75	60175.17
563.92	60076.87
564.08	60264.11
564.24	60196.24
564.41	60149.43
564.57	60313.26
564.74	60193.90
564.90	60346.03
565.07	60165.81
565.23	60203.26
565.39	60334.33
565.56	60252.41
565.72	60463.06
565.88	60020.70
566.05	60315.61
566.21	60339.01
566.38	60535.62
566.54	60519.23
566.70	60605.83
566.87	60453.70
567.03	60285.18
567.19	60432.63
567.36	60542.64
567.52	60589.45
567.68	60470.08
567.85	60467.74
568.01	60484.12
568.17	60257.09
568.34	60486.46
568.50	60413.91
568.66	60467.74
568.83	60652.64
568.99	60596.47
569.15	60530.93
569.32	60662.00
569.48	60727.54
569.64	60697.11
569.81	60561.36
569.97	60226.66
570.13	60594.13
570.30	60406.89
570.46	60781.37
570.62	60734.56
570.78	60748.60
570.95	60470.08
571.11	60750.94
571.27	60631.58
571.43	60699.45
571.60	60802.44
571.76	60764.99
571.92	60734.56
572.09	60757.97
572.25	60694.77
572.41	60741.58
572.57	60844.57
572.74	60842.23
572.90	60715.84
573.06	60835.20
573.22	60769.67
573.38	60846.91
573.55	60940.53
573.71	61118.41
573.87	60706.47
574.03	60781.37
574.20	60910.10
574.36	60706.47
574.52	60750.94
574.68	60727.54
574.84	61041.17
575.01	60818.82
575.17	60818.82
575.33	60884.36
575.49	60795.42
575.65	60874.99
575.82	60893.72
575.98	60762.65
576.14	61123.09
576.30	60973.30
576.46	60849.25
576.62	60811.80
576.79	60863.29
576.95	60643.28
577.11	60917.12
577.27	60828.18
577.43	60968.61
577.59	60968.61
577.75	60924.14
577.92	61001.38
578.08	60956.91
578.24	60851.59
578.40	61027.13
578.56	61132.45
578.72	61073.94
578.88	61125.43
579.04	61087.98
579.21	60959.25
579.37	60874.99
579.53	61045.85
579.69	60853.93
579.85	61008.40
580.01	60954.57
580.17	60856.27
580.33	61214.37
580.49	60968.61
580.65	61256.50
580.82	61099.68
580.98	60959.25
581.14	61106.71
581.30	61275.22
581.46	60954.57
581.62	60919.46
581.78	60956.91
581.94	61017.77
582.10	61155.86
582.26	61071.60
582.42	61244.80
582.58	61055.21
582.74	61050.53
582.90	61076.28
583.06	61160.54
583.22	60926.49
583.38	61073.94
583.54	61113.73
583.70	61020.11
583.86	61109.05
584.02	60933.51
584.18	61219.05
584.34	61305.65
584.50	61073.94
584.66	60924.14
584.82	60711.16
584.98	61284.59
585.14	61132.45
585.30	60982.66
585.46	61347.78
585.62	61258.84
585.78	61275.22
585.94	60917.12
586.10	61036.49
586.26	61291.61
586.42	61125.43
586.58	61256.50
586.74	61125.43
586.90	61247.14
587.06	61066.92
587.22	61169.90
587.38	61181.60
587.54	61193.31
587.70	61333.74
587.86	61392.25
588.02	61223.73
588.18	61408.64
588.34	61071.60
