SpectraSuite Data File
++++++++++++++++++++++++++++++++++++
Date: Fri Oct 25 11:25:29 EDT 2013
User: price-jones
Dark Spectrum Present: No
Reference Spectrum Present: No
Number of Sampled Component Spectra: 1
Spectrometers: USB2+H05261
Integration Time (usec): 100000 (USB2+H05261)
Spectra Averaged: 1 (USB2+H05261)
Boxcar Smoothing: 0 (USB2+H05261)
Correct for Electrical Dark: No (USB2+H05261)
Strobe/Lamp Enabled: No (USB2+H05261)
Correct for Detector Non-linearity: No (USB2+H05261)
Correct for Stray Light: No (USB2+H05261)
Number of Pixels in Processed Spectrum: 2048
>>>>>Begin Processed Spectral Data<<<<<
365.73	203.63
365.92	203.63
366.12	203.63
366.32	187.24
366.52	163.84
366.72	205.97
366.91	49.15
367.11	107.66
367.31	100.64
367.51	126.39
367.70	177.88
367.90	189.58
368.10	161.50
368.30	119.37
368.49	42.13
368.69	135.75
368.89	88.94
369.09	227.03
369.28	159.16
369.48	142.77
369.68	203.63
369.87	290.23
370.07	210.65
370.27	210.65
370.47	332.36
370.66	524.28
370.86	674.07
371.06	641.31
371.25	664.71
371.45	678.76
371.65	634.29
371.84	690.46
372.04	709.18
372.24	798.12
372.44	716.20
372.63	748.97
372.83	648.33
373.03	758.33
373.22	685.78
373.42	744.29
373.62	830.89
373.81	753.65
374.01	777.06
374.21	807.48
374.40	807.48
374.60	849.61
374.79	851.96
374.99	837.91
375.19	718.54
375.38	837.91
375.58	830.89
375.78	821.53
375.97	880.04
376.17	922.17
376.37	873.02
376.56	931.53
376.76	814.51
376.95	903.45
377.15	866.00
377.35	933.87
377.54	861.32
377.74	830.89
377.93	978.34
378.13	889.40
378.33	971.32
378.52	936.21
378.72	924.51
378.91	936.21
379.11	980.68
379.31	964.30
379.50	929.19
379.70	990.05
379.89	1043.88
380.09	896.43
380.28	961.96
380.48	1074.31
380.68	978.34
380.87	1060.26
381.07	1057.92
381.26	978.34
381.46	950.26
381.65	1057.92
381.85	1036.86
382.04	1114.10
382.24	1053.24
382.43	1060.26
382.63	992.39
382.83	1086.01
383.02	1142.18
383.22	1214.74
383.41	1083.67
383.61	1053.24
383.80	1153.88
384.00	1071.97
384.19	1083.67
384.39	983.02
384.58	1067.28
384.78	1102.39
384.97	1109.41
385.17	1165.59
385.36	1160.91
385.56	1256.87
385.75	1116.44
385.95	1249.85
386.14	1196.01
386.34	1191.33
386.53	1268.57
386.72	1242.82
386.92	1219.42
387.11	1191.33
387.31	1219.42
387.50	1186.65
387.70	1296.66
387.89	1308.36
388.09	1219.42
388.28	1256.87
388.48	1287.29
388.67	1329.42
388.86	1345.81
389.06	1334.11
389.25	1331.76
389.45	1352.83
389.64	1352.83
389.84	1437.09
390.03	1380.92
390.22	1420.71
390.42	1343.47
390.61	1437.09
390.81	1299.00
391.00	1446.45
391.19	1453.47
391.39	1474.54
391.58	1444.11
391.78	1497.94
391.97	1514.33
392.16	1320.06
392.36	1605.61
392.55	1469.86
392.75	1439.43
392.94	1467.52
393.13	1516.67
393.33	1469.86
393.52	1612.63
393.71	1575.18
393.91	1603.27
394.10	1530.71
394.29	1591.56
394.49	1582.20
394.68	1659.44
394.88	1671.14
395.07	1603.27
395.26	1706.25
395.46	1673.48
395.65	1727.32
395.84	1699.23
396.04	1717.95
396.23	1781.15
396.42	1797.53
396.62	1902.86
396.81	1781.15
397.00	1818.60
397.19	1696.89
397.39	1741.36
397.58	1732.00
397.77	1804.55
397.97	1708.59
398.16	1928.60
398.35	1909.88
398.55	1818.60
398.74	1884.13
398.93	2036.27
399.12	1898.17
399.32	1895.83
399.51	1900.52
399.70	1987.11
399.90	1942.64
400.09	1987.11
400.28	2001.16
400.47	2001.16
400.67	1930.94
400.86	2045.63
401.05	2101.80
401.24	1982.43
401.44	2193.08
401.63	2122.87
401.82	2101.80
402.01	2111.16
402.21	2080.74
402.40	2078.40
402.59	2188.40
402.78	2331.17
402.97	2321.81
403.17	2300.75
403.36	2246.91
403.55	2267.98
403.74	2289.04
403.93	2298.41
404.13	2427.14
404.32	2359.26
404.51	2342.88
404.70	2436.50
404.89	2459.90
405.09	2335.85
405.28	2452.88
405.47	2469.27
405.66	2438.84
405.85	2513.74
406.05	2485.65
406.24	2593.31
406.43	2497.35
406.62	2665.87
406.81	2712.68
407.00	2635.44
407.20	2672.89
407.39	2722.04
407.58	2635.44
407.77	2743.11
407.96	2825.03
408.15	2590.97
408.34	2675.23
408.54	2705.66
408.73	2827.37
408.92	2867.16
409.11	2862.48
409.30	2995.89
409.49	2871.84
409.68	2890.56
409.87	2885.88
410.07	2895.24
410.26	3023.97
410.45	3042.70
410.64	3045.04
410.83	3101.21
411.02	3080.14
411.21	3052.06
411.40	3124.62
411.59	3225.26
411.78	3227.60
411.98	3272.07
412.17	3138.66
412.36	3258.03
412.55	3208.87
412.74	3363.35
412.93	3382.07
413.12	3382.07
413.31	3515.48
413.50	3449.95
413.69	3482.72
413.88	3597.40
414.07	3552.93
414.26	3623.15
414.45	3503.78
414.64	3641.87
414.83	3686.34
415.02	3761.24
415.22	3803.37
415.41	3913.38
415.60	3749.54
415.79	3826.78
415.98	3894.65
416.17	4067.85
416.36	3847.84
416.55	3892.31
416.74	4112.32
416.93	3992.95
417.12	4177.86
417.31	4142.75
417.50	4208.28
417.69	4234.03
417.88	4278.50
418.07	4198.92
418.26	4435.32
418.45	4367.44
418.64	4332.33
418.83	4376.80
419.02	4306.59
419.21	4458.72
419.39	4430.63
419.58	4475.10
419.77	4475.10
419.96	4582.77
420.15	4582.77
420.34	4557.02
420.53	4594.47
420.72	4568.73
420.91	4615.54
421.10	4608.51
421.29	4739.58
421.48	4695.11
421.67	4746.61
421.86	4739.58
422.05	4812.14
422.24	4966.62
422.43	4798.10
422.61	4847.25
422.80	4788.74
422.99	4847.25
423.18	4919.81
423.37	4861.29
423.56	4891.72
423.75	4861.29
423.94	4748.95
424.13	4561.70
424.32	4788.74
424.50	4987.68
424.69	4978.32
424.88	4957.25
425.07	4887.04
425.26	4725.54
425.45	4983.00
425.64	4905.76
425.83	4929.17
426.01	5039.17
426.20	5060.24
426.39	5050.88
426.58	4950.23
426.77	4978.32
426.96	5067.26
427.15	4957.25
427.33	5158.54
427.52	5114.07
427.71	5186.63
427.90	5067.26
428.09	5205.35
428.28	5404.30
428.46	5289.61
428.65	5465.15
428.84	5558.77
429.03	5554.09
429.22	5247.48
429.40	5430.04
429.59	5570.48
429.78	5483.88
429.97	5263.86
430.16	5582.18
430.34	5507.28
430.53	5764.74
430.72	5731.97
430.91	5596.22
431.10	5540.05
431.28	5652.39
431.47	5823.25
431.66	5738.99
431.85	5738.99
432.03	5905.17
432.22	6113.48
432.41	5909.85
432.60	5877.09
432.79	5898.15
432.97	5998.79
433.16	5900.49
433.35	5860.70
433.54	5977.73
433.72	6169.65
433.91	6003.47
434.10	6033.90
434.28	5949.64
434.47	6277.32
434.66	6026.88
434.85	6164.97
435.03	6406.05
435.22	6256.25
435.41	6438.81
435.59	6450.52
435.78	6476.26
435.97	6415.41
436.16	6340.51
436.34	6394.34
436.53	6455.20
436.72	6544.14
436.90	6600.31
437.09	6483.28
437.28	6408.39
437.46	6572.22
437.65	6724.36
437.84	6696.27
438.02	6729.04
438.21	6813.30
438.40	6604.99
438.58	6953.73
438.77	7075.44
438.96	6956.07
439.14	7059.06
439.33	7206.51
439.52	7073.10
439.70	7269.70
439.89	7290.77
440.08	7227.57
440.26	7204.17
440.45	7358.64
440.63	7314.17
440.82	7597.38
441.01	7323.54
441.19	7721.43
441.38	7775.26
441.57	7592.70
441.75	7707.38
441.94	7763.56
442.12	7941.44
442.31	8056.12
442.50	7969.52
442.68	7784.62
442.87	8086.55
443.05	7999.95
443.24	8023.36
443.43	7983.57
443.61	8060.80
443.80	8341.67
443.98	8081.87
444.17	7808.03
444.35	8175.49
444.54	8332.31
444.73	8454.02
444.91	8250.39
445.10	8334.65
445.28	8510.19
445.47	8297.20
445.65	8079.53
445.84	8365.07
446.02	8432.95
446.21	8285.50
446.39	8393.16
446.58	8463.38
446.77	8482.10
446.95	8297.20
447.14	8496.14
447.32	8425.93
447.51	8575.72
447.69	8664.66
447.88	8531.25
448.06	8365.07
448.25	8566.36
448.43	8549.98
448.62	8535.93
448.80	8346.35
448.99	8659.98
449.17	8657.64
449.36	8655.30
449.54	8908.08
449.73	8980.64
449.91	9085.96
450.10	8868.29
450.28	8912.76
450.46	9046.17
450.65	9078.94
450.83	9153.84
451.02	9107.02
451.20	9193.62
451.39	9097.66
451.57	9298.95
451.76	9245.12
451.94	9043.83
452.13	9331.72
452.31	9444.06
452.49	9245.12
452.68	9345.76
452.86	9195.96
453.05	9455.76
453.23	9427.68
453.42	9210.01
453.60	9163.20
453.78	9455.76
453.97	9542.36
454.15	9427.68
454.34	9233.41
454.52	9654.71
454.70	9612.58
454.89	9624.28
455.07	9596.20
455.26	9680.46
455.44	10019.83
455.62	9736.63
455.81	9760.03
455.99	9956.64
456.17	9914.51
456.36	10017.49
456.54	9947.28
456.73	10253.89
456.91	10314.74
457.09	10356.87
457.28	10523.05
457.46	10228.14
457.64	10534.75
457.83	10558.16
458.01	10296.02
458.19	10656.46
458.38	10457.51
458.56	10778.17
458.74	10757.10
458.93	10644.76
459.11	10822.64
459.29	10611.99
459.48	10841.36
459.66	10630.71
459.84	10759.44
460.03	10827.32
460.21	10965.41
460.39	10984.13
460.57	10850.72
460.76	11115.20
460.94	10981.79
461.12	11077.76
461.31	11068.39
461.49	11208.83
461.67	11190.10
461.85	11367.98
462.04	11272.02
462.22	11480.33
462.40	11817.36
462.59	11482.67
462.77	11204.14
462.95	11583.31
463.13	11513.10
463.32	11468.62
463.50	11513.10
463.68	11595.01
463.86	11784.60
464.05	11826.73
464.23	11620.76
464.41	11850.13
464.59	11587.99
464.78	12248.02
464.96	11779.92
465.14	11749.49
465.32	12156.74
465.50	12065.46
465.69	12102.91
465.87	12149.72
466.05	11985.88
466.23	11985.88
466.41	12074.82
466.60	12411.86
466.78	12168.45
466.96	12173.13
467.14	12156.74
467.32	12479.74
467.51	12779.32
467.69	12116.95
467.87	12301.86
468.05	12505.48
468.23	12292.49
468.41	12453.99
468.60	12446.97
468.78	12802.73
468.96	12561.66
469.14	12713.79
469.32	13074.23
469.50	12676.34
469.69	12973.59
469.87	12999.34
470.05	12975.93
470.23	13242.75
470.41	13179.56
470.59	13289.56
470.77	13053.17
470.95	13071.89
471.14	13439.36
471.32	13219.35
471.50	13703.84
471.68	13331.69
471.86	13603.19
472.04	13514.25
472.22	14012.79
472.40	13511.91
472.58	13839.59
472.77	13975.34
472.95	14223.44
473.13	14363.87
473.31	14036.19
473.49	14317.06
473.67	14218.75
473.85	14347.48
474.03	14441.11
474.21	14457.49
474.39	14759.42
474.57	14644.73
474.75	14916.23
474.93	15028.58
475.12	14759.42
475.30	14953.68
475.48	15005.17
475.66	15070.71
475.84	15194.76
476.02	15026.24
476.20	15264.97
476.38	15695.63
476.56	16037.35
476.74	15843.09
476.92	15637.12
477.10	15639.46
477.28	16004.58
477.46	16198.85
477.64	16147.36
477.82	16318.22
478.00	16842.50
478.18	16552.27
478.36	16732.49
478.54	16938.46
478.72	17219.32
478.90	17041.44
479.08	17432.31
479.26	17769.35
479.44	17383.16
479.62	17537.63
479.80	17762.33
479.98	18001.06
480.16	18593.22
480.34	18244.48
480.52	18352.14
480.70	18604.92
480.88	18232.77
481.06	18483.21
481.24	18525.34
481.41	18934.93
481.59	19204.10
481.77	19295.38
481.95	19393.68
482.13	19667.52
482.31	19634.75
482.49	20222.23
482.67	19754.12
482.85	20247.97
483.03	20470.33
483.21	20592.03
483.39	20741.83
483.57	20669.27
483.74	20833.11
483.92	21226.32
484.10	20940.77
484.28	21565.70
484.46	21795.07
484.64	22038.48
484.82	21766.98
485.00	22260.84
485.18	22604.89
485.35	22565.10
485.53	22801.50
485.71	22932.57
485.89	23337.48
486.07	22963.00
486.25	23449.83
486.43	23339.82
486.61	24084.11
486.78	23810.27
486.96	24236.25
487.14	24765.21
487.32	24678.61
487.50	24552.22
487.68	24870.53
487.85	24917.34
488.03	25291.83
488.21	26050.16
488.39	25874.62
488.57	25893.35
488.75	25956.54
488.92	26331.03
489.10	26520.61
489.28	26614.23
489.46	26998.08
489.64	27206.39
489.81	27826.63
489.99	27578.53
490.17	27278.94
490.35	28163.67
490.53	28037.28
490.70	28048.98
490.88	27978.76
491.06	28411.76
491.24	28744.12
491.41	28692.63
491.59	28896.25
491.77	28872.85
491.95	29509.47
492.13	29390.11
492.30	29961.20
492.48	29694.38
492.66	29970.56
492.84	29802.04
493.01	30614.21
493.19	30520.59
493.37	30511.22
493.54	31470.84
493.72	31627.66
493.90	30700.81
494.08	31253.17
494.25	31538.72
494.43	32170.66
494.61	32063.00
494.79	32231.52
494.96	32297.05
495.14	32603.66
495.32	32975.81
495.49	33083.47
495.67	33268.37
495.85	33453.28
496.02	33446.26
496.20	33607.75
496.38	33907.34
496.55	34078.20
496.73	34532.26
496.91	34213.95
497.09	34625.89
497.26	35005.05
497.44	34518.22
497.62	35503.59
497.79	35541.03
497.97	35569.12
498.14	35545.72
498.32	36041.91
498.50	35934.24
498.67	36423.42
498.85	36065.31
499.03	37001.53
499.20	36325.11
499.38	36570.87
499.56	36432.78
499.73	37125.58
499.91	36945.36
500.08	37462.61
500.26	37174.73
500.44	37233.24
500.61	37769.22
500.79	37495.38
500.97	37766.88
501.14	38309.89
501.32	38426.92
501.49	38354.36
501.67	38382.45
501.84	38665.65
502.02	38906.73
502.20	38962.90
502.37	39033.11
502.55	39143.12
502.72	39435.69
502.90	39351.43
503.07	39145.46
503.25	39358.45
503.43	39328.02
503.60	40053.59
503.78	40016.14
503.95	40018.48
504.13	40004.44
504.30	40542.76
504.48	39981.03
504.65	40182.32
504.83	40690.21
505.01	41010.87
505.18	41123.21
505.36	41244.92
505.53	41256.62
505.71	41031.93
505.88	41853.46
506.06	41085.76
506.23	41680.26
506.41	41682.60
506.58	41832.39
506.76	41979.85
506.93	42279.44
507.11	42700.73
507.28	42469.02
507.46	42581.37
507.63	42611.79
507.81	42979.26
507.98	42920.74
508.16	43264.80
508.33	43419.28
508.50	43196.93
508.68	43477.79
508.85	43873.34
509.03	43346.72
509.20	43716.53
509.38	44580.18
509.55	44121.44
509.73	44287.62
509.90	44671.46
510.08	44133.14
510.25	44446.77
510.42	44631.68
510.60	45074.04
510.77	45492.99
510.95	45038.93
511.12	44636.36
511.30	45045.95
511.47	45282.34
511.64	45254.26
511.82	45666.19
511.99	45713.00
512.17	46319.20
512.34	45666.19
512.51	46241.96
512.69	46246.65
512.86	46045.36
513.04	46501.76
513.21	46405.80
513.38	46281.75
513.56	46749.86
513.73	46663.26
513.90	46937.10
514.08	46843.48
514.25	47105.62
514.43	47030.72
514.60	47435.64
514.77	46829.44
514.95	47494.15
515.12	47636.92
515.29	47501.17
515.47	47924.81
515.64	47786.72
515.81	47407.55
515.99	47983.32
516.16	48268.87
516.33	48098.01
516.51	48437.39
516.68	48100.35
516.85	47924.81
517.03	48619.95
517.20	48732.29
517.37	48367.17
517.54	48809.53
517.72	48566.12
517.89	48868.05
518.06	48996.77
518.24	48828.26
518.41	49027.20
518.58	49057.63
518.75	49074.01
518.93	49593.61
519.10	49434.45
519.27	49661.49
519.45	49684.89
519.62	49654.47
519.79	49951.71
519.96	49869.79
520.14	50251.30
520.31	50024.27
520.48	50101.51
520.65	49844.05
520.83	50361.31
521.00	50581.32
521.17	50569.61
521.34	50508.76
521.52	50733.45
521.69	50951.12
521.86	50808.35
522.03	50969.85
522.20	50761.54
522.38	50845.80
522.55	51150.07
522.72	51323.27
522.89	51112.62
523.07	51508.17
523.24	51138.36
523.41	51428.59
523.58	51552.64
523.75	51519.87
523.92	51681.37
524.10	51732.86
524.27	52046.49
524.44	51767.97
524.61	52018.41
524.78	51966.91
524.96	52186.92
525.13	52327.36
525.30	52240.76
525.47	52233.74
525.64	52226.71
525.81	52502.90
525.98	52444.38
526.16	52245.44
526.33	52516.94
526.50	52961.64
526.67	52505.24
526.84	52954.62
527.01	52481.83
527.18	52762.70
527.36	52966.32
527.53	52617.58
527.70	53303.36
527.87	53312.72
528.04	53073.99
528.21	53146.54
528.38	53120.80
528.55	53354.85
528.72	53057.60
528.89	53467.20
529.07	53200.38
529.24	53169.95
529.41	53572.52
529.58	53502.31
529.75	53532.73
529.92	53710.61
530.09	53530.39
530.26	53813.60
530.43	53799.55
530.60	53455.50
530.77	53867.43
530.94	53811.26
531.11	53827.64
531.28	54021.90
531.46	53996.16
531.63	54096.80
531.80	54347.24
531.97	54412.77
532.14	54471.29
532.31	54279.36
532.48	54461.93
532.65	54494.69
532.82	54485.33
532.99	54417.46
533.16	54358.94
533.33	54653.85
533.50	54810.67
533.67	54756.83
533.84	54560.23
534.01	54925.35
534.18	55018.97
534.35	55011.95
534.52	55164.09
534.69	54979.18
534.86	55194.51
535.03	54988.55
535.20	55049.40
535.37	55004.93
535.54	55461.33
535.71	55250.69
535.88	55192.17
536.05	55178.13
536.22	55262.39
536.38	55449.63
536.55	55269.41
536.72	55437.93
536.89	55372.39
537.06	55405.16
537.23	55812.41
537.40	55304.52
537.57	55791.35
537.74	55695.39
537.91	55817.10
538.08	55711.77
538.25	55632.19
538.42	55833.48
538.59	55828.80
538.75	55765.60
538.92	55817.10
539.09	55908.38
539.26	55934.12
539.43	56081.58
539.60	56264.14
539.77	55906.04
539.94	56156.47
540.11	56273.50
540.28	56233.71
540.44	56399.89
540.61	56287.54
540.78	56261.80
540.95	56451.38
541.12	56243.07
541.29	56385.85
541.46	56339.04
541.62	56542.66
541.79	56516.92
541.96	56339.04
542.13	56690.12
542.30	56460.74
542.47	56615.22
542.63	56694.80
542.80	56776.72
542.97	56839.91
543.14	57226.10
543.31	56935.87
543.48	57263.55
543.64	57251.84
543.81	57125.46
543.98	57200.35
544.15	57354.83
544.32	57308.02
544.48	57303.34
544.65	57139.50
544.82	57366.53
544.99	57190.99
545.16	57469.51
545.32	57441.43
545.49	57572.50
545.66	57485.90
545.83	57513.98
546.00	57626.33
546.16	57535.05
546.33	57478.88
546.50	57308.02
546.67	57705.91
546.83	57333.76
547.00	57537.39
547.17	57490.58
547.34	57851.02
547.50	58108.48
547.67	57689.52
547.84	57769.10
548.00	58120.18
548.17	58295.72
548.34	57949.32
548.51	58188.06
548.67	57876.77
548.84	58066.35
549.01	57694.21
549.18	58298.06
549.34	57944.64
549.51	57869.75
549.68	58281.68
549.84	57986.77
550.01	58319.13
550.18	58284.02
550.34	58361.26
550.51	58300.40
550.68	58461.90
550.84	58056.99
551.01	58440.84
551.18	58394.03
551.34	58340.19
551.51	58660.85
551.68	58489.99
551.84	58585.95
552.01	58440.84
552.18	58576.59
552.34	58497.01
552.51	58583.61
552.68	58480.63
552.84	58309.77
553.01	58773.19
553.18	58609.35
553.34	58646.80
553.51	58473.60
553.67	58871.49
553.84	58845.75
554.01	58901.92
554.17	59032.99
554.34	58911.28
554.51	58822.34
554.67	58820.00
554.84	58913.62
555.00	58927.67
555.17	58925.33
555.33	58967.46
555.50	58965.12
555.67	58777.87
555.83	58941.71
556.00	59084.48
556.16	59388.75
556.33	59154.70
556.50	58930.01
556.66	59035.33
556.83	58932.35
556.99	59377.05
557.16	59430.88
557.32	59192.15
557.49	59437.90
557.65	59267.05
557.82	59243.64
557.98	59341.94
558.15	59264.70
558.32	59372.37
558.48	59309.18
558.65	59374.71
558.81	59491.74
558.98	59365.35
559.14	59526.84
559.31	59311.52
559.47	59517.48
559.64	59554.93
559.80	59632.17
559.97	59798.35
560.13	59545.57
560.30	59484.72
560.46	59592.38
560.63	59833.46
560.79	59583.02
560.96	59936.44
561.12	59550.25
561.29	59835.80
561.45	59641.53
561.61	59622.81
561.78	59573.66
561.94	59770.26
562.11	59728.13
562.27	59599.40
562.44	59845.16
562.60	60023.04
562.77	59784.30
562.93	59646.21
563.10	59852.18
563.26	59908.35
563.42	59999.63
563.59	59952.82
563.75	59744.51
563.92	60009.00
564.08	59847.50
564.24	59920.05
564.41	59859.20
564.57	59987.93
564.74	59992.61
564.90	60119.00
565.07	59831.11
565.23	59952.82
565.39	60097.94
565.56	60151.77
565.72	60048.78
565.88	59929.42
566.05	60137.72
566.21	59950.48
566.38	60004.31
566.54	60205.60
566.70	60346.03
566.87	60273.48
567.03	59924.74
567.19	60238.37
567.36	60240.71
567.52	60182.19
567.68	60451.36
567.85	60072.19
568.01	60441.99
568.17	60198.58
568.34	60310.92
568.50	60378.80
568.66	60219.64
568.83	60406.89
568.99	60336.67
569.15	60416.25
569.32	60392.84
569.48	60416.25
569.64	60381.14
569.81	60364.76
569.97	60210.28
570.13	60287.52
570.30	60250.07
570.46	60168.15
570.62	60427.95
570.78	60346.03
570.95	60481.78
571.11	60537.96
571.27	60289.86
571.43	60339.01
571.60	60317.95
571.76	60392.84
571.92	60603.49
572.09	60463.06
572.25	60479.44
572.41	60523.91
572.57	60451.36
572.74	60697.11
572.90	60439.65
573.06	60486.46
573.22	60526.25
573.38	60647.96
573.55	60425.61
573.71	60575.40
573.87	60690.09
574.03	60427.95
574.20	60762.65
574.36	60411.57
574.52	60552.00
574.68	60582.43
574.84	60846.91
575.01	60603.49
575.17	60617.53
575.33	60486.46
575.49	60500.51
575.65	60823.50
575.82	60706.47
575.98	60706.47
576.14	60757.97
576.30	60601.15
576.46	60601.15
576.62	60699.45
576.79	60549.66
576.95	60561.36
577.11	60645.62
577.27	60640.94
577.43	60694.77
577.59	60591.79
577.75	60556.68
577.92	60837.54
578.08	60519.23
578.24	60694.77
578.40	60933.51
578.56	60926.49
578.72	60603.49
578.88	60828.18
579.04	60809.46
579.21	60867.97
579.37	60896.06
579.53	60853.93
579.69	60676.05
579.85	60629.24
580.01	60603.49
580.17	60776.69
580.33	60928.83
580.49	60774.35
580.65	60860.95
580.82	60823.50
580.98	60781.37
581.14	60603.49
581.30	60851.59
581.46	60804.78
581.62	60889.04
581.78	60711.16
581.94	60959.25
582.10	60860.95
582.26	60804.78
582.42	60804.78
582.58	60860.95
582.74	60779.03
582.90	60867.97
583.06	60856.27
583.22	60692.43
583.38	60905.42
583.54	60886.70
583.70	60999.04
583.86	60949.89
584.02	60818.82
584.18	60910.10
584.34	60884.36
584.50	60844.57
584.66	60818.82
584.82	60713.50
584.98	61010.74
585.14	60931.17
585.30	60856.27
585.46	61041.17
585.62	60940.53
585.78	61043.51
585.94	60659.66
586.10	60917.12
586.26	60952.23
586.42	61038.83
586.58	61066.92
586.74	60989.68
586.90	60804.78
587.06	60886.70
587.22	60903.08
587.38	60860.95
587.54	60963.93
587.70	61024.79
587.86	61013.08
588.02	60839.89
588.18	61099.68
588.34	60790.73
588.49	60924.14
