SpectraSuite Data File
++++++++++++++++++++++++++++++++++++
Date: Fri Oct 25 10:47:41 EDT 2013
User: price-jones
Dark Spectrum Present: No
Reference Spectrum Present: No
Number of Sampled Component Spectra: 1
Spectrometers: USB2+H05261
Integration Time (usec): 100000 (USB2+H05261)
Spectra Averaged: 1 (USB2+H05261)
Boxcar Smoothing: 0 (USB2+H05261)
Correct for Electrical Dark: No (USB2+H05261)
Strobe/Lamp Enabled: No (USB2+H05261)
Correct for Detector Non-linearity: No (USB2+H05261)
Correct for Stray Light: No (USB2+H05261)
Number of Pixels in Processed Spectrum: 2048
>>>>>Begin Processed Spectral Data<<<<<
365.73	126.39
365.92	126.39
366.12	126.39
366.32	9.36
366.52	77.24
366.72	77.24
366.91	11.70
367.11	0.00
367.31	0.00
367.51	84.26
367.70	88.94
367.90	65.54
368.10	100.64
368.30	37.45
368.49	88.94
368.69	42.13
368.89	0.00
369.09	4.68
369.28	0.00
369.48	77.24
369.68	56.17
369.87	140.43
370.07	149.79
370.27	91.28
370.47	170.86
370.66	360.44
370.86	409.59
371.06	374.49
371.25	425.98
371.45	442.36
371.65	418.96
371.84	493.85
372.04	454.06
372.24	484.49
372.44	468.11
372.63	477.47
372.83	510.24
373.03	507.90
373.22	528.96
373.42	491.51
373.62	458.74
373.81	472.79
374.01	573.43
374.21	566.41
374.40	547.69
374.60	580.45
374.79	575.77
374.99	454.06
375.19	517.26
375.38	512.58
375.58	580.45
375.78	559.39
375.97	638.97
376.17	620.24
376.37	559.39
376.56	655.35
376.76	587.47
376.95	540.66
377.15	631.94
377.35	660.03
377.54	678.76
377.74	622.58
377.93	582.79
378.13	585.13
378.33	650.67
378.52	643.65
378.72	662.37
378.91	713.86
379.11	575.77
379.31	550.03
379.50	594.50
379.70	627.26
379.89	723.23
380.09	610.88
380.28	585.13
380.48	676.41
380.68	608.54
380.87	610.88
381.07	662.37
381.26	648.33
381.46	617.90
381.65	603.86
381.85	613.22
382.04	643.65
382.24	709.18
382.43	650.67
382.63	589.82
382.83	676.41
383.02	622.58
383.22	716.20
383.41	716.20
383.61	706.84
383.80	767.70
384.00	781.74
384.19	851.96
384.39	683.44
384.58	748.97
384.78	840.25
384.97	807.48
385.17	718.54
385.36	800.46
385.56	716.20
385.75	774.72
385.95	858.98
386.14	718.54
386.34	706.84
386.53	791.10
386.72	727.91
386.92	844.93
387.11	898.77
387.31	880.04
387.50	814.51
387.70	821.53
387.89	809.83
388.09	851.96
388.28	795.78
388.48	873.02
388.67	802.80
388.86	929.19
389.06	868.34
389.25	910.47
389.45	835.57
389.64	863.66
389.84	929.19
390.03	968.98
390.22	847.27
390.42	938.55
390.61	971.32
390.81	938.55
391.00	987.71
391.19	903.45
391.39	926.85
391.58	901.11
391.78	1015.79
391.97	891.74
392.16	1015.79
392.36	971.32
392.55	952.60
392.75	1036.86
392.94	990.05
393.13	1004.09
393.33	999.41
393.52	908.13
393.71	1118.78
393.91	1034.52
394.10	1006.43
394.29	1015.79
394.49	1093.03
394.68	1100.05
394.88	1186.65
395.07	1149.20
395.26	1104.73
395.46	1109.41
395.65	1135.16
395.84	1137.50
396.04	1214.74
396.23	1071.97
396.42	1114.10
396.62	1076.65
396.81	1160.91
397.00	1139.84
397.19	1231.12
397.39	1186.65
397.58	1235.80
397.77	1233.46
397.97	1350.49
398.16	1205.38
398.35	1331.76
398.55	1282.61
398.74	1287.29
398.93	1235.80
399.12	1373.89
399.32	1331.76
399.51	1291.98
399.70	1441.77
399.90	1394.96
400.09	1432.41
400.28	1420.71
400.47	1371.55
400.67	1341.13
400.86	1369.21
401.05	1474.54
401.24	1453.47
401.44	1542.41
401.63	1519.01
401.82	1329.42
402.01	1481.56
402.21	1462.83
402.40	1533.05
402.59	1577.52
402.78	1507.30
402.97	1528.37
403.17	1629.01
403.36	1479.22
403.55	1624.33
403.74	1741.36
403.93	1727.32
404.13	1612.63
404.32	1598.59
404.51	1692.21
404.70	1710.93
404.89	1626.67
405.09	1907.54
405.28	1605.61
405.47	1713.27
405.66	1760.08
405.85	1797.53
406.05	1732.00
406.24	1717.95
406.43	1795.19
406.62	1858.39
406.81	1921.58
407.00	1816.26
407.20	1813.92
407.39	1856.04
407.58	1863.07
407.77	1872.43
407.96	1949.67
408.15	1881.79
408.34	1846.68
408.54	1933.28
408.73	1907.54
408.92	1961.37
409.11	2062.01
409.30	2045.63
409.49	2071.37
409.68	1940.30
409.87	1954.35
410.07	2078.40
410.26	2127.55
410.45	2113.50
410.64	2087.76
410.83	2139.25
411.02	2260.96
411.21	2172.02
411.40	2275.00
411.59	2228.19
411.78	2328.83
411.98	2291.38
412.17	2389.69
412.36	2429.48
412.55	2333.51
412.74	2513.74
412.93	2394.37
413.12	2319.47
413.31	2502.03
413.50	2431.82
413.69	2534.80
413.88	2623.74
414.07	2401.39
414.26	2516.08
414.45	2605.02
414.64	2651.83
414.83	2654.17
415.02	2668.21
415.22	2693.96
415.41	2752.47
415.60	2710.34
415.79	2794.60
415.98	2888.22
416.17	2892.90
416.36	2937.37
416.55	2778.22
416.74	2930.35
416.93	2822.69
417.12	2853.11
417.31	2939.71
417.50	3038.02
417.69	3087.17
417.88	2904.60
418.07	3096.53
418.26	3030.99
418.45	3117.59
418.64	3183.13
418.83	3204.19
419.02	3059.08
419.21	3073.12
419.39	3124.62
419.58	3155.04
419.77	3192.49
419.96	3201.85
420.15	3220.58
420.34	3358.67
420.53	3222.92
420.72	3396.12
420.91	3438.25
421.10	3405.48
421.29	3414.84
421.48	3269.73
421.67	3424.20
421.86	3447.61
422.05	3318.88
422.24	3398.46
422.43	3475.70
422.61	3468.67
422.80	3496.76
422.99	3478.04
423.18	3557.61
423.37	3534.21
423.56	3447.61
423.75	3412.50
423.94	3445.27
424.13	3241.64
424.32	3295.47
424.50	3578.68
424.69	3588.04
424.88	3576.34
425.07	3456.97
425.26	3496.76
425.45	3599.74
425.64	3531.87
425.83	3428.88
426.01	3632.51
426.20	3433.57
426.39	3550.59
426.58	3466.33
426.77	3639.53
426.96	3625.49
427.15	3721.45
427.33	3674.64
427.52	3559.95
427.71	3660.60
427.90	3782.31
428.09	3777.62
428.28	3616.13
428.46	3684.00
428.65	3735.50
428.84	3765.92
429.03	3761.24
429.22	3667.62
429.40	3775.28
429.59	3824.44
429.78	3648.90
429.97	3674.64
430.16	3667.62
430.34	3742.52
430.53	3915.72
430.72	3899.33
430.91	3794.01
431.10	3981.25
431.28	4147.43
431.47	4154.45
431.66	4098.28
431.85	4039.76
432.03	4210.62
432.22	4105.30
432.41	4264.46
432.60	4219.99
432.79	4187.22
432.97	4252.75
433.16	4088.92
433.35	4166.15
433.54	4231.69
433.72	4259.78
433.91	4348.72
434.10	4166.15
434.28	4215.30
434.47	4196.58
434.66	4362.76
434.85	4383.82
435.03	4517.23
435.22	4554.68
435.41	4514.89
435.59	4573.41
435.78	4496.17
435.97	4475.10
436.16	4505.53
436.34	4557.02
436.53	4568.73
436.72	4716.18
436.90	4650.64
437.09	4667.03
437.28	4489.15
437.46	4692.77
437.65	4685.75
437.84	4755.97
438.02	4774.69
438.21	4727.88
438.40	4688.09
438.58	4786.40
438.77	4887.04
438.96	4835.55
439.14	4999.38
439.33	5102.37
439.52	5055.56
439.70	4983.00
439.89	4975.98
440.08	5074.28
440.26	5149.18
440.45	5004.07
440.63	5170.24
440.82	5317.70
441.01	5289.61
441.19	5338.76
441.38	5392.59
441.57	5434.72
441.75	5490.90
441.94	5636.01
442.12	5612.60
442.31	5577.50
442.50	5596.22
442.68	5657.07
442.87	5570.48
443.05	5589.20
443.24	5600.90
443.43	5685.16
443.61	5647.71
443.80	5870.06
443.98	5603.24
444.17	5493.24
444.35	5841.98
444.54	5870.06
444.73	5804.53
444.91	5720.27
445.10	5799.85
445.28	5795.17
445.47	5668.78
445.65	5757.72
445.84	5907.51
446.02	5905.17
446.21	5907.51
446.39	5895.81
446.58	5909.85
446.77	5909.85
446.95	5860.70
447.14	5973.05
447.32	5959.00
447.51	5933.26
447.69	5909.85
447.88	6012.84
448.06	5966.03
448.25	5961.34
448.43	6108.80
448.62	5982.41
448.80	5888.79
448.99	6092.41
449.17	6033.90
449.36	6022.20
449.54	6153.27
449.73	6204.76
449.91	6354.55
450.10	6487.96
450.28	6396.68
450.46	6464.56
450.65	6361.58
450.83	6406.05
451.02	6291.36
451.20	6469.24
451.39	6434.13
451.57	6307.74
451.76	6321.79
451.94	6541.80
452.13	6436.47
452.31	6450.52
452.49	6424.77
452.68	6450.52
452.86	6406.05
453.05	6656.48
453.23	6672.87
453.42	6487.96
453.60	6539.46
453.78	6658.82
453.97	6590.95
454.15	6375.62
454.34	6604.99
454.52	6771.17
454.70	6654.14
454.89	6885.86
455.07	6686.91
455.26	6829.68
455.44	6834.36
455.62	6829.68
455.81	6892.88
455.99	7068.42
456.17	6930.33
456.36	7042.67
456.54	6939.69
456.73	7124.59
456.91	7286.09
457.09	7138.63
457.28	7503.76
457.46	7243.96
457.64	7250.98
457.83	7243.96
458.01	7241.62
458.19	7442.90
458.38	7358.64
458.56	7550.57
458.74	7447.58
458.93	7360.98
459.11	7449.93
459.29	7417.16
459.48	7527.16
459.66	7412.48
459.84	7513.12
460.03	7735.47
460.21	7641.85
460.39	7653.55
460.57	7597.38
460.76	7524.82
460.94	7665.25
461.12	7791.64
461.31	7756.54
461.49	7655.89
461.67	7620.78
461.85	7691.00
462.04	7833.77
462.22	8262.09
462.40	8084.21
462.59	7936.76
462.77	7978.89
462.95	7892.29
463.13	7857.18
463.32	7983.57
463.50	8114.64
463.68	8259.75
463.86	8156.77
464.05	7920.37
464.23	7936.76
464.41	8189.53
464.59	8060.80
464.78	8393.16
464.96	8124.00
465.14	8140.38
465.32	8545.30
465.50	8360.39
465.69	8425.93
465.87	8332.31
466.05	8280.82
466.23	8280.82
466.41	8259.75
466.60	8561.68
466.78	8079.53
466.96	8411.89
467.14	8367.42
467.32	8477.42
467.51	8503.17
467.69	8322.94
467.87	8470.40
468.05	8503.17
468.23	8557.00
468.41	8374.44
468.60	8655.30
468.78	8706.79
468.96	8676.37
469.14	8753.60
469.32	8662.32
469.50	8552.32
469.69	8816.80
469.87	8917.44
470.05	9029.79
470.23	8973.61
470.41	8758.28
470.59	8992.34
470.77	9095.32
470.95	9015.74
471.14	9317.67
471.32	8971.27
471.50	9078.94
471.68	9415.98
471.86	9465.13
472.04	9432.36
472.22	9565.77
472.40	9256.82
472.58	9369.16
472.77	9483.85
472.95	9558.75
473.13	9926.21
473.31	9558.75
473.49	9413.63
473.67	9802.16
473.85	9525.98
474.03	9692.16
474.21	9874.72
474.39	9923.87
474.57	10047.92
474.75	10017.49
474.93	10279.63
475.12	10094.73
475.30	10286.65
475.48	10132.18
475.66	10312.40
475.84	10284.31
476.02	10164.95
476.20	10298.36
476.38	10558.16
476.56	10796.89
476.74	10413.04
476.92	10609.65
477.10	10757.10
477.28	10925.62
477.46	10700.93
477.64	11143.29
477.82	11133.93
478.00	11475.65
478.18	11272.02
478.36	11302.45
478.54	11438.20
478.72	11527.14
478.90	11819.71
479.08	11761.19
479.26	11943.75
479.44	11955.46
479.62	12191.85
479.80	12152.06
479.98	12416.54
480.16	12444.63
480.34	12149.72
480.52	12650.60
480.70	12423.56
480.88	12367.39
481.06	12566.34
481.24	12517.18
481.41	12812.09
481.59	13029.76
481.77	13036.78
481.95	13114.02
482.13	13167.85
482.31	13149.13
482.49	13514.25
482.67	13532.98
482.85	13589.15
483.03	13825.54
483.21	13703.84
483.39	14090.02
483.57	14005.77
483.74	13975.34
483.92	14218.75
484.10	14022.15
484.28	14267.91
484.46	14640.05
484.64	14850.70
484.82	14611.96
485.00	14782.82
485.18	15000.49
485.35	15080.07
485.53	14796.87
485.71	14909.21
485.89	15501.37
486.07	15513.07
486.25	15084.75
486.43	15623.08
486.61	15513.07
486.78	15686.27
486.96	16032.67
487.14	16030.33
487.32	16231.62
487.50	16285.45
487.68	16390.77
487.85	16697.38
488.03	17041.44
488.21	16959.52
488.39	17046.12
488.57	17062.51
488.75	17121.02
488.92	17425.29
489.10	17315.28
489.28	17612.53
489.46	17942.55
489.64	17858.29
489.81	18403.63
489.99	18181.28
490.17	18401.29
490.35	18616.62
490.53	18630.66
490.70	18904.51
490.88	18743.01
491.06	19082.39
491.24	18874.08
491.41	18691.52
491.59	19384.32
491.77	19136.22
491.95	19564.54
492.13	19496.66
492.30	19789.23
492.48	19934.34
492.66	19887.53
492.84	20203.50
493.01	20304.15
493.19	20147.33
493.37	20470.33
493.54	20393.09
493.72	20547.56
493.90	20545.22
494.08	20985.24
494.25	21092.91
494.43	21324.62
494.61	21504.84
494.79	21266.11
494.96	21275.47
495.14	21429.94
495.32	21612.51
495.49	21699.11
495.67	21886.35
495.85	21982.31
496.02	22256.15
496.20	21933.16
496.38	22377.86
496.55	22602.55
496.73	23098.75
496.91	22560.42
497.09	22899.80
497.26	23264.92
497.44	23096.41
497.62	23206.41
497.79	23168.96
497.97	23089.38
498.14	23634.73
498.32	23599.62
498.50	23747.08
498.67	23758.78
498.85	23814.95
499.03	24201.14
499.20	23838.36
499.38	24109.86
499.56	24346.25
499.73	24297.10
499.91	24671.59
500.08	24561.58
500.26	24320.51
500.44	24634.14
500.61	24933.73
500.79	24812.02
500.97	24685.63
501.14	25125.65
501.32	25319.92
501.49	25025.01
501.67	25296.51
501.84	25179.48
502.02	25497.80
502.20	25245.02
502.37	25446.30
502.55	25486.09
502.72	25825.47
502.90	25865.26
503.07	25947.18
503.25	25933.14
503.43	26181.23
503.60	26061.87
503.78	26370.82
503.95	26349.75
504.13	26183.57
504.30	26347.41
504.48	26457.42
504.65	26644.66
504.83	26831.90
505.01	26850.63
505.18	26726.58
505.36	27278.94
505.53	26883.39
505.71	26974.67
505.88	27393.63
506.06	27023.83
506.23	27395.97
506.41	27213.41
506.58	27463.85
506.76	27489.59
506.93	27768.12
507.11	27433.42
507.28	27447.46
507.46	27353.84
507.63	27821.95
507.81	28030.26
507.98	27931.95
508.16	28346.23
508.33	28245.58
508.50	28322.82
508.68	28781.57
508.85	28699.65
509.03	28692.63
509.20	28755.82
509.38	29376.06
509.55	28994.56
509.73	29156.05
509.90	28863.49
510.08	28865.83
510.25	29017.96
510.42	29048.39
510.60	29387.77
510.77	29376.06
510.95	29649.91
511.12	29570.33
511.30	29752.89
511.47	29851.19
511.64	29710.76
511.82	30148.44
511.99	29862.90
512.17	29876.94
512.34	29631.18
512.51	30141.42
512.69	30438.67
512.86	30541.65
513.04	30651.66
513.21	30326.32
513.38	30459.73
513.56	30817.83
513.73	30520.59
513.90	31030.82
514.08	30948.90
514.25	31194.66
514.43	31002.74
514.60	30754.64
514.77	30848.26
514.95	31070.61
515.12	31112.74
515.29	31435.74
515.47	31433.39
515.64	31505.95
515.81	31166.57
515.99	31651.06
516.16	31920.23
516.33	31316.37
516.51	32041.93
516.68	31405.31
516.85	31168.91
517.03	31501.27
517.20	31754.05
517.37	32039.59
517.54	31983.42
517.72	32107.47
517.89	32126.19
518.06	31761.07
518.24	32339.18
518.41	31814.90
518.58	32259.60
518.75	32189.39
518.93	32758.14
519.10	32315.78
519.27	32631.75
519.45	32889.21
519.62	33097.52
519.79	33029.64
519.96	32980.49
520.14	33652.22
520.31	33158.37
520.48	33055.39
520.65	33509.45
520.83	33610.09
521.00	33670.95
521.17	33420.51
521.34	33706.05
521.52	33574.98
521.69	33902.66
521.86	33659.24
522.03	33993.94
522.20	34134.37
522.38	34148.42
522.55	34092.24
522.72	33771.59
522.89	34373.11
523.07	34220.97
523.24	34405.88
523.41	34492.47
523.58	34466.73
523.75	34969.94
523.92	34948.88
524.10	35131.44
524.27	34675.04
524.44	34660.99
524.61	34761.64
524.78	35101.01
524.96	34960.58
525.13	34979.31
525.30	35473.16
525.47	35416.99
525.64	35049.52
525.81	35065.91
525.98	35306.98
526.16	35335.07
526.33	35419.33
526.50	35552.74
526.67	35007.39
526.84	35299.96
527.01	35526.99
527.18	35552.74
527.36	35901.48
527.53	35882.75
527.70	36257.24
527.87	35995.10
528.04	36006.80
528.21	35878.07
528.38	35723.60
528.55	36121.49
528.72	36514.70
528.89	36687.90
529.07	36348.52
529.24	35927.22
529.41	36418.74
529.58	35962.33
529.75	36168.30
529.92	36912.59
530.09	36449.16
530.26	36903.23
530.43	36774.50
530.60	36123.83
530.77	37050.68
530.94	36945.36
531.11	37165.37
531.28	37209.84
531.46	36978.12
531.63	37006.21
531.80	36708.96
531.97	37345.59
532.14	37345.59
532.31	36905.57
532.48	37432.19
532.65	37464.96
532.82	37825.40
532.99	37352.61
533.16	37221.54
533.33	37724.75
533.50	37762.20
533.67	37352.61
533.84	37392.40
534.01	37687.31
534.18	37780.93
534.35	38148.39
534.52	37816.04
534.69	37776.25
534.86	38040.73
535.03	37935.40
535.20	38143.71
535.37	38536.92
535.54	38291.16
535.71	38143.71
535.88	38019.66
536.05	38550.96
536.22	38457.34
536.38	38082.86
536.55	38534.58
536.72	38363.72
536.89	38387.13
537.06	38527.56
537.23	38939.49
537.40	38529.90
537.57	38752.25
537.74	38630.54
537.91	39138.44
538.08	38817.78
538.25	38679.69
538.42	38691.40
538.59	39512.92
538.75	38466.70
538.92	38946.51
539.09	39765.70
539.26	39337.38
539.43	39477.82
539.60	39203.97
539.77	39016.73
539.94	38897.36
540.11	39075.24
540.28	39012.05
540.44	39070.56
540.61	39367.81
540.78	39328.02
540.95	39562.08
541.12	39185.25
541.29	39449.73
541.46	39461.43
541.62	39807.83
541.79	39723.57
541.96	38937.15
542.13	39625.27
542.30	40407.01
542.47	39786.77
542.63	39697.83
542.80	40444.46
542.97	40545.10
543.14	40474.88
543.31	39962.31
543.48	40399.99
543.64	41200.45
543.81	40701.92
543.98	40498.29
544.15	40208.06
544.32	40779.15
544.48	40767.45
544.65	40587.23
544.82	41235.56
544.99	40474.88
545.16	41233.22
545.32	40865.75
545.49	40959.38
545.66	40477.22
545.83	41020.23
546.00	41172.36
546.16	40760.43
546.33	41226.20
546.50	41045.97
546.67	41076.40
546.83	40287.64
547.00	41064.70
547.17	41188.75
547.34	41333.86
547.50	41263.64
547.67	41684.94
547.84	41368.97
548.00	41642.81
548.17	41855.80
548.34	41172.36
548.51	41457.91
548.67	41153.64
548.84	42038.36
549.01	41413.44
549.18	41811.33
549.34	41673.24
549.51	41600.68
549.68	41846.44
549.84	41750.48
550.01	42092.19
550.18	41696.64
550.34	41942.40
550.51	41392.37
550.68	41947.08
550.84	41343.22
551.01	41787.92
551.18	41743.45
551.34	42340.29
551.51	42202.20
551.68	42190.50
551.84	42583.71
552.01	42227.95
552.18	41804.31
552.34	41989.21
552.51	42176.45
552.68	42501.79
552.84	42246.67
553.01	42445.62
553.18	42340.29
553.34	42567.32
553.51	41890.91
553.67	42323.91
553.84	42696.05
554.01	42693.71
554.17	42572.00
554.34	42506.47
554.51	42742.86
554.67	42672.65
554.84	42494.77
555.00	42689.03
555.17	42431.57
555.33	42670.31
555.50	42337.95
555.67	42651.58
555.83	42698.39
556.00	42789.67
556.16	43409.92
556.33	43370.13
556.50	43005.00
556.66	42820.10
556.83	42810.74
556.99	42997.98
557.16	42817.76
557.32	43140.75
557.49	43182.88
557.65	42590.73
557.82	42878.61
557.98	42946.49
558.15	43391.19
558.32	43487.15
558.48	43051.81
558.65	42925.42
558.81	43178.20
558.98	43517.58
559.14	43271.82
559.31	43313.95
559.47	43260.12
559.64	43529.28
559.80	43590.14
559.97	43768.02
560.13	42728.82
560.30	43243.74
560.46	42944.15
560.63	43316.29
560.79	43445.02
560.96	43732.91
561.12	43367.79
561.29	43339.70
561.45	43679.08
561.61	43896.75
561.78	43629.93
561.94	43290.55
562.11	43737.59
562.27	43622.90
562.44	43274.16
562.60	43540.99
562.77	43707.16
562.93	43690.78
563.10	43854.62
563.26	43461.41
563.42	43477.79
563.59	43938.88
563.75	43309.27
563.92	43587.80
564.08	44121.44
564.24	44102.71
564.41	43531.62
564.57	44065.27
564.74	44030.16
564.90	44353.15
565.07	43751.63
565.23	43959.94
565.39	43751.63
565.56	44032.50
565.72	44034.84
565.88	44016.11
566.05	43601.84
566.21	43548.01
566.38	43812.49
566.54	43765.68
566.70	44439.75
566.87	44271.23
567.03	43791.42
567.19	44327.41
567.36	44079.31
567.52	44140.16
567.68	44282.94
567.85	43910.79
568.01	43917.81
568.17	43973.98
568.34	44388.26
568.50	43522.26
568.66	43936.54
568.83	44114.42
568.99	43344.38
569.15	43915.47
569.32	44381.24
569.48	44147.18
569.64	44381.24
569.81	44170.59
569.97	43838.23
570.13	43681.42
570.30	43770.36
570.46	43840.57
570.62	43908.45
570.78	43981.01
570.95	44062.93
571.11	44133.14
571.27	44453.79
571.43	44121.44
571.60	44332.09
571.76	44273.57
571.92	44243.15
572.09	44137.82
572.25	44119.10
572.41	44357.83
572.57	44509.97
572.74	44758.06
572.90	44144.84
573.06	44334.43
573.22	44528.69
573.38	44657.42
573.55	44364.85
573.71	44629.34
573.87	44414.01
574.03	44355.49
574.20	44144.84
574.36	44259.53
574.52	44444.43
574.68	44863.39
574.84	44458.48
575.01	44364.85
575.17	44322.72
575.33	44175.27
575.49	44390.60
575.65	44739.34
575.82	44631.68
575.98	44648.06
576.14	44903.18
576.30	44493.58
576.46	44037.18
576.62	43885.04
576.79	44285.28
576.95	44311.02
577.11	44044.20
577.27	44835.30
577.43	44495.92
577.59	44460.82
577.75	44711.25
577.92	44201.02
578.08	44327.41
578.24	44318.04
578.40	44395.28
578.56	44514.65
578.72	44357.83
578.88	44807.22
579.04	44858.71
579.21	44486.56
579.37	44240.81
579.53	44584.86
579.69	44081.65
579.85	44442.09
580.01	44322.72
580.17	44285.28
580.33	44760.40
580.49	44486.56
580.65	44531.03
580.82	44439.75
580.98	44346.13
581.14	44385.92
581.30	45078.72
581.46	44374.22
581.62	44624.65
581.78	44538.05
581.94	44664.44
582.10	44851.69
582.26	44343.79
582.42	44589.55
582.58	44479.54
582.74	44311.02
582.90	44402.30
583.06	44945.31
583.22	44748.70
583.38	44966.37
583.54	44474.86
583.70	44507.63
583.86	44638.70
584.02	44474.86
584.18	44463.16
584.34	44884.45
584.50	44708.91
584.66	44463.16
584.82	44776.79
584.98	44776.79
585.14	44683.17
585.30	44367.20
585.46	45067.02
585.62	44683.17
585.78	44456.14
585.94	44299.32
586.10	44549.76
586.26	44519.33
586.42	44807.22
586.58	44594.23
586.74	44538.05
586.90	44304.00
587.06	44704.23
587.22	44465.50
587.38	44442.09
587.54	44495.92
587.70	44989.78
587.86	44280.60
588.02	44844.66
588.18	44779.13
588.34	44425.71
588.49	44598.91
588.65	44332.09
588.81	44224.42
588.97	44634.02
589.13	44449.11
589.29	44383.58
589.45	44877.43
589.61	44718.28
589.77	44968.71
589.93	44603.59
590.08	44842.32
590.24	45155.96
