SpectraSuite Data File
++++++++++++++++++++++++++++++++++++
Date: Fri Oct 25 11:24:07 EDT 2013
User: price-jones
Dark Spectrum Present: No
Reference Spectrum Present: No
Number of Sampled Component Spectra: 1
Spectrometers: USB2+H05261
Integration Time (usec): 100000 (USB2+H05261)
Spectra Averaged: 1 (USB2+H05261)
Boxcar Smoothing: 0 (USB2+H05261)
Correct for Electrical Dark: No (USB2+H05261)
Strobe/Lamp Enabled: No (USB2+H05261)
Correct for Detector Non-linearity: No (USB2+H05261)
Correct for Stray Light: No (USB2+H05261)
Number of Pixels in Processed Spectrum: 2048
>>>>>Begin Processed Spectral Data<<<<<
365.73	238.73
365.92	238.73
366.12	238.73
366.32	182.56
366.52	142.77
366.72	196.60
366.91	70.22
367.11	126.39
367.31	93.62
367.51	201.29
367.70	100.64
367.90	135.75
368.10	131.07
368.30	100.64
368.49	138.09
368.69	196.60
368.89	119.37
369.09	170.86
369.28	135.75
369.48	182.56
369.68	138.09
369.87	180.22
370.07	173.20
370.27	252.78
370.47	327.68
370.66	550.03
370.86	683.44
371.06	610.88
371.25	634.29
371.45	608.54
371.65	706.84
371.84	683.44
372.04	645.99
372.24	704.50
372.44	704.50
372.63	765.36
372.83	711.52
373.03	702.16
373.22	784.08
373.42	840.25
373.62	716.20
373.81	744.29
374.01	814.51
374.21	805.14
374.40	823.87
374.60	903.45
374.79	814.51
374.99	905.79
375.19	830.89
375.38	917.49
375.58	805.14
375.78	868.34
375.97	842.59
376.17	898.77
376.37	929.19
376.56	821.53
376.76	844.93
376.95	891.74
377.15	959.62
377.35	873.02
377.54	880.04
377.74	936.21
377.93	840.25
378.13	929.19
378.33	931.53
378.52	873.02
378.72	873.02
378.91	922.17
379.11	901.11
379.31	929.19
379.50	917.49
379.70	1071.97
379.89	1107.07
380.09	957.28
380.28	1006.43
380.48	933.87
380.68	884.72
380.87	1013.45
381.07	997.07
381.26	1067.28
381.46	1053.24
381.65	1029.84
381.85	1025.15
382.04	1011.11
382.24	1097.71
382.43	1064.94
382.63	1053.24
382.83	1034.52
383.02	1156.22
383.22	1060.26
383.41	1034.52
383.61	1111.75
383.80	1081.33
384.00	1160.91
384.19	1104.73
384.39	1193.67
384.58	1118.78
384.78	1149.20
384.97	1163.25
385.17	1167.93
385.36	1179.63
385.56	1100.05
385.75	1207.72
385.95	1128.14
386.14	1226.44
386.34	1188.99
386.53	1233.46
386.72	1198.35
386.92	1362.19
387.11	1200.69
387.31	1233.46
387.50	1226.44
387.70	1291.98
387.89	1315.38
388.09	1306.02
388.28	1359.85
388.48	1263.89
388.67	1249.85
388.86	1266.23
389.06	1228.78
389.25	1430.07
389.45	1341.13
389.64	1270.91
389.84	1341.13
390.03	1291.98
390.22	1301.34
390.42	1495.60
390.61	1444.11
390.81	1364.53
391.00	1479.22
391.19	1476.88
391.39	1420.71
391.58	1465.18
391.78	1430.07
391.97	1462.83
392.16	1530.71
392.36	1519.01
392.55	1556.46
392.75	1519.01
392.94	1479.22
393.13	1504.96
393.33	1460.49
393.52	1542.41
393.71	1610.29
393.91	1570.50
394.10	1556.46
394.29	1544.75
394.49	1591.56
394.68	1661.78
394.88	1657.10
395.07	1785.83
395.26	1689.87
395.46	1692.21
395.65	1863.07
395.84	1701.57
396.04	1734.34
396.23	1792.85
396.42	1774.13
396.62	1844.34
396.81	1816.26
397.00	1823.28
397.19	1713.27
397.39	1797.53
397.58	1846.68
397.77	1785.83
397.97	1830.30
398.16	1832.64
398.35	1818.60
398.55	1767.10
398.74	1952.01
398.93	2005.84
399.12	2001.16
399.32	1921.58
399.51	1935.62
399.70	1966.05
399.90	1977.75
400.09	2024.56
400.28	1989.46
400.47	2017.54
400.67	2029.24
400.86	2022.22
401.05	2003.50
401.24	2059.67
401.44	2120.53
401.63	2132.23
401.82	2237.55
402.01	2160.31
402.21	2132.23
402.40	2282.02
402.59	2267.98
402.78	2258.62
402.97	2230.53
403.17	2221.17
403.36	2382.67
403.55	2312.45
403.74	2282.02
403.93	2415.43
404.13	2417.77
404.32	2445.86
404.51	2387.35
404.70	2443.52
404.89	2516.08
405.09	2399.05
405.28	2509.05
405.47	2436.50
405.66	2548.84
405.85	2581.61
406.05	2394.37
406.24	2619.06
406.43	2595.65
406.62	2614.38
406.81	2719.70
407.00	2541.82
407.20	2607.36
407.39	2733.75
407.58	2740.77
407.77	2736.09
407.96	2892.90
408.15	2789.92
408.34	2675.23
408.54	2855.45
408.73	2808.64
408.92	2904.60
409.11	2839.07
409.30	2895.24
409.49	2988.86
409.68	2958.44
409.87	2939.71
410.07	2949.08
410.26	2890.56
410.45	3063.76
410.64	3033.33
410.83	3143.34
411.02	3171.43
411.21	3215.90
411.40	3115.25
411.59	3166.74
411.78	3145.68
411.98	3208.87
412.17	3239.30
412.36	3234.62
412.55	3468.67
412.74	3534.21
412.93	3403.14
413.12	3363.35
413.31	3581.02
413.50	3543.57
413.69	3487.40
413.88	3627.83
414.07	3609.11
414.26	3653.58
414.45	3611.45
414.64	3679.32
414.83	3730.81
415.02	3836.14
415.22	3808.05
415.41	3772.94
415.60	3927.42
415.79	3934.44
415.98	3976.57
416.17	3915.72
416.36	3941.46
416.55	3948.48
416.74	4060.83
416.93	4079.55
417.12	4126.36
417.31	4208.28
417.50	4194.24
417.69	4341.69
417.88	4376.80
418.07	4229.35
418.26	4313.61
418.45	4421.27
418.64	4367.44
418.83	4489.15
419.02	4484.47
419.21	4442.34
419.39	4688.09
419.58	4383.82
419.77	4531.28
419.96	4542.98
420.15	4517.23
420.34	4608.51
420.53	4716.18
420.72	4692.77
420.91	4690.43
421.10	4716.18
421.29	4842.57
421.48	4648.30
421.67	4823.84
421.86	4741.93
422.05	4774.69
422.24	4791.08
422.43	4950.23
422.61	5013.43
422.80	4917.47
422.99	5015.77
423.18	4975.98
423.37	5001.72
423.56	5107.05
423.75	5004.07
423.94	4793.42
424.13	4601.49
424.32	4840.23
424.50	4973.64
424.69	5057.90
424.88	5015.77
425.07	4975.98
425.26	4947.89
425.45	4910.44
425.64	5067.26
425.83	5020.45
426.01	5053.22
426.20	5214.71
426.39	5006.41
426.58	5245.14
426.77	5034.49
426.96	5102.37
427.15	5177.26
427.33	5317.70
427.52	5081.30
427.71	5334.08
427.90	5226.42
428.09	5427.70
428.28	5345.78
428.46	5451.11
428.65	5467.49
428.84	5638.35
429.03	5535.37
429.22	5362.17
429.40	5479.19
429.59	5394.93
429.78	5427.70
429.97	5341.10
430.16	5593.88
430.34	5713.25
430.53	5619.63
430.72	5647.71
430.91	5619.63
431.10	5603.24
431.28	5631.33
431.47	5912.19
431.66	5827.93
431.85	5689.84
432.03	5888.79
432.22	5895.81
432.41	5874.74
432.60	5973.05
432.79	5795.17
432.97	5912.19
433.16	6122.84
433.35	5879.43
433.54	6083.05
433.72	6069.01
433.91	6094.76
434.10	6150.93
434.28	6127.52
434.47	6415.41
434.66	6204.76
434.85	6270.30
435.03	6242.21
435.22	6317.11
435.41	6513.71
435.59	6539.46
435.78	6513.71
435.97	6551.16
436.16	6656.48
436.34	6476.26
436.53	6457.54
436.72	6551.16
436.90	6483.28
437.09	6644.78
437.28	6478.60
437.46	6616.69
437.65	6583.93
437.84	6832.02
438.02	6600.31
438.21	6825.00
438.40	6883.52
438.58	6902.24
438.77	7187.79
438.96	7042.67
439.14	7070.76
439.33	7166.72
439.52	7293.11
439.70	7386.73
439.89	7382.05
440.08	7414.82
440.26	7269.70
440.45	7229.91
440.63	7398.43
440.82	7639.51
441.01	7454.61
441.19	7644.19
441.38	7672.28
441.57	7639.51
441.75	7815.05
441.94	7985.91
442.12	7880.58
442.31	8016.33
442.50	8021.02
442.68	7955.48
442.87	8067.83
443.05	8105.28
443.24	8278.47
443.43	8257.41
443.61	8271.45
443.80	8521.89
443.98	7992.93
444.17	7719.09
444.35	8250.39
444.54	8388.48
444.73	8112.30
444.91	8250.39
445.10	8407.20
445.28	8336.99
445.47	8271.45
445.65	8269.11
445.84	8667.00
446.02	8484.44
446.21	8315.92
446.39	8348.69
446.58	8482.10
446.77	8638.92
446.95	8353.37
447.14	8540.61
447.32	8564.02
447.51	8458.70
447.69	8592.11
447.88	8486.78
448.06	8407.20
448.25	8629.56
448.43	8725.52
448.62	8542.96
448.80	8540.61
448.99	8617.85
449.17	8741.90
449.36	8634.24
449.54	8884.67
449.73	9092.98
449.91	9163.20
450.10	8872.97
450.28	9048.51
450.46	9097.66
450.65	9268.52
450.83	9078.94
451.02	9200.65
451.20	9240.44
451.39	9153.84
451.57	9179.58
451.76	9228.73
451.94	9350.44
452.13	9474.49
452.31	9453.42
452.49	9179.58
452.68	9385.55
452.86	9476.83
453.05	9610.24
453.23	9451.08
453.42	9214.69
453.60	9479.17
453.78	9734.29
453.97	9511.94
454.15	9542.36
454.34	9483.85
454.52	9792.80
454.70	9650.03
454.89	9774.08
455.07	9961.32
455.26	9900.47
455.44	10146.22
455.62	9888.76
455.81	9977.70
455.99	10073.67
456.17	9872.38
456.36	9881.74
456.54	10108.77
456.73	10099.41
456.91	10644.76
457.09	10406.02
457.28	10583.90
457.46	10410.70
457.64	10471.56
457.83	10665.82
458.01	10403.68
458.19	10778.17
458.38	10537.09
458.56	10822.64
458.74	10595.61
458.93	10410.70
459.11	10705.61
459.29	10885.83
459.48	10839.02
459.66	10911.58
459.84	10965.41
460.03	11178.40
460.21	11005.20
460.39	11187.76
460.57	10864.77
460.76	11239.25
460.94	11321.17
461.12	11180.74
461.31	11061.37
461.49	11159.67
461.67	11166.70
461.85	11344.58
462.04	11332.87
462.22	11370.32
462.40	11812.68
462.59	11527.14
462.77	11508.41
462.95	11627.78
463.13	11576.29
463.32	11744.81
463.50	11880.56
463.68	11974.18
463.86	11805.66
464.05	11634.80
464.23	11693.32
464.41	11836.09
464.59	11777.58
464.78	12222.28
464.96	12072.48
465.14	12088.87
465.32	12065.46
465.50	12170.79
465.69	12346.33
465.87	12423.56
466.05	12304.20
466.23	12250.36
466.41	12233.98
466.60	12601.44
466.78	12126.32
466.96	12292.49
467.14	12372.07
467.32	12610.81
467.51	12636.55
467.69	12072.48
467.87	12468.03
468.05	12650.60
468.23	12402.50
468.41	12788.69
468.60	12842.52
468.78	12662.30
468.96	12805.07
469.14	12634.21
469.32	13011.04
469.50	12994.65
469.69	12954.87
469.87	13214.66
470.05	13069.55
470.23	13343.39
470.41	13383.18
470.59	13294.24
470.77	12940.82
470.95	13652.34
471.14	13624.26
471.32	13074.23
471.50	13610.22
471.68	13893.42
471.86	13769.37
472.04	13708.52
472.22	14017.47
472.40	13750.65
472.58	13914.48
472.77	13909.80
472.95	14003.43
473.13	14675.16
473.31	13965.98
473.49	14160.24
473.67	13909.80
473.85	14401.32
474.03	14705.59
474.21	14677.50
474.39	14684.52
474.57	14848.36
474.75	15005.17
474.93	15232.21
475.12	14689.20
475.30	15117.52
475.48	15236.89
475.66	15459.24
475.84	15197.10
476.02	15428.81
476.20	15655.84
476.38	15812.66
476.56	15957.77
476.74	15995.22
476.92	15999.90
477.10	15878.19
477.28	16142.67
477.46	16252.68
477.64	16776.96
477.82	16685.68
478.00	17050.80
478.18	17121.02
478.36	17020.38
478.54	17249.75
478.72	17352.73
478.90	17380.82
479.08	17516.57
479.26	17619.55
479.44	17774.03
479.62	17708.49
479.80	18115.75
479.98	18139.15
480.16	18459.81
480.34	18501.93
480.52	18373.21
480.70	18843.65
480.88	18675.13
481.06	18918.55
481.24	18979.40
481.41	19389.00
481.59	19295.38
481.77	19419.42
481.95	19679.22
482.13	19892.21
482.31	19946.05
482.49	20362.66
482.67	20240.95
482.85	20496.07
483.03	20809.70
483.21	20936.09
483.39	21109.29
483.57	20648.21
483.74	20835.45
483.92	21336.32
484.10	21177.17
484.28	21898.05
484.46	21923.80
484.64	22658.73
484.82	22073.59
485.00	22611.92
485.18	22726.60
485.35	23206.41
485.53	23019.17
485.71	23349.18
485.89	23452.17
486.07	23335.14
486.25	23253.22
486.43	23641.75
486.61	23885.17
486.78	24182.42
486.96	24486.68
487.14	24589.67
487.32	24432.85
487.50	25106.93
487.68	25064.80
487.85	25474.39
488.03	25544.61
488.21	25776.32
488.39	26099.31
488.57	26305.28
488.75	26176.55
488.92	26717.22
489.10	26941.91
489.28	26771.05
489.46	27187.66
489.64	26740.62
489.81	27978.76
489.99	28048.98
490.17	27749.39
490.35	28360.27
490.53	28432.83
490.70	28568.58
490.88	28416.44
491.06	29006.26
491.24	28884.55
491.41	29102.22
491.59	29310.53
491.77	29067.11
491.95	29624.16
492.13	29970.56
492.30	29898.00
492.48	30279.51
492.66	30366.11
492.84	30661.02
493.01	30866.98
493.19	30668.04
493.37	31068.27
493.54	31763.41
493.72	31173.60
493.90	31440.42
494.08	32105.13
494.25	32165.98
494.43	32402.38
494.61	32528.77
494.79	32610.68
494.96	32697.28
495.14	32959.42
495.32	33549.24
495.49	33263.69
495.67	33649.88
495.85	33546.90
496.02	33783.29
496.20	33954.15
496.38	34401.19
496.55	34153.10
496.73	35232.08
496.91	34796.74
497.09	34813.13
497.26	35519.97
497.44	34962.92
497.62	35707.21
497.79	35735.30
497.97	35835.94
498.14	36004.46
498.32	36400.01
498.50	36458.52
498.67	36748.75
498.85	36505.34
499.03	36748.75
499.20	36975.78
499.38	36912.59
499.56	37453.25
499.73	37631.13
499.91	37670.92
500.08	37837.10
500.26	37102.17
500.44	38007.96
500.61	38005.62
500.79	38005.62
500.97	38167.12
501.14	38960.56
501.32	38579.05
501.49	38930.13
501.67	38965.24
501.84	39110.35
502.02	39054.18
502.20	39288.23
502.37	39477.82
502.55	39447.39
502.72	39543.35
502.90	39814.85
503.07	39384.19
503.25	40128.48
503.43	39957.63
503.60	40409.35
503.78	40322.75
503.95	40540.42
504.13	40612.98
504.30	40676.17
504.48	40570.85
504.65	40851.71
504.83	41209.81
505.01	41317.48
505.18	41141.94
505.36	42010.28
505.53	41317.48
505.71	41521.10
505.88	41956.44
506.06	41914.31
506.23	42717.12
506.41	42408.17
506.58	42426.89
506.76	42422.21
506.93	42644.56
507.11	42183.48
507.28	42859.89
507.46	43117.35
507.63	43152.46
507.81	43351.40
507.98	43077.56
508.16	43505.88
508.33	43344.38
508.50	43962.28
508.68	43990.37
508.85	43976.33
509.03	43983.35
509.20	44488.90
509.38	44577.84
509.55	44278.25
509.73	44570.82
509.90	44612.95
510.08	44552.10
510.25	45031.91
510.42	44933.60
510.60	45174.68
510.77	45382.99
510.95	45705.98
511.12	45432.14
511.30	45434.48
511.47	45586.61
511.64	45823.01
511.82	46028.98
511.99	45659.17
512.17	46026.63
512.34	45989.19
512.51	46543.89
512.69	46389.42
512.86	46546.23
513.04	47236.69
513.21	46625.81
513.38	46878.59
513.56	46913.70
513.73	47077.54
513.90	46894.97
514.08	47260.10
514.25	47468.40
514.43	47145.41
514.60	47428.62
514.77	47737.57
514.95	48259.51
515.12	47299.89
515.29	47917.79
515.47	48002.05
515.64	48282.91
515.81	48030.13
515.99	48289.93
516.16	48610.59
516.33	48491.22
516.51	48816.55
516.68	48797.83
516.85	48746.34
517.03	49055.29
517.20	49003.80
517.37	48701.87
517.54	48947.62
517.72	49104.44
517.89	49406.37
518.06	49357.22
518.24	49626.38
518.41	49471.90
518.58	49551.48
518.75	49329.13
518.93	49696.59
519.10	49797.24
519.27	49895.54
519.45	49886.18
519.62	49851.07
519.79	50075.76
519.96	49832.35
520.14	50499.40
520.31	50272.37
520.48	50766.22
520.65	50337.90
520.83	50410.46
521.00	51030.70
521.17	50862.18
521.34	50972.19
521.52	50934.74
521.69	51000.27
521.86	51145.39
522.03	51557.32
522.20	51573.70
522.38	51292.84
522.55	51590.09
522.72	51430.93
522.89	51377.10
523.07	51777.33
523.24	51414.55
523.41	51669.67
523.58	51870.95
523.75	51959.89
523.92	51896.70
524.10	51978.62
524.27	52488.85
524.44	52299.27
524.61	52303.95
524.78	52463.11
524.96	52259.48
525.13	52458.43
525.30	52547.37
525.47	52633.97
525.64	52664.39
525.81	52762.70
525.98	52683.12
526.16	52767.38
526.33	52870.36
526.50	53270.59
526.67	52786.10
526.84	53045.90
527.01	52779.08
527.18	52765.04
527.36	53057.60
527.53	53626.35
527.70	53687.21
527.87	53535.07
528.04	53090.37
528.21	53469.54
528.38	53343.15
528.55	53687.21
528.72	53565.50
528.89	53797.21
529.07	53404.00
529.24	53591.25
529.41	53947.01
529.58	54092.12
529.75	54012.54
529.92	53939.99
530.09	53972.75
530.26	53881.47
530.43	54014.88
530.60	54000.84
530.77	54038.29
530.94	54192.76
531.11	54127.23
531.28	54246.60
531.46	54394.05
531.63	54482.99
531.80	54394.05
531.97	54501.71
532.14	54777.90
532.31	54635.13
532.48	54887.90
532.65	54721.72
532.82	54391.71
532.99	54749.81
533.16	54852.80
533.33	54887.90
533.50	55107.91
533.67	54808.32
533.84	54782.58
534.01	55021.31
534.18	55018.97
534.35	55508.14
534.52	55250.69
534.69	55416.86
534.86	55487.08
535.03	55136.00
535.20	55229.62
535.37	55341.97
535.54	55601.77
535.71	55260.05
535.88	55585.38
536.05	55660.28
536.22	55957.53
536.38	55585.38
536.55	55578.36
536.72	55800.71
536.89	55746.88
537.06	55552.62
537.23	55873.27
537.40	55751.56
537.57	55952.85
537.74	55800.71
537.91	56149.45
538.08	56083.92
538.25	55742.20
538.42	56067.53
538.59	56198.60
538.75	56172.86
538.92	56278.18
539.09	56413.93
539.26	56341.38
539.43	56205.62
539.60	56308.61
539.77	56313.29
539.94	56713.52
540.11	56460.74
540.28	56437.34
540.44	56495.85
540.61	56633.94
540.78	56570.75
540.95	56914.81
541.12	56559.05
541.29	56615.22
541.46	56697.14
541.62	56563.73
541.79	56875.02
541.96	56484.15
542.13	56500.53
542.30	56877.36
542.47	57073.96
542.63	56938.21
542.80	57003.75
542.97	57176.95
543.14	57249.50
543.31	57380.57
543.48	57165.24
543.64	57567.82
543.81	57483.56
543.98	57258.87
544.15	57368.87
544.32	57413.34
544.48	57783.15
544.65	57488.24
544.82	57516.32
544.99	57324.40
545.16	57619.31
545.32	57336.10
545.49	57818.25
545.66	57808.89
545.83	57822.93
546.00	57759.74
546.16	57858.04
546.33	57696.55
546.50	57638.03
546.67	57909.53
546.83	57577.18
547.00	57963.37
547.17	57853.36
547.34	57841.66
547.50	57996.13
547.67	58403.39
547.84	58061.67
548.00	58183.38
548.17	58372.96
548.34	58269.98
548.51	58267.64
548.67	58330.83
548.84	58291.04
549.01	58216.14
549.18	58155.29
549.34	58466.58
549.51	58365.94
549.68	58443.18
549.84	58415.09
550.01	58609.35
550.18	58391.68
550.34	58494.67
550.51	58592.97
550.68	58497.01
550.84	58351.90
551.01	58628.08
551.18	58646.80
551.34	58672.55
551.51	58525.10
551.68	58695.95
551.84	58759.15
552.01	58485.31
552.18	58864.47
552.34	58705.32
552.51	58918.31
552.68	58642.12
552.84	58873.84
553.01	59089.16
553.18	58677.23
553.34	59267.05
553.51	58911.28
553.67	58848.09
553.84	58937.03
554.01	58958.09
554.17	59206.19
554.34	59002.56
554.51	59288.11
554.67	59063.42
554.84	59180.45
555.00	59007.25
555.17	59042.35
555.33	59056.40
555.50	58873.84
555.67	59058.74
555.83	59140.66
556.00	59175.76
556.16	59576.00
556.33	59526.84
556.50	59285.77
556.66	59604.08
556.83	58997.88
556.99	59559.61
557.16	59578.34
557.32	59451.95
557.49	59697.70
557.65	59664.94
557.82	59629.83
557.98	59388.75
558.15	59571.32
558.32	59674.30
558.48	59501.10
558.65	59461.31
558.81	59526.84
558.98	59522.16
559.14	59749.20
559.31	59709.41
559.47	59781.96
559.64	59884.95
559.80	59833.46
559.97	59917.71
560.13	59695.36
560.30	59716.43
560.46	59852.18
560.63	59997.29
560.79	59931.76
560.96	59915.37
561.12	59915.37
561.29	60013.68
561.45	60009.00
561.61	59901.33
561.78	60006.65
561.94	59924.74
562.11	59749.20
562.27	59920.05
562.44	60104.96
562.60	60055.81
562.77	60184.54
562.93	60018.36
563.10	60280.50
563.26	60058.15
563.42	60299.22
563.59	60025.38
563.75	60097.94
563.92	60289.86
564.08	60126.02
564.24	60376.46
564.41	60137.72
564.57	60196.24
564.74	60198.58
564.90	60383.48
565.07	60315.61
565.23	60126.02
565.39	60420.93
565.56	60367.10
565.72	60292.20
565.88	60423.27
566.05	60156.45
566.21	60275.82
566.38	60460.72
566.54	60409.23
566.70	60434.97
566.87	60348.37
567.03	60322.63
567.19	60669.03
567.36	60402.21
567.52	60355.39
567.68	60624.56
567.85	60416.25
568.01	60500.51
568.17	60530.93
568.34	60584.77
568.50	60413.91
568.66	60486.46
568.83	60491.15
568.99	60645.62
569.15	60467.74
569.32	60566.04
569.48	60460.72
569.64	60638.60
569.81	60633.92
569.97	60357.74
570.13	60654.98
570.30	60500.51
570.46	60596.47
570.62	60823.50
570.78	60477.10
570.95	60615.19
571.11	60764.99
571.27	60598.81
571.43	60598.81
571.60	60645.62
571.76	60729.88
571.92	60743.92
572.09	60818.82
572.25	60533.28
572.41	60750.94
572.57	60701.79
572.74	60973.30
572.90	60654.98
573.06	60818.82
573.22	60860.95
573.38	60533.28
573.55	60666.69
573.71	60858.61
573.87	60823.50
574.03	60720.52
574.20	60818.82
574.36	60638.60
574.52	60949.89
574.68	60844.57
574.84	60893.72
575.01	60942.87
575.17	60757.97
575.33	60788.39
575.49	60823.50
575.65	60722.86
575.82	60830.52
575.98	60999.04
576.14	60912.44
576.30	60823.50
576.46	60870.31
576.62	60924.14
576.79	60692.43
576.95	60767.33
577.11	60877.33
577.27	60956.91
577.43	61015.43
577.59	60889.04
577.75	61045.85
577.92	60851.59
578.08	60797.76
578.24	60952.23
578.40	61003.72
578.56	61057.56
578.72	60935.85
578.88	61017.77
579.04	61104.37
579.21	60968.61
579.37	61031.81
579.53	60914.78
579.69	60764.99
579.85	60898.40
580.01	60910.10
580.17	60802.44
580.33	61151.18
580.49	61120.75
580.65	61083.30
580.82	61013.08
580.98	60905.42
581.14	61090.32
581.30	61183.94
581.46	60736.90
581.62	61116.07
581.78	60867.97
581.94	61223.73
582.10	60903.08
582.26	60945.21
582.42	60844.57
582.58	61123.09
582.74	61062.24
582.90	60933.51
583.06	61073.94
583.22	60928.83
583.38	61038.83
583.54	61261.18
583.70	61219.05
583.86	61148.84
584.02	61034.15
584.18	61233.10
584.34	61099.68
584.50	61013.08
584.66	60811.80
584.82	60860.95
584.98	61216.71
585.14	61043.51
585.30	60989.68
585.46	61169.90
585.62	60992.02
585.78	61130.11
585.94	60992.02
586.10	60985.00
586.26	61127.77
586.42	61270.54
586.58	61453.11
586.74	61251.82
586.90	60928.83
587.06	61137.13
587.22	61226.07
587.38	60996.70
587.54	61317.35
587.70	61408.64
587.86	61130.11
588.02	61265.86
588.18	61258.84
588.34	61052.87
588.49	61118.41
