SpectraSuite Data File
++++++++++++++++++++++++++++++++++++
Date: Fri Oct 25 11:26:31 EDT 2013
User: price-jones
Dark Spectrum Present: No
Reference Spectrum Present: No
Number of Sampled Component Spectra: 1
Spectrometers: USB2+H05261
Integration Time (usec): 100000 (USB2+H05261)
Spectra Averaged: 1 (USB2+H05261)
Boxcar Smoothing: 0 (USB2+H05261)
Correct for Electrical Dark: No (USB2+H05261)
Strobe/Lamp Enabled: No (USB2+H05261)
Correct for Detector Non-linearity: No (USB2+H05261)
Correct for Stray Light: No (USB2+H05261)
Number of Pixels in Processed Spectrum: 2048
>>>>>Begin Processed Spectral Data<<<<<
365.73	252.78
365.92	252.78
366.12	252.78
366.32	152.13
366.52	145.11
366.72	140.43
366.91	166.18
367.11	191.92
367.31	135.75
367.51	147.45
367.70	135.75
367.90	124.05
368.10	212.99
368.30	131.07
368.49	147.45
368.69	198.95
368.89	177.88
369.09	117.03
369.28	215.33
369.48	147.45
369.68	149.79
369.87	184.90
370.07	159.16
370.27	203.63
370.47	292.57
370.66	594.50
370.86	664.71
371.06	699.82
371.25	699.82
371.45	592.16
371.65	660.03
371.84	697.48
372.04	702.16
372.24	739.61
372.44	737.27
372.63	788.76
372.83	816.85
373.03	779.40
373.22	828.55
373.42	823.87
373.62	755.99
373.81	770.04
374.01	805.14
374.21	793.44
374.40	755.99
374.60	844.93
374.79	896.43
374.99	800.46
375.19	896.43
375.38	861.32
375.58	889.40
375.78	983.02
375.97	870.68
376.17	915.15
376.37	826.21
376.56	873.02
376.76	917.49
376.95	861.32
377.15	901.11
377.35	898.77
377.54	936.21
377.74	870.68
377.93	922.17
378.13	903.45
378.33	912.81
378.52	894.08
378.72	926.85
378.91	966.64
379.11	966.64
379.31	936.21
379.50	994.73
379.70	1020.47
379.89	1048.56
380.09	945.58
380.28	1006.43
380.48	943.24
380.68	945.58
380.87	947.92
381.07	1006.43
381.26	997.07
381.46	964.30
381.65	1064.94
381.85	1020.47
382.04	1015.79
382.24	1060.26
382.43	1027.50
382.63	1121.12
382.83	1128.14
383.02	1217.08
383.22	1123.46
383.41	976.00
383.61	1156.22
383.80	1048.56
384.00	1177.29
384.19	1121.12
384.39	1116.44
384.58	1086.01
384.78	1163.25
384.97	1156.22
385.17	1170.27
385.36	1144.52
385.56	1263.89
385.75	1186.65
385.95	1174.95
386.14	1177.29
386.34	1137.50
386.53	1170.27
386.72	1217.08
386.92	1296.66
387.11	1224.10
387.31	1341.13
387.50	1296.66
387.70	1268.57
387.89	1224.10
388.09	1345.81
388.28	1245.16
388.48	1310.70
388.67	1310.70
388.86	1327.08
389.06	1301.34
389.25	1308.36
389.45	1341.13
389.64	1355.17
389.84	1362.19
390.03	1481.56
390.22	1364.53
390.42	1430.07
390.61	1472.20
390.81	1364.53
391.00	1378.58
391.19	1465.18
391.39	1390.28
391.58	1509.65
391.78	1535.39
391.97	1465.18
392.16	1526.03
392.36	1563.48
392.55	1509.65
392.75	1507.30
392.94	1472.20
393.13	1504.96
393.33	1596.25
393.52	1502.62
393.71	1579.86
393.91	1544.75
394.10	1605.61
394.29	1547.09
394.49	1612.63
394.68	1792.85
394.88	1619.65
395.07	1671.14
395.26	1678.16
395.46	1746.04
395.65	1715.61
395.84	1694.55
396.04	1834.98
396.23	1823.28
396.42	1778.81
396.62	1760.08
396.81	1806.89
397.00	1788.17
397.19	1741.36
397.39	1732.00
397.58	1916.90
397.77	1923.92
397.97	1802.21
398.16	1832.64
398.35	1980.09
398.55	1893.49
398.74	1891.15
398.93	1961.37
399.12	2019.88
399.32	1893.49
399.51	1863.07
399.70	2019.88
399.90	1998.82
400.09	2047.97
400.28	2118.18
400.47	2092.44
400.67	1984.77
400.86	2062.01
401.05	2104.14
401.24	2141.59
401.44	2148.61
401.63	2197.76
401.82	2136.91
402.01	2097.12
402.21	2073.71
402.40	2263.30
402.59	2183.72
402.78	2267.98
402.97	2256.28
403.17	2296.07
403.36	2253.94
403.55	2300.75
403.74	2389.69
403.93	2399.05
404.13	2392.03
404.32	2361.60
404.51	2415.43
404.70	2452.88
404.89	2340.54
405.09	2436.50
405.28	2473.95
405.47	2555.86
405.66	2560.55
405.85	2663.53
406.05	2476.29
406.24	2487.99
406.43	2675.23
406.62	2590.97
406.81	2595.65
407.00	2541.82
407.20	2572.25
407.39	2612.04
407.58	2810.98
407.77	2754.81
407.96	2864.82
408.15	2820.35
408.34	2656.51
408.54	2813.32
408.73	2806.30
408.92	2759.49
409.11	2888.22
409.30	2932.69
409.49	2909.29
409.68	2881.20
409.87	2995.89
410.07	2920.99
410.26	3030.99
410.45	3084.83
410.64	3089.51
410.83	3056.74
411.02	3061.42
411.21	3225.26
411.40	3115.25
411.59	3204.19
411.78	3258.03
411.98	3417.18
412.17	3262.71
412.36	3368.03
412.55	3480.38
412.74	3445.27
412.93	3471.01
413.12	3515.48
413.31	3592.72
413.50	3473.36
413.69	3562.30
413.88	3552.93
414.07	3646.55
414.26	3644.21
414.45	3669.96
414.64	3522.51
414.83	3742.52
415.02	3880.61
415.22	3789.33
415.41	3822.09
415.60	3894.65
415.79	3854.86
415.98	3969.55
416.17	4037.42
416.36	4060.83
416.55	3953.16
416.74	4037.42
416.93	4051.47
417.12	4117.00
417.31	4149.77
417.50	4028.06
417.69	4231.69
417.88	4297.22
418.07	4367.44
418.26	4362.76
418.45	4327.65
418.64	4395.53
418.83	4449.36
419.02	4475.10
419.21	4491.49
419.39	4491.49
419.58	4627.24
419.77	4512.55
419.96	4652.98
420.15	4594.47
420.34	4599.15
420.53	4559.36
420.72	4730.22
420.91	4819.16
421.10	4748.95
421.29	4753.63
421.48	4784.06
421.67	4844.91
421.86	4873.00
422.05	4727.88
422.24	4795.76
422.43	4788.74
422.61	5011.09
422.80	5050.88
422.99	4950.23
423.18	4975.98
423.37	5184.29
423.56	5013.43
423.75	5006.41
423.94	4805.12
424.13	4610.86
424.32	4613.20
424.50	5015.77
424.69	5011.09
424.88	5029.81
425.07	5111.73
425.26	5123.43
425.45	4992.36
425.64	4957.25
425.83	4997.04
426.01	5130.45
426.20	4851.93
426.39	5116.41
426.58	5036.83
426.77	5123.43
426.96	5118.75
427.15	5198.33
427.33	5142.16
427.52	5104.71
427.71	5249.82
427.90	5221.74
428.09	5359.83
428.28	5437.06
428.46	5355.15
428.65	5427.70
428.84	5423.02
429.03	5633.67
429.22	5427.70
429.40	5453.45
429.59	5647.71
429.78	5401.96
429.97	5228.76
430.16	5460.47
430.34	5673.46
430.53	5750.70
430.72	5621.97
430.91	5612.60
431.10	5563.45
431.28	5736.65
431.47	5874.74
431.66	5928.58
431.85	5781.12
432.03	5996.45
432.22	6036.24
432.41	5991.77
432.60	6031.56
432.79	6001.13
432.97	6010.50
433.16	5930.92
433.35	5954.32
433.54	6146.25
433.72	6106.46
433.91	6279.66
434.10	6127.52
434.28	6153.27
434.47	6270.30
434.66	6307.74
434.85	6340.51
435.03	6527.75
435.22	6420.09
435.41	6530.09
435.59	6471.58
435.78	6502.01
435.97	6462.22
436.16	6518.39
436.34	6473.92
436.53	6349.87
436.72	6719.68
436.90	6445.84
437.09	6490.31
437.28	6497.33
437.46	6686.91
437.65	6813.30
437.84	6722.02
438.02	6796.92
438.21	6850.75
438.40	6691.59
438.58	7133.95
438.77	7119.91
438.96	6963.09
439.14	7105.87
439.33	7143.32
439.52	7246.30
439.70	7115.23
439.89	7344.60
440.08	7583.34
440.26	7613.76
440.45	7447.58
440.63	7426.52
440.82	7676.96
441.01	7672.28
441.19	7716.75
441.38	7836.11
441.57	7758.88
441.75	7859.52
441.94	8126.34
442.12	7939.10
442.31	8016.33
442.50	8222.30
442.68	7934.42
442.87	8086.55
443.05	8194.22
443.24	8252.73
443.43	8149.75
443.61	8369.76
443.80	8414.23
443.98	8037.40
444.17	7988.25
444.35	8264.43
444.54	8393.16
444.73	8248.05
444.91	8313.58
445.10	8442.31
445.28	8269.11
445.47	8383.80
445.65	8386.14
445.84	8531.25
446.02	8484.44
446.21	8376.78
446.39	8409.54
446.58	8629.56
446.77	8540.61
446.95	8414.23
447.14	8540.61
447.32	8608.49
447.51	8458.70
447.69	8636.58
447.88	8582.74
448.06	8610.83
448.25	8388.48
448.43	8374.44
448.62	8688.07
448.80	8519.55
448.99	8713.81
449.17	9074.26
449.36	8737.22
449.54	8798.07
449.73	9050.85
449.91	8973.61
450.10	8887.01
450.28	9104.68
450.46	9125.75
450.65	9100.00
450.83	9039.15
451.02	9118.73
451.20	9378.53
451.39	9231.07
451.57	9221.71
451.76	9062.55
451.94	9415.98
452.13	9411.29
452.31	9296.61
452.49	9200.65
452.68	9376.19
452.86	9181.92
453.05	9352.78
453.23	9511.94
453.42	9315.33
453.60	9387.89
453.78	9680.46
453.97	9528.32
454.15	9504.92
454.34	9401.93
454.52	9671.09
454.70	9774.08
454.89	9619.60
455.07	9851.31
455.26	9916.85
455.44	9966.00
455.62	10249.21
455.81	10090.05
455.99	9879.40
456.17	10085.37
456.36	10022.17
456.54	10106.43
456.73	10174.31
456.91	10452.83
457.09	10583.90
457.28	10469.22
457.46	10342.83
457.64	10553.48
457.83	10415.38
458.01	10668.16
458.19	10656.46
458.38	10523.05
458.56	10846.04
458.74	10726.68
458.93	10963.07
459.11	10824.98
459.29	10932.64
459.48	10918.60
459.66	10740.72
459.84	11042.65
460.03	10984.13
460.21	11379.68
460.39	11089.46
460.57	11213.51
460.76	11014.56
460.94	11215.85
461.12	11232.23
461.31	11248.61
461.49	10806.25
461.67	11147.97
461.85	11637.14
462.04	11323.51
462.22	11564.59
462.40	11817.36
462.59	11587.99
462.77	11564.59
462.95	11726.08
463.13	11506.07
463.32	11658.21
463.50	11833.75
463.68	11822.05
463.86	11913.33
464.05	11641.82
464.23	11625.44
464.41	11957.80
464.59	11590.33
464.78	12231.64
464.96	11810.34
465.14	11906.31
465.32	12166.10
465.50	12149.72
465.69	12175.47
465.87	12285.47
466.05	12322.92
466.23	12231.64
466.41	12170.79
466.60	12685.70
466.78	12201.21
466.96	12336.96
467.14	12210.57
467.32	12526.55
467.51	12561.66
467.69	12180.15
467.87	12578.04
468.05	12746.56
468.23	12507.82
468.41	12491.44
468.60	12891.67
468.78	12929.12
468.96	12751.24
469.14	12835.50
469.32	13029.76
469.50	12727.83
469.69	13053.17
469.87	13142.11
470.05	13062.53
470.23	13343.39
470.41	13315.31
470.59	13289.56
470.77	13312.97
470.95	13352.76
471.14	13664.05
471.32	13352.76
471.50	13563.40
471.68	13848.95
471.86	13745.97
472.04	13741.29
472.22	14134.50
472.40	13635.96
472.58	13785.76
472.77	14043.21
472.95	14366.21
473.13	14616.65
473.31	14101.73
473.49	14171.94
473.67	14057.26
473.85	14277.27
474.03	14611.96
474.21	14501.96
474.39	14831.97
474.57	14778.14
474.75	15150.29
474.93	15096.46
475.12	15185.40
475.30	14871.76
475.48	14843.68
475.66	15157.31
475.84	15239.23
476.02	15351.57
476.20	15683.93
476.38	15559.88
476.56	16130.97
476.74	16205.87
476.92	16142.67
477.10	15941.39
477.28	16278.43
477.46	16128.63
477.64	16376.73
477.82	16390.77
478.00	16936.12
478.18	16861.22
478.36	17359.75
478.54	16996.97
478.72	17238.05
478.90	17624.23
479.08	17818.50
479.26	17846.58
479.44	17825.52
479.62	18232.77
479.80	17987.02
479.98	18260.86
480.16	18455.12
480.34	18333.42
480.52	18647.05
480.70	18635.35
480.88	18405.97
481.06	18906.85
481.24	18920.89
481.41	19124.52
481.59	19236.86
481.77	19454.53
481.95	19623.05
482.13	19793.91
482.31	19480.28
482.49	20212.87
482.67	20166.06
482.85	20526.50
483.03	20826.09
483.21	20882.26
483.39	21233.34
483.57	21034.39
483.74	20844.81
483.92	21312.92
484.10	21191.21
484.28	21855.92
484.46	21813.79
484.64	22525.32
484.82	22281.90
485.00	22373.18
485.18	22953.63
485.35	23007.47
485.53	22934.91
485.71	23049.60
485.89	23840.70
486.07	23215.77
486.25	23295.35
486.43	23442.81
486.61	23847.72
486.78	24009.22
486.96	23981.13
487.14	24629.46
487.32	24666.91
487.50	25039.05
487.68	24830.74
487.85	25193.53
488.03	25312.89
488.21	25883.98
488.39	25879.30
488.57	26122.72
488.75	26038.46
488.92	26527.63
489.10	26874.03
489.28	26829.56
489.46	27239.15
489.64	27360.86
489.81	27604.28
489.99	27929.61
490.17	27983.44
490.35	28133.24
490.53	28238.56
490.70	28304.10
490.88	28463.25
491.06	29256.70
491.24	28711.35
491.41	29001.58
491.59	29338.62
491.77	29605.44
491.95	30017.37
492.13	29895.66
492.30	30029.07
492.48	30249.08
492.66	30228.02
492.84	30501.86
493.01	30843.58
493.19	30756.98
493.37	31503.61
493.54	31281.26
493.72	31658.09
493.90	31674.47
494.08	31842.99
494.25	32123.85
494.43	32194.07
494.61	32322.80
494.79	32737.07
494.96	32477.27
495.14	32683.24
495.32	33249.65
495.49	33057.73
495.67	33209.86
495.85	33692.01
496.02	34164.80
496.20	34265.44
496.38	34174.16
496.55	34181.18
496.73	35058.88
496.91	34806.11
497.09	34965.26
497.26	34906.75
497.44	35171.23
497.62	35627.63
497.79	36084.04
497.97	35835.94
498.14	36156.60
498.32	36142.55
498.50	36556.83
498.67	36741.73
498.85	36589.59
499.03	36982.80
499.20	36828.33
499.38	37214.52
499.56	36959.40
499.73	37062.38
499.91	37488.36
500.08	37652.20
500.26	37720.07
500.44	37923.70
500.61	38153.07
500.79	38040.73
500.97	38176.48
501.14	38653.95
501.32	38644.59
501.49	38487.77
501.67	39136.10
501.84	39246.10
502.02	38866.94
502.20	39304.62
502.37	39304.62
502.55	39571.44
502.72	39639.31
502.90	39679.10
503.07	39526.97
503.25	39676.76
503.43	39854.64
503.60	40493.61
503.78	40968.74
503.95	40168.27
504.13	40538.08
504.30	40825.96
504.48	40868.09
504.65	40605.95
504.83	41207.47
505.01	41015.55
505.18	41743.45
505.36	41879.21
505.53	41212.15
505.71	41614.72
505.88	41935.38
506.06	41418.12
506.23	42153.05
506.41	41907.29
506.58	42246.67
506.76	42515.83
506.93	42632.86
507.11	42129.64
507.28	42761.59
507.46	42838.83
507.63	43016.71
507.81	43089.26
507.98	43260.12
508.16	42939.47
508.33	43035.43
508.50	43665.03
508.68	43882.70
508.85	44259.53
509.03	43875.68
509.20	43922.49
509.38	44493.58
509.55	44215.06
509.73	44708.91
509.90	44985.10
510.08	44849.35
510.25	44725.30
510.42	44678.49
510.60	44933.60
510.77	45289.37
510.95	45317.45
511.12	45460.23
511.30	45530.44
511.47	45619.38
511.64	45787.90
511.82	45811.31
511.99	45556.19
512.17	46096.85
512.34	46146.00
512.51	46548.57
512.69	46593.04
512.86	46529.85
513.04	46555.60
513.21	46880.93
513.38	46979.23
513.56	46972.21
513.73	46583.68
513.90	47243.71
514.08	46946.47
514.25	47466.06
514.43	47604.16
514.60	47255.42
514.77	47547.98
514.95	47849.91
515.12	47496.49
515.29	47693.10
515.47	47812.46
515.64	48011.41
515.81	47590.11
515.99	48116.73
516.16	48523.99
516.33	48615.27
516.51	48891.45
516.68	48802.51
516.85	48547.39
517.03	48942.94
517.20	49642.76
517.37	48959.33
517.54	49162.95
517.72	49195.72
517.89	49081.03
518.06	49462.54
518.24	49090.40
518.41	49303.38
518.58	49626.38
518.75	49504.67
518.93	49181.68
519.10	49614.68
519.27	49940.01
519.45	49872.14
519.62	50003.20
519.79	50153.00
519.96	49855.75
520.14	50094.49
520.31	49961.08
520.48	50326.20
520.65	50295.77
520.83	50761.54
521.00	50937.08
521.17	50499.40
521.34	50906.65
521.52	51196.88
521.69	50901.97
521.86	51208.58
522.03	51414.55
522.20	51217.94
522.38	51744.56
522.55	51320.93
522.72	51531.57
522.89	51377.10
523.07	52165.86
523.24	51505.83
523.41	51690.73
523.58	51676.69
523.75	51978.62
523.92	51789.03
524.10	51929.47
524.27	51849.89
524.44	51995.00
524.61	52037.13
524.78	52364.81
524.96	52226.71
525.13	52582.48
525.30	52388.21
525.47	52750.99
525.64	52493.54
525.81	52603.54
525.98	52816.53
526.16	52516.94
526.33	52594.18
526.50	53160.59
526.67	52952.28
526.84	53118.46
527.01	52797.80
527.18	52996.75
527.36	53052.92
527.53	53081.01
527.70	53422.73
527.87	53195.70
528.04	53294.00
528.21	53352.51
528.38	53251.87
528.55	53675.51
528.72	53373.58
528.89	53801.89
529.07	53787.85
529.24	53532.73
529.41	53631.04
529.58	53862.75
529.75	53822.96
529.92	53858.07
530.09	54054.67
530.26	53834.66
530.43	54284.04
530.60	53815.94
530.77	54117.87
530.94	54096.80
531.11	54230.21
531.28	54300.43
531.46	54443.20
531.63	54129.57
531.80	54211.49
531.97	54450.22
532.14	54372.99
532.31	54560.23
532.48	54805.98
532.65	54679.60
532.82	54747.47
532.99	54754.49
533.16	54803.64
533.33	54934.71
533.50	55007.27
533.67	54897.27
533.84	54955.78
534.01	55220.26
534.18	55175.79
534.35	55398.14
534.52	55187.49
534.69	55231.96
534.86	55222.60
535.03	55077.49
535.20	55152.38
535.37	55510.49
535.54	55246.00
535.71	55412.18
535.88	55292.82
536.05	55517.51
536.22	55629.85
536.38	55732.84
536.55	55519.85
536.72	55606.45
536.89	55547.93
537.06	55597.09
537.23	55627.51
537.40	55765.60
537.57	55695.39
537.74	55819.44
537.91	56109.66
538.08	55964.55
538.25	55861.57
538.42	56006.68
538.59	56198.60
538.75	56212.65
538.92	56032.42
539.09	56254.78
539.26	56334.35
539.43	56189.24
539.60	56236.05
539.77	56479.47
539.94	56346.06
540.11	56488.83
540.28	56355.42
540.44	56442.02
540.61	56369.46
540.78	56526.28
540.95	56701.82
541.12	56470.11
541.29	56446.70
541.46	56509.89
541.62	56711.18
541.79	56624.58
541.96	56750.97
542.13	56762.67
542.30	56800.12
542.47	56992.04
542.63	56891.40
542.80	56966.30
542.97	57123.11
543.14	57223.76
543.31	57345.47
543.48	57233.12
543.64	57581.86
543.81	57366.53
543.98	57286.95
544.15	57279.93
544.32	57551.43
544.48	57722.29
544.65	57312.70
544.82	57492.92
544.99	57181.63
545.16	57509.30
545.32	57326.74
545.49	57776.12
545.66	57853.36
545.83	57680.16
546.00	57776.12
546.16	57623.99
546.33	57832.30
546.50	57677.82
546.67	57708.25
546.83	57682.50
547.00	58026.56
547.17	57911.88
547.34	57914.22
547.50	58148.27
547.67	58059.33
547.84	58094.44
548.00	58237.21
548.17	58089.76
548.34	57982.09
548.51	58113.16
548.67	58335.51
548.84	58260.62
549.01	58141.25
549.18	58169.33
549.34	58174.02
549.51	58333.17
549.68	58232.53
549.84	58171.67
550.01	58401.05
550.18	58190.40
550.34	58618.72
550.51	58497.01
550.68	58417.43
550.84	58321.47
551.01	58595.31
551.18	58684.25
551.34	58401.05
551.51	58684.25
551.68	58777.87
551.84	58691.27
552.01	58394.03
552.18	58719.36
552.34	58644.46
552.51	58887.88
552.68	58602.33
552.84	58784.90
553.01	58953.41
553.18	59110.23
553.34	58972.14
553.51	58873.84
553.67	58845.75
553.84	59283.43
554.01	59096.19
554.17	59105.55
554.34	59114.91
554.51	59042.35
554.67	59100.87
554.84	59140.66
555.00	59016.61
555.17	59271.73
555.33	59171.08
555.50	59096.19
555.67	58953.41
555.83	58904.26
556.00	59260.02
556.16	59377.05
556.33	59323.22
556.50	59346.62
556.66	59634.51
556.83	59229.60
556.99	59512.80
557.16	59671.96
557.32	59604.08
557.49	59622.81
557.65	59428.54
557.82	59531.53
557.98	59412.16
558.15	59339.60
558.32	59667.28
558.48	59519.82
558.65	59728.13
558.81	59688.34
558.98	59590.04
559.14	59774.94
559.31	59693.02
559.47	59678.98
559.64	59767.92
559.80	59870.90
559.97	59781.96
560.13	59641.53
560.30	59859.20
560.46	59744.51
560.63	59915.37
560.79	59690.68
560.96	59887.29
561.12	59819.41
561.29	59896.65
561.45	59863.88
561.61	59877.93
561.78	59887.29
561.94	59753.88
562.11	59901.33
562.27	59891.97
562.44	59889.63
562.60	60158.79
562.77	59976.23
562.93	59847.50
563.10	60175.17
563.26	60055.81
563.42	60214.96
563.59	60046.44
563.75	60163.47
563.92	60044.10
564.08	60046.44
564.24	60161.13
564.41	60149.43
564.57	60217.30
564.74	60287.52
564.90	60268.79
565.07	60247.73
565.23	60121.34
565.39	60306.24
565.56	60191.56
565.72	60116.66
565.88	60369.44
566.05	60348.37
566.21	60119.00
566.38	60170.49
566.54	60317.95
566.70	60690.09
566.87	60603.49
567.03	60158.79
567.19	60591.79
567.36	60388.16
567.52	60156.45
567.68	60622.22
567.85	60441.99
568.01	60680.73
568.17	60273.48
568.34	60486.46
568.50	60456.04
568.66	60540.30
568.83	60652.64
568.99	60313.26
569.15	60317.95
569.32	60374.12
569.48	60617.53
569.64	60601.15
569.81	60587.11
569.97	60322.63
570.13	60535.62
570.30	60322.63
570.46	60509.87
570.62	60441.99
570.78	60472.42
570.95	60516.89
571.11	60640.94
571.27	60392.84
571.43	60467.74
571.60	60598.81
571.76	60598.81
571.92	60467.74
572.09	60706.47
572.25	60746.26
572.41	60601.15
572.57	60640.94
572.74	60739.24
572.90	60549.66
573.06	60779.03
573.22	60708.82
573.38	60863.29
573.55	60856.27
573.71	60800.10
573.87	60748.60
574.03	60704.13
574.20	60814.14
574.36	60804.78
574.52	60891.38
574.68	60940.53
574.84	60598.81
575.01	60807.12
575.17	60706.47
575.33	60729.88
575.49	60720.52
575.65	60846.91
575.82	60989.68
575.98	60739.24
576.14	61099.68
576.30	60818.82
576.46	60755.63
576.62	60844.57
576.79	60816.48
576.95	60713.50
577.11	60788.39
577.27	61055.21
577.43	60676.05
577.59	60907.76
577.75	60715.84
577.92	60701.79
578.08	60956.91
578.24	60823.50
578.40	61186.28
578.56	60858.61
578.72	60879.67
578.88	61139.47
579.04	61052.87
579.21	61144.16
579.37	61109.05
579.53	60954.57
579.69	60629.24
579.85	60825.84
580.01	60867.97
580.17	60769.67
580.33	60970.96
580.49	61027.13
580.65	61064.58
580.82	60947.55
580.98	61045.85
581.14	60844.57
581.30	60992.02
581.46	60814.14
581.62	60956.91
581.78	61045.85
581.94	60980.32
582.10	60657.32
582.26	61066.92
582.42	60680.73
582.58	60786.05
582.74	60996.70
582.90	60994.36
583.06	60977.98
583.22	60750.94
583.38	60987.34
583.54	60931.17
583.70	60985.00
583.86	61134.79
584.02	60917.12
584.18	61120.75
584.34	60959.25
584.50	60999.04
584.66	60790.73
584.82	60968.61
584.98	61162.88
585.14	61083.30
585.30	61036.49
585.46	61155.86
585.62	60919.46
585.78	61069.26
585.94	60882.02
586.10	61277.57
586.26	60947.55
586.42	61092.66
586.58	61165.22
586.74	61137.13
586.90	61045.85
587.06	60858.61
587.22	61057.56
587.38	61261.18
587.54	61338.42
587.70	61361.82
587.86	61116.07
588.02	61148.84
588.18	61235.44
588.34	61162.88
588.49	61219.05
