SpectraSuite Data File
++++++++++++++++++++++++++++++++++++
Date: Fri Oct 25 10:48:15 EDT 2013
User: price-jones
Dark Spectrum Present: No
Reference Spectrum Present: No
Number of Sampled Component Spectra: 1
Spectrometers: USB2+H05261
Integration Time (usec): 100000 (USB2+H05261)
Spectra Averaged: 1 (USB2+H05261)
Boxcar Smoothing: 0 (USB2+H05261)
Correct for Electrical Dark: No (USB2+H05261)
Strobe/Lamp Enabled: No (USB2+H05261)
Correct for Detector Non-linearity: No (USB2+H05261)
Correct for Stray Light: No (USB2+H05261)
Number of Pixels in Processed Spectrum: 2048
>>>>>Begin Processed Spectral Data<<<<<
365.73	138.09
365.92	138.09
366.12	138.09
366.32	35.11
366.52	53.83
366.72	79.58
366.91	49.15
367.11	107.66
367.31	11.70
367.51	35.11
367.70	46.81
367.90	46.81
368.10	0.00
368.30	0.00
368.49	0.00
368.69	93.62
368.89	114.69
369.09	65.54
369.28	114.69
369.48	56.17
369.68	145.11
369.87	102.98
370.07	98.30
370.27	159.16
370.47	175.54
370.66	381.51
370.86	332.36
371.06	526.62
371.25	493.85
371.45	493.85
371.65	573.43
371.84	493.85
372.04	484.49
372.24	470.45
372.44	472.79
372.63	587.47
372.83	517.26
373.03	543.00
373.22	547.69
373.42	566.41
373.62	493.85
373.81	566.41
374.01	540.66
374.21	592.16
374.40	559.39
374.60	631.94
374.79	510.24
374.99	617.90
375.19	531.30
375.38	601.52
375.58	622.58
375.78	608.54
375.97	606.20
376.17	636.63
376.37	613.22
376.56	587.47
376.76	645.99
376.95	657.69
377.15	582.79
377.35	552.37
377.54	629.60
377.74	631.94
377.93	697.48
378.13	681.10
378.33	638.97
378.52	655.35
378.72	638.97
378.91	669.39
379.11	624.92
379.31	634.29
379.50	594.50
379.70	613.22
379.89	660.03
380.09	716.20
380.28	683.44
380.48	678.76
380.68	732.59
380.87	657.69
381.07	711.52
381.26	688.12
381.46	627.26
381.65	662.37
381.85	741.95
382.04	685.78
382.24	772.38
382.43	746.63
382.63	706.84
382.83	678.76
383.02	697.48
383.22	737.27
383.41	730.25
383.61	704.50
383.80	650.67
384.00	739.61
384.19	833.23
384.39	791.10
384.58	786.42
384.78	767.70
384.97	716.20
385.17	772.38
385.36	781.74
385.56	828.55
385.75	833.23
385.95	861.32
386.14	851.96
386.34	882.38
386.53	870.68
386.72	849.61
386.92	882.38
387.11	812.17
387.31	875.36
387.50	795.78
387.70	856.64
387.89	866.00
388.09	917.49
388.28	936.21
388.48	964.30
388.67	957.28
388.86	950.26
389.06	931.53
389.25	936.21
389.45	870.68
389.64	973.66
389.84	1020.47
390.03	990.05
390.22	891.74
390.42	938.55
390.61	952.60
390.81	1062.60
391.00	983.02
391.19	1053.24
391.39	1081.33
391.58	1025.15
391.78	999.41
391.97	1055.58
392.16	1006.43
392.36	1004.09
392.55	1062.60
392.75	1048.56
392.94	1029.84
393.13	1004.09
393.33	985.37
393.52	1027.50
393.71	1086.01
393.91	1114.10
394.10	1076.65
394.29	1118.78
394.49	1149.20
394.68	1172.61
394.88	1114.10
395.07	1149.20
395.26	1207.72
395.46	1221.76
395.65	1179.63
395.84	1179.63
396.04	1226.44
396.23	1245.16
396.42	1235.80
396.62	1177.29
396.81	1240.48
397.00	1135.16
397.19	1259.21
397.39	1191.33
397.58	1294.32
397.77	1313.04
397.97	1467.52
398.16	1242.82
398.35	1366.87
398.55	1397.30
398.74	1404.32
398.93	1380.92
399.12	1427.73
399.32	1336.45
399.51	1427.73
399.70	1460.49
399.90	1533.05
400.09	1526.03
400.28	1511.99
400.47	1493.26
400.67	1568.16
400.86	1493.26
401.05	1614.97
401.24	1561.14
401.44	1753.06
401.63	1563.48
401.82	1589.22
402.01	1500.28
402.21	1624.33
402.40	1671.14
402.59	1678.16
402.78	1542.41
402.97	1715.61
403.17	1629.01
403.36	1732.00
403.55	1760.08
403.74	1689.87
403.93	1724.97
404.13	1767.10
404.32	1645.40
404.51	1715.61
404.70	1813.92
404.89	1797.53
405.09	1727.32
405.28	1853.70
405.47	1818.60
405.66	1966.05
405.85	1888.81
406.05	1879.45
406.24	1916.90
406.43	1952.01
406.62	1877.11
406.81	2001.16
407.00	1937.96
407.20	1966.05
407.39	1963.71
407.58	1956.69
407.77	2090.10
407.96	2080.74
408.15	2172.02
408.34	2040.95
408.54	2174.36
408.73	2275.00
408.92	2134.57
409.11	2249.25
409.30	2064.35
409.49	2101.80
409.68	2148.61
409.87	2197.76
410.07	2162.66
410.26	2108.82
410.45	2394.37
410.64	2338.20
410.83	2363.94
411.02	2406.07
411.21	2464.58
411.40	2331.17
411.59	2464.58
411.78	2392.03
411.98	2471.61
412.17	2436.50
412.36	2450.54
412.55	2506.71
412.74	2565.23
412.93	2677.57
413.12	2574.59
413.31	2693.96
413.50	2546.50
413.69	2630.76
413.88	2752.47
414.07	2754.81
414.26	2675.23
414.45	2738.43
414.64	2855.45
414.83	2918.65
415.02	2993.55
415.22	2827.37
415.41	3007.59
415.60	2918.65
415.79	2967.80
415.98	3045.04
416.17	3021.63
416.36	3052.06
416.55	3068.44
416.74	3052.06
416.93	3009.93
417.12	3101.21
417.31	3183.13
417.50	3166.74
417.69	3258.03
417.88	3185.47
418.07	3281.43
418.26	3295.47
418.45	3288.45
418.64	3478.04
418.83	3346.97
419.02	3332.92
419.21	3368.03
419.39	3382.07
419.58	3372.71
419.77	3433.57
419.96	3463.99
420.15	3578.68
420.34	3482.72
420.53	3543.57
420.72	3583.36
420.91	3574.00
421.10	3728.47
421.29	3618.47
421.48	3463.99
421.67	3700.39
421.86	3529.53
422.05	3665.28
422.24	3606.77
422.43	3681.66
422.61	3625.49
422.80	3723.79
422.99	3779.97
423.18	3740.18
423.37	3702.73
423.56	3681.66
423.75	3681.66
423.94	3735.50
424.13	3508.46
424.32	3662.94
424.50	3698.05
424.69	3660.60
424.88	3772.94
425.07	3719.11
425.26	3794.01
425.45	3714.43
425.64	3637.19
425.83	3742.52
426.01	3913.38
426.20	3791.67
426.39	3925.08
426.58	3658.26
426.77	3831.46
426.96	3770.60
427.15	3707.41
427.33	3894.65
427.52	3850.18
427.71	3857.20
427.90	3927.42
428.09	3962.53
428.28	3990.61
428.46	3852.52
428.65	3997.64
428.84	3999.98
429.03	4030.40
429.22	3761.24
429.40	4014.02
429.59	3880.61
429.78	3922.74
429.97	3744.86
430.16	3995.29
430.34	3990.61
430.53	4131.05
430.72	4147.43
430.91	3950.82
431.10	4032.74
431.28	4166.15
431.47	4381.48
431.66	4280.84
431.85	4451.70
432.03	4318.29
432.22	4524.26
432.41	4454.04
432.60	4416.59
432.79	4458.72
432.97	4587.45
433.16	4444.68
433.35	4360.42
433.54	4442.34
433.72	4503.19
433.91	4465.74
434.10	4397.87
434.28	4486.81
434.47	4554.68
434.66	4566.39
434.85	4695.11
435.03	4652.98
435.22	4695.11
435.41	4851.93
435.59	4791.08
435.78	4908.10
435.97	4704.48
436.16	4861.29
436.34	4889.38
436.53	4952.57
436.72	4992.36
436.90	4772.35
437.09	4912.78
437.28	4908.10
437.46	4847.25
437.65	4833.21
437.84	4821.50
438.02	4933.85
438.21	4975.98
438.40	4760.65
438.58	5107.05
438.77	5195.99
438.96	5139.82
439.14	5266.21
439.33	5399.62
439.52	5247.48
439.70	5320.04
439.89	5427.70
440.08	5500.26
440.26	5462.81
440.45	5481.53
440.63	5603.24
440.82	5734.31
441.01	5603.24
441.19	5579.84
441.38	5816.23
441.57	5788.14
441.75	5804.53
441.94	5893.47
442.12	5872.40
442.31	5820.91
442.50	5884.11
442.68	5837.30
442.87	5907.51
443.05	6122.84
443.24	6146.25
443.43	6104.12
443.61	6045.60
443.80	6272.64
443.98	5893.47
444.17	5877.09
444.35	6146.25
444.54	6057.31
444.73	5954.32
444.91	6066.67
445.10	5921.56
445.28	6080.71
445.47	6031.56
445.65	5984.75
445.84	6179.01
446.02	6190.72
446.21	6127.52
446.39	6099.44
446.58	6335.83
446.77	6195.40
446.95	6017.52
447.14	6073.69
447.32	6490.31
447.51	6232.85
447.69	6333.49
447.88	6413.07
448.06	6258.59
448.25	6190.72
448.43	6396.68
448.62	6258.59
448.80	6303.06
448.99	6429.45
449.17	6331.15
449.36	6443.49
449.54	6511.37
449.73	6651.80
449.91	6637.76
450.10	6729.04
450.28	6951.39
450.46	6839.05
450.65	6974.80
450.83	6815.64
451.02	6644.78
451.20	6867.13
451.39	6782.87
451.57	6640.10
451.76	6696.27
451.94	6839.05
452.13	7016.93
452.31	6864.79
452.49	6675.21
452.68	6834.36
452.86	6684.57
453.05	6839.05
453.23	6979.48
453.42	6750.10
453.60	7026.29
453.78	7124.59
453.97	6944.37
454.15	7091.82
454.34	6864.79
454.52	7096.50
454.70	7119.91
454.89	7279.07
455.07	7063.74
455.26	7229.91
455.44	7215.87
455.62	7391.41
455.81	7452.27
455.99	7391.41
456.17	7384.39
456.36	7463.97
456.54	7339.92
456.73	7569.29
456.91	7679.30
457.09	7662.91
457.28	7786.96
457.46	7545.89
457.64	7648.87
457.83	7613.76
458.01	7442.90
458.19	7709.72
458.38	7641.85
458.56	7770.58
458.74	7723.77
458.93	7845.48
459.11	7707.38
459.29	7665.25
459.48	7793.98
459.66	7735.47
459.84	7852.50
460.03	7978.89
460.21	8067.83
460.39	7943.78
460.57	7983.57
460.76	8114.64
460.94	8236.35
461.12	8149.75
461.31	8138.04
461.49	8044.42
461.67	8163.79
461.85	8437.63
462.04	8287.84
462.22	8926.80
462.40	8360.39
462.59	8383.80
462.77	8320.60
462.95	8400.18
463.13	8252.73
463.32	8465.72
463.50	8659.98
463.68	8526.57
463.86	8568.70
464.05	8283.16
464.23	8383.80
464.41	8386.14
464.59	8367.42
464.78	8636.58
464.96	8526.57
465.14	8479.76
465.32	8627.21
465.50	8744.24
465.69	8713.81
465.87	8559.34
466.05	8643.60
466.23	8685.73
466.41	8896.38
466.60	8966.59
466.78	8568.70
466.96	8795.73
467.14	8903.40
467.32	8819.14
467.51	8933.82
467.69	9006.38
467.87	8835.52
468.05	8971.27
468.23	8964.25
468.41	8968.93
468.60	9020.42
468.78	8973.61
468.96	9004.04
469.14	9387.89
469.32	9235.75
469.50	9039.15
469.69	9282.56
469.87	9191.28
470.05	9137.45
470.23	9205.33
470.41	9317.67
470.59	9533.00
470.77	9533.00
470.95	9430.02
471.14	9607.90
471.32	9406.61
471.50	9603.22
471.68	9696.84
471.86	9834.93
472.04	9607.90
472.22	10087.71
472.40	9851.31
472.58	9802.16
472.77	9973.02
472.95	10031.54
473.13	10303.04
473.31	9947.28
473.49	9893.44
473.67	10249.21
473.85	10331.12
474.03	10272.61
474.21	10420.06
474.39	10448.15
474.57	10487.94
474.75	10628.37
474.93	10693.91
475.12	10478.58
475.30	10626.03
475.48	10707.95
475.66	10764.12
475.84	10799.23
476.02	10977.11
476.20	10721.99
476.38	11180.74
476.56	11108.18
476.74	11154.99
476.92	11154.99
477.10	11241.59
477.28	11267.34
477.46	11609.06
477.64	11452.24
477.82	11915.67
478.00	11922.69
478.18	11873.54
478.36	12058.44
478.54	11906.31
478.72	12196.53
478.90	12336.96
479.08	12439.95
479.26	12418.88
479.44	12477.40
479.62	12638.89
479.80	12730.17
479.98	12690.38
480.16	12877.63
480.34	12678.68
480.52	13111.68
480.70	13099.98
480.88	12929.12
481.06	13284.88
481.24	12989.97
481.41	13383.18
481.59	13799.80
481.77	13586.81
481.95	13830.23
482.13	13722.56
482.31	13893.42
482.49	13956.61
482.67	14190.67
482.85	14272.59
483.03	14476.21
483.21	14497.28
483.39	14803.89
483.57	14640.05
483.74	14537.07
483.92	14817.93
484.10	14661.12
484.28	14836.66
484.46	15241.57
484.64	15644.14
484.82	15342.21
485.00	15431.15
485.18	15737.76
485.35	15946.07
485.53	15431.15
485.71	15541.16
485.89	15751.81
486.07	15988.20
486.25	16168.42
486.43	16166.08
486.61	16311.19
486.78	16606.10
486.96	16393.11
487.14	16793.34
487.32	17064.85
487.50	17343.37
487.68	17259.11
487.85	17769.35
488.03	17715.51
488.21	17806.80
488.39	17633.60
488.57	18153.20
488.75	17797.43
488.92	18146.17
489.10	18565.13
489.28	18469.17
489.46	18703.22
489.64	18759.39
489.81	19082.39
489.99	18897.49
490.17	19566.88
490.35	19946.05
490.53	19592.62
490.70	19295.38
490.88	19665.18
491.06	19814.98
491.24	19796.25
491.41	19910.94
491.59	19896.89
491.77	19775.19
491.95	20154.35
492.13	20421.17
492.30	20659.91
492.48	20512.46
492.66	20760.55
492.84	20744.17
493.01	21469.73
493.19	20957.16
493.37	21406.54
493.54	21376.11
493.72	21703.79
493.90	21612.51
494.08	21884.01
494.25	22024.44
494.43	22382.54
494.61	22129.77
494.79	22443.40
494.96	22108.70
495.14	22443.40
495.32	22705.54
495.49	22885.76
495.67	23042.57
495.85	23264.92
496.02	23087.04
496.20	23021.51
496.38	23548.13
496.55	23414.72
496.73	23850.06
496.91	23690.90
497.09	23623.03
497.26	24154.33
497.44	23569.19
497.62	24060.71
497.79	24556.90
497.97	24278.38
498.14	24664.57
498.32	24463.28
498.50	24486.68
498.67	24856.49
498.85	24821.38
499.03	25083.52
499.20	25462.69
499.38	25310.55
499.56	24982.88
499.73	25371.41
499.91	25827.81
500.08	25696.74
500.26	25261.40
500.44	25720.15
500.61	25692.06
500.79	25350.34
500.97	25865.26
501.14	26214.00
501.32	25893.35
501.49	25902.71
501.67	25996.33
501.84	26312.30
502.02	26214.00
502.20	26639.98
502.37	26827.22
502.55	26735.94
502.72	26806.16
502.90	27005.10
503.07	27115.11
503.25	26951.27
503.43	27260.22
503.60	27147.87
503.78	27035.53
503.95	27012.12
504.13	26995.74
504.30	27400.65
504.48	27578.53
504.65	27639.39
504.83	28170.69
505.01	28285.37
505.18	27875.78
505.36	28168.35
505.53	28290.06
505.71	28311.12
505.88	28093.45
506.06	28343.89
506.23	28364.95
506.41	28521.77
506.58	28762.84
506.76	28734.76
506.93	28987.53
507.11	29111.58
507.28	29123.29
507.46	28816.68
507.63	28697.31
507.81	29263.72
507.98	28957.11
508.16	29163.08
508.33	29799.70
508.50	29406.49
508.68	29984.60
508.85	29876.94
509.03	30122.69
509.20	29797.36
509.38	29830.13
509.55	30092.27
509.73	30375.47
509.90	30249.08
510.08	29631.18
510.25	30160.14
510.42	30579.10
510.60	30698.47
510.77	30665.70
510.95	31089.34
511.12	30883.37
511.30	31012.10
511.47	31168.91
511.64	31325.73
511.82	31604.25
511.99	31103.38
512.17	31185.30
512.34	30895.07
512.51	31587.87
512.69	31718.94
512.86	31569.15
513.04	31931.93
513.21	31842.99
513.38	31580.85
513.56	31311.69
513.73	31704.90
513.90	31758.73
514.08	31552.76
514.25	31903.84
514.43	32091.09
514.60	32156.62
514.77	31899.16
514.95	32264.28
515.12	32259.60
515.29	32215.13
515.47	32830.69
515.64	33064.75
515.81	32746.44
515.99	32683.24
516.16	32804.95
516.33	32545.15
516.51	33092.83
516.68	32126.19
516.85	32212.79
517.03	32683.24
517.20	32783.88
517.37	33123.26
517.54	33139.65
517.72	33462.64
517.89	33380.72
518.06	33198.16
518.24	33322.21
518.41	33439.23
518.58	33497.75
518.75	33326.89
518.93	34085.22
519.10	33841.81
519.27	33537.54
519.45	34005.64
519.62	34316.93
519.79	34316.93
519.96	34471.41
520.14	34338.00
520.31	34157.78
520.48	34448.00
520.65	34267.78
520.83	34586.10
521.00	35267.19
521.17	35136.12
521.34	34986.33
521.52	34778.02
521.69	34855.26
521.86	35416.99
522.03	34918.45
522.20	34909.09
522.38	35187.61
522.55	35489.54
522.72	35314.00
522.89	35147.82
523.07	35344.43
523.24	35243.79
523.41	35955.31
523.58	35569.12
523.75	36362.56
523.92	36020.84
524.10	36009.14
524.27	36257.24
524.44	36140.21
524.61	36201.07
524.78	36538.10
524.96	36437.46
525.13	36524.06
525.30	36584.91
525.47	36964.08
525.64	36407.03
525.81	36549.81
525.98	36282.98
526.16	36114.47
526.33	36210.43
526.50	36818.97
526.67	36835.35
526.84	36793.22
527.01	36301.71
527.18	36821.31
527.36	37336.23
527.53	36664.49
527.70	37560.92
527.87	37097.49
528.04	37067.06
528.21	37546.87
528.38	37085.79
528.55	37324.52
528.72	37619.43
528.89	37790.29
529.07	37591.34
529.24	37481.34
529.41	38148.39
529.58	37345.59
529.75	37787.95
529.92	38148.39
530.09	37457.93
530.26	38249.03
530.43	37937.74
530.60	38071.15
530.77	37727.10
530.94	38122.65
531.11	38525.22
531.28	38192.86
531.46	38480.75
531.63	38476.07
531.80	38335.63
531.97	38209.25
532.14	37839.44
532.31	38279.46
532.48	38476.07
532.65	38649.27
532.82	38583.73
532.99	38913.75
533.16	38424.57
533.33	38323.93
533.50	38735.87
533.67	38733.53
533.84	38899.70
534.01	38602.46
534.18	39225.04
534.35	39243.76
534.52	38960.56
534.69	39374.83
534.86	39597.18
535.03	39150.14
535.20	39716.55
535.37	39489.52
535.54	39864.00
535.71	39402.92
535.88	39821.87
536.05	39641.65
536.22	39871.03
536.38	39711.87
536.55	39353.77
536.72	39686.12
536.89	39580.80
537.06	39768.04
537.23	39658.04
537.40	40229.13
537.57	39903.79
537.74	40048.91
537.91	40175.30
538.08	40128.48
538.25	39934.22
538.42	40004.44
538.59	40493.61
538.75	39929.54
538.92	40385.94
539.09	40367.22
539.26	40414.03
539.43	40165.93
539.60	40353.18
539.77	39924.86
539.94	40500.63
540.11	40388.28
540.28	40463.18
540.44	40320.41
540.61	40018.48
540.78	40268.92
540.95	40657.45
541.12	40194.02
541.29	41242.58
541.46	40680.85
541.62	41181.73
541.79	41022.57
541.96	40456.16
542.13	41064.70
542.30	41315.14
542.47	40645.74
542.63	40980.44
542.80	40858.73
542.97	41394.71
543.14	41883.89
543.31	41633.45
543.48	41558.55
543.64	42010.28
543.81	42141.35
543.98	41329.18
544.15	41565.57
544.32	42153.05
544.48	42260.71
544.65	41766.86
544.82	41778.56
544.99	41769.20
545.16	42181.13
545.32	42080.49
545.49	42185.82
545.66	41998.57
545.83	42398.80
546.00	42284.12
546.16	41996.23
546.33	42134.32
546.50	41935.38
546.67	42209.22
546.83	41729.41
547.00	42398.80
547.17	41930.70
547.34	42127.30
547.50	42637.54
547.67	42965.21
547.84	42756.91
548.00	42705.41
548.17	42777.97
548.34	42831.80
548.51	42864.57
548.67	43215.65
548.84	43210.97
549.01	42241.99
549.18	42595.41
549.34	42841.17
549.51	42806.06
549.68	43442.68
549.84	43068.20
550.01	43159.48
550.18	42700.73
550.34	42965.21
550.51	42997.98
550.68	42667.97
550.84	42548.60
551.01	42918.40
551.18	43330.34
551.34	43222.67
551.51	43166.50
551.68	43119.69
551.84	43742.27
552.01	43349.06
552.18	43459.07
552.34	43033.09
552.51	43540.99
552.68	43117.35
552.84	43576.09
553.01	43779.72
553.18	43859.30
553.34	43484.81
553.51	43129.05
553.67	43578.43
553.84	43625.25
554.01	43585.46
554.17	44016.11
554.34	44048.88
554.51	43613.54
554.67	44081.65
554.84	43798.44
555.00	43487.15
555.17	43948.24
555.33	43964.62
555.50	43833.55
555.67	43903.77
555.83	43772.70
556.00	44037.18
556.16	44360.17
556.33	44226.76
556.50	44051.22
556.66	44083.99
556.83	44212.72
556.99	44130.80
557.16	44725.30
557.32	44306.34
557.49	44521.67
557.65	43847.60
557.82	44039.52
557.98	44247.83
558.15	44289.96
558.32	44388.26
558.48	44219.74
558.65	44051.22
558.81	44182.29
558.98	44612.95
559.14	44289.96
559.31	44369.54
559.47	45071.70
559.64	44325.07
559.80	45067.02
559.97	44430.39
560.13	44280.60
560.30	44643.38
560.46	44645.72
560.63	44652.74
560.79	44570.82
560.96	44477.20
561.12	44538.05
561.29	44704.23
561.45	44231.44
561.61	44538.05
561.78	44598.91
561.94	44268.89
562.11	44669.12
562.27	44898.50
562.44	44797.85
562.60	45099.78
562.77	45022.54
562.93	44711.25
563.10	45001.48
563.26	44470.18
563.42	45071.70
563.59	44463.16
563.75	44842.32
563.92	45228.51
564.08	45195.74
564.24	44971.05
564.41	44748.70
564.57	44652.74
564.74	44655.08
564.90	45177.02
565.07	45188.72
565.23	44563.80
565.39	45319.79
565.56	45074.04
565.72	44851.69
565.88	44811.90
566.05	44947.65
566.21	44964.03
566.38	44921.90
566.54	45324.47
566.70	45448.52
566.87	45237.87
567.03	44973.39
567.19	45413.41
567.36	44996.80
567.52	45071.70
567.68	45549.17
567.85	44797.85
568.01	45413.41
568.17	44882.11
568.34	45298.73
568.50	45195.74
568.66	45015.52
568.83	45104.46
568.99	44624.65
569.15	45006.16
569.32	45102.12
569.48	45090.42
569.64	45668.53
569.81	45193.40
569.97	45059.99
570.13	45411.07
570.30	44814.24
570.46	45509.38
570.62	45172.34
570.78	44516.99
570.95	45347.88
571.11	45485.97
571.27	45038.93
571.43	45574.91
571.60	45361.92
571.76	45144.25
571.92	45272.98
572.09	45350.22
572.25	45249.58
572.41	45516.40
572.57	45418.10
572.74	45923.65
572.90	45038.93
573.06	45029.57
573.22	45268.30
573.38	45394.69
573.55	45500.01
573.71	45212.13
573.87	45127.87
574.03	45298.73
574.20	45361.92
574.36	45148.93
574.52	45476.61
574.68	45244.90
574.84	45460.23
575.01	45223.83
575.17	45200.43
575.33	45467.25
575.49	45235.53
575.65	45762.15
575.82	45509.38
575.98	45640.45
576.14	45837.05
576.30	45397.03
576.46	45818.33
576.62	45097.44
576.79	45162.98
576.95	45146.59
577.11	45439.16
577.27	45310.43
577.43	45607.68
577.59	45235.53
577.75	45024.89
577.92	44680.83
578.08	45177.02
578.24	44795.51
578.40	45137.23
578.56	45092.76
578.72	45825.35
578.88	45551.51
579.04	45869.82
579.21	45097.44
579.37	45303.41
579.53	45390.01
579.69	45188.72
579.85	45436.82
580.01	45188.72
580.17	45682.58
580.33	45794.92
580.49	45631.08
580.65	46012.59
580.82	45897.91
580.98	45925.99
581.14	45783.22
581.30	45701.30
581.46	45574.91
581.62	45593.64
581.78	45390.01
581.94	45844.07
582.10	45748.11
582.26	45944.72
582.42	45773.86
582.58	45516.40
582.74	45675.55
582.90	45820.67
583.06	45443.84
583.22	45907.27
583.38	45804.28
583.54	45776.20
583.70	45668.53
583.86	45684.92
584.02	45312.77
584.18	45563.21
584.34	45694.28
584.50	45680.24
584.66	45539.80
584.82	45357.24
584.98	45794.92
585.14	45855.78
585.30	45610.02
585.46	45797.26
585.62	45823.01
585.78	45666.19
585.94	45277.66
586.10	45263.62
586.26	45647.47
586.42	45759.81
586.58	45815.99
586.74	45909.61
586.90	45263.62
587.06	45720.02
587.22	45914.29
587.38	45483.63
587.54	46010.25
587.70	45897.91
587.86	45764.49
588.02	45605.34
588.18	45780.88
588.34	45736.41
588.49	45518.74
588.65	45174.68
588.81	45375.97
588.97	45354.90
589.13	45333.84
589.29	45450.86
589.45	45036.59
589.61	45750.45
589.77	45794.92
589.93	45617.04
590.08	46106.21
