SpectraSuite Data File
++++++++++++++++++++++++++++++++++++
Date: Fri Oct 25 10:44:04 EDT 2013
User: price-jones
Dark Spectrum Present: No
Reference Spectrum Present: No
Number of Sampled Component Spectra: 1
Spectrometers: USB2+H05261
Integration Time (usec): 100000 (USB2+H05261)
Spectra Averaged: 1 (USB2+H05261)
Boxcar Smoothing: 0 (USB2+H05261)
Correct for Electrical Dark: No (USB2+H05261)
Strobe/Lamp Enabled: No (USB2+H05261)
Correct for Detector Non-linearity: No (USB2+H05261)
Correct for Stray Light: No (USB2+H05261)
Number of Pixels in Processed Spectrum: 2048
>>>>>Begin Processed Spectral Data<<<<<
365.73	121.71
365.92	121.71
366.12	121.71
366.32	81.92
366.52	0.00
366.72	72.56
366.91	70.22
367.11	0.00
367.31	53.83
367.51	32.77
367.70	39.79
367.90	0.00
368.10	0.00
368.30	56.17
368.49	0.00
368.69	30.43
368.89	0.00
369.09	4.68
369.28	79.58
369.48	63.19
369.68	102.98
369.87	79.58
370.07	117.03
370.27	91.28
370.47	173.20
370.66	442.36
370.86	435.34
371.06	491.51
371.25	606.20
371.45	479.81
371.65	524.28
371.84	444.70
372.04	559.39
372.24	433.00
372.44	566.41
372.63	550.03
372.83	559.39
373.03	503.22
373.22	585.13
373.42	547.69
373.62	514.92
373.81	526.62
374.01	592.16
374.21	538.32
374.40	587.47
374.60	535.98
374.79	606.20
374.99	603.86
375.19	603.86
375.38	678.76
375.58	643.65
375.78	631.94
375.97	645.99
376.17	615.56
376.37	624.92
376.56	653.01
376.76	681.10
376.95	589.82
377.15	566.41
377.35	622.58
377.54	657.69
377.74	648.33
377.93	725.57
378.13	667.05
378.33	667.05
378.52	716.20
378.72	688.12
378.91	695.14
379.11	737.27
379.31	683.44
379.50	587.47
379.70	739.61
379.89	737.27
380.09	727.91
380.28	676.41
380.48	561.73
380.68	645.99
380.87	711.52
381.07	699.82
381.26	695.14
381.46	779.40
381.65	690.46
381.85	690.46
382.04	629.60
382.24	681.10
382.43	657.69
382.63	727.91
382.83	739.61
383.02	798.12
383.22	690.46
383.41	725.57
383.61	723.23
383.80	772.38
384.00	805.14
384.19	653.01
384.39	821.53
384.58	805.14
384.78	833.23
384.97	875.36
385.17	835.57
385.36	866.00
385.56	837.91
385.75	856.64
385.95	805.14
386.14	863.66
386.34	840.25
386.53	840.25
386.72	917.49
386.92	908.13
387.11	847.27
387.31	814.51
387.50	971.32
387.70	924.51
387.89	922.17
388.09	905.79
388.28	830.89
388.48	901.11
388.67	968.98
388.86	1111.75
389.06	964.30
389.25	957.28
389.45	994.73
389.64	1041.54
389.84	1043.88
390.03	1057.92
390.22	1090.69
390.42	1018.13
390.61	1043.88
390.81	1121.12
391.00	1074.31
391.19	1060.26
391.39	1048.56
391.58	1095.37
391.78	1118.78
391.97	1067.28
392.16	1071.97
392.36	1060.26
392.55	1102.39
392.75	1018.13
392.94	1039.20
393.13	971.32
393.33	997.07
393.52	1064.94
393.71	1160.91
393.91	1212.40
394.10	1207.72
394.29	1118.78
394.49	1196.01
394.68	1277.93
394.88	1299.00
395.07	1294.32
395.26	1287.29
395.46	1261.55
395.65	1296.66
395.84	1231.12
396.04	1341.13
396.23	1219.42
396.42	1160.91
396.62	1146.86
396.81	1291.98
397.00	1315.38
397.19	1303.68
397.39	1376.24
397.58	1451.13
397.77	1411.34
397.97	1430.07
398.16	1497.94
398.35	1530.71
398.55	1465.18
398.74	1549.43
398.93	1535.39
399.12	1526.03
399.32	1607.95
399.51	1600.93
399.70	1638.38
399.90	1692.21
400.09	1727.32
400.28	1650.08
400.47	1703.91
400.67	1722.63
400.86	1710.93
401.05	1771.79
401.24	1769.44
401.44	1694.55
401.63	1858.39
401.82	1895.83
402.01	1764.76
402.21	1905.20
402.40	1774.13
402.59	1893.49
402.78	1865.41
402.97	1804.55
403.17	1963.71
403.36	1851.36
403.55	1912.22
403.74	2017.54
403.93	1930.94
404.13	1954.35
404.32	1928.60
404.51	1975.41
404.70	1949.67
404.89	2015.20
405.09	2097.12
405.28	1952.01
405.47	1994.14
405.66	2101.80
405.85	2111.16
406.05	2050.31
406.24	2047.97
406.43	2153.29
406.62	2132.23
406.81	2190.74
407.00	2216.49
407.20	2183.72
407.39	2094.78
407.58	2174.36
407.77	2186.06
407.96	2356.92
408.15	2293.72
408.34	2270.32
408.54	2413.09
408.73	2349.90
408.92	2377.98
409.11	2473.95
409.30	2321.81
409.49	2314.79
409.68	2354.58
409.87	2354.58
410.07	2396.71
410.26	2321.81
410.45	2478.63
410.64	2441.18
410.83	2520.76
411.02	2619.06
411.21	2672.89
411.40	2712.68
411.59	2668.21
411.78	2715.02
411.98	2743.11
412.17	2743.11
412.36	2803.96
412.55	2841.41
412.74	2808.64
412.93	2789.92
413.12	2834.39
413.31	2925.67
413.50	2939.71
413.69	2920.99
413.88	2995.89
414.07	2911.63
414.26	3033.33
414.45	3075.46
414.64	3119.93
414.83	3166.74
415.02	3227.60
415.22	3243.98
415.41	3351.65
415.60	3241.64
415.79	3351.65
415.98	3414.84
416.17	3466.33
416.36	3304.84
416.55	3363.35
416.74	3414.84
416.93	3510.80
417.12	3456.97
417.31	3536.55
417.50	3361.01
417.69	3459.31
417.88	3644.21
418.07	3536.55
418.26	3487.40
418.45	3681.66
418.64	3634.85
418.83	3801.03
419.02	3665.28
419.21	3751.88
419.39	3882.95
419.58	3712.09
419.77	3606.77
419.96	3730.81
420.15	3796.35
420.34	3733.15
420.53	3904.01
420.72	3838.48
420.91	3885.29
421.10	3967.21
421.29	4030.40
421.48	3901.67
421.67	4032.74
421.86	3927.42
422.05	3847.84
422.24	3950.82
422.43	4016.36
422.61	3941.46
422.80	3964.87
422.99	3997.64
423.18	4126.36
423.37	4117.00
423.56	4011.68
423.75	3981.25
423.94	4133.39
424.13	3763.58
424.32	3868.91
424.50	4119.34
424.69	4152.11
424.88	4121.68
425.07	4042.11
425.26	4030.40
425.45	4053.81
425.64	4011.68
425.83	4100.62
426.01	4170.83
426.20	4196.58
426.39	4306.59
426.58	4138.07
426.77	4014.02
426.96	4257.43
427.15	4243.39
427.33	4367.44
427.52	4308.93
427.71	4278.50
427.90	4194.24
428.09	4198.92
428.28	4238.71
428.46	4271.48
428.65	4421.27
428.84	4531.28
429.03	4428.29
429.22	4042.11
429.40	4339.35
429.59	4418.93
429.78	4072.53
429.97	4079.55
430.16	4161.47
430.34	4243.39
430.53	4229.35
430.72	4512.55
430.91	4381.48
431.10	4538.30
431.28	4660.01
431.47	4805.12
431.66	4734.90
431.85	4730.22
432.03	4821.50
432.22	4821.50
432.41	4781.71
432.60	4779.37
432.79	4922.15
432.97	5085.98
433.16	4840.23
433.35	4725.54
433.54	4713.84
433.72	4772.35
433.91	4863.63
434.10	4880.02
434.28	4957.25
434.47	5100.03
434.66	5158.54
434.85	5167.90
435.03	5156.20
435.22	5034.49
435.41	5305.99
435.59	5238.12
435.78	5188.97
435.97	5331.74
436.16	5268.55
436.34	5275.57
436.53	5366.85
436.72	5439.40
436.90	5406.64
437.09	5371.53
437.28	5214.71
437.46	5376.21
437.65	5387.91
437.84	5392.59
438.02	5139.82
438.21	5324.72
438.40	5303.65
438.58	5558.77
438.77	5488.56
438.96	5493.24
439.14	5741.33
439.33	5643.03
439.52	5816.23
439.70	5841.98
439.89	5788.14
440.08	5891.13
440.26	6001.13
440.45	5830.27
440.63	6223.48
440.82	6033.90
441.01	6239.87
441.19	6148.59
441.38	6377.96
441.57	6333.49
441.75	6410.73
441.94	6452.86
442.12	6555.84
442.31	6630.74
442.50	6677.55
442.68	6654.14
442.87	6579.25
443.05	6534.78
443.24	6785.21
443.43	6782.87
443.61	6778.19
443.80	6775.85
443.98	6614.35
444.17	6396.68
444.35	6729.04
444.54	6902.24
444.73	6717.34
444.91	6761.81
445.10	6796.92
445.28	6754.79
445.47	6616.69
445.65	6705.63
445.84	6663.51
446.02	6792.23
446.21	6860.11
446.39	6691.59
446.58	6771.17
446.77	6855.43
446.95	6661.16
447.14	6991.18
447.32	7009.90
447.51	7023.95
447.69	6820.32
447.88	7037.99
448.06	6923.30
448.25	6956.07
448.43	6991.18
448.62	7138.63
448.80	7019.27
448.99	7138.63
449.17	7248.64
449.36	7054.37
449.54	7283.75
449.73	7297.79
449.91	7344.60
450.10	7461.63
450.28	7583.34
450.46	7609.08
450.65	7538.87
450.83	7449.93
451.02	7426.52
451.20	7583.34
451.39	7585.68
451.57	7447.58
451.76	7452.27
451.94	7475.67
452.13	7590.36
452.31	7494.40
452.49	7293.11
452.68	7428.86
452.86	7468.65
453.05	7492.05
453.23	7492.05
453.42	7520.14
453.60	7531.84
453.78	7721.43
453.97	7665.25
454.15	7541.21
454.34	7658.23
454.52	7845.48
454.70	7911.01
454.89	7847.82
455.07	7903.99
455.26	7868.88
455.44	8088.89
455.62	8266.77
455.81	8231.66
455.99	8182.51
456.17	8051.44
456.36	7995.27
456.54	8152.09
456.73	8224.64
456.91	8173.15
457.09	8374.44
457.28	8580.40
457.46	8257.41
457.64	8400.18
457.83	8664.66
458.01	8276.13
458.19	8449.33
458.38	8503.17
458.56	8557.00
458.74	8624.87
458.93	8379.12
459.11	8681.05
459.29	8620.19
459.48	8606.15
459.66	8575.72
459.84	8580.40
460.03	8791.05
460.21	8805.10
460.39	8861.27
460.57	8837.86
460.76	8856.59
460.94	9029.79
461.12	8968.93
461.31	9025.11
461.49	8947.87
461.67	8856.59
461.85	9132.77
462.04	8966.59
462.22	9490.87
462.40	9210.01
462.59	9153.84
462.77	9132.77
462.95	9287.25
463.13	9296.61
463.32	9338.74
463.50	9254.48
463.68	9420.66
463.86	9181.92
464.05	9081.28
464.23	9064.89
464.41	9453.42
464.59	9352.78
464.78	9547.05
464.96	9392.57
465.14	9387.89
465.32	9490.87
465.50	9710.88
465.69	9544.70
465.87	9549.39
466.05	9535.34
466.23	9558.75
466.41	9647.69
466.60	9657.05
466.78	9430.02
466.96	9432.36
467.14	9521.30
467.32	9856.00
467.51	9706.20
467.69	9537.68
467.87	9568.11
468.05	9776.42
468.23	9881.74
468.41	9664.07
468.60	9844.29
468.78	10061.96
468.96	9689.82
469.14	9935.57
469.32	10078.35
469.50	9778.76
469.69	9944.94
469.87	10204.74
470.05	9848.97
470.23	10134.52
470.41	10132.18
470.59	10359.21
470.77	10223.46
470.95	10368.57
471.14	10286.65
471.32	10249.21
471.50	10724.33
471.68	10616.67
471.86	10817.96
472.04	10637.73
472.22	11000.52
472.40	10614.33
472.58	10759.44
472.77	10822.64
472.95	10892.85
473.13	11101.16
473.31	11047.33
473.49	10724.33
473.67	10909.24
473.85	11101.16
474.03	11325.85
474.21	11419.47
474.39	11452.24
474.57	11693.32
474.75	11463.94
474.93	11459.26
475.12	11592.67
475.30	11637.14
475.48	11426.50
475.66	11534.16
475.84	11592.67
476.02	11793.96
476.20	11606.72
476.38	12079.50
476.56	12248.02
476.74	11969.50
476.92	12313.56
477.10	12224.62
477.28	12446.97
477.46	12535.91
477.64	12596.76
477.82	12875.29
478.00	13013.38
478.18	12828.48
478.36	13048.49
478.54	12933.80
478.72	13083.59
478.90	13589.15
479.08	13427.65
479.26	13502.55
479.44	13628.94
479.62	13743.63
479.80	13565.74
479.98	13980.02
480.16	14155.56
480.34	13954.27
480.52	14108.75
480.70	14087.68
480.88	14038.53
481.06	14352.16
481.24	14450.47
481.41	14726.65
481.59	14911.55
481.77	14993.47
481.95	14766.44
482.13	15257.95
482.31	15103.48
482.49	15328.17
482.67	15426.47
482.85	15468.60
483.03	15676.91
483.21	15637.12
483.39	15829.04
483.57	15906.28
483.74	16231.62
483.92	16369.71
484.10	16105.23
484.28	16325.24
484.46	16582.70
484.64	16833.13
484.82	16711.42
485.00	16723.13
485.18	16814.41
485.35	17064.85
485.53	16418.86
485.71	16629.51
485.89	16992.29
486.07	17252.09
486.25	17331.67
486.43	17242.73
486.61	17614.87
486.78	18071.28
486.96	18111.07
487.14	18394.27
487.32	18448.10
487.50	18527.68
487.68	18600.24
487.85	18960.68
488.03	19187.71
488.21	19218.14
488.39	18951.32
488.57	19283.67
488.75	19389.00
488.92	19733.06
489.10	20215.21
489.28	20091.16
489.46	20168.40
489.64	19962.43
489.81	20730.12
489.99	20673.95
490.17	21151.42
490.35	21284.83
490.53	20940.77
490.70	21195.89
490.88	20994.61
491.06	21453.35
491.24	21436.97
491.41	21043.76
491.59	21238.02
491.77	21542.29
491.95	21568.04
492.13	22059.55
492.30	22045.51
492.48	22342.75
492.66	22363.82
492.84	22747.67
493.01	22642.34
493.19	22757.03
493.37	22766.39
493.54	23190.03
493.72	23304.71
493.90	23417.06
494.08	23716.65
494.25	23836.02
494.43	24219.86
494.61	24233.91
494.79	23955.38
494.96	24276.04
495.14	24294.76
495.32	24224.54
495.49	24556.90
495.67	24596.69
495.85	24793.29
496.02	24877.55
496.20	24882.24
496.38	24961.81
496.55	25132.67
496.73	25750.57
496.91	25596.10
497.09	25930.80
497.26	25865.26
497.44	25912.07
497.62	26235.06
497.79	26176.55
497.97	25755.26
498.14	26036.12
498.32	26326.35
498.50	26455.08
498.67	26574.44
498.85	26995.74
499.03	27047.23
499.20	27042.55
499.38	26857.65
499.56	27030.85
499.73	27358.52
499.91	27208.73
500.08	27585.55
500.26	26876.37
500.44	27440.44
500.61	27749.39
500.79	27171.28
500.97	27817.27
501.14	27880.46
501.32	27716.62
501.49	27880.46
501.67	28109.83
501.84	28168.35
502.02	28091.11
502.20	28268.99
502.37	28790.93
502.55	28624.75
502.72	28793.27
502.90	28870.51
503.07	28652.84
503.25	28882.21
503.43	28947.75
503.60	28992.22
503.78	28573.26
503.95	28952.43
504.13	29331.59
504.30	29649.91
504.48	29408.83
504.65	29532.88
504.83	29972.90
505.01	29919.07
505.18	29979.92
505.36	30089.93
505.53	30134.40
505.71	30391.86
505.88	30522.93
506.06	30017.37
506.23	30707.83
506.41	30183.55
506.58	30731.23
506.76	30710.17
506.93	30810.81
507.11	30724.21
507.28	30944.22
507.46	30504.20
507.63	30632.93
507.81	31159.55
507.98	31007.42
508.16	31316.37
508.33	31335.09
508.50	31805.54
508.68	31487.23
508.85	31742.35
509.03	31852.35
509.20	31929.59
509.38	32245.56
509.55	32329.82
509.73	32313.44
509.90	32149.60
510.08	32130.87
510.25	32327.48
510.42	32907.93
510.60	32701.96
510.77	32680.90
510.95	32680.90
511.12	32706.65
511.30	33146.67
511.47	33607.75
511.64	33354.97
511.82	33619.46
511.99	33153.69
512.17	33149.01
512.34	33209.86
512.51	33301.14
512.69	33228.59
512.86	33795.00
513.04	34117.99
513.21	33912.02
513.38	33586.69
513.56	33560.94
513.73	33453.28
513.90	34183.52
514.08	33684.99
514.25	33979.90
514.43	33909.68
514.60	34204.59
514.77	34019.69
514.95	34567.37
515.12	34719.51
515.29	34710.14
515.47	34829.51
515.64	34705.46
515.81	34827.17
515.99	34595.46
516.16	34412.90
516.33	34543.97
516.51	34216.29
516.68	33670.95
516.85	33954.15
517.03	34188.21
517.20	34714.83
517.37	35093.99
517.54	35367.84
517.72	35239.11
517.89	34705.46
518.06	34600.14
518.24	35077.61
518.41	34843.56
518.58	35388.90
518.75	35463.80
518.93	35498.91
519.10	35571.46
519.27	35775.09
519.45	36065.31
519.62	36140.21
519.79	36271.28
519.96	36416.40
520.14	36048.93
520.31	36545.12
520.48	36233.83
520.65	36212.77
520.83	37015.57
521.00	37090.47
521.17	36996.85
521.34	36694.92
521.52	37024.93
521.69	37069.40
521.86	37453.25
522.03	37319.84
522.20	37151.32
522.38	37247.29
522.55	37024.93
522.72	37216.86
522.89	37432.19
523.07	37539.85
523.24	37312.82
523.41	37879.23
523.58	37897.95
523.75	38536.92
523.92	38087.54
524.10	38003.28
524.27	37626.45
524.44	38230.31
524.61	38139.03
524.78	38176.48
524.96	38141.37
525.13	38473.73
525.30	38464.36
525.47	38773.31
525.64	38731.18
525.81	38597.77
525.98	38244.35
526.16	38370.74
526.33	37928.38
526.50	38490.11
526.67	37972.85
526.84	38382.45
527.01	38415.21
527.18	38689.06
527.36	38902.04
527.53	38974.60
527.70	39433.35
527.87	39438.03
528.04	39592.50
528.21	39330.36
528.38	39597.18
528.55	40140.19
528.72	39856.98
528.89	40224.45
529.07	39871.03
529.24	39559.73
529.41	39828.90
529.58	39498.88
529.75	39651.02
529.92	39990.39
530.09	40088.70
530.26	39971.67
530.43	40404.67
530.60	40123.80
530.77	40264.24
530.94	40725.32
531.11	40149.55
531.28	40425.73
531.46	40671.49
531.63	40816.60
531.80	40739.36
531.97	40797.88
532.14	40002.10
532.31	40046.57
532.48	40280.62
532.65	40926.61
532.82	40374.24
532.99	40802.56
533.16	40713.62
533.33	40690.21
533.50	41053.00
533.67	40765.11
533.84	41017.89
534.01	41106.83
534.18	41013.21
534.35	41551.53
534.52	40832.99
534.69	41254.28
534.86	41490.68
535.03	41441.53
535.20	41792.61
535.37	41834.74
535.54	42021.98
535.71	41434.50
535.88	41914.31
536.05	41895.59
536.22	41895.59
536.38	42047.72
536.55	41841.76
536.72	41794.95
536.89	41331.52
537.06	41808.99
537.23	42157.73
537.40	41858.14
537.57	42377.74
537.74	42164.75
537.91	42206.88
538.08	41923.68
538.25	41998.57
538.42	42373.06
538.59	42162.41
538.75	42117.94
538.92	41769.20
539.09	42387.10
539.26	42377.74
539.43	42361.36
539.60	42340.29
539.77	42211.56
539.94	42284.12
540.11	42124.96
540.28	42572.00
540.44	42323.91
540.61	42377.74
540.78	42396.46
540.95	42366.04
541.12	42719.46
541.29	42604.77
541.46	42990.96
541.62	43028.41
541.79	42761.59
541.96	42335.61
542.13	42990.96
542.30	42808.40
542.47	43196.93
542.63	43033.09
542.80	43346.72
542.97	43304.59
543.14	43356.08
543.31	43313.95
543.48	43721.21
543.64	43716.53
543.81	43538.65
543.98	43744.61
544.15	44065.27
544.32	43763.34
544.48	44341.45
544.65	43906.11
544.82	44367.20
544.99	43391.19
545.16	43819.51
545.32	43938.88
545.49	44418.69
545.66	44357.83
545.83	44203.36
546.00	44322.72
546.16	43964.62
546.33	44004.41
546.50	43632.27
546.67	44516.99
546.83	44140.16
547.00	43786.74
547.17	43964.62
547.34	44500.61
547.50	44554.44
547.67	44226.76
547.84	44626.99
548.00	44554.44
548.17	44549.76
548.34	44577.84
548.51	45193.40
548.67	44786.15
548.84	45015.52
549.01	44825.94
549.18	44610.61
549.34	44779.13
549.51	45055.31
549.68	45139.57
549.84	45181.70
550.01	44910.20
550.18	44795.51
550.34	44371.88
550.51	44734.66
550.68	44877.43
550.84	44371.88
551.01	45162.98
551.18	45020.20
551.34	45167.66
551.51	45368.94
551.68	45036.59
551.84	45420.44
552.01	44945.31
552.18	45404.05
552.34	44839.98
552.51	45160.64
552.68	45315.11
552.84	45684.92
553.01	45523.42
553.18	45240.21
553.34	44954.67
553.51	45088.08
553.67	45467.25
553.84	45446.18
554.01	45270.64
554.17	45759.81
554.34	45682.58
554.51	45715.34
554.67	45776.20
554.84	45563.21
555.00	45214.47
555.17	45530.44
555.33	45549.17
555.50	45181.70
555.67	45858.12
555.83	45619.38
556.00	45776.20
556.16	46204.52
556.33	45504.70
556.50	45457.88
556.66	45696.62
556.83	45170.00
556.99	45762.15
557.16	45879.18
557.32	45993.87
557.49	46190.47
557.65	45722.37
557.82	46454.95
557.98	46054.72
558.15	46155.36
558.32	45961.10
558.48	45769.18
558.65	45738.75
558.81	45815.99
558.98	45841.73
559.14	45862.80
559.31	45820.67
559.47	46089.83
559.64	46305.16
559.80	46101.53
559.97	46410.48
560.13	45734.07
560.30	45942.38
560.46	45984.51
560.63	46358.99
560.79	46721.77
560.96	46258.35
561.12	46138.98
561.29	46188.13
561.45	46302.82
561.61	46291.12
561.78	46321.54
561.94	45998.55
562.11	46206.86
562.27	45935.35
562.44	46232.60
562.60	46525.17
562.77	46534.53
562.93	46681.98
563.10	46461.97
563.26	46497.08
563.42	46581.34
563.59	46319.20
563.75	46452.61
563.92	46412.82
564.08	46621.13
564.24	46382.40
564.41	46691.35
564.57	46628.15
564.74	46880.93
564.90	46293.46
565.07	46401.12
565.23	46232.60
565.39	46684.33
565.56	46382.40
565.72	45851.09
565.88	46342.61
566.05	46239.62
566.21	46363.67
566.38	46089.83
566.54	46672.62
566.70	46602.41
566.87	47075.19
567.03	46660.92
567.19	46794.33
567.36	46693.69
567.52	46560.28
567.68	47030.72
567.85	46761.56
568.01	46761.56
568.17	46843.48
568.34	46834.12
568.50	46457.29
568.66	46454.95
568.83	46227.92
568.99	46595.38
569.15	46309.84
569.32	46497.08
569.48	46616.45
569.64	46700.71
569.81	46902.00
569.97	45989.19
570.13	46700.71
570.30	46319.20
570.46	46459.63
570.62	46461.97
570.78	46417.50
570.95	46480.70
571.11	46717.09
571.27	46543.89
571.43	46256.01
571.60	46817.74
571.76	46504.10
571.92	47004.98
572.09	46705.39
572.25	46693.69
572.41	46806.03
572.57	47255.42
572.74	47044.77
572.90	47002.64
573.06	46719.43
573.22	46543.89
573.38	47196.90
573.55	46944.12
573.71	47049.45
573.87	47161.79
574.03	46653.90
574.20	46820.08
574.36	46747.52
574.52	46817.74
574.68	46656.24
574.84	46663.26
575.01	46824.76
575.17	46787.31
575.33	46466.66
575.49	46885.61
575.65	47222.65
575.82	46838.80
575.98	47199.24
576.14	46897.31
576.30	47196.90
576.46	46579.00
576.62	46768.58
576.79	46649.22
576.95	46529.85
577.11	47210.95
577.27	46635.17
577.43	46822.42
577.59	46583.68
577.75	47009.66
577.92	46476.02
578.08	46656.24
578.24	46782.63
578.40	46944.12
578.56	46923.06
578.72	46820.08
578.88	47065.83
579.04	47302.23
579.21	46904.34
579.37	47042.43
579.53	47012.00
579.69	46740.50
579.85	46763.90
580.01	46934.76
580.17	47136.05
580.33	47054.13
580.49	46806.03
580.65	46782.63
580.82	46841.14
580.98	46892.63
581.14	46670.28
581.30	47063.49
581.46	47065.83
581.62	46974.55
581.78	46735.82
581.94	47229.67
582.10	46696.03
582.26	47091.58
582.42	46724.11
582.58	47337.33
582.74	46696.03
582.90	47489.47
583.06	47625.22
583.22	47056.47
583.38	46946.47
583.54	47288.18
583.70	47178.18
583.86	47157.11
584.02	46754.54
584.18	47173.50
584.34	47079.88
584.50	47016.68
584.66	46967.53
584.82	47009.66
584.98	47208.61
585.14	46604.75
585.30	46700.71
585.46	46646.88
585.62	46761.56
585.78	46916.04
585.94	46546.23
586.10	46913.70
586.26	46848.16
586.42	47306.91
586.58	46988.60
586.74	47021.36
586.90	46719.43
587.06	46681.98
587.22	46894.97
587.38	46677.30
587.54	46894.97
587.70	47227.33
587.86	46871.57
588.02	46784.97
588.18	46880.93
588.34	46674.96
588.49	46602.41
588.65	46560.28
588.81	46258.35
588.97	46518.15
589.13	46660.92
589.29	46710.07
589.45	46754.54
589.61	47098.60
589.77	46817.74
589.93	46827.10
