SpectraSuite Data File
++++++++++++++++++++++++++++++++++++
Date: Fri Oct 25 11:22:52 EDT 2013
User: price-jones
Dark Spectrum Present: No
Reference Spectrum Present: No
Number of Sampled Component Spectra: 1
Spectrometers: USB2+H05261
Integration Time (usec): 100000 (USB2+H05261)
Spectra Averaged: 1 (USB2+H05261)
Boxcar Smoothing: 0 (USB2+H05261)
Correct for Electrical Dark: No (USB2+H05261)
Strobe/Lamp Enabled: No (USB2+H05261)
Correct for Detector Non-linearity: No (USB2+H05261)
Correct for Stray Light: No (USB2+H05261)
Number of Pixels in Processed Spectrum: 2048
>>>>>Begin Processed Spectral Data<<<<<
365.73	184.90
365.92	184.90
366.12	184.90
366.32	198.95
366.52	156.82
366.72	177.88
366.91	95.96
367.11	140.43
367.31	147.45
367.51	154.48
367.70	168.52
367.90	161.50
368.10	110.01
368.30	156.82
368.49	105.32
368.69	234.05
368.89	112.35
369.09	196.60
369.28	138.09
369.48	140.43
369.68	243.42
369.87	203.63
370.07	187.24
370.27	161.50
370.47	290.23
370.66	580.45
370.86	664.71
371.06	615.56
371.25	671.73
371.45	657.69
371.65	664.71
371.84	688.12
372.04	650.67
372.24	727.91
372.44	641.31
372.63	692.80
372.83	725.57
373.03	819.19
373.22	805.14
373.42	793.44
373.62	758.33
373.81	795.78
374.01	861.32
374.21	788.76
374.40	798.12
374.60	823.87
374.79	821.53
374.99	821.53
375.19	861.32
375.38	837.91
375.58	901.11
375.78	901.11
375.97	887.06
376.17	842.59
376.37	957.28
376.56	856.64
376.76	833.23
376.95	926.85
377.15	795.78
377.35	931.53
377.54	896.43
377.74	840.25
377.93	884.72
378.13	910.47
378.33	940.90
378.52	919.83
378.72	945.58
378.91	905.79
379.11	924.51
379.31	898.77
379.50	938.55
379.70	999.41
379.89	983.02
380.09	926.85
380.28	950.26
380.48	973.66
380.68	1006.43
380.87	968.98
381.07	968.98
381.26	1015.79
381.46	1071.97
381.65	990.05
381.85	1062.60
382.04	961.96
382.24	997.07
382.43	1048.56
382.63	1118.78
382.83	1083.67
383.02	1128.14
383.22	1088.35
383.41	1083.67
383.61	1102.39
383.80	1158.57
384.00	1090.69
384.19	1083.67
384.39	1158.57
384.58	1193.67
384.78	1069.62
384.97	1191.33
385.17	1158.57
385.36	1186.65
385.56	1167.93
385.75	1139.84
385.95	1125.80
386.14	1210.06
386.34	1165.59
386.53	1111.75
386.72	1128.14
386.92	1287.29
387.11	1254.53
387.31	1203.04
387.50	1207.72
387.70	1214.74
387.89	1231.12
388.09	1240.48
388.28	1329.42
388.48	1203.04
388.67	1336.45
388.86	1313.04
389.06	1334.11
389.25	1224.10
389.45	1409.00
389.64	1303.68
389.84	1439.43
390.03	1348.15
390.22	1376.24
390.42	1362.19
390.61	1320.06
390.81	1451.13
391.00	1486.24
391.19	1476.88
391.39	1437.09
391.58	1549.43
391.78	1516.67
391.97	1511.99
392.16	1446.45
392.36	1425.39
392.55	1495.60
392.75	1455.81
392.94	1448.79
393.13	1516.67
393.33	1476.88
393.52	1643.06
393.71	1570.50
393.91	1551.78
394.10	1645.40
394.29	1537.73
394.49	1678.16
394.68	1605.61
394.88	1619.65
395.07	1720.29
395.26	1666.46
395.46	1680.50
395.65	1689.87
395.84	1650.08
396.04	1776.47
396.23	1741.36
396.42	1734.34
396.62	1886.47
396.81	1839.66
397.00	1746.04
397.19	1767.10
397.39	1879.45
397.58	1809.23
397.77	1781.15
397.97	1989.46
398.16	1923.92
398.35	1858.39
398.55	1851.36
398.74	1949.67
398.93	1975.41
399.12	1893.49
399.32	1881.79
399.51	1977.75
399.70	2001.16
399.90	1874.77
400.09	1980.09
400.28	2057.33
400.47	2010.52
400.67	2073.71
400.86	2085.42
401.05	2069.03
401.24	2193.08
401.44	2129.89
401.63	2265.64
401.82	2118.18
402.01	2200.10
402.21	2218.83
402.40	2249.25
402.59	2181.38
402.78	2232.87
402.97	2183.72
403.17	2232.87
403.36	2319.47
403.55	2319.47
403.74	2399.05
403.93	2293.72
404.13	2366.28
404.32	2305.43
404.51	2338.20
404.70	2483.31
404.89	2394.37
405.09	2485.65
405.28	2520.76
405.47	2539.48
405.66	2525.44
405.85	2555.86
406.05	2506.71
406.24	2478.63
406.43	2558.21
406.62	2614.38
406.81	2684.59
407.00	2621.40
407.20	2679.91
407.39	2703.32
407.58	2771.19
407.77	2731.41
407.96	2661.19
408.15	2682.25
408.34	2761.83
408.54	2750.13
408.73	2939.71
408.92	2766.51
409.11	2904.60
409.30	2850.77
409.49	2916.31
409.68	2972.48
409.87	2897.58
410.07	2963.12
410.26	2967.80
410.45	2951.42
410.64	3073.12
410.83	3222.92
411.02	3105.89
411.21	3201.85
411.40	3300.16
411.59	3255.69
411.78	3215.90
411.98	3260.37
412.17	3412.50
412.36	3279.09
412.55	3344.63
412.74	3435.91
412.93	3377.39
413.12	3267.39
413.31	3571.66
413.50	3398.46
413.69	3445.27
413.88	3499.10
414.07	3529.53
414.26	3665.28
414.45	3749.54
414.64	3691.02
414.83	3763.58
415.02	3794.01
415.22	3786.99
415.41	3880.61
415.60	3859.54
415.79	3833.80
415.98	3838.48
416.17	3995.29
416.36	4051.47
416.55	4138.07
416.74	4187.22
416.93	4100.62
417.12	4067.85
417.31	4131.05
417.50	4215.30
417.69	4322.97
417.88	4154.45
418.07	4358.08
418.26	4318.29
418.45	4308.93
418.64	4447.02
418.83	4472.76
419.02	4496.17
419.21	4496.17
419.39	4545.32
419.58	4447.02
419.77	4472.76
419.96	4734.90
420.15	4739.58
420.34	4610.86
420.53	4648.30
420.72	4823.84
420.91	4760.65
421.10	4760.65
421.29	4903.42
421.48	4734.90
421.67	4870.65
421.86	4753.63
422.05	4816.82
422.24	4695.11
422.43	4990.02
422.61	4858.95
422.80	5027.47
422.99	4894.06
423.18	5041.51
423.37	5139.82
423.56	4954.91
423.75	4975.98
423.94	4844.91
424.13	4667.03
424.32	4851.93
424.50	5146.84
424.69	5034.49
424.88	5109.39
425.07	5107.05
425.26	4997.04
425.45	4954.91
425.64	4905.76
425.83	5029.81
426.01	5081.30
426.20	5142.16
426.39	5050.88
426.58	5163.22
426.77	5130.45
426.96	5310.68
427.15	5139.82
427.33	5280.25
427.52	5203.01
427.71	5315.36
427.90	5338.76
428.09	5385.57
428.28	5341.10
428.46	5413.66
428.65	5324.72
428.84	5472.17
429.03	5514.30
429.22	5476.85
429.40	5448.77
429.59	5612.60
429.78	5289.61
429.97	5303.65
430.16	5556.43
430.34	5575.16
430.53	5607.92
430.72	5584.52
430.91	5652.39
431.10	5584.52
431.28	5781.12
431.47	5795.17
431.66	5802.19
431.85	5806.87
432.03	5921.56
432.22	6090.07
432.41	6045.60
432.60	6010.50
432.79	5944.96
432.97	5870.06
433.16	6069.01
433.35	6008.16
433.54	5921.56
433.72	6029.22
433.91	6031.56
434.10	6122.84
434.28	6230.51
434.47	6272.64
434.66	6368.60
434.85	6363.92
435.03	6434.13
435.22	6366.26
435.41	6427.11
435.59	6408.39
435.78	6523.07
435.97	6640.10
436.16	6438.81
436.34	6434.13
436.53	6548.82
436.72	6740.74
436.90	6616.69
437.09	6700.95
437.28	6502.01
437.46	6572.22
437.65	6675.21
437.84	6885.86
438.02	6602.65
438.21	6918.62
438.40	6827.34
438.58	6956.07
438.77	7108.21
438.96	6984.16
439.14	7173.74
439.33	7178.42
439.52	7157.36
439.70	7194.81
439.89	7538.87
440.08	7543.55
440.26	7412.48
440.45	7639.51
440.63	7609.08
440.82	7728.45
441.01	7473.33
441.19	7908.67
441.38	7630.15
441.57	7950.80
441.75	7875.90
441.94	8091.23
442.12	7918.03
442.31	8088.89
442.50	8112.30
442.68	8060.80
442.87	8217.62
443.05	8013.99
443.24	8079.53
443.43	8191.88
443.61	8341.67
443.80	8400.18
443.98	8109.96
444.17	7995.27
444.35	8322.94
444.54	8404.86
444.73	8390.82
444.91	8301.88
445.10	8603.81
445.28	8425.93
445.47	8348.69
445.65	8519.55
445.84	8463.38
446.02	8411.89
446.21	8542.96
446.39	8423.59
446.58	8620.19
446.77	8498.49
446.95	8325.29
447.14	8622.53
447.32	8784.03
447.51	8505.51
447.69	8461.04
447.88	8587.43
448.06	8449.33
448.25	8486.78
448.43	8479.76
448.62	8706.79
448.80	8688.07
448.99	8580.40
449.17	8727.86
449.36	8741.90
449.54	9064.89
449.73	9022.77
449.91	9050.85
450.10	9029.79
450.28	9226.39
450.46	9123.41
450.65	9172.56
450.83	9193.62
451.02	9179.58
451.20	9413.63
451.39	9256.82
451.57	9170.22
451.76	9355.12
451.94	9170.22
452.13	9329.38
452.31	9397.25
452.49	9214.69
452.68	9511.94
452.86	9418.32
453.05	9778.76
453.23	9624.28
453.42	9385.55
453.60	9495.55
453.78	9643.01
453.97	9430.02
454.15	9654.71
454.34	9577.47
454.52	9923.87
454.70	9748.33
454.89	9694.50
455.07	9909.83
455.26	10090.05
455.44	9980.04
455.62	9980.04
455.81	10260.91
455.99	10064.30
456.17	10127.50
456.36	10410.70
456.54	10258.57
456.73	10200.05
456.91	10607.31
457.09	10483.26
457.28	10438.79
457.46	10431.77
457.64	10501.98
457.83	10778.17
458.01	10696.25
458.19	10883.49
458.38	10665.82
458.56	10761.78
458.74	10712.63
458.93	10848.38
459.11	10965.41
459.29	10623.69
459.48	10944.34
459.66	10883.49
459.84	10984.13
460.03	11206.48
460.21	10993.50
460.39	11009.88
460.57	11052.01
460.76	11169.04
460.94	11157.33
461.12	11302.45
461.31	11248.61
461.49	11375.00
461.67	11396.07
461.85	11508.41
462.04	11049.67
462.22	11927.37
462.40	11517.78
462.59	11531.82
462.77	11485.01
462.95	11618.42
463.13	11585.65
463.32	11805.66
463.50	11775.24
463.68	11840.77
463.86	11995.25
464.05	11758.85
464.23	11772.89
464.41	12004.61
464.59	11775.24
464.78	12334.62
464.96	12322.92
465.14	12016.31
465.32	11999.93
465.50	12421.22
465.69	12245.68
465.87	12037.38
466.05	12196.53
466.23	12519.53
466.41	12486.76
466.60	12638.89
466.78	12306.54
466.96	12145.04
467.14	12505.48
467.32	12468.03
467.51	12477.40
467.69	12566.34
467.87	12538.25
468.05	12692.73
468.23	12493.78
468.41	12451.65
468.60	12828.48
468.78	12690.38
468.96	12849.54
469.14	13015.72
469.32	13156.15
469.50	12659.96
469.69	13149.13
469.87	12971.25
470.05	13224.03
470.23	13090.62
470.41	13298.92
470.59	13446.38
470.77	13107.00
470.95	13488.51
471.14	13612.56
471.32	13071.89
471.50	13521.27
471.68	13568.09
471.86	13785.76
472.04	13973.00
472.22	14061.94
472.40	13638.30
472.58	13827.88
472.77	14228.12
472.95	14134.50
473.13	14782.82
473.31	14162.58
473.49	14417.70
473.67	14061.94
473.85	14436.42
474.03	14736.01
474.21	14693.88
474.39	15105.82
474.57	15166.67
474.75	14904.53
474.93	15068.37
475.12	15059.01
475.30	15449.88
475.48	14967.73
475.66	15604.35
475.84	15122.20
476.02	15417.11
476.20	15264.97
476.38	16112.25
476.56	16177.78
476.74	16379.07
476.92	16039.69
477.10	16311.19
477.28	15976.50
477.46	16243.32
477.64	16585.04
477.82	16650.57
478.00	16985.27
478.18	16819.09
478.36	17207.62
478.54	17156.13
478.72	17462.74
478.90	17476.78
479.08	17752.96
479.26	17750.62
479.44	17900.42
479.62	17942.55
479.80	18068.94
479.98	18361.50
480.16	18686.84
480.34	18223.41
480.52	18490.23
480.70	18902.17
480.88	18569.81
481.06	19183.03
481.24	19094.09
481.41	19248.57
481.59	19447.51
481.77	19644.12
481.95	19620.71
482.13	20201.16
482.31	19772.85
482.49	20601.40
482.67	20255.00
482.85	20868.22
483.03	20613.10
483.21	20947.79
483.39	21116.31
483.57	21055.46
483.74	21525.91
483.92	21546.97
484.10	21575.06
484.28	21919.12
484.46	22232.75
484.64	22431.69
484.82	22026.78
485.00	22558.08
485.18	22897.46
485.35	23049.60
485.53	22710.22
485.71	23183.01
485.89	23920.28
486.07	23454.51
486.25	23613.66
486.43	23826.65
486.61	24058.37
486.78	24053.69
486.96	24753.51
487.14	24807.34
487.32	24795.64
487.50	25249.70
487.68	25223.95
487.85	25638.23
488.03	25715.47
488.21	26277.19
488.39	26071.23
488.57	26326.35
488.75	26487.84
488.92	26623.59
489.10	26792.11
489.28	27133.83
489.46	27185.32
489.64	27094.04
489.81	27768.12
489.99	28224.52
490.17	27667.47
490.35	28341.55
490.53	28381.34
490.70	28765.18
490.88	28608.37
491.06	28896.25
491.24	28671.56
491.41	29612.46
491.59	29755.23
491.77	29656.93
491.95	29844.17
492.13	30038.44
492.30	30272.49
492.48	30480.80
492.66	30452.71
492.84	30532.29
493.01	30984.01
493.19	31054.23
493.37	31510.63
493.54	31637.02
493.72	31763.41
493.90	32048.96
494.08	31838.31
494.25	32332.16
494.43	32154.28
494.61	32655.15
494.79	32575.58
494.96	33240.29
495.14	32828.35
495.32	33684.99
495.49	33607.75
495.67	33369.02
495.85	34019.69
496.02	33991.60
496.20	34003.30
496.38	34246.72
496.55	34485.45
496.73	34930.16
496.91	35140.80
497.09	35131.44
497.26	35079.95
497.44	34939.52
497.62	35644.02
497.79	35969.35
497.97	35658.06
498.14	36421.08
498.32	36521.72
498.50	36629.38
498.67	36645.77
498.85	36856.42
499.03	37364.31
499.20	37326.86
499.38	37638.15
499.56	37710.71
499.73	37483.68
499.91	37567.94
500.08	37846.46
500.26	37790.29
500.44	38258.40
500.61	38412.87
500.79	38096.90
500.97	38609.48
501.14	38810.76
501.32	38557.99
501.49	39164.18
501.67	38960.56
501.84	39192.27
502.02	39187.59
502.20	39695.49
502.37	39873.37
502.55	39964.65
502.72	39686.12
502.90	39854.64
503.07	39676.76
503.25	40341.47
503.43	39859.32
503.60	40545.10
503.78	40570.85
503.95	40620.00
504.13	40760.43
504.30	41055.34
504.48	40945.33
504.65	41024.91
504.83	41450.89
505.01	41504.72
505.18	41666.22
505.36	41823.03
505.53	41691.96
505.71	41591.32
505.88	42202.20
506.06	41886.23
506.23	42110.92
506.41	42375.40
506.58	42459.66
506.76	42609.45
506.93	42532.22
507.11	42550.94
507.28	43096.28
507.46	42927.77
507.63	43384.17
507.81	43714.19
507.98	43529.28
508.16	43810.15
508.33	43866.32
508.50	43952.92
508.68	44208.04
508.85	44406.98
509.03	44231.44
509.20	44430.39
509.38	44861.05
509.55	44687.85
509.73	44938.29
509.90	45090.42
510.08	44650.40
510.25	45104.46
510.42	45343.20
510.60	45638.11
510.77	46124.94
510.95	45773.86
511.12	45755.13
511.30	45408.73
511.47	45797.26
511.64	46047.70
511.82	46726.46
511.99	46087.49
512.17	46344.95
512.34	46197.49
512.51	46782.63
512.69	46579.00
512.86	46546.23
513.04	47042.43
513.21	47110.30
513.38	46784.97
513.56	47665.01
513.73	47000.30
513.90	47426.28
514.08	47033.07
514.25	47526.92
514.43	47746.93
514.60	47791.40
514.77	47625.22
514.95	47973.96
515.12	48065.24
515.29	47962.26
515.47	48339.08
515.64	48596.54
515.81	48163.54
515.99	48252.48
516.16	48842.30
516.33	48832.94
516.51	49408.71
516.68	48795.49
516.85	48701.87
517.03	49301.04
517.20	49155.93
517.37	49045.93
517.54	49368.92
517.72	49137.21
517.89	49661.49
518.06	49401.69
518.24	49525.74
518.41	49633.40
518.58	49626.38
518.75	49588.93
518.93	49911.92
519.10	49797.24
519.27	49961.08
519.45	49715.32
519.62	50342.58
519.79	50129.59
519.96	50087.46
520.14	50618.77
520.31	50693.66
520.48	50941.76
520.65	50679.62
520.83	50712.39
521.00	51084.53
521.17	51040.06
521.34	51180.49
521.52	50883.25
521.69	51253.05
521.86	51180.49
522.03	51784.35
522.20	51304.54
522.38	51833.50
522.55	51629.88
522.72	51615.83
522.89	51664.99
523.07	52121.39
523.24	51817.12
523.41	51782.01
523.58	51618.17
523.75	52224.37
523.92	52123.73
524.10	52243.10
524.27	52144.80
524.44	52573.11
524.61	52275.87
524.78	52374.17
524.96	52486.51
525.13	52734.61
525.30	52755.68
525.47	52793.12
525.64	52790.78
525.81	53081.01
525.98	53031.86
526.16	53024.84
526.33	52978.03
526.50	52938.24
526.67	53151.23
526.84	53352.51
527.01	52807.17
527.18	53249.53
527.36	53076.33
527.53	53141.86
527.70	53645.08
527.87	53570.18
528.04	53242.51
528.21	53696.57
528.38	53708.27
528.55	53717.64
528.72	53628.69
528.89	53748.06
529.07	54010.20
529.24	53694.23
529.41	53626.35
529.58	53970.41
529.75	53858.07
529.92	54061.69
530.09	54099.14
530.26	54335.54
530.43	54347.24
530.60	54143.61
530.77	53932.96
530.94	54560.23
531.11	54291.07
531.28	54298.09
531.46	54426.82
531.63	54349.58
531.80	54452.56
531.97	54672.57
532.14	54752.15
532.31	54684.28
532.48	54913.65
532.65	55004.93
532.82	54803.64
532.99	54990.89
533.16	54808.32
533.33	55213.24
533.50	55295.16
533.67	55140.68
533.84	55054.08
534.01	55075.15
534.18	55201.53
534.35	55653.26
534.52	55547.93
534.69	55491.76
534.86	55576.02
535.03	54974.50
535.20	55547.93
535.37	55473.04
535.54	55590.06
535.71	55360.69
535.88	55739.86
536.05	55693.05
536.22	55969.23
536.38	55688.37
536.55	55985.61
536.72	55786.67
536.89	55730.50
537.06	55852.20
537.23	56231.37
537.40	55994.98
537.57	56044.13
537.74	56123.71
537.91	56177.54
538.08	56287.54
538.25	56076.90
538.42	55969.23
538.59	56411.59
538.75	56388.19
538.92	56339.04
539.09	56526.28
539.26	56214.99
539.43	56346.06
539.60	56566.07
539.77	56362.44
539.94	56552.02
540.11	56605.86
540.28	56931.19
540.44	56484.15
540.61	56624.58
540.78	56708.84
540.95	56788.42
541.12	56601.18
541.29	57029.49
541.46	56491.17
541.62	57041.20
541.79	56795.44
541.96	56671.39
542.13	56718.20
542.30	56882.04
542.47	57148.86
542.63	57125.46
542.80	57116.09
542.97	57403.98
543.14	57333.76
543.31	57251.84
543.48	57408.66
543.64	57558.45
543.81	57448.45
543.98	57595.90
544.15	57607.61
544.32	57635.69
544.48	57888.47
544.65	57563.14
544.82	57811.23
544.99	57518.67
545.16	57738.68
545.32	57684.84
545.49	57975.07
545.66	57827.62
545.83	57689.52
546.00	57977.41
546.16	57972.73
546.33	57682.50
546.50	57528.03
546.67	57954.00
546.83	57504.62
547.00	57914.22
547.17	58035.92
547.34	58108.48
547.50	58068.69
547.67	58546.16
547.84	58176.36
548.00	58377.64
548.17	58377.64
548.34	58328.49
548.51	58396.37
548.67	58293.38
548.84	58365.94
549.01	58323.81
549.18	58363.60
549.34	58429.13
549.51	58410.41
549.68	58534.46
549.84	58656.17
550.01	58607.01
550.18	58410.41
550.34	58571.91
550.51	58712.34
550.68	58691.27
550.84	58473.60
551.01	58798.94
551.18	58562.54
551.34	58791.92
551.51	58759.15
551.68	58812.98
551.84	58754.47
552.01	58595.31
552.18	58922.99
552.34	58735.74
552.51	58988.52
552.68	58869.15
552.84	58841.07
553.01	59278.75
553.18	59140.66
553.34	59070.44
553.51	59138.32
553.67	59023.63
553.84	59238.96
554.01	59147.68
554.17	59196.83
554.34	59192.15
554.51	59119.59
554.67	59285.77
554.84	59171.08
555.00	59365.35
555.17	59320.88
555.33	59159.38
555.50	59255.34
555.67	59276.41
555.83	59253.00
556.00	59332.58
556.16	59669.62
556.33	59599.40
556.50	59416.84
556.66	59629.83
556.83	59594.72
556.99	59597.06
557.16	59653.23
557.32	59772.60
557.49	59863.88
557.65	59632.17
557.82	59550.25
557.98	59646.21
558.15	59681.32
558.32	59835.80
558.48	59442.59
558.65	59700.04
558.81	59889.63
558.98	59756.22
559.14	59756.22
559.31	60032.40
559.47	59578.34
559.64	60055.81
559.80	59870.90
559.97	60013.68
560.13	59962.18
560.30	59929.42
560.46	59938.78
560.63	59870.90
560.79	59959.84
560.96	60264.11
561.12	60137.72
561.29	60081.55
561.45	60179.85
561.61	59889.63
561.78	59992.61
561.94	60149.43
562.11	60177.51
562.27	60149.43
562.44	60196.24
562.60	60434.97
562.77	60135.38
562.93	59978.57
563.10	59987.93
563.26	60247.73
563.42	60472.42
563.59	60238.37
563.75	60137.72
563.92	60130.70
564.08	60048.78
564.24	60388.16
564.41	60191.56
564.57	60189.22
564.74	60479.44
564.90	60254.75
565.07	60353.05
565.23	60322.63
565.39	60303.90
565.56	60392.84
565.72	60369.44
565.88	60385.82
566.05	60294.54
566.21	60224.32
566.38	60533.28
566.54	60549.66
566.70	60580.09
566.87	60629.24
567.03	60334.33
567.19	60484.12
567.36	60636.26
567.52	60554.34
567.68	60650.30
567.85	60463.06
568.01	60601.15
568.17	60353.05
568.34	60764.99
568.50	60622.22
568.66	60374.12
568.83	60699.45
568.99	60470.08
569.15	60556.68
569.32	60615.19
569.48	60404.55
569.64	60701.79
569.81	60540.30
569.97	60420.93
570.13	60570.72
570.30	60629.24
570.46	60608.17
570.62	60577.75
570.78	60842.23
570.95	60800.10
571.11	60814.14
571.27	60837.54
571.43	60900.74
571.60	60832.86
571.76	60741.58
571.92	61045.85
572.09	60612.85
572.25	60837.54
572.41	60800.10
572.57	60846.91
572.74	60884.36
572.90	60912.44
573.06	60877.33
573.22	60769.67
573.38	60903.08
573.55	60889.04
573.71	61076.28
573.87	60924.14
574.03	60882.02
574.20	60982.66
574.36	60839.89
574.52	60849.25
574.68	60804.78
574.84	60898.40
575.01	61099.68
575.17	60954.57
575.33	61006.06
575.49	60865.63
575.65	61080.96
575.82	60935.85
575.98	61008.40
576.14	61347.78
576.30	61083.30
576.46	61029.47
576.62	60877.33
576.79	61038.83
576.95	60896.06
577.11	60982.66
577.27	60891.38
577.43	60907.76
577.59	61013.08
577.75	60970.96
577.92	60928.83
578.08	60966.27
578.24	61158.20
578.40	61029.47
578.56	61190.97
578.72	60935.85
578.88	61272.88
579.04	61153.52
579.21	61190.97
579.37	60973.30
579.53	61230.75
579.69	60666.69
579.85	61050.53
580.01	61190.97
580.17	60947.55
580.33	61174.58
580.49	61041.17
580.65	61139.47
580.82	61155.86
580.98	60811.80
581.14	61148.84
581.30	61190.97
581.46	61226.07
581.62	61097.34
581.78	61001.38
581.94	61223.73
582.10	61038.83
582.26	61162.88
582.42	61087.98
582.58	61043.51
582.74	60870.31
582.90	61020.11
583.06	61130.11
583.22	60963.93
583.38	61382.89
583.54	61214.37
583.70	61207.35
583.86	61303.31
584.02	60914.78
584.18	61242.46
584.34	61425.02
584.50	61099.68
584.66	61102.03
584.82	61052.87
584.98	61221.39
585.14	61263.52
585.30	61073.94
585.46	61066.92
585.62	61296.29
585.78	61233.10
585.94	61048.19
586.10	61291.61
586.26	61233.10
586.42	61251.82
586.58	61380.55
586.74	61338.42
586.90	61097.34
587.06	61062.24
587.22	61488.21
587.38	61350.12
587.54	61364.17
587.70	61359.48
587.86	61338.42
588.02	61291.61
588.18	61223.73
588.34	61453.11
588.49	61240.12
