SpectraSuite Data File
++++++++++++++++++++++++++++++++++++
Date: Fri Oct 25 10:48:12 EDT 2013
User: price-jones
Dark Spectrum Present: No
Reference Spectrum Present: No
Number of Sampled Component Spectra: 1
Spectrometers: USB2+H05261
Integration Time (usec): 100000 (USB2+H05261)
Spectra Averaged: 1 (USB2+H05261)
Boxcar Smoothing: 0 (USB2+H05261)
Correct for Electrical Dark: No (USB2+H05261)
Strobe/Lamp Enabled: No (USB2+H05261)
Correct for Detector Non-linearity: No (USB2+H05261)
Correct for Stray Light: No (USB2+H05261)
Number of Pixels in Processed Spectrum: 2048
>>>>>Begin Processed Spectral Data<<<<<
365.73	154.48
365.92	154.48
366.12	154.48
366.32	39.79
366.52	63.19
366.72	100.64
366.91	37.45
367.11	46.81
367.31	16.38
367.51	37.45
367.70	11.70
367.90	128.73
368.10	14.04
368.30	0.00
368.49	32.77
368.69	79.58
368.89	135.75
369.09	51.49
369.28	44.47
369.48	74.90
369.68	133.41
369.87	166.18
370.07	107.66
370.27	177.88
370.47	191.92
370.66	433.00
370.86	381.51
371.06	519.60
371.25	540.66
371.45	454.06
371.65	461.09
371.84	444.70
372.04	503.22
372.24	507.90
372.44	414.27
372.63	540.66
372.83	479.81
373.03	512.58
373.22	505.56
373.42	524.28
373.62	468.11
373.81	491.51
374.01	566.41
374.21	543.00
374.40	503.22
374.60	547.69
374.79	531.30
374.99	547.69
375.19	557.05
375.38	557.05
375.58	552.37
375.78	517.26
375.97	596.84
376.17	636.63
376.37	594.50
376.56	573.43
376.76	573.43
376.95	559.39
377.15	617.90
377.35	667.05
377.54	655.35
377.74	568.75
377.93	653.01
378.13	620.24
378.33	589.82
378.52	617.90
378.72	599.18
378.91	608.54
379.11	699.82
379.31	655.35
379.50	601.52
379.70	657.69
379.89	645.99
380.09	655.35
380.28	711.52
380.48	688.12
380.68	596.84
380.87	660.03
381.07	676.41
381.26	699.82
381.46	732.59
381.65	674.07
381.85	653.01
382.04	645.99
382.24	648.33
382.43	688.12
382.63	725.57
382.83	699.82
383.02	667.05
383.22	748.97
383.41	727.91
383.61	664.71
383.80	751.31
384.00	725.57
384.19	802.80
384.39	695.14
384.58	779.40
384.78	774.72
384.97	713.86
385.17	774.72
385.36	767.70
385.56	870.68
385.75	779.40
385.95	798.12
386.14	788.76
386.34	772.38
386.53	753.65
386.72	828.55
386.92	786.42
387.11	873.02
387.31	805.14
387.50	737.27
387.70	854.30
387.89	940.90
388.09	849.61
388.28	905.79
388.48	858.98
388.67	856.64
388.86	854.30
389.06	882.38
389.25	957.28
389.45	938.55
389.64	891.74
389.84	1020.47
390.03	903.45
390.22	901.11
390.42	940.90
390.61	990.05
390.81	842.59
391.00	964.30
391.19	943.24
391.39	976.00
391.58	1062.60
391.78	1086.01
391.97	961.96
392.16	912.81
392.36	983.02
392.55	952.60
392.75	947.92
392.94	973.66
393.13	1001.75
393.33	929.19
393.52	1004.09
393.71	987.71
393.91	1057.92
394.10	1043.88
394.29	1071.97
394.49	1160.91
394.68	1032.18
394.88	1102.39
395.07	1203.04
395.26	1071.97
395.46	1104.73
395.65	1142.18
395.84	1146.86
396.04	1193.67
396.23	1095.37
396.42	1158.57
396.62	1165.59
396.81	1163.25
397.00	1076.65
397.19	1025.15
397.39	1198.35
397.58	1238.14
397.77	1277.93
397.97	1296.66
398.16	1273.25
398.35	1315.38
398.55	1366.87
398.74	1235.80
398.93	1380.92
399.12	1362.19
399.32	1380.92
399.51	1324.74
399.70	1430.07
399.90	1336.45
400.09	1448.79
400.28	1481.56
400.47	1432.41
400.67	1526.03
400.86	1521.35
401.05	1434.75
401.24	1448.79
401.44	1593.90
401.63	1448.79
401.82	1579.86
402.01	1504.96
402.21	1469.86
402.40	1488.58
402.59	1558.80
402.78	1476.88
402.97	1521.35
403.17	1523.69
403.36	1626.67
403.55	1652.42
403.74	1764.76
403.93	1643.06
404.13	1774.13
404.32	1591.56
404.51	1685.19
404.70	1767.10
404.89	1621.99
405.09	1722.63
405.28	1708.59
405.47	1722.63
405.66	1713.27
405.85	1792.85
406.05	1727.32
406.24	1874.77
406.43	1813.92
406.62	1888.81
406.81	1900.52
407.00	1895.83
407.20	1774.13
407.39	1820.94
407.58	1923.92
407.77	1994.14
407.96	1980.09
408.15	2033.93
408.34	2059.67
408.54	2008.18
408.73	1963.71
408.92	1926.26
409.11	2040.95
409.30	2026.90
409.49	2090.10
409.68	2080.74
409.87	2010.52
410.07	2062.01
410.26	2195.42
410.45	2172.02
410.64	2200.10
410.83	2162.66
411.02	2225.85
411.21	2289.04
411.40	2305.43
411.59	2265.64
411.78	2188.40
411.98	2230.53
412.17	2361.60
412.36	2366.28
412.55	2373.30
412.74	2555.86
412.93	2413.09
413.12	2392.03
413.31	2593.31
413.50	2466.92
413.69	2499.69
413.88	2455.22
414.07	2579.27
414.26	2534.80
414.45	2565.23
414.64	2700.98
414.83	2637.78
415.02	2759.49
415.22	2633.10
415.41	2787.58
415.60	2764.17
415.79	2773.53
415.98	2832.05
416.17	2876.52
416.36	2813.32
416.55	2881.20
416.74	2822.69
416.93	2883.54
417.12	2888.22
417.31	3061.42
417.50	2970.14
417.69	3126.96
417.88	3173.77
418.07	3000.57
418.26	3087.17
418.45	3117.59
418.64	3215.90
418.83	3103.55
419.02	3187.81
419.21	3248.66
419.39	3227.60
419.58	3148.02
419.77	3145.68
419.96	3265.05
420.15	3309.52
420.34	3365.69
420.53	3482.72
420.72	3478.04
420.91	3499.10
421.10	3449.95
421.29	3496.76
421.48	3372.71
421.67	3428.88
421.86	3485.06
422.05	3398.46
422.24	3375.05
422.43	3482.72
422.61	3609.11
422.80	3646.55
422.99	3637.19
423.18	3599.74
423.37	3550.59
423.56	3604.42
423.75	3545.91
423.94	3426.54
424.13	3290.79
424.32	3412.50
424.50	3513.14
424.69	3728.47
424.88	3447.61
425.07	3545.91
425.26	3531.87
425.45	3431.23
425.64	3557.61
425.83	3473.36
426.01	3772.94
426.20	3506.12
426.39	3641.87
426.58	3595.06
426.77	3611.45
426.96	3550.59
427.15	3653.58
427.33	3681.66
427.52	3794.01
427.71	3784.65
427.90	3595.06
428.09	3737.84
428.28	3819.75
428.46	3786.99
428.65	3943.80
428.84	3925.08
429.03	3889.97
429.22	3775.28
429.40	3864.22
429.59	3894.65
429.78	3595.06
429.97	3571.66
430.16	3908.69
430.34	3962.53
430.53	3859.54
430.72	3981.25
430.91	3932.10
431.10	3934.44
431.28	4035.08
431.47	4161.47
431.66	4180.20
431.85	4140.41
432.03	4147.43
432.22	4147.43
432.41	4060.83
432.60	4201.26
432.79	4278.50
432.97	4423.61
433.16	4194.24
433.35	4093.60
433.54	4166.15
433.72	4327.65
433.91	4318.29
434.10	4348.72
434.28	4325.31
434.47	4414.25
434.66	4449.36
434.85	4521.92
435.03	4442.34
435.22	4400.21
435.41	4552.34
435.59	4641.28
435.78	4641.28
435.97	4667.03
436.16	4582.77
436.34	4594.47
436.53	4531.28
436.72	4774.69
436.90	4559.36
437.09	4641.28
437.28	4681.07
437.46	4624.90
437.65	4592.13
437.84	4887.04
438.02	4697.46
438.21	4688.09
438.40	4594.47
438.58	4964.28
438.77	4896.40
438.96	4772.35
439.14	4961.94
439.33	4968.96
439.52	5198.33
439.70	5034.49
439.89	5128.11
440.08	5291.95
440.26	5095.35
440.45	5153.86
440.63	5289.61
440.82	5324.72
441.01	5303.65
441.19	5453.45
441.38	5418.34
441.57	5357.49
441.75	5397.28
441.94	5591.54
442.12	5699.20
442.31	5727.29
442.50	5657.07
442.68	5675.80
442.87	5643.03
443.05	5682.82
443.24	5849.00
443.43	5809.21
443.61	5706.23
443.80	5921.56
443.98	5804.53
444.17	5598.56
444.35	5895.81
444.54	5839.64
444.73	6076.03
444.91	5877.09
445.10	5909.85
445.28	5877.09
445.47	5790.49
445.65	5820.91
445.84	6005.81
446.02	5844.32
446.21	5839.64
446.39	5928.58
446.58	5984.75
446.77	5973.05
446.95	5951.98
447.14	6038.58
447.32	6003.47
447.51	5921.56
447.69	5963.68
447.88	5940.28
448.06	5877.09
448.25	6108.80
448.43	6209.44
448.62	6050.28
448.80	5898.15
448.99	6300.72
449.17	6162.63
449.36	6087.73
449.54	6300.72
449.73	6434.13
449.91	6417.75
450.10	6457.54
450.28	6396.68
450.46	6509.03
450.65	6511.37
450.83	6492.65
451.02	6300.72
451.20	6331.15
451.39	6469.24
451.57	6511.37
451.76	6289.02
451.94	6541.80
452.13	6502.01
452.31	6612.01
452.49	6558.18
452.68	6768.83
452.86	6553.50
453.05	6670.53
453.23	6633.08
453.42	6647.12
453.60	6637.76
453.78	6693.93
453.97	6682.23
454.15	6661.16
454.34	6455.20
454.52	6890.54
454.70	6719.68
454.89	6918.62
455.07	6862.45
455.26	6911.60
455.44	7110.55
455.62	7119.91
455.81	6752.45
455.99	7061.40
456.17	6963.09
456.36	6949.05
456.54	7042.67
456.73	7208.85
456.91	7318.86
457.09	7407.80
457.28	7379.71
457.46	7218.21
457.64	7501.42
457.83	7353.96
458.01	7176.08
458.19	7466.31
458.38	7328.22
458.56	7328.22
458.74	7365.67
458.93	7410.14
459.11	7482.69
459.29	7403.11
459.48	7644.19
459.66	7590.36
459.84	7503.76
460.03	7665.25
460.21	7616.10
460.39	7597.38
460.57	7569.29
460.76	7857.18
460.94	7866.54
461.12	7763.56
461.31	7765.90
461.49	7803.35
461.67	7812.71
461.85	8039.74
462.04	7852.50
462.22	8479.76
462.40	7868.88
462.59	7906.33
462.77	8013.99
462.95	8065.49
463.13	8166.13
463.32	8105.28
463.50	8133.36
463.68	8025.70
463.86	8058.46
464.05	8175.49
464.23	8081.87
464.41	8322.94
464.59	8147.40
464.78	8142.72
464.96	8114.64
465.14	8294.86
465.32	8311.24
465.50	8327.63
465.69	8301.88
465.87	8423.59
466.05	8353.37
466.23	8311.24
466.41	8290.18
466.60	8517.21
466.78	8292.52
466.96	8425.93
467.14	8351.03
467.32	8468.06
467.51	8624.87
467.69	8601.47
467.87	8454.02
468.05	8507.85
468.23	8458.70
468.41	8547.64
468.60	8758.28
468.78	8800.41
468.96	8578.06
469.14	8704.45
469.32	8882.33
469.50	8812.12
469.69	9018.08
469.87	9050.85
470.05	9064.89
470.23	8847.22
470.41	9151.49
470.59	9050.85
470.77	9076.60
470.95	9097.66
471.14	9167.88
471.32	9034.47
471.50	9266.18
471.68	9341.08
471.86	9231.07
472.04	9411.29
472.22	9598.54
472.40	9334.06
472.58	9689.82
472.77	9490.87
472.95	9404.27
473.13	9905.15
473.31	9460.45
473.49	9624.28
473.67	9514.28
473.85	9652.37
474.03	9870.04
474.21	10052.60
474.39	9895.78
474.57	9907.49
474.75	10410.70
474.93	10214.10
475.12	10232.82
475.30	10289.00
475.48	10420.06
475.66	10214.10
475.84	10448.15
476.02	10527.73
476.20	10539.43
476.38	10471.56
476.56	10766.46
476.74	10967.75
476.92	10649.44
477.10	10759.44
477.28	10899.87
477.46	10881.15
477.64	11276.70
477.82	11192.44
478.00	11363.30
478.18	11487.35
478.36	11463.94
478.54	11707.36
478.72	11829.07
478.90	11878.22
479.08	11791.62
479.26	11658.21
479.44	12065.46
479.62	12072.48
479.80	12343.99
479.98	12194.19
480.16	12475.06
480.34	12315.90
480.52	12423.56
480.70	12524.21
480.88	12521.87
481.06	12697.41
481.24	12734.85
481.41	12779.32
481.59	13022.74
481.77	13247.43
481.95	13064.87
482.13	13406.59
482.31	13233.39
482.49	13540.00
482.67	13617.24
482.85	13591.49
483.03	13991.72
483.21	13921.51
483.39	14090.02
483.57	14038.53
483.74	14164.92
483.92	14310.04
484.10	14209.39
484.28	14616.65
484.46	14721.97
484.64	14792.19
484.82	14766.44
485.00	14897.51
485.18	15026.24
485.35	15218.16
485.53	15009.86
485.71	15012.20
485.89	15374.98
486.07	15442.85
486.25	15611.37
486.43	15683.93
486.61	15805.64
486.78	15960.11
486.96	15967.13
487.14	16283.11
487.32	16479.71
487.50	16636.53
487.68	16865.90
487.85	16954.84
488.03	16957.18
488.21	16973.56
488.39	17181.87
488.57	17039.10
488.75	17301.24
488.92	17645.30
489.10	17617.21
489.28	17764.67
489.46	17846.58
489.64	17965.95
489.81	18221.07
489.99	18490.23
490.17	18796.84
490.35	19019.19
490.53	18583.85
490.70	18712.58
490.88	18923.23
491.06	19087.07
491.24	18986.43
491.41	19138.56
491.59	19267.29
491.77	19232.18
491.95	19653.48
492.13	19604.33
492.30	20030.30
492.48	19946.05
492.66	19878.17
492.84	20034.99
493.01	20163.72
493.19	20170.74
493.37	20376.70
493.54	20533.52
493.72	20725.44
493.90	20767.57
494.08	21081.21
494.25	21036.74
494.43	21385.47
494.61	21511.86
494.79	21458.03
494.96	21226.32
495.14	21673.36
495.32	21830.18
495.49	21956.57
495.67	21818.47
495.85	22178.92
496.02	22560.42
496.20	22232.75
496.38	22768.73
496.55	22249.13
496.73	22974.70
496.91	22721.92
497.09	22913.84
497.26	22970.02
497.44	22600.21
497.62	23494.30
497.79	23405.36
497.97	23466.21
498.14	23733.03
498.32	23630.05
498.50	23800.91
498.67	23943.68
498.85	24004.53
499.03	24070.07
499.20	24142.63
499.38	24421.15
499.56	24250.29
499.73	24496.05
499.91	24608.39
500.08	24779.25
500.26	24613.07
500.44	24760.53
500.61	24989.90
500.79	24704.35
500.97	25062.46
501.14	25542.27
501.32	24996.92
501.49	25521.20
501.67	25336.30
501.84	25635.89
502.02	25348.00
502.20	25490.77
502.37	25252.04
502.55	25659.29
502.72	25891.01
502.90	25755.26
503.07	25944.84
503.25	26087.61
503.43	26026.76
503.60	26466.78
503.78	25940.16
503.95	26382.52
504.13	26352.09
504.30	26654.02
504.48	26672.74
504.65	26932.54
504.83	26913.82
505.01	27159.58
505.18	27201.71
505.36	27192.34
505.53	27175.96
505.71	27438.10
505.88	27482.57
506.06	27302.35
506.23	27632.36
506.41	27232.13
506.58	27405.33
506.76	27718.96
506.93	28198.77
507.11	27934.29
507.28	27744.71
507.46	28053.66
507.63	28203.46
507.81	28442.19
507.98	28072.39
508.16	28381.34
508.33	28465.60
508.50	28662.20
508.68	28760.50
508.85	29153.71
509.03	28856.46
509.20	28905.62
509.38	29029.66
509.55	29502.45
509.73	29062.43
509.90	29472.03
510.08	29034.35
510.25	29362.02
510.42	29483.73
510.60	29603.10
510.77	29930.77
510.95	30012.69
511.12	29647.57
511.30	30047.80
511.47	30103.97
511.64	30082.91
511.82	29844.17
511.99	29820.77
512.17	30110.99
512.34	30195.25
512.51	30279.51
512.69	30656.34
512.86	30534.63
513.04	30883.37
513.21	31061.25
513.38	30888.05
513.56	30749.96
513.73	30759.32
513.90	31541.06
514.08	30974.65
514.25	31246.15
514.43	31030.82
514.60	31012.10
514.77	31243.81
514.95	31365.52
515.12	31468.50
515.29	31098.70
515.47	31725.96
515.64	31732.98
515.81	31800.86
515.99	31847.67
516.16	32023.21
516.33	31828.95
516.51	31552.76
516.68	31807.88
516.85	31735.32
517.03	31842.99
517.20	31955.33
517.37	32102.79
517.54	32128.53
517.72	32512.38
517.89	32128.53
518.06	31934.27
518.24	32669.20
518.41	32112.15
518.58	32570.90
518.75	32826.01
518.93	32734.73
519.10	32701.96
519.27	33010.92
519.45	32842.40
519.62	32779.20
519.79	33242.63
519.96	33167.73
520.14	33488.38
520.31	33315.19
520.48	33338.59
520.65	33972.88
520.83	33572.64
521.00	33867.55
521.17	33766.91
521.34	34141.39
521.52	33820.74
521.69	34019.69
521.86	33989.26
522.03	33792.65
522.20	34153.10
522.38	34532.26
522.55	33991.60
522.72	34043.09
522.89	34637.59
523.07	34394.17
523.24	34307.57
523.41	34646.95
523.58	34426.94
523.75	35012.07
523.92	34759.30
524.10	34937.18
524.27	34918.45
524.44	35466.14
524.61	35445.07
524.78	35157.19
524.96	35316.34
525.13	35019.10
525.30	35922.54
525.47	35831.26
525.64	35398.26
525.81	35695.51
525.98	35721.26
526.16	35117.40
526.33	35239.11
526.50	36137.87
526.67	35222.72
526.84	35484.86
527.01	35236.77
527.18	35653.38
527.36	35943.61
527.53	36222.13
527.70	36577.89
527.87	36397.67
528.04	35922.54
528.21	36531.08
528.38	36205.75
528.55	36856.42
528.72	36933.65
528.89	36154.26
529.07	36889.18
529.24	36409.37
529.41	36383.63
529.58	36411.71
529.75	36545.12
529.92	37151.32
530.09	36727.69
530.26	36505.34
530.43	36603.64
530.60	36854.08
530.77	37099.83
530.94	37228.56
531.11	37137.28
531.28	36793.22
531.46	37394.74
531.63	37612.41
531.80	37759.86
531.97	37392.40
532.14	37228.56
532.31	37102.17
532.48	37525.81
532.65	37699.01
532.82	37628.79
532.99	37848.80
533.16	37193.45
533.33	38075.84
533.50	37642.84
533.67	38022.00
533.84	37776.25
534.01	37656.88
534.18	37827.74
534.35	38230.31
534.52	38073.49
534.69	38068.81
534.86	38534.58
535.03	38143.71
535.20	38426.92
535.37	38485.43
535.54	38586.07
535.71	38433.94
535.88	38377.76
536.05	38682.03
536.22	38422.23
536.38	38597.77
536.55	38569.69
536.72	38689.06
536.89	38181.16
537.06	38714.80
537.23	38714.80
537.40	38618.84
537.57	38785.02
537.74	38763.95
537.91	39239.08
538.08	39112.69
538.25	39028.43
538.42	39213.34
538.59	38953.54
538.75	38782.68
538.92	39124.40
539.09	39086.95
539.26	39007.37
539.43	39161.84
539.60	39370.15
539.77	39119.71
539.94	39438.03
540.11	39349.09
540.28	39709.53
540.44	39405.26
540.61	39552.71
540.78	39674.42
540.95	39435.69
541.12	39695.49
541.29	39707.19
541.46	39906.13
541.62	39936.56
541.79	40374.24
541.96	39725.91
542.13	39604.20
542.30	40285.30
542.47	40154.23
542.63	40018.48
542.80	40402.33
542.97	40580.21
543.14	40568.51
543.31	40315.73
543.48	40662.13
543.64	41141.94
543.81	40917.25
543.98	40622.34
544.15	40573.19
544.32	40385.94
544.48	41118.53
544.65	40631.70
544.82	40975.76
544.99	40807.24
545.16	40727.66
545.32	40982.78
545.49	41146.62
545.66	41050.66
545.83	41422.80
546.00	41113.85
546.16	41027.25
546.33	41275.35
546.50	41329.18
546.67	41078.74
546.83	40737.02
547.00	41249.60
547.17	41383.01
547.34	41301.09
547.50	41776.22
547.67	41394.71
547.84	41399.40
548.00	41652.17
548.17	42003.25
548.34	41439.18
548.51	41539.83
548.67	41488.34
548.84	42026.66
549.01	41727.07
549.18	41663.88
549.34	41911.97
549.51	41624.09
549.68	42110.92
549.84	41631.11
550.01	41923.68
550.18	41928.36
550.34	41745.80
550.51	41542.17
550.68	41832.39
550.84	42134.32
551.01	41947.08
551.18	42007.94
551.34	42209.22
551.51	42359.02
551.68	42426.89
551.84	42335.61
552.01	42029.00
552.18	42335.61
552.34	41998.57
552.51	42225.60
552.68	42241.99
552.84	42497.11
553.01	42710.10
553.18	42497.11
553.34	42696.05
553.51	42686.69
553.67	42600.09
553.84	42824.78
554.01	42792.01
554.17	42932.45
554.34	42796.70
554.51	42761.59
554.67	42763.93
554.84	42588.39
555.00	42581.37
555.17	42560.30
555.33	42969.90
555.50	43077.56
555.67	43047.13
555.83	43012.02
556.00	42887.98
556.16	43440.34
556.33	43508.22
556.50	43269.48
556.66	43070.54
556.83	42700.73
556.99	43372.47
557.16	43569.07
557.32	43526.94
557.49	43438.00
557.65	42944.15
557.82	43175.86
557.98	43393.53
558.15	43189.91
558.32	43105.65
558.48	43363.11
558.65	43555.03
558.81	43421.62
558.98	43260.12
559.14	43426.30
559.31	43533.96
559.47	43908.45
559.64	44023.14
559.80	43655.67
559.97	43653.33
560.13	43367.79
560.30	43482.47
560.46	43796.10
560.63	43210.97
560.79	43611.20
560.96	43842.92
561.12	43718.87
561.29	43725.89
561.45	43913.13
561.61	43580.78
561.78	43753.97
561.94	43526.94
562.11	43524.60
562.27	43416.94
562.44	43475.45
562.60	44100.37
562.77	44336.77
562.93	43552.69
563.10	43817.17
563.26	43859.30
563.42	43999.73
563.59	44011.43
563.75	44163.57
563.92	43938.88
564.08	44133.14
564.24	44353.15
564.41	44409.32
564.57	43803.13
564.74	43805.47
564.90	44189.31
565.07	44172.93
565.23	43761.00
565.39	44179.95
565.56	44046.54
565.72	43899.09
565.88	43749.29
566.05	44378.90
566.21	44130.80
566.38	44240.81
566.54	43828.87
566.70	44332.09
566.87	44795.51
567.03	44456.14
567.19	44739.34
567.36	44313.36
567.52	44374.22
567.68	44383.58
567.85	43957.60
568.01	44376.56
568.17	44397.62
568.34	44336.77
568.50	43906.11
568.66	44154.21
568.83	44626.99
568.99	44296.98
569.15	44289.96
569.32	44240.81
569.48	43976.33
569.64	44673.81
569.81	44652.74
569.97	44032.50
570.13	44381.24
570.30	44245.49
570.46	44247.83
570.62	43915.47
570.78	44055.90
570.95	43978.67
571.11	44664.44
571.27	44563.80
571.43	44226.76
571.60	44598.91
571.76	44334.43
571.92	44566.14
572.09	44470.18
572.25	44186.97
572.41	44367.20
572.57	44418.69
572.74	44659.76
572.90	44694.87
573.06	44282.94
573.22	44865.73
573.38	45067.02
573.55	44339.11
573.71	44928.92
573.87	44495.92
574.03	43981.01
574.20	44601.25
574.36	44034.84
574.52	44875.09
574.68	44811.90
574.84	44861.05
575.01	44458.48
575.17	44804.88
575.33	44414.01
575.49	44360.17
575.65	44858.71
575.82	44898.50
575.98	44411.67
576.14	44968.71
576.30	44865.73
576.46	44318.04
576.62	44456.14
576.79	44521.67
576.95	43999.73
577.11	44383.58
577.27	44905.52
577.43	45022.54
577.59	44432.73
577.75	44554.44
577.92	44201.02
578.08	44098.03
578.24	44210.38
578.40	44397.62
578.56	44823.60
578.72	44348.47
578.88	44868.07
579.04	44737.00
579.21	44414.01
579.37	44800.19
579.53	44500.61
579.69	44224.42
579.85	44399.96
580.01	44697.21
580.17	44722.96
580.33	45132.55
580.49	44741.68
580.65	44875.09
580.82	44811.90
580.98	44587.21
581.14	44687.85
581.30	45106.80
581.46	44751.04
581.62	44931.26
581.78	44725.30
581.94	45219.15
582.10	45226.17
582.26	44863.39
582.42	44821.26
582.58	45001.48
582.74	44989.78
582.90	44619.97
583.06	44889.13
583.22	45038.93
583.38	44456.14
583.54	44664.44
583.70	44612.95
583.86	44711.25
584.02	44418.69
584.18	44666.78
584.34	44584.86
584.50	44879.77
584.66	44610.61
584.82	44741.68
584.98	44832.96
585.14	45034.25
585.30	44940.63
585.46	44608.27
585.62	44435.07
585.78	44744.02
585.94	44467.84
586.10	44715.93
586.26	44744.02
586.42	44877.43
586.58	44999.14
586.74	45017.86
586.90	44648.06
587.06	44467.84
587.22	44903.18
587.38	44673.81
587.54	45102.12
587.70	44914.88
587.86	44933.60
588.02	44673.81
588.18	45495.33
588.34	44779.13
588.49	44421.03
588.65	45085.74
588.81	44797.85
588.97	44704.23
589.13	44849.35
589.29	45045.95
589.45	44816.58
589.61	44966.37
589.77	45219.15
589.93	44889.13
590.08	44823.60
590.24	44231.44
