SpectraSuite Data File
++++++++++++++++++++++++++++++++++++
Date: Fri Oct 25 10:43:50 EDT 2013
User: price-jones
Dark Spectrum Present: No
Reference Spectrum Present: No
Number of Sampled Component Spectra: 1
Spectrometers: USB2+H05261
Integration Time (usec): 100000 (USB2+H05261)
Spectra Averaged: 1 (USB2+H05261)
Boxcar Smoothing: 0 (USB2+H05261)
Correct for Electrical Dark: No (USB2+H05261)
Strobe/Lamp Enabled: No (USB2+H05261)
Correct for Detector Non-linearity: No (USB2+H05261)
Correct for Stray Light: No (USB2+H05261)
Number of Pixels in Processed Spectrum: 2048
>>>>>Begin Processed Spectral Data<<<<<
365.73	133.41
365.92	133.41
366.12	133.41
366.32	102.98
366.52	95.96
366.72	53.83
366.91	44.47
367.11	39.79
367.31	25.75
367.51	23.41
367.70	0.00
367.90	65.54
368.10	60.85
368.30	65.54
368.49	0.00
368.69	0.00
368.89	51.49
369.09	53.83
369.28	60.85
369.48	44.47
369.68	53.83
369.87	95.96
370.07	65.54
370.27	140.43
370.47	119.37
370.66	400.23
370.86	372.15
371.06	512.58
371.25	486.83
371.45	404.91
371.65	435.34
371.84	425.98
372.04	376.83
372.24	503.22
372.44	493.85
372.63	533.64
372.83	503.22
373.03	540.66
373.22	510.24
373.42	564.07
373.62	475.13
373.81	624.92
374.01	521.94
374.21	554.71
374.40	564.07
374.60	592.16
374.79	606.20
374.99	599.18
375.19	566.41
375.38	589.82
375.58	540.66
375.78	559.39
375.97	561.73
376.17	706.84
376.37	690.46
376.56	624.92
376.76	660.03
376.95	620.24
377.15	624.92
377.35	627.26
377.54	629.60
377.74	638.97
377.93	550.03
378.13	664.71
378.33	653.01
378.52	685.78
378.72	690.46
378.91	664.71
379.11	645.99
379.31	629.60
379.50	601.52
379.70	739.61
379.89	704.50
380.09	695.14
380.28	704.50
380.48	755.99
380.68	805.14
380.87	676.41
381.07	755.99
381.26	697.48
381.46	674.07
381.65	645.99
381.85	737.27
382.04	770.04
382.24	655.35
382.43	730.25
382.63	709.18
382.83	772.38
383.02	772.38
383.22	725.57
383.41	664.71
383.61	746.63
383.80	676.41
384.00	748.97
384.19	697.48
384.39	716.20
384.58	774.72
384.78	781.74
384.97	763.01
385.17	781.74
385.36	772.38
385.56	835.57
385.75	763.01
385.95	847.27
386.14	823.87
386.34	802.80
386.53	856.64
386.72	849.61
386.92	877.70
387.11	819.19
387.31	793.44
387.50	882.38
387.70	889.40
387.89	926.85
388.09	940.90
388.28	786.42
388.48	924.51
388.67	936.21
388.86	917.49
389.06	922.17
389.25	940.90
389.45	1078.99
389.64	1001.75
389.84	1008.77
390.03	983.02
390.22	1018.13
390.42	973.66
390.61	1008.77
390.81	992.39
391.00	1050.90
391.19	1048.56
391.39	1062.60
391.58	1083.67
391.78	1118.78
391.97	1029.84
392.16	1043.88
392.36	1149.20
392.55	1043.88
392.75	917.49
392.94	997.07
393.13	999.41
393.33	1062.60
393.52	1093.03
393.71	1097.71
393.91	1146.86
394.10	1083.67
394.29	1118.78
394.49	1130.48
394.68	1203.04
394.88	1165.59
395.07	1345.81
395.26	1219.42
395.46	1310.70
395.65	1256.87
395.84	1240.48
396.04	1233.46
396.23	1181.97
396.42	1177.29
396.62	1266.23
396.81	1196.01
397.00	1235.80
397.19	1203.04
397.39	1327.08
397.58	1476.88
397.77	1320.06
397.97	1411.34
398.16	1425.39
398.35	1526.03
398.55	1521.35
398.74	1495.60
398.93	1488.58
399.12	1497.94
399.32	1472.20
399.51	1514.33
399.70	1610.29
399.90	1507.30
400.09	1582.20
400.28	1500.28
400.47	1514.33
400.67	1694.55
400.86	1614.97
401.05	1589.22
401.24	1661.78
401.44	1661.78
401.63	1612.63
401.82	1734.34
402.01	1519.01
402.21	1764.76
402.40	1827.96
402.59	1767.10
402.78	1743.70
402.97	1739.02
403.17	1802.21
403.36	1802.21
403.55	1860.73
403.74	1921.58
403.93	1884.13
404.13	1837.32
404.32	1834.98
404.51	1860.73
404.70	1980.09
404.89	1795.19
405.09	1961.37
405.28	2005.84
405.47	1944.99
405.66	1947.33
405.85	2071.37
406.05	1916.90
406.24	1954.35
406.43	2038.61
406.62	2057.33
406.81	2115.84
407.00	2165.00
407.20	2036.27
407.39	2043.29
407.58	2179.04
407.77	2172.02
407.96	2193.08
408.15	2157.97
408.34	2232.87
408.54	2272.66
408.73	2335.85
408.92	2305.43
409.11	2408.41
409.30	2356.92
409.49	2230.53
409.68	2188.40
409.87	2342.88
410.07	2328.83
410.26	2394.37
410.45	2403.73
410.64	2490.33
410.83	2581.61
411.02	2523.10
411.21	2626.08
411.40	2691.62
411.59	2665.87
411.78	2677.57
411.98	2654.17
412.17	2595.65
412.36	2705.66
412.55	2614.38
412.74	2799.28
412.93	2757.15
413.12	2731.41
413.31	2857.79
413.50	2871.84
413.69	2834.39
413.88	2871.84
414.07	2897.58
414.26	2958.44
414.45	2991.20
414.64	2857.79
414.83	3131.64
415.02	3033.33
415.22	3171.43
415.41	3286.11
415.60	3138.66
415.79	3215.90
415.98	3187.81
416.17	3243.98
416.36	3185.47
416.55	3201.85
416.74	3194.83
416.93	3241.64
417.12	3375.05
417.31	3337.60
417.50	3290.79
417.69	3375.05
417.88	3440.59
418.07	3440.59
418.26	3321.22
418.45	3456.97
418.64	3466.33
418.83	3478.04
419.02	3452.29
419.21	3653.58
419.39	3613.79
419.58	3496.76
419.77	3499.10
419.96	3611.45
420.15	3747.20
420.34	3618.47
420.53	3812.73
420.72	3866.56
420.91	3712.09
421.10	3784.65
421.29	3946.14
421.48	3733.15
421.67	3765.92
421.86	3751.88
422.05	3894.65
422.24	3751.88
422.43	3719.11
422.61	3794.01
422.80	3925.08
422.99	3833.80
423.18	3920.40
423.37	3824.44
423.56	3997.64
423.75	3906.35
423.94	3798.69
424.13	3669.96
424.32	3808.05
424.50	3941.46
424.69	3999.98
424.88	4004.66
425.07	3854.86
425.26	3794.01
425.45	3957.85
425.64	3882.95
425.83	4009.34
426.01	4007.00
426.20	4060.83
426.39	3967.21
426.58	3976.57
426.77	3885.29
426.96	4023.38
427.15	4004.66
427.33	4067.85
427.52	4044.45
427.71	4088.92
427.90	4049.13
428.09	4177.86
428.28	4212.96
428.46	4191.90
428.65	4161.47
428.84	4222.33
429.03	4252.75
429.22	4145.09
429.40	4079.55
429.59	4159.13
429.78	3969.55
429.97	3962.53
430.16	4154.45
430.34	4070.19
430.53	4114.66
430.72	4126.36
430.91	4070.19
431.10	4229.35
431.28	4440.00
431.47	4652.98
431.66	4678.73
431.85	4678.73
432.03	4713.84
432.22	4641.28
432.41	4648.30
432.60	4711.50
432.79	4716.18
432.97	4734.90
433.16	4758.31
433.35	4589.79
433.54	4645.96
433.72	4798.10
433.91	4629.58
434.10	4779.37
434.28	4830.87
434.47	4791.08
434.66	4992.36
434.85	4868.31
435.03	4940.87
435.22	4983.00
435.41	5057.90
435.59	5093.01
435.78	5064.92
435.97	5198.33
436.16	5170.24
436.34	5130.45
436.53	4926.83
436.72	5181.95
436.90	4961.94
437.09	5130.45
437.28	5221.74
437.46	5095.35
437.65	5212.37
437.84	5320.04
438.02	5160.88
438.21	5184.29
438.40	5181.95
438.58	5289.61
438.77	5486.22
438.96	5533.03
439.14	5603.24
439.33	5830.27
439.52	5738.99
439.70	5575.16
439.89	5790.49
440.08	5673.46
440.26	5638.35
440.45	5729.63
440.63	5928.58
440.82	6101.78
441.01	6040.92
441.19	6083.05
441.38	5980.07
441.57	6087.73
441.75	6218.80
441.94	6291.36
442.12	6258.59
442.31	6169.65
442.50	6251.57
442.68	6253.91
442.87	6127.52
443.05	6406.05
443.24	6466.90
443.43	6459.88
443.61	6534.78
443.80	6656.48
443.98	6429.45
444.17	6087.73
444.35	6567.54
444.54	6502.01
444.73	6590.95
444.91	6555.84
445.10	6553.50
445.28	6349.87
445.47	6408.39
445.65	6370.94
445.84	6417.75
446.02	6663.51
446.21	6518.39
446.39	6593.29
446.58	6544.14
446.77	6768.83
446.95	6602.65
447.14	6668.19
447.32	6815.64
447.51	6693.93
447.69	6525.41
447.88	6715.00
448.06	6715.00
448.25	6719.68
448.43	6757.13
448.62	6707.98
448.80	6705.63
448.99	6651.80
449.17	6963.09
449.36	6794.58
449.54	6993.52
449.73	7042.67
449.91	7115.23
450.10	7068.42
450.28	7241.62
450.46	7169.06
450.65	7323.54
450.83	7227.57
451.02	7211.19
451.20	7155.02
451.39	7194.81
451.57	7283.75
451.76	7021.61
451.94	7117.57
452.13	7239.28
452.31	7250.98
452.49	6979.48
452.68	7133.95
452.86	7089.48
453.05	7229.91
453.23	7372.69
453.42	7421.84
453.60	7258.00
453.78	7515.46
453.97	7311.83
454.15	7304.81
454.34	7410.14
454.52	7522.48
454.70	7377.37
454.89	7499.08
455.07	7414.82
455.26	7634.83
455.44	7744.83
455.62	7815.05
455.81	7623.12
455.99	7796.32
456.17	7655.89
456.36	7871.22
456.54	7889.95
456.73	7999.95
456.91	8234.00
457.09	8077.19
457.28	8051.44
457.46	7992.93
457.64	7974.21
457.83	8175.49
458.01	8135.70
458.19	8056.12
458.38	8065.49
458.56	8271.45
458.74	8395.50
458.93	8084.21
459.11	8177.83
459.29	8386.14
459.48	8327.63
459.66	8360.39
459.84	8344.01
460.03	8608.49
460.21	8615.51
460.39	8496.14
460.57	8498.49
460.76	8451.67
460.94	8524.23
461.12	8585.08
461.31	8650.62
461.49	8582.74
461.67	8748.92
461.85	8573.38
462.04	8798.07
462.22	8744.24
462.40	8812.12
462.59	9036.81
462.77	9029.79
462.95	9020.42
463.13	8758.28
463.32	8940.85
463.50	8858.93
463.68	9078.94
463.86	8741.90
464.05	8915.10
464.23	8954.89
464.41	9191.28
464.59	8884.67
464.78	9238.09
464.96	9167.88
465.14	8954.89
465.32	9158.52
465.50	9320.01
465.69	9245.12
465.87	9355.12
466.05	9210.01
466.23	9107.02
466.41	9310.65
466.60	9446.40
466.78	8982.98
466.96	9273.20
467.14	9198.31
467.32	9252.14
467.51	9401.93
467.69	9221.71
467.87	9570.45
468.05	9486.19
468.23	9240.44
468.41	9394.91
468.60	9710.88
468.78	9537.68
468.96	9682.80
469.14	9612.58
469.32	9731.95
469.50	9401.93
469.69	9891.10
469.87	9820.89
470.05	9767.06
470.23	9731.95
470.41	10017.49
470.59	9628.96
470.77	10033.88
470.95	9982.38
471.14	10134.52
471.32	9977.70
471.50	10399.00
471.68	10321.76
471.86	10377.94
472.04	10277.29
472.22	10532.41
472.40	10253.89
472.58	10162.61
472.77	10520.71
472.95	10466.88
473.13	10712.63
473.31	10616.67
473.49	10593.26
473.67	10501.98
473.85	10747.74
474.03	11150.31
474.21	11105.84
474.39	11180.74
474.57	11164.36
474.75	11194.78
474.93	11318.83
475.12	11016.90
475.30	11187.76
475.48	10972.43
475.66	11211.17
475.84	11358.62
476.02	11344.58
476.20	11482.67
476.38	11548.20
476.56	11946.09
476.74	11641.82
476.92	11566.93
477.10	11740.13
477.28	12123.98
477.46	12116.95
477.64	12201.21
477.82	12439.95
478.00	12358.03
478.18	12411.86
478.36	12386.12
478.54	12512.50
478.72	12575.70
478.90	12727.83
479.08	12772.30
479.26	13139.77
479.44	13399.57
479.62	13083.59
479.80	13317.65
479.98	13406.59
480.16	13530.64
480.34	13444.04
480.52	13652.34
480.70	13699.16
480.88	13811.50
481.06	13942.57
481.24	13811.50
481.41	14052.58
481.59	14560.47
481.77	14200.03
481.95	14167.26
482.13	14457.49
482.31	14312.38
482.49	15136.24
482.67	14792.19
482.85	15126.88
483.03	15098.80
483.21	15377.32
483.39	15522.43
483.57	15363.28
483.74	15255.61
483.92	15798.62
484.10	15543.50
484.28	15920.32
484.46	15915.64
484.64	16297.15
484.82	16152.04
485.00	16353.32
485.18	16435.24
485.35	16624.83
485.53	16159.06
485.71	16027.99
485.89	16423.54
486.07	16297.15
486.25	16449.28
486.43	16599.08
486.61	17078.89
486.78	17214.64
486.96	17287.20
487.14	17575.08
487.32	17671.04
487.50	17893.40
487.68	18174.26
487.85	18621.30
488.03	18487.89
488.21	18441.08
488.39	18483.21
488.57	18574.49
488.75	18691.52
488.92	18913.87
489.10	19262.61
489.28	19229.84
489.46	19407.72
489.64	19461.55
489.81	19992.86
489.99	20063.07
490.17	20039.67
490.35	20013.92
490.53	20383.73
490.70	20547.56
490.88	20273.72
491.06	20821.41
491.24	20680.97
491.41	20744.17
491.59	20545.22
491.77	20730.12
491.95	21022.69
492.13	21076.52
492.30	21570.38
492.48	21451.01
492.66	21776.34
492.84	21944.86
493.01	22005.72
493.19	21930.82
493.37	22291.26
493.54	22136.79
493.72	22263.18
493.90	22625.96
494.08	23119.81
494.25	23101.09
494.43	23433.44
494.61	23461.53
494.79	23300.03
494.96	23281.31
495.14	23302.37
495.32	23871.12
495.49	23662.82
495.67	24142.63
495.85	23997.51
496.02	24257.31
496.20	24575.62
496.38	24484.34
496.55	24477.32
496.73	25261.40
496.91	24898.62
497.09	24891.60
497.26	24783.93
497.44	24748.82
497.62	25127.99
497.79	25371.41
497.97	24978.20
498.14	25582.06
498.32	25425.24
498.50	25729.51
498.67	26403.58
498.85	25743.55
499.03	26106.34
499.20	26080.59
499.38	26309.96
499.56	26408.26
499.73	26064.21
499.91	26679.77
500.08	26672.74
500.26	26153.15
500.44	27028.51
500.61	26572.10
500.79	26654.02
500.97	27009.78
501.14	26962.97
501.32	27150.21
501.49	27084.68
501.67	26871.69
501.84	27316.39
502.02	27311.71
502.20	27538.74
502.37	27960.04
502.55	27613.64
502.72	28109.83
502.90	27927.27
503.07	27646.41
503.25	28016.21
503.43	27601.94
503.60	28056.00
503.78	28418.78
503.95	28173.03
504.13	28517.09
504.30	28657.52
504.48	28439.85
504.65	28882.21
504.83	29228.61
505.01	29209.89
505.18	29060.09
505.36	29280.10
505.53	29179.46
505.71	29715.44
505.88	29823.11
506.06	29500.11
506.23	29432.24
506.41	29645.23
506.58	29883.96
506.76	29759.91
506.93	30164.82
507.11	29809.06
507.28	30122.69
507.46	29954.18
507.63	29710.76
507.81	29858.21
507.98	30078.22
508.16	30312.28
508.33	30483.14
508.50	30703.15
508.68	30881.03
508.85	31065.93
509.03	30930.18
509.20	31065.93
509.38	31028.48
509.55	31302.32
509.73	31192.32
509.90	31412.33
510.08	31367.86
510.25	31669.79
510.42	31484.89
510.60	31527.02
510.77	32170.66
510.95	31782.13
511.12	32135.56
511.30	32079.38
511.47	32348.54
511.64	32451.53
511.82	32697.28
511.99	32055.98
512.17	31978.74
512.34	32308.76
512.51	32507.70
512.69	32641.11
512.86	32690.26
513.04	33013.26
513.21	32755.80
513.38	32842.40
513.56	33024.96
513.73	32856.44
513.90	32964.10
514.08	33158.37
514.25	33076.45
514.43	33207.52
514.60	32985.17
514.77	33156.03
514.95	33635.84
515.12	33387.74
515.29	33626.48
515.47	34017.35
515.64	34281.83
515.81	34227.99
515.99	33809.04
516.16	33647.54
516.33	33432.21
516.51	33916.70
516.68	33120.92
516.85	33149.01
517.03	33867.55
517.20	34096.92
517.37	34305.23
517.54	34630.57
517.72	34246.72
517.89	34300.55
518.06	33935.43
518.24	34323.96
518.41	34462.05
518.58	34480.77
518.75	34637.59
518.93	34848.24
519.10	34658.65
519.27	34803.77
519.45	34759.30
519.62	35281.24
519.79	35552.74
519.96	35306.98
520.14	35590.19
520.31	35159.53
520.48	35653.38
520.65	35438.05
520.83	36180.00
521.00	36163.62
521.17	35749.34
521.34	36182.34
521.52	36172.98
521.69	36212.77
521.86	36109.78
522.03	35985.74
522.20	36180.00
522.38	36432.78
522.55	36140.21
522.72	36301.71
522.89	36367.24
523.07	36582.57
523.24	36488.95
523.41	36996.85
523.58	36758.11
523.75	37376.01
523.92	37310.48
524.10	37067.06
524.27	37205.16
524.44	37226.22
524.61	37139.62
524.78	37532.83
524.96	37312.82
525.13	37659.22
525.30	37937.74
525.47	37668.58
525.64	37542.19
525.81	37813.70
525.98	37619.43
526.16	37125.58
526.33	37127.92
526.50	37425.17
526.67	37076.43
526.84	37134.94
527.01	37303.46
527.18	37998.60
527.36	38113.28
527.53	38380.10
527.70	38527.56
527.87	38258.40
528.04	38340.32
528.21	38132.01
528.38	38319.25
528.55	38778.00
528.72	38944.17
528.89	39189.93
529.07	39182.91
529.24	38398.83
529.41	38838.85
529.58	38663.31
529.75	38314.57
529.92	39096.31
530.09	38979.28
530.26	39213.34
530.43	39477.82
530.60	39187.59
530.77	38951.20
530.94	39431.01
531.11	39260.15
531.28	39405.26
531.46	39377.17
531.63	39847.62
531.80	39552.71
531.97	39393.56
532.14	39606.55
532.31	38988.64
532.48	39119.71
532.65	39826.56
532.82	39468.45
532.99	39878.05
533.16	39086.95
533.33	39849.96
533.50	40308.71
533.67	40058.27
533.84	40297.00
534.01	40498.29
534.18	40079.33
534.35	40577.87
534.52	40322.75
534.69	40194.02
534.86	40294.66
535.03	40566.16
535.20	40889.16
535.37	41048.32
535.54	40849.37
535.71	40671.49
535.88	40297.00
536.05	40458.50
536.22	40783.83
536.38	40697.24
536.55	40648.08
536.72	40598.93
536.89	40158.91
537.06	40830.65
537.23	40978.10
537.40	40631.70
537.57	40914.90
537.74	41397.06
537.91	40961.72
538.08	40940.65
538.25	40985.12
538.42	41284.71
538.59	41095.13
538.75	41123.21
538.92	41242.58
539.09	41656.85
539.26	41422.80
539.43	41750.48
539.60	41404.08
539.77	40994.48
539.94	41572.60
540.11	41551.53
540.28	41408.76
540.44	41647.49
540.61	41315.14
540.78	41610.04
540.95	41553.87
541.12	41425.14
541.29	41462.59
541.46	41944.74
541.62	41918.99
541.79	41738.77
541.96	41724.73
542.13	42300.50
542.30	42206.88
542.47	42036.02
542.63	42110.92
542.80	42349.65
542.97	42525.19
543.14	42752.23
543.31	42492.43
543.48	42412.85
543.64	42965.21
543.81	42857.55
543.98	42656.26
544.15	42777.97
544.32	43445.02
544.48	43115.01
544.65	42705.41
544.82	43229.69
544.99	42777.97
545.16	42806.06
545.32	42878.61
545.49	43592.48
545.66	43283.53
545.83	43805.47
546.00	43438.00
546.16	42958.19
546.33	42983.94
546.50	42939.47
546.67	42906.70
546.83	43002.66
547.00	43119.69
547.17	43517.58
547.34	43217.99
547.50	43072.88
547.67	43508.22
547.84	43295.23
548.00	43714.19
548.17	43835.89
548.34	43473.11
548.51	44095.69
548.67	44130.80
548.84	43634.61
549.01	43704.82
549.18	43613.54
549.34	43686.10
549.51	43489.49
549.68	43983.35
549.84	43887.39
550.01	44285.28
550.18	44023.14
550.34	44069.95
550.51	43863.98
550.68	43388.85
550.84	43414.60
551.01	44399.96
551.18	43817.17
551.34	43777.38
551.51	44594.23
551.68	44252.51
551.84	44217.40
552.01	44175.27
552.18	44098.03
552.34	43842.92
552.51	44474.86
552.68	43959.94
552.84	44353.15
553.01	44566.14
553.18	44292.30
553.34	44603.59
553.51	44596.57
553.67	44626.99
553.84	44877.43
554.01	45029.57
554.17	44718.28
554.34	44662.10
554.51	44350.81
554.67	44795.51
554.84	44453.79
555.00	44430.39
555.17	44662.10
555.33	44570.82
555.50	44657.42
555.67	44776.79
555.83	44563.80
556.00	44844.66
556.16	45378.31
556.33	44542.74
556.50	44690.19
556.66	44793.17
556.83	44601.25
556.99	44830.62
557.16	44783.81
557.32	44947.65
557.49	45233.19
557.65	44924.24
557.82	45048.29
557.98	44861.05
558.15	45357.24
558.32	45043.61
558.48	44587.21
558.65	44954.67
558.81	44842.32
558.98	45043.61
559.14	45088.08
559.31	44886.79
559.47	45078.72
559.64	45296.39
559.80	44762.75
559.97	45172.34
560.13	44835.30
560.30	45141.91
560.46	45230.85
560.63	45111.49
560.79	45525.76
560.96	45701.30
561.12	45525.76
561.29	45165.32
561.45	45476.61
561.61	45380.65
561.78	45549.17
561.94	45385.33
562.11	45380.65
562.27	45209.79
562.44	45247.24
562.60	45574.91
562.77	45436.82
562.93	45464.91
563.10	45722.37
563.26	45240.21
563.42	45752.79
563.59	45492.99
563.75	45312.77
563.92	45996.21
564.08	45687.26
564.24	45895.56
564.41	45729.39
564.57	45621.72
564.74	45713.00
564.90	45633.42
565.07	45815.99
565.23	45209.79
565.39	45469.59
565.56	45551.51
565.72	45249.58
565.88	45713.00
566.05	45500.01
566.21	45797.26
566.38	45705.98
566.54	45507.04
566.70	45778.54
566.87	46136.64
567.03	45563.21
567.19	46094.51
567.36	45558.53
567.52	45947.06
567.68	46202.18
567.85	45476.61
568.01	45993.87
568.17	45897.91
568.34	45895.56
568.50	46164.73
568.66	45584.27
568.83	45998.55
568.99	45469.59
569.15	45394.69
569.32	45432.14
569.48	45652.15
569.64	45766.84
569.81	45815.99
569.97	45392.35
570.13	46288.77
570.30	45500.01
570.46	45645.13
570.62	44954.67
570.78	45682.58
570.95	45553.85
571.11	45617.04
571.27	45727.05
571.43	45708.32
571.60	46174.09
571.76	45574.91
571.92	45813.65
572.09	46078.13
572.25	46052.38
572.41	45897.91
572.57	45947.06
572.74	46157.70
572.90	46115.58
573.06	46010.25
573.22	46000.89
573.38	46073.45
573.55	45928.33
573.71	46204.52
573.87	46429.21
574.03	45825.35
574.20	45818.33
574.36	46213.88
574.52	46092.17
574.68	45958.76
574.84	45933.01
575.01	46251.33
575.17	45745.77
575.33	45347.88
575.49	45614.70
575.65	46518.15
575.82	46328.56
575.98	45759.81
576.14	45855.78
576.30	46031.32
576.46	45954.08
576.62	45893.22
576.79	45879.18
576.95	45787.90
577.11	45902.59
577.27	45593.64
577.43	46150.68
577.59	45890.88
577.75	45715.34
577.92	45659.17
578.08	45539.80
578.24	45958.76
578.40	45933.01
578.56	46110.89
578.72	45968.12
578.88	46504.10
579.04	46436.23
579.21	45619.38
579.37	45947.06
579.53	45865.14
579.69	45743.43
579.85	45741.09
580.01	46078.13
580.17	46150.68
580.33	46136.64
580.49	46167.07
580.65	46014.93
580.82	46209.20
580.98	46164.73
581.14	46124.94
581.30	46302.82
581.46	46380.06
581.62	46251.33
581.78	45748.11
581.94	46698.37
582.10	46054.72
582.26	46438.57
582.42	45776.20
582.58	46085.15
582.74	45883.86
582.90	46534.53
583.06	46777.95
583.22	46476.02
583.38	46401.12
583.54	46122.60
583.70	46227.92
583.86	46351.97
584.02	46092.17
584.18	46358.99
584.34	46007.91
584.50	46059.40
584.66	45965.78
584.82	45851.09
584.98	46520.49
585.14	46017.27
585.30	46157.70
585.46	46061.74
585.62	46092.17
585.78	46021.95
585.94	45649.81
586.10	45682.58
586.26	46040.68
586.42	46333.24
586.58	46265.37
586.74	45645.13
586.90	45865.14
587.06	46349.63
587.22	46234.94
587.38	45848.75
587.54	46391.76
587.70	46476.02
587.86	46092.17
588.02	46246.65
588.18	46539.21
588.34	45794.92
588.49	45787.90
588.65	45326.81
588.81	45893.22
588.97	45832.37
589.13	45642.79
589.29	45837.05
589.45	45979.82
589.61	46045.36
589.77	46326.22
589.93	46405.80
