SpectraSuite Data File
++++++++++++++++++++++++++++++++++++
Date: Fri Oct 25 11:26:09 EDT 2013
User: price-jones
Dark Spectrum Present: No
Reference Spectrum Present: No
Number of Sampled Component Spectra: 1
Spectrometers: USB2+H05261
Integration Time (usec): 100000 (USB2+H05261)
Spectra Averaged: 1 (USB2+H05261)
Boxcar Smoothing: 0 (USB2+H05261)
Correct for Electrical Dark: No (USB2+H05261)
Strobe/Lamp Enabled: No (USB2+H05261)
Correct for Detector Non-linearity: No (USB2+H05261)
Correct for Stray Light: No (USB2+H05261)
Number of Pixels in Processed Spectrum: 2048
>>>>>Begin Processed Spectral Data<<<<<
365.73	184.90
365.92	184.90
366.12	184.90
366.32	124.05
366.52	168.52
366.72	147.45
366.91	187.24
367.11	152.13
367.31	86.60
367.51	159.16
367.70	163.84
367.90	88.94
368.10	168.52
368.30	107.66
368.49	168.52
368.69	177.88
368.89	100.64
369.09	191.92
369.28	110.01
369.48	161.50
369.68	194.26
369.87	198.95
370.07	161.50
370.27	257.46
370.47	311.29
370.66	568.75
370.86	634.29
371.06	648.33
371.25	732.59
371.45	566.41
371.65	641.31
371.84	664.71
372.04	732.59
372.24	741.95
372.44	777.06
372.63	725.57
372.83	688.12
373.03	748.97
373.22	702.16
373.42	784.08
373.62	739.61
373.81	840.25
374.01	880.04
374.21	795.78
374.40	786.42
374.60	828.55
374.79	828.55
374.99	751.31
375.19	922.17
375.38	884.72
375.58	849.61
375.78	866.00
375.97	922.17
376.17	901.11
376.37	830.89
376.56	875.36
376.76	828.55
376.95	863.66
377.15	816.85
377.35	905.79
377.54	880.04
377.74	891.74
377.93	940.90
378.13	877.70
378.33	1004.09
378.52	990.05
378.72	912.81
378.91	917.49
379.11	882.38
379.31	954.94
379.50	945.58
379.70	1048.56
379.89	973.66
380.09	917.49
380.28	978.34
380.48	1053.24
380.68	1027.50
380.87	987.71
381.07	1041.54
381.26	1004.09
381.46	933.87
381.65	992.39
381.85	1036.86
382.04	1090.69
382.24	1071.97
382.43	1029.84
382.63	1020.47
382.83	1074.31
383.02	1027.50
383.22	1076.65
383.41	1156.22
383.61	1135.16
383.80	1128.14
384.00	1167.93
384.19	1151.54
384.39	1107.07
384.58	1149.20
384.78	1111.75
384.97	1130.48
385.17	1219.42
385.36	1130.48
385.56	1191.33
385.75	1240.48
385.95	1142.18
386.14	1233.46
386.34	1219.42
386.53	1226.44
386.72	1219.42
386.92	1186.65
387.11	1179.63
387.31	1294.32
387.50	1214.74
387.70	1172.61
387.89	1224.10
388.09	1291.98
388.28	1291.98
388.48	1299.00
388.67	1273.25
388.86	1198.35
389.06	1270.91
389.25	1392.62
389.45	1334.11
389.64	1327.08
389.84	1390.28
390.03	1327.08
390.22	1397.30
390.42	1387.94
390.61	1413.68
390.81	1446.45
391.00	1376.24
391.19	1446.45
391.39	1350.49
391.58	1486.24
391.78	1413.68
391.97	1474.54
392.16	1411.34
392.36	1591.56
392.55	1521.35
392.75	1469.86
392.94	1612.63
393.13	1547.09
393.33	1500.28
393.52	1575.18
393.71	1568.16
393.91	1568.16
394.10	1572.84
394.29	1596.25
394.49	1528.37
394.68	1509.65
394.88	1626.67
395.07	1645.40
395.26	1671.14
395.46	1715.61
395.65	1736.68
395.84	1631.35
396.04	1734.34
396.23	1629.01
396.42	1678.16
396.62	1813.92
396.81	1722.63
397.00	1724.97
397.19	1799.87
397.39	1818.60
397.58	1778.81
397.77	1830.30
397.97	1886.47
398.16	1834.98
398.35	1909.88
398.55	1849.02
398.74	1816.26
398.93	1928.60
399.12	1830.30
399.32	1879.45
399.51	1970.73
399.70	2008.18
399.90	1919.24
400.09	2043.29
400.28	1954.35
400.47	1954.35
400.67	2040.95
400.86	2195.42
401.05	2167.34
401.24	2071.37
401.44	2127.55
401.63	2104.14
401.82	2108.82
402.01	2113.50
402.21	2108.82
402.40	2265.64
402.59	2127.55
402.78	2186.06
402.97	2183.72
403.17	2195.42
403.36	2221.17
403.55	2258.62
403.74	2209.47
403.93	2244.57
404.13	2441.18
404.32	2349.90
404.51	2335.85
404.70	2392.03
404.89	2399.05
405.09	2464.58
405.28	2579.27
405.47	2518.42
405.66	2511.39
405.85	2394.37
406.05	2506.71
406.24	2544.16
406.43	2593.31
406.62	2703.32
406.81	2710.34
407.00	2679.91
407.20	2579.27
407.39	2569.91
407.58	2602.68
407.77	2740.77
407.96	2761.83
408.15	2738.43
408.34	2593.31
408.54	2649.49
408.73	2829.71
408.92	2761.83
409.11	2773.53
409.30	2885.88
409.49	2808.64
409.68	2944.39
409.87	2846.09
410.07	2895.24
410.26	2899.92
410.45	2867.16
410.64	3028.65
410.83	3098.87
411.02	3108.23
411.21	3124.62
411.40	3143.34
411.59	3220.58
411.78	3187.81
411.98	3239.30
412.17	3229.94
412.36	3328.24
412.55	3265.05
412.74	3463.99
412.93	3471.01
413.12	3358.67
413.31	3503.78
413.50	3391.44
413.69	3494.42
413.88	3623.15
414.07	3674.64
414.26	3590.38
414.45	3620.81
414.64	3744.86
414.83	3758.90
415.02	3707.41
415.22	3854.86
415.41	3803.37
415.60	3730.81
415.79	3936.78
415.98	3873.59
416.17	4037.42
416.36	3913.38
416.55	3985.93
416.74	4079.55
416.93	3990.61
417.12	4016.36
417.31	3995.29
417.50	4196.58
417.69	4245.73
417.88	4234.03
418.07	4219.99
418.26	4318.29
418.45	4315.95
418.64	4531.28
418.83	4416.59
419.02	4341.69
419.21	4489.15
419.39	4468.08
419.58	4344.03
419.77	4337.01
419.96	4472.76
420.15	4526.60
420.34	4610.86
420.53	4720.86
420.72	4566.39
420.91	4645.96
421.10	4767.67
421.29	4863.63
421.48	4739.58
421.67	4772.35
421.86	4767.67
422.05	4784.06
422.24	4716.18
422.43	4816.82
422.61	4830.87
422.80	4919.81
422.99	4961.94
423.18	4931.51
423.37	4952.57
423.56	4861.29
423.75	4973.64
423.94	4830.87
424.13	4627.24
424.32	4844.91
424.50	4975.98
424.69	5088.32
424.88	5041.51
425.07	5006.41
425.26	4755.97
425.45	4917.47
425.64	4919.81
425.83	4922.15
426.01	5081.30
426.20	4856.61
426.39	5069.60
426.58	4961.94
426.77	4912.78
426.96	5294.29
427.15	5158.54
427.33	5273.23
427.52	5235.78
427.71	5338.76
427.90	5125.77
428.09	5268.55
428.28	5305.99
428.46	5315.36
428.65	5263.86
428.84	5549.41
429.03	5301.31
429.22	5362.17
429.40	5497.92
429.59	5385.57
429.78	5364.51
429.97	5303.65
430.16	5416.00
430.34	5692.18
430.53	5664.10
430.72	5486.22
430.91	5621.97
431.10	5458.13
431.28	5659.42
431.47	5853.68
431.66	5820.91
431.85	5764.74
432.03	5916.87
432.22	6038.58
432.41	5790.49
432.60	5949.64
432.79	5923.90
432.97	6015.18
433.16	5959.00
433.35	6022.20
433.54	6015.18
433.72	6127.52
433.91	6069.01
434.10	6031.56
434.28	6078.37
434.47	6157.95
434.66	6134.54
434.85	6291.36
435.03	6286.68
435.22	6333.49
435.41	6452.86
435.59	6429.45
435.78	6406.05
435.97	6471.58
436.16	6377.96
436.34	6401.37
436.53	6583.93
436.72	6637.76
436.90	6384.98
437.09	6525.41
437.28	6546.48
437.46	6614.35
437.65	6600.31
437.84	6651.80
438.02	6757.13
438.21	6857.77
438.40	6679.89
438.58	6939.69
438.77	6988.84
438.96	6923.30
439.14	6942.03
439.33	7283.75
439.52	7375.03
439.70	7131.61
439.89	7377.37
440.08	7360.98
440.26	7283.75
440.45	7164.38
440.63	7375.03
440.82	7534.18
441.01	7358.64
441.19	7625.47
441.38	7520.14
441.57	7583.34
441.75	7648.87
441.94	7934.42
442.12	8037.40
442.31	7976.55
442.50	8093.57
442.68	8006.97
442.87	8051.44
443.05	8121.66
443.24	8191.88
443.43	8088.89
443.61	8006.97
443.80	8425.93
443.98	7978.89
444.17	7864.20
444.35	8234.00
444.54	8318.26
444.73	8124.00
444.91	8168.47
445.10	8360.39
445.28	8482.10
445.47	8271.45
445.65	8341.67
445.84	8425.93
446.02	8592.11
446.21	8472.74
446.39	8205.92
446.58	8507.85
446.77	8465.72
446.95	8325.29
447.14	8365.07
447.32	8514.87
447.51	8587.43
447.69	8638.92
447.88	8439.97
448.06	8444.65
448.25	8580.40
448.43	8650.62
448.62	8535.93
448.80	8365.07
448.99	8486.78
449.17	8620.19
449.36	8727.86
449.54	8903.40
449.73	8821.48
449.91	9039.15
450.10	8755.94
450.28	9137.45
450.46	8997.02
450.65	8999.36
450.83	9020.42
451.02	9078.94
451.20	9212.35
451.39	8997.02
451.57	9132.77
451.76	8922.12
451.94	9191.28
452.13	9219.37
452.31	9191.28
452.49	9214.69
452.68	9249.80
452.86	9144.47
453.05	9418.32
453.23	9371.50
453.42	9537.68
453.60	9528.32
453.78	9378.53
453.97	9488.53
454.15	9446.40
454.34	9252.14
454.52	9708.54
454.70	9696.84
454.89	9710.88
455.07	9785.78
455.26	9994.09
455.44	9944.94
455.62	9891.10
455.81	9902.81
455.99	9919.19
456.17	10047.92
456.36	10068.98
456.54	10036.22
456.73	10176.65
456.91	10384.96
457.09	10401.34
457.28	10373.25
457.46	10406.02
457.64	10291.34
457.83	10368.57
458.01	10169.63
458.19	10848.38
458.38	10644.76
458.56	10668.16
458.74	10707.95
458.93	10668.16
459.11	10796.89
459.29	10782.85
459.48	10686.89
459.66	10841.36
459.84	10810.93
460.03	11070.73
460.21	11061.37
460.39	10993.50
460.57	11007.54
460.76	11028.60
460.94	11171.38
461.12	11243.93
461.31	11297.77
461.49	11164.36
461.67	11066.05
461.85	11288.40
462.04	11117.54
462.22	11798.64
462.40	11541.18
462.59	11346.92
462.77	11400.75
462.95	11646.51
463.13	11477.99
463.32	11496.71
463.50	11559.91
463.68	11669.91
463.86	11826.73
464.05	11695.66
464.23	11632.46
464.41	12056.10
464.59	11742.47
464.78	12114.61
464.96	12067.80
465.14	11700.34
465.32	12053.76
465.50	12037.38
465.69	12044.40
465.87	12102.91
466.05	12238.66
466.23	12154.40
466.41	12018.65
466.60	12540.59
466.78	11894.60
466.96	12217.60
467.14	12280.79
467.32	12500.80
467.51	12491.44
467.69	12243.34
467.87	12308.88
468.05	12491.44
468.23	12238.66
468.41	12421.22
468.60	12737.20
468.78	12657.62
468.96	12524.21
469.14	12702.09
469.32	12954.87
469.50	12603.78
469.69	12938.48
469.87	12835.50
470.05	12870.61
470.23	13064.87
470.41	13205.30
470.59	13369.14
470.77	13252.11
470.95	13259.13
471.14	13577.45
471.32	13130.41
471.50	13511.91
471.68	13731.92
471.86	13664.05
472.04	13682.77
472.22	14017.47
472.40	13729.58
472.58	14024.49
472.77	13944.91
472.95	13760.01
473.13	14382.59
473.31	14003.43
473.49	14214.07
473.67	13799.80
473.85	14232.80
474.03	14403.66
474.21	14354.51
474.39	14710.27
474.57	14740.69
474.75	14733.67
474.93	15044.96
475.12	14707.93
475.30	14979.43
475.48	14911.55
475.66	15087.09
475.84	15129.22
476.02	15379.66
476.20	15374.98
476.38	15419.45
476.56	16079.48
476.74	15709.68
476.92	15573.92
477.10	15417.11
477.28	15934.37
477.46	15922.66
477.64	16304.17
477.82	16514.82
478.00	16821.43
478.18	16603.76
478.36	17018.04
478.54	16912.71
478.72	17053.14
478.90	17429.97
479.08	17551.68
479.26	17638.28
479.44	17455.72
479.62	17481.46
479.80	17907.44
479.98	18244.48
480.16	18569.81
480.34	17839.56
480.52	18593.22
480.70	18654.07
480.88	18352.14
481.06	18567.47
481.24	18792.16
481.41	18960.68
481.59	19267.29
481.77	19157.28
481.95	19459.21
482.13	19583.26
482.31	19681.56
482.49	20236.27
482.67	20152.01
482.85	20264.36
483.03	20477.35
483.21	20664.59
483.39	20800.34
483.57	20659.91
483.74	21174.83
483.92	21151.42
484.10	21027.37
484.28	21619.53
484.46	22190.62
484.64	22375.52
484.82	21935.50
485.00	22171.89
485.18	22604.89
485.35	22731.28
485.53	22895.12
485.71	23084.70
485.89	23510.68
486.07	23175.98
486.25	23435.78
486.43	23714.31
486.61	23365.57
486.78	23770.48
486.96	24322.85
487.14	24592.01
487.32	24137.94
487.50	25029.69
487.68	25015.65
487.85	25156.08
488.03	25422.90
488.21	25546.95
488.39	25741.21
488.57	25593.76
488.75	26391.88
488.92	26555.72
489.10	26686.79
489.28	26630.62
489.46	26974.67
489.64	26988.72
489.81	27632.36
489.99	27344.48
490.17	27433.42
490.35	28009.19
490.53	28231.54
490.70	28631.77
490.88	28315.80
491.06	28381.34
491.24	28737.10
491.41	28940.72
491.59	29125.63
491.77	29230.95
491.95	29448.62
492.13	29570.33
492.30	29682.67
492.48	29942.47
492.66	30377.81
492.84	29949.50
493.01	30639.95
493.19	30560.37
493.37	30822.51
493.54	31145.51
493.72	31580.85
493.90	31398.29
494.08	31604.25
494.25	31952.99
494.43	31981.08
494.61	32156.62
494.79	32456.21
494.96	32371.95
495.14	32816.65
495.32	33097.52
495.49	32938.36
495.67	33486.04
495.85	33380.72
496.02	33638.18
496.20	33567.96
496.38	34075.86
496.55	33893.30
496.73	34745.25
496.91	34668.02
497.09	34352.04
497.26	34902.07
497.44	34651.63
497.62	35377.20
497.79	35709.55
497.97	35225.06
498.14	36086.38
498.32	35555.08
498.50	35555.08
498.67	36350.86
498.85	36210.43
499.03	36453.84
499.20	36556.83
499.38	36814.29
499.56	37329.20
499.73	37092.81
499.91	36666.83
500.08	37315.16
500.26	37392.40
500.44	37347.93
500.61	37895.61
500.79	37780.93
500.97	37963.49
501.14	38349.68
501.32	38618.84
501.49	38403.51
501.67	38824.81
501.84	39014.39
502.02	38639.90
502.20	38649.27
502.37	39007.37
502.55	39189.93
502.72	39510.58
502.90	39756.34
503.07	39192.27
503.25	39503.56
503.43	39777.40
503.60	39892.09
503.78	39992.73
503.95	40086.36
504.13	40247.85
504.30	40657.45
504.48	40425.73
504.65	40818.94
504.83	41060.02
505.01	41373.65
505.18	41233.22
505.36	40966.40
505.53	40961.72
505.71	41708.35
505.88	41841.76
506.06	41380.67
506.23	42031.34
506.41	41378.33
506.58	42122.62
506.76	42314.55
506.93	42117.94
507.11	42129.64
507.28	42546.26
507.46	42426.89
507.63	42691.37
507.81	42937.13
507.98	42682.01
508.16	43147.78
508.33	43391.19
508.50	43189.91
508.68	43519.92
508.85	43938.88
509.03	43625.25
509.20	43728.23
509.38	44074.63
509.55	44182.29
509.73	43934.20
509.90	44257.19
510.08	44332.09
510.25	44467.84
510.42	44453.79
510.60	45223.83
510.77	45088.08
510.95	45371.28
511.12	45282.34
511.30	45488.31
511.47	45095.10
511.64	45425.12
511.82	45455.54
511.99	45434.48
512.17	46078.13
512.34	45813.65
512.51	46429.21
512.69	46061.74
512.86	46131.96
513.04	46321.54
513.21	46394.10
513.38	46366.01
513.56	47035.41
513.73	46630.49
513.90	46602.41
514.08	47007.32
514.25	47334.99
514.43	47124.35
514.60	47208.61
514.77	47363.08
514.95	47517.56
515.12	47161.79
515.29	47416.91
515.47	47824.17
515.64	48046.52
515.81	47552.66
515.99	48156.52
516.16	48016.09
516.33	48184.61
516.51	48336.74
516.68	48226.74
516.85	48156.52
517.03	48353.13
517.20	49132.53
517.37	48151.84
517.54	48633.99
517.72	48643.35
517.89	48821.23
518.06	48783.79
518.24	48999.12
518.41	48933.58
518.58	49202.74
518.75	49420.41
518.93	49263.60
519.10	49345.51
519.27	49642.76
519.45	49535.10
519.62	49734.04
519.79	49656.81
519.96	50021.93
520.14	49897.88
520.31	50185.77
520.48	50220.87
520.65	50157.68
520.83	50415.14
521.00	50218.53
521.17	50272.37
521.34	50412.80
521.52	50731.11
521.69	50387.05
521.86	50838.78
522.03	51126.66
522.20	51384.12
522.38	51222.62
522.55	51058.79
522.72	50824.73
522.89	51484.76
523.07	51370.08
523.24	51391.14
523.41	51650.94
523.58	51253.05
523.75	51849.89
523.92	51887.34
524.10	51791.37
524.27	51723.50
524.44	51566.68
524.61	51913.08
524.78	52083.94
524.96	51899.04
525.13	52172.88
525.30	52247.78
525.47	52299.27
525.64	52495.88
525.81	52568.43
525.98	52446.72
526.16	52547.37
526.33	52704.18
526.50	53059.94
526.67	52790.78
526.84	52645.67
527.01	52732.27
527.18	52589.50
527.36	52910.15
527.53	52886.74
527.70	53263.57
527.87	53162.93
528.04	53198.04
528.21	53317.40
528.38	53240.17
528.55	53359.53
528.72	53581.88
528.89	53123.14
529.07	53380.60
529.24	53212.08
529.41	53483.58
529.58	53521.03
529.75	53656.78
529.92	53420.39
530.09	53787.85
530.26	53766.79
530.43	53661.46
530.60	53773.81
530.77	53738.70
530.94	53881.47
531.11	53797.21
531.28	54010.20
531.46	54162.34
531.63	54106.16
531.80	54216.17
531.97	54342.56
532.14	54218.51
532.31	54197.44
532.48	54468.95
532.65	54651.51
532.82	54436.18
532.99	54756.83
533.16	54447.88
533.33	54614.06
533.50	54845.77
533.67	54653.85
533.84	54658.53
534.01	54681.94
534.18	54684.28
534.35	55243.66
534.52	54883.22
534.69	55103.23
534.86	55119.62
535.03	54770.88
535.20	54869.18
535.37	55133.66
535.54	55203.88
535.71	55299.84
535.88	55194.51
536.05	55393.46
536.22	55793.69
536.38	55435.59
536.55	55370.05
536.72	55529.21
536.89	55128.98
537.06	55428.57
537.23	55592.40
537.40	55487.08
537.57	55599.43
537.74	55655.60
537.91	55739.86
538.08	55833.48
538.25	55660.28
538.42	55781.99
538.59	55917.74
538.75	55833.48
538.92	56053.49
539.09	56203.28
539.26	56081.58
539.43	56151.79
539.60	56474.79
539.77	56259.46
539.94	56633.94
540.11	56189.24
540.28	56294.56
540.44	56264.14
540.61	56324.99
540.78	56130.73
540.95	56465.42
541.12	56303.93
541.29	56292.22
541.46	56280.52
541.62	56493.51
541.79	56512.23
541.96	56458.40
542.13	56851.61
542.30	56350.74
542.47	56701.82
542.63	56626.92
542.80	56802.46
542.97	57165.24
543.14	57181.63
543.31	57137.16
543.48	57396.96
543.64	57420.36
543.81	57310.36
543.98	57237.80
544.15	57139.50
544.32	57291.63
544.48	57251.84
544.65	57268.23
544.82	57284.61
544.99	57453.13
545.16	57537.39
545.32	57282.27
545.49	57656.76
545.66	57752.72
545.83	57570.16
546.00	57808.89
546.16	57425.04
546.33	57385.25
546.50	57364.19
546.67	57698.89
546.83	57415.68
547.00	57581.86
547.17	57733.99
547.34	57689.52
547.50	57836.98
547.67	57946.98
547.84	57785.49
548.00	57963.37
548.17	58141.25
548.34	58089.76
548.51	58092.10
548.67	58288.70
548.84	58335.51
549.01	58092.10
549.18	58071.03
549.34	58056.99
549.51	58227.85
549.68	58440.84
549.84	58209.12
550.01	58181.04
550.18	58218.49
550.34	58326.15
550.51	58248.91
550.68	58291.04
550.84	58082.73
551.01	58431.47
551.18	58316.79
551.34	58262.96
551.51	58443.18
551.68	58621.06
551.84	58644.46
552.01	58223.17
552.18	58581.27
552.34	58532.12
552.51	58592.97
552.68	58365.94
552.84	58588.29
553.01	58824.68
553.18	58588.29
553.34	58834.05
553.51	58553.18
553.67	58869.15
553.84	58749.79
554.01	58908.94
554.17	58777.87
554.34	58983.84
554.51	59032.99
554.67	58927.67
554.84	58871.49
555.00	58663.19
555.17	58859.79
555.33	59119.59
555.50	58812.98
555.67	58890.22
555.83	59016.61
556.00	59154.70
556.16	59309.18
556.33	59138.32
556.50	58955.75
556.66	59283.43
556.83	58934.69
556.99	59407.48
557.16	59463.65
557.32	59405.14
557.49	59470.67
557.65	59337.26
557.82	59231.94
557.98	59159.38
558.15	59173.42
558.32	59465.99
558.48	59206.19
558.65	59341.94
558.81	59604.08
558.98	59498.76
559.14	59571.32
559.31	59489.40
559.47	59650.89
559.64	59580.68
559.80	59536.21
559.97	59760.90
560.13	59444.93
560.30	59540.89
560.46	59678.98
560.63	59999.63
560.79	59615.79
560.96	59746.86
561.12	59770.26
561.29	59657.91
561.45	59943.46
561.61	59533.87
561.78	59817.07
561.94	59526.84
562.11	59894.31
562.27	59840.48
562.44	59957.50
562.60	59859.20
562.77	59798.35
562.93	59723.45
563.10	59992.61
563.26	59786.64
563.42	60175.17
563.59	59786.64
563.75	60013.68
563.92	59976.23
564.08	59969.21
564.24	60039.42
564.41	60006.65
564.57	60051.12
564.74	59861.54
564.90	59976.23
565.07	60083.89
565.23	59971.55
565.39	60013.68
565.56	60177.51
565.72	60111.98
565.88	60060.49
566.05	60030.06
566.21	59994.95
566.38	60278.16
566.54	60320.29
566.70	60179.85
566.87	60261.77
567.03	60320.29
567.19	60133.04
567.36	60285.18
567.52	60151.77
567.68	60341.35
567.85	60364.76
568.01	60331.99
568.17	60350.71
568.34	60449.02
568.50	60287.52
568.66	60182.19
568.83	60257.09
568.99	60378.80
569.15	60240.71
569.32	60261.77
569.48	60320.29
569.64	60413.91
569.81	60432.63
569.97	60343.69
570.13	60315.61
570.30	60198.58
570.46	60479.44
570.62	60589.45
570.78	60542.64
570.95	60427.95
571.11	60554.34
571.27	60336.67
571.43	60355.39
571.60	60519.23
571.76	60477.10
571.92	60467.74
572.09	60704.13
572.25	60505.19
572.41	60521.57
572.57	60477.10
572.74	60669.03
572.90	60528.59
573.06	60535.62
573.22	60650.30
573.38	60673.71
573.55	60420.93
573.71	60645.62
573.87	60748.60
574.03	60645.62
574.20	60420.93
574.36	60587.11
574.52	60704.13
574.68	60654.98
574.84	60739.24
575.01	60559.02
575.17	60645.62
575.33	60619.88
575.49	60540.30
575.65	60580.09
575.82	60825.84
575.98	60757.97
576.14	60996.70
576.30	60846.91
576.46	60746.26
576.62	60692.43
576.79	60589.45
576.95	60643.28
577.11	60612.85
577.27	60743.92
577.43	60823.50
577.59	60697.11
577.75	60570.72
577.92	60523.91
578.08	60603.49
578.24	60729.88
578.40	60823.50
578.56	60926.49
578.72	60683.07
578.88	60959.25
579.04	61080.96
579.21	60947.55
579.37	61176.92
579.53	60961.59
579.69	60530.93
579.85	60720.52
580.01	60617.53
580.17	60652.64
580.33	60853.93
580.49	60970.96
580.65	60917.12
580.82	60779.03
580.98	60500.51
581.14	60828.18
581.30	60914.78
581.46	60884.36
581.62	61055.21
581.78	60552.00
581.94	60893.72
582.10	60760.31
582.26	60837.54
582.42	60631.58
582.58	60828.18
582.74	60879.67
582.90	60800.10
583.06	60961.59
583.22	60757.97
583.38	60867.97
583.54	60760.31
583.70	60828.18
583.86	60992.02
584.02	60811.80
584.18	60985.00
584.34	60776.69
584.50	60975.64
584.66	60739.24
584.82	60757.97
584.98	60994.36
585.14	61066.92
585.30	60917.12
585.46	60945.21
585.62	60959.25
585.78	60928.83
585.94	60858.61
586.10	60886.70
586.26	60966.27
586.42	61116.07
586.58	60907.76
586.74	61109.05
586.90	60872.65
587.06	60966.27
587.22	61137.13
587.38	60945.21
587.54	61066.92
587.70	61024.79
587.86	60940.53
588.02	60860.95
588.18	61059.90
588.34	61066.92
588.49	60910.10
