SpectraSuite Data File
++++++++++++++++++++++++++++++++++++
Date: Fri Oct 25 11:34:48 EDT 2013
User: price-jones
Dark Spectrum Present: No
Reference Spectrum Present: No
Number of Sampled Component Spectra: 1
Spectrometers: USB2+H05261
Integration Time (usec): 100000 (USB2+H05261)
Spectra Averaged: 1 (USB2+H05261)
Boxcar Smoothing: 0 (USB2+H05261)
Correct for Electrical Dark: No (USB2+H05261)
Strobe/Lamp Enabled: No (USB2+H05261)
Correct for Detector Non-linearity: No (USB2+H05261)
Correct for Stray Light: No (USB2+H05261)
Number of Pixels in Processed Spectrum: 2048
>>>>>Begin Processed Spectral Data<<<<<
365.73	278.52
365.92	278.52
366.12	278.52
366.32	191.92
366.52	208.31
366.72	215.33
366.91	229.37
367.11	147.45
367.31	187.24
367.51	250.44
367.70	131.07
367.90	215.33
368.10	210.65
368.30	248.10
368.49	262.14
368.69	198.95
368.89	224.69
369.09	205.97
369.28	236.39
369.48	191.92
369.68	217.67
369.87	287.89
370.07	191.92
370.27	290.23
370.47	379.17
370.66	533.64
370.86	458.74
371.06	559.39
371.25	568.75
371.45	528.96
371.65	533.64
371.84	543.00
372.04	573.43
372.24	578.11
372.44	533.64
372.63	561.73
372.83	599.18
373.03	624.92
373.22	573.43
373.42	617.90
373.62	627.26
373.81	667.05
374.01	592.16
374.21	669.39
374.40	676.41
374.60	631.94
374.79	615.56
374.99	706.84
375.19	657.69
375.38	620.24
375.58	634.29
375.78	655.35
375.97	711.52
376.17	723.23
376.37	718.54
376.56	641.31
376.76	643.65
376.95	718.54
377.15	641.31
377.35	615.56
377.54	664.71
377.74	669.39
377.93	620.24
378.13	648.33
378.33	669.39
378.52	692.80
378.72	725.57
378.91	685.78
379.11	662.37
379.31	688.12
379.50	699.82
379.70	727.91
379.89	727.91
380.09	709.18
380.28	695.14
380.48	704.50
380.68	688.12
380.87	688.12
381.07	779.40
381.26	844.93
381.46	772.38
381.65	786.42
381.85	746.63
382.04	734.93
382.24	739.61
382.43	713.86
382.63	690.46
382.83	699.82
383.02	798.12
383.22	753.65
383.41	800.46
383.61	760.67
383.80	877.70
384.00	744.29
384.19	770.04
384.39	861.32
384.58	784.08
384.78	851.96
384.97	868.34
385.17	821.53
385.36	770.04
385.56	725.57
385.75	784.08
385.95	826.21
386.14	823.87
386.34	744.29
386.53	807.48
386.72	809.83
386.92	842.59
387.11	788.76
387.31	917.49
387.50	847.27
387.70	880.04
387.89	851.96
388.09	835.57
388.28	823.87
388.48	891.74
388.67	891.74
388.86	877.70
389.06	844.93
389.25	917.49
389.45	922.17
389.64	840.25
389.84	894.08
390.03	912.81
390.22	884.72
390.42	873.02
390.61	875.36
390.81	954.94
391.00	926.85
391.19	973.66
391.39	945.58
391.58	961.96
391.78	1034.52
391.97	915.15
392.16	1069.62
392.36	1069.62
392.55	1015.79
392.75	957.28
392.94	1013.45
393.13	1032.18
393.33	1111.75
393.52	1097.71
393.71	968.98
393.91	1069.62
394.10	1008.77
394.29	985.37
394.49	1041.54
394.68	1013.45
394.88	1086.01
395.07	1181.97
395.26	1109.41
395.46	1069.62
395.65	1128.14
395.84	1097.71
396.04	1114.10
396.23	1163.25
396.42	1041.54
396.62	1167.93
396.81	1135.16
397.00	1163.25
397.19	1198.35
397.39	1125.80
397.58	1231.12
397.77	1095.37
397.97	1282.61
398.16	1224.10
398.35	1184.31
398.55	1203.04
398.74	1207.72
398.93	1299.00
399.12	1277.93
399.32	1268.57
399.51	1247.51
399.70	1247.51
399.90	1235.80
400.09	1306.02
400.28	1294.32
400.47	1310.70
400.67	1385.60
400.86	1324.74
401.05	1324.74
401.24	1345.81
401.44	1444.11
401.63	1399.64
401.82	1437.09
402.01	1409.00
402.21	1425.39
402.40	1486.24
402.59	1390.28
402.78	1467.52
402.97	1479.22
403.17	1474.54
403.36	1439.43
403.55	1434.75
403.74	1451.13
403.93	1504.96
404.13	1577.52
404.32	1472.20
404.51	1533.05
404.70	1596.25
404.89	1582.20
405.09	1519.01
405.28	1643.06
405.47	1596.25
405.66	1617.31
405.85	1603.27
406.05	1643.06
406.24	1598.59
406.43	1640.72
406.62	1671.14
406.81	1701.57
407.00	1687.53
407.20	1703.91
407.39	1701.57
407.58	1734.34
407.77	1760.08
407.96	1809.23
408.15	1753.06
408.34	1764.76
408.54	1741.36
408.73	1837.32
408.92	1837.32
409.11	1804.55
409.30	1952.01
409.49	1891.15
409.68	1902.86
409.87	1933.28
410.07	1926.26
410.26	1926.26
410.45	1947.33
410.64	1926.26
410.83	1944.99
411.02	2071.37
411.21	2073.71
411.40	2031.58
411.59	2073.71
411.78	2047.97
411.98	2085.42
412.17	2045.63
412.36	2148.61
412.55	2160.31
412.74	2181.38
412.93	2200.10
413.12	2162.66
413.31	2310.11
413.50	2265.64
413.69	2195.42
413.88	2256.28
414.07	2370.96
414.26	2363.94
414.45	2377.98
414.64	2380.32
414.83	2431.82
415.02	2387.35
415.22	2607.36
415.41	2525.44
415.60	2466.92
415.79	2600.34
415.98	2569.91
416.17	2544.16
416.36	2567.57
416.55	2682.25
416.74	2686.94
416.93	2665.87
417.12	2682.25
417.31	2773.53
417.50	2677.57
417.69	2677.57
417.88	2757.15
418.07	2789.92
418.26	2813.32
418.45	2874.18
418.64	2839.07
418.83	2862.48
419.02	2897.58
419.21	2970.14
419.39	2979.50
419.58	2864.82
419.77	2825.03
419.96	3061.42
420.15	3061.42
420.34	3023.97
420.53	3038.02
420.72	3117.59
420.91	2988.86
421.10	3080.14
421.29	3094.19
421.48	3119.93
421.67	3075.46
421.86	3162.06
422.05	3178.45
422.24	3243.98
422.43	3103.55
422.61	3124.62
422.80	3194.83
422.99	3192.49
423.18	3236.96
423.37	3227.60
423.56	3243.98
423.75	3148.02
423.94	3141.00
424.13	3012.27
424.32	3218.24
424.50	3243.98
424.69	3339.94
424.88	3262.71
425.07	3145.68
425.26	3148.02
425.45	3309.52
425.64	3262.71
425.83	3232.28
426.01	3433.57
426.20	3124.62
426.39	3304.84
426.58	3351.65
426.77	3241.64
426.96	3382.07
427.15	3304.84
427.33	3328.24
427.52	3421.86
427.71	3508.46
427.90	3307.18
428.09	3468.67
428.28	3564.64
428.46	3389.10
428.65	3545.91
428.84	3463.99
429.03	3632.51
429.22	3482.72
429.40	3599.74
429.59	3609.11
429.78	3407.82
429.97	3492.08
430.16	3485.06
430.34	3681.66
430.53	3681.66
430.72	3693.37
430.91	3714.43
431.10	3660.60
431.28	3557.61
431.47	3765.92
431.66	3826.78
431.85	3700.39
432.03	3775.28
432.22	3803.37
432.41	3775.28
432.60	3817.41
432.79	3946.14
432.97	3829.12
433.16	3875.93
433.35	3854.86
433.54	3925.08
433.72	3983.59
433.91	3967.21
434.10	3946.14
434.28	3999.98
434.47	4046.79
434.66	3941.46
434.85	3868.91
435.03	3976.57
435.22	4046.79
435.41	4196.58
435.59	4070.19
435.78	4198.92
435.97	4219.99
436.16	4198.92
436.34	4117.00
436.53	4257.43
436.72	4189.56
436.90	4224.67
437.09	4353.40
437.28	4367.44
437.46	4299.56
437.65	4435.32
437.84	4360.42
438.02	4379.14
438.21	4383.82
438.40	4222.33
438.58	4449.36
438.77	4587.45
438.96	4320.63
439.14	4489.15
439.33	4526.60
439.52	4702.14
439.70	4561.70
439.89	4610.86
440.08	4718.52
440.26	4697.46
440.45	4599.15
440.63	4655.33
440.82	4950.23
441.01	4856.61
441.19	4887.04
441.38	4950.23
441.57	4985.34
441.75	4980.66
441.94	5097.69
442.12	5097.69
442.31	5095.35
442.50	5160.88
442.68	5102.37
442.87	5205.35
443.05	5235.78
443.24	5373.87
443.43	5214.71
443.61	5142.16
443.80	5554.09
443.98	5181.95
444.17	4973.64
444.35	5275.57
444.54	5364.51
444.73	5343.44
444.91	5254.50
445.10	5338.76
445.28	5303.65
445.47	5280.25
445.65	5277.91
445.84	5423.02
446.02	5401.96
446.21	5373.87
446.39	5348.12
446.58	5441.75
446.77	5329.40
446.95	5411.32
447.14	5308.34
447.32	5430.04
447.51	5315.36
447.69	5504.94
447.88	5488.56
448.06	5458.13
448.25	5540.05
448.43	5516.64
448.62	5392.59
448.80	5476.85
448.99	5692.18
449.17	5671.12
449.36	5497.92
449.54	5605.58
449.73	5685.16
449.91	5881.77
450.10	5650.05
450.28	5792.83
450.46	5809.21
450.65	5790.49
450.83	5872.40
451.02	5849.00
451.20	6052.63
451.39	5933.26
451.57	5856.02
451.76	5792.83
451.94	5914.53
452.13	5827.93
452.31	6017.52
452.49	5856.02
452.68	5949.64
452.86	5956.66
453.05	6132.20
453.23	6050.28
453.42	5933.26
453.60	6015.18
453.78	6207.10
453.97	5949.64
454.15	6076.03
454.34	5961.34
454.52	6258.59
454.70	6171.99
454.89	6291.36
455.07	6272.64
455.26	6190.72
455.44	6417.75
455.62	6249.23
455.81	6272.64
455.99	6303.06
456.17	6312.42
456.36	6462.22
456.54	6370.94
456.73	6443.49
456.91	6602.65
457.09	6640.10
457.28	6808.62
457.46	6513.71
457.64	6832.02
457.83	6773.51
458.01	6670.53
458.19	6705.63
458.38	6614.35
458.56	6799.26
458.74	6803.94
458.93	6633.08
459.11	6640.10
459.29	6808.62
459.48	6998.20
459.66	6927.99
459.84	6965.43
460.03	6993.52
460.21	7045.01
460.39	6895.22
460.57	7124.59
460.76	6935.01
460.94	7075.44
461.12	7250.98
461.31	7059.06
461.49	7126.93
461.67	6979.48
461.85	7330.56
462.04	7096.50
462.22	7229.91
462.40	7344.60
462.59	7447.58
462.77	7119.91
462.95	7250.98
463.13	7398.43
463.32	7293.11
463.50	7405.46
463.68	7431.20
463.86	7536.52
464.05	7339.92
464.23	7480.35
464.41	7588.02
464.59	7344.60
464.78	7531.84
464.96	7679.30
465.14	7531.84
465.32	7496.74
465.50	7562.27
465.69	7653.55
465.87	7632.49
466.05	7513.12
466.23	7740.15
466.41	7581.00
466.60	7583.34
466.78	7789.30
466.96	7754.19
467.14	7765.90
467.32	7758.88
467.51	7880.58
467.69	7756.54
467.87	7763.56
468.05	7836.11
468.23	7845.48
468.41	7840.79
468.60	7875.90
468.78	7939.10
468.96	7960.16
469.14	8208.26
469.32	8131.02
469.50	8107.62
469.69	8250.39
469.87	8297.20
470.05	8215.28
470.23	8482.10
470.41	8266.77
470.59	8381.46
470.77	8465.72
470.95	8369.76
471.14	8564.02
471.32	8369.76
471.50	8531.25
471.68	8594.45
471.86	8596.79
472.04	8685.73
472.22	8805.10
472.40	8575.72
472.58	8816.80
472.77	8854.25
472.95	8898.72
473.13	9057.87
473.31	8884.67
473.49	8868.29
473.67	8978.30
473.85	8990.00
474.03	9195.96
474.21	9252.14
474.39	9217.03
474.57	9296.61
474.75	9603.22
474.93	9324.69
475.12	9385.55
475.30	9357.46
475.48	9441.72
475.66	9610.24
475.84	9558.75
476.02	9568.11
476.20	9451.08
476.38	9720.24
476.56	9928.55
476.74	9696.84
476.92	9874.72
477.10	9748.33
477.28	9944.94
477.46	9930.89
477.64	10036.22
477.82	10324.10
478.00	10504.32
478.18	10576.88
478.36	10518.37
478.54	10693.91
478.72	10834.34
478.90	10602.63
479.08	10841.36
479.26	11204.14
479.44	11098.82
479.62	11197.12
479.80	11126.91
479.98	11314.15
480.16	11435.86
480.34	11400.75
480.52	11571.61
480.70	11452.24
480.88	11274.36
481.06	11587.99
481.24	11658.21
481.41	11749.49
481.59	11983.54
481.77	12196.53
481.95	12016.31
482.13	12365.05
482.31	12046.74
482.49	12510.16
482.67	12547.61
482.85	12606.13
483.03	12678.68
483.21	12659.96
483.39	13107.00
483.57	12957.21
483.74	12973.59
483.92	13139.77
484.10	13146.79
484.28	13635.96
484.46	13624.26
484.64	13872.36
484.82	13497.87
485.00	13638.30
485.18	14080.66
485.35	14022.15
485.53	14326.42
485.71	14340.46
485.89	14457.49
486.07	14712.61
486.25	14438.76
486.43	14651.75
486.61	14574.52
486.78	14855.38
486.96	14799.21
487.14	14836.66
487.32	15180.71
487.50	15353.91
487.68	15400.72
487.85	15587.97
488.03	15552.86
488.21	15967.13
488.39	16039.69
488.57	16147.36
488.75	16044.37
488.92	16313.53
489.10	16599.08
489.28	16416.52
489.46	16533.54
489.64	16720.79
489.81	16933.78
489.99	16959.52
490.17	16931.44
490.35	17322.30
490.53	17525.93
490.70	17462.74
490.88	17577.42
491.06	17521.25
491.24	17568.06
491.41	17972.97
491.59	18054.89
491.77	17970.63
491.95	18277.24
492.13	18354.48
492.30	18455.12
492.48	18647.05
492.66	18670.45
492.84	18719.60
493.01	18878.76
493.19	19005.15
493.37	18909.19
493.54	18939.62
493.72	19218.14
493.90	19421.77
494.08	19686.25
494.25	19690.93
494.43	19744.76
494.61	20170.74
494.79	19915.62
494.96	19936.68
495.14	20053.71
495.32	20056.05
495.49	20276.06
495.67	20428.20
495.85	20863.54
496.02	21050.78
496.20	21198.23
496.38	20720.76
496.55	21245.04
496.73	21528.25
496.91	21001.63
497.09	21326.96
497.26	21769.32
497.44	21146.74
497.62	21668.68
497.79	22092.32
497.97	22054.87
498.14	22232.75
498.32	21972.95
498.50	22396.59
498.67	22239.77
498.85	22396.59
499.03	22501.91
499.20	22618.94
499.38	22640.00
499.56	22909.16
499.73	22953.63
499.91	23117.47
500.08	23510.68
500.26	22881.08
500.44	23178.33
500.61	23428.76
500.79	23192.37
500.97	23566.85
501.14	23967.09
501.32	23651.11
501.49	23566.85
501.67	23737.71
501.84	23854.74
502.02	23866.44
502.20	23896.87
502.37	24297.10
502.55	23969.43
502.72	24287.74
502.90	24645.84
503.07	24341.57
503.25	24725.42
503.43	24716.06
503.60	24842.45
503.78	24954.79
503.95	24680.95
504.13	24716.06
504.30	25097.56
504.48	25387.79
504.65	25207.57
504.83	25394.81
505.01	25687.38
505.18	25523.54
505.36	25827.81
505.53	25497.80
505.71	25991.65
505.88	25490.77
506.06	25766.96
506.23	25930.80
506.41	25846.54
506.58	26228.04
506.76	25867.60
506.93	26162.51
507.11	26352.09
507.28	26728.92
507.46	26625.93
507.63	26803.82
507.81	26679.77
507.98	26586.15
508.16	26574.44
508.33	26993.40
508.50	27178.30
508.68	26941.91
508.85	27241.50
509.03	27138.51
509.20	27080.00
509.38	27695.56
509.55	27379.59
509.73	27454.48
509.90	27438.10
510.08	27639.39
510.25	27552.79
510.42	27709.60
510.60	27803.22
510.77	28173.03
510.95	28180.05
511.12	28046.64
511.30	27976.42
511.47	28381.34
511.64	28411.76
511.82	28376.66
511.99	28790.93
512.17	28645.82
512.34	28514.75
512.51	28992.22
512.69	28877.53
512.86	28797.95
513.04	29343.30
513.21	28910.30
513.38	29270.74
513.56	29282.44
513.73	29277.76
513.90	29282.44
514.08	29397.13
514.25	29308.19
514.43	29525.86
514.60	29738.85
514.77	29511.81
514.95	29806.72
515.12	29462.66
515.29	29834.81
515.47	30103.97
515.64	29876.94
515.81	29930.77
515.99	30218.66
516.16	30562.72
516.33	30403.56
516.51	30637.61
516.68	30267.81
516.85	30562.72
517.03	30490.16
517.20	30773.36
517.37	30307.60
517.54	30508.88
517.72	30913.80
517.89	30850.60
518.06	30637.61
518.24	30752.30
518.41	30827.20
518.58	31087.00
518.75	31042.53
518.93	31098.70
519.10	31250.83
519.27	31529.36
519.45	31250.83
519.62	31742.35
519.79	31632.34
519.96	31360.84
520.14	31971.72
520.31	31496.59
520.48	31967.04
520.65	31796.18
520.83	32364.93
521.00	32449.19
521.17	32533.45
521.34	32615.37
521.52	32432.80
521.69	32416.42
521.86	32577.92
522.03	32266.63
522.20	32627.07
522.38	33046.02
522.55	33036.66
522.72	32591.96
522.89	33041.34
523.07	33254.33
523.24	32849.42
523.41	32936.02
523.58	33411.15
523.75	33139.65
523.92	33207.52
524.10	33064.75
524.27	33127.94
524.44	33132.62
524.61	33624.14
524.78	33668.61
524.96	33771.59
525.13	33809.04
525.30	33804.36
525.47	33895.64
525.64	33813.72
525.81	34272.46
525.98	34171.82
526.16	34281.83
526.33	33855.85
526.50	34312.25
526.67	33993.94
526.84	33792.65
527.01	34038.41
527.18	34663.33
527.36	34553.33
527.53	34452.69
527.70	34831.85
527.87	35477.84
528.04	34698.44
528.21	34932.50
528.38	34710.14
528.55	34773.34
528.72	34710.14
528.89	35318.68
529.07	34909.09
529.24	34719.51
529.41	35126.76
529.58	35234.42
529.75	35079.95
529.92	35129.10
530.09	35255.49
530.26	35318.68
530.43	35838.28
530.60	35391.24
530.77	35674.45
530.94	35927.22
531.11	35772.75
531.28	35484.86
531.46	35828.92
531.63	35847.64
531.80	35566.78
531.97	36147.23
532.14	36477.25
532.31	36004.46
532.48	35847.64
532.65	36236.17
532.82	36215.11
532.99	36065.31
533.16	36189.36
533.33	36921.95
533.50	36259.58
533.67	36315.75
533.84	36790.88
534.01	36264.26
534.18	36243.20
534.35	37106.85
534.52	36521.72
534.69	36683.22
534.86	36907.91
535.03	36428.10
535.20	37109.19
535.37	36928.97
535.54	37048.34
535.71	37212.18
535.88	37193.45
536.05	37312.82
536.22	37425.17
536.38	37411.12
536.55	37317.50
536.72	37083.45
536.89	37130.26
537.06	37347.93
537.23	37589.00
537.40	37254.31
537.57	37411.12
537.74	37497.72
537.91	37523.47
538.08	37752.84
538.25	37233.24
538.42	37694.33
538.59	38410.53
538.75	37921.36
538.92	38342.66
539.09	38260.74
539.26	37855.82
539.43	37916.68
539.60	38260.74
539.77	37773.91
539.94	38660.97
540.11	38522.88
540.28	38361.38
540.44	38754.59
540.61	38167.12
540.78	38412.87
540.95	38394.15
541.12	38412.87
541.29	38169.46
541.46	38609.48
541.62	39021.41
541.79	38972.26
541.96	38141.37
542.13	38541.60
542.30	38986.30
542.47	38883.32
542.63	39232.06
542.80	39140.78
542.97	39313.98
543.14	39402.92
543.31	38951.20
543.48	38960.56
543.64	39524.63
543.81	39276.53
543.98	39225.04
544.15	39283.55
544.32	39786.77
544.48	40048.91
544.65	39395.90
544.82	39742.30
544.99	39835.92
545.16	40011.46
545.32	39931.88
545.49	40023.16
545.66	39997.41
545.83	39840.60
546.00	40392.97
546.16	39866.34
546.33	39798.47
546.50	39920.18
546.67	40463.18
546.83	39718.89
547.00	39786.77
547.17	40172.96
547.34	39971.67
547.50	40797.88
547.67	40563.82
547.84	39997.41
548.00	40596.59
548.17	40601.27
548.34	40671.49
548.51	40517.01
548.67	40591.91
548.84	40573.19
549.01	40683.19
549.18	40458.50
549.34	40982.78
549.51	40811.92
549.68	40814.26
549.84	40760.43
550.01	40821.28
550.18	40636.38
550.34	40856.39
550.51	40870.43
550.68	41242.58
550.84	40428.07
551.01	41193.43
551.18	41261.30
551.34	40928.95
551.51	41273.01
551.68	41228.54
551.84	41446.21
552.01	41280.03
552.18	41373.65
552.34	41146.62
552.51	41289.39
552.68	41415.78
552.84	41926.02
553.01	41724.73
553.18	41242.58
553.34	41797.29
553.51	41305.77
553.67	41839.42
553.84	41586.64
554.01	41818.35
554.17	41818.35
554.34	41951.76
554.51	41537.49
554.67	42071.13
554.84	41563.23
555.00	41801.97
555.17	41689.62
555.33	42440.93
555.50	42199.86
555.67	41724.73
555.83	41916.65
556.00	42171.77
556.16	42553.28
556.33	42230.29
556.50	42513.49
556.66	41968.15
556.83	41940.06
556.99	42368.38
557.16	42768.61
557.32	42457.32
557.49	42674.99
557.65	42178.79
557.82	42368.38
557.98	42520.51
558.15	42274.76
558.32	42431.57
558.48	42429.23
558.65	42665.63
558.81	42216.24
558.98	42607.11
559.14	42593.07
559.31	42649.24
559.47	42986.28
559.64	43005.00
559.80	42426.89
559.97	43140.75
560.13	42660.94
560.30	42698.39
560.46	42962.87
560.63	42677.33
560.79	43112.67
560.96	43182.88
561.12	43070.54
561.29	43330.34
561.45	42923.08
561.61	42906.70
561.78	42880.95
561.94	42857.55
562.11	42979.26
562.27	43213.31
562.44	42710.10
562.60	43409.92
562.77	43318.64
562.93	42876.27
563.10	43438.00
563.26	43061.18
563.42	43674.40
563.59	42890.32
563.75	42967.55
563.92	43318.64
564.08	43051.81
564.24	43714.19
564.41	43271.82
564.57	43246.08
564.74	43538.65
564.90	43145.44
565.07	43379.49
565.23	43438.00
565.39	43393.53
565.56	43452.05
565.72	43323.32
565.88	43571.41
566.05	43576.09
566.21	43526.94
566.38	43641.63
566.54	43440.34
566.70	43723.55
566.87	43487.15
567.03	44224.42
567.19	43608.86
567.36	43421.62
567.52	43421.62
567.68	44013.77
567.85	44240.81
568.01	43966.96
568.17	43445.02
568.34	44018.46
568.50	43765.68
568.66	43604.18
568.83	43906.11
568.99	43938.88
569.15	43805.47
569.32	43484.81
569.48	43489.49
569.64	43913.13
569.81	44069.95
569.97	43903.77
570.13	43571.41
570.30	43374.81
570.46	44121.44
570.62	43936.54
570.78	43906.11
570.95	43913.13
571.11	43948.24
571.27	44114.42
571.43	43901.43
571.60	43995.05
571.76	43948.24
571.92	44289.96
572.09	43728.23
572.25	44151.87
572.41	43899.09
572.57	44245.49
572.74	44444.43
572.90	43835.89
573.06	44355.49
573.22	43826.53
573.38	44219.74
573.55	44247.83
573.71	44758.06
573.87	44474.86
574.03	44095.69
574.20	44179.95
574.36	44245.49
574.52	44261.87
574.68	44626.99
574.84	44257.19
575.01	44540.39
575.17	44315.70
575.33	44318.04
575.49	44226.76
575.65	44315.70
575.82	44378.90
575.98	44144.84
576.14	44367.20
576.30	44498.26
576.46	44692.53
576.62	44332.09
576.79	44177.61
576.95	43988.03
577.11	44289.96
577.27	44671.46
577.43	44362.51
577.59	43599.50
577.75	44463.16
577.92	44074.63
578.08	44322.72
578.24	44753.38
578.40	44767.43
578.56	44467.84
578.72	44575.50
578.88	44711.25
579.04	44458.48
579.21	44430.39
579.37	44444.43
579.53	44669.12
579.69	44116.76
579.85	44392.94
580.01	44720.62
580.17	44498.26
580.33	44318.04
580.49	44549.76
580.65	44610.61
580.82	43990.37
580.98	44444.43
581.14	44226.76
581.30	44563.80
581.46	44252.51
581.62	44390.60
581.78	44259.53
581.94	44596.57
582.10	44540.39
582.26	44992.12
582.42	44732.32
582.58	44091.01
582.74	44919.56
582.90	44294.64
583.06	44788.49
583.22	44624.65
583.38	44875.09
583.54	44575.50
583.70	44626.99
583.86	44641.04
584.02	44563.80
584.18	45134.89
584.34	44301.66
584.50	45088.08
584.66	45265.96
584.82	44896.16
584.98	44744.02
585.14	45102.12
585.30	44676.15
585.46	44554.44
585.62	44601.25
585.78	45036.59
585.94	44418.69
586.10	44287.62
586.26	44121.44
586.42	44584.86
586.58	44839.98
586.74	44683.17
586.90	44751.04
587.06	44938.29
587.22	44760.40
587.38	44985.10
587.54	45083.40
587.70	45198.09
587.86	44800.19
588.02	44467.84
588.18	44769.77
588.34	45177.02
588.49	44823.60
588.65	44650.40
588.81	44739.34
588.97	44952.33
589.13	44701.89
589.29	44584.86
589.45	45130.21
589.61	44577.84
589.77	45165.32
589.93	44804.88
590.08	45174.68
590.24	45024.89
