SpectraSuite Data File
++++++++++++++++++++++++++++++++++++
Date: Fri Oct 25 11:22:27 EDT 2013
User: price-jones
Dark Spectrum Present: No
Reference Spectrum Present: No
Number of Sampled Component Spectra: 1
Spectrometers: USB2+H05261
Integration Time (usec): 100000 (USB2+H05261)
Spectra Averaged: 1 (USB2+H05261)
Boxcar Smoothing: 0 (USB2+H05261)
Correct for Electrical Dark: No (USB2+H05261)
Strobe/Lamp Enabled: No (USB2+H05261)
Correct for Detector Non-linearity: No (USB2+H05261)
Correct for Stray Light: No (USB2+H05261)
Number of Pixels in Processed Spectrum: 2048
>>>>>Begin Processed Spectral Data<<<<<
365.73	245.76
365.92	245.76
366.12	245.76
366.32	149.79
366.52	70.22
366.72	98.30
366.91	121.71
367.11	140.43
367.31	60.85
367.51	196.60
367.70	95.96
367.90	102.98
368.10	147.45
368.30	156.82
368.49	91.28
368.69	119.37
368.89	177.88
369.09	217.67
369.28	142.77
369.48	168.52
369.68	175.54
369.87	177.88
370.07	173.20
370.27	259.80
370.47	325.33
370.66	554.71
370.86	594.50
371.06	582.79
371.25	690.46
371.45	685.78
371.65	751.31
371.84	655.35
372.04	636.63
372.24	725.57
372.44	685.78
372.63	819.19
372.83	772.38
373.03	737.27
373.22	755.99
373.42	791.10
373.62	720.88
373.81	777.06
374.01	844.93
374.21	784.08
374.40	718.54
374.60	866.00
374.79	891.74
374.99	774.72
375.19	849.61
375.38	875.36
375.58	802.80
375.78	856.64
375.97	936.21
376.17	997.07
376.37	861.32
376.56	849.61
376.76	826.21
376.95	868.34
377.15	868.34
377.35	873.02
377.54	931.53
377.74	866.00
377.93	922.17
378.13	947.92
378.33	929.19
378.52	950.26
378.72	931.53
378.91	1008.77
379.11	898.77
379.31	940.90
379.50	903.45
379.70	938.55
379.89	997.07
380.09	940.90
380.28	980.68
380.48	919.83
380.68	1027.50
380.87	952.60
381.07	952.60
381.26	1053.24
381.46	1006.43
381.65	1020.47
381.85	976.00
382.04	1027.50
382.24	1013.45
382.43	1041.54
382.63	1123.46
382.83	1060.26
383.02	1043.88
383.22	1142.18
383.41	1062.60
383.61	1130.48
383.80	1177.29
384.00	1055.58
384.19	1062.60
384.39	1109.41
384.58	1142.18
384.78	1064.94
384.97	1156.22
385.17	1130.48
385.36	1158.57
385.56	1210.06
385.75	1062.60
385.95	1167.93
386.14	1153.88
386.34	1247.51
386.53	1191.33
386.72	1238.14
386.92	1273.25
387.11	1231.12
387.31	1261.55
387.50	1219.42
387.70	1263.89
387.89	1270.91
388.09	1266.23
388.28	1186.65
388.48	1263.89
388.67	1310.70
388.86	1313.04
389.06	1303.68
389.25	1350.49
389.45	1362.19
389.64	1362.19
389.84	1434.75
390.03	1355.17
390.22	1390.28
390.42	1413.68
390.61	1373.89
390.81	1378.58
391.00	1416.02
391.19	1514.33
391.39	1493.26
391.58	1495.60
391.78	1437.09
391.97	1432.41
392.16	1455.81
392.36	1479.22
392.55	1544.75
392.75	1519.01
392.94	1434.75
393.13	1577.52
393.33	1458.15
393.52	1561.14
393.71	1542.41
393.91	1565.82
394.10	1692.21
394.29	1696.89
394.49	1626.67
394.68	1621.99
394.88	1661.78
395.07	1561.14
395.26	1605.61
395.46	1645.40
395.65	1680.50
395.84	1668.80
396.04	1858.39
396.23	1764.76
396.42	1720.29
396.62	1755.40
396.81	1734.34
397.00	1703.91
397.19	1809.23
397.39	1930.94
397.58	1891.15
397.77	1825.62
397.97	1895.83
398.16	1860.73
398.35	1989.46
398.55	1923.92
398.74	1933.28
398.93	1944.99
399.12	1944.99
399.32	1909.88
399.51	1853.70
399.70	2069.03
399.90	2052.65
400.09	2115.84
400.28	2008.18
400.47	2099.46
400.67	2108.82
400.86	1947.33
401.05	2047.97
401.24	2122.87
401.44	2120.53
401.63	2237.55
401.82	2087.76
402.01	2153.29
402.21	2167.34
402.40	2155.63
402.59	2193.08
402.78	2251.60
402.97	2242.23
403.17	2326.49
403.36	2284.36
403.55	2312.45
403.74	2321.81
403.93	2359.26
404.13	2342.88
404.32	2310.11
404.51	2434.16
404.70	2436.50
404.89	2408.41
405.09	2476.29
405.28	2551.18
405.47	2579.27
405.66	2572.25
405.85	2663.53
406.05	2633.10
406.24	2590.97
406.43	2590.97
406.62	2478.63
406.81	2612.04
407.00	2544.16
407.20	2682.25
407.39	2609.70
407.58	2726.72
407.77	2794.60
407.96	2841.41
408.15	2633.10
408.34	2649.49
408.54	2775.88
408.73	2906.95
408.92	2857.79
409.11	2991.20
409.30	2906.95
409.49	2778.22
409.68	3005.25
409.87	2944.39
410.07	3000.57
410.26	3101.21
410.45	3136.32
410.64	3047.38
410.83	3108.23
411.02	3026.31
411.21	3215.90
411.40	3218.24
411.59	3197.17
411.78	3157.38
411.98	3286.11
412.17	3339.94
412.36	3393.78
412.55	3286.11
412.74	3398.46
412.93	3410.16
413.12	3375.05
413.31	3625.49
413.50	3534.21
413.69	3506.12
413.88	3660.60
414.07	3522.51
414.26	3831.46
414.45	3550.59
414.64	3625.49
414.83	3838.48
415.02	3857.20
415.22	3749.54
415.41	4023.38
415.60	3868.91
415.79	3904.01
415.98	3882.95
416.17	3995.29
416.36	4109.98
416.55	4119.34
416.74	4159.13
416.93	4219.99
417.12	4133.39
417.31	4166.15
417.50	4215.30
417.69	4318.29
417.88	4308.93
418.07	4278.50
418.26	4341.69
418.45	4493.83
418.64	4578.09
418.83	4444.68
419.02	4528.94
419.21	4465.74
419.39	4573.41
419.58	4575.75
419.77	4449.36
419.96	4606.17
420.15	4610.86
420.34	4662.35
420.53	4711.50
420.72	4802.78
420.91	4772.35
421.10	4863.63
421.29	4854.27
421.48	4685.75
421.67	4849.59
421.86	4781.71
422.05	4898.74
422.24	4669.37
422.43	4819.16
422.61	4858.95
422.80	4952.57
422.99	5078.96
423.18	5036.83
423.37	5146.84
423.56	4961.94
423.75	4975.98
423.94	4844.91
424.13	4587.45
424.32	4863.63
424.50	5100.03
424.69	5102.37
424.88	5085.98
425.07	4858.95
425.26	5008.75
425.45	4936.19
425.64	4968.96
425.83	5083.64
426.01	5160.88
426.20	5093.01
426.39	5020.45
426.58	4987.68
426.77	5053.22
426.96	5165.56
427.15	5156.20
427.33	5151.52
427.52	5228.76
427.71	5355.15
427.90	5289.61
428.09	5441.75
428.28	5537.71
428.46	5416.00
428.65	5336.42
428.84	5568.13
429.03	5628.99
429.22	5469.83
429.40	5502.60
429.59	5420.68
429.78	5486.22
429.97	5416.00
430.16	5675.80
430.34	5657.07
430.53	5750.70
430.72	5694.52
430.91	5605.58
431.10	5750.70
431.28	5893.47
431.47	5736.65
431.66	5816.23
431.85	5860.70
432.03	5898.15
432.22	5928.58
432.41	6061.99
432.60	5877.09
432.79	5980.07
432.97	6260.93
433.16	6094.76
433.35	6061.99
433.54	6153.27
433.72	6207.10
433.91	6195.40
434.10	6197.74
434.28	6064.33
434.47	6211.78
434.66	6307.74
434.85	6459.88
435.03	6392.00
435.22	6349.87
435.41	6567.54
435.59	6427.11
435.78	6455.20
435.97	6647.12
436.16	6649.46
436.34	6380.30
436.53	6551.16
436.72	6750.10
436.90	6565.20
437.09	6621.38
437.28	6621.38
437.46	6628.40
437.65	6736.06
437.84	6939.69
438.02	7077.78
438.21	7042.67
438.40	6829.68
438.58	6995.86
438.77	7054.37
438.96	7096.50
439.14	7138.63
439.33	7239.28
439.52	7110.55
439.70	7421.84
439.89	7466.31
440.08	7375.03
440.26	7356.30
440.45	7496.74
440.63	7564.61
440.82	7676.96
441.01	7555.25
441.19	7611.42
441.38	7768.24
441.57	7632.49
441.75	7885.26
441.94	8046.76
442.12	8063.15
442.31	8098.25
442.50	8039.74
442.68	7978.89
442.87	7971.86
443.05	8409.54
443.24	8264.43
443.43	8395.50
443.61	8383.80
443.80	8505.51
443.98	8128.68
444.17	8044.42
444.35	8252.73
444.54	8299.54
444.73	8634.24
444.91	8278.47
445.10	8489.12
445.28	8521.89
445.47	8461.04
445.65	8325.29
445.84	8528.91
446.02	8540.61
446.21	8414.23
446.39	8503.17
446.58	8505.51
446.77	8610.83
446.95	8280.82
447.14	8432.95
447.32	8830.84
447.51	8589.77
447.69	8641.26
447.88	8542.96
448.06	8594.45
448.25	8521.89
448.43	8748.92
448.62	8648.28
448.80	8652.96
448.99	8662.32
449.17	8772.33
449.36	8835.52
449.54	8997.02
449.73	8982.98
449.91	9217.03
450.10	9212.35
450.28	9195.96
450.46	9116.39
450.65	8957.23
450.83	9104.68
451.02	9004.04
451.20	9198.31
451.39	9320.01
451.57	9212.35
451.76	9139.79
451.94	9380.87
452.13	9568.11
452.31	9289.59
452.49	9226.39
452.68	9600.88
452.86	9631.30
453.05	9504.92
453.23	9565.77
453.42	9514.28
453.60	9413.63
453.78	9699.18
453.97	9551.73
454.15	9430.02
454.34	9617.26
454.52	9755.35
454.70	9750.67
454.89	9776.42
455.07	9706.20
455.26	9884.08
455.44	10099.41
455.62	10057.28
455.81	10064.30
455.99	10090.05
456.17	10012.81
456.36	10136.86
456.54	10113.45
456.73	10452.83
456.91	10494.96
457.09	10450.49
457.28	10813.28
457.46	10422.41
457.64	10513.69
457.83	10499.64
458.01	10560.50
458.19	10668.16
458.38	10794.55
458.56	10864.77
458.74	10892.85
458.93	10719.65
459.11	10911.58
459.29	10729.02
459.48	10963.07
459.66	10834.34
459.84	10977.11
460.03	11239.25
460.21	11082.44
460.39	11171.38
460.57	11040.31
460.76	11152.65
460.94	11522.46
461.12	11173.72
461.31	11059.03
461.49	11265.00
461.67	11204.14
461.85	11534.16
462.04	11520.12
462.22	11501.39
462.40	11569.27
462.59	11625.44
462.77	11653.53
462.95	11838.43
463.13	11747.15
463.32	11976.52
463.50	11875.88
463.68	11590.33
463.86	11978.86
464.05	11765.87
464.23	11700.34
464.41	12182.49
464.59	11950.78
464.78	12163.76
464.96	12381.43
465.14	12081.85
465.32	12308.88
465.50	12339.30
465.69	12362.71
465.87	12327.60
466.05	12030.35
466.23	12259.73
466.41	12280.79
466.60	12442.29
466.78	12102.91
466.96	12498.46
467.14	12444.63
467.32	12491.44
467.51	12561.66
467.69	12353.35
467.87	12468.03
468.05	12910.40
468.23	12514.84
468.41	12461.01
468.60	12699.75
468.78	12987.63
468.96	12592.08
469.14	13015.72
469.32	13142.11
469.50	12741.88
469.69	13308.29
469.87	13228.71
470.05	13249.77
470.23	13158.49
470.41	13057.85
470.59	13270.84
470.77	13446.38
470.95	13603.19
471.14	13731.92
471.32	13266.16
471.50	13689.79
471.68	13949.59
471.86	13891.08
472.04	13926.19
472.22	14366.21
472.40	14052.58
472.58	14244.50
472.77	14160.24
472.95	14256.20
473.13	14654.09
473.31	14225.78
473.49	14097.05
473.67	14267.91
473.85	14530.05
474.03	14663.46
474.21	14846.02
474.39	14892.83
474.57	14871.76
474.75	15133.90
474.93	14850.70
475.12	15112.84
475.30	15358.60
475.48	15508.39
475.66	15594.99
475.84	15173.69
476.02	15407.75
476.20	15400.72
476.38	15765.85
476.56	16130.97
476.74	16077.14
476.92	16137.99
477.10	16135.65
477.28	16259.70
477.46	16521.84
477.64	16641.21
477.82	16816.75
478.00	17205.28
478.18	16844.84
478.36	17195.92
478.54	17420.61
478.72	17282.52
478.90	17568.06
479.08	17495.50
479.26	17987.02
479.44	18111.07
479.62	18139.15
479.80	17984.68
479.98	18321.71
480.16	18752.37
480.34	18551.09
480.52	18689.18
480.70	18752.37
480.88	18775.78
481.06	18913.87
481.24	19030.90
481.41	19372.61
481.59	19744.76
481.77	19669.86
481.95	19742.42
482.13	20074.77
482.31	20128.61
482.49	20355.64
482.67	20744.17
482.85	20711.40
483.03	20608.42
483.21	20961.84
483.39	20992.26
483.57	21167.80
483.74	21282.49
483.92	21504.84
484.10	21284.83
484.28	21738.90
484.46	21905.07
484.64	22733.62
484.82	22230.41
485.00	22782.77
485.18	22988.74
485.35	23236.84
485.53	23215.77
485.71	23302.37
485.89	23630.05
486.07	23307.05
486.25	23632.39
486.43	23805.59
486.61	24079.43
486.78	24425.83
486.96	24439.87
487.14	24680.95
487.32	24496.05
487.50	25139.69
487.68	25659.29
487.85	25806.75
488.03	25771.64
488.21	26298.26
488.39	26258.47
488.57	26527.63
488.75	26623.59
488.92	26623.59
489.10	26960.63
489.28	26958.29
489.46	27164.26
489.64	27325.75
489.81	28109.83
489.99	28093.45
490.17	27821.95
490.35	28685.61
490.53	28521.77
490.70	28699.65
490.88	28919.66
491.06	28811.99
491.24	29235.63
491.41	29418.19
491.59	29296.49
491.77	29605.44
491.95	29961.20
492.13	30050.14
492.30	30441.01
492.48	30192.91
492.66	30359.09
492.84	30759.32
493.01	30756.98
493.19	30981.67
493.37	31335.09
493.54	31470.84
493.72	31627.66
493.90	31756.39
494.08	32156.62
494.25	32362.59
494.43	32840.06
494.61	32458.55
494.79	33174.75
494.96	32589.62
495.14	33127.94
495.32	33340.93
495.49	33326.89
495.67	33975.22
495.85	34174.16
496.02	34183.52
496.20	34424.60
496.38	34843.56
496.55	34698.44
496.73	35175.91
496.91	34876.32
497.09	35805.52
497.26	35173.57
497.44	35051.86
497.62	35454.44
497.79	36456.18
497.97	36032.55
498.14	36161.28
498.32	36397.67
498.50	36535.76
498.67	36935.99
498.85	36858.76
499.03	37181.75
499.20	37151.32
499.38	37273.03
499.56	37507.08
499.73	37462.61
499.91	37523.47
500.08	38244.35
500.26	37656.88
500.44	38398.83
500.61	38359.04
500.79	38216.27
500.97	38557.99
501.14	39002.69
501.32	39047.16
501.49	38689.06
501.67	39208.65
501.84	39203.97
502.02	39473.13
502.20	39901.45
502.37	39449.73
502.55	39667.40
502.72	39906.13
502.90	40147.21
503.07	39981.03
503.25	40299.34
503.43	40329.77
503.60	40748.73
503.78	40849.37
503.95	40697.24
504.13	40650.42
504.30	41570.25
504.48	40898.52
504.65	41064.70
504.83	41226.20
505.01	41326.84
505.18	41549.19
505.36	42038.36
505.53	41965.81
505.71	42078.15
505.88	42209.22
506.06	41635.79
506.23	42253.69
506.41	42342.63
506.58	42850.53
506.76	42532.22
506.93	42974.58
507.11	43133.73
507.28	42700.73
507.46	42838.83
507.63	43152.46
507.81	43620.56
507.98	43594.82
508.16	43634.61
508.33	44058.24
508.50	44177.61
508.68	43973.98
508.85	44374.22
509.03	44449.11
509.20	44697.21
509.38	45118.51
509.55	44886.79
509.73	44928.92
509.90	45361.92
510.08	44828.28
510.25	45090.42
510.42	45331.50
510.60	45598.32
510.77	45516.40
510.95	45897.91
511.12	45537.46
511.30	45801.94
511.47	45626.40
511.64	46014.93
511.82	46366.01
511.99	46038.34
512.17	46504.10
512.34	46461.97
512.51	46976.89
512.69	47112.64
512.86	46740.50
513.04	47313.93
513.21	46782.63
513.38	46890.29
513.56	47365.42
513.73	47098.60
513.90	47255.42
514.08	47440.32
514.25	47735.23
514.43	47955.24
514.60	47796.08
514.77	48020.77
514.95	48107.37
515.12	48170.57
515.29	47892.04
515.47	48575.48
515.64	48725.27
515.81	48559.09
515.99	48657.40
516.16	48854.00
516.33	48926.56
516.51	49240.19
516.68	49116.14
516.85	49024.86
517.03	49085.72
517.20	49291.68
517.37	49198.06
517.54	49799.58
517.72	49518.71
517.89	49724.68
518.06	49467.22
518.24	49563.18
518.41	49717.66
518.58	49745.75
518.75	49698.94
518.93	50045.33
519.10	49925.97
519.27	50429.18
519.45	50291.09
519.62	50527.48
519.79	50305.13
519.96	50632.81
520.14	50553.23
520.31	50571.96
520.48	51173.47
520.65	50749.84
520.83	50586.00
521.00	51365.40
521.17	50887.93
521.34	50829.41
521.52	51236.67
521.69	51290.50
521.86	51320.93
522.03	51456.68
522.20	51664.99
522.38	51704.77
522.55	51959.89
522.72	51672.01
522.89	51770.31
523.07	52062.88
523.24	51924.78
523.41	51688.39
523.58	51700.09
523.75	52226.71
523.92	52423.32
524.10	52521.62
524.27	52535.66
524.44	52392.89
524.61	52285.23
524.78	52767.38
524.96	52863.34
525.13	52753.33
525.30	52926.53
525.47	53272.93
525.64	52907.81
525.81	53066.97
525.98	53081.01
526.16	52741.63
526.33	53237.83
526.50	53364.21
526.67	53176.97
526.84	53436.77
527.01	53279.96
527.18	53450.81
527.36	53368.90
527.53	53404.00
527.70	53565.50
527.87	53628.69
528.04	53516.35
528.21	53923.60
528.38	53771.47
528.55	53652.10
528.72	53638.06
528.89	53743.38
529.07	53762.11
529.24	53876.79
529.41	53982.12
529.58	53958.71
529.75	53968.07
529.92	54188.08
530.09	54335.54
530.26	54344.90
530.43	54108.50
530.60	53939.99
530.77	54094.46
530.94	54368.30
531.11	54396.39
531.28	54473.63
531.46	54508.74
531.63	54714.70
531.80	54574.27
531.97	54815.35
532.14	54845.77
532.31	54754.49
532.48	55030.68
532.65	55121.96
532.82	54728.75
532.99	54944.08
533.16	54937.05
533.33	55131.32
533.50	55351.33
533.67	55330.26
533.84	55203.88
534.01	55271.75
534.18	55288.13
534.35	55938.80
534.52	55501.12
534.69	55463.67
534.86	55435.59
535.03	55569.00
535.20	55505.80
535.37	55889.65
535.54	55627.51
535.71	55561.98
535.88	55861.57
536.05	55859.23
536.22	56039.45
536.38	56006.68
536.55	55810.07
536.72	56030.08
536.89	56018.38
537.06	56086.26
537.23	56109.66
537.40	55700.07
537.57	56172.86
537.74	56231.37
537.91	56418.61
538.08	56231.37
538.25	56060.51
538.42	56222.01
538.59	56383.51
538.75	56296.91
538.92	56392.87
539.09	56477.13
539.26	56439.68
539.43	56495.85
539.60	56430.32
539.77	56650.33
539.94	56875.02
540.11	56488.83
540.28	56741.61
540.44	56949.92
540.61	56573.09
540.78	56690.12
540.95	56645.65
541.12	56893.74
541.29	56860.97
541.46	56835.23
541.62	56683.09
541.79	57153.54
541.96	56846.93
542.13	56886.72
542.30	57162.90
542.47	57134.82
542.63	57305.68
542.80	57141.84
542.97	57420.36
543.14	57453.13
543.31	57354.83
543.48	57418.02
543.64	57996.13
543.81	57640.37
543.98	57621.65
544.15	57712.93
544.32	57785.49
544.48	57851.02
544.65	57670.80
544.82	57654.42
544.99	57448.45
545.16	57834.64
545.32	57755.06
545.49	57963.37
545.66	57946.98
545.83	58003.16
546.00	58089.76
546.16	57881.45
546.33	57963.37
546.50	57902.51
546.67	58017.20
546.83	57862.72
547.00	57844.00
547.17	58157.63
547.34	58005.50
547.50	58244.23
547.67	58267.64
547.84	58305.09
548.00	58504.03
548.17	58702.98
548.34	58482.97
548.51	58642.12
548.67	58422.11
548.84	58520.41
549.01	58354.24
549.18	58672.55
549.34	58452.54
549.51	58681.91
549.68	58672.55
549.84	58614.04
550.01	58585.95
550.18	58721.70
550.34	58782.55
550.51	58674.89
550.68	58782.55
550.84	58646.80
551.01	58927.67
551.18	59098.53
551.34	58681.91
551.51	58946.39
551.68	58773.19
551.84	58864.47
552.01	58674.89
552.18	58944.05
552.34	58789.58
552.51	59056.40
552.68	58852.77
552.84	58906.60
553.01	59306.83
553.18	59203.85
553.34	59058.74
553.51	59089.16
553.67	59105.55
553.84	59257.68
554.01	59152.36
554.17	59283.43
554.34	59381.73
554.51	59330.24
554.67	59348.96
554.84	59405.14
555.00	59550.25
555.17	59135.98
555.33	59367.69
555.50	59384.07
555.67	59313.86
555.83	59267.05
556.00	59538.55
556.16	59627.49
556.33	59737.49
556.50	59414.50
556.66	59473.01
556.83	59414.50
556.99	59601.74
557.16	59770.26
557.32	59753.88
557.49	59693.02
557.65	59629.83
557.82	59728.13
557.98	59557.27
558.15	59718.77
558.32	59697.70
558.48	59826.43
558.65	59828.77
558.81	59896.65
558.98	59950.48
559.14	59906.01
559.31	60009.00
559.47	59854.52
559.64	60140.07
559.80	60137.72
559.97	59992.61
560.13	59859.20
560.30	60177.51
560.46	60048.78
560.63	59983.25
560.79	60001.97
560.96	60224.32
561.12	59959.84
561.29	60055.81
561.45	60317.95
561.61	59957.50
561.78	60030.06
561.94	60221.98
562.11	60034.74
562.27	59971.55
562.44	60158.79
562.60	60315.61
562.77	60301.56
562.93	59966.87
563.10	60453.70
563.26	60196.24
563.42	60654.98
563.59	60278.16
563.75	60315.61
563.92	60533.28
564.08	60177.51
564.24	60549.66
564.41	60233.69
564.57	60477.10
564.74	60453.70
564.90	60519.23
565.07	60367.10
565.23	60121.34
565.39	60416.25
565.56	60378.80
565.72	60397.52
565.88	60533.28
566.05	60294.54
566.21	60481.78
566.38	60498.17
566.54	60376.46
566.70	60542.64
566.87	60605.83
567.03	60231.35
567.19	60814.14
567.36	60629.24
567.52	60563.70
567.68	60858.61
567.85	60552.00
568.01	60750.94
568.17	60420.93
568.34	60741.58
568.50	60636.26
568.66	60643.28
568.83	60647.96
568.99	60697.11
569.15	60547.32
569.32	60647.96
569.48	60519.23
569.64	60860.95
569.81	60732.22
569.97	60669.03
570.13	60605.83
570.30	60734.56
570.46	60842.23
570.62	60523.91
570.78	60940.53
570.95	60816.48
571.11	60858.61
571.27	60800.10
571.43	60921.80
571.60	61052.87
571.76	60853.93
571.92	60980.32
572.09	60788.39
572.25	61015.43
572.41	60769.67
572.57	60900.74
572.74	61106.71
572.90	60933.51
573.06	60931.17
573.22	60966.27
573.38	60949.89
573.55	60788.39
573.71	61001.38
573.87	60999.04
574.03	60816.48
574.20	60996.70
574.36	60956.91
574.52	61146.50
574.68	60945.21
574.84	61127.77
575.01	61176.92
575.17	60975.64
575.33	61020.11
575.49	60851.59
575.65	61048.19
575.82	61052.87
575.98	61029.47
576.14	61146.50
576.30	61097.34
576.46	60982.66
576.62	61034.15
576.79	60914.78
576.95	61031.81
577.11	60947.55
577.27	60956.91
577.43	61221.39
577.59	60928.83
577.75	60992.02
577.92	60968.61
578.08	61158.20
578.24	60959.25
578.40	61087.98
578.56	61205.01
578.72	61162.88
578.88	61284.59
579.04	61446.08
579.21	61228.41
579.37	61394.59
579.53	61195.65
579.69	60942.87
579.85	61062.24
580.01	61338.42
580.17	60959.25
580.33	61141.81
580.49	61214.37
580.65	61254.16
580.82	61179.26
580.98	60942.87
581.14	60954.57
581.30	61322.04
581.46	61186.28
581.62	61343.10
581.78	61233.10
581.94	61221.39
582.10	61293.95
582.26	61066.92
582.42	61123.09
582.58	61169.90
582.74	61134.79
582.90	61181.60
583.06	61244.80
583.22	61116.07
583.38	61190.97
583.54	61364.17
583.70	61429.70
583.86	61240.12
584.02	61242.46
584.18	61371.19
584.34	61326.72
584.50	61537.36
584.66	61134.79
584.82	60949.89
584.98	61300.97
585.14	61368.85
585.30	61193.31
585.46	61289.27
585.62	61462.47
585.78	61378.21
585.94	61347.78
586.10	61385.23
586.26	61331.40
586.42	61478.85
586.58	61389.91
586.74	61176.92
586.90	61406.30
587.06	61223.73
587.22	61511.62
587.38	61354.80
587.54	61441.40
587.70	61481.19
587.86	61607.58
588.02	61399.27
588.18	61443.74
588.34	61371.19
588.49	61471.83
