SpectraSuite Data File
++++++++++++++++++++++++++++++++++++
Date: Fri Oct 25 11:34:34 EDT 2013
User: price-jones
Dark Spectrum Present: No
Reference Spectrum Present: No
Number of Sampled Component Spectra: 1
Spectrometers: USB2+H05261
Integration Time (usec): 100000 (USB2+H05261)
Spectra Averaged: 1 (USB2+H05261)
Boxcar Smoothing: 0 (USB2+H05261)
Correct for Electrical Dark: No (USB2+H05261)
Strobe/Lamp Enabled: No (USB2+H05261)
Correct for Detector Non-linearity: No (USB2+H05261)
Correct for Stray Light: No (USB2+H05261)
Number of Pixels in Processed Spectrum: 2048
>>>>>Begin Processed Spectral Data<<<<<
365.73	252.78
365.92	252.78
366.12	252.78
366.32	229.37
366.52	236.39
366.72	215.33
366.91	217.67
367.11	133.41
367.31	177.88
367.51	173.20
367.70	184.90
367.90	184.90
368.10	203.63
368.30	222.35
368.49	154.48
368.69	280.86
368.89	184.90
369.09	163.84
369.28	180.22
369.48	191.92
369.68	220.01
369.87	177.88
370.07	229.37
370.27	283.20
370.47	252.78
370.66	388.53
370.86	519.60
371.06	470.45
371.25	512.58
371.45	533.64
371.65	552.37
371.84	496.19
372.04	573.43
372.24	550.03
372.44	671.73
372.63	582.79
372.83	568.75
373.03	589.82
373.22	622.58
373.42	601.52
373.62	606.20
373.81	538.32
374.01	622.58
374.21	657.69
374.40	557.05
374.60	601.52
374.79	622.58
374.99	617.90
375.19	688.12
375.38	624.92
375.58	655.35
375.78	615.56
375.97	638.97
376.17	683.44
376.37	664.71
376.56	648.33
376.76	681.10
376.95	683.44
377.15	669.39
377.35	634.29
377.54	669.39
377.74	664.71
377.93	678.76
378.13	660.03
378.33	718.54
378.52	643.65
378.72	688.12
378.91	683.44
379.11	671.73
379.31	739.61
379.50	692.80
379.70	690.46
379.89	678.76
380.09	753.65
380.28	727.91
380.48	685.78
380.68	692.80
380.87	763.01
381.07	667.05
381.26	765.36
381.46	730.25
381.65	802.80
381.85	727.91
382.04	674.07
382.24	723.23
382.43	725.57
382.63	770.04
382.83	709.18
383.02	814.51
383.22	795.78
383.41	713.86
383.61	866.00
383.80	774.72
384.00	840.25
384.19	837.91
384.39	842.59
384.58	826.21
384.78	781.74
384.97	849.61
385.17	833.23
385.36	767.70
385.56	725.57
385.75	753.65
385.95	809.83
386.14	835.57
386.34	851.96
386.53	788.76
386.72	873.02
386.92	842.59
387.11	875.36
387.31	877.70
387.50	905.79
387.70	868.34
387.89	856.64
388.09	851.96
388.28	889.40
388.48	851.96
388.67	940.90
388.86	858.98
389.06	842.59
389.25	866.00
389.45	861.32
389.64	858.98
389.84	894.08
390.03	968.98
390.22	905.79
390.42	1043.88
390.61	961.96
390.81	929.19
391.00	1020.47
391.19	990.05
391.39	961.96
391.58	950.26
391.78	1008.77
391.97	1057.92
392.16	978.34
392.36	1060.26
392.55	954.94
392.75	1050.90
392.94	964.30
393.13	1043.88
393.33	1060.26
393.52	1015.79
393.71	1053.24
393.91	1015.79
394.10	1074.31
394.29	1076.65
394.49	1071.97
394.68	1062.60
394.88	1055.58
395.07	1188.99
395.26	1090.69
395.46	1139.84
395.65	1170.27
395.84	1095.37
396.04	1284.95
396.23	1186.65
396.42	1203.04
396.62	1224.10
396.81	1132.82
397.00	1135.16
397.19	1153.88
397.39	1252.19
397.58	1203.04
397.77	1139.84
397.97	1270.91
398.16	1254.53
398.35	1235.80
398.55	1254.53
398.74	1280.27
398.93	1294.32
399.12	1221.76
399.32	1198.35
399.51	1270.91
399.70	1320.06
399.90	1385.60
400.09	1357.51
400.28	1331.76
400.47	1291.98
400.67	1357.51
400.86	1313.04
401.05	1310.70
401.24	1469.86
401.44	1425.39
401.63	1448.79
401.82	1383.26
402.01	1390.28
402.21	1320.06
402.40	1425.39
402.59	1413.68
402.78	1310.70
402.97	1500.28
403.17	1423.05
403.36	1439.43
403.55	1502.62
403.74	1523.69
403.93	1542.41
404.13	1474.54
404.32	1519.01
404.51	1589.22
404.70	1549.43
404.89	1629.01
405.09	1666.46
405.28	1643.06
405.47	1687.53
405.66	1629.01
405.85	1657.10
406.05	1631.35
406.24	1563.48
406.43	1692.21
406.62	1668.80
406.81	1797.53
407.00	1755.40
407.20	1741.36
407.39	1792.85
407.58	1792.85
407.77	1757.74
407.96	1811.57
408.15	1832.64
408.34	1823.28
408.54	1872.43
408.73	1825.62
408.92	1849.02
409.11	1874.77
409.30	1879.45
409.49	1959.03
409.68	2033.93
409.87	1968.39
410.07	1980.09
410.26	1916.90
410.45	1933.28
410.64	1982.43
410.83	2071.37
411.02	1973.07
411.21	2057.33
411.40	2040.95
411.59	2071.37
411.78	2003.50
411.98	2165.00
412.17	2179.04
412.36	2190.74
412.55	2162.66
412.74	2249.25
412.93	2134.57
413.12	2258.62
413.31	2300.75
413.50	2186.06
413.69	2359.26
413.88	2480.97
414.07	2335.85
414.26	2352.24
414.45	2455.22
414.64	2305.43
414.83	2415.43
415.02	2452.88
415.22	2567.57
415.41	2520.76
415.60	2612.04
415.79	2485.65
415.98	2633.10
416.17	2654.17
416.36	2640.12
416.55	2600.34
416.74	2724.38
416.93	2661.19
417.12	2715.02
417.31	2651.83
417.50	2719.70
417.69	2885.88
417.88	2825.03
418.07	2874.18
418.26	2846.09
418.45	2897.58
418.64	2951.42
418.83	3000.57
419.02	2876.52
419.21	2942.05
419.39	2836.73
419.58	2951.42
419.77	2972.48
419.96	2956.10
420.15	3103.55
420.34	3019.29
420.53	2920.99
420.72	3098.87
420.91	3033.33
421.10	3075.46
421.29	3063.76
421.48	3000.57
421.67	3089.51
421.86	3052.06
422.05	3304.84
422.24	3126.96
422.43	3220.58
422.61	3148.02
422.80	3241.64
422.99	3297.81
423.18	3229.94
423.37	3386.76
423.56	3215.90
423.75	3300.16
423.94	3007.59
424.13	3000.57
424.32	3155.04
424.50	3332.92
424.69	3279.09
424.88	3159.72
425.07	3396.12
425.26	3178.45
425.45	3304.84
425.64	3251.00
425.83	3236.96
426.01	3307.18
426.20	3332.92
426.39	3295.47
426.58	3236.96
426.77	3311.86
426.96	3297.81
427.15	3370.37
427.33	3426.54
427.52	3445.27
427.71	3482.72
427.90	3480.38
428.09	3536.55
428.28	3562.30
428.46	3625.49
428.65	3461.65
428.84	3620.81
429.03	3786.99
429.22	3471.01
429.40	3545.91
429.59	3524.85
429.78	3419.52
429.97	3442.93
430.16	3578.68
430.34	3552.93
430.53	3609.11
430.72	3808.05
430.91	3604.42
431.10	3749.54
431.28	3730.81
431.47	3871.25
431.66	3857.20
431.85	3721.45
432.03	3871.25
432.22	3840.82
432.41	3962.53
432.60	3866.56
432.79	4098.28
432.97	3880.61
433.16	3822.09
433.35	3932.10
433.54	4004.66
433.72	3960.19
433.91	4058.49
434.10	3999.98
434.28	3854.86
434.47	4177.86
434.66	4058.49
434.85	4086.58
435.03	4250.41
435.22	4025.72
435.41	4128.70
435.59	4189.56
435.78	4117.00
435.97	4264.46
436.16	4255.09
436.34	4175.52
436.53	4231.69
436.72	4367.44
436.90	4257.43
437.09	4245.73
437.28	4236.37
437.46	4287.86
437.65	4322.97
437.84	4561.70
438.02	4461.06
438.21	4397.87
438.40	4351.06
438.58	4496.17
438.77	4566.39
438.96	4580.43
439.14	4706.82
439.33	4669.37
439.52	4683.41
439.70	4578.09
439.89	4793.42
440.08	4842.57
440.26	4683.41
440.45	4699.80
440.63	4858.95
440.82	4950.23
441.01	4931.51
441.19	4912.78
441.38	5032.15
441.57	5184.29
441.75	5095.35
441.94	5203.01
442.12	5125.77
442.31	5107.05
442.50	5284.93
442.68	5069.60
442.87	4936.19
443.05	5305.99
443.24	5298.97
443.43	5233.44
443.61	5277.91
443.80	5247.48
443.98	5069.60
444.17	5076.62
444.35	5329.40
444.54	5331.74
444.73	5322.38
444.91	5284.93
445.10	5437.06
445.28	5378.55
445.47	5266.21
445.65	5371.53
445.84	5577.50
446.02	5383.23
446.21	5444.09
446.39	5385.57
446.58	5425.36
446.77	5528.35
446.95	5132.79
447.14	5472.17
447.32	5401.96
447.51	5462.81
447.69	5341.10
447.88	5657.07
448.06	5556.43
448.25	5481.53
448.43	5593.88
448.62	5600.90
448.80	5500.26
448.99	5748.36
449.17	5612.60
449.36	5509.62
449.54	5600.90
449.73	5827.93
449.91	6033.90
450.10	5743.67
450.28	5849.00
450.46	5743.67
450.65	5949.64
450.83	5940.28
451.02	5804.53
451.20	6061.99
451.39	5905.17
451.57	5895.81
451.76	5846.66
451.94	5806.87
452.13	5935.60
452.31	6057.31
452.49	5867.72
452.68	6181.35
452.86	5956.66
453.05	6221.14
453.23	6251.57
453.42	6043.26
453.60	5879.43
453.78	6066.67
453.97	6033.90
454.15	6080.71
454.34	6125.18
454.52	6174.33
454.70	6328.81
454.89	6312.42
455.07	6218.80
455.26	6424.77
455.44	6450.52
455.62	6310.08
455.81	6356.90
455.99	6448.18
456.17	6462.22
456.36	6448.18
456.54	6464.56
456.73	6633.08
456.91	6689.25
457.09	6740.74
457.28	6626.06
457.46	6707.98
457.64	6855.43
457.83	6700.95
458.01	6862.45
458.19	6918.62
458.38	6871.81
458.56	6764.15
458.74	6850.75
458.93	6841.39
459.11	6644.78
459.29	7037.99
459.48	6766.49
459.66	6890.54
459.84	6930.33
460.03	7028.63
460.21	7103.53
460.39	6981.82
460.57	6965.43
460.76	7133.95
460.94	7157.36
461.12	7037.99
461.31	7180.76
461.49	7040.33
461.67	7077.78
461.85	7389.07
462.04	7236.94
462.22	7653.55
462.40	7466.31
462.59	7463.97
462.77	7339.92
462.95	7267.36
463.13	7393.75
463.32	7407.80
463.50	7452.27
463.68	7529.50
463.86	7620.78
464.05	7442.90
464.23	7201.83
464.41	7590.36
464.59	7496.74
464.78	7775.26
464.96	7653.55
465.14	7541.21
465.32	7721.43
465.50	7714.41
465.69	7707.38
465.87	7789.30
466.05	7854.84
466.23	7688.66
466.41	7819.73
466.60	7950.80
466.78	7702.70
466.96	7749.51
467.14	7793.98
467.32	7779.94
467.51	7992.93
467.69	7588.02
467.87	7786.96
468.05	7929.74
468.23	8056.12
468.41	7889.95
468.60	8046.76
468.78	8093.57
468.96	7953.14
469.14	8060.80
469.32	8135.70
469.50	8231.66
469.69	8404.86
469.87	8320.60
470.05	8528.91
470.23	8269.11
470.41	8365.07
470.59	8442.31
470.77	8332.31
470.95	8355.71
471.14	8519.55
471.32	8425.93
471.50	8582.74
471.68	8622.53
471.86	8594.45
472.04	8674.03
472.22	9029.79
472.40	8568.70
472.58	8849.57
472.77	8762.97
472.95	9081.28
473.13	9104.68
473.31	8879.99
473.49	8964.25
473.67	9062.55
473.85	8830.84
474.03	9266.18
474.21	9156.18
474.39	9298.95
474.57	9479.17
474.75	9327.03
474.93	9411.29
475.12	9350.44
475.30	9547.05
475.48	9397.25
475.66	9486.19
475.84	9666.41
476.02	9673.43
476.20	9666.41
476.38	9689.82
476.56	9956.64
476.74	10129.84
476.92	9958.98
477.10	9944.94
477.28	10281.97
477.46	10129.84
477.64	10256.23
477.82	10401.34
478.00	10567.52
478.18	10361.55
478.36	10588.58
478.54	10637.73
478.72	10963.07
478.90	10897.53
479.08	10813.28
479.26	11295.43
479.44	10993.50
479.62	11241.59
479.80	11124.57
479.98	11335.21
480.16	11595.01
480.34	11386.71
480.52	11707.36
480.70	11733.11
480.88	11510.75
481.06	11866.52
481.24	11885.24
481.41	11969.50
481.59	11997.59
481.77	12058.44
481.95	12346.33
482.13	12407.18
482.31	12271.43
482.49	12741.88
482.67	12751.24
482.85	12870.61
483.03	12821.45
483.21	12957.21
483.39	13188.92
483.57	13081.25
483.74	13280.20
483.92	13275.52
484.10	13099.98
484.28	13444.04
484.46	13872.36
484.64	13858.31
484.82	13619.58
485.00	13886.40
485.18	14167.26
485.35	14326.42
485.53	14368.55
485.71	14256.20
485.89	14396.64
486.07	14544.09
486.25	14445.79
486.43	14806.23
486.61	14864.74
486.78	15105.82
486.96	15171.35
487.14	14916.23
487.32	15197.10
487.50	15648.82
487.68	15452.22
487.85	15796.28
488.03	15929.69
488.21	15903.94
488.39	16135.65
488.57	16044.37
488.75	16350.98
488.92	16458.65
489.10	16580.36
489.28	16929.09
489.46	17015.69
489.64	17048.46
489.81	17097.61
489.99	17116.34
490.17	17224.00
490.35	17635.94
490.53	17734.24
490.70	17544.66
490.88	17675.73
491.06	17832.54
491.24	18080.64
491.41	18038.51
491.59	18047.87
491.77	18415.34
491.95	18230.43
492.13	18630.66
492.30	18590.88
492.48	18735.99
492.66	18757.05
492.84	18906.85
493.01	19311.76
493.19	19269.63
493.37	19124.52
493.54	19410.06
493.72	19447.51
493.90	19583.26
494.08	19861.79
494.25	19686.25
494.43	20098.18
494.61	20112.22
494.79	20156.69
494.96	20184.78
495.14	20592.03
495.32	20425.86
495.49	20615.44
495.67	20592.03
495.85	20837.79
496.02	21231.00
496.20	21422.92
496.38	21240.36
496.55	21460.37
496.73	21724.85
496.91	21523.57
497.09	21776.34
497.26	21535.27
497.44	21769.32
497.62	22244.45
497.79	22235.09
497.97	22530.00
498.14	22389.56
498.32	22300.62
498.50	22726.60
498.67	22698.52
498.85	22471.48
499.03	22721.92
499.20	22801.50
499.38	22981.72
499.56	23243.86
499.73	23295.35
499.91	23541.11
500.08	23590.26
500.26	23178.33
500.44	23501.32
500.61	23250.88
500.79	23370.25
500.97	23967.09
501.14	23681.54
501.32	24025.60
501.49	24058.37
501.67	24187.10
501.84	24350.93
502.02	24187.10
502.20	24409.45
502.37	24446.90
502.55	24493.71
502.72	24669.25
502.90	24638.82
503.07	24828.40
503.25	24805.00
503.43	24753.51
503.60	25174.80
503.78	24793.29
503.95	24954.79
504.13	25167.78
504.30	25481.41
504.48	25062.46
504.65	25240.34
504.83	25783.34
505.01	25570.35
505.18	25844.20
505.36	25883.98
505.53	25614.82
505.71	25769.30
505.88	25998.67
506.06	25891.01
506.23	26113.36
506.41	26106.34
506.58	25865.26
506.76	26476.14
506.93	26623.59
507.11	26415.29
507.28	26719.56
507.46	26647.00
507.63	26824.88
507.81	27037.87
507.98	27065.96
508.16	27014.46
508.33	27164.26
508.50	26871.69
508.68	27646.41
508.85	27208.73
509.03	27515.34
509.20	27325.75
509.38	27667.47
509.55	27831.31
509.73	27632.36
509.90	27852.38
510.08	27875.78
510.25	28044.30
510.42	27967.06
510.60	28395.38
510.77	28315.80
510.95	28491.34
511.12	28624.75
511.30	28699.65
511.47	28732.42
511.64	28664.54
511.82	28973.49
511.99	28367.29
512.17	28900.94
512.34	28945.41
512.51	29081.16
512.69	29411.17
512.86	29120.95
513.04	29221.59
513.21	29165.42
513.38	29369.04
513.56	29434.58
513.73	29427.56
513.90	29773.95
514.08	29785.66
514.25	30291.21
514.43	29888.64
514.60	30047.80
514.77	29947.15
514.95	30672.72
515.12	30118.01
515.29	30199.93
515.47	30607.19
515.64	30141.42
515.81	30106.31
515.99	30845.92
516.16	30661.02
516.33	30679.74
516.51	30834.22
516.68	30785.07
516.85	31159.55
517.03	31056.57
517.20	31227.43
517.37	31133.81
517.54	31154.87
517.72	31367.86
517.89	31290.62
518.06	31342.11
518.24	31255.51
518.41	31328.07
518.58	31468.50
518.75	31321.05
518.93	31508.29
519.10	31489.57
519.27	31952.99
519.45	31758.73
519.62	32191.73
519.79	31618.30
519.96	31948.31
520.14	31969.38
520.31	31885.12
520.48	32439.82
520.65	32826.01
520.83	32638.77
521.00	32496.00
521.17	32699.62
521.34	32552.17
521.52	32657.49
521.69	32549.83
521.86	32903.25
522.03	32723.03
522.20	33174.75
522.38	33053.05
522.55	33165.39
522.72	33404.13
522.89	33247.31
523.07	33621.80
523.24	33525.83
523.41	33839.47
523.58	33422.85
523.75	33535.20
523.92	33310.50
524.10	33322.21
524.27	33500.09
524.44	33851.17
524.61	34050.11
524.78	34216.29
524.96	34230.33
525.13	34066.50
525.30	34307.57
525.47	34457.37
525.64	33961.17
525.81	34431.62
525.98	34396.51
526.16	34419.92
526.33	34274.80
526.50	34813.13
526.67	34356.72
526.84	34244.38
527.01	34969.94
527.18	34806.11
527.36	34766.32
527.53	34803.77
527.70	35321.02
527.87	35124.42
528.04	35005.05
528.21	35140.80
528.38	35321.02
528.55	35735.30
528.72	35302.30
528.89	35578.48
529.07	35264.85
529.24	34986.33
529.41	35826.58
529.58	35742.32
529.75	35639.34
529.92	35515.29
530.09	35342.09
530.26	35718.92
530.43	35812.54
530.60	35611.25
530.77	35782.11
530.94	35974.03
531.11	35615.93
531.28	35854.67
531.46	35913.18
531.63	36182.34
531.80	35803.17
531.97	36458.52
532.14	36533.42
532.31	36250.22
532.48	36580.23
532.65	36659.81
532.82	36844.71
532.99	36542.78
533.16	36627.04
533.33	36730.03
533.50	36474.91
533.67	36765.14
533.84	36552.15
534.01	37301.12
534.18	36954.72
534.35	37261.33
534.52	37659.22
534.69	37511.77
534.86	37443.89
535.03	37048.34
535.20	37703.69
535.37	37001.53
535.54	37703.69
535.71	37319.84
535.88	37750.50
536.05	37481.34
536.22	37834.76
536.38	37572.62
536.55	37284.73
536.72	37413.46
536.89	37481.34
537.06	37228.56
537.23	38230.31
537.40	37893.27
537.57	37654.54
537.74	37406.44
537.91	37993.92
538.08	38078.18
538.25	37956.47
538.42	37713.05
538.59	38300.53
538.75	37841.78
538.92	38740.55
539.09	38651.61
539.26	38462.02
539.43	38176.48
539.60	38232.65
539.77	38749.91
539.94	38534.58
540.11	38457.34
540.28	38639.90
540.44	39222.70
540.61	38483.09
540.78	38632.88
540.95	38436.28
541.12	38504.15
541.29	39019.07
541.46	39136.10
541.62	39035.45
541.79	39358.45
541.96	38653.95
542.13	39203.97
542.30	39124.40
542.47	39147.80
542.63	39285.89
542.80	38955.88
542.97	39894.43
543.14	39688.46
543.31	40009.12
543.48	39716.55
543.64	40046.57
543.81	40020.82
543.98	39653.36
544.15	39489.52
544.32	39835.92
544.48	40280.62
544.65	40123.80
544.82	40051.25
544.99	39688.46
545.16	39976.35
545.32	40091.04
545.49	40620.00
545.66	40641.06
545.83	40631.70
546.00	40744.05
546.16	40498.29
546.33	40430.41
546.50	40514.67
546.67	40556.80
546.83	40453.82
547.00	40711.28
547.17	40657.45
547.34	40313.39
547.50	40942.99
547.67	41027.25
547.84	40893.84
548.00	40612.98
548.17	41326.84
548.34	41090.44
548.51	41031.93
548.67	41071.72
548.84	41167.68
549.01	40889.16
549.18	41029.59
549.34	41635.79
549.51	41134.92
549.68	41134.92
549.84	41092.79
550.01	41244.92
550.18	41312.80
550.34	41453.23
550.51	41223.86
550.68	41406.42
550.84	41282.37
551.01	41799.63
551.18	41418.12
551.34	41205.13
551.51	41628.77
551.68	41460.25
551.84	41766.86
552.01	41598.34
552.18	41865.16
552.34	41811.33
552.51	41617.07
552.68	41558.55
552.84	41493.02
553.01	41638.13
553.18	41769.20
553.34	41923.68
553.51	41551.53
553.67	41958.78
553.84	42368.38
554.01	42258.37
554.17	42284.12
554.34	41816.01
554.51	42403.49
554.67	42756.91
554.84	42249.01
555.00	42265.39
555.17	42593.07
555.33	42536.90
555.50	42384.76
555.67	42183.48
555.83	42522.85
556.00	42635.20
556.16	43058.84
556.33	42866.91
556.50	42742.86
556.66	42483.06
556.83	42480.72
556.99	42829.46
557.16	42990.96
557.32	43164.16
557.49	42932.45
557.65	42520.51
557.82	42520.51
557.98	42614.13
558.15	42747.54
558.32	42724.14
558.48	42522.85
558.65	42906.70
558.81	43274.16
558.98	43150.12
559.14	43159.48
559.31	43012.02
559.47	43086.92
559.64	43304.59
559.80	43302.25
559.97	43239.06
560.13	43002.66
560.30	43107.99
560.46	43971.64
560.63	43433.32
560.79	43529.28
560.96	43646.31
561.12	43552.69
561.29	43697.80
561.45	43629.93
561.61	43536.30
561.78	43356.08
561.94	43770.36
562.11	43199.27
562.27	43573.75
562.44	43517.58
562.60	43171.18
562.77	43452.05
562.93	43824.19
563.10	44179.95
563.26	43358.42
563.42	44196.34
563.59	43473.11
563.75	43662.69
563.92	43620.56
564.08	43421.62
564.24	43761.00
564.41	43576.09
564.57	43936.54
564.74	43737.59
564.90	43969.30
565.07	43683.76
565.23	43718.87
565.39	43882.70
565.56	44135.48
565.72	43569.07
565.88	44112.08
566.05	44130.80
566.21	43885.04
566.38	43880.36
566.54	43629.93
566.70	44271.23
566.87	44154.21
567.03	43922.49
567.19	44275.91
567.36	44151.87
567.52	44336.77
567.68	44231.44
567.85	44432.73
568.01	44470.18
568.17	44430.39
568.34	44006.75
568.50	44231.44
568.66	44376.56
568.83	44119.10
568.99	43931.86
569.15	44406.98
569.32	43966.96
569.48	44439.75
569.64	44322.72
569.81	44587.21
569.97	44638.70
570.13	44559.12
570.30	44292.30
570.46	44683.17
570.62	44123.78
570.78	44332.09
570.95	44498.26
571.11	45006.16
571.27	44327.41
571.43	44088.67
571.60	44587.21
571.76	44554.44
571.92	44421.03
572.09	44423.37
572.25	44329.75
572.41	44037.18
572.57	44690.19
572.74	44772.11
572.90	44201.02
573.06	44753.38
573.22	44814.24
573.38	44804.88
573.55	45017.86
573.71	44744.02
573.87	44804.88
574.03	44573.16
574.20	44980.42
574.36	44877.43
574.52	44825.94
574.68	44638.70
574.84	44999.14
575.01	44535.71
575.17	45078.72
575.33	44505.29
575.49	44900.84
575.65	44832.96
575.82	44554.44
575.98	44505.29
576.14	45020.20
576.30	45127.87
576.46	44891.48
576.62	44669.12
576.79	44992.12
576.95	44692.53
577.11	44481.88
577.27	44243.15
577.43	44772.11
577.59	45132.55
577.75	44776.79
577.92	44547.42
578.08	45102.12
578.24	44725.30
578.40	45048.29
578.56	45338.52
578.72	45050.63
578.88	45256.60
579.04	45179.36
579.21	44552.10
579.37	44889.13
579.53	44928.92
579.69	45024.89
579.85	44404.64
580.01	44528.69
580.17	44488.90
580.33	44847.00
580.49	44905.52
580.65	44793.17
580.82	44945.31
580.98	44748.70
581.14	44664.44
581.30	44971.05
581.46	45062.33
581.62	44980.42
581.78	44919.56
581.94	45207.45
582.10	45041.27
582.26	45085.74
582.42	45050.63
582.58	45174.68
582.74	44847.00
582.90	45125.53
583.06	45097.44
583.22	45085.74
583.38	44847.00
583.54	45347.88
583.70	45132.55
583.86	45310.43
584.02	44793.17
584.18	45399.37
584.34	45160.64
584.50	45591.30
584.66	45167.66
584.82	45340.86
584.98	45401.71
585.14	45308.09
585.30	45329.16
585.46	45158.30
585.62	44800.19
585.78	44935.95
585.94	44683.17
586.10	45333.84
586.26	45074.04
586.42	45310.43
586.58	45088.08
586.74	44755.72
586.90	44905.52
587.06	45364.26
587.22	45319.79
587.38	45099.78
587.54	45233.19
587.70	45890.88
587.86	45200.43
588.02	45141.91
588.18	45359.58
588.34	45153.62
588.49	45315.11
588.65	45324.47
588.81	45251.92
588.97	45212.13
589.13	45291.71
589.29	45097.44
589.45	45214.47
589.61	45434.48
589.77	45432.14
589.93	45441.50
590.08	45263.62
