SpectraSuite Data File
++++++++++++++++++++++++++++++++++++
Date: Fri Oct 25 10:48:01 EDT 2013
User: price-jones
Dark Spectrum Present: No
Reference Spectrum Present: No
Number of Sampled Component Spectra: 1
Spectrometers: USB2+H05261
Integration Time (usec): 100000 (USB2+H05261)
Spectra Averaged: 1 (USB2+H05261)
Boxcar Smoothing: 0 (USB2+H05261)
Correct for Electrical Dark: No (USB2+H05261)
Strobe/Lamp Enabled: No (USB2+H05261)
Correct for Detector Non-linearity: No (USB2+H05261)
Correct for Stray Light: No (USB2+H05261)
Number of Pixels in Processed Spectrum: 2048
>>>>>Begin Processed Spectral Data<<<<<
365.73	168.52
365.92	168.52
366.12	168.52
366.32	42.13
366.52	32.77
366.72	98.30
366.91	0.00
367.11	42.13
367.31	86.60
367.51	7.02
367.70	77.24
367.90	28.09
368.10	23.41
368.30	84.26
368.49	21.06
368.69	81.92
368.89	112.35
369.09	98.30
369.28	46.81
369.48	16.38
369.68	70.22
369.87	121.71
370.07	91.28
370.27	180.22
370.47	191.92
370.66	348.74
370.86	330.02
371.06	472.79
371.25	458.74
371.45	386.19
371.65	456.40
371.84	435.34
372.04	428.32
372.24	484.49
372.44	507.90
372.63	475.13
372.83	528.96
373.03	554.71
373.22	440.02
373.42	531.30
373.62	552.37
373.81	564.07
374.01	613.22
374.21	552.37
374.40	482.15
374.60	587.47
374.79	540.66
374.99	526.62
375.19	582.79
375.38	517.26
375.58	603.86
375.78	606.20
375.97	596.84
376.17	695.14
376.37	615.56
376.56	631.94
376.76	585.13
376.95	592.16
377.15	559.39
377.35	641.31
377.54	543.00
377.74	571.09
377.93	566.41
378.13	688.12
378.33	629.60
378.52	636.63
378.72	655.35
378.91	585.13
379.11	620.24
379.31	578.11
379.50	629.60
379.70	641.31
379.89	631.94
380.09	662.37
380.28	671.73
380.48	723.23
380.68	624.92
380.87	545.34
381.07	643.65
381.26	610.88
381.46	706.84
381.65	777.06
381.85	692.80
382.04	575.77
382.24	653.01
382.43	767.70
382.63	634.29
382.83	746.63
383.02	697.48
383.22	767.70
383.41	751.31
383.61	772.38
383.80	784.08
384.00	716.20
384.19	653.01
384.39	795.78
384.58	732.59
384.78	779.40
384.97	765.36
385.17	758.33
385.36	748.97
385.56	734.93
385.75	737.27
385.95	744.29
386.14	723.23
386.34	713.86
386.53	751.31
386.72	758.33
386.92	791.10
387.11	791.10
387.31	819.19
387.50	858.98
387.70	814.51
387.89	877.70
388.09	823.87
388.28	823.87
388.48	835.57
388.67	887.06
388.86	812.17
389.06	786.42
389.25	896.43
389.45	968.98
389.64	891.74
389.84	896.43
390.03	903.45
390.22	870.68
390.42	858.98
390.61	863.66
390.81	943.24
391.00	919.83
391.19	924.51
391.39	954.94
391.58	1025.15
391.78	894.08
391.97	997.07
392.16	947.92
392.36	1071.97
392.55	1013.45
392.75	917.49
392.94	938.55
393.13	945.58
393.33	1015.79
393.52	954.94
393.71	1020.47
393.91	940.90
394.10	1022.81
394.29	1008.77
394.49	1018.13
394.68	1025.15
394.88	1064.94
395.07	1107.07
395.26	1128.14
395.46	1118.78
395.65	1111.75
395.84	1158.57
396.04	1200.69
396.23	1039.20
396.42	1057.92
396.62	1046.22
396.81	1128.14
397.00	1196.01
397.19	1214.74
397.39	1193.67
397.58	1226.44
397.77	1249.85
397.97	1228.78
398.16	1256.87
398.35	1172.61
398.55	1193.67
398.74	1284.95
398.93	1308.36
399.12	1294.32
399.32	1336.45
399.51	1343.47
399.70	1430.07
399.90	1301.34
400.09	1331.76
400.28	1352.83
400.47	1352.83
400.67	1413.68
400.86	1427.73
401.05	1406.66
401.24	1413.68
401.44	1411.34
401.63	1420.71
401.82	1607.95
402.01	1540.07
402.21	1528.37
402.40	1516.67
402.59	1565.82
402.78	1596.25
402.97	1423.05
403.17	1446.45
403.36	1647.74
403.55	1561.14
403.74	1666.46
403.93	1586.88
404.13	1724.97
404.32	1636.03
404.51	1586.88
404.70	1650.08
404.89	1640.72
405.09	1657.10
405.28	1753.06
405.47	1696.89
405.66	1792.85
405.85	1722.63
406.05	1680.50
406.24	1778.81
406.43	1863.07
406.62	1720.29
406.81	1799.87
407.00	1760.08
407.20	1750.72
407.39	1748.38
407.58	1811.57
407.77	2017.54
407.96	1919.24
408.15	1912.22
408.34	1980.09
408.54	1973.07
408.73	1933.28
408.92	1977.75
409.11	2022.22
409.30	1944.99
409.49	2047.97
409.68	2010.52
409.87	1961.37
410.07	2076.06
410.26	2097.12
410.45	2031.58
410.64	2064.35
410.83	2172.02
411.02	2122.87
411.21	2232.87
411.40	2157.97
411.59	2246.91
411.78	2179.04
411.98	2153.29
412.17	2275.00
412.36	2319.47
412.55	2265.64
412.74	2429.48
412.93	2324.15
413.12	2382.67
413.31	2600.34
413.50	2368.62
413.69	2558.21
413.88	2579.27
414.07	2572.25
414.26	2551.18
414.45	2576.93
414.64	2438.84
414.83	2619.06
415.02	2726.72
415.22	2637.78
415.41	2878.86
415.60	2789.92
415.79	2719.70
415.98	2832.05
416.17	2850.77
416.36	2766.51
416.55	2815.66
416.74	2857.79
416.93	2832.05
417.12	2946.73
417.31	2909.29
417.50	2829.71
417.69	3038.02
417.88	2998.23
418.07	2953.76
418.26	3028.65
418.45	2953.76
418.64	3075.46
418.83	3166.74
419.02	2972.48
419.21	3150.36
419.39	3218.24
419.58	3117.59
419.77	3197.17
419.96	3199.51
420.15	3150.36
420.34	3218.24
420.53	3258.03
420.72	3279.09
420.91	3281.43
421.10	3279.09
421.29	3426.54
421.48	3267.39
421.67	3400.80
421.86	3321.22
422.05	3412.50
422.24	3344.63
422.43	3372.71
422.61	3534.21
422.80	3449.95
422.99	3442.93
423.18	3510.80
423.37	3536.55
423.56	3492.08
423.75	3499.10
423.94	3456.97
424.13	3192.49
424.32	3243.98
424.50	3482.72
424.69	3522.51
424.88	3492.08
425.07	3494.42
425.26	3396.12
425.45	3520.17
425.64	3562.30
425.83	3520.17
426.01	3506.12
426.20	3478.04
426.39	3517.83
426.58	3506.12
426.77	3534.21
426.96	3545.91
427.15	3632.51
427.33	3482.72
427.52	3487.40
427.71	3660.60
427.90	3651.24
428.09	3571.66
428.28	3749.54
428.46	3618.47
428.65	3822.09
428.84	3946.14
429.03	3854.86
429.22	3691.02
429.40	3698.05
429.59	3733.15
429.78	3639.53
429.97	3712.09
430.16	3684.00
430.34	3684.00
430.53	3737.84
430.72	3831.46
430.91	3737.84
431.10	3894.65
431.28	3967.21
431.47	4102.96
431.66	4177.86
431.85	3955.51
432.03	4156.79
432.22	4329.99
432.41	4149.77
432.60	4067.85
432.79	4215.30
432.97	4067.85
433.16	4154.45
433.35	4161.47
433.54	4187.22
433.72	4161.47
433.91	4154.45
434.10	4114.66
434.28	4182.54
434.47	4320.63
434.66	4273.82
434.85	4360.42
435.03	4294.88
435.22	4374.46
435.41	4606.17
435.59	4491.49
435.78	4442.34
435.97	4423.61
436.16	4374.46
436.34	4456.38
436.53	4557.02
436.72	4648.30
436.90	4482.13
437.09	4547.66
437.28	4479.79
437.46	4650.64
437.65	4545.32
437.84	4683.41
438.02	4606.17
438.21	4751.29
438.40	4552.34
438.58	4753.63
438.77	4842.57
438.96	4882.36
439.14	4966.62
439.33	4952.57
439.52	5071.94
439.70	5001.72
439.89	4997.04
440.08	5081.30
440.26	5144.50
440.45	5095.35
440.63	5167.90
440.82	5268.55
441.01	5188.97
441.19	5350.46
441.38	5383.23
441.57	5320.04
441.75	5343.44
441.94	5612.60
442.12	5542.39
442.31	5628.99
442.50	5746.02
442.68	5397.28
442.87	5516.64
443.05	5600.90
443.24	5554.09
443.43	5727.29
443.61	5753.04
443.80	5813.89
443.98	5643.03
444.17	5481.53
444.35	5549.41
444.54	5893.47
444.73	5760.06
444.91	5757.72
445.10	5867.72
445.28	5603.24
445.47	5612.60
445.65	5715.59
445.84	5830.27
446.02	5797.51
446.21	5919.21
446.39	5797.51
446.58	5900.49
446.77	5827.93
446.95	5724.95
447.14	5865.38
447.32	5973.05
447.51	5881.77
447.69	5825.59
447.88	6064.33
448.06	5820.91
448.25	5856.02
448.43	6040.92
448.62	5970.71
448.80	5895.81
448.99	5809.21
449.17	5949.64
449.36	5921.56
449.54	6078.37
449.73	6333.49
449.91	6202.42
450.10	6162.63
450.28	6319.45
450.46	6321.79
450.65	6384.98
450.83	6136.88
451.02	6200.08
451.20	6417.75
451.39	6310.08
451.57	6258.59
451.76	6293.70
451.94	6342.85
452.13	6392.00
452.31	6427.11
452.49	6356.90
452.68	6476.26
452.86	6464.56
453.05	6441.15
453.23	6565.20
453.42	6504.35
453.60	6408.39
453.78	6466.90
453.97	6443.49
454.15	6340.51
454.34	6558.18
454.52	6789.89
454.70	6513.71
454.89	6773.51
455.07	6789.89
455.26	6752.45
455.44	6703.29
455.62	6717.34
455.81	6834.36
455.99	6759.47
456.17	6984.16
456.36	6885.86
456.54	7258.00
456.73	7073.10
456.91	7276.73
457.09	7173.74
457.28	7442.90
457.46	7136.29
457.64	7124.59
457.83	7211.19
458.01	7000.54
458.19	7417.16
458.38	7330.56
458.56	7375.03
458.74	7485.03
458.93	7335.24
459.11	7356.30
459.29	7360.98
459.48	7370.35
459.66	7400.77
459.84	7290.77
460.03	7517.80
460.21	7400.77
460.39	7482.69
460.57	7384.39
460.76	7562.27
460.94	7550.57
461.12	7599.72
461.31	7655.89
461.49	7761.22
461.67	7613.76
461.85	7700.36
462.04	7889.95
462.22	8276.13
462.40	7936.76
462.59	7859.52
462.77	7866.54
462.95	7683.98
463.13	7882.92
463.32	7873.56
463.50	7882.92
463.68	7875.90
463.86	8077.19
464.05	7864.20
464.23	7992.93
464.41	7936.76
464.59	7756.54
464.78	7974.21
464.96	8198.90
465.14	7939.10
465.32	8152.09
465.50	8245.71
465.69	8259.75
465.87	8224.64
466.05	8271.45
466.23	8219.96
466.41	8266.77
466.60	8547.64
466.78	8315.92
466.96	8163.79
467.14	8388.48
467.32	8222.30
467.51	8566.36
467.69	8177.83
467.87	8545.30
468.05	8493.80
468.23	8362.73
468.41	8168.47
468.60	8468.06
468.78	8631.90
468.96	8580.40
469.14	8657.64
469.32	8847.22
469.50	8538.27
469.69	8737.22
469.87	8746.58
470.05	8650.62
470.23	8807.44
470.41	8879.99
470.59	8931.48
470.77	8772.33
470.95	8973.61
471.14	9055.53
471.32	9039.15
471.50	9153.84
471.68	9287.25
471.86	9224.05
472.04	9252.14
472.22	9397.25
472.40	9034.47
472.58	9312.99
472.77	9336.40
472.95	9312.99
473.13	9790.46
473.31	9528.32
473.49	9444.06
473.67	9294.27
473.85	9462.79
474.03	9912.17
474.21	9661.73
474.39	9870.04
474.57	9682.80
474.75	9757.69
474.93	9886.42
475.12	9956.64
475.30	10090.05
475.48	9954.30
475.66	10043.24
475.84	10225.80
476.02	10434.11
476.20	10225.80
476.38	10377.94
476.56	10497.30
476.74	10506.66
476.92	10476.24
477.10	10546.45
477.28	10579.22
477.46	11033.29
477.64	10951.37
477.82	11047.33
478.00	11007.54
478.18	11052.01
478.36	11276.70
478.54	11318.83
478.72	11325.85
478.90	11370.32
479.08	11698.00
479.26	11435.86
479.44	11571.61
479.62	11873.54
479.80	11817.36
479.98	11969.50
480.16	12149.72
480.34	12105.25
480.52	12477.40
480.70	12241.00
480.88	12063.12
481.06	12451.65
481.24	12348.67
481.41	12638.89
481.59	13069.55
481.77	12774.64
481.95	12912.74
482.13	12996.99
482.31	12854.22
482.49	13413.61
482.67	13284.88
482.85	13540.00
483.03	13650.00
483.21	13654.69
483.39	13994.06
483.57	13898.10
483.74	14085.34
483.92	14169.60
484.10	14106.41
484.28	14239.82
484.46	14307.69
484.64	14621.33
484.82	14616.65
485.00	14750.06
485.18	14855.38
485.35	15105.82
485.53	14670.48
485.71	14899.85
485.89	15279.02
486.07	15208.80
486.25	15054.33
486.43	15269.66
486.61	15543.50
486.78	16070.12
486.96	15538.82
487.14	15990.54
487.32	15941.39
487.50	16177.78
487.68	16177.78
487.85	16484.39
488.03	16753.55
488.21	16987.61
488.39	16704.40
488.57	16828.45
488.75	16922.07
488.92	17209.96
489.10	17579.76
489.28	17638.28
489.46	17745.94
489.64	17516.57
489.81	17977.65
489.99	18167.24
490.17	18354.48
490.35	18359.16
490.53	18420.02
490.70	18270.22
490.88	18492.57
491.06	18806.20
491.24	18892.80
491.41	19056.64
491.59	18902.17
491.77	18773.44
491.95	19154.94
492.13	19721.35
492.30	19520.07
492.48	19609.01
492.66	19962.43
492.84	19611.35
493.01	20133.29
493.19	20011.58
493.37	20372.02
493.54	20395.43
493.72	20463.30
493.90	20383.73
494.08	20868.22
494.25	20659.91
494.43	20950.14
494.61	21041.42
494.79	21113.97
494.96	21123.33
495.14	21376.11
495.32	21310.58
495.49	21713.15
495.67	21757.62
495.85	21963.59
496.02	21874.65
496.20	22092.32
496.38	21893.37
496.55	22434.03
496.73	22953.63
496.91	22466.80
497.09	22597.87
497.26	22860.01
497.44	22892.78
497.62	22686.81
497.79	23482.59
497.97	22794.48
498.14	23365.57
498.32	23405.36
498.50	23592.60
498.67	23410.04
498.85	23737.71
499.03	23854.74
499.20	24025.60
499.38	24236.25
499.56	23861.76
499.73	23976.45
499.91	23995.17
500.08	24418.81
500.26	24133.26
500.44	24243.27
500.61	24694.99
500.79	24257.31
500.97	24741.80
501.14	24959.47
501.32	24992.24
501.49	24992.24
501.67	25123.31
501.84	25130.33
502.02	25453.33
502.20	25294.17
502.37	25708.44
502.55	25525.88
502.72	25586.74
502.90	25701.42
503.07	25509.50
503.25	26017.40
503.43	25722.49
503.60	25919.09
503.78	26377.84
503.95	25832.49
504.13	26106.34
504.30	26426.99
504.48	26443.37
504.65	26452.73
504.83	26738.28
505.01	27051.91
505.18	26363.79
505.36	26757.00
505.53	26969.99
505.71	27391.29
505.88	27260.22
506.06	27021.48
506.23	27197.02
506.41	27143.19
506.58	27197.02
506.76	27651.09
506.93	27761.09
507.11	27550.45
507.28	27433.42
507.46	27634.71
507.63	27686.20
507.81	27524.70
507.98	27723.65
508.16	28018.55
508.33	28238.56
508.50	27885.14
508.68	28711.35
508.85	28652.84
509.03	28606.03
509.20	28723.05
509.38	28542.83
509.55	28589.64
509.73	28833.06
509.90	28912.64
510.08	28706.67
510.25	28882.21
510.42	29439.26
510.60	29380.74
510.77	29282.44
510.95	29488.41
511.12	29350.32
511.30	29556.28
511.47	29846.51
511.64	29914.39
511.82	30078.22
511.99	29675.65
512.17	29993.97
512.34	29567.99
512.51	29909.71
512.69	30150.78
512.86	30728.89
513.04	30644.63
513.21	30164.82
513.38	30417.60
513.56	30417.60
513.73	30394.20
513.90	30747.62
514.08	30677.40
514.25	30672.72
514.43	30740.60
514.60	30869.33
514.77	31051.89
514.95	31094.02
515.12	31075.29
515.29	31161.89
515.47	31494.25
515.64	31433.39
515.81	31414.67
515.99	31391.26
516.16	31622.98
516.33	31260.20
516.51	31538.72
516.68	31082.31
516.85	31562.12
517.03	31498.93
517.20	31639.36
517.37	32194.07
517.54	31655.75
517.72	32346.20
517.89	31786.82
518.06	31800.86
518.24	31749.37
518.41	31868.73
518.58	32053.64
518.75	32367.27
518.93	32620.05
519.10	32364.93
519.27	32332.16
519.45	32598.98
519.62	32596.64
519.79	32573.24
519.96	32966.45
520.14	32788.56
520.31	32692.60
520.48	33010.92
520.65	33053.05
520.83	33525.83
521.00	33083.47
521.17	33617.11
521.34	33261.35
521.52	33268.37
521.69	33729.46
521.86	33872.23
522.03	33699.03
522.20	33596.05
522.38	34071.18
522.55	33944.79
522.72	34078.20
522.89	33827.76
523.07	34094.58
523.24	34146.08
523.41	34298.21
523.58	33972.88
523.75	34483.11
523.92	34553.33
524.10	34735.89
524.27	35075.27
524.44	34752.27
524.61	34707.80
524.78	34834.19
524.96	34562.69
525.13	35211.02
525.30	35124.42
525.47	35285.92
525.64	34841.21
525.81	35058.88
525.98	34836.53
526.16	35204.00
526.33	34724.19
526.50	35360.81
526.67	35412.31
526.84	35250.81
527.01	35377.20
527.18	35232.08
527.36	35747.00
527.53	35791.47
527.70	35864.03
527.87	35779.77
528.04	35660.40
528.21	36030.21
528.38	35637.00
528.55	35978.72
528.72	36369.58
528.89	36301.71
529.07	36392.99
529.24	36158.94
529.41	36385.97
529.58	35711.89
529.75	36594.28
529.92	36322.77
530.09	36781.52
530.26	36498.31
530.43	36788.54
530.60	36671.51
530.77	36156.60
530.94	37078.77
531.11	36636.41
531.28	36727.69
531.46	36538.10
531.63	37013.23
531.80	36802.58
531.97	37062.38
532.14	36484.27
532.31	37139.62
532.48	37361.97
532.65	37160.69
532.82	37134.94
532.99	36994.51
533.16	37078.77
533.33	37429.85
533.50	37640.50
533.67	37581.98
533.84	37280.05
534.01	37530.49
534.18	37329.20
534.35	37797.31
534.52	37624.11
534.69	37713.05
534.86	37923.70
535.03	37855.82
535.20	38188.18
535.37	38398.83
535.54	38272.44
535.71	38312.23
535.88	38370.74
536.05	37823.06
536.22	38057.11
536.38	38202.22
536.55	38108.60
536.72	38534.58
536.89	38431.60
537.06	37940.08
537.23	38445.64
537.40	38391.81
537.57	38733.53
537.74	38787.36
537.91	38944.17
538.08	38937.15
538.25	38188.18
538.42	38738.21
538.59	39061.20
538.75	38756.93
538.92	38934.81
539.09	38721.82
539.26	38906.73
539.43	39302.28
539.60	39068.22
539.77	39316.32
539.94	39145.46
540.11	39316.32
540.28	39152.48
540.44	39147.80
540.61	39229.72
540.78	39377.17
540.95	39239.08
541.12	39093.97
541.29	39288.23
541.46	39335.04
541.62	39440.37
541.79	39615.91
541.96	39402.92
542.13	39171.21
542.30	39922.52
542.47	39646.33
542.63	39793.79
542.80	39978.69
542.97	40231.47
543.14	40105.08
543.31	40165.93
543.48	40034.86
543.64	40327.43
543.81	40381.26
543.98	40444.46
544.15	40198.70
544.32	40465.52
544.48	41127.89
544.65	40896.18
544.82	40458.50
544.99	40336.79
545.16	40559.14
545.32	40610.64
545.49	41160.66
545.66	41109.17
545.83	40753.41
546.00	41188.75
546.16	40966.40
546.33	40907.88
546.50	40561.48
546.67	40910.22
546.83	40788.52
547.00	41153.64
547.17	40854.05
547.34	40811.92
547.50	41212.15
547.67	41668.56
547.84	41408.76
548.00	41216.83
548.17	41200.45
548.34	41287.05
548.51	40954.69
548.67	41373.65
548.84	41844.10
549.01	41425.14
549.18	41289.39
549.34	41794.95
549.51	41373.65
549.68	41539.83
549.84	41617.07
550.01	41918.99
550.18	41724.73
550.34	41682.60
550.51	41654.51
550.68	41876.86
550.84	41563.23
551.01	41958.78
551.18	41490.68
551.34	41743.45
551.51	41951.76
551.68	41633.45
551.84	41893.25
552.01	41497.70
552.18	42438.59
552.34	41731.75
552.51	42351.99
552.68	42014.96
552.84	42368.38
553.01	42464.34
553.18	42625.84
553.34	41954.10
553.51	42199.86
553.67	42419.87
553.84	41956.44
554.01	42703.07
554.17	42780.31
554.34	42401.14
554.51	42581.37
554.67	42309.86
554.84	42417.53
555.00	42422.21
555.17	42408.17
555.33	42553.28
555.50	42312.20
555.67	42679.67
555.83	42485.40
556.00	42525.19
556.16	42946.49
556.33	42637.54
556.50	42829.46
556.66	42567.32
556.83	42459.66
556.99	42918.40
557.16	43220.33
557.32	42883.30
557.49	43189.91
557.65	42431.57
557.82	42806.06
557.98	43133.73
558.15	43215.65
558.32	43192.25
558.48	42897.34
558.65	42698.39
558.81	43229.69
558.98	43072.88
559.14	43409.92
559.31	43056.50
559.47	42717.12
559.64	43470.77
559.80	43164.16
559.97	43262.46
560.13	42974.58
560.30	43398.21
560.46	43316.29
560.63	43381.83
560.79	43290.55
560.96	43381.83
561.12	43241.40
561.29	43306.93
561.45	43782.06
561.61	43512.90
561.78	43173.52
561.94	43199.27
562.11	43456.73
562.27	43878.02
562.44	43145.44
562.60	43524.60
562.77	43344.38
562.93	43611.20
563.10	43503.54
563.26	43370.13
563.42	43784.40
563.59	43615.88
563.75	43445.02
563.92	44093.35
564.08	43559.71
564.24	44065.27
564.41	43723.55
564.57	44065.27
564.74	43658.01
564.90	43735.25
565.07	43580.78
565.23	43213.31
565.39	44123.78
565.56	43742.27
565.72	43473.11
565.88	43950.58
566.05	44013.77
566.21	44039.52
566.38	43899.09
566.54	43943.56
566.70	44304.00
566.87	44376.56
567.03	43807.81
567.19	44341.45
567.36	43938.88
567.52	43927.17
567.68	44395.28
567.85	43882.70
568.01	44002.07
568.17	43849.94
568.34	43934.20
568.50	43885.04
568.66	43875.68
568.83	44261.87
568.99	43899.09
569.15	43917.81
569.32	43929.51
569.48	43798.44
569.64	44694.87
569.81	44608.27
569.97	44217.40
570.13	44067.61
570.30	44100.37
570.46	43910.79
570.62	43971.64
570.78	43978.67
570.95	44191.65
571.11	44535.71
571.27	44285.28
571.43	44168.25
571.60	44481.88
571.76	44069.95
571.92	43878.02
572.09	44170.59
572.25	44268.89
572.41	43934.20
572.57	44243.15
572.74	44828.28
572.90	43948.24
573.06	44559.12
573.22	44222.08
573.38	44683.17
573.55	44275.91
573.71	44481.88
573.87	44421.03
574.03	44156.55
574.20	44360.17
574.36	44074.63
574.52	44516.99
574.68	44502.95
574.84	44439.75
575.01	44095.69
575.17	44395.28
575.33	44664.44
575.49	44081.65
575.65	44973.39
575.82	44364.85
575.98	44758.06
576.14	44830.62
576.30	44741.68
576.46	43770.36
576.62	43952.92
576.79	44617.63
576.95	43938.88
577.11	44268.89
577.27	44325.07
577.43	44566.14
577.59	44556.78
577.75	44383.58
577.92	43702.48
578.08	44163.57
578.24	43803.13
578.40	44215.06
578.56	44442.09
578.72	44491.24
578.88	44453.79
579.04	44797.85
579.21	44123.78
579.37	44385.92
579.53	44329.75
579.69	43861.64
579.85	44500.61
580.01	44671.46
580.17	44474.86
580.33	45010.84
580.49	44481.88
580.65	44374.22
580.82	44528.69
580.98	44278.25
581.14	44151.87
581.30	44912.54
581.46	44589.55
581.62	44538.05
581.78	44516.99
581.94	44760.40
582.10	44343.79
582.26	44453.79
582.42	44299.32
582.58	44744.02
582.74	44456.14
582.90	44577.84
583.06	44423.37
583.22	44858.71
583.38	44830.62
583.54	44615.29
583.70	44376.56
583.86	44313.36
584.02	44465.50
584.18	44296.98
584.34	44521.67
584.50	44669.12
584.66	44547.42
584.82	44374.22
584.98	44837.64
585.14	44966.37
585.30	44580.18
585.46	44626.99
585.62	44727.64
585.78	44598.91
585.94	44388.26
586.10	44603.59
586.26	44903.18
586.42	44683.17
586.58	44877.43
586.74	44545.08
586.90	44196.34
587.06	44460.82
587.22	44353.15
587.38	44156.55
587.54	45146.59
587.70	44907.86
587.86	44807.22
588.02	44755.72
588.18	44542.74
588.34	44383.58
588.49	44376.56
588.65	44240.81
588.81	44584.86
588.97	44554.44
589.13	44451.45
589.29	44601.25
589.45	44980.42
589.61	44484.22
589.77	44769.77
589.93	44556.78
590.08	45254.26
590.24	44318.04
