SpectraSuite Data File
++++++++++++++++++++++++++++++++++++
Date: Fri Oct 25 11:33:45 EDT 2013
User: price-jones
Dark Spectrum Present: No
Reference Spectrum Present: No
Number of Sampled Component Spectra: 1
Spectrometers: USB2+H05261
Integration Time (usec): 100000 (USB2+H05261)
Spectra Averaged: 1 (USB2+H05261)
Boxcar Smoothing: 0 (USB2+H05261)
Correct for Electrical Dark: No (USB2+H05261)
Strobe/Lamp Enabled: No (USB2+H05261)
Correct for Detector Non-linearity: No (USB2+H05261)
Correct for Stray Light: No (USB2+H05261)
Number of Pixels in Processed Spectrum: 2048
>>>>>Begin Processed Spectral Data<<<<<
365.73	339.38
365.92	339.38
366.12	339.38
366.32	248.10
366.52	161.50
366.72	224.69
366.91	201.29
367.11	138.09
367.31	201.29
367.51	175.54
367.70	147.45
367.90	124.05
368.10	194.26
368.30	126.39
368.49	196.60
368.69	283.20
368.89	166.18
369.09	156.82
369.28	201.29
369.48	210.65
369.68	187.24
369.87	149.79
370.07	224.69
370.27	231.71
370.47	351.08
370.66	463.43
370.86	575.77
371.06	510.24
371.25	559.39
371.45	470.45
371.65	676.41
371.84	573.43
372.04	564.07
372.24	599.18
372.44	641.31
372.63	643.65
372.83	592.16
373.03	517.26
373.22	589.82
373.42	606.20
373.62	526.62
373.81	641.31
374.01	645.99
374.21	629.60
374.40	688.12
374.60	674.07
374.79	608.54
374.99	681.10
375.19	622.58
375.38	643.65
375.58	655.35
375.78	702.16
375.97	608.54
376.17	763.01
376.37	613.22
376.56	662.37
376.76	641.31
376.95	653.01
377.15	664.71
377.35	655.35
377.54	662.37
377.74	664.71
377.93	655.35
378.13	737.27
378.33	690.46
378.52	702.16
378.72	676.41
378.91	791.10
379.11	681.10
379.31	671.73
379.50	627.26
379.70	774.72
379.89	866.00
380.09	634.29
380.28	730.25
380.48	765.36
380.68	690.46
380.87	732.59
381.07	763.01
381.26	739.61
381.46	732.59
381.65	842.59
381.85	772.38
382.04	812.17
382.24	800.46
382.43	699.82
382.63	816.85
382.83	758.33
383.02	837.91
383.22	809.83
383.41	805.14
383.61	800.46
383.80	823.87
384.00	748.97
384.19	777.06
384.39	858.98
384.58	786.42
384.78	858.98
384.97	861.32
385.17	866.00
385.36	800.46
385.56	856.64
385.75	877.70
385.95	847.27
386.14	830.89
386.34	828.55
386.53	819.19
386.72	830.89
386.92	943.24
387.11	894.08
387.31	851.96
387.50	896.43
387.70	889.40
387.89	903.45
388.09	929.19
388.28	877.70
388.48	1018.13
388.67	990.05
388.86	987.71
389.06	915.15
389.25	1022.81
389.45	971.32
389.64	992.39
389.84	954.94
390.03	1022.81
390.22	908.13
390.42	957.28
390.61	1001.75
390.81	973.66
391.00	1081.33
391.19	1022.81
391.39	835.57
391.58	1067.28
391.78	1064.94
391.97	1015.79
392.16	1064.94
392.36	1036.86
392.55	1053.24
392.75	1020.47
392.94	1048.56
393.13	1107.07
393.33	1067.28
393.52	1125.80
393.71	1088.35
393.91	1071.97
394.10	1114.10
394.29	1067.28
394.49	1011.11
394.68	1107.07
394.88	1177.29
395.07	1111.75
395.26	1095.37
395.46	1170.27
395.65	1249.85
395.84	1196.01
396.04	1303.68
396.23	1132.82
396.42	1179.63
396.62	1287.29
396.81	1214.74
397.00	1186.65
397.19	1249.85
397.39	1226.44
397.58	1221.76
397.77	1256.87
397.97	1291.98
398.16	1336.45
398.35	1338.79
398.55	1228.78
398.74	1352.83
398.93	1378.58
399.12	1266.23
399.32	1301.34
399.51	1249.85
399.70	1362.19
399.90	1343.47
400.09	1371.55
400.28	1430.07
400.47	1348.15
400.67	1507.30
400.86	1511.99
401.05	1439.43
401.24	1514.33
401.44	1483.90
401.63	1394.96
401.82	1406.66
402.01	1441.77
402.21	1460.49
402.40	1446.45
402.59	1469.86
402.78	1430.07
402.97	1577.52
403.17	1502.62
403.36	1523.69
403.55	1668.80
403.74	1664.12
403.93	1577.52
404.13	1673.48
404.32	1680.50
404.51	1619.65
404.70	1664.12
404.89	1661.78
405.09	1645.40
405.28	1626.67
405.47	1736.68
405.66	1813.92
405.85	1727.32
406.05	1732.00
406.24	1715.61
406.43	1706.25
406.62	1760.08
406.81	1905.20
407.00	1771.79
407.20	1729.66
407.39	1830.30
407.58	1820.94
407.77	1914.56
407.96	1956.69
408.15	1977.75
408.34	1968.39
408.54	2019.88
408.73	1923.92
408.92	1926.26
409.11	1886.47
409.30	2012.86
409.49	1952.01
409.68	2001.16
409.87	2080.74
410.07	2015.20
410.26	1975.41
410.45	2047.97
410.64	2038.61
410.83	2059.67
411.02	2132.23
411.21	2195.42
411.40	2249.25
411.59	2204.78
411.78	2270.32
411.98	2223.51
412.17	2200.10
412.36	2319.47
412.55	2277.34
412.74	2267.98
412.93	2469.27
413.12	2249.25
413.31	2359.26
413.50	2406.07
413.69	2382.67
413.88	2464.58
414.07	2520.76
414.26	2480.97
414.45	2492.67
414.64	2581.61
414.83	2569.91
415.02	2579.27
415.22	2637.78
415.41	2717.36
415.60	2672.89
415.79	2698.64
415.98	2771.19
416.17	2698.64
416.36	2806.30
416.55	2764.17
416.74	2818.00
416.93	2736.09
417.12	2904.60
417.31	2899.92
417.50	2839.07
417.69	2925.67
417.88	2850.77
418.07	2899.92
418.26	2965.46
418.45	2951.42
418.64	2984.18
418.83	2986.52
419.02	3101.21
419.21	3220.58
419.39	3176.11
419.58	3084.83
419.77	3023.97
419.96	3251.00
420.15	3152.70
420.34	3180.79
420.53	3314.20
420.72	3260.37
420.91	3229.94
421.10	3351.65
421.29	3213.56
421.48	3232.28
421.67	3300.16
421.86	3391.44
422.05	3227.60
422.24	3328.24
422.43	3365.69
422.61	3407.82
422.80	3344.63
422.99	3375.05
423.18	3363.35
423.37	3433.57
423.56	3330.58
423.75	3424.20
423.94	3375.05
424.13	3185.47
424.32	3251.00
424.50	3623.15
424.69	3524.85
424.88	3473.36
425.07	3433.57
425.26	3398.46
425.45	3468.67
425.64	3400.80
425.83	3552.93
426.01	3536.55
426.20	3485.06
426.39	3386.76
426.58	3466.33
426.77	3552.93
426.96	3534.21
427.15	3545.91
427.33	3506.12
427.52	3583.36
427.71	3541.23
427.90	3641.87
428.09	3705.07
428.28	3669.96
428.46	3714.43
428.65	3653.58
428.84	3829.12
429.03	3838.48
429.22	3747.20
429.40	3794.01
429.59	3803.37
429.78	3606.77
429.97	3613.79
430.16	3796.35
430.34	3861.88
430.53	3941.46
430.72	3850.18
430.91	3878.27
431.10	3885.29
431.28	3948.48
431.47	3899.33
431.66	4098.28
431.85	3953.16
432.03	4053.81
432.22	4152.11
432.41	3957.85
432.60	4039.76
432.79	4149.77
432.97	4287.86
433.16	4159.13
433.35	4128.70
433.54	3995.29
433.72	4128.70
433.91	4147.43
434.10	4306.59
434.28	4360.42
434.47	4304.25
434.66	4311.27
434.85	4278.50
435.03	4432.97
435.22	4322.97
435.41	4517.23
435.59	4231.69
435.78	4514.89
435.97	4339.35
436.16	4407.23
436.34	4365.10
436.53	4344.03
436.72	4564.04
436.90	4594.47
437.09	4477.44
437.28	4458.72
437.46	4559.36
437.65	4554.68
437.84	4638.94
438.02	4652.98
438.21	4648.30
438.40	4477.44
438.58	4648.30
438.77	4823.84
438.96	4692.77
439.14	4889.38
439.33	4884.70
439.52	4800.44
439.70	4823.84
439.89	4964.28
440.08	5100.03
440.26	5039.17
440.45	5046.20
440.63	5093.01
440.82	5170.24
441.01	5135.14
441.19	5109.39
441.38	5102.37
441.57	5320.04
441.75	5259.18
441.94	5263.86
442.12	5455.79
442.31	5357.49
442.50	5373.87
442.68	5474.51
442.87	5423.02
443.05	5640.69
443.24	5561.11
443.43	5488.56
443.61	5570.48
443.80	5802.19
443.98	5526.00
444.17	5376.21
444.35	5518.98
444.54	5764.74
444.73	5724.95
444.91	5720.27
445.10	5593.88
445.28	5640.69
445.47	5563.45
445.65	5650.05
445.84	5706.23
446.02	5825.59
446.21	5762.40
446.39	5736.65
446.58	5865.38
446.77	5746.02
446.95	5577.50
447.14	5820.91
447.32	5865.38
447.51	5870.06
447.69	5851.34
447.88	5841.98
448.06	5797.51
448.25	5872.40
448.43	5748.36
448.62	5774.10
448.80	5746.02
448.99	5788.14
449.17	6017.52
449.36	5888.79
449.54	5984.75
449.73	6069.01
449.91	6122.84
450.10	5891.13
450.28	6106.46
450.46	6244.55
450.65	6157.95
450.83	6092.41
451.02	6282.00
451.20	6122.84
451.39	6272.64
451.57	6267.95
451.76	6134.54
451.94	6237.53
452.13	6429.45
452.31	6265.61
452.49	6160.29
452.68	6335.83
452.86	6349.87
453.05	6340.51
453.23	6494.99
453.42	6263.27
453.60	6389.66
453.78	6445.84
453.97	6553.50
454.15	6356.90
454.34	6279.66
454.52	6520.73
454.70	6464.56
454.89	6527.75
455.07	6651.80
455.26	6607.33
455.44	6881.18
455.62	6642.44
455.81	6817.98
455.99	6794.58
456.17	6635.42
456.36	6782.87
456.54	6930.33
456.73	6768.83
456.91	7108.21
457.09	6956.07
457.28	7101.19
457.46	6998.20
457.64	7012.24
457.83	7162.04
458.01	6920.96
458.19	7145.66
458.38	7061.40
458.56	7157.36
458.74	7218.21
458.93	7140.97
459.11	7199.49
459.29	7349.28
459.48	7246.30
459.66	7208.85
459.84	7494.40
460.03	7360.98
460.21	7419.50
460.39	7372.69
460.57	7363.33
460.76	7576.31
460.94	7543.55
461.12	7541.21
461.31	7318.86
461.49	7468.65
461.67	7482.69
461.85	7620.78
462.04	7463.97
462.22	8135.70
462.40	7779.94
462.59	7637.17
462.77	7618.44
462.95	7845.48
463.13	7882.92
463.32	7878.24
463.50	7913.35
463.68	7913.35
463.86	7793.98
464.05	7943.78
464.23	8021.02
464.41	7941.44
464.59	7810.37
464.78	8131.02
464.96	8002.29
465.14	8032.72
465.32	8238.69
465.50	8285.50
465.69	8229.32
465.87	7978.89
466.05	8112.30
466.23	8077.19
466.41	8159.11
466.60	8498.49
466.78	8107.62
466.96	8257.41
467.14	8264.43
467.32	8257.41
467.51	8535.93
467.69	8315.92
467.87	8297.20
468.05	8482.10
468.23	8425.93
468.41	8285.50
468.60	8491.46
468.78	8456.36
468.96	8489.12
469.14	8676.37
469.32	8617.85
469.50	8521.89
469.69	8718.50
469.87	8774.67
470.05	8587.43
470.23	8863.61
470.41	8917.44
470.59	8826.16
470.77	8788.71
470.95	8718.50
471.14	8975.95
471.32	8835.52
471.50	8840.20
471.68	9039.15
471.86	9041.49
472.04	9081.28
472.22	9322.35
472.40	9039.15
472.58	9268.52
472.77	9247.46
472.95	9364.48
473.13	9834.93
473.31	9568.11
473.49	9420.66
473.67	9334.06
473.85	9593.86
474.03	9809.19
474.21	9888.76
474.39	9731.95
474.57	10106.43
474.75	9968.34
474.93	10036.22
475.12	9921.53
475.30	10197.71
475.48	10078.35
475.66	10167.29
475.84	10015.15
476.02	10083.03
476.20	10106.43
476.38	10499.64
476.56	10801.57
476.74	10525.39
476.92	10501.98
477.10	10600.29
477.28	10712.63
477.46	10689.23
477.64	10918.60
477.82	10939.66
478.00	11353.94
478.18	10958.39
478.36	11389.05
478.54	11309.47
478.72	11424.15
478.90	11683.95
479.08	11854.81
479.26	11756.51
479.44	11576.29
479.62	11838.43
479.80	11922.69
479.98	11927.37
480.16	12180.15
480.34	12257.39
480.52	12306.54
480.70	12414.20
480.88	12552.29
481.06	12395.48
481.24	12688.04
481.41	12739.54
481.59	12767.62
481.77	12732.51
481.95	12800.39
482.13	13099.98
482.31	13085.94
482.49	13429.99
482.67	13532.98
482.85	13584.47
483.03	13727.24
483.21	13621.92
483.39	13860.65
483.57	13975.34
483.74	13862.99
483.92	13963.64
484.10	14162.58
484.28	14178.97
484.46	14417.70
484.64	14518.34
484.82	14326.42
485.00	14956.02
485.18	14958.36
485.35	15105.82
485.53	15056.67
485.71	15246.25
485.89	15597.33
486.07	15286.04
486.25	15487.32
486.43	15623.08
486.61	15662.86
486.78	15971.82
486.96	15829.04
487.14	16079.48
487.32	16086.50
487.50	16456.31
487.68	16388.43
487.85	16582.70
488.03	16428.22
488.21	16982.93
488.39	17074.21
488.57	17139.74
488.75	17172.51
488.92	17680.41
489.10	17336.35
489.28	17432.31
489.46	17893.40
489.64	17692.11
489.81	17989.36
489.99	18228.09
490.17	18281.92
490.35	18541.72
490.53	18518.32
490.70	18721.95
490.88	18827.27
491.06	19054.30
491.24	18956.00
491.41	19091.75
491.59	19386.66
491.77	19157.28
491.95	19548.15
492.13	19660.50
492.30	19616.03
492.48	19859.45
492.66	19819.66
492.84	20046.69
493.01	20563.95
493.19	20184.78
493.37	20386.07
493.54	20659.91
493.72	20879.92
493.90	20695.02
494.08	20802.68
494.25	21050.78
494.43	20800.34
494.61	21542.29
494.79	21170.15
494.96	21397.18
495.14	21259.09
495.32	21544.63
495.49	21970.61
495.67	21692.08
495.85	22190.62
496.02	22277.22
496.20	22335.73
496.38	22380.20
496.55	22431.69
496.73	23073.00
496.91	22906.82
497.09	22632.98
497.26	23007.47
497.44	22689.15
497.62	23028.53
497.79	23779.84
497.97	23314.08
498.14	23503.66
498.32	23623.03
498.50	23620.69
498.67	24114.54
498.85	24072.41
499.03	24379.02
499.20	24437.53
499.38	24601.37
499.56	24479.66
499.73	24765.21
499.91	24687.97
500.08	24898.62
500.26	24748.82
500.44	24833.08
500.61	25053.09
500.79	24758.19
500.97	25390.13
501.14	25539.93
501.32	25223.95
501.49	25385.45
501.67	25532.90
501.84	25673.34
502.02	25752.91
502.20	25879.30
502.37	26206.98
502.55	25584.40
502.72	26230.38
502.90	26153.15
503.07	25883.98
503.25	25759.94
503.43	26178.89
503.60	26316.98
503.78	26742.96
503.95	26176.55
504.13	26567.42
504.30	27131.49
504.48	26993.40
504.65	26885.73
504.83	27103.40
505.01	27505.98
505.18	27087.02
505.36	27412.35
505.53	27290.65
505.71	27613.64
505.88	27398.31
506.06	27335.12
506.23	27873.44
506.41	27583.21
506.58	27733.01
506.76	27632.36
506.93	27840.67
507.11	28170.69
507.28	28074.73
507.46	28430.49
507.63	28182.39
507.81	28730.08
507.98	27934.29
508.16	28444.53
508.33	28662.20
508.50	28491.34
508.68	28844.76
508.85	28978.17
509.03	29219.25
509.20	28884.55
509.38	29282.44
509.55	29277.76
509.73	29635.86
509.90	29390.11
510.08	29406.49
510.25	29661.61
510.42	29757.57
510.60	29898.00
510.77	29853.53
510.95	29846.51
511.12	30085.25
511.30	30010.35
511.47	29993.97
511.64	30368.45
511.82	30754.64
511.99	30246.74
512.17	30340.36
512.34	30553.35
512.51	30911.46
512.69	30822.51
512.86	30735.92
513.04	31335.09
513.21	30946.56
513.38	30871.67
513.56	31475.52
513.73	31009.76
513.90	31552.76
514.08	31292.96
514.25	31688.51
514.43	31620.64
514.60	32072.36
514.77	31608.93
514.95	32016.19
515.12	31531.70
515.29	31859.37
515.47	32240.88
515.64	32137.90
515.81	31978.74
515.99	32409.40
516.16	32615.37
516.33	32472.59
516.51	32650.47
516.68	32624.73
516.85	32383.65
517.03	32727.71
517.20	32879.85
517.37	32624.73
517.54	32507.70
517.72	33188.80
517.89	33305.82
518.06	32868.14
518.24	33380.72
518.41	33626.48
518.58	32847.08
518.75	33125.60
518.93	33663.93
519.10	33301.14
519.27	33806.70
519.45	33905.00
519.62	33921.38
519.79	33893.30
519.96	33703.71
520.14	34270.12
520.31	33935.43
520.48	33996.28
520.65	34167.14
520.83	34871.64
521.00	34445.66
521.17	34572.05
521.34	34389.49
521.52	34312.25
521.69	34726.53
521.86	34792.06
522.03	34815.47
522.20	35117.40
522.38	35211.02
522.55	35093.99
522.72	35037.82
522.89	35199.32
523.07	35718.92
523.24	35152.51
523.41	35370.18
523.58	35204.00
523.75	35601.89
523.92	35519.97
524.10	35723.60
524.27	35559.76
524.44	35845.30
524.61	35732.96
524.78	35831.26
524.96	36067.66
525.13	36100.42
525.30	36105.10
525.47	36275.96
525.64	35936.59
525.81	36432.78
525.98	36407.03
526.16	35967.01
526.33	36095.74
526.50	36411.71
526.67	36275.96
526.84	36591.94
527.01	36458.52
527.18	36968.76
527.36	37486.02
527.53	36671.51
527.70	37333.89
527.87	37113.87
528.04	37029.62
528.21	37230.90
528.38	37207.50
528.55	37455.59
528.72	37069.40
528.89	37294.10
529.07	37603.05
529.24	37167.71
529.41	38047.75
529.58	37834.76
529.75	37549.21
529.92	37759.86
530.09	37701.35
530.26	37914.34
530.43	37748.16
530.60	37610.07
530.77	37603.05
530.94	38117.96
531.11	38204.56
531.28	37944.76
531.46	38230.31
531.63	37687.31
531.80	38550.96
531.97	38586.07
532.14	38005.62
532.31	38405.85
532.48	38656.29
532.65	38911.41
532.82	38656.29
532.99	38593.09
533.16	38494.79
533.33	38632.88
533.50	38665.65
533.67	38770.97
533.84	38792.04
534.01	38841.19
534.18	39136.10
534.35	39203.97
534.52	39126.74
534.69	39859.32
534.86	39489.52
535.03	39510.58
535.20	39398.24
535.37	39431.01
535.54	39995.07
535.71	38960.56
535.88	39721.23
536.05	39878.05
536.22	40114.44
536.38	39903.79
536.55	39936.56
536.72	39751.66
536.89	39253.12
537.06	39445.05
537.23	40126.14
537.40	40076.99
537.57	39688.46
537.74	39419.30
537.91	40294.66
538.08	40165.93
538.25	40058.27
538.42	40219.77
538.59	40914.90
538.75	40542.76
538.92	40451.48
539.09	40620.00
539.26	40531.06
539.43	40652.76
539.60	40645.74
539.77	40704.26
539.94	40790.86
540.11	40989.80
540.28	40708.94
540.44	40687.87
540.61	40718.30
540.78	40914.90
540.95	41015.55
541.12	41298.75
541.29	40952.35
541.46	41123.21
541.62	41413.44
541.79	41413.44
541.96	40966.40
542.13	41230.88
542.30	41476.63
542.47	41610.04
542.63	41500.04
542.80	41773.88
542.97	42000.91
543.14	42010.28
543.31	42043.04
543.48	41764.52
543.64	42204.54
543.81	42010.28
543.98	41984.53
544.15	42363.70
544.32	42241.99
544.48	42579.03
544.65	42115.60
544.82	42251.35
544.99	41825.37
545.16	42169.43
545.32	42335.61
545.49	42611.79
545.66	42934.79
545.83	42834.14
546.00	42784.99
546.16	42466.68
546.33	42354.33
546.50	42639.88
546.67	42897.34
546.83	42302.84
547.00	42412.85
547.17	42906.70
547.34	42892.66
547.50	43531.62
547.67	43061.18
547.84	42799.04
548.00	43136.07
548.17	43667.37
548.34	43295.23
548.51	43559.71
548.67	43538.65
548.84	43210.97
549.01	43337.36
549.18	43636.95
549.34	43510.56
549.51	43435.66
549.68	43707.16
549.84	43805.47
550.01	43672.06
550.18	43477.79
550.34	43480.13
550.51	43789.08
550.68	44151.87
550.84	43475.45
551.01	43899.09
551.18	43819.51
551.34	43461.41
551.51	43573.75
551.68	43971.64
551.84	43835.89
552.01	44184.63
552.18	44004.41
552.34	43475.45
552.51	44226.76
552.68	43737.59
552.84	44498.26
553.01	44311.02
553.18	43988.03
553.34	44346.13
553.51	44189.31
553.67	44502.95
553.84	44397.62
554.01	44327.41
554.17	44605.93
554.34	44786.15
554.51	44715.93
554.67	44767.43
554.84	44882.11
555.00	44493.58
555.17	44685.51
555.33	44617.63
555.50	44914.88
555.67	44858.71
555.83	44666.78
556.00	44835.30
556.16	44968.71
556.33	45322.13
556.50	44886.79
556.66	45041.27
556.83	44847.00
556.99	45109.14
557.16	45181.70
557.32	45422.78
557.49	45399.37
557.65	44985.10
557.82	45170.00
557.98	45511.72
558.15	45305.75
558.32	45432.14
558.48	44942.97
558.65	45450.86
558.81	45345.54
558.98	44870.41
559.14	44928.92
559.31	45411.07
559.47	45162.98
559.64	45095.10
559.80	45715.34
559.97	45406.39
560.13	45361.92
560.30	45359.58
560.46	46028.98
560.63	45698.96
560.79	45696.62
560.96	46274.73
561.12	45881.52
561.29	45558.53
561.45	45907.27
561.61	45546.82
561.78	45626.40
561.94	45567.89
562.11	45684.92
562.27	45787.90
562.44	45904.93
562.60	45785.56
562.77	46162.39
562.93	45848.75
563.10	46007.91
563.26	45839.39
563.42	46356.65
563.59	46085.15
563.75	46129.62
563.92	45949.40
564.08	46120.26
564.24	45998.55
564.41	46043.02
564.57	46387.08
564.74	46066.42
564.90	46244.30
565.07	46155.36
565.23	45958.76
565.39	46461.97
565.56	45977.48
565.72	46354.31
565.88	46153.02
566.05	46162.39
566.21	46560.28
566.38	46185.79
566.54	46403.46
566.70	46623.47
566.87	46539.21
567.03	45970.46
567.19	46913.70
567.36	46190.47
567.52	46106.21
567.68	46827.10
567.85	46384.74
568.01	46504.10
568.17	46450.27
568.34	46759.22
568.50	46398.78
568.66	46293.46
568.83	46518.15
568.99	46756.88
569.15	46632.83
569.32	46724.11
569.48	46646.88
569.64	47051.79
569.81	46649.22
569.97	46775.61
570.13	46794.33
570.30	46604.75
570.46	46546.23
570.62	46712.41
570.78	46674.96
570.95	46773.27
571.11	46810.71
571.27	46689.01
571.43	46581.34
571.60	46862.21
571.76	46447.93
571.92	46923.06
572.09	46728.80
572.25	46679.64
572.41	46611.77
572.57	46897.31
572.74	47363.08
572.90	46806.03
573.06	47035.41
573.22	47367.76
573.38	46873.91
573.55	47276.48
573.71	47784.38
573.87	46962.85
574.03	46766.24
574.20	47138.39
574.36	46920.72
574.52	47318.61
574.68	47023.70
574.84	47164.14
575.01	46946.47
575.17	47035.41
575.33	47002.64
575.49	46658.58
575.65	47515.22
575.82	46852.84
575.98	47098.60
576.14	47185.20
576.30	47416.91
576.46	47152.43
576.62	47260.10
576.79	47236.69
576.95	46878.59
577.11	47154.77
577.27	46909.02
577.43	47068.17
577.59	47360.74
577.75	47217.97
577.92	47026.04
578.08	46539.21
578.24	46923.06
578.40	47533.94
578.56	47419.25
578.72	47524.58
578.88	47311.59
579.04	47456.70
579.21	47009.66
579.37	47185.20
579.53	47435.64
579.69	46801.35
579.85	46983.91
580.01	47255.42
580.17	46869.23
580.33	47452.02
580.49	47356.06
580.65	47253.08
580.82	46883.27
580.98	47395.85
581.14	46738.16
581.30	47611.18
581.46	47264.78
581.62	47110.30
581.78	47288.18
581.94	47454.36
582.10	47320.95
582.26	47395.85
582.42	47302.23
582.58	47276.48
582.74	47590.11
582.90	47421.59
583.06	46941.78
583.22	47388.83
583.38	47409.89
583.54	47222.65
583.70	47262.44
583.86	47791.40
584.02	47030.72
584.18	47510.53
584.34	47255.42
584.50	47674.37
584.66	47512.88
584.82	47400.53
584.98	47807.78
585.14	47683.73
585.30	47140.73
585.46	47030.72
585.62	47714.16
585.78	47618.20
585.94	47267.12
586.10	47086.90
586.26	47498.83
586.42	47391.17
586.58	47758.63
586.74	47796.08
586.90	47309.25
587.06	47213.29
587.22	47585.43
587.38	47409.89
587.54	47704.80
587.70	47749.27
587.86	47667.35
588.02	47730.54
588.18	47466.06
588.34	47498.83
588.49	47442.66
588.65	47538.62
588.81	47543.30
588.97	47496.49
589.13	47110.30
589.29	47543.30
589.45	48177.59
589.61	47775.02
589.77	47789.06
589.93	47547.98
