SpectraSuite Data File
++++++++++++++++++++++++++++++++++++
Date: Fri Oct 25 11:34:31 EDT 2013
User: price-jones
Dark Spectrum Present: No
Reference Spectrum Present: No
Number of Sampled Component Spectra: 1
Spectrometers: USB2+H05261
Integration Time (usec): 100000 (USB2+H05261)
Spectra Averaged: 1 (USB2+H05261)
Boxcar Smoothing: 0 (USB2+H05261)
Correct for Electrical Dark: No (USB2+H05261)
Strobe/Lamp Enabled: No (USB2+H05261)
Correct for Detector Non-linearity: No (USB2+H05261)
Correct for Stray Light: No (USB2+H05261)
Number of Pixels in Processed Spectrum: 2048
>>>>>Begin Processed Spectral Data<<<<<
365.73	271.50
365.92	271.50
366.12	271.50
366.32	177.88
366.52	177.88
366.72	241.08
366.91	156.82
367.11	238.73
367.31	175.54
367.51	175.54
367.70	299.59
367.90	187.24
368.10	152.13
368.30	88.94
368.49	159.16
368.69	229.37
368.89	194.26
369.09	203.63
369.28	248.10
369.48	224.69
369.68	224.69
369.87	245.76
370.07	222.35
370.27	304.27
370.47	334.70
370.66	538.32
370.86	517.26
371.06	601.52
371.25	557.05
371.45	545.34
371.65	510.24
371.84	528.96
372.04	472.79
372.24	573.43
372.44	543.00
372.63	566.41
372.83	557.05
373.03	559.39
373.22	603.86
373.42	608.54
373.62	571.09
373.81	622.58
374.01	664.71
374.21	634.29
374.40	587.47
374.60	664.71
374.79	631.94
374.99	648.33
375.19	629.60
375.38	580.45
375.58	669.39
375.78	631.94
375.97	641.31
376.17	655.35
376.37	645.99
376.56	709.18
376.76	620.24
376.95	674.07
377.15	711.52
377.35	636.63
377.54	685.78
377.74	617.90
377.93	706.84
378.13	716.20
378.33	720.88
378.52	713.86
378.72	690.46
378.91	697.48
379.11	667.05
379.31	660.03
379.50	678.76
379.70	692.80
379.89	699.82
380.09	716.20
380.28	723.23
380.48	711.52
380.68	674.07
380.87	760.67
381.07	713.86
381.26	737.27
381.46	732.59
381.65	685.78
381.85	676.41
382.04	727.91
382.24	774.72
382.43	767.70
382.63	702.16
382.83	772.38
383.02	777.06
383.22	781.74
383.41	723.23
383.61	875.36
383.80	770.04
384.00	821.53
384.19	819.19
384.39	835.57
384.58	770.04
384.78	760.67
384.97	777.06
385.17	767.70
385.36	748.97
385.56	746.63
385.75	842.59
385.95	821.53
386.14	814.51
386.34	854.30
386.53	791.10
386.72	765.36
386.92	854.30
387.11	847.27
387.31	798.12
387.50	873.02
387.70	826.21
387.89	866.00
388.09	901.11
388.28	870.68
388.48	882.38
388.67	971.32
388.86	891.74
389.06	917.49
389.25	901.11
389.45	931.53
389.64	875.36
389.84	915.15
390.03	908.13
390.22	898.77
390.42	882.38
390.61	910.47
390.81	1036.86
391.00	978.34
391.19	1001.75
391.39	954.94
391.58	978.34
391.78	936.21
391.97	959.62
392.16	978.34
392.36	1100.05
392.55	978.34
392.75	1064.94
392.94	1034.52
393.13	1032.18
393.33	1071.97
393.52	1050.90
393.71	1050.90
393.91	985.37
394.10	1069.62
394.29	1043.88
394.49	1107.07
394.68	1071.97
394.88	1104.73
395.07	1069.62
395.26	1116.44
395.46	1036.86
395.65	1184.31
395.84	1125.80
396.04	1174.95
396.23	1104.73
396.42	1135.16
396.62	1163.25
396.81	1156.22
397.00	1165.59
397.19	1146.86
397.39	1158.57
397.58	1196.01
397.77	1102.39
397.97	1252.19
398.16	1163.25
398.35	1247.51
398.55	1221.76
398.74	1193.67
398.93	1240.48
399.12	1252.19
399.32	1198.35
399.51	1228.78
399.70	1409.00
399.90	1282.61
400.09	1423.05
400.28	1329.42
400.47	1401.98
400.67	1411.34
400.86	1413.68
401.05	1296.66
401.24	1348.15
401.44	1315.38
401.63	1441.77
401.82	1385.60
402.01	1420.71
402.21	1390.28
402.40	1490.92
402.59	1327.08
402.78	1474.54
402.97	1500.28
403.17	1488.58
403.36	1465.18
403.55	1493.26
403.74	1507.30
403.93	1394.96
404.13	1514.33
404.32	1432.41
404.51	1502.62
404.70	1586.88
404.89	1579.86
405.09	1605.61
405.28	1607.95
405.47	1537.73
405.66	1593.90
405.85	1710.93
406.05	1633.69
406.24	1673.48
406.43	1661.78
406.62	1647.74
406.81	1778.81
407.00	1722.63
407.20	1687.53
407.39	1717.95
407.58	1755.40
407.77	1867.75
407.96	1884.13
408.15	1806.89
408.34	1778.81
408.54	1734.34
408.73	1825.62
408.92	1949.67
409.11	1827.96
409.30	1818.60
409.49	1849.02
409.68	1825.62
409.87	1884.13
410.07	2026.90
410.26	1928.60
410.45	1926.26
410.64	1994.14
410.83	1987.11
411.02	2059.67
411.21	2033.93
411.40	2010.52
411.59	2108.82
411.78	2097.12
411.98	2066.69
412.17	2172.02
412.36	2136.91
412.55	2244.57
412.74	2289.04
412.93	2275.00
413.12	2195.42
413.31	2342.88
413.50	2349.90
413.69	2296.07
413.88	2298.41
414.07	2436.50
414.26	2450.54
414.45	2317.13
414.64	2539.48
414.83	2441.18
415.02	2415.43
415.22	2471.61
415.41	2497.35
415.60	2656.51
415.79	2530.12
415.98	2665.87
416.17	2614.38
416.36	2530.12
416.55	2539.48
416.74	2558.21
416.93	2771.19
417.12	2597.99
417.31	2789.92
417.50	2761.83
417.69	2778.22
417.88	2799.28
418.07	2815.66
418.26	2825.03
418.45	2960.78
418.64	3000.57
418.83	2782.90
419.02	2906.95
419.21	3005.25
419.39	2988.86
419.58	2916.31
419.77	3059.08
419.96	2972.48
420.15	3026.31
420.34	3126.96
420.53	3101.21
420.72	3112.91
420.91	3105.89
421.10	3023.97
421.29	3229.94
421.48	3124.62
421.67	3169.09
421.86	3019.29
422.05	3148.02
422.24	3201.85
422.43	3227.60
422.61	3138.66
422.80	3293.13
422.99	3131.64
423.18	3330.58
423.37	3386.76
423.56	3169.09
423.75	3255.69
423.94	3199.51
424.13	3045.04
424.32	3171.43
424.50	3316.54
424.69	3330.58
424.88	3323.56
425.07	3248.66
425.26	3229.94
425.45	3325.90
425.64	3297.81
425.83	3288.45
426.01	3269.73
426.20	3262.71
426.39	3335.26
426.58	3220.58
426.77	3234.62
426.96	3433.57
427.15	3379.73
427.33	3386.76
427.52	3330.58
427.71	3513.14
427.90	3466.33
428.09	3522.51
428.28	3499.10
428.46	3702.73
428.65	3581.02
428.84	3667.62
429.03	3611.45
429.22	3459.31
429.40	3669.96
429.59	3555.27
429.78	3417.18
429.97	3531.87
430.16	3599.74
430.34	3749.54
430.53	3700.39
430.72	3588.04
430.91	3723.79
431.10	3604.42
431.28	3777.62
431.47	3918.06
431.66	3854.86
431.85	3817.41
432.03	3829.12
432.22	3920.40
432.41	3880.61
432.60	3978.91
432.79	3929.76
432.97	4021.04
433.16	3908.69
433.35	3943.80
433.54	4007.00
433.72	3889.97
433.91	3988.27
434.10	3896.99
434.28	4021.04
434.47	3882.95
434.66	4091.26
434.85	4070.19
435.03	4042.11
435.22	4049.13
435.41	4166.15
435.59	4227.01
435.78	4248.07
435.97	4086.58
436.16	4159.13
436.34	4098.28
436.53	4313.61
436.72	4304.25
436.90	4100.62
437.09	4404.89
437.28	4154.45
437.46	4264.46
437.65	4428.29
437.84	4374.46
438.02	4479.79
438.21	4444.68
438.40	4201.26
438.58	4484.47
438.77	4587.45
438.96	4526.60
439.14	4662.35
439.33	4744.27
439.52	4594.47
439.70	4629.58
439.89	4894.06
440.08	4791.08
440.26	4760.65
440.45	4823.84
440.63	4870.65
440.82	5125.77
441.01	4901.08
441.19	5015.77
441.38	5093.01
441.57	5001.72
441.75	5093.01
441.94	5195.99
442.12	5067.26
442.31	5282.59
442.50	5249.82
442.68	5315.36
442.87	5158.54
443.05	5364.51
443.24	5245.14
443.43	5205.35
443.61	5261.52
443.80	5352.81
443.98	5088.32
444.17	5193.65
444.35	5256.84
444.54	5357.49
444.73	5366.85
444.91	5324.72
445.10	5341.10
445.28	5313.02
445.47	5268.55
445.65	5469.83
445.84	5547.07
446.02	5467.49
446.21	5455.79
446.39	5404.30
446.58	5404.30
446.77	5404.30
446.95	5317.70
447.14	5401.96
447.32	5577.50
447.51	5378.55
447.69	5401.96
447.88	5542.39
448.06	5568.13
448.25	5621.97
448.43	5521.32
448.62	5357.49
448.80	5465.15
448.99	5760.06
449.17	5661.76
449.36	5577.50
449.54	5659.42
449.73	5678.14
449.91	5851.34
450.10	5652.39
450.28	5757.72
450.46	5856.02
450.65	5734.31
450.83	5851.34
451.02	5973.05
451.20	6036.24
451.39	6015.18
451.57	5781.12
451.76	5767.08
451.94	5907.51
452.13	5937.94
452.31	5799.85
452.49	5874.74
452.68	6040.92
452.86	5994.11
453.05	6083.05
453.23	6036.24
453.42	5912.19
453.60	5884.11
453.78	6146.25
453.97	6155.61
454.15	6108.80
454.34	6106.46
454.52	6164.97
454.70	6258.59
454.89	6352.21
455.07	6244.55
455.26	6251.57
455.44	6431.79
455.62	6392.00
455.81	6328.81
455.99	6363.92
456.17	6403.71
456.36	6572.22
456.54	6658.82
456.73	6492.65
456.91	6677.55
457.09	6665.85
457.28	6745.42
457.46	6726.70
457.64	6710.32
457.83	6717.34
458.01	6656.48
458.19	6916.28
458.38	6806.28
458.56	6747.76
458.74	6703.29
458.93	6813.30
459.11	6853.09
459.29	6867.13
459.48	7042.67
459.66	6942.03
459.84	7047.35
460.03	7220.55
460.21	6991.18
460.39	6902.24
460.57	7157.36
460.76	7042.67
460.94	7281.41
461.12	7218.21
461.31	7037.99
461.49	7077.78
461.67	7108.21
461.85	7176.08
462.04	7122.25
462.22	7812.71
462.40	7410.14
462.59	7424.18
462.77	7412.48
462.95	7407.80
463.13	7508.44
463.32	7274.38
463.50	7508.44
463.68	7522.48
463.86	7592.70
464.05	7550.57
464.23	7461.63
464.41	7606.74
464.59	7428.86
464.78	7903.99
464.96	7559.93
465.14	7564.61
465.32	7733.13
465.50	7744.83
465.69	7630.15
465.87	7609.08
466.05	7761.22
466.23	7655.89
466.41	7674.62
466.60	7735.47
466.78	7730.79
466.96	7889.95
467.14	7779.94
467.32	7934.42
467.51	8051.44
467.69	7798.66
467.87	7939.10
468.05	7964.84
468.23	8021.02
468.41	7988.25
468.60	7953.14
468.78	7901.65
468.96	8102.93
469.14	8180.17
469.32	8114.64
469.50	7967.18
469.69	8386.14
469.87	8383.80
470.05	8175.49
470.23	8266.77
470.41	8266.77
470.59	8498.49
470.77	8421.25
470.95	8292.52
471.14	8650.62
471.32	8465.72
471.50	8645.94
471.68	8741.90
471.86	8809.78
472.04	8739.56
472.22	8720.84
472.40	8730.20
472.58	8765.31
472.77	8957.23
472.95	8975.95
473.13	9273.20
473.31	9004.04
473.49	9060.21
473.67	8901.06
473.85	8999.36
474.03	9153.84
474.21	9085.96
474.39	9355.12
474.57	9383.21
474.75	9411.29
474.93	9427.68
475.12	9540.02
475.30	9554.07
475.48	9472.15
475.66	9722.59
475.84	9591.52
476.02	9781.10
476.20	9710.88
476.38	9928.55
476.56	10143.88
476.74	10012.81
476.92	10125.16
477.10	9926.21
477.28	10211.76
477.46	10167.29
477.64	10202.40
477.82	10436.45
478.00	10572.20
478.18	10490.28
478.36	10691.57
478.54	10693.91
478.72	10834.34
478.90	10855.40
479.08	10958.39
479.26	11140.95
479.44	11049.67
479.62	11154.99
479.80	11335.21
479.98	11604.38
480.16	11681.61
480.34	11716.72
480.52	11545.86
480.70	11798.64
480.88	11428.84
481.06	11693.32
481.24	11782.26
481.41	11948.43
481.59	12119.29
481.77	12416.54
481.95	12386.12
482.13	12461.01
482.31	12451.65
482.49	12599.10
482.67	12716.13
482.85	12922.10
483.03	12910.40
483.21	12982.95
483.39	13329.35
483.57	13001.68
483.74	13160.83
483.92	13261.48
484.10	13324.67
484.28	13638.30
484.46	13792.78
484.64	13755.33
484.82	13589.15
485.00	13973.00
485.18	13994.06
485.35	14394.29
485.53	14122.79
485.71	14310.04
485.89	14731.33
486.07	14520.68
486.25	14721.97
486.43	14693.88
486.61	14874.10
486.78	15019.22
486.96	15070.71
487.14	15159.65
487.32	15220.50
487.50	15421.79
487.68	15499.03
487.85	15894.58
488.03	15674.57
488.21	15978.84
488.39	16180.12
488.57	16290.13
488.75	16278.43
488.92	16622.48
489.10	16758.24
489.28	16456.31
489.46	16791.00
489.64	16528.86
489.81	17057.82
489.99	17289.54
490.17	17282.52
490.35	17621.89
490.53	17465.08
490.70	17844.24
490.88	17334.01
491.06	18005.74
491.24	17954.25
491.41	17968.29
491.59	18132.13
491.77	18267.88
491.95	18272.56
492.13	18644.71
492.30	18834.29
492.48	18703.22
492.66	18677.48
492.84	19030.90
493.01	19154.94
493.19	19047.28
493.37	19119.84
493.54	19000.47
493.72	19365.59
493.90	19318.78
494.08	19721.35
494.25	19651.14
494.43	19967.11
494.61	20255.00
494.79	20421.17
494.96	20060.73
495.14	20395.43
495.32	20702.04
495.49	20650.55
495.67	20840.13
495.85	20908.01
496.02	20933.75
496.20	21465.05
496.38	20973.54
496.55	21139.72
496.73	21682.72
496.91	21469.73
497.09	21415.90
497.26	22026.78
497.44	21994.01
497.62	21916.78
497.79	22405.95
497.97	21928.48
498.14	22331.05
498.32	22731.28
498.50	22567.45
498.67	22883.42
498.85	22527.66
499.03	22958.31
499.20	23183.01
499.38	22735.96
499.56	22944.27
499.73	23264.92
499.91	23005.13
500.08	23213.43
500.26	22911.50
500.44	23335.14
500.61	23613.66
500.79	23557.49
500.97	24002.19
501.14	24046.66
501.32	24147.31
501.49	24060.71
501.67	24280.72
501.84	24393.06
502.02	24514.77
502.20	24287.74
502.37	24430.51
502.55	24294.76
502.72	24570.94
502.90	24451.58
503.07	24716.06
503.25	24601.37
503.43	24730.10
503.60	24592.01
503.78	24634.14
503.95	24994.58
504.13	25120.97
504.30	25387.79
504.48	25373.75
504.65	25472.05
504.83	25460.35
505.01	25811.43
505.18	25628.87
505.36	26003.35
505.53	25678.02
505.71	25926.11
505.88	26094.63
506.06	26122.72
506.23	26230.38
506.41	26228.04
506.58	26129.74
506.76	26497.20
506.93	26445.71
507.11	26398.90
507.28	26579.12
507.46	26485.50
507.63	26487.84
507.81	27005.10
507.98	26705.51
508.16	26934.88
508.33	27330.44
508.50	27187.66
508.68	27344.48
508.85	27892.16
509.03	27096.38
509.20	27468.53
509.38	27711.94
509.55	27721.30
509.73	28191.75
509.90	28334.53
510.08	28177.71
510.25	28037.28
510.42	28182.39
510.60	28044.30
510.77	28332.18
510.95	28481.98
511.12	28428.15
511.30	28304.10
511.47	28411.76
511.64	28439.85
511.82	28889.23
511.99	28762.84
512.17	28868.17
512.34	28535.81
512.51	28819.02
512.69	29315.21
512.86	29149.03
513.04	29542.24
513.21	29116.26
513.38	29373.72
513.56	29755.23
513.73	29399.47
513.90	29486.07
514.08	29624.16
514.25	30103.97
514.43	29596.07
514.60	30129.72
514.77	30389.52
514.95	30162.48
515.12	29633.52
515.29	30150.78
515.47	30569.74
515.64	30295.89
515.81	30513.56
515.99	30661.02
516.16	30342.70
516.33	30689.10
516.51	30911.46
516.68	30576.76
516.85	30642.29
517.03	30796.77
517.20	30993.37
517.37	31154.87
517.54	31267.22
517.72	31487.23
517.89	31346.79
518.06	31101.04
518.24	31311.69
518.41	31218.07
518.58	31307.01
518.75	31578.51
518.93	31215.72
519.10	31470.84
519.27	31899.16
519.45	31913.20
519.62	31997.46
519.79	32306.41
519.96	31779.79
520.14	32030.23
520.31	31557.44
520.48	32201.09
520.65	32594.30
520.83	33003.89
521.00	32568.55
521.17	32591.96
521.34	32493.66
521.52	32994.53
521.69	32732.39
521.86	32968.79
522.03	32669.20
522.20	33233.27
522.38	33352.63
522.55	33748.18
522.72	32840.06
522.89	33071.77
523.07	33476.68
523.24	33453.28
523.41	33783.29
523.58	33277.74
523.75	33806.70
523.92	33610.09
524.10	33895.64
524.27	33837.12
524.44	33984.58
524.61	34302.89
524.78	34450.35
524.96	34230.33
525.13	34061.82
525.30	34190.55
525.47	34595.46
525.64	34132.03
525.81	34216.29
525.98	34291.19
526.16	34672.70
526.33	34569.71
526.50	34466.73
526.67	34338.00
526.84	34974.63
527.01	34609.50
527.18	34920.79
527.36	34899.73
527.53	34923.13
527.70	35021.44
527.87	35505.93
528.04	35105.70
528.21	35585.50
528.38	35026.12
528.55	35346.77
528.72	35421.67
528.89	35468.48
529.07	35093.99
529.24	35393.58
529.41	35510.61
529.58	35587.85
529.75	35538.69
529.92	35583.16
530.09	35903.82
530.26	35824.24
530.43	35756.36
530.60	35615.93
530.77	35852.33
530.94	36088.72
531.11	36102.76
531.28	35775.09
531.46	36278.30
531.63	36004.46
531.80	36266.60
531.97	36411.71
532.14	36456.18
532.31	36194.04
532.48	36634.06
532.65	36472.57
532.82	36336.82
532.99	36425.76
533.16	36730.03
533.33	36568.53
533.50	36919.61
533.67	36669.17
533.84	36776.84
534.01	37069.40
534.18	36648.11
534.35	37460.27
534.52	37233.24
534.69	37207.50
534.86	37237.92
535.03	37205.16
535.20	37930.72
535.37	37392.40
535.54	37453.25
535.71	37532.83
535.88	37603.05
536.05	37574.96
536.22	37813.70
536.38	37226.22
536.55	37659.22
536.72	37551.56
536.89	37776.25
537.06	37825.40
537.23	38251.38
537.40	37977.53
537.57	37757.52
537.74	38029.02
537.91	38274.78
538.08	37827.74
538.25	38321.59
538.42	38164.78
538.59	37886.25
538.75	37958.81
538.92	38604.80
539.09	38824.81
539.26	38319.25
539.43	38735.87
539.60	38639.90
539.77	38803.74
539.94	38855.23
540.11	38754.59
540.28	38763.95
540.44	38609.48
540.61	39100.99
540.78	38581.39
540.95	38621.18
541.12	38932.47
541.29	38443.30
541.46	39033.11
541.62	39021.41
541.79	39168.87
541.96	38890.34
542.13	39227.38
542.30	39131.42
542.47	39337.38
542.63	39346.75
542.80	39288.23
542.97	39800.81
543.14	40006.78
543.31	39426.32
543.48	39550.37
543.64	40175.30
543.81	40245.51
543.98	39896.77
544.15	40203.38
544.32	40048.91
544.48	40861.07
544.65	40133.17
544.82	40219.77
544.99	39962.31
545.16	40004.44
545.32	40240.83
545.49	40664.47
545.66	40584.89
545.83	40697.24
546.00	40964.06
546.16	41060.02
546.33	40423.39
546.50	40037.20
546.67	40840.01
546.83	40062.95
547.00	40708.94
547.17	40341.47
547.34	40620.00
547.50	40832.99
547.67	40814.26
547.84	40643.40
548.00	41134.92
548.17	41060.02
548.34	41024.91
548.51	41457.91
548.67	41038.95
548.84	40828.30
549.01	41390.03
549.18	40938.31
549.34	41186.41
549.51	41647.49
549.68	40786.18
549.84	41158.32
550.01	41701.32
550.18	41350.24
550.34	41450.89
550.51	41558.55
550.68	41895.59
550.84	41216.83
551.01	41574.94
551.18	41579.62
551.34	41579.62
551.51	41792.61
551.68	41750.48
551.84	41752.82
552.01	41350.24
552.18	41715.37
552.34	41710.69
552.51	41907.29
552.68	41464.93
552.84	41816.01
553.01	41607.70
553.18	42209.22
553.34	42462.00
553.51	41965.81
553.67	42579.03
553.84	42298.16
554.01	42660.94
554.17	42176.45
554.34	42211.56
554.51	42064.11
554.67	42548.60
554.84	42454.98
555.00	42153.05
555.17	42665.63
555.33	42412.85
555.50	42178.79
555.67	42890.32
555.83	42263.05
556.00	42756.91
556.16	43122.03
556.33	42431.57
556.50	42557.96
556.66	42183.48
556.83	42714.78
556.99	42714.78
557.16	42916.06
557.32	43016.71
557.49	42866.91
557.65	42382.42
557.82	42857.55
557.98	42574.34
558.15	43234.38
558.32	43115.01
558.48	42752.23
558.65	42838.83
558.81	43021.39
558.98	43140.75
559.14	42883.30
559.31	43447.36
559.47	42520.51
559.64	42880.95
559.80	43306.93
559.97	42995.64
560.13	43117.35
560.30	43278.85
560.46	43491.83
560.63	43533.96
560.79	43199.27
560.96	42983.94
561.12	43189.91
561.29	43147.78
561.45	43634.61
561.61	43316.29
561.78	43597.16
561.94	43351.40
562.11	43686.10
562.27	43414.60
562.44	43938.88
562.60	43819.51
562.77	43828.87
562.93	43498.86
563.10	43807.81
563.26	43398.21
563.42	44069.95
563.59	43658.01
563.75	43634.61
563.92	43381.83
564.08	43597.16
564.24	44126.12
564.41	43576.09
564.57	43739.93
564.74	43784.40
564.90	43583.12
565.07	43749.29
565.23	43988.03
565.39	44194.00
565.56	43803.13
565.72	44409.32
565.88	43885.04
566.05	44083.99
566.21	43985.69
566.38	44030.16
566.54	44191.65
566.70	43906.11
566.87	43990.37
567.03	44088.67
567.19	44130.80
567.36	44428.05
567.52	43913.13
567.68	44744.02
567.85	44584.86
568.01	44383.58
568.17	43959.94
568.34	44463.16
568.50	44348.47
568.66	43957.60
568.83	43929.51
568.99	43924.83
569.15	44339.11
569.32	44395.28
569.48	44172.93
569.64	44521.67
569.81	44573.16
569.97	44477.20
570.13	44509.97
570.30	43707.16
570.46	44465.50
570.62	44538.05
570.78	44163.57
570.95	44479.54
571.11	44542.74
571.27	44437.41
571.43	44392.94
571.60	44430.39
571.76	44311.02
571.92	44662.10
572.09	44315.70
572.25	44404.64
572.41	44147.18
572.57	44423.37
572.74	44678.49
572.90	44589.55
573.06	44795.51
573.22	44739.34
573.38	45001.48
573.55	44685.51
573.71	45081.06
573.87	44446.77
574.03	44797.85
574.20	44968.71
574.36	44807.22
574.52	45116.17
574.68	45127.87
574.84	44828.28
575.01	45015.52
575.17	45120.85
575.33	44790.83
575.49	44697.21
575.65	44952.33
575.82	44835.30
575.98	44664.44
576.14	44793.17
576.30	44732.32
576.46	44694.87
576.62	44594.23
576.79	44437.41
576.95	44163.57
577.11	44610.61
577.27	44622.31
577.43	44383.58
577.59	45069.36
577.75	44287.62
577.92	44680.83
578.08	44823.60
578.24	44793.17
578.40	44849.35
578.56	45027.23
578.72	45020.20
578.88	44973.39
579.04	44854.03
579.21	44964.03
579.37	44989.78
579.53	45132.55
579.69	45083.40
579.85	44598.91
580.01	44641.04
580.17	44851.69
580.33	45268.30
580.49	44837.64
580.65	45139.57
580.82	44949.99
580.98	44751.04
581.14	44336.77
581.30	45027.23
581.46	44692.53
581.62	44818.92
581.78	44718.28
581.94	44938.29
582.10	45336.18
582.26	45256.60
582.42	44835.30
582.58	45015.52
582.74	45319.79
582.90	45106.80
583.06	45064.67
583.22	44856.37
583.38	44720.62
583.54	45549.17
583.70	45420.44
583.86	45350.22
584.02	44985.10
584.18	45474.27
584.34	45008.50
584.50	45198.09
584.66	45315.11
584.82	45244.90
584.98	45247.24
585.14	45333.84
585.30	45212.13
585.46	44987.44
585.62	44720.62
585.78	45186.38
585.94	44542.74
586.10	45294.05
586.26	45275.32
586.42	44788.49
586.58	44933.60
586.74	45184.04
586.90	44945.31
587.06	45055.31
587.22	45270.64
587.38	45350.22
587.54	45120.85
587.70	45254.26
587.86	45404.05
588.02	45556.19
588.18	45130.21
588.34	45385.33
588.49	45408.73
588.65	44928.92
588.81	45324.47
588.97	45544.48
589.13	45137.23
589.29	45240.21
589.45	45572.57
589.61	45287.03
589.77	45855.78
589.93	45340.86
590.08	45471.93
