SpectraSuite Data File
++++++++++++++++++++++++++++++++++++
Date: Fri Oct 25 11:22:29 EDT 2013
User: price-jones
Dark Spectrum Present: No
Reference Spectrum Present: No
Number of Sampled Component Spectra: 1
Spectrometers: USB2+H05261
Integration Time (usec): 100000 (USB2+H05261)
Spectra Averaged: 1 (USB2+H05261)
Boxcar Smoothing: 0 (USB2+H05261)
Correct for Electrical Dark: No (USB2+H05261)
Strobe/Lamp Enabled: No (USB2+H05261)
Correct for Detector Non-linearity: No (USB2+H05261)
Correct for Stray Light: No (USB2+H05261)
Number of Pixels in Processed Spectrum: 2048
>>>>>Begin Processed Spectral Data<<<<<
365.73	180.22
365.92	180.22
366.12	180.22
366.32	140.43
366.52	145.11
366.72	142.77
366.91	102.98
367.11	105.32
367.31	133.41
367.51	117.03
367.70	140.43
367.90	88.94
368.10	95.96
368.30	152.13
368.49	147.45
368.69	159.16
368.89	152.13
369.09	107.66
369.28	121.71
369.48	131.07
369.68	105.32
369.87	234.05
370.07	189.58
370.27	220.01
370.47	297.25
370.66	547.69
370.86	620.24
371.06	709.18
371.25	638.97
371.45	608.54
371.65	697.48
371.84	737.27
372.04	631.94
372.24	683.44
372.44	748.97
372.63	727.91
372.83	851.96
373.03	767.70
373.22	746.63
373.42	760.67
373.62	732.59
373.81	746.63
374.01	793.44
374.21	739.61
374.40	772.38
374.60	861.32
374.79	896.43
374.99	837.91
375.19	781.74
375.38	821.53
375.58	837.91
375.78	875.36
375.97	837.91
376.17	866.00
376.37	812.17
376.56	889.40
376.76	940.90
376.95	851.96
377.15	873.02
377.35	856.64
377.54	891.74
377.74	929.19
377.93	891.74
378.13	828.55
378.33	875.36
378.52	936.21
378.72	1020.47
378.91	980.68
379.11	957.28
379.31	947.92
379.50	868.34
379.70	952.60
379.89	959.62
380.09	968.98
380.28	950.26
380.48	987.71
380.68	922.17
380.87	1041.54
381.07	994.73
381.26	1071.97
381.46	992.39
381.65	1015.79
381.85	1006.43
382.04	1032.18
382.24	1062.60
382.43	1060.26
382.63	1041.54
382.83	1142.18
383.02	1090.69
383.22	1097.71
383.41	997.07
383.61	1135.16
383.80	1137.50
384.00	1149.20
384.19	1102.39
384.39	1114.10
384.58	1118.78
384.78	1144.52
384.97	1137.50
385.17	1116.44
385.36	1146.86
385.56	1125.80
385.75	1170.27
385.95	1181.97
386.14	1205.38
386.34	1254.53
386.53	1165.59
386.72	1331.76
386.92	1247.51
387.11	1249.85
387.31	1273.25
387.50	1165.59
387.70	1294.32
387.89	1263.89
388.09	1324.74
388.28	1291.98
388.48	1334.11
388.67	1320.06
388.86	1249.85
389.06	1303.68
389.25	1273.25
389.45	1378.58
389.64	1327.08
389.84	1324.74
390.03	1373.89
390.22	1378.58
390.42	1352.83
390.61	1273.25
390.81	1373.89
391.00	1401.98
391.19	1394.96
391.39	1376.24
391.58	1444.11
391.78	1469.86
391.97	1465.18
392.16	1465.18
392.36	1563.48
392.55	1619.65
392.75	1584.54
392.94	1568.16
393.13	1654.76
393.33	1427.73
393.52	1474.54
393.71	1612.63
393.91	1556.46
394.10	1497.94
394.29	1643.06
394.49	1591.56
394.68	1617.31
394.88	1652.42
395.07	1659.44
395.26	1647.74
395.46	1661.78
395.65	1699.23
395.84	1706.25
396.04	1827.96
396.23	1701.57
396.42	1806.89
396.62	1818.60
396.81	1926.26
397.00	1877.11
397.19	1849.02
397.39	1799.87
397.58	1844.34
397.77	1764.76
397.97	1872.43
398.16	1860.73
398.35	2001.16
398.55	1975.41
398.74	1933.28
398.93	1980.09
399.12	1949.67
399.32	1956.69
399.51	1853.70
399.70	1982.43
399.90	2003.50
400.09	2038.61
400.28	2022.22
400.47	1975.41
400.67	2106.48
400.86	2008.18
401.05	2122.87
401.24	2057.33
401.44	2153.29
401.63	2134.57
401.82	2176.70
402.01	2104.14
402.21	2218.83
402.40	2314.79
402.59	2172.02
402.78	2225.85
402.97	2270.32
403.17	2298.41
403.36	2312.45
403.55	2361.60
403.74	2394.37
403.93	2396.71
404.13	2399.05
404.32	2415.43
404.51	2342.88
404.70	2270.32
404.89	2403.73
405.09	2469.27
405.28	2441.18
405.47	2539.48
405.66	2567.57
405.85	2462.24
406.05	2511.39
406.24	2656.51
406.43	2464.58
406.62	2794.60
406.81	2703.32
407.00	2574.59
407.20	2609.70
407.39	2619.06
407.58	2766.51
407.77	2703.32
407.96	2698.64
408.15	2787.58
408.34	2738.43
408.54	2829.71
408.73	2874.18
408.92	2841.41
409.11	3040.36
409.30	2930.35
409.49	2906.95
409.68	2878.86
409.87	2820.35
410.07	3094.19
410.26	3070.78
410.45	2993.55
410.64	3089.51
410.83	3103.55
411.02	3141.00
411.21	3227.60
411.40	3080.14
411.59	3330.58
411.78	3169.09
411.98	3251.00
412.17	3337.60
412.36	3496.76
412.55	3351.65
412.74	3447.61
412.93	3431.23
413.12	3375.05
413.31	3712.09
413.50	3508.46
413.69	3695.71
413.88	3604.42
414.07	3508.46
414.26	3634.85
414.45	3660.60
414.64	3602.08
414.83	3627.83
415.02	3784.65
415.22	3896.99
415.41	3932.10
415.60	4002.32
415.79	4093.60
415.98	4037.42
416.17	4046.79
416.36	4051.47
416.55	4095.94
416.74	4105.30
416.93	4100.62
417.12	4154.45
417.31	4126.36
417.50	4128.70
417.69	4339.35
417.88	4320.63
418.07	4306.59
418.26	4381.48
418.45	4423.61
418.64	4547.66
418.83	4533.62
419.02	4430.63
419.21	4479.79
419.39	4650.64
419.58	4496.17
419.77	4503.19
419.96	4737.24
420.15	4676.39
420.34	4564.04
420.53	4575.75
420.72	4734.90
420.91	4800.44
421.10	4875.34
421.29	4856.61
421.48	4662.35
421.67	4884.70
421.86	4835.55
422.05	4798.10
422.24	4844.91
422.43	4863.63
422.61	5048.54
422.80	5034.49
422.99	4975.98
423.18	5137.48
423.37	4947.89
423.56	5027.47
423.75	5064.92
423.94	4943.21
424.13	4517.23
424.32	4753.63
424.50	5067.26
424.69	5118.75
424.88	5043.85
425.07	4983.00
425.26	5018.11
425.45	4884.70
425.64	5078.96
425.83	4896.40
426.01	5128.11
426.20	5022.79
426.39	5104.71
426.58	4933.85
426.77	5153.86
426.96	5142.16
427.15	5004.07
427.33	5128.11
427.52	5219.39
427.71	5266.21
427.90	5315.36
428.09	5376.21
428.28	5460.47
428.46	5474.51
428.65	5261.52
428.84	5488.56
429.03	5603.24
429.22	5228.76
429.40	5661.76
429.59	5458.13
429.78	5458.13
429.97	5303.65
430.16	5556.43
430.34	5621.97
430.53	5643.03
430.72	5736.65
430.91	5556.43
431.10	5738.99
431.28	5802.19
431.47	5764.74
431.66	5928.58
431.85	5895.81
432.03	5951.98
432.22	6139.23
432.41	5909.85
432.60	5944.96
432.79	5806.87
432.97	5949.64
433.16	6052.63
433.35	6174.33
433.54	6141.57
433.72	6061.99
433.91	6076.03
434.10	6127.52
434.28	5989.43
434.47	6258.59
434.66	6270.30
434.85	6319.45
435.03	6352.21
435.22	6436.47
435.41	6567.54
435.59	6441.15
435.78	6473.92
435.97	6527.75
436.16	6445.84
436.34	6651.80
436.53	6513.71
436.72	6672.87
436.90	6595.63
437.09	6757.13
437.28	6572.22
437.46	6612.01
437.65	6836.70
437.84	6740.74
438.02	6918.62
438.21	6820.32
438.40	6757.13
438.58	6930.33
438.77	7164.38
438.96	7178.42
439.14	7236.94
439.33	7243.96
439.52	7470.99
439.70	7379.71
439.89	7321.20
440.08	7449.93
440.26	7552.91
440.45	7487.37
440.63	7492.05
440.82	7625.47
441.01	7620.78
441.19	7604.40
441.38	7817.39
441.57	7836.11
441.75	8006.97
441.94	8095.91
442.12	8128.68
442.31	8215.28
442.50	7918.03
442.68	7988.25
442.87	8163.79
443.05	8224.64
443.24	8255.07
443.43	8346.35
443.61	8131.02
443.80	8489.12
443.98	8088.89
444.17	7899.31
444.35	8287.84
444.54	8510.19
444.73	8432.95
444.91	8430.61
445.10	8458.70
445.28	8344.01
445.47	8229.32
445.65	8329.97
445.84	8542.96
446.02	8674.03
446.21	8322.94
446.39	8273.79
446.58	8278.47
446.77	8669.34
446.95	8119.32
447.14	8617.85
447.32	8692.75
447.51	8615.51
447.69	8720.84
447.88	8634.24
448.06	8578.06
448.25	8571.04
448.43	8554.66
448.62	8720.84
448.80	8786.37
448.99	8884.67
449.17	8753.60
449.36	8638.92
449.54	8800.41
449.73	9032.13
449.91	9202.99
450.10	9135.11
450.28	9130.43
450.46	9125.75
450.65	9132.77
450.83	9074.26
451.02	9034.47
451.20	9172.56
451.39	9172.56
451.57	9296.61
451.76	9242.78
451.94	9202.99
452.13	9411.29
452.31	9401.93
452.49	9287.25
452.68	9352.78
452.86	9385.55
453.05	9554.07
453.23	9586.83
453.42	9341.08
453.60	9497.89
453.78	9521.30
453.97	9551.73
454.15	9591.52
454.34	9675.77
454.52	9951.96
454.70	9860.68
454.89	10015.15
455.07	9827.91
455.26	9970.68
455.44	10024.51
455.62	10132.18
455.81	9994.09
455.99	10026.86
456.17	10092.39
456.36	10120.48
456.54	10115.80
456.73	10338.15
456.91	10441.13
457.09	10509.01
457.28	10649.44
457.46	10473.90
457.64	10492.62
457.83	10761.78
458.01	10370.91
458.19	10963.07
458.38	10771.15
458.56	10920.94
458.74	10738.38
458.93	10757.10
459.11	10787.53
459.29	10832.00
459.48	10972.43
459.66	10963.07
459.84	11061.37
460.03	11164.36
460.21	11040.31
460.39	11197.12
460.57	11288.40
460.76	11276.70
460.94	11489.69
461.12	11370.32
461.31	11377.34
461.49	11316.49
461.67	11335.21
461.85	11583.31
462.04	11576.29
462.22	11665.23
462.40	11740.13
462.59	11538.84
462.77	11522.46
462.95	11775.24
463.13	11735.45
463.32	11529.48
463.50	11903.96
463.68	11913.33
463.86	12205.89
464.05	11714.38
464.23	12044.40
464.41	11950.78
464.59	11793.96
464.78	12271.43
464.96	11943.75
465.14	11871.20
465.32	11964.82
465.50	12161.42
465.69	12264.41
465.87	12432.93
466.05	12079.50
466.23	12273.77
466.41	12465.69
466.60	12676.34
466.78	12304.20
466.96	12252.70
467.14	12411.86
467.32	12711.45
467.51	12854.22
467.69	12217.60
467.87	12823.80
468.05	12821.45
468.23	12596.76
468.41	12620.17
468.60	12732.51
468.78	13008.70
468.96	12554.63
469.14	12947.84
469.32	13214.66
469.50	12807.41
469.69	13259.13
469.87	13158.49
470.05	13263.82
470.23	13535.32
470.41	13317.65
470.59	13661.71
470.77	13371.48
470.95	13467.44
471.14	13448.72
471.32	13453.40
471.50	13696.82
471.68	13755.33
471.86	13795.12
472.04	13785.76
472.22	14293.65
472.40	13902.78
472.58	14003.43
472.77	14099.39
472.95	14230.46
473.13	14796.87
473.31	14281.95
473.49	14394.29
473.67	14232.80
473.85	14354.51
474.03	14862.40
474.21	14885.81
474.39	14913.89
474.57	14740.69
474.75	14984.11
474.93	15330.51
475.12	14906.87
475.30	15363.28
475.48	15087.09
475.66	15606.69
475.84	15384.34
476.02	15447.54
476.20	15440.51
476.38	16002.24
476.56	16306.51
476.74	16243.32
476.92	16318.22
477.10	16226.93
477.28	16489.07
477.46	16418.86
477.64	16526.52
477.82	16549.93
478.00	17226.34
478.18	16929.09
478.36	17233.36
478.54	17401.88
478.72	17184.21
478.90	17621.89
479.08	17797.43
479.26	17942.55
479.44	17879.35
479.62	18010.42
479.80	18211.71
479.98	18408.31
480.16	18946.64
480.34	18387.25
480.52	18759.39
480.70	18904.51
480.88	18424.70
481.06	18726.63
481.24	19269.63
481.41	19201.76
481.59	19716.67
481.77	19756.46
481.95	19894.55
482.13	19894.55
482.31	19543.47
482.49	20783.96
482.67	20493.73
482.85	20798.00
483.03	20556.93
483.21	20903.32
483.39	21420.58
483.57	20961.84
483.74	21193.55
483.92	21591.44
484.10	21476.76
484.28	21788.05
484.46	22246.79
484.64	22525.32
484.82	22302.96
485.00	22309.99
485.18	23211.09
485.35	23431.10
485.53	23150.24
485.71	23501.32
485.89	23697.92
486.07	23578.56
486.25	23758.78
486.43	23885.17
486.61	23894.53
486.78	24273.70
486.96	24683.29
487.14	25010.96
487.32	25167.78
487.50	25263.74
487.68	25296.51
487.85	25420.56
488.03	25942.50
488.21	26263.15
488.39	26260.81
488.57	26321.66
488.75	26787.43
488.92	26555.72
489.10	27253.20
489.28	27028.51
489.46	27508.32
489.64	27386.61
489.81	28219.84
489.99	27938.97
490.17	28290.06
490.35	28531.13
490.53	28606.03
490.70	29216.91
490.88	28561.56
491.06	29275.42
491.24	29088.18
491.41	29565.65
491.59	29654.59
491.77	29408.83
491.95	29816.08
492.13	30284.19
492.30	30319.30
492.48	30438.67
492.66	30445.69
492.84	30789.75
493.01	31171.25
493.19	31119.76
493.37	31615.96
493.54	31571.49
493.72	31882.78
493.90	31831.29
494.08	32158.96
494.25	32580.26
494.43	32802.61
494.61	33039.00
494.79	32804.95
494.96	32816.65
495.14	33408.81
495.32	33731.80
495.49	33666.27
495.67	33509.45
495.85	33806.70
496.02	34174.16
496.20	33778.61
496.38	34541.63
496.55	34614.18
496.73	35332.73
496.91	35042.50
497.09	35103.35
497.26	35651.04
497.44	35356.13
497.62	35538.69
497.79	36290.01
497.97	35501.25
498.14	36540.44
498.32	36959.40
498.50	36353.20
498.67	36837.69
498.85	37181.75
499.03	37116.22
499.20	36896.20
499.38	37741.14
499.56	37668.58
499.73	37532.83
499.91	37638.15
500.08	38080.52
500.26	37743.48
500.44	37876.89
500.61	37912.00
500.79	38246.69
500.97	38614.16
501.14	38904.38
501.32	38906.73
501.49	38677.35
501.67	39601.86
501.84	39620.59
502.02	39213.34
502.20	39475.48
502.37	39683.78
502.55	39791.45
502.72	40013.80
502.90	40147.21
503.07	39985.71
503.25	40589.57
503.43	40133.17
503.60	40596.59
503.78	40610.64
503.95	41024.91
504.13	40886.82
504.30	41511.74
504.48	40861.07
504.65	41256.62
504.83	41432.16
505.01	42153.05
505.18	41776.22
505.36	41764.52
505.53	41441.53
505.71	42139.00
505.88	42784.99
506.06	41860.48
506.23	42602.43
506.41	42366.04
506.58	42658.60
506.76	42909.04
506.93	43412.26
507.11	42789.67
507.28	43140.75
507.46	43115.01
507.63	43562.05
507.81	44098.03
507.98	43346.72
508.16	43697.80
508.33	44210.38
508.50	44140.16
508.68	44165.91
508.85	44516.99
509.03	44357.83
509.20	44758.06
509.38	44844.66
509.55	44774.45
509.73	45151.27
509.90	44844.66
510.08	45008.50
510.25	45284.68
510.42	45368.94
510.60	45647.47
510.77	45322.13
510.95	46045.36
511.12	45425.12
511.30	45689.60
511.47	45916.63
511.64	45631.08
511.82	46553.26
511.99	46227.92
512.17	46583.68
512.34	46691.35
512.51	46932.42
512.69	46335.59
512.86	46859.87
513.04	47311.59
513.21	47318.61
513.38	47430.96
513.56	47255.42
513.73	47311.59
513.90	47203.92
514.08	47356.06
514.25	47812.46
514.43	47819.49
514.60	47915.45
514.77	47880.34
514.95	48107.37
515.12	48229.08
515.29	47931.83
515.47	48355.47
515.64	48212.70
515.81	48507.60
515.99	48769.74
516.16	48971.03
516.33	48851.66
516.51	49289.34
516.68	49347.86
516.85	48989.75
517.03	48926.56
517.20	49401.69
517.37	49158.27
517.54	49483.61
517.72	49851.07
517.89	49546.80
518.06	49701.28
518.24	49525.74
518.41	49752.77
518.58	49712.98
518.75	50005.55
518.93	50096.83
519.10	49551.48
519.27	50422.16
519.45	50415.14
519.62	50483.01
519.79	50066.40
519.96	50394.07
520.14	50759.20
520.31	50611.74
520.48	50815.37
520.65	50925.38
520.83	51384.12
521.00	51152.41
521.17	51033.04
521.34	50801.33
521.52	50852.82
521.69	51103.26
521.86	51660.30
522.03	51571.36
522.20	51547.96
522.38	51749.24
522.55	51732.86
522.72	51922.44
522.89	51868.61
523.07	52074.58
523.24	52072.24
523.41	52275.87
523.58	51863.93
523.75	52320.34
523.92	52172.88
524.10	52296.93
524.27	52596.52
524.44	52460.77
524.61	52336.72
524.78	52629.29
524.96	52655.03
525.13	52818.87
525.30	52844.62
525.47	53029.52
525.64	52877.38
525.81	53467.20
525.98	53272.93
526.16	53038.88
526.33	53031.86
526.50	53284.64
526.67	53247.19
526.84	53418.05
527.01	53315.06
527.18	52987.39
527.36	53471.88
527.53	53401.66
527.70	53516.35
527.87	53649.76
528.04	53408.68
528.21	53787.85
528.38	53694.23
528.55	53886.15
528.72	53729.34
528.89	53783.17
529.07	53595.93
529.24	53689.55
529.41	53972.75
529.58	54075.74
529.75	53900.20
529.92	54199.79
530.09	54262.98
530.26	54199.79
530.43	54405.75
530.60	53949.35
530.77	54475.97
530.94	54485.33
531.11	54237.23
531.28	54394.05
531.46	54775.56
531.63	54773.22
531.80	54630.44
531.97	54934.71
532.14	55033.02
532.31	54820.03
532.48	54972.16
532.65	54995.57
532.82	54417.46
532.99	55288.13
533.16	55023.65
533.33	55236.64
533.50	55224.94
533.67	54672.57
533.84	55023.65
534.01	55178.13
534.18	55107.91
534.35	55569.00
534.52	55320.90
534.69	55620.49
534.86	55554.96
535.03	55732.84
535.20	55674.32
535.37	55831.14
535.54	55800.71
535.71	55358.35
535.88	56067.53
536.05	55821.78
536.22	56137.75
536.38	56200.94
536.55	55882.63
536.72	56170.52
536.89	56053.49
537.06	55732.84
537.23	56289.88
537.40	56076.90
537.57	56154.13
537.74	56079.24
537.91	56161.15
538.08	56280.52
538.25	56163.50
538.42	56112.00
538.59	56240.73
538.75	56383.51
538.92	56507.55
539.09	56243.07
539.26	56418.61
539.43	56343.72
539.60	56430.32
539.77	56409.25
539.94	56701.82
540.11	56631.60
540.28	56631.60
540.44	56781.40
540.61	56650.33
540.78	56837.57
540.95	56711.18
541.12	56612.88
541.29	56554.36
541.46	56783.74
541.62	56903.10
541.79	57015.45
541.96	56933.53
542.13	56858.63
542.30	57020.13
542.47	57104.39
542.63	57125.46
542.80	57205.03
542.97	57429.72
543.14	57551.43
543.31	57455.47
543.48	57558.45
543.64	57715.27
543.81	57675.48
543.98	57673.14
544.15	57670.80
544.32	57827.62
544.48	57874.43
544.65	57883.79
544.82	57736.34
544.99	57415.68
545.16	57572.50
545.32	57635.69
545.49	58040.60
545.66	58136.57
545.83	57961.03
546.00	58136.57
546.16	58164.65
546.33	58092.10
546.50	57904.85
546.67	58017.20
546.83	57851.02
547.00	57996.13
547.17	58152.95
547.34	58185.72
547.50	58157.63
547.67	58300.40
547.84	58487.65
548.00	58466.58
548.17	58527.44
548.34	58293.38
548.51	58602.33
548.67	58461.90
548.84	58384.66
549.01	58209.12
549.18	58363.60
549.34	58454.88
549.51	58506.37
549.68	58632.76
549.84	58724.04
550.01	58712.34
550.18	58564.88
550.34	58869.15
550.51	58702.98
550.68	58934.69
550.84	58485.31
551.01	58864.47
551.18	58710.00
551.34	58616.38
551.51	59032.99
551.68	58791.92
551.84	58885.54
552.01	58780.21
552.18	58983.84
552.34	59018.95
552.51	59042.35
552.68	58871.49
552.84	59138.32
553.01	59182.79
553.18	59220.23
553.34	58831.71
553.51	59107.89
553.67	59035.33
553.84	59229.60
554.01	59227.26
554.17	59365.35
554.34	59405.14
554.51	59250.66
554.67	59465.99
554.84	59363.01
555.00	59456.63
555.17	59398.12
555.33	59447.27
555.50	59243.64
555.67	59327.90
555.83	59501.10
556.00	59601.74
556.16	59847.50
556.33	59505.78
556.50	59451.95
556.66	59599.40
556.83	59428.54
556.99	59655.57
557.16	59718.77
557.32	59716.43
557.49	59936.44
557.65	59798.35
557.82	59543.23
557.98	59632.17
558.15	59859.20
558.32	59882.61
558.48	59646.21
558.65	59758.56
558.81	59770.26
558.98	59693.02
559.14	59903.67
559.31	59770.26
559.47	60097.94
559.64	60013.68
559.80	60058.15
559.97	60060.49
560.13	59817.07
560.30	60254.75
560.46	60111.98
560.63	60067.51
560.79	59978.57
560.96	60329.65
561.12	60217.30
561.29	60250.07
561.45	60196.24
561.61	60140.07
561.78	60072.19
561.94	59896.65
562.11	60154.11
562.27	59992.61
562.44	60135.38
562.60	60207.94
562.77	60067.51
562.93	60126.02
563.10	60280.50
563.26	60161.13
563.42	60376.46
563.59	60219.64
563.75	60385.82
563.92	60416.25
564.08	60182.19
564.24	60317.95
564.41	60470.08
564.57	60353.05
564.74	60631.58
564.90	60280.50
565.07	60381.14
565.23	60477.10
565.39	60523.91
565.56	60484.12
565.72	60460.72
565.88	60685.41
566.05	60505.19
566.21	60360.08
566.38	60528.59
566.54	60774.35
566.70	60568.38
566.87	60598.81
567.03	60430.29
567.19	60645.62
567.36	60692.43
567.52	60594.13
567.68	60837.54
567.85	60697.11
568.01	60629.24
568.17	60624.56
568.34	60638.60
568.50	60699.45
568.66	60736.90
568.83	60601.15
568.99	60580.09
569.15	60624.56
569.32	60652.64
569.48	60753.29
569.64	60935.85
569.81	60582.43
569.97	60858.61
570.13	60671.37
570.30	60619.88
570.46	60853.93
570.62	60933.51
570.78	60657.32
570.95	60750.94
571.11	61078.62
571.27	60650.30
571.43	60500.51
571.60	60935.85
571.76	60963.93
571.92	60896.06
572.09	60921.80
572.25	61041.17
572.41	60795.42
572.57	60823.50
572.74	60999.04
572.90	60872.65
573.06	60910.10
573.22	60860.95
573.38	61024.79
573.55	60685.41
573.71	61226.07
573.87	61001.38
574.03	60853.93
574.20	60800.10
574.36	60872.65
574.52	60949.89
574.68	60975.64
574.84	61055.21
575.01	60739.24
575.17	61057.56
575.33	61200.33
575.49	60793.07
575.65	61125.43
575.82	61113.73
575.98	60982.66
576.14	61345.44
576.30	61141.81
576.46	61034.15
576.62	61045.85
576.79	61020.11
576.95	60968.61
577.11	61137.13
577.27	61148.84
577.43	61261.18
577.59	61148.84
577.75	61022.45
577.92	60973.30
578.08	60874.99
578.24	61162.88
578.40	61179.26
578.56	61219.05
578.72	61048.19
578.88	61319.70
579.04	61214.37
579.21	61190.97
579.37	61408.64
579.53	61205.01
579.69	60968.61
579.85	61132.45
580.01	61003.72
580.17	61265.86
580.33	61228.41
580.49	61474.17
580.65	61289.27
580.82	61043.51
580.98	61162.88
581.14	61034.15
581.30	61167.56
581.46	61413.32
581.62	61209.69
581.78	61109.05
581.94	61221.39
582.10	61186.28
582.26	61127.77
582.42	61230.75
582.58	61066.92
582.74	61193.31
582.90	61153.52
583.06	61144.16
583.22	61148.84
583.38	61296.29
583.54	61343.10
583.70	61375.87
583.86	61357.14
584.02	61113.73
584.18	61062.24
584.34	61364.17
584.50	61176.92
584.66	61085.64
584.82	61043.51
584.98	61345.44
585.14	61333.74
585.30	61188.63
585.46	61172.24
585.62	61090.32
585.78	61368.85
585.94	61193.31
586.10	61338.42
586.26	61347.78
586.42	61336.08
586.58	61307.99
586.74	61202.67
586.90	61385.23
587.06	61392.25
587.22	61537.36
587.38	61401.61
587.54	61396.93
587.70	61652.05
587.86	61448.42
588.02	61560.77
588.18	61560.77
588.34	61329.06
588.49	61263.52
