SpectraSuite Data File
++++++++++++++++++++++++++++++++++++
Date: Fri Oct 25 11:23:25 EDT 2013
User: price-jones
Dark Spectrum Present: No
Reference Spectrum Present: No
Number of Sampled Component Spectra: 1
Spectrometers: USB2+H05261
Integration Time (usec): 100000 (USB2+H05261)
Spectra Averaged: 1 (USB2+H05261)
Boxcar Smoothing: 0 (USB2+H05261)
Correct for Electrical Dark: No (USB2+H05261)
Strobe/Lamp Enabled: No (USB2+H05261)
Correct for Detector Non-linearity: No (USB2+H05261)
Correct for Stray Light: No (USB2+H05261)
Number of Pixels in Processed Spectrum: 2048
>>>>>Begin Processed Spectral Data<<<<<
365.73	287.89
365.92	287.89
366.12	287.89
366.32	252.78
366.52	201.29
366.72	163.84
366.91	152.13
367.11	163.84
367.31	142.77
367.51	182.56
367.70	133.41
367.90	77.24
368.10	124.05
368.30	114.69
368.49	81.92
368.69	170.86
368.89	133.41
369.09	131.07
369.28	189.58
369.48	168.52
369.68	131.07
369.87	175.54
370.07	191.92
370.27	234.05
370.47	299.59
370.66	615.56
370.86	608.54
371.06	627.26
371.25	568.75
371.45	692.80
371.65	608.54
371.84	641.31
372.04	662.37
372.24	716.20
372.44	669.39
372.63	760.67
372.83	692.80
373.03	676.41
373.22	734.93
373.42	699.82
373.62	777.06
373.81	866.00
374.01	758.33
374.21	770.04
374.40	755.99
374.60	802.80
374.79	863.66
374.99	828.55
375.19	828.55
375.38	858.98
375.58	800.46
375.78	828.55
375.97	748.97
376.17	943.24
376.37	894.08
376.56	917.49
376.76	795.78
376.95	819.19
377.15	842.59
377.35	858.98
377.54	903.45
377.74	873.02
377.93	908.13
378.13	950.26
378.33	917.49
378.52	983.02
378.72	931.53
378.91	971.32
379.11	994.73
379.31	903.45
379.50	954.94
379.70	1015.79
379.89	978.34
380.09	987.71
380.28	943.24
380.48	983.02
380.68	891.74
380.87	910.47
381.07	1020.47
381.26	1027.50
381.46	1064.94
381.65	952.60
381.85	1107.07
382.04	1004.09
382.24	1088.35
382.43	1057.92
382.63	1071.97
382.83	1111.75
383.02	1116.44
383.22	1153.88
383.41	1050.90
383.61	1125.80
383.80	1128.14
384.00	1100.05
384.19	1093.03
384.39	1156.22
384.58	1151.54
384.78	1135.16
384.97	1163.25
385.17	1153.88
385.36	1146.86
385.56	1142.18
385.75	1137.50
385.95	1184.31
386.14	1214.74
386.34	1111.75
386.53	1303.68
386.72	1212.40
386.92	1231.12
387.11	1315.38
387.31	1188.99
387.50	1310.70
387.70	1242.82
387.89	1135.16
388.09	1303.68
388.28	1294.32
388.48	1270.91
388.67	1266.23
388.86	1266.23
389.06	1306.02
389.25	1409.00
389.45	1401.98
389.64	1308.36
389.84	1308.36
390.03	1397.30
390.22	1472.20
390.42	1376.24
390.61	1282.61
390.81	1453.47
391.00	1418.36
391.19	1441.77
391.39	1558.80
391.58	1521.35
391.78	1474.54
391.97	1446.45
392.16	1434.75
392.36	1490.92
392.55	1633.69
392.75	1488.58
392.94	1582.20
393.13	1500.28
393.33	1533.05
393.52	1474.54
393.71	1661.78
393.91	1530.71
394.10	1533.05
394.29	1614.97
394.49	1617.31
394.68	1607.95
394.88	1607.95
395.07	1638.38
395.26	1732.00
395.46	1729.66
395.65	1678.16
395.84	1760.08
396.04	1734.34
396.23	1736.68
396.42	1682.85
396.62	1870.09
396.81	1685.19
397.00	1818.60
397.19	1724.97
397.39	1839.66
397.58	1774.13
397.77	1762.42
397.97	1863.07
398.16	1888.81
398.35	1858.39
398.55	1802.21
398.74	1879.45
398.93	1994.14
399.12	1956.69
399.32	1818.60
399.51	1982.43
399.70	2005.84
399.90	2019.88
400.09	1980.09
400.28	2090.10
400.47	2017.54
400.67	2073.71
400.86	2111.16
401.05	1902.86
401.24	2136.91
401.44	2150.95
401.63	2113.50
401.82	2207.13
402.01	2139.25
402.21	2172.02
402.40	2076.06
402.59	2218.83
402.78	2267.98
402.97	2326.49
403.17	2338.20
403.36	2146.27
403.55	2263.30
403.74	2312.45
403.93	2345.22
404.13	2429.48
404.32	2403.73
404.51	2256.28
404.70	2373.30
404.89	2422.45
405.09	2499.69
405.28	2483.31
405.47	2478.63
405.66	2518.42
405.85	2647.15
406.05	2551.18
406.24	2359.26
406.43	2569.91
406.62	2787.58
406.81	2616.72
407.00	2569.91
407.20	2509.05
407.39	2621.40
407.58	2663.53
407.77	2654.17
407.96	2764.17
408.15	2764.17
408.34	2647.15
408.54	2799.28
408.73	2874.18
408.92	2860.13
409.11	2874.18
409.30	2829.71
409.49	2775.88
409.68	2906.95
409.87	2986.52
410.07	2942.05
410.26	3016.95
410.45	2970.14
410.64	3063.76
410.83	3054.40
411.02	3084.83
411.21	3115.25
411.40	3082.49
411.59	3283.77
411.78	3131.64
411.98	3318.88
412.17	3281.43
412.36	3255.69
412.55	3417.18
412.74	3419.52
412.93	3393.78
413.12	3295.47
413.31	3613.79
413.50	3480.38
413.69	3494.42
413.88	3676.98
414.07	3679.32
414.26	3459.31
414.45	3712.09
414.64	3709.75
414.83	3730.81
415.02	3868.91
415.22	3775.28
415.41	4023.38
415.60	3784.65
415.79	3941.46
415.98	3932.10
416.17	3988.27
416.36	3861.88
416.55	3927.42
416.74	4152.11
416.93	4091.26
417.12	4140.41
417.31	4184.88
417.50	4341.69
417.69	4255.09
417.88	4252.75
418.07	4334.67
418.26	4360.42
418.45	4236.37
418.64	4465.74
418.83	4458.72
419.02	4374.46
419.21	4554.68
419.39	4533.62
419.58	4334.67
419.77	4322.97
419.96	4402.55
420.15	4671.71
420.34	4468.08
420.53	4617.88
420.72	4767.67
420.91	4645.96
421.10	4786.40
421.29	4685.75
421.48	4716.18
421.67	4807.46
421.86	4828.53
422.05	4833.21
422.24	4854.27
422.43	5039.17
422.61	4992.36
422.80	5125.77
422.99	4950.23
423.18	4896.40
423.37	5064.92
423.56	4894.06
423.75	4971.30
423.94	4952.57
424.13	4603.83
424.32	4631.92
424.50	5121.09
424.69	4943.21
424.88	4938.53
425.07	5149.18
425.26	5015.77
425.45	4952.57
425.64	5011.09
425.83	5060.24
426.01	5018.11
426.20	5036.83
426.39	5114.07
426.58	4994.70
426.77	5008.75
426.96	5050.88
427.15	5128.11
427.33	5235.78
427.52	5305.99
427.71	5210.03
427.90	5303.65
428.09	5252.16
428.28	5348.12
428.46	5628.99
428.65	5217.05
428.84	5572.82
429.03	5401.96
429.22	5404.30
429.40	5383.23
429.59	5619.63
429.78	5284.93
429.97	5231.10
430.16	5636.01
430.34	5741.33
430.53	5633.67
430.72	5717.93
430.91	5589.20
431.10	5774.10
431.28	5818.57
431.47	5919.21
431.66	5914.53
431.85	5710.91
432.03	5973.05
432.22	5905.17
432.41	6059.65
432.60	5900.49
432.79	5928.58
432.97	6106.46
433.16	5937.94
433.35	6057.31
433.54	5926.24
433.72	6069.01
433.91	6132.20
434.10	6108.80
434.28	6181.35
434.47	6202.42
434.66	6249.23
434.85	6384.98
435.03	6434.13
435.22	6228.17
435.41	6434.13
435.59	6277.32
435.78	6293.70
435.97	6342.85
436.16	6541.80
436.34	6579.25
436.53	6450.52
436.72	6740.74
436.90	6502.01
437.09	6700.95
437.28	6623.72
437.46	6609.67
437.65	6546.48
437.84	6747.76
438.02	6853.09
438.21	6773.51
438.40	6750.10
438.58	7117.57
438.77	7028.63
438.96	7016.93
439.14	7197.15
439.33	7330.56
439.52	7204.17
439.70	7204.17
439.89	7372.69
440.08	7492.05
440.26	7391.41
440.45	7321.20
440.63	7494.40
440.82	7531.84
441.01	7630.15
441.19	7714.41
441.38	7634.83
441.57	7646.53
441.75	7763.56
441.94	7995.27
442.12	8189.53
442.31	8037.40
442.50	8091.23
442.68	8037.40
442.87	8107.62
443.05	7936.76
443.24	8353.37
443.43	8072.51
443.61	8168.47
443.80	8538.27
443.98	8166.13
444.17	7899.31
444.35	8226.98
444.54	8456.36
444.73	8418.91
444.91	8329.97
445.10	8369.76
445.28	8407.20
445.47	8339.33
445.65	8257.41
445.84	8493.80
446.02	8533.59
446.21	8500.83
446.39	8315.92
446.58	8526.57
446.77	8704.45
446.95	8341.67
447.14	8571.04
447.32	8568.70
447.51	8505.51
447.69	8519.55
447.88	8659.98
448.06	8725.52
448.25	8498.49
448.43	8580.40
448.62	8627.21
448.80	8540.61
448.99	8692.75
449.17	8798.07
449.36	8718.50
449.54	8769.99
449.73	8971.27
449.91	8990.00
450.10	9029.79
450.28	8997.02
450.46	9074.26
450.65	9008.72
450.83	9081.28
451.02	9057.87
451.20	9305.97
451.39	9191.28
451.57	9200.65
451.76	9053.19
451.94	9217.03
452.13	9343.42
452.31	9305.97
452.49	9083.62
452.68	9359.80
452.86	9589.17
453.05	9490.87
453.23	9638.33
453.42	9315.33
453.60	9404.27
453.78	9444.06
453.97	9607.90
454.15	9729.61
454.34	9600.88
454.52	9703.86
454.70	9673.43
454.89	9825.57
455.07	9860.68
455.26	10134.52
455.44	9942.60
455.62	10083.03
455.81	9989.41
455.99	10125.16
456.17	10111.11
456.36	10132.18
456.54	10207.08
456.73	10193.03
456.91	10434.11
457.09	10417.72
457.28	10546.45
457.46	10527.73
457.64	10586.24
457.83	10724.33
458.01	10349.85
458.19	10796.89
458.38	10530.07
458.56	10686.89
458.74	10902.22
458.93	10686.89
459.11	10743.06
459.29	10611.99
459.48	10949.03
459.66	10913.92
459.84	10939.66
460.03	11070.73
460.21	11056.69
460.39	10981.79
460.57	11023.92
460.76	11241.59
460.94	11204.14
461.12	11288.40
461.31	11382.03
461.49	11162.01
461.67	11087.12
461.85	11698.00
462.04	11246.27
462.22	11690.98
462.40	11749.49
462.59	11501.39
462.77	11346.92
462.95	11960.14
463.13	11695.66
463.32	11693.32
463.50	11597.35
463.68	11662.89
463.86	11859.49
464.05	11690.98
464.23	11768.21
464.41	11967.16
464.59	11585.65
464.78	12086.53
464.96	11920.35
465.14	11770.55
465.32	12262.07
465.50	12196.53
465.69	12224.62
465.87	12292.49
466.05	12301.86
466.23	12079.50
466.41	12453.99
466.60	12320.58
466.78	12271.43
466.96	12325.26
467.14	12374.41
467.32	12507.82
467.51	12624.85
467.69	12297.17
467.87	12685.70
468.05	12786.35
468.23	12561.66
468.41	12744.22
468.60	12702.09
468.78	12800.39
468.96	12671.66
469.14	12685.70
469.32	13214.66
469.50	12547.61
469.69	13282.54
469.87	13004.02
470.05	13270.84
470.23	13074.23
470.41	12959.55
470.59	13252.11
470.77	13284.88
470.95	13280.20
471.14	13558.72
471.32	13282.54
471.50	13687.45
471.68	13635.96
471.86	13537.66
472.04	13865.33
472.22	14157.90
472.40	13811.50
472.58	13832.57
472.77	14073.64
472.95	14235.14
473.13	14780.48
473.31	14108.75
473.49	14148.54
473.67	14174.28
473.85	14469.19
474.03	14789.85
474.21	14705.59
474.39	14953.68
474.57	14614.30
474.75	15077.73
474.93	14892.83
475.12	14956.02
475.30	15077.73
475.48	15094.11
475.66	15276.68
475.84	15082.41
476.02	15520.09
476.20	15737.76
476.38	15934.37
476.56	16400.13
476.74	16009.26
476.92	16046.71
477.10	16060.76
477.28	15995.22
477.46	16294.81
477.64	16561.63
477.82	16702.06
478.00	16964.20
478.18	16786.32
478.36	16868.24
478.54	17247.41
478.72	17039.10
478.90	17554.02
479.08	17628.92
479.26	17579.76
479.44	17884.03
479.62	17951.91
479.80	18008.08
479.98	18539.38
480.16	18373.21
480.34	18422.36
480.52	18897.49
480.70	18501.93
480.88	18363.84
481.06	19035.58
481.24	18878.76
481.41	18977.06
481.59	19431.13
481.77	19573.90
481.95	19583.26
482.13	19686.25
482.31	19747.10
482.49	20233.93
482.67	20247.97
482.85	20336.91
483.03	20533.52
483.21	20842.47
483.39	20847.15
483.57	21036.74
483.74	21317.60
483.92	21422.92
484.10	21317.60
484.28	21460.37
484.46	22221.05
484.64	22015.08
484.82	21802.09
485.00	22527.66
485.18	23028.53
485.35	23112.79
485.53	22986.40
485.71	23190.03
485.89	23498.98
486.07	23681.54
486.25	23903.89
486.43	23690.90
486.61	23960.06
486.78	24018.58
486.96	24137.94
487.14	24819.04
487.32	24807.34
487.50	25172.46
487.68	25296.51
487.85	25366.73
488.03	25891.01
488.21	25958.88
488.39	25986.97
488.57	25912.07
488.75	26139.10
488.92	26724.24
489.10	26686.79
489.28	26918.50
489.46	27112.77
489.64	26749.98
489.81	27892.16
489.99	27592.58
490.17	27892.16
490.35	28168.35
490.53	28315.80
490.70	28395.38
490.88	28601.35
491.06	29017.96
491.24	29144.35
491.41	29174.78
491.59	29486.07
491.77	29394.79
491.95	29844.17
492.13	29923.75
492.30	30015.03
492.48	30071.20
492.66	30497.18
492.84	30333.34
493.01	30883.37
493.19	30705.49
493.37	30958.27
493.54	31449.78
493.72	31608.93
493.90	32037.25
494.08	31927.25
494.25	32224.50
494.43	32070.02
494.61	32531.11
494.79	32542.81
494.96	32470.25
495.14	33027.30
495.32	33572.64
495.49	33481.36
495.67	33666.27
495.85	33401.79
496.02	34204.59
496.20	34330.98
496.38	34101.61
496.55	34476.09
496.73	35005.05
496.91	35007.39
497.09	35353.79
497.26	35182.93
497.44	34815.47
497.62	35391.24
497.79	35983.40
497.97	35655.72
498.14	35997.44
498.32	36400.01
498.50	36311.07
498.67	36807.26
498.85	36650.45
499.03	37006.21
499.20	37111.53
499.38	37090.47
499.56	37062.38
499.73	37305.80
499.91	37598.37
500.08	37883.91
500.26	37523.47
500.44	37633.47
500.61	38176.48
500.79	37963.49
500.97	38085.20
501.14	38660.97
501.32	38895.02
501.49	38742.89
501.67	38651.61
501.84	39049.50
502.02	38469.04
502.20	38951.20
502.37	39604.20
502.55	39342.06
502.72	39377.17
502.90	39622.93
503.07	39353.77
503.25	39700.17
503.43	40074.65
503.60	39868.69
503.78	40470.20
503.95	40655.11
504.13	40935.97
504.30	40755.75
504.48	40498.29
504.65	40631.70
504.83	40858.73
505.01	41155.98
505.18	41235.56
505.36	41827.71
505.53	41027.25
505.71	41294.07
505.88	42234.97
506.06	41811.33
506.23	42202.20
506.41	42059.43
506.58	41874.52
506.76	42337.95
506.93	42670.31
507.11	42433.91
507.28	42679.67
507.46	43019.05
507.63	42787.33
507.81	43246.08
507.98	42967.55
508.16	43419.28
508.33	43208.63
508.50	43571.41
508.68	43756.32
508.85	44215.06
509.03	44177.61
509.20	44357.83
509.38	44877.43
509.55	44755.72
509.73	44669.12
509.90	44306.34
510.08	44872.75
510.25	44870.41
510.42	45095.10
510.60	45319.79
510.77	45619.38
510.95	45801.94
511.12	44896.16
511.30	45352.56
511.47	45640.45
511.64	45804.28
511.82	46410.48
511.99	45563.21
512.17	46120.26
512.34	46087.49
512.51	46911.36
512.69	46536.87
512.86	46593.04
513.04	46946.47
513.21	46522.83
513.38	46836.46
513.56	47224.99
513.73	46700.71
513.90	47143.07
514.08	46752.20
514.25	47295.21
514.43	47412.23
514.60	47707.14
514.77	47648.63
514.95	47732.89
515.12	47948.21
515.29	47784.38
515.47	48252.48
515.64	48123.75
515.81	48406.96
515.99	48299.30
516.16	48236.10
516.33	48573.14
516.51	48615.27
516.68	48573.14
516.85	48978.05
517.03	49024.86
517.20	48914.86
517.37	49371.26
517.54	49223.81
517.72	49375.94
517.89	49411.05
518.06	49244.87
518.24	49570.21
518.41	49478.92
518.58	49694.25
518.75	49563.18
518.93	49528.08
519.10	49785.54
519.27	49806.60
519.45	49769.15
519.62	50064.06
519.79	50248.96
519.96	50307.47
520.14	50314.50
520.31	50150.66
520.48	50497.06
520.65	50770.90
520.83	50974.53
521.00	50738.13
521.17	50475.99
521.34	51054.11
521.52	51056.45
521.69	50824.73
521.86	51150.07
522.03	51515.19
522.20	51433.27
522.38	51845.21
522.55	51264.75
522.72	51515.19
522.89	51700.09
523.07	51833.50
523.24	51763.29
523.41	52069.90
523.58	51657.96
523.75	52168.20
523.92	52168.20
524.10	52224.37
524.27	52053.51
524.44	52154.16
524.61	52259.48
524.78	52587.16
524.96	52409.28
525.13	52423.32
525.30	52559.07
525.47	52722.91
525.64	52542.69
525.81	52725.25
525.98	52926.53
526.16	52793.12
526.33	52924.19
526.50	53286.98
526.67	52952.28
526.84	53066.97
527.01	52797.80
527.18	53277.61
527.36	53301.02
527.53	53097.39
527.70	53429.75
527.87	53176.97
528.04	53319.74
528.21	53626.35
528.38	53652.10
528.55	53851.05
528.72	53570.18
528.89	53434.43
529.07	53530.39
529.24	53127.82
529.41	53844.02
529.58	53813.60
529.75	53832.32
529.92	54164.68
530.09	54066.38
530.26	54021.90
530.43	54316.81
530.60	53759.76
530.77	54071.06
530.94	54106.16
531.11	54209.15
531.28	54515.76
531.46	54454.90
531.63	54288.73
531.80	54461.93
531.97	54738.11
532.14	54639.81
532.31	54658.53
532.48	54649.17
532.65	54756.83
532.82	54684.28
532.99	54958.12
533.16	54955.78
533.33	54997.91
533.50	54969.82
533.67	54995.57
533.84	54876.20
534.01	54974.50
534.18	54925.35
534.35	55414.52
534.52	55168.77
534.69	55325.58
534.86	55327.92
535.03	55288.13
535.20	55285.79
535.37	55454.31
535.54	55653.26
535.71	55276.43
535.88	55590.06
536.05	55627.51
536.22	55810.07
536.38	55852.20
536.55	55721.13
536.72	55742.20
536.89	55693.05
537.06	55587.72
537.23	55779.65
537.40	55634.53
537.57	55901.36
537.74	55873.27
537.91	56163.50
538.08	56114.34
538.25	55735.18
538.42	56107.32
538.59	56170.52
538.75	55835.82
538.92	56399.89
539.09	56353.08
539.26	56296.91
539.43	56317.97
539.60	56554.36
539.77	56334.35
539.94	56786.08
540.11	56399.89
540.28	56458.40
540.44	56463.08
540.61	56353.08
540.78	56364.78
540.95	56584.79
541.12	56523.94
541.29	56580.11
541.46	56502.87
541.62	56961.62
541.79	56783.74
541.96	56357.76
542.13	56846.93
542.30	56767.35
542.47	57158.22
542.63	56783.74
542.80	56917.15
542.97	57198.01
543.14	57237.80
543.31	57258.87
543.48	57249.50
543.64	57326.74
543.81	57350.15
543.98	57471.85
544.15	57631.01
544.32	57495.26
544.48	57949.32
544.65	57497.60
544.82	57698.89
544.99	57626.33
545.16	57647.39
545.32	57635.69
545.49	57806.55
545.66	57916.56
545.83	57986.77
546.00	57689.52
546.16	57591.22
546.33	57628.67
546.50	57663.78
546.67	57745.70
546.83	57495.26
547.00	57998.48
547.17	57989.11
547.34	57925.92
547.50	58293.38
547.67	57982.09
547.84	58321.47
548.00	58347.21
548.17	58398.71
548.34	58497.01
548.51	58497.01
548.67	58330.83
548.84	58447.86
549.01	58335.51
549.18	58258.27
549.34	58239.55
549.51	58482.97
549.68	58412.75
549.84	58501.69
550.01	58677.23
550.18	58508.71
550.34	58761.49
550.51	58773.19
550.68	58590.63
550.84	58239.55
551.01	58777.87
551.18	58728.72
551.34	58939.37
551.51	58637.44
551.68	58824.68
551.84	58649.14
552.01	58564.88
552.18	58780.21
552.34	58745.11
552.51	58740.42
552.68	58695.95
552.84	58859.79
553.01	59124.27
553.18	59051.72
553.34	59014.27
553.51	58714.68
553.67	58731.06
553.84	59086.82
554.01	59093.85
554.17	59285.77
554.34	59229.60
554.51	59098.53
554.67	59236.62
554.84	59217.89
555.00	59082.14
555.17	59002.56
555.33	59367.69
555.50	59215.55
555.67	59084.48
555.83	59135.98
556.00	59283.43
556.16	59508.12
556.33	59444.93
556.50	59367.69
556.66	59465.99
556.83	59304.49
556.99	59604.08
557.16	59428.54
557.32	59580.68
557.49	59597.06
557.65	59437.90
557.82	59482.37
557.98	59405.14
558.15	59739.83
558.32	59629.83
558.48	59391.09
558.65	59697.70
558.81	59669.62
558.98	59608.76
559.14	59709.41
559.31	59821.75
559.47	59592.38
559.64	59653.23
559.80	59693.02
559.97	59817.07
560.13	59796.01
560.30	59770.26
560.46	59938.78
560.63	60037.08
560.79	59805.37
560.96	60069.85
561.12	60039.42
561.29	59847.50
561.45	59924.74
561.61	59959.84
561.78	59887.29
561.94	59887.29
562.11	59973.89
562.27	59938.78
562.44	60074.53
562.60	60107.30
562.77	59938.78
562.93	60119.00
563.10	60041.76
563.26	59856.86
563.42	60179.85
563.59	60083.89
563.75	60013.68
563.92	60168.15
564.08	60168.15
564.24	60390.50
564.41	60147.09
564.57	60327.31
564.74	60156.45
564.90	59859.20
565.07	60292.20
565.23	60456.04
565.39	60250.07
565.56	60299.22
565.72	60411.57
565.88	60388.16
566.05	60245.39
566.21	60432.63
566.38	60240.71
566.54	60495.83
566.70	60624.56
566.87	60294.54
567.03	60203.26
567.19	60619.88
567.36	60224.32
567.52	60479.44
567.68	60662.00
567.85	60399.86
568.01	60559.02
568.17	60331.99
568.34	60563.70
568.50	60395.18
568.66	60479.44
568.83	60568.38
568.99	60444.33
569.15	60341.35
569.32	60657.32
569.48	60486.46
569.64	60673.71
569.81	60343.69
569.97	60521.57
570.13	60566.04
570.30	60547.32
570.46	60580.09
570.62	60659.66
570.78	60514.55
570.95	60563.70
571.11	60544.98
571.27	60500.51
571.43	60514.55
571.60	60907.76
571.76	60608.17
571.92	60640.94
572.09	60687.75
572.25	60809.46
572.41	60858.61
572.57	60711.16
572.74	60896.06
572.90	60718.18
573.06	60603.49
573.22	60781.37
573.38	60793.07
573.55	60739.24
573.71	60919.46
573.87	60776.69
574.03	60596.47
574.20	60807.12
574.36	60772.01
574.52	60912.44
574.68	60708.82
574.84	61015.43
575.01	60992.02
575.17	60896.06
575.33	60917.12
575.49	60669.03
575.65	60999.04
575.82	60896.06
575.98	60786.05
576.14	61078.62
576.30	60919.46
576.46	60802.44
576.62	60732.22
576.79	60835.20
576.95	60762.65
577.11	61055.21
577.27	61024.79
577.43	60896.06
577.59	60617.53
577.75	60697.11
577.92	60776.69
578.08	60879.67
578.24	60821.16
578.40	60942.87
578.56	61052.87
578.72	61052.87
578.88	61116.07
579.04	61066.92
579.21	61095.00
579.37	61137.13
579.53	61172.24
579.69	60772.01
579.85	60982.66
580.01	60956.91
580.17	60945.21
580.33	61146.50
580.49	61233.10
580.65	60898.40
580.82	60786.05
580.98	60914.78
581.14	60867.97
581.30	61139.47
581.46	60736.90
581.62	61158.20
581.78	60947.55
581.94	61066.92
582.10	61120.75
582.26	61083.30
582.42	61073.94
582.58	61132.45
582.74	60830.52
582.90	61181.60
583.06	61160.54
583.22	61085.64
583.38	60966.27
583.54	61240.12
583.70	61066.92
583.86	61118.41
584.02	60959.25
584.18	61104.37
584.34	61078.62
584.50	61055.21
584.66	61087.98
584.82	60874.99
584.98	61235.44
585.14	61338.42
585.30	61242.46
585.46	61151.18
585.62	61102.03
585.78	61188.63
585.94	61188.63
586.10	61078.62
586.26	61144.16
586.42	61282.25
586.58	61263.52
586.74	61113.73
586.90	61109.05
587.06	61080.96
587.22	61256.50
587.38	61413.32
587.54	61343.10
587.70	61387.57
587.86	61153.52
588.02	61146.50
588.18	61233.10
588.34	61102.03
588.49	61080.96
