SpectraSuite Data File
++++++++++++++++++++++++++++++++++++
Date: Fri Oct 25 10:47:02 EDT 2013
User: price-jones
Dark Spectrum Present: No
Reference Spectrum Present: No
Number of Sampled Component Spectra: 1
Spectrometers: USB2+H05261
Integration Time (usec): 100000 (USB2+H05261)
Spectra Averaged: 1 (USB2+H05261)
Boxcar Smoothing: 0 (USB2+H05261)
Correct for Electrical Dark: No (USB2+H05261)
Strobe/Lamp Enabled: No (USB2+H05261)
Correct for Detector Non-linearity: No (USB2+H05261)
Correct for Stray Light: No (USB2+H05261)
Number of Pixels in Processed Spectrum: 2048
>>>>>Begin Processed Spectral Data<<<<<
365.73	112.35
365.92	112.35
366.12	112.35
366.32	91.28
366.52	58.51
366.72	30.43
366.91	51.49
367.11	21.06
367.31	23.41
367.51	77.24
367.70	60.85
367.90	81.92
368.10	37.45
368.30	35.11
368.49	28.09
368.69	100.64
368.89	9.36
369.09	86.60
369.28	91.28
369.48	131.07
369.68	42.13
369.87	53.83
370.07	124.05
370.27	149.79
370.47	168.52
370.66	416.62
370.86	388.53
371.06	395.55
371.25	510.24
371.45	440.02
371.65	418.96
371.84	517.26
372.04	461.09
372.24	421.30
372.44	533.64
372.63	526.62
372.83	561.73
373.03	510.24
373.22	524.28
373.42	512.58
373.62	526.62
373.81	519.60
374.01	543.00
374.21	585.13
374.40	489.17
374.60	596.84
374.79	486.83
374.99	573.43
375.19	540.66
375.38	543.00
375.58	594.50
375.78	643.65
375.97	545.34
376.17	641.31
376.37	585.13
376.56	664.71
376.76	538.32
376.95	535.98
377.15	641.31
377.35	589.82
377.54	557.05
377.74	629.60
377.93	594.50
378.13	606.20
378.33	638.97
378.52	631.94
378.72	596.84
378.91	615.56
379.11	681.10
379.31	685.78
379.50	620.24
379.70	636.63
379.89	706.84
380.09	716.20
380.28	643.65
380.48	587.47
380.68	648.33
380.87	671.73
381.07	641.31
381.26	739.61
381.46	685.78
381.65	685.78
381.85	690.46
382.04	613.22
382.24	681.10
382.43	678.76
382.63	716.20
382.83	723.23
383.02	699.82
383.22	723.23
383.41	634.29
383.61	816.85
383.80	734.93
384.00	718.54
384.19	681.10
384.39	753.65
384.58	793.44
384.78	746.63
384.97	741.95
385.17	767.70
385.36	765.36
385.56	821.53
385.75	674.07
385.95	802.80
386.14	856.64
386.34	770.04
386.53	875.36
386.72	770.04
386.92	809.83
387.11	873.02
387.31	835.57
387.50	826.21
387.70	772.38
387.89	823.87
388.09	856.64
388.28	779.40
388.48	748.97
388.67	891.74
388.86	912.81
389.06	882.38
389.25	889.40
389.45	891.74
389.64	924.51
389.84	1041.54
390.03	868.34
390.22	943.24
390.42	940.90
390.61	1013.45
390.81	1022.81
391.00	898.77
391.19	1069.62
391.39	1015.79
391.58	983.02
391.78	1055.58
391.97	987.71
392.16	971.32
392.36	1036.86
392.55	1095.37
392.75	985.37
392.94	961.96
393.13	973.66
393.33	994.73
393.52	1001.75
393.71	1128.14
393.91	1050.90
394.10	1032.18
394.29	1107.07
394.49	1086.01
394.68	1067.28
394.88	1135.16
395.07	1240.48
395.26	1149.20
395.46	1156.22
395.65	1174.95
395.84	1174.95
396.04	1249.85
396.23	1090.69
396.42	1144.52
396.62	1167.93
396.81	1151.54
397.00	1235.80
397.19	1252.19
397.39	1259.21
397.58	1238.14
397.77	1275.59
397.97	1369.21
398.16	1401.98
398.35	1371.55
398.55	1334.11
398.74	1401.98
398.93	1359.85
399.12	1387.94
399.32	1324.74
399.51	1387.94
399.70	1341.13
399.90	1416.02
400.09	1474.54
400.28	1481.56
400.47	1493.26
400.67	1451.13
400.86	1570.50
401.05	1486.24
401.24	1542.41
401.44	1579.86
401.63	1605.61
401.82	1650.08
402.01	1493.26
402.21	1575.18
402.40	1577.52
402.59	1476.88
402.78	1640.72
402.97	1640.72
403.17	1652.42
403.36	1605.61
403.55	1577.52
403.74	1783.49
403.93	1703.91
404.13	1713.27
404.32	1720.29
404.51	1724.97
404.70	1900.52
404.89	1720.29
405.09	1750.72
405.28	1813.92
405.47	1724.97
405.66	1739.02
405.85	1806.89
406.05	1797.53
406.24	1902.86
406.43	1785.83
406.62	1970.73
406.81	2026.90
407.00	1952.01
407.20	1846.68
407.39	1865.41
407.58	1966.05
407.77	1919.24
407.96	2026.90
408.15	2052.65
408.34	2108.82
408.54	2019.88
408.73	2169.68
408.92	2092.44
409.11	2129.89
409.30	2134.57
409.49	2026.90
409.68	2047.97
409.87	2101.80
410.07	2139.25
410.26	2211.81
410.45	2251.60
410.64	2270.32
410.83	2289.04
411.02	2251.60
411.21	2389.69
411.40	2394.37
411.59	2361.60
411.78	2321.81
411.98	2459.90
412.17	2417.77
412.36	2478.63
412.55	2558.21
412.74	2476.29
412.93	2621.40
413.12	2551.18
413.31	2457.56
413.50	2656.51
413.69	2656.51
413.88	2752.47
414.07	2642.46
414.26	2820.35
414.45	2813.32
414.64	2799.28
414.83	2736.09
415.02	2778.22
415.22	2841.41
415.41	2913.97
415.60	3019.29
415.79	2843.75
415.98	2932.69
416.17	3035.67
416.36	3021.63
416.55	3080.14
416.74	2923.33
416.93	2944.39
417.12	3023.97
417.31	3070.78
417.50	3023.97
417.69	3164.40
417.88	3307.18
418.07	3148.02
418.26	3054.40
418.45	3222.92
418.64	3321.22
418.83	3297.81
419.02	3255.69
419.21	3262.71
419.39	3297.81
419.58	3492.08
419.77	3236.96
419.96	3314.20
420.15	3386.76
420.34	3377.39
420.53	3449.95
420.72	3541.23
420.91	3520.17
421.10	3400.80
421.29	3459.31
421.48	3403.14
421.67	3550.59
421.86	3424.20
422.05	3520.17
422.24	3419.52
422.43	3515.48
422.61	3583.36
422.80	3552.93
422.99	3616.13
423.18	3583.36
423.37	3726.13
423.56	3616.13
423.75	3592.72
423.94	3599.74
424.13	3382.07
424.32	3548.25
424.50	3838.48
424.69	3801.03
424.88	3765.92
425.07	3681.66
425.26	3723.79
425.45	3632.51
425.64	3658.26
425.83	3632.51
426.01	3653.58
426.20	3770.60
426.39	3723.79
426.58	3616.13
426.77	3733.15
426.96	3658.26
427.15	3712.09
427.33	3812.73
427.52	3838.48
427.71	3859.54
427.90	3822.09
428.09	3929.76
428.28	3705.07
428.46	3885.29
428.65	3873.59
428.84	3887.63
429.03	4030.40
429.22	3779.97
429.40	3953.16
429.59	3880.61
429.78	3648.90
429.97	3772.94
430.16	3686.34
430.34	3772.94
430.53	3960.19
430.72	3983.59
430.91	4025.72
431.10	4056.15
431.28	4091.26
431.47	4215.30
431.66	4416.59
431.85	4241.05
432.03	4311.27
432.22	4219.99
432.41	4315.95
432.60	4339.35
432.79	4297.22
432.97	4493.83
433.16	4463.40
433.35	4334.67
433.54	4386.16
433.72	4421.27
433.91	4454.04
434.10	4514.89
434.28	4498.51
434.47	4533.62
434.66	4695.11
434.85	4545.32
435.03	4608.51
435.22	4444.68
435.41	4587.45
435.59	4667.03
435.78	4589.79
435.97	4795.76
436.16	4692.77
436.34	4734.90
436.53	4821.50
436.72	4840.23
436.90	4751.29
437.09	4884.70
437.28	4739.58
437.46	4861.29
437.65	4819.16
437.84	4936.19
438.02	4802.78
438.21	4823.84
438.40	4772.35
438.58	4875.34
438.77	5123.43
438.96	4870.65
439.14	5198.33
439.33	5310.68
439.52	5308.34
439.70	5123.43
439.89	5247.48
440.08	5259.18
440.26	5336.42
440.45	5359.83
440.63	5425.36
440.82	5523.66
441.01	5371.53
441.19	5610.26
441.38	5671.12
441.57	5715.59
441.75	5785.80
441.94	5874.74
442.12	5858.36
442.31	5853.68
442.50	5788.14
442.68	5834.96
442.87	5753.04
443.05	5834.96
443.24	5968.37
443.43	5963.68
443.61	5959.00
443.80	6043.26
443.98	5811.55
444.17	5689.84
444.35	5860.70
444.54	6352.21
444.73	6031.56
444.91	5968.37
445.10	5973.05
445.28	6085.39
445.47	5907.51
445.65	6099.44
445.84	6010.50
446.02	6258.59
446.21	6085.39
446.39	6064.33
446.58	6139.23
446.77	6080.71
446.95	6083.05
447.14	6193.06
447.32	6188.38
447.51	6061.99
447.69	6237.53
447.88	6083.05
448.06	6207.10
448.25	6352.21
448.43	6314.77
448.62	6099.44
448.80	6394.34
448.99	6305.40
449.17	6347.53
449.36	6300.72
449.54	6597.97
449.73	6640.10
449.91	6539.46
450.10	6546.48
450.28	6637.76
450.46	6576.91
450.65	6766.49
450.83	6686.91
451.02	6677.55
451.20	6656.48
451.39	6494.99
451.57	6689.25
451.76	6520.73
451.94	6827.34
452.13	6848.41
452.31	6700.95
452.49	6857.77
452.68	6923.30
452.86	6895.22
453.05	6883.52
453.23	6979.48
453.42	6764.15
453.60	6799.26
453.78	7094.16
453.97	6860.11
454.15	6890.54
454.34	6935.01
454.52	6974.80
454.70	7122.25
454.89	6927.99
455.07	6895.22
455.26	7077.78
455.44	7332.90
455.62	7023.95
455.81	7262.68
455.99	7171.40
456.17	7482.69
456.36	7281.41
456.54	7379.71
456.73	7562.27
456.91	7520.14
457.09	7470.99
457.28	7644.19
457.46	7595.04
457.64	7583.34
457.83	7513.12
458.01	7473.33
458.19	7693.34
458.38	7667.60
458.56	7669.94
458.74	7623.12
458.93	7726.11
459.11	7749.51
459.29	7660.57
459.48	7812.71
459.66	7665.25
459.84	7896.97
460.03	7985.91
460.21	7838.45
460.39	8002.29
460.57	7908.67
460.76	7983.57
460.94	8093.57
461.12	8053.78
461.31	8049.10
461.49	7957.82
461.67	8205.92
461.85	8255.07
462.04	8121.66
462.22	8657.64
462.40	8374.44
462.59	8257.41
462.77	8280.82
462.95	8336.99
463.13	8212.94
463.32	8578.06
463.50	8486.78
463.68	8407.20
463.86	8369.76
464.05	8465.72
464.23	8444.65
464.41	8407.20
464.59	8315.92
464.78	8711.47
464.96	8437.63
465.14	8587.43
465.32	8535.93
465.50	8601.47
465.69	8549.98
465.87	8458.70
466.05	8472.74
466.23	8662.32
466.41	8812.12
466.60	8798.07
466.78	8514.87
466.96	8573.38
467.14	8557.00
467.32	8746.58
467.51	8800.41
467.69	8662.32
467.87	8786.37
468.05	8716.16
468.23	8823.82
468.41	8711.47
468.60	8847.22
468.78	8903.40
468.96	8777.01
469.14	9130.43
469.32	9254.48
469.50	8926.80
469.69	9046.17
469.87	9270.86
470.05	9156.18
470.23	9226.39
470.41	9144.47
470.59	9327.03
470.77	9266.18
470.95	9451.08
471.14	9427.68
471.32	9327.03
471.50	9572.79
471.68	9530.66
471.86	9738.97
472.04	9827.91
472.22	9753.01
472.40	9731.95
472.58	9645.35
472.77	9659.39
472.95	9692.16
473.13	10314.74
473.31	9792.80
473.49	9806.84
473.67	9994.09
473.85	10104.09
474.03	10420.06
474.21	10326.44
474.39	10272.61
474.57	10312.40
474.75	10260.91
474.93	10485.60
475.12	10347.51
475.30	10658.80
475.48	10487.94
475.66	10560.50
475.84	10864.77
476.02	10487.94
476.20	10707.95
476.38	11049.67
476.56	11112.86
476.74	11028.60
476.92	11000.52
477.10	11269.68
477.28	11555.22
477.46	11421.81
477.64	11332.87
477.82	11655.87
478.00	11585.65
478.18	11850.13
478.36	11836.09
478.54	11957.80
478.72	12241.00
478.90	12283.13
479.08	12030.35
479.26	12266.75
479.44	12383.77
479.62	12517.18
479.80	12526.55
479.98	12699.75
480.16	12985.29
480.34	12746.56
480.52	12894.01
480.70	12819.11
480.88	12695.07
481.06	12695.07
481.24	13032.10
481.41	13275.52
481.59	13474.46
481.77	13366.80
481.95	13469.78
482.13	13738.94
482.31	13760.01
482.49	13748.31
482.67	13865.33
482.85	14171.94
483.03	14064.28
483.21	14312.38
483.39	14457.49
483.57	14333.44
483.74	14553.45
483.92	14633.03
484.10	14633.03
484.28	14892.83
484.46	15030.92
484.64	15484.98
484.82	15042.62
485.00	15513.07
485.18	15618.39
485.35	15627.76
485.53	15562.22
485.71	15534.14
485.89	15686.27
486.07	15597.33
486.25	15796.28
486.43	16018.63
486.61	15985.86
486.78	16379.07
486.96	16580.36
487.14	16681.00
487.32	16568.65
487.50	16898.67
487.68	17146.76
487.85	17467.42
488.03	17748.28
488.21	17434.65
488.39	17479.12
488.57	17827.86
488.75	17778.71
488.92	18260.86
489.10	18232.77
489.28	18352.14
489.46	18607.26
489.64	18794.50
489.81	18831.95
489.99	18930.25
490.17	19360.91
490.35	19278.99
490.53	19187.71
490.70	19201.76
490.88	19405.38
491.06	19527.09
491.24	19658.16
491.41	19370.27
491.59	19988.18
491.77	19381.98
491.95	19971.79
492.13	20163.72
492.30	20776.94
492.48	20528.84
492.66	20404.79
492.84	20292.44
493.01	21010.99
493.19	21160.78
493.37	20961.84
493.54	21401.86
493.72	21493.14
493.90	21221.64
494.08	21593.78
494.25	21994.01
494.43	22045.51
494.61	22085.30
494.79	22199.98
494.96	22211.68
495.14	22139.13
495.32	22434.03
495.49	22511.27
495.67	22728.94
495.85	22944.27
496.02	22925.55
496.20	22838.95
496.38	23157.26
496.55	23115.13
496.73	23814.95
496.91	23360.89
497.09	23686.22
497.26	23910.91
497.44	23927.30
497.62	24032.62
497.79	24306.46
497.97	23761.12
498.14	24084.11
498.32	24037.30
498.50	24166.03
498.67	24620.10
498.85	24606.05
499.03	25029.69
499.20	24961.81
499.38	24863.51
499.56	25053.09
499.73	24987.56
499.91	25179.48
500.08	25268.42
500.26	25589.08
500.44	25116.29
500.61	25507.16
500.79	25479.07
500.97	25418.22
501.14	25907.39
501.32	26225.70
501.49	25996.33
501.67	26373.16
501.84	26075.91
502.02	26284.22
502.20	26483.16
502.37	26450.39
502.55	26338.05
502.72	26590.83
502.90	26260.81
503.07	26822.54
503.25	26541.68
503.43	26462.10
503.60	26953.61
503.78	26913.82
503.95	27164.26
504.13	27199.37
504.30	27243.84
504.48	27173.62
504.65	27454.48
504.83	27440.44
505.01	27955.36
505.18	27580.87
505.36	28074.73
505.53	28041.96
505.71	28622.41
505.88	28217.50
506.06	28095.79
506.23	28545.17
506.41	27950.68
506.58	28325.16
506.76	28367.29
506.93	28524.11
507.11	28732.42
507.28	28830.72
507.46	28561.56
507.63	28844.76
507.81	28662.20
507.98	28589.64
508.16	29074.13
508.33	29099.88
508.50	29406.49
508.68	29181.80
508.85	29832.47
509.03	29610.12
509.20	29818.42
509.38	29532.88
509.55	29902.68
509.73	30050.14
509.90	29895.66
510.08	30043.12
510.25	30024.39
510.42	30045.46
510.60	30319.30
510.77	30221.00
510.95	30518.25
511.12	30555.69
511.30	30682.08
511.47	31115.08
511.64	30859.96
511.82	30895.07
511.99	30663.36
512.17	31140.83
512.34	31016.78
512.51	31412.33
512.69	31000.40
512.86	31487.23
513.04	31386.58
513.21	31622.98
513.38	31452.12
513.56	31578.51
513.73	31339.77
513.90	31627.66
514.08	31622.98
514.25	31702.56
514.43	32100.45
514.60	31992.78
514.77	31737.66
514.95	32271.31
515.12	31871.07
515.29	32187.05
515.47	32561.53
515.64	32631.75
515.81	32437.48
515.99	32645.79
516.16	32781.54
516.33	32208.11
516.51	33036.66
516.68	32367.27
516.85	32133.21
517.03	32610.68
517.20	32760.48
517.37	32673.88
517.54	33518.81
517.72	33099.86
517.89	33048.36
518.06	32973.47
518.24	32952.40
518.41	33298.80
518.58	33240.29
518.75	33249.65
518.93	33474.34
519.10	33479.02
519.27	33619.46
519.45	33626.48
519.62	33897.98
519.79	33958.83
519.96	34178.84
520.14	34209.27
520.31	33811.38
520.48	34026.71
520.65	34323.96
520.83	34380.13
521.00	34881.00
521.17	34773.34
521.34	34501.84
521.52	34703.12
521.69	34682.06
521.86	34983.99
522.03	34644.61
522.20	34883.34
522.38	35037.82
522.55	35119.74
522.72	35005.05
522.89	35084.63
523.07	35283.58
523.24	34799.08
523.41	35257.83
523.58	35297.62
523.75	35739.98
523.92	35859.35
524.10	36308.73
524.27	35524.65
524.44	35969.35
524.61	35828.92
524.78	36133.19
524.96	36332.14
525.13	36556.83
525.30	36187.02
525.47	36360.22
525.64	36034.89
525.81	36194.04
525.98	36400.01
526.16	36360.22
526.33	35892.12
526.50	36446.82
526.67	36135.53
526.84	36474.91
527.01	36268.94
527.18	36591.94
527.36	36430.44
527.53	36870.46
527.70	37170.05
527.87	37046.00
528.04	36545.12
528.21	37017.91
528.38	36982.80
528.55	37368.99
528.72	37474.32
528.89	37652.20
529.07	37567.94
529.24	37404.10
529.41	37820.72
529.58	37254.31
529.75	37263.67
529.92	37415.80
530.09	37427.51
530.26	37813.70
530.43	37717.73
530.60	37738.80
530.77	37464.96
530.94	37724.75
531.11	38373.08
531.28	38134.35
531.46	37926.04
531.63	38548.62
531.80	37984.55
531.97	37928.38
532.14	38412.87
532.31	38124.99
532.48	38258.40
532.65	38251.38
532.82	38136.69
532.99	38618.84
533.16	38307.55
533.33	38607.14
533.50	38501.81
533.67	38637.56
533.84	38368.40
534.01	38925.45
534.18	38550.96
534.35	39222.70
534.52	38632.88
534.69	39056.52
534.86	38988.64
535.03	38976.94
535.20	39030.77
535.37	39475.48
535.54	39470.79
535.71	39152.48
535.88	39225.04
536.05	39587.82
536.22	39395.90
536.38	39543.35
536.55	39508.24
536.72	39772.72
536.89	39079.92
537.06	39288.23
537.23	39995.07
537.40	39819.53
537.57	39765.70
537.74	39555.05
537.91	40156.57
538.08	40315.73
538.25	39381.85
538.42	40095.72
538.59	40154.23
538.75	39702.51
538.92	40013.80
539.09	40481.91
539.26	39758.68
539.43	39990.39
539.60	40107.42
539.77	40135.51
539.94	40247.85
540.11	39674.42
540.28	39878.05
540.44	40226.79
540.61	40493.61
540.78	40306.37
540.95	40835.33
541.12	40395.31
541.29	40659.79
541.46	40364.88
541.62	40657.45
541.79	41102.15
541.96	40620.00
542.13	40676.17
542.30	40491.27
542.47	40666.81
542.63	40861.07
542.80	40767.45
542.97	40938.31
543.14	41357.27
543.31	41383.01
543.48	41518.76
543.64	42319.23
543.81	41242.58
543.98	41820.69
544.15	41577.28
544.32	41680.26
544.48	41832.39
544.65	41645.15
544.82	41926.02
544.99	41769.20
545.16	41752.82
545.32	41490.68
545.49	41801.97
545.66	42188.16
545.83	41617.07
546.00	41991.55
546.16	42190.50
546.33	42326.25
546.50	41319.82
546.67	41965.81
546.83	42124.96
547.00	42024.32
547.17	42155.39
547.34	41890.91
547.50	42066.45
547.67	42286.46
547.84	42405.83
548.00	42424.55
548.17	42691.37
548.34	41977.51
548.51	42728.82
548.67	42513.49
548.84	42387.10
549.01	42274.76
549.18	42167.09
549.34	42410.51
549.51	42726.48
549.68	42827.12
549.84	42679.67
550.01	42742.86
550.18	42398.80
550.34	43035.43
550.51	42616.47
550.68	42932.45
550.84	42337.95
551.01	42906.70
551.18	42398.80
551.34	43089.26
551.51	43395.87
551.68	43213.31
551.84	43206.29
552.01	42632.86
552.18	42686.69
552.34	43339.70
552.51	43152.46
552.68	43281.19
552.84	43503.54
553.01	43220.33
553.18	43360.76
553.34	43316.29
553.51	43098.62
553.67	42995.64
553.84	43412.26
554.01	43555.03
554.17	43805.47
554.34	43545.67
554.51	43646.31
554.67	43824.19
554.84	43697.80
555.00	43225.01
555.17	43756.32
555.33	43674.40
555.50	43428.64
555.67	43529.28
555.83	43648.65
556.00	43943.56
556.16	44112.08
556.33	43634.61
556.50	43489.49
556.66	43896.75
556.83	43791.42
556.99	44343.79
557.16	44081.65
557.32	44177.61
557.49	44081.65
557.65	44051.22
557.82	43683.76
557.98	44044.20
558.15	43908.45
558.32	44184.63
558.48	43934.20
558.65	43950.58
558.81	43817.17
558.98	44177.61
559.14	44083.99
559.31	43665.03
559.47	43969.30
559.64	44273.57
559.80	44547.42
559.97	44198.68
560.13	44325.07
560.30	44196.34
560.46	44425.71
560.63	44463.16
560.79	44582.52
560.96	44790.83
561.12	44292.30
561.29	44444.43
561.45	44128.46
561.61	44287.62
561.78	44009.09
561.94	44264.21
562.11	44023.14
562.27	44348.47
562.44	44449.11
562.60	44790.83
562.77	44650.40
562.93	44353.15
563.10	44559.12
563.26	44327.41
563.42	44715.93
563.59	44435.07
563.75	44516.99
563.92	45062.33
564.08	44856.37
564.24	45139.57
564.41	45188.72
564.57	44638.70
564.74	44722.96
564.90	45076.38
565.07	44631.68
565.23	44493.58
565.39	44392.94
565.56	44781.47
565.72	44786.15
565.88	44512.31
566.05	44610.61
566.21	44877.43
566.38	44355.49
566.54	44643.38
566.70	45237.87
566.87	45158.30
567.03	44622.31
567.19	45219.15
567.36	44875.09
567.52	44945.31
567.68	44797.85
567.85	44753.38
568.01	44737.00
568.17	44744.02
568.34	45144.25
568.50	44996.80
568.66	44580.18
568.83	45265.96
568.99	44502.95
569.15	44732.32
569.32	44919.56
569.48	44718.28
569.64	45450.86
569.81	44978.07
569.97	44783.81
570.13	45036.59
570.30	44737.00
570.46	44311.02
570.62	44999.14
570.78	45127.87
570.95	44257.19
571.11	44964.03
571.27	44854.03
571.43	45179.36
571.60	44629.34
571.76	44968.71
571.92	45158.30
572.09	44814.24
572.25	44624.65
572.41	44900.84
572.57	44957.01
572.74	45815.99
572.90	45198.09
573.06	45242.56
573.22	45113.83
573.38	44978.07
573.55	45099.78
573.71	45329.16
573.87	45148.93
574.03	45280.00
574.20	45352.56
574.36	44959.35
574.52	45357.24
574.68	45450.86
574.84	45277.66
575.01	44744.02
575.17	44959.35
575.33	45221.49
575.49	44900.84
575.65	45591.30
575.82	45586.61
575.98	45425.12
576.14	45755.13
576.30	45567.89
576.46	45118.51
576.62	44896.16
576.79	44968.71
576.95	44781.47
577.11	44931.26
577.27	45560.87
577.43	45755.13
577.59	45303.41
577.75	45544.48
577.92	45036.59
578.08	45062.33
578.24	45057.65
578.40	45099.78
578.56	45488.31
578.72	45088.08
578.88	45567.89
579.04	45638.11
579.21	45230.85
579.37	45368.94
579.53	45595.98
579.69	44804.88
579.85	45628.74
580.01	45680.24
580.17	45249.58
580.33	45490.65
580.49	45551.51
580.65	45502.35
580.82	45125.53
580.98	45558.53
581.14	45067.02
581.30	45443.84
581.46	45003.82
581.62	45366.60
581.78	45415.76
581.94	45640.45
582.10	45572.57
582.26	45661.51
582.42	45769.18
582.58	44945.31
582.74	45509.38
582.90	45326.81
583.06	45443.84
583.22	45382.99
583.38	45855.78
583.54	45289.37
583.70	45326.81
583.86	45207.45
584.02	45289.37
584.18	45404.05
584.34	45478.95
584.50	45455.54
584.66	45090.42
584.82	45373.63
584.98	45610.02
585.14	45530.44
585.30	45336.18
585.46	45546.82
585.62	45223.83
585.78	44893.82
585.94	45240.21
586.10	45598.32
586.26	45310.43
586.42	45027.23
586.58	45813.65
586.74	45359.58
586.90	45237.87
587.06	45436.82
587.22	45963.44
587.38	45116.17
587.54	45633.42
587.70	45319.79
587.86	45631.08
588.02	45736.41
588.18	45673.21
588.34	45191.06
588.49	45148.93
588.65	45223.83
588.81	45352.56
588.97	45680.24
589.13	44961.69
589.29	45191.06
589.45	45546.82
589.61	45223.83
589.77	45722.37
589.93	45680.24
590.08	45628.74
