SpectraSuite Data File
++++++++++++++++++++++++++++++++++++
Date: Fri Oct 25 11:24:07 EDT 2013
User: price-jones
Dark Spectrum Present: No
Reference Spectrum Present: No
Number of Sampled Component Spectra: 1
Spectrometers: USB2+H05261
Integration Time (usec): 100000 (USB2+H05261)
Spectra Averaged: 1 (USB2+H05261)
Boxcar Smoothing: 0 (USB2+H05261)
Correct for Electrical Dark: No (USB2+H05261)
Strobe/Lamp Enabled: No (USB2+H05261)
Correct for Detector Non-linearity: No (USB2+H05261)
Correct for Stray Light: No (USB2+H05261)
Number of Pixels in Processed Spectrum: 2048
>>>>>Begin Processed Spectral Data<<<<<
365.73	264.48
365.92	264.48
366.12	264.48
366.32	149.79
366.52	98.30
366.72	208.31
366.91	135.75
367.11	170.86
367.31	135.75
367.51	177.88
367.70	60.85
367.90	121.71
368.10	81.92
368.30	161.50
368.49	131.07
368.69	194.26
368.89	124.05
369.09	163.84
369.28	163.84
369.48	145.11
369.68	203.63
369.87	287.89
370.07	222.35
370.27	290.23
370.47	402.57
370.66	447.04
370.86	648.33
371.06	643.65
371.25	667.05
371.45	641.31
371.65	748.97
371.84	727.91
372.04	697.48
372.24	779.40
372.44	791.10
372.63	678.76
372.83	711.52
373.03	763.01
373.22	706.84
373.42	784.08
373.62	755.99
373.81	739.61
374.01	887.06
374.21	851.96
374.40	830.89
374.60	826.21
374.79	779.40
374.99	812.17
375.19	816.85
375.38	908.13
375.58	809.83
375.78	908.13
375.97	873.02
376.17	973.66
376.37	910.47
376.56	873.02
376.76	870.68
376.95	854.30
377.15	880.04
377.35	889.40
377.54	882.38
377.74	884.72
377.93	940.90
378.13	880.04
378.33	919.83
378.52	936.21
378.72	947.92
378.91	966.64
379.11	964.30
379.31	964.30
379.50	882.38
379.70	983.02
379.89	858.98
380.09	933.87
380.28	961.96
380.48	992.39
380.68	985.37
380.87	1064.94
381.07	1069.62
381.26	1043.88
381.46	1008.77
381.65	983.02
381.85	1097.71
382.04	1013.45
382.24	1109.41
382.43	1029.84
382.63	971.32
382.83	1025.15
383.02	1071.97
383.22	1139.84
383.41	1064.94
383.61	1107.07
383.80	1167.93
384.00	1090.69
384.19	1043.88
384.39	1088.35
384.58	1130.48
384.78	1163.25
384.97	1224.10
385.17	1177.29
385.36	1221.76
385.56	1210.06
385.75	1139.84
385.95	1242.82
386.14	1167.93
386.34	1217.08
386.53	1249.85
386.72	1167.93
386.92	1268.57
387.11	1289.64
387.31	1247.51
387.50	1240.48
387.70	1259.21
387.89	1177.29
388.09	1310.70
388.28	1125.80
388.48	1327.08
388.67	1263.89
388.86	1235.80
389.06	1259.21
389.25	1380.92
389.45	1310.70
389.64	1357.51
389.84	1425.39
390.03	1519.01
390.22	1352.83
390.42	1362.19
390.61	1306.02
390.81	1348.15
391.00	1362.19
391.19	1488.58
391.39	1493.26
391.58	1488.58
391.78	1495.60
391.97	1369.21
392.16	1495.60
392.36	1535.39
392.55	1570.50
392.75	1575.18
392.94	1540.07
393.13	1568.16
393.33	1511.99
393.52	1509.65
393.71	1633.69
393.91	1647.74
394.10	1547.09
394.29	1614.97
394.49	1645.40
394.68	1666.46
394.88	1624.33
395.07	1741.36
395.26	1687.53
395.46	1675.82
395.65	1741.36
395.84	1692.21
396.04	1692.21
396.23	1717.95
396.42	1741.36
396.62	1671.14
396.81	1809.23
397.00	1743.70
397.19	1842.00
397.39	1818.60
397.58	1860.73
397.77	1959.03
397.97	1832.64
398.16	1912.22
398.35	1914.56
398.55	1832.64
398.74	1863.07
398.93	1940.30
399.12	1980.09
399.32	1921.58
399.51	1959.03
399.70	1912.22
399.90	2115.84
400.09	2022.22
400.28	2162.66
400.47	2155.63
400.67	2136.91
400.86	1937.96
401.05	2099.46
401.24	2064.35
401.44	2108.82
401.63	2239.89
401.82	2172.02
402.01	2120.53
402.21	2181.38
402.40	2256.28
402.59	2190.74
402.78	2237.55
402.97	2239.89
403.17	2298.41
403.36	2300.75
403.55	2242.23
403.74	2406.07
403.93	2396.71
404.13	2366.28
404.32	2352.24
404.51	2448.20
404.70	2370.96
404.89	2345.22
405.09	2480.97
405.28	2410.75
405.47	2462.24
405.66	2492.67
405.85	2544.16
406.05	2572.25
406.24	2670.55
406.43	2640.12
406.62	2696.30
406.81	2708.00
407.00	2532.46
407.20	2583.95
407.39	2623.74
407.58	2775.88
407.77	2675.23
407.96	2775.88
408.15	2750.13
408.34	2778.22
408.54	2792.26
408.73	2839.07
408.92	2843.75
409.11	2923.33
409.30	2956.10
409.49	2911.63
409.68	2820.35
409.87	2928.01
410.07	3030.99
410.26	3061.42
410.45	3040.36
410.64	3103.55
410.83	3070.78
411.02	3169.09
411.21	3148.02
411.40	3028.65
411.59	3342.28
411.78	3101.21
411.98	3300.16
412.17	3192.49
412.36	3353.99
412.55	3365.69
412.74	3372.71
412.93	3475.70
413.12	3339.94
413.31	3438.25
413.50	3494.42
413.69	3421.86
413.88	3660.60
414.07	3611.45
414.26	3618.47
414.45	3609.11
414.64	3758.90
414.83	3747.20
415.02	3852.52
415.22	3901.67
415.41	3936.78
415.60	3861.88
415.79	4098.28
415.98	4025.72
416.17	4131.05
416.36	4007.00
416.55	4044.45
416.74	4117.00
416.93	4168.49
417.12	4035.08
417.31	4145.09
417.50	4121.68
417.69	4311.27
417.88	4299.56
418.07	4311.27
418.26	4290.20
418.45	4322.97
418.64	4608.51
418.83	4313.61
419.02	4461.06
419.21	4594.47
419.39	4524.26
419.58	4486.81
419.77	4482.13
419.96	4580.43
420.15	4643.62
420.34	4681.07
420.53	4624.90
420.72	4678.73
420.91	4748.95
421.10	4772.35
421.29	4887.04
421.48	4758.31
421.67	4844.91
421.86	4786.40
422.05	4873.00
422.24	4924.49
422.43	4896.40
422.61	5067.26
422.80	4926.83
422.99	4978.32
423.18	4882.36
423.37	5163.22
423.56	4987.68
423.75	4929.17
423.94	4861.29
424.13	4660.01
424.32	4770.01
424.50	5022.79
424.69	5107.05
424.88	5146.84
425.07	5013.43
425.26	5001.72
425.45	5090.67
425.64	5032.15
425.83	4945.55
426.01	5151.52
426.20	5093.01
426.39	5071.94
426.58	5085.98
426.77	5006.41
426.96	5123.43
427.15	5013.43
427.33	5022.79
427.52	5266.21
427.71	5226.42
427.90	5305.99
428.09	5282.59
428.28	5298.97
428.46	5380.89
428.65	5427.70
428.84	5437.06
429.03	5593.88
429.22	5497.92
429.40	5504.94
429.59	5486.22
429.78	5439.40
429.97	5252.16
430.16	5521.32
430.34	5507.28
430.53	5851.34
430.72	5746.02
430.91	5645.37
431.10	5710.91
431.28	5893.47
431.47	5657.07
431.66	5804.53
431.85	5884.11
432.03	5944.96
432.22	5991.77
432.41	6040.92
432.60	5949.64
432.79	6253.91
432.97	6024.54
433.16	6022.20
433.35	6017.52
433.54	6150.93
433.72	6179.01
433.91	6150.93
434.10	6134.54
434.28	6106.46
434.47	6310.08
434.66	6216.46
434.85	6319.45
435.03	6396.68
435.22	6396.68
435.41	6558.18
435.59	6450.52
435.78	6073.69
435.97	6523.07
436.16	6637.76
436.34	6513.71
436.53	6576.91
436.72	6665.85
436.90	6375.62
437.09	6717.34
437.28	6462.22
437.46	6579.25
437.65	6698.61
437.84	6827.34
438.02	6640.10
438.21	6803.94
438.40	6661.16
438.58	7035.65
438.77	7075.44
438.96	7068.42
439.14	7236.94
439.33	7283.75
439.52	7325.88
439.70	7199.49
439.89	7360.98
440.08	7487.37
440.26	7419.50
440.45	7403.11
440.63	7548.23
440.82	7595.04
441.01	7529.50
441.19	7578.65
441.38	7838.45
441.57	7833.77
441.75	7918.03
441.94	8030.38
442.12	7913.35
442.31	8168.47
442.50	8093.57
442.68	8049.10
442.87	8102.93
443.05	8044.42
443.24	8229.32
443.43	8196.56
443.61	8287.84
443.80	8704.45
443.98	8287.84
444.17	7810.37
444.35	8215.28
444.54	8355.71
444.73	8299.54
444.91	8388.48
445.10	8367.42
445.28	8423.59
445.47	8376.78
445.65	8418.91
445.84	8482.10
446.02	8451.67
446.21	8395.50
446.39	8351.03
446.58	8610.83
446.77	8599.13
446.95	8294.86
447.14	8362.73
447.32	8840.20
447.51	8608.49
447.69	8627.21
447.88	8641.26
448.06	8613.17
448.25	8648.28
448.43	8772.33
448.62	8678.71
448.80	8580.40
448.99	8784.03
449.17	8938.51
449.36	8706.79
449.54	8973.61
449.73	9043.83
449.91	9097.66
450.10	9053.19
450.28	9254.48
450.46	9259.16
450.65	9074.26
450.83	9217.03
451.02	9210.01
451.20	9467.47
451.39	9207.67
451.57	9181.92
451.76	8959.57
451.94	9296.61
452.13	9404.27
452.31	9373.85
452.49	9179.58
452.68	9341.08
452.86	9364.48
453.05	9537.68
453.23	9682.80
453.42	9287.25
453.60	9357.46
453.78	9535.34
453.97	9479.17
454.15	9570.45
454.34	9614.92
454.52	9645.35
454.70	9589.17
454.89	9820.89
455.07	9657.05
455.26	9860.68
455.44	10080.69
455.62	9933.23
455.81	10078.35
455.99	9926.21
456.17	10106.43
456.36	10076.01
456.54	10260.91
456.73	10300.70
456.91	10410.70
457.09	10663.48
457.28	10506.66
457.46	10399.00
457.64	10794.55
457.83	10424.75
458.01	10541.77
458.19	10747.74
458.38	10478.58
458.56	10839.02
458.74	10623.69
458.93	10684.55
459.11	10855.40
459.29	11009.88
459.48	11087.12
459.66	10925.62
459.84	10904.56
460.03	11218.19
460.21	11052.01
460.39	11227.55
460.57	11009.88
460.76	11105.84
460.94	11243.93
461.12	11367.98
461.31	11304.79
461.49	11164.36
461.67	11393.73
461.85	11440.54
462.04	11246.27
462.22	11653.53
462.40	11639.48
462.59	11550.54
462.77	11407.77
462.95	11793.96
463.13	11351.60
463.32	11660.55
463.50	11836.09
463.68	12028.01
463.86	11871.20
464.05	11623.10
464.23	11882.90
464.41	12154.40
464.59	11861.84
464.78	12175.47
464.96	12131.00
465.14	11908.65
465.32	12142.70
465.50	12189.51
465.69	12369.73
465.87	12168.45
466.05	12327.60
466.23	12121.63
466.41	12341.64
466.60	12449.31
466.78	12173.13
466.96	12351.01
467.14	12615.49
467.32	12662.30
467.51	12561.66
467.69	12154.40
467.87	12402.50
468.05	12683.36
468.23	12512.50
468.41	12702.09
468.60	12641.23
468.78	12856.56
468.96	12650.60
469.14	12879.97
469.32	12973.59
469.50	12894.01
469.69	13081.25
469.87	13195.94
470.05	13214.66
470.23	13149.13
470.41	13191.26
470.59	13586.81
470.77	13231.05
470.95	13444.04
471.14	13528.30
471.32	13247.43
471.50	13502.55
471.68	13666.39
471.86	13816.18
472.04	13619.58
472.22	14111.09
472.40	14010.45
472.58	13942.57
472.77	14204.71
472.95	14200.03
473.13	14743.03
473.31	14225.78
473.49	14080.66
473.67	14108.75
473.85	14410.68
474.03	14670.48
474.21	14731.33
474.39	14911.55
474.57	14759.42
474.75	14953.68
474.93	14890.49
475.12	15147.95
475.30	15239.23
475.48	15080.07
475.66	15070.71
475.84	15143.27
476.02	15737.76
476.20	15543.50
476.38	15690.95
476.56	16147.36
476.74	16070.12
476.92	15714.36
477.10	15873.51
477.28	16318.22
477.46	16093.52
477.64	16255.02
477.82	16568.65
478.00	16996.97
478.18	16940.80
478.36	16975.91
478.54	17366.78
478.72	17310.60
478.90	17652.32
479.08	17731.90
479.26	17825.52
479.44	17919.14
479.62	17846.58
479.80	18246.82
479.98	18071.28
480.16	18569.81
480.34	18434.06
480.52	18544.06
480.70	18993.45
480.88	18443.42
481.06	18836.63
481.24	18806.20
481.41	19295.38
481.59	19332.82
481.77	19531.77
481.95	19583.26
482.13	19990.52
482.31	19917.96
482.49	20381.38
482.67	20166.06
482.85	20620.12
483.03	20919.71
483.21	20886.94
483.39	21015.67
483.57	20903.32
483.74	21369.09
483.92	21369.09
484.10	21053.12
484.28	21994.01
484.46	22101.68
484.64	22693.83
484.82	22199.98
485.00	22576.81
485.18	22789.80
485.35	23108.11
485.53	22710.22
485.71	22934.91
485.89	23726.01
486.07	23613.66
486.25	23417.06
486.43	23957.72
486.61	24219.86
486.78	24301.78
486.96	24362.64
487.14	24603.71
487.32	24994.58
487.50	24898.62
487.68	25418.22
487.85	25359.70
488.03	25572.69
488.21	26150.81
488.39	26031.44
488.57	26309.96
488.75	26548.70
488.92	26286.56
489.10	26820.20
489.28	27157.24
489.46	27241.50
489.64	27206.39
489.81	27613.64
489.99	27868.76
490.17	28170.69
490.35	28463.25
490.53	28350.91
490.70	28734.76
490.88	28596.67
491.06	29301.17
491.24	28929.02
491.41	29228.61
491.59	29242.65
491.77	29481.39
491.95	29926.09
492.13	30000.99
492.30	30408.24
492.48	30377.81
492.66	30279.51
492.84	30614.21
493.01	30958.27
493.19	31021.46
493.37	31072.95
493.54	31330.41
493.72	31798.52
493.90	31732.98
494.08	31725.96
494.25	32175.34
494.43	32077.04
494.61	32371.95
494.79	32807.29
494.96	32903.25
495.14	32786.22
495.32	33539.88
495.49	33411.15
495.67	33408.81
495.85	33621.80
496.02	33919.04
496.20	34141.39
496.38	33825.42
496.55	34120.33
496.73	34932.50
496.91	34600.14
497.09	34991.01
497.26	34969.94
497.44	35290.60
497.62	35264.85
497.79	35931.90
497.97	35381.88
498.14	36325.11
498.32	36437.46
498.50	36458.52
498.67	36744.07
498.85	36950.04
499.03	37237.92
499.20	36594.28
499.38	37036.64
499.56	37420.48
499.73	37865.19
499.91	37530.49
500.08	38103.92
500.26	37509.43
500.44	38010.30
500.61	38253.72
500.79	37907.32
500.97	38480.75
501.14	38866.94
501.32	38628.20
501.49	38890.34
501.67	38770.97
501.84	39335.04
502.02	39222.70
502.20	39662.72
502.37	39480.16
502.55	39414.62
502.72	39749.32
502.90	40299.34
503.07	39847.62
503.25	40210.40
503.43	39826.56
503.60	40397.65
503.78	40568.51
503.95	40570.85
504.13	41048.32
504.30	40928.95
504.48	40687.87
504.65	41029.59
504.83	41478.97
505.01	41656.85
505.18	41212.15
505.36	42033.68
505.53	41841.76
505.71	41715.37
505.88	41610.04
506.06	41940.06
506.23	42220.92
506.41	42291.14
506.58	42094.53
506.76	42314.55
506.93	43014.37
507.11	42562.64
507.28	42923.08
507.46	43243.74
507.63	43440.34
507.81	43852.28
507.98	43152.46
508.16	43150.12
508.33	43442.68
508.50	44112.08
508.68	43985.69
508.85	44273.57
509.03	44016.11
509.20	43920.15
509.38	44430.39
509.55	44746.36
509.73	44994.46
509.90	44760.40
510.08	44940.63
510.25	44940.63
510.42	45336.18
510.60	45378.31
510.77	45448.52
510.95	45918.97
511.12	45214.47
511.30	45272.98
511.47	45949.40
511.64	45954.08
511.82	46309.84
511.99	45586.61
512.17	46277.07
512.34	46087.49
512.51	46859.87
512.69	46649.22
512.86	46515.81
513.04	46752.20
513.21	46887.95
513.38	47033.07
513.56	46944.12
513.73	47009.66
513.90	47620.54
514.08	47302.23
514.25	47487.13
514.43	47770.33
514.60	47688.42
514.77	47676.71
514.95	48177.59
515.12	47622.88
515.29	47765.65
515.47	48105.03
515.64	48528.67
515.81	48208.01
515.99	48491.22
516.16	48825.92
516.33	48680.80
516.51	48741.66
516.68	48793.15
516.85	48877.41
517.03	48727.61
517.20	49151.25
517.37	48779.10
517.54	48996.77
517.72	49169.97
517.89	49710.64
518.06	49420.41
518.24	49528.08
518.41	49705.96
518.58	49577.23
518.75	49539.78
518.93	49605.31
519.10	50047.68
519.27	50026.61
519.45	50150.66
519.62	50216.19
519.79	50342.58
519.96	49958.73
520.14	50272.37
520.31	49993.84
520.48	50745.15
520.65	50321.52
520.83	50836.44
521.00	51058.79
521.17	50660.90
521.34	51154.75
521.52	51079.85
521.69	51260.07
521.86	51255.39
522.03	51475.40
522.20	51657.96
522.38	51756.27
522.55	51423.91
522.72	51351.35
522.89	51526.89
523.07	52137.77
523.24	51578.39
523.41	51980.96
523.58	51833.50
523.75	52144.80
523.92	52420.98
524.10	52102.67
524.27	52289.91
524.44	52327.36
524.61	52163.52
524.78	52580.13
524.96	52495.88
525.13	52678.44
525.30	52542.69
525.47	53062.29
525.64	52809.51
525.81	53022.50
525.98	52786.10
526.16	53106.76
526.33	52907.81
526.50	53043.56
526.67	52961.64
526.84	53111.44
527.01	53010.79
527.18	52938.24
527.36	53382.94
527.53	53387.62
527.70	53605.29
527.87	53553.80
528.04	53567.84
528.21	53511.67
528.38	53506.99
528.55	53668.48
528.72	53588.91
528.89	53474.22
529.07	53748.06
529.24	53741.04
529.41	53815.94
529.58	54195.10
529.75	53921.26
529.92	53834.66
530.09	53862.75
530.26	53928.28
530.43	54253.62
530.60	53916.58
530.77	53998.50
530.94	54354.26
531.11	54052.33
531.28	54450.22
531.46	54326.17
531.63	54532.14
531.80	54227.87
531.97	54541.50
532.14	54607.04
532.31	54593.00
532.48	54602.36
532.65	54789.60
532.82	54969.82
532.99	54904.29
533.16	54454.90
533.33	54967.48
533.50	55154.72
533.67	54983.86
533.84	54878.54
534.01	55061.10
534.18	55171.11
534.35	55545.59
534.52	55374.73
534.69	55192.17
534.86	55400.48
535.03	55442.61
535.20	55353.67
535.37	55569.00
535.54	55634.53
535.71	55372.39
535.88	55758.58
536.05	55632.19
536.22	55667.30
536.38	55730.50
536.55	55875.61
536.72	55817.10
536.89	55847.52
537.06	55849.86
537.23	56147.11
537.40	55688.37
537.57	55875.61
537.74	55896.67
537.91	56219.67
538.08	56100.30
538.25	56130.73
538.42	56140.09
538.59	56470.11
538.75	56177.54
538.92	56273.50
539.09	56540.32
539.26	56308.61
539.43	56250.09
539.60	56449.04
539.77	56589.47
539.94	56598.83
540.11	56704.16
540.28	56587.13
540.44	56699.48
540.61	56512.23
540.78	56542.66
540.95	56729.90
541.12	56493.51
541.29	56477.13
541.46	56559.05
541.62	56727.56
541.79	57036.51
541.96	56858.63
542.13	56807.14
542.30	56877.36
542.47	56952.26
542.63	56987.36
542.80	56879.70
542.97	57315.04
543.14	57469.51
543.31	57347.81
543.48	57427.38
543.64	57654.42
543.81	57361.85
543.98	57572.50
544.15	57642.71
544.32	57574.84
544.48	57818.25
544.65	57591.22
544.82	57511.64
544.99	57373.55
545.16	57710.59
545.32	57401.64
545.49	58024.22
545.66	57752.72
545.83	57780.81
546.00	57986.77
546.16	57492.92
546.33	57769.10
546.50	57600.58
546.67	58185.72
546.83	57560.79
547.00	58010.18
547.17	58024.22
547.34	57986.77
547.50	58117.84
547.67	58169.33
547.84	58089.76
548.00	58422.11
548.17	58588.29
548.34	58370.62
548.51	58262.96
548.67	58284.02
548.84	58452.54
549.01	58108.48
549.18	58398.71
549.34	58398.71
549.51	58494.67
549.68	58480.63
549.84	58480.63
550.01	58557.86
550.18	58618.72
550.34	58665.53
550.51	58607.01
550.68	58710.00
550.84	58440.84
551.01	58789.58
551.18	58422.11
551.34	58834.05
551.51	58801.28
551.68	58822.34
551.84	58340.19
552.01	58670.21
552.18	58805.96
552.34	58642.12
552.51	59009.59
552.68	58742.77
552.84	59021.29
553.01	59119.59
553.18	58815.32
553.34	58944.05
553.51	58871.49
553.67	58948.73
553.84	59100.87
554.01	59070.44
554.17	59194.49
554.34	59346.62
554.51	59241.30
554.67	59168.74
554.84	59222.58
555.00	59182.79
555.17	59054.06
555.33	59025.97
555.50	59119.59
555.67	59150.02
555.83	59344.28
556.00	59255.34
556.16	59758.56
556.33	59487.06
556.50	59489.40
556.66	59536.21
556.83	59330.24
556.99	59545.57
557.16	59564.29
557.32	59735.15
557.49	59742.17
557.65	59377.05
557.82	59379.39
557.98	59700.04
558.15	59465.99
558.32	59641.53
558.48	59519.82
558.65	59510.46
558.81	59606.42
558.98	59646.21
559.14	59819.41
559.31	59655.57
559.47	59894.31
559.64	59732.81
559.80	59793.67
559.97	59964.52
560.13	59627.49
560.30	59627.49
560.46	59950.48
560.63	59976.23
560.79	59847.50
560.96	60104.96
561.12	60109.64
561.29	60135.38
561.45	59931.76
561.61	59810.05
561.78	59964.52
561.94	60069.85
562.11	60081.55
562.27	60116.66
562.44	60034.74
562.60	60177.51
562.77	60271.14
562.93	60044.10
563.10	60355.39
563.26	60020.70
563.42	60397.52
563.59	60252.41
563.75	60093.25
563.92	60193.90
564.08	60324.97
564.24	60245.39
564.41	60252.41
564.57	60107.30
564.74	60404.55
564.90	60250.07
565.07	60266.45
565.23	60142.41
565.39	60409.23
565.56	60285.18
565.72	60214.96
565.88	60486.46
566.05	60231.35
566.21	60324.97
566.38	60306.24
566.54	60268.79
566.70	60479.44
566.87	60491.15
567.03	60034.74
567.19	60397.52
567.36	60528.59
567.52	60512.21
567.68	60664.35
567.85	60528.59
568.01	60715.84
568.17	60334.33
568.34	60547.32
568.50	60561.36
568.66	60561.36
568.83	60519.23
568.99	60582.43
569.15	60566.04
569.32	60528.59
569.48	60615.19
569.64	60764.99
569.81	60685.41
569.97	60582.43
570.13	60526.25
570.30	60463.06
570.46	60680.73
570.62	60776.69
570.78	60645.62
570.95	60729.88
571.11	60844.57
571.27	60708.82
571.43	60821.16
571.60	60839.89
571.76	60697.11
571.92	60783.71
572.09	60776.69
572.25	60764.99
572.41	60767.33
572.57	60818.82
572.74	61034.15
572.90	60739.24
573.06	60914.78
573.22	61006.06
573.38	60917.12
573.55	60669.03
573.71	61024.79
573.87	60720.52
574.03	60720.52
574.20	60748.60
574.36	60654.98
574.52	60842.23
574.68	60905.42
574.84	60959.25
575.01	60856.27
575.17	60999.04
575.33	60963.93
575.49	60926.49
575.65	61015.43
575.82	61003.72
575.98	60912.44
576.14	61066.92
576.30	60954.57
576.46	60863.29
576.62	61097.34
576.79	61024.79
576.95	60804.78
577.11	60954.57
577.27	61022.45
577.43	61006.06
577.59	60985.00
577.75	60877.33
577.92	61055.21
578.08	61052.87
578.24	61069.26
578.40	61027.13
578.56	60956.91
578.72	60987.34
578.88	61179.26
579.04	61359.48
579.21	60980.32
579.37	61228.41
579.53	61151.18
579.69	60940.53
579.85	60954.57
580.01	60860.95
580.17	60924.14
580.33	61254.16
580.49	61102.03
580.65	61045.85
580.82	60884.36
580.98	60879.67
581.14	61041.17
581.30	61092.66
581.46	61158.20
581.62	61207.35
581.78	61017.77
581.94	61099.68
582.10	61146.50
582.26	61179.26
582.42	61144.16
582.58	60910.10
582.74	60999.04
582.90	61055.21
583.06	61160.54
583.22	60961.59
583.38	61153.52
583.54	61062.24
583.70	61020.11
583.86	61265.86
584.02	61212.03
584.18	61195.65
584.34	61277.57
584.50	60949.89
584.66	61109.05
584.82	61036.49
584.98	61254.16
585.14	61092.66
585.30	61125.43
585.46	61102.03
585.62	61146.50
585.78	61286.93
585.94	60844.57
586.10	61111.39
586.26	61092.66
586.42	61279.91
586.58	61258.84
586.74	61071.60
586.90	61132.45
587.06	61125.43
587.22	61345.44
587.38	61090.32
587.54	61282.25
587.70	61474.17
587.86	61265.86
588.02	61258.84
588.18	61329.06
588.34	61240.12
588.49	61085.64
