SpectraSuite Data File
++++++++++++++++++++++++++++++++++++
Date: Fri Oct 25 11:23:42 EDT 2013
User: price-jones
Dark Spectrum Present: No
Reference Spectrum Present: No
Number of Sampled Component Spectra: 1
Spectrometers: USB2+H05261
Integration Time (usec): 100000 (USB2+H05261)
Spectra Averaged: 1 (USB2+H05261)
Boxcar Smoothing: 0 (USB2+H05261)
Correct for Electrical Dark: No (USB2+H05261)
Strobe/Lamp Enabled: No (USB2+H05261)
Correct for Detector Non-linearity: No (USB2+H05261)
Correct for Stray Light: No (USB2+H05261)
Number of Pixels in Processed Spectrum: 2048
>>>>>Begin Processed Spectral Data<<<<<
365.73	264.48
365.92	264.48
366.12	264.48
366.32	163.84
366.52	163.84
366.72	156.82
366.91	93.62
367.11	175.54
367.31	102.98
367.51	135.75
367.70	138.09
367.90	142.77
368.10	156.82
368.30	135.75
368.49	16.38
368.69	173.20
368.89	65.54
369.09	161.50
369.28	142.77
369.48	168.52
369.68	215.33
369.87	196.60
370.07	154.48
370.27	205.97
370.47	358.10
370.66	538.32
370.86	603.86
371.06	704.50
371.25	779.40
371.45	674.07
371.65	699.82
371.84	697.48
372.04	688.12
372.24	648.33
372.44	704.50
372.63	732.59
372.83	805.14
373.03	809.83
373.22	697.48
373.42	772.38
373.62	732.59
373.81	826.21
374.01	823.87
374.21	802.80
374.40	842.59
374.60	849.61
374.79	835.57
374.99	812.17
375.19	788.76
375.38	868.34
375.58	854.30
375.78	800.46
375.97	854.30
376.17	933.87
376.37	875.36
376.56	903.45
376.76	861.32
376.95	840.25
377.15	887.06
377.35	896.43
377.54	915.15
377.74	905.79
377.93	912.81
378.13	910.47
378.33	1011.11
378.52	933.87
378.72	931.53
378.91	978.34
379.11	903.45
379.31	957.28
379.50	922.17
379.70	968.98
379.89	964.30
380.09	959.62
380.28	868.34
380.48	968.98
380.68	1006.43
380.87	997.07
381.07	1008.77
381.26	1069.62
381.46	957.28
381.65	1060.26
381.85	1114.10
382.04	1036.86
382.24	1069.62
382.43	1071.97
382.63	943.24
382.83	1029.84
383.02	1095.37
383.22	1102.39
383.41	1067.28
383.61	1235.80
383.80	1137.50
384.00	1123.46
384.19	1111.75
384.39	1146.86
384.58	1174.95
384.78	1217.08
384.97	1170.27
385.17	1174.95
385.36	1151.54
385.56	1174.95
385.75	1121.12
385.95	1177.29
386.14	1214.74
386.34	1128.14
386.53	1128.14
386.72	1090.69
386.92	1294.32
387.11	1235.80
387.31	1289.64
387.50	1137.50
387.70	1266.23
387.89	1186.65
388.09	1240.48
388.28	1306.02
388.48	1270.91
388.67	1390.28
388.86	1324.74
389.06	1425.39
389.25	1387.94
389.45	1385.60
389.64	1310.70
389.84	1423.05
390.03	1493.26
390.22	1434.75
390.42	1376.24
390.61	1448.79
390.81	1366.87
391.00	1434.75
391.19	1495.60
391.39	1490.92
391.58	1378.58
391.78	1420.71
391.97	1401.98
392.16	1439.43
392.36	1666.46
392.55	1535.39
392.75	1547.09
392.94	1500.28
393.13	1497.94
393.33	1366.87
393.52	1526.03
393.71	1526.03
393.91	1652.42
394.10	1582.20
394.29	1678.16
394.49	1589.22
394.68	1650.08
394.88	1696.89
395.07	1629.01
395.26	1570.50
395.46	1659.44
395.65	1661.78
395.84	1710.93
396.04	1849.02
396.23	1746.04
396.42	1785.83
396.62	1813.92
396.81	1856.04
397.00	1715.61
397.19	1764.76
397.39	1776.47
397.58	1907.54
397.77	1954.35
397.97	1834.98
398.16	1825.62
398.35	1839.66
398.55	1781.15
398.74	1816.26
398.93	2045.63
399.12	1989.46
399.32	1881.79
399.51	1921.58
399.70	1982.43
399.90	1940.30
400.09	2019.88
400.28	1977.75
400.47	1996.48
400.67	2157.97
400.86	2071.37
401.05	2115.84
401.24	2111.16
401.44	2190.74
401.63	2104.14
401.82	2148.61
402.01	2122.87
402.21	2207.13
402.40	2228.19
402.59	2230.53
402.78	2246.91
402.97	2307.77
403.17	2256.28
403.36	2380.32
403.55	2218.83
403.74	2368.62
403.93	2342.88
404.13	2387.35
404.32	2394.37
404.51	2321.81
404.70	2396.71
404.89	2509.05
405.09	2558.21
405.28	2476.29
405.47	2518.42
405.66	2443.52
405.85	2504.37
406.05	2572.25
406.24	2502.03
406.43	2597.99
406.62	2724.38
406.81	2670.55
407.00	2715.02
407.20	2642.46
407.39	2588.63
407.58	2722.04
407.77	2745.45
407.96	2698.64
408.15	2736.09
408.34	2726.72
408.54	2857.79
408.73	2759.49
408.92	2906.95
409.11	2939.71
409.30	2857.79
409.49	2935.03
409.68	2942.05
409.87	2923.33
410.07	2970.14
410.26	3108.23
410.45	2953.76
410.64	3084.83
410.83	3021.63
411.02	3115.25
411.21	3222.92
411.40	3117.59
411.59	3159.72
411.78	3239.30
411.98	3241.64
412.17	3335.26
412.36	3302.50
412.55	3379.73
412.74	3433.57
412.93	3260.37
413.12	3368.03
413.31	3520.17
413.50	3496.76
413.69	3445.27
413.88	3487.40
414.07	3529.53
414.26	3644.21
414.45	3810.39
414.64	3747.20
414.83	3730.81
415.02	3667.62
415.22	3742.52
415.41	3817.41
415.60	3847.84
415.79	3934.44
415.98	4060.83
416.17	4035.08
416.36	3918.06
416.55	3985.93
416.74	4051.47
416.93	4084.23
417.12	4297.22
417.31	4234.03
417.50	4117.00
417.69	4404.89
417.88	4332.33
418.07	4271.48
418.26	4369.78
418.45	4299.56
418.64	4498.51
418.83	4491.49
419.02	4524.26
419.21	4645.96
419.39	4550.00
419.58	4627.24
419.77	4430.63
419.96	4517.23
420.15	4660.01
420.34	4737.24
420.53	4716.18
420.72	4770.01
420.91	4704.48
421.10	4779.37
421.29	4662.35
421.48	4760.65
421.67	4720.86
421.86	4884.70
422.05	4887.04
422.24	4908.10
422.43	4774.69
422.61	4873.00
422.80	4997.04
422.99	5036.83
423.18	4847.25
423.37	4961.94
423.56	5025.13
423.75	4966.62
423.94	4868.31
424.13	4760.65
424.32	4793.42
424.50	5053.22
424.69	5078.96
424.88	4929.17
425.07	5020.45
425.26	4760.65
425.45	4898.74
425.64	4957.25
425.83	5053.22
426.01	5139.82
426.20	5011.09
426.39	5071.94
426.58	5039.17
426.77	4983.00
426.96	5247.48
427.15	5163.22
427.33	5294.29
427.52	5207.69
427.71	5268.55
427.90	5200.67
428.09	5394.93
428.28	5275.57
428.46	5350.46
428.65	5441.75
428.84	5593.88
429.03	5614.95
429.22	5387.91
429.40	5657.07
429.59	5593.88
429.78	5350.46
429.97	5195.99
430.16	5614.95
430.34	5603.24
430.53	5589.20
430.72	5778.78
430.91	5703.89
431.10	5731.97
431.28	5891.13
431.47	5991.77
431.66	5874.74
431.85	5853.68
432.03	6052.63
432.22	6057.31
432.41	5940.28
432.60	6031.56
432.79	5980.07
432.97	6113.48
433.16	6078.37
433.35	6073.69
433.54	6064.33
433.72	6155.61
433.91	6223.48
434.10	6136.88
434.28	6209.44
434.47	6211.78
434.66	6193.06
434.85	6155.61
435.03	6445.84
435.22	6253.91
435.41	6377.96
435.59	6483.28
435.78	6448.18
435.97	6422.43
436.16	6502.01
436.34	6537.12
436.53	6525.41
436.72	6829.68
436.90	6469.24
437.09	6710.32
437.28	6424.77
437.46	6509.03
437.65	6656.48
437.84	6775.85
438.02	6733.72
438.21	6712.66
438.40	6787.55
438.58	7096.50
438.77	7002.88
438.96	6935.01
439.14	6855.43
439.33	7136.29
439.52	7293.11
439.70	7206.51
439.89	7208.85
440.08	7304.81
440.26	7375.03
440.45	7473.33
440.63	7459.29
440.82	7709.72
441.01	7688.66
441.19	7613.76
441.38	7597.38
441.57	7782.28
441.75	7786.96
441.94	7892.29
442.12	7978.89
442.31	8210.60
442.50	8084.21
442.68	8025.70
442.87	8093.57
443.05	7983.57
443.24	8095.91
443.43	8093.57
443.61	8290.18
443.80	8332.31
443.98	8004.63
444.17	7880.58
444.35	8308.90
444.54	8292.52
444.73	8166.13
444.91	8409.54
445.10	8332.31
445.28	8465.72
445.47	8318.26
445.65	8439.97
445.84	8566.36
446.02	8589.77
446.21	8280.82
446.39	8461.04
446.58	8608.49
446.77	8528.91
446.95	8154.43
447.14	8535.93
447.32	8681.05
447.51	8549.98
447.69	8493.80
447.88	8580.40
448.06	8547.64
448.25	8439.97
448.43	8568.70
448.62	8592.11
448.80	8638.92
448.99	8828.50
449.17	8760.63
449.36	8786.37
449.54	8833.18
449.73	8887.01
449.91	9043.83
450.10	9097.66
450.28	9165.54
450.46	9179.58
450.65	9172.56
450.83	9151.49
451.02	9195.96
451.20	9327.03
451.39	9170.22
451.57	9025.11
451.76	9085.96
451.94	9366.82
452.13	9359.80
452.31	9181.92
452.49	9226.39
452.68	9430.02
452.86	9371.50
453.05	9502.58
453.23	9570.45
453.42	9327.03
453.60	9327.03
453.78	9673.43
453.97	9502.58
454.15	9348.10
454.34	9418.32
454.52	9703.86
454.70	9563.43
454.89	9827.91
455.07	9935.57
455.26	9930.89
455.44	9884.08
455.62	10146.22
455.81	10263.25
455.99	10022.17
456.17	10127.50
456.36	10153.24
456.54	10101.75
456.73	10363.89
456.91	10499.64
457.09	10487.94
457.28	10413.04
457.46	10193.03
457.64	10640.08
457.83	10647.10
458.01	10466.88
458.19	10764.12
458.38	10583.90
458.56	10897.53
458.74	10560.50
458.93	10743.06
459.11	10871.79
459.29	10733.70
459.48	10904.56
459.66	10932.64
459.84	10899.87
460.03	11084.78
460.21	11206.48
460.39	11077.76
460.57	10937.32
460.76	10993.50
460.94	11234.57
461.12	11262.66
461.31	11185.42
461.49	11351.60
461.67	11126.91
461.85	11293.08
462.04	11164.36
462.22	11578.63
462.40	11716.72
462.59	11461.60
462.77	11742.47
462.95	11595.01
463.13	11449.90
463.32	11873.54
463.50	11683.95
463.68	11676.93
463.86	12121.63
464.05	11674.59
464.23	11583.31
464.41	11908.65
464.59	11550.54
464.78	12287.81
464.96	12020.99
465.14	11962.48
465.32	12004.61
465.50	12177.81
465.69	12308.88
465.87	12105.25
466.05	12149.72
466.23	12273.77
466.41	12276.11
466.60	12336.96
466.78	12294.83
466.96	12514.84
467.14	12533.57
467.32	12222.28
467.51	12512.50
467.69	12084.19
467.87	12671.66
468.05	12776.98
468.23	12456.33
468.41	12641.23
468.60	12699.75
468.78	12999.34
468.96	12388.46
469.14	13233.39
469.32	13039.12
469.50	12812.09
469.69	13275.52
469.87	13217.01
470.05	13184.24
470.23	13228.71
470.41	13191.26
470.59	13490.85
470.77	13209.98
470.95	13448.72
471.14	13687.45
471.32	13205.30
471.50	13448.72
471.68	13502.55
471.86	13818.52
472.04	13750.65
472.22	13973.00
472.40	13778.73
472.58	13961.30
472.77	14040.87
472.95	14185.99
473.13	14944.32
473.31	14413.02
473.49	14356.85
473.67	14022.15
473.85	14274.93
474.03	14501.96
474.21	14703.25
474.39	14586.22
474.57	14813.25
474.75	15269.66
474.93	15000.49
475.12	15150.29
475.30	15243.91
475.48	15019.22
475.66	15391.36
475.84	15204.12
476.02	15562.22
476.20	15356.25
476.38	15417.11
476.56	16093.52
476.74	16053.73
476.92	16086.50
477.10	15967.13
477.28	16044.37
477.46	16638.87
477.64	16348.64
477.82	16821.43
478.00	16812.07
478.18	16802.71
478.36	16987.61
478.54	17266.13
478.72	17261.45
478.90	17280.18
479.08	17642.96
479.26	17692.11
479.44	17619.55
479.62	17933.18
479.80	18050.21
479.98	17975.31
480.16	18810.89
480.34	18665.77
480.52	18834.29
480.70	18724.29
480.88	18508.96
481.06	19171.33
481.24	19091.75
481.41	19009.83
481.59	19487.30
481.77	19637.09
481.95	19545.81
482.13	20004.56
482.31	19758.80
482.49	20208.19
482.67	20224.57
482.85	20498.41
483.03	20610.76
483.21	20905.66
483.39	21097.59
483.57	20910.35
483.74	21305.90
483.92	21507.18
484.10	21495.48
484.28	21869.97
484.46	22265.52
484.64	22244.45
484.82	22244.45
485.00	22609.58
485.18	23030.87
485.35	23009.81
485.53	22937.25
485.71	23239.18
485.89	23627.71
486.07	23194.71
486.25	23583.24
486.43	23941.34
486.61	23847.72
486.78	24107.52
486.96	24119.22
487.14	24879.89
487.32	24577.97
487.50	25132.67
487.68	25170.12
487.85	25539.93
488.03	25575.03
488.21	26169.53
488.39	26008.03
488.57	26534.65
488.75	26270.17
488.92	26384.86
489.10	26843.60
489.28	26855.31
489.46	27040.21
489.64	27337.46
489.81	27768.12
489.99	27718.96
490.17	28060.68
490.35	28203.46
490.53	28397.72
490.70	28926.68
490.88	28456.23
491.06	29081.16
491.24	29247.33
491.41	29132.65
491.59	29357.34
491.77	29717.78
491.95	29883.96
492.13	29975.24
492.30	29972.90
492.48	30225.68
492.66	30206.95
492.84	30354.41
493.01	30862.30
493.19	31019.12
493.37	31012.10
493.54	31309.35
493.72	31828.95
493.90	31936.61
494.08	32067.68
494.25	32275.99
494.43	32278.33
494.61	32416.42
494.79	32645.79
494.96	32711.33
495.14	32973.47
495.32	33251.99
495.49	33523.49
495.67	33479.02
495.85	33853.51
496.02	33689.67
496.20	34122.67
496.38	34195.23
496.55	34206.93
496.73	34714.83
496.91	34761.64
497.09	34843.56
497.26	35187.61
497.44	34967.60
497.62	35384.22
497.79	35849.99
497.97	35604.23
498.14	36126.17
498.32	36608.32
498.50	36622.36
498.67	36730.03
498.85	36884.50
499.03	36851.73
499.20	37221.54
499.38	37216.86
499.56	37376.01
499.73	37514.11
499.91	37682.62
500.08	37722.41
500.26	37539.85
500.44	37897.95
500.61	37708.37
500.79	37890.93
500.97	38450.32
501.14	38934.81
501.32	38644.59
501.49	38632.88
501.67	39220.36
501.84	39243.76
502.02	38855.23
502.20	38532.24
502.37	39557.39
502.55	39316.32
502.72	39552.71
502.90	39674.42
503.07	39814.85
503.25	40121.46
503.43	39821.87
503.60	39995.07
503.78	40245.51
503.95	40460.84
504.13	40655.11
504.30	40903.20
504.48	40856.39
504.65	40854.05
504.83	40952.35
505.01	41628.77
505.18	41567.91
505.36	42029.00
505.53	41441.53
505.71	41961.12
505.88	41883.89
506.06	42000.91
506.23	42141.35
506.41	42403.49
506.58	42274.76
506.76	42412.85
506.93	43056.50
507.11	42462.00
507.28	42637.54
507.46	43009.68
507.63	43002.66
507.81	43533.96
507.98	43049.47
508.16	43477.79
508.33	43606.52
508.50	43959.94
508.68	43849.94
508.85	44140.16
509.03	43938.88
509.20	44329.75
509.38	44788.49
509.55	44626.99
509.73	44847.00
509.90	44737.00
510.08	44594.23
510.25	45088.08
510.42	44807.22
510.60	45397.03
510.77	45523.42
510.95	45572.57
511.12	45427.46
511.30	45724.71
511.47	45975.14
511.64	45769.18
511.82	46153.02
511.99	45752.79
512.17	46087.49
512.34	46007.91
512.51	46770.93
512.69	46394.10
512.86	46681.98
513.04	46857.52
513.21	46890.29
513.38	47112.64
513.56	47253.08
513.73	46836.46
513.90	47332.65
514.08	47152.43
514.25	47419.25
514.43	47789.06
514.60	47442.66
514.77	47789.06
514.95	48252.48
515.12	47632.24
515.29	47739.91
515.47	48252.48
515.64	48456.11
515.81	48023.11
515.99	48772.08
516.16	48610.59
516.33	48636.33
516.51	49193.38
516.68	48311.00
516.85	48629.31
517.03	49118.48
517.20	49284.66
517.37	48509.94
517.54	49219.13
517.72	49284.66
517.89	49331.47
518.06	49574.89
518.24	49186.36
518.41	49556.16
518.58	49720.00
518.75	49600.63
518.93	49827.66
519.10	49677.87
519.27	49949.37
519.45	50110.87
519.62	50230.24
519.79	50188.11
519.96	50134.28
520.14	50265.34
520.31	50527.48
520.48	50740.47
520.65	50653.87
520.83	50600.04
521.00	50967.51
521.17	51147.73
521.34	50836.44
521.52	51161.77
521.69	50892.61
521.86	51407.53
522.03	51533.92
522.20	51721.16
522.38	51529.23
522.55	51231.99
522.72	51601.79
522.89	51526.89
523.07	51868.61
523.24	51955.21
523.41	52006.70
523.58	51398.16
523.75	52587.16
523.92	52041.81
524.10	52210.33
524.27	52287.57
524.44	52126.07
524.61	52320.34
524.78	52217.35
524.96	52245.44
525.13	52224.37
525.30	52633.97
525.47	52729.93
525.64	52484.17
525.81	52741.63
525.98	52540.35
526.16	52846.96
526.33	52853.98
526.50	53123.14
526.67	52872.70
526.84	52797.80
527.01	53181.65
527.18	53219.10
527.36	53176.97
527.53	53048.24
527.70	53389.96
527.87	53542.10
528.04	53188.67
528.21	53511.67
528.38	53638.06
528.55	53872.11
528.72	53488.26
528.89	53766.79
529.07	53668.48
529.24	53462.52
529.41	53928.28
529.58	53656.78
529.75	53684.87
529.92	53895.52
530.09	53680.19
530.26	54103.82
530.43	53862.75
530.60	53825.30
530.77	54178.72
530.94	54614.06
531.11	54272.34
531.28	54246.60
531.46	54564.91
531.63	54440.86
531.80	54546.18
531.97	54602.36
532.14	54487.67
532.31	54415.11
532.48	54571.93
532.65	54866.84
532.82	54784.92
532.99	54885.56
533.16	54920.67
533.33	55016.63
533.50	55143.02
533.67	55018.97
533.84	54906.63
534.01	54988.55
534.18	55025.99
534.35	55419.20
534.52	55288.13
534.69	55451.97
534.86	55561.98
535.03	55444.95
535.20	55402.82
535.37	55702.41
535.54	55386.44
535.71	55372.39
535.88	55531.55
536.05	55578.36
536.22	55791.35
536.38	55739.86
536.55	55613.47
536.72	55796.03
536.89	55767.94
537.06	55831.14
537.23	55873.27
537.40	55875.61
537.57	55997.32
537.74	55920.08
537.91	55913.06
538.08	56069.87
538.25	55938.80
538.42	55978.59
538.59	56226.69
538.75	56065.19
538.92	56301.59
539.09	56521.60
539.26	56416.27
539.43	56217.33
539.60	56123.71
539.77	56313.29
539.94	56479.47
540.11	56261.80
540.28	56619.90
540.44	56624.58
540.61	56411.59
540.78	56488.83
540.95	56526.28
541.12	56685.43
541.29	56694.80
541.46	56666.71
541.62	56816.50
541.79	56776.72
541.96	56671.39
542.13	56437.34
542.30	56853.95
542.47	56875.02
542.63	56872.68
542.80	56992.04
542.97	57169.93
543.14	57350.15
543.31	57340.78
543.48	57481.22
543.64	57560.79
543.81	57551.43
543.98	57710.59
544.15	57471.85
544.32	57748.04
544.48	57846.34
544.65	57401.64
544.82	57525.69
544.99	57427.38
545.16	57542.07
545.32	57471.85
545.49	58038.26
545.66	57741.02
545.83	57918.90
546.00	58131.89
546.16	57881.45
546.33	57626.33
546.50	57911.88
546.67	57872.09
546.83	57851.02
547.00	57909.53
547.17	57813.57
547.34	58085.07
547.50	58260.62
547.67	58101.46
547.84	58021.88
548.00	58225.51
548.17	58234.87
548.34	58227.85
548.51	58532.12
548.67	58225.51
548.84	58539.14
549.01	58255.93
549.18	58279.34
549.34	58157.63
549.51	58344.87
549.68	58372.96
549.84	58623.40
550.01	58553.18
550.18	58405.73
550.34	58464.24
550.51	58869.15
550.68	58527.44
550.84	58237.21
551.01	58810.64
551.18	58614.04
551.34	58571.91
551.51	58719.36
551.68	58635.10
551.84	58927.67
552.01	58609.35
552.18	58880.86
552.34	58749.79
552.51	58993.20
552.68	58614.04
552.84	58838.73
553.01	59222.58
553.18	59011.93
553.34	58948.73
553.51	58965.12
553.67	58843.41
553.84	59103.21
554.01	58990.86
554.17	59206.19
554.34	59250.66
554.51	59189.81
554.67	58955.75
554.84	59100.87
555.00	59044.69
555.17	59091.51
555.33	59325.56
555.50	59065.76
555.67	59208.53
555.83	59260.02
556.00	59423.86
556.16	59592.38
556.33	59620.47
556.50	59267.05
556.66	59571.32
556.83	59196.83
556.99	59489.40
557.16	59903.67
557.32	59688.34
557.49	59767.92
557.65	59566.63
557.82	59517.48
557.98	59519.82
558.15	59594.72
558.32	59580.68
558.48	59650.89
558.65	59620.47
558.81	59662.60
558.98	59646.21
559.14	59828.77
559.31	59817.07
559.47	59875.58
559.64	59774.94
559.80	59859.20
559.97	59810.05
560.13	59760.90
560.30	59709.41
560.46	59861.54
560.63	59847.50
560.79	60032.40
560.96	59983.25
561.12	60034.74
561.29	59868.56
561.45	60076.87
561.61	60111.98
561.78	60025.38
561.94	59906.01
562.11	60011.34
562.27	60254.75
562.44	60198.58
562.60	60074.53
562.77	60074.53
562.93	60060.49
563.10	60137.72
563.26	59955.16
563.42	60355.39
563.59	60044.10
563.75	60200.92
563.92	60367.10
564.08	60011.34
564.24	60402.21
564.41	60161.13
564.57	60214.96
564.74	60313.26
564.90	60163.47
565.07	60339.01
565.23	60252.41
565.39	60285.18
565.56	60144.75
565.72	60357.74
565.88	60399.86
566.05	60294.54
566.21	60334.33
566.38	60301.56
566.54	60612.85
566.70	60540.30
566.87	60430.29
567.03	60453.70
567.19	60519.23
567.36	60580.09
567.52	60294.54
567.68	60772.01
567.85	60467.74
568.01	60530.93
568.17	60376.46
568.34	60669.03
568.50	60610.51
568.66	60573.06
568.83	60605.83
568.99	60640.94
569.15	60570.72
569.32	60437.31
569.48	60481.78
569.64	60671.37
569.81	60554.34
569.97	60575.40
570.13	60753.29
570.30	60577.75
570.46	60549.66
570.62	60598.81
570.78	60626.90
570.95	60720.52
571.11	60643.28
571.27	60631.58
571.43	60486.46
571.60	60739.24
571.76	60732.22
571.92	60673.71
572.09	60711.16
572.25	60750.94
572.41	60584.77
572.57	60797.76
572.74	61071.60
572.90	60781.37
573.06	60804.78
573.22	60643.28
573.38	60757.97
573.55	60755.63
573.71	60931.17
573.87	60846.91
574.03	60537.96
574.20	60814.14
574.36	60678.39
574.52	60776.69
574.68	60837.54
574.84	60973.30
575.01	60858.61
575.17	60977.98
575.33	60729.88
575.49	60839.89
575.65	60816.48
575.82	60821.16
575.98	60889.04
576.14	61134.79
576.30	61015.43
576.46	61001.38
576.62	60882.02
576.79	60828.18
576.95	60790.73
577.11	60828.18
577.27	60966.27
577.43	60999.04
577.59	60874.99
577.75	61043.51
577.92	60985.00
578.08	60858.61
578.24	61062.24
578.40	61102.03
578.56	61078.62
578.72	61118.41
578.88	61127.77
579.04	61235.44
579.21	61006.06
579.37	61146.50
579.53	61052.87
579.69	60825.84
579.85	60896.06
580.01	60996.70
580.17	60987.34
580.33	61137.13
580.49	61057.56
580.65	60945.21
580.82	61134.79
580.98	60956.91
581.14	60884.36
581.30	60970.96
581.46	60814.14
581.62	61113.73
581.78	61123.09
581.94	61106.71
582.10	61041.17
582.26	61116.07
582.42	61022.45
582.58	60963.93
582.74	61183.94
582.90	60994.36
583.06	61125.43
583.22	60931.17
583.38	61092.66
583.54	61116.07
583.70	61111.39
583.86	61240.12
584.02	60970.96
584.18	61183.94
584.34	61183.94
584.50	61076.28
584.66	60942.87
584.82	61010.74
584.98	61263.52
585.14	61179.26
585.30	61055.21
585.46	61022.45
585.62	61125.43
585.78	61364.17
585.94	61022.45
586.10	61176.92
586.26	61240.12
586.42	61186.28
586.58	61254.16
586.74	61205.01
586.90	61282.25
587.06	61052.87
587.22	61214.37
587.38	61307.99
587.54	61504.60
587.70	61247.14
587.86	61261.18
588.02	61144.16
588.18	61413.32
588.34	61216.71
588.49	61190.97
