SpectraSuite Data File
++++++++++++++++++++++++++++++++++++
Date: Fri Oct 25 11:25:03 EDT 2013
User: price-jones
Dark Spectrum Present: No
Reference Spectrum Present: No
Number of Sampled Component Spectra: 1
Spectrometers: USB2+H05261
Integration Time (usec): 100000 (USB2+H05261)
Spectra Averaged: 1 (USB2+H05261)
Boxcar Smoothing: 0 (USB2+H05261)
Correct for Electrical Dark: No (USB2+H05261)
Strobe/Lamp Enabled: No (USB2+H05261)
Correct for Detector Non-linearity: No (USB2+H05261)
Correct for Stray Light: No (USB2+H05261)
Number of Pixels in Processed Spectrum: 2048
>>>>>Begin Processed Spectral Data<<<<<
365.73	250.44
365.92	250.44
366.12	250.44
366.32	159.16
366.52	65.54
366.72	241.08
366.91	117.03
367.11	95.96
367.31	145.11
367.51	131.07
367.70	131.07
367.90	145.11
368.10	98.30
368.30	161.50
368.49	138.09
368.69	145.11
368.89	236.39
369.09	140.43
369.28	196.60
369.48	182.56
369.68	205.97
369.87	224.69
370.07	93.62
370.27	163.84
370.47	397.89
370.66	566.41
370.86	631.94
371.06	732.59
371.25	709.18
371.45	671.73
371.65	727.91
371.84	695.14
372.04	660.03
372.24	727.91
372.44	692.80
372.63	704.50
372.83	706.84
373.03	725.57
373.22	697.48
373.42	807.48
373.62	709.18
373.81	835.57
374.01	746.63
374.21	854.30
374.40	812.17
374.60	833.23
374.79	713.86
374.99	835.57
375.19	908.13
375.38	842.59
375.58	814.51
375.78	849.61
375.97	828.55
376.17	950.26
376.37	842.59
376.56	861.32
376.76	910.47
376.95	814.51
377.15	968.98
377.35	844.93
377.54	938.55
377.74	819.19
377.93	936.21
378.13	915.15
378.33	926.85
378.52	851.96
378.72	964.30
378.91	971.32
379.11	938.55
379.31	1011.11
379.50	957.28
379.70	919.83
379.89	985.37
380.09	961.96
380.28	952.60
380.48	1057.92
380.68	990.05
380.87	931.53
381.07	1036.86
381.26	978.34
381.46	999.41
381.65	1020.47
381.85	1039.20
382.04	1022.81
382.24	1135.16
382.43	1062.60
382.63	1027.50
382.83	1139.84
383.02	1139.84
383.22	1086.01
383.41	1104.73
383.61	1088.35
383.80	1043.88
384.00	1097.71
384.19	1139.84
384.39	1121.12
384.58	1097.71
384.78	1188.99
384.97	1121.12
385.17	1123.46
385.36	1172.61
385.56	1128.14
385.75	1172.61
385.95	1086.01
386.14	1226.44
386.34	1191.33
386.53	1184.31
386.72	1233.46
386.92	1252.19
387.11	1137.50
387.31	1280.27
387.50	1235.80
387.70	1242.82
387.89	1287.29
388.09	1226.44
388.28	1327.08
388.48	1224.10
388.67	1200.69
388.86	1270.91
389.06	1270.91
389.25	1441.77
389.45	1364.53
389.64	1341.13
389.84	1348.15
390.03	1310.70
390.22	1385.60
390.42	1481.56
390.61	1411.34
390.81	1345.81
391.00	1427.73
391.19	1483.90
391.39	1430.07
391.58	1427.73
391.78	1373.89
391.97	1455.81
392.16	1483.90
392.36	1589.22
392.55	1439.43
392.75	1455.81
392.94	1462.83
393.13	1572.84
393.33	1467.52
393.52	1540.07
393.71	1577.52
393.91	1535.39
394.10	1537.73
394.29	1540.07
394.49	1544.75
394.68	1675.82
394.88	1600.93
395.07	1708.59
395.26	1626.67
395.46	1678.16
395.65	1678.16
395.84	1643.06
396.04	1825.62
396.23	1713.27
396.42	1675.82
396.62	1790.51
396.81	1755.40
397.00	1818.60
397.19	1811.57
397.39	1823.28
397.58	1907.54
397.77	1797.53
397.97	1867.75
398.16	1872.43
398.35	1888.81
398.55	1760.08
398.74	1877.11
398.93	1975.41
399.12	1912.22
399.32	1888.81
399.51	1912.22
399.70	1994.14
399.90	1919.24
400.09	1900.52
400.28	2127.55
400.47	1963.71
400.67	2101.80
400.86	2033.93
401.05	2073.71
401.24	2169.68
401.44	2064.35
401.63	2059.67
401.82	2181.38
402.01	2029.24
402.21	2101.80
402.40	2235.21
402.59	2188.40
402.78	2228.19
402.97	2207.13
403.17	2235.21
403.36	2150.95
403.55	2272.66
403.74	2312.45
403.93	2298.41
404.13	2504.37
404.32	2284.36
404.51	2459.90
404.70	2502.03
404.89	2385.01
405.09	2513.74
405.28	2511.39
405.47	2469.27
405.66	2537.14
405.85	2438.84
406.05	2497.35
406.24	2406.07
406.43	2511.39
406.62	2534.80
406.81	2715.02
407.00	2574.59
407.20	2560.55
407.39	2654.17
407.58	2686.94
407.77	2792.26
407.96	2679.91
408.15	2768.85
408.34	2729.06
408.54	2906.95
408.73	2801.62
408.92	2787.58
409.11	2764.17
409.30	2864.82
409.49	2951.42
409.68	3009.93
409.87	2829.71
410.07	2888.22
410.26	3009.93
410.45	2981.84
410.64	3049.72
410.83	2984.18
411.02	3063.76
411.21	3068.44
411.40	3016.95
411.59	3026.31
411.78	3133.98
411.98	3265.05
412.17	3417.18
412.36	3318.88
412.55	3283.77
412.74	3311.86
412.93	3318.88
413.12	3290.79
413.31	3562.30
413.50	3574.00
413.69	3480.38
413.88	3538.89
414.07	3653.58
414.26	3562.30
414.45	3658.26
414.64	3581.02
414.83	3749.54
415.02	3702.73
415.22	3822.09
415.41	3882.95
415.60	3826.78
415.79	3868.91
415.98	3742.52
416.17	3889.97
416.36	3866.56
416.55	4063.17
416.74	4081.89
416.93	3845.50
417.12	4152.11
417.31	4212.96
417.50	4135.73
417.69	4346.37
417.88	4358.08
418.07	4102.96
418.26	4189.56
418.45	4376.80
418.64	4470.42
418.83	4524.26
419.02	4386.16
419.21	4362.76
419.39	4493.83
419.58	4503.19
419.77	4341.69
419.96	4554.68
420.15	4634.26
420.34	4540.64
420.53	4561.70
420.72	4650.64
420.91	4683.41
421.10	4784.06
421.29	4648.30
421.48	4615.54
421.67	4643.62
421.86	4713.84
422.05	4819.16
422.24	4812.14
422.43	4858.95
422.61	5025.13
422.80	4812.14
422.99	4992.36
423.18	4854.27
423.37	4936.19
423.56	4847.25
423.75	4975.98
423.94	4849.59
424.13	4648.30
424.32	4683.41
424.50	4997.04
424.69	5090.67
424.88	5074.28
425.07	4952.57
425.26	4812.14
425.45	4985.34
425.64	4898.74
425.83	4966.62
426.01	5048.54
426.20	5097.69
426.39	5095.35
426.58	4997.04
426.77	5067.26
426.96	5193.65
427.15	4985.34
427.33	5156.20
427.52	5081.30
427.71	5298.97
427.90	5153.86
428.09	5390.25
428.28	5334.08
428.46	5296.63
428.65	5350.46
428.84	5366.85
429.03	5458.13
429.22	5289.61
429.40	5385.57
429.59	5511.96
429.78	5142.16
429.97	5310.68
430.16	5521.32
430.34	5530.69
430.53	5701.54
430.72	5554.09
430.91	5523.66
431.10	5537.71
431.28	5708.57
431.47	5746.02
431.66	5722.61
431.85	5692.18
432.03	5937.94
432.22	5863.04
432.41	5870.06
432.60	6057.31
432.79	5879.43
432.97	5916.87
433.16	6001.13
433.35	5912.19
433.54	5893.47
433.72	6153.27
433.91	5991.77
434.10	6113.48
434.28	6073.69
434.47	6183.70
434.66	6202.42
434.85	6162.63
435.03	6370.94
435.22	6085.39
435.41	6300.72
435.59	6338.17
435.78	6562.86
435.97	6509.03
436.16	6466.90
436.34	6155.61
436.53	6525.41
436.72	6590.95
436.90	6373.28
437.09	6794.58
437.28	6450.52
437.46	6583.93
437.65	6607.33
437.84	6773.51
438.02	6656.48
438.21	6663.51
438.40	6663.51
438.58	6761.81
438.77	6993.52
438.96	6878.83
439.14	7009.90
439.33	7300.13
439.52	7258.00
439.70	7208.85
439.89	7330.56
440.08	7372.69
440.26	7412.48
440.45	7239.28
440.63	7414.82
440.82	7655.89
441.01	7403.11
441.19	7499.08
441.38	7655.89
441.57	7641.85
441.75	7688.66
441.94	7929.74
442.12	7922.71
442.31	8013.99
442.50	7960.16
442.68	7920.37
442.87	8079.53
443.05	8004.63
443.24	8212.94
443.43	8191.88
443.61	8147.40
443.80	8210.60
443.98	8142.72
444.17	7808.03
444.35	8245.71
444.54	8285.50
444.73	8306.56
444.91	8381.46
445.10	8231.66
445.28	8194.22
445.47	8198.90
445.65	8168.47
445.84	8386.14
446.02	8409.54
446.21	8552.32
446.39	8341.67
446.58	8456.36
446.77	8250.39
446.95	8224.64
447.14	8582.74
447.32	8444.65
447.51	8439.97
447.69	8271.45
447.88	8510.19
448.06	8659.98
448.25	8498.49
448.43	8519.55
448.62	8692.75
448.80	8505.51
448.99	8388.48
449.17	8645.94
449.36	8655.30
449.54	8844.88
449.73	8940.85
449.91	8938.51
450.10	8798.07
450.28	8912.76
450.46	9032.13
450.65	8905.74
450.83	8945.53
451.02	8987.66
451.20	9004.04
451.39	9205.33
451.57	9130.43
451.76	9144.47
451.94	9074.26
452.13	9261.50
452.31	9231.07
452.49	9263.84
452.68	9284.91
452.86	9263.84
453.05	9444.06
453.23	9549.39
453.42	9263.84
453.60	9254.48
453.78	9390.23
453.97	9427.68
454.15	9327.03
454.34	9418.32
454.52	9654.71
454.70	9720.24
454.89	9652.37
455.07	9834.93
455.26	9685.14
455.44	9687.48
455.62	9673.43
455.81	9933.23
455.99	9886.42
456.17	9956.64
456.36	9973.02
456.54	10019.83
456.73	10242.18
456.91	10347.51
457.09	10602.63
457.28	10609.65
457.46	10204.74
457.64	10490.28
457.83	10345.17
458.01	10216.44
458.19	10855.40
458.38	10558.16
458.56	10759.44
458.74	10541.77
458.93	10427.09
459.11	10726.68
459.29	10850.72
459.48	10822.64
459.66	10841.36
459.84	10956.05
460.03	10878.81
460.21	10869.45
460.39	10923.28
460.57	10986.47
460.76	11044.99
460.94	11096.48
461.12	11030.94
461.31	11112.86
461.49	11084.78
461.67	11265.00
461.85	11389.05
462.04	11194.78
462.22	11812.68
462.40	11552.88
462.59	11403.09
462.77	11428.84
462.95	11548.20
463.13	11367.98
463.32	11559.91
463.50	11707.36
463.68	11899.28
463.86	11765.87
464.05	11714.38
464.23	11763.53
464.41	11695.66
464.59	11695.66
464.78	12100.57
464.96	11880.56
465.14	11798.64
465.32	12135.68
465.50	12175.47
465.69	12086.53
465.87	12168.45
466.05	12013.97
466.23	11957.80
466.41	12292.49
466.60	12416.54
466.78	12105.25
466.96	12067.80
467.14	12233.98
467.32	12383.77
467.51	12276.11
467.69	11941.41
467.87	12386.12
468.05	12624.85
468.23	12573.36
468.41	12372.07
468.60	12468.03
468.78	12374.41
468.96	12327.60
469.14	12496.12
469.32	12945.50
469.50	12379.09
469.69	13041.46
469.87	12802.73
470.05	13252.11
470.23	13303.60
470.41	13149.13
470.59	13170.19
470.77	13029.76
470.95	13191.26
471.14	13439.36
471.32	13092.96
471.50	13612.56
471.68	13404.25
471.86	13570.43
472.04	13734.26
472.22	13855.97
472.40	13462.76
472.58	13556.38
472.77	13626.60
472.95	14073.64
473.13	14373.23
473.31	13949.59
473.49	14242.16
473.67	14295.99
473.85	14319.40
474.03	14413.02
474.21	14728.99
474.39	14593.24
474.57	14644.73
474.75	14743.03
474.93	14860.06
475.12	14480.89
475.30	15026.24
475.48	14977.09
475.66	15267.31
475.84	15117.52
476.02	15461.58
476.20	15169.01
476.38	15220.50
476.56	15735.42
476.74	15964.79
476.92	15946.07
477.10	15520.09
477.28	15971.82
477.46	16283.11
477.64	16027.99
477.82	16336.94
478.00	16863.56
478.18	16903.35
478.36	16664.61
478.54	17214.64
478.72	16987.61
478.90	17422.95
479.08	17436.99
479.26	17612.53
479.44	17530.61
479.62	17942.55
479.80	18085.32
479.98	17965.95
480.16	18515.98
480.34	18111.07
480.52	18752.37
480.70	18588.53
480.88	18319.37
481.06	19044.94
481.24	18927.91
481.41	19234.52
481.59	19405.38
481.77	19363.25
481.95	19496.66
482.13	19644.12
482.31	19693.27
482.49	20290.10
482.67	20414.15
482.85	20037.33
483.03	20290.10
483.21	20610.76
483.39	20947.79
483.57	20685.65
483.74	21097.59
483.92	21092.91
484.10	20896.30
484.28	21338.66
484.46	22024.44
484.64	22167.21
484.82	21869.97
485.00	22338.07
485.18	22466.80
485.35	22860.01
485.53	22277.22
485.71	22963.00
485.89	23391.31
486.07	23304.71
486.25	23143.22
486.43	23726.01
486.61	23807.93
486.78	23836.02
486.96	24264.33
487.14	24353.27
487.32	24283.06
487.50	24547.54
487.68	24594.35
487.85	25106.93
488.03	25116.29
488.21	25633.55
488.39	25507.16
488.57	25865.26
488.75	25916.75
488.92	26298.26
489.10	26597.85
489.28	26609.55
489.46	27367.88
489.64	27012.12
489.81	27658.11
489.99	27508.32
490.17	27288.31
490.35	28219.84
490.53	27779.82
490.70	27871.10
490.88	27871.10
491.06	28498.36
491.24	28432.83
491.41	28769.86
491.59	29261.38
491.77	28907.96
491.95	29441.60
492.13	29685.01
492.30	29591.39
492.48	30258.45
492.66	30054.82
492.84	30071.20
493.01	30632.93
493.19	30347.39
493.37	30478.46
493.54	31051.89
493.72	31171.25
493.90	31136.15
494.08	31728.30
494.25	31807.88
494.43	31669.79
494.61	32243.22
494.79	32257.26
494.96	32659.84
495.14	32409.40
495.32	33125.60
495.49	32753.46
495.67	32854.10
495.85	33516.47
496.02	33649.88
496.20	33890.96
496.38	33827.76
496.55	33762.23
496.73	34660.99
496.91	34326.30
497.09	34604.82
497.26	34536.94
497.44	34494.82
497.62	35159.53
497.79	35655.72
497.97	35285.92
498.14	35655.72
498.32	35828.92
498.50	36210.43
498.67	36381.29
498.85	36100.42
499.03	36493.63
499.20	36563.85
499.38	36680.88
499.56	37064.72
499.73	36996.85
499.91	37390.06
500.08	37310.48
500.26	37518.79
500.44	37296.44
500.61	37722.41
500.79	37677.94
500.97	38251.38
501.14	38199.88
501.32	38525.22
501.49	38312.23
501.67	38726.50
501.84	39070.56
502.02	38759.27
502.20	38494.79
502.37	38979.28
502.55	38962.90
502.72	39332.70
502.90	39154.82
503.07	39313.98
503.25	39887.41
503.43	39236.74
503.60	39854.64
503.78	40268.92
503.95	39974.01
504.13	40545.10
504.30	40411.69
504.48	40194.02
504.65	40442.12
504.83	40722.98
505.01	41284.71
505.18	40854.05
505.36	41605.36
505.53	40734.68
505.71	41261.30
505.88	41691.96
506.06	41478.97
506.23	41642.81
506.41	41689.62
506.58	41593.66
506.76	42183.48
506.93	42335.61
507.11	42337.95
507.28	42525.19
507.46	42569.66
507.63	43049.47
507.81	43005.00
507.98	42452.64
508.16	43236.72
508.33	43328.00
508.50	43555.03
508.68	43805.47
508.85	43676.74
509.03	43683.76
509.20	44072.29
509.38	44210.38
509.55	44257.19
509.73	44222.08
509.90	44208.04
510.08	44261.87
510.25	44589.55
510.42	44741.68
510.60	44992.12
510.77	45151.27
510.95	45352.56
511.12	44877.43
511.30	44949.99
511.47	45359.58
511.64	45483.63
511.82	46014.93
511.99	45790.24
512.17	45769.18
512.34	45766.84
512.51	45888.54
512.69	46054.72
512.86	46146.00
513.04	46681.98
513.21	46534.53
513.38	46246.65
513.56	46700.71
513.73	46469.00
513.90	46834.12
514.08	46747.52
514.25	47503.51
514.43	46628.15
514.60	47384.15
514.77	47028.38
514.95	47732.89
515.12	47646.29
515.29	47047.11
515.47	47784.38
515.64	47899.06
515.81	47793.74
515.99	48135.46
516.16	48327.38
516.33	48165.88
516.51	48809.53
516.68	47931.83
516.85	48374.19
517.03	48406.96
517.20	48690.16
517.37	48854.00
517.54	48545.05
517.72	48535.69
517.89	48680.80
518.06	49076.35
518.24	49034.22
518.41	49099.76
518.58	49179.34
518.75	49057.63
518.93	49298.70
519.10	49081.03
519.27	49492.97
519.45	49460.20
519.62	49659.15
519.79	49663.83
519.96	49460.20
520.14	50071.08
520.31	50145.98
520.48	50206.83
520.65	49977.46
520.83	50286.41
521.00	50541.53
521.17	50246.62
521.34	50438.54
521.52	50436.20
521.69	50337.90
521.86	50855.16
522.03	50894.95
522.20	50693.66
522.38	51290.50
522.55	51203.90
522.72	51313.90
522.89	51292.84
523.07	51828.82
523.24	51239.01
523.41	51578.39
523.58	51173.47
523.75	51760.95
523.92	52074.58
524.10	51625.20
524.27	51826.48
524.44	51877.97
524.61	51861.59
524.78	52266.50
524.96	52156.50
525.13	52397.57
525.30	52299.27
525.47	52428.00
525.64	52633.97
525.81	52533.32
525.98	52432.68
526.16	52444.38
526.33	52556.73
526.50	52680.78
526.67	52793.12
526.84	52783.76
527.01	52605.88
527.18	52797.80
527.36	52743.97
527.53	52942.92
527.70	53251.87
527.87	53322.08
528.04	52903.13
528.21	53176.97
528.38	53221.44
528.55	53642.74
528.72	53504.65
528.89	53191.01
529.07	52956.96
529.24	53308.04
529.41	53609.97
529.58	53638.06
529.75	53673.16
529.92	53712.95
530.09	53773.81
530.26	53954.03
530.43	54213.83
530.60	53949.35
530.77	53680.19
530.94	53867.43
531.11	53815.94
531.28	54059.35
531.46	53970.41
531.63	54253.62
531.80	54143.61
531.97	54120.21
532.14	54391.71
532.31	54358.94
532.48	54368.30
532.65	54576.61
532.82	54260.64
532.99	54934.71
533.16	54478.31
533.33	54625.76
533.50	54777.90
533.67	54691.30
533.84	54459.58
534.01	54775.56
534.18	54780.24
534.35	54930.03
534.52	54796.62
534.69	55070.46
534.86	55107.91
535.03	54948.76
535.20	54988.55
535.37	55358.35
535.54	55517.51
535.71	55185.15
535.88	55276.43
536.05	55367.71
536.22	55491.76
536.38	55564.32
536.55	55594.74
536.72	55238.98
536.89	55351.33
537.06	55367.71
537.23	55419.20
537.40	55489.42
537.57	55587.72
537.74	55543.25
537.91	55676.66
538.08	55781.99
538.25	55653.26
538.42	56135.41
538.59	55992.64
538.75	55716.45
538.92	55938.80
539.09	55901.36
539.26	56058.17
539.43	55812.41
539.60	56163.50
539.77	56126.05
539.94	56378.82
540.11	56252.44
540.28	56397.55
540.44	56142.43
540.61	56601.18
540.78	56100.30
540.95	56292.22
541.12	56104.98
541.29	56411.59
541.46	56367.12
541.62	56542.66
541.79	56507.55
541.96	56191.58
542.13	56423.29
542.30	56750.97
542.47	56559.05
542.63	56664.37
542.80	56968.64
542.97	56872.68
543.14	57125.46
543.31	57155.88
543.48	57006.09
543.64	57312.70
543.81	57247.16
543.98	57102.05
544.15	57282.27
544.32	57389.94
544.48	57499.94
544.65	57027.15
544.82	57396.96
544.99	57228.44
545.16	57389.94
545.32	57350.15
545.49	57598.24
545.66	57567.82
545.83	57401.64
546.00	57574.84
546.16	57631.01
546.33	57497.60
546.50	57373.55
546.67	57654.42
546.83	57265.89
547.00	57532.71
547.17	57647.39
547.34	57719.95
547.50	57719.95
547.67	57844.00
547.84	58145.93
548.00	57808.89
548.17	57787.83
548.34	57853.36
548.51	58328.49
548.67	58064.01
548.84	58129.54
549.01	57949.32
549.18	57909.53
549.34	58138.91
549.51	58433.81
549.68	58260.62
549.84	58164.65
550.01	58300.40
550.18	58295.72
550.34	58384.66
550.51	58314.45
550.68	58305.09
550.84	58122.52
551.01	58288.70
551.18	58342.53
551.34	58468.92
551.51	58281.68
551.68	58293.38
551.84	58592.97
552.01	58447.86
552.18	58592.97
552.34	58429.13
552.51	58588.29
552.68	58433.81
552.84	58621.06
553.01	58651.48
553.18	58616.38
553.34	58955.75
553.51	58569.57
553.67	58672.55
553.84	58702.98
554.01	58787.24
554.17	58834.05
554.34	58838.73
554.51	59114.91
554.67	58899.58
554.84	58911.28
555.00	58908.94
555.17	58866.81
555.33	58897.24
555.50	58775.53
555.67	58843.41
555.83	58939.37
556.00	58967.46
556.16	59241.30
556.33	59161.72
556.50	58857.45
556.66	59250.66
556.83	58864.47
556.99	59236.62
557.16	59433.22
557.32	59435.56
557.49	59681.32
557.65	59318.54
557.82	59171.08
557.98	59173.42
558.15	59168.74
558.32	59260.02
558.48	59068.10
558.65	59386.41
558.81	59470.67
558.98	59182.79
559.14	59430.88
559.31	59381.73
559.47	59463.65
559.64	59686.00
559.80	59690.68
559.97	59564.29
560.13	59648.55
560.30	59580.68
560.46	59681.32
560.63	59737.49
560.79	59704.73
560.96	59882.61
561.12	59580.68
561.29	59695.36
561.45	59784.30
561.61	59667.28
561.78	59681.32
561.94	59618.13
562.11	59711.75
562.27	59807.71
562.44	59686.00
562.60	59901.33
562.77	59831.11
562.93	59487.06
563.10	59870.90
563.26	59777.28
563.42	60123.68
563.59	59903.67
563.75	59707.07
563.92	59938.78
564.08	59774.94
564.24	60079.21
564.41	59906.01
564.57	60039.42
564.74	60128.36
564.90	60030.06
565.07	60027.72
565.23	59856.86
565.39	60016.02
565.56	60097.94
565.72	60196.24
565.88	60037.08
566.05	59966.87
566.21	60158.79
566.38	60161.13
566.54	60289.86
566.70	60240.71
566.87	60189.22
567.03	60097.94
567.19	60369.44
567.36	60149.43
567.52	60027.72
567.68	60381.14
567.85	60477.10
568.01	60324.97
568.17	60254.75
568.34	60402.21
568.50	60259.43
568.66	60231.35
568.83	60427.95
568.99	60193.90
569.15	60259.43
569.32	60390.50
569.48	60154.11
569.64	60147.09
569.81	60282.84
569.97	60186.88
570.13	60175.17
570.30	60327.31
570.46	60519.23
570.62	60149.43
570.78	60252.41
570.95	60458.38
571.11	60477.10
571.27	60369.44
571.43	60275.82
571.60	60516.89
571.76	60371.78
571.92	60495.83
572.09	60498.17
572.25	60521.57
572.41	60505.19
572.57	60521.57
572.74	60788.39
572.90	60460.72
573.06	60575.40
573.22	60273.48
573.38	60580.09
573.55	60505.19
573.71	60683.07
573.87	60598.81
574.03	60484.12
574.20	60619.88
574.36	60339.01
574.52	60832.86
574.68	60491.15
574.84	60680.73
575.01	60767.33
575.17	60474.76
575.33	60259.43
575.49	60523.91
575.65	60706.47
575.82	60779.03
575.98	60561.36
576.14	60942.87
576.30	60629.24
576.46	60814.14
576.62	60636.26
576.79	60512.21
576.95	60479.44
577.11	60654.98
577.27	60619.88
577.43	60743.92
577.59	60486.46
577.75	60664.35
577.92	60507.53
578.08	60807.12
578.24	60725.20
578.40	60872.65
578.56	60832.86
578.72	60654.98
578.88	60933.51
579.04	60874.99
579.21	60657.32
579.37	60914.78
579.53	60860.95
579.69	60629.24
579.85	60734.56
580.01	60945.21
580.17	60605.83
580.33	60739.24
580.49	60589.45
580.65	60849.25
580.82	60746.26
580.98	60715.84
581.14	60680.73
581.30	60949.89
581.46	60645.62
581.62	60949.89
581.78	60678.39
581.94	61050.53
582.10	60879.67
582.26	60931.17
582.42	60715.84
582.58	60905.42
582.74	60783.71
582.90	60966.27
583.06	60985.00
583.22	60685.41
583.38	60708.82
583.54	60935.85
583.70	60980.32
583.86	60982.66
584.02	60701.79
584.18	60954.57
584.34	60814.14
584.50	60809.46
584.66	60739.24
584.82	60521.57
584.98	61064.58
585.14	60896.06
585.30	60985.00
585.46	60725.20
585.62	60977.98
585.78	60968.61
585.94	60853.93
586.10	60722.86
586.26	60938.19
586.42	61069.26
586.58	61062.24
586.74	60832.86
586.90	60860.95
587.06	60846.91
587.22	60949.89
587.38	60928.83
587.54	61020.11
587.70	61080.96
587.86	60938.19
588.02	60865.63
588.18	60898.40
588.34	60919.46
588.49	61029.47
