SpectraSuite Data File
++++++++++++++++++++++++++++++++++++
Date: Fri Oct 25 11:25:40 EDT 2013
User: price-jones
Dark Spectrum Present: No
Reference Spectrum Present: No
Number of Sampled Component Spectra: 1
Spectrometers: USB2+H05261
Integration Time (usec): 100000 (USB2+H05261)
Spectra Averaged: 1 (USB2+H05261)
Boxcar Smoothing: 0 (USB2+H05261)
Correct for Electrical Dark: No (USB2+H05261)
Strobe/Lamp Enabled: No (USB2+H05261)
Correct for Detector Non-linearity: No (USB2+H05261)
Correct for Stray Light: No (USB2+H05261)
Number of Pixels in Processed Spectrum: 2048
>>>>>Begin Processed Spectral Data<<<<<
365.73	250.44
365.92	250.44
366.12	250.44
366.32	131.07
366.52	142.77
366.72	79.58
366.91	163.84
367.11	210.65
367.31	133.41
367.51	161.50
367.70	194.26
367.90	191.92
368.10	142.77
368.30	222.35
368.49	140.43
368.69	152.13
368.89	124.05
369.09	140.43
369.28	217.67
369.48	229.37
369.68	152.13
369.87	163.84
370.07	215.33
370.27	184.90
370.47	341.72
370.66	592.16
370.86	629.60
371.06	732.59
371.25	704.50
371.45	681.10
371.65	681.10
371.84	688.12
372.04	702.16
372.24	706.84
372.44	725.57
372.63	688.12
372.83	758.33
373.03	711.52
373.22	711.52
373.42	795.78
373.62	798.12
373.81	737.27
374.01	812.17
374.21	755.99
374.40	889.40
374.60	784.08
374.79	739.61
374.99	791.10
375.19	716.20
375.38	847.27
375.58	887.06
375.78	868.34
375.97	849.61
376.17	894.08
376.37	891.74
376.56	880.04
376.76	844.93
376.95	856.64
377.15	821.53
377.35	945.58
377.54	851.96
377.74	849.61
377.93	917.49
378.13	917.49
378.33	901.11
378.52	877.70
378.72	882.38
378.91	945.58
379.11	917.49
379.31	961.96
379.50	922.17
379.70	1029.84
379.89	976.00
380.09	1015.79
380.28	992.39
380.48	992.39
380.68	976.00
380.87	980.68
381.07	971.32
381.26	1064.94
381.46	933.87
381.65	1060.26
381.85	1006.43
382.04	1011.11
382.24	1088.35
382.43	1018.13
382.63	1102.39
382.83	1043.88
383.02	1043.88
383.22	1109.41
383.41	1107.07
383.61	1064.94
383.80	1170.27
384.00	1071.97
384.19	1097.71
384.39	1188.99
384.58	1184.31
384.78	1224.10
384.97	1174.95
385.17	1064.94
385.36	1247.51
385.56	1165.59
385.75	1118.78
385.95	1207.72
386.14	1205.38
386.34	1093.03
386.53	1205.38
386.72	1212.40
386.92	1259.21
387.11	1247.51
387.31	1198.35
387.50	1270.91
387.70	1289.64
387.89	1247.51
388.09	1212.40
388.28	1320.06
388.48	1280.27
388.67	1338.79
388.86	1273.25
389.06	1273.25
389.25	1397.30
389.45	1268.57
389.64	1392.62
389.84	1413.68
390.03	1420.71
390.22	1488.58
390.42	1327.08
390.61	1364.53
390.81	1371.55
391.00	1418.36
391.19	1453.47
391.39	1474.54
391.58	1348.15
391.78	1483.90
391.97	1514.33
392.16	1575.18
392.36	1441.77
392.55	1465.18
392.75	1575.18
392.94	1509.65
393.13	1544.75
393.33	1521.35
393.52	1521.35
393.71	1570.50
393.91	1540.07
394.10	1572.84
394.29	1640.72
394.49	1563.48
394.68	1687.53
394.88	1720.29
395.07	1579.86
395.26	1661.78
395.46	1699.23
395.65	1703.91
395.84	1668.80
396.04	1818.60
396.23	1631.35
396.42	1689.87
396.62	1788.17
396.81	1778.81
397.00	1834.98
397.19	1820.94
397.39	1687.53
397.58	1724.97
397.77	1823.28
397.97	1849.02
398.16	1816.26
398.35	1846.68
398.55	1764.76
398.74	1867.75
398.93	1982.43
399.12	1884.13
399.32	1832.64
399.51	1984.77
399.70	1991.80
399.90	1973.07
400.09	1933.28
400.28	1959.03
400.47	1982.43
400.67	2043.29
400.86	2043.29
401.05	2050.31
401.24	2073.71
401.44	2101.80
401.63	2012.86
401.82	2104.14
402.01	2069.03
402.21	2176.70
402.40	2181.38
402.59	2186.06
402.78	2186.06
402.97	2157.97
403.17	2209.47
403.36	2188.40
403.55	2249.25
403.74	2225.85
403.93	2289.04
404.13	2396.71
404.32	2406.07
404.51	2289.04
404.70	2366.28
404.89	2396.71
405.09	2389.69
405.28	2450.54
405.47	2509.05
405.66	2427.14
405.85	2478.63
406.05	2548.84
406.24	2523.10
406.43	2649.49
406.62	2614.38
406.81	2576.93
407.00	2595.65
407.20	2534.80
407.39	2539.48
407.58	2626.08
407.77	2736.09
407.96	2773.53
408.15	2789.92
408.34	2729.06
408.54	2738.43
408.73	2775.88
408.92	2810.98
409.11	2780.56
409.30	2904.60
409.49	2939.71
409.68	2883.54
409.87	2928.01
410.07	3133.98
410.26	2995.89
410.45	2937.37
410.64	3028.65
410.83	3152.70
411.02	3094.19
411.21	3080.14
411.40	3197.17
411.59	3197.17
411.78	3187.81
411.98	3211.22
412.17	3159.72
412.36	3169.09
412.55	3325.90
412.74	3267.39
412.93	3478.04
413.12	3325.90
413.31	3522.51
413.50	3375.05
413.69	3442.93
413.88	3482.72
414.07	3566.98
414.26	3653.58
414.45	3583.36
414.64	3609.11
414.83	3693.37
415.02	3653.58
415.22	3887.63
415.41	3861.88
415.60	3904.01
415.79	3861.88
415.98	3873.59
416.17	3941.46
416.36	3922.74
416.55	3971.89
416.74	3978.91
416.93	3997.64
417.12	4135.73
417.31	4030.40
417.50	4102.96
417.69	4173.18
417.88	4362.76
418.07	4285.52
418.26	4329.99
418.45	4248.07
418.64	4348.72
418.83	4264.46
419.02	4503.19
419.21	4423.61
419.39	4402.55
419.58	4351.06
419.77	4301.90
419.96	4608.51
420.15	4568.73
420.34	4503.19
420.53	4493.83
420.72	4774.69
420.91	4617.88
421.10	4713.84
421.29	4821.50
421.48	4755.97
421.67	4748.95
421.86	4760.65
422.05	4786.40
422.24	4774.69
422.43	4880.02
422.61	4781.71
422.80	4964.28
422.99	4915.12
423.18	4821.50
423.37	4910.44
423.56	4952.57
423.75	4800.44
423.94	4795.76
424.13	4627.24
424.32	4652.98
424.50	4760.65
424.69	5043.85
424.88	4952.57
425.07	4851.93
425.26	4961.94
425.45	5046.20
425.64	5039.17
425.83	4973.64
426.01	5053.22
426.20	5102.37
426.39	4917.47
426.58	5104.71
426.77	5057.90
426.96	5104.71
427.15	5095.35
427.33	5118.75
427.52	4954.91
427.71	5205.35
427.90	5116.41
428.09	5177.26
428.28	5411.32
428.46	5193.65
428.65	5252.16
428.84	5432.38
429.03	5331.74
429.22	5055.56
429.40	5514.30
429.59	5561.11
429.78	5294.29
429.97	5303.65
430.16	5371.53
430.34	5451.11
430.53	5636.01
430.72	5598.56
430.91	5671.12
431.10	5638.35
431.28	5788.14
431.47	5715.59
431.66	5860.70
431.85	5713.25
432.03	5912.19
432.22	5923.90
432.41	5823.25
432.60	5841.98
432.79	5980.07
432.97	5898.15
433.16	5792.83
433.35	5820.91
433.54	5905.17
433.72	6015.18
433.91	5980.07
434.10	6003.47
434.28	6183.70
434.47	6155.61
434.66	6279.66
434.85	6307.74
435.03	6431.79
435.22	6251.57
435.41	6478.60
435.59	6389.66
435.78	6359.24
435.97	6434.13
436.16	6483.28
436.34	6399.02
436.53	6429.45
436.72	6553.50
436.90	6333.49
437.09	6497.33
437.28	6399.02
437.46	6504.35
437.65	6494.99
437.84	6785.21
438.02	6792.23
438.21	6715.00
438.40	6441.15
438.58	6883.52
438.77	6979.48
438.96	6916.28
439.14	7089.48
439.33	7140.97
439.52	7183.10
439.70	7318.86
439.89	7302.47
440.08	7304.81
440.26	7346.94
440.45	7332.90
440.63	7421.84
440.82	7468.65
441.01	7344.60
441.19	7536.52
441.38	7634.83
441.57	7543.55
441.75	7695.68
441.94	7735.47
442.12	7875.90
442.31	7864.20
442.50	8030.38
442.68	7850.16
442.87	7925.05
443.05	7941.44
443.24	8320.60
443.43	8154.43
443.61	8145.06
443.80	8428.27
443.98	7992.93
444.17	7838.45
444.35	8168.47
444.54	8294.86
444.73	8344.01
444.91	8273.79
445.10	8315.92
445.28	8217.62
445.47	8133.36
445.65	8313.58
445.84	8421.25
446.02	8484.44
446.21	8397.84
446.39	8072.51
446.58	8648.28
446.77	8308.90
446.95	8051.44
447.14	8439.97
447.32	8428.27
447.51	8395.50
447.69	8344.01
447.88	8407.20
448.06	8500.83
448.25	8451.67
448.43	8737.22
448.62	8507.85
448.80	8500.83
448.99	8620.19
449.17	8631.90
449.36	8613.17
449.54	8847.22
449.73	8889.35
449.91	8816.80
450.10	8933.82
450.28	9104.68
450.46	8823.82
450.65	8908.08
450.83	8865.95
451.02	8929.14
451.20	9104.68
451.39	9095.32
451.57	9013.40
451.76	9022.77
451.94	9081.28
452.13	9523.64
452.31	9263.84
452.49	9011.06
452.68	9549.39
452.86	9256.82
453.05	9329.38
453.23	9394.91
453.42	9280.22
453.60	9092.98
453.78	9605.56
453.97	9320.01
454.15	9479.17
454.34	9516.62
454.52	9486.19
454.70	9797.48
454.89	9624.28
455.07	9584.49
455.26	9589.17
455.44	9767.06
455.62	9914.51
455.81	9956.64
455.99	9961.32
456.17	9933.23
456.36	9984.73
456.54	9900.47
456.73	10087.71
456.91	10438.79
457.09	10321.76
457.28	10354.53
457.46	10150.90
457.64	10441.13
457.83	10520.71
458.01	10399.00
458.19	10485.60
458.38	10504.32
458.56	10670.50
458.74	10682.20
458.93	10548.79
459.11	10368.57
459.29	10509.01
459.48	10614.33
459.66	10665.82
459.84	10832.00
460.03	10876.47
460.21	10949.03
460.39	11075.42
460.57	10939.66
460.76	11021.58
460.94	11122.23
461.12	11159.67
461.31	10920.94
461.49	11391.39
461.67	11070.73
461.85	11564.59
462.04	11119.89
462.22	11756.51
462.40	11538.84
462.59	11370.32
462.77	11330.53
462.95	11751.83
463.13	11410.11
463.32	11606.72
463.50	11545.86
463.68	11843.11
463.86	11772.89
464.05	11522.46
464.23	11728.42
464.41	11899.28
464.59	11576.29
464.78	11749.49
464.96	11824.39
465.14	11800.98
465.32	12402.50
465.50	11852.47
465.69	11992.90
465.87	12177.81
466.05	12074.82
466.23	11953.12
466.41	12217.60
466.60	12196.53
466.78	12163.76
466.96	12217.60
467.14	12161.42
467.32	12421.22
467.51	12528.89
467.69	12086.53
467.87	12245.68
468.05	12561.66
468.23	12496.12
468.41	12107.59
468.60	12549.95
468.78	12496.12
468.96	12442.29
469.14	12648.26
469.32	12882.31
469.50	12601.44
469.69	12912.74
469.87	12786.35
470.05	12903.37
470.23	13209.98
470.41	12924.44
470.59	13387.86
470.77	13495.53
470.95	13404.25
471.14	13303.60
471.32	13039.12
471.50	13448.72
471.68	13357.44
471.86	13371.48
472.04	13458.08
472.22	13853.63
472.40	13525.96
472.58	13790.44
472.77	13870.01
472.95	13994.06
473.13	14478.55
473.31	13989.38
473.49	14061.94
473.67	13907.46
473.85	14185.99
474.03	14471.53
474.21	14478.55
474.39	14445.79
474.57	14523.02
474.75	14890.49
474.93	14736.01
475.12	14728.99
475.30	15190.08
475.48	15007.52
475.66	14974.75
475.84	15264.97
476.02	15126.88
476.20	15302.42
476.38	15669.89
476.56	16105.23
476.74	15690.95
476.92	15861.81
477.10	15782.23
477.28	15836.06
477.46	16049.05
477.64	16339.28
477.82	16444.60
478.00	16739.51
478.18	16610.78
478.36	16865.90
478.54	16980.59
478.72	17064.85
478.90	17268.47
479.08	17294.22
479.26	17701.47
479.44	17853.61
479.62	17848.93
479.80	17905.10
479.98	18092.34
480.16	18211.71
480.34	18148.51
480.52	18207.03
480.70	18307.67
480.88	18277.24
481.06	18541.72
481.24	18581.51
481.41	18909.19
481.59	19117.50
481.77	19243.88
481.95	19655.82
482.13	19707.31
482.31	19765.82
482.49	20056.05
482.67	20250.32
482.85	19997.54
483.03	20231.59
483.21	20734.81
483.39	21010.99
483.57	20407.13
483.74	21057.80
483.92	21130.36
484.10	21245.04
484.28	21706.13
484.46	21553.99
484.64	22202.32
484.82	21785.71
485.00	22328.71
485.18	22490.21
485.35	22700.86
485.53	22925.55
485.71	22963.00
485.89	23138.54
486.07	23096.41
486.25	23250.88
486.43	23428.76
486.61	23906.23
486.78	23859.42
486.96	24135.60
487.14	24250.29
487.32	24748.82
487.50	24599.03
487.68	24439.87
487.85	25032.03
488.03	25343.32
488.21	25591.42
488.39	25750.57
488.57	25802.07
488.75	25755.26
488.92	26450.39
489.10	26494.86
489.28	26370.82
489.46	26925.52
489.64	26799.13
489.81	27143.19
489.99	27232.13
490.17	27681.52
490.35	27845.35
490.53	27833.65
490.70	28315.80
490.88	27983.44
491.06	28517.09
491.24	28734.76
491.41	28833.06
491.59	28809.65
491.77	29322.23
491.95	29177.12
492.13	29364.36
492.30	29598.41
492.48	29692.04
492.66	30038.44
492.84	30089.93
493.01	30433.99
493.19	30239.72
493.37	30984.01
493.54	30799.11
493.72	31168.91
493.90	31063.59
494.08	31873.42
494.25	31395.95
494.43	31625.32
494.61	32170.66
494.79	32264.28
494.96	32133.21
495.14	32404.72
495.32	32793.25
495.49	32608.34
495.67	32596.64
495.85	33083.47
496.02	33352.63
496.20	34047.77
496.38	33301.14
496.55	33874.57
496.73	34967.60
496.91	34080.54
497.09	34520.56
497.26	34817.81
497.44	34717.17
497.62	35037.82
497.79	35571.46
497.97	34911.43
498.14	35559.76
498.32	36065.31
498.50	35880.41
498.67	36486.61
498.85	35749.34
499.03	36229.15
499.20	36123.83
499.38	36596.62
499.56	36538.10
499.73	36809.61
499.91	37450.91
500.08	37600.71
500.26	37034.30
500.44	37336.23
500.61	37801.99
500.79	37460.27
500.97	38010.30
501.14	38190.52
501.32	38050.09
501.49	38134.35
501.67	38330.95
501.84	38808.42
502.02	38803.74
502.20	38693.74
502.37	38962.90
502.55	38993.32
502.72	39058.86
502.90	38967.58
503.07	39051.84
503.25	39295.25
503.43	39512.92
503.60	39241.42
503.78	39714.21
503.95	39487.18
504.13	40460.84
504.30	40350.84
504.48	40308.71
504.65	40158.91
504.83	40641.06
505.01	40896.18
505.18	41338.54
505.36	41242.58
505.53	41214.49
505.71	41762.18
505.88	41380.67
506.06	41294.07
506.23	41642.81
506.41	41640.47
506.58	41970.49
506.76	41584.30
506.93	41986.87
507.11	42197.52
507.28	42405.83
507.46	42440.93
507.63	42387.10
507.81	42829.46
507.98	42738.18
508.16	42478.38
508.33	43131.39
508.50	43185.22
508.68	43714.19
508.85	43552.69
509.03	43566.73
509.20	43805.47
509.38	43831.21
509.55	43894.41
509.73	44053.56
509.90	44449.11
510.08	44343.79
510.25	44224.42
510.42	44411.67
510.60	44570.82
510.77	45097.44
510.95	45076.38
511.12	45006.16
511.30	44893.82
511.47	44919.56
511.64	45539.80
511.82	45865.14
511.99	45724.71
512.17	45766.84
512.34	45914.29
512.51	46057.06
512.69	45869.82
512.86	46099.19
513.04	46234.94
513.21	46316.86
513.38	46464.32
513.56	46637.51
513.73	46461.97
513.90	46642.20
514.08	46735.82
514.25	47037.75
514.43	46967.53
514.60	47292.86
514.77	47065.83
514.95	46979.23
515.12	46997.96
515.29	47597.13
515.47	47763.31
515.64	47826.51
515.81	47545.64
515.99	47920.13
516.16	48390.58
516.33	48034.81
516.51	48573.14
516.68	48114.39
516.85	47969.28
517.03	48547.39
517.20	48694.85
517.37	48399.94
517.54	48861.02
517.72	48411.64
517.89	48547.39
518.06	49017.84
518.24	48879.75
518.41	49216.78
518.58	48952.30
518.75	48837.62
518.93	49457.86
519.10	49436.80
519.27	49722.34
519.45	49572.55
519.62	49766.81
519.79	49717.66
519.96	49436.80
520.14	49935.33
520.31	49661.49
520.48	49965.76
520.65	50361.31
520.83	50204.49
521.00	50387.05
521.17	50410.46
521.34	50473.65
521.52	50391.73
521.69	50391.73
521.86	50770.90
522.03	51246.03
522.20	51000.27
522.38	51093.89
522.55	51236.67
522.72	50934.74
522.89	51180.49
523.07	51416.89
523.24	51105.60
523.41	51409.87
523.58	51332.63
523.75	51737.54
523.92	51288.16
524.10	51480.08
524.27	51765.63
524.44	51873.29
524.61	52168.20
524.78	51573.70
524.96	51948.19
525.13	52128.41
525.30	52257.14
525.47	52165.86
525.64	52126.07
525.81	52472.47
525.98	52315.65
526.16	52425.66
526.33	52327.36
526.50	52772.06
526.67	52465.45
526.84	52837.59
527.01	52783.76
527.18	52633.97
527.36	52818.87
527.53	53083.35
527.70	53324.43
527.87	53048.24
528.04	53125.48
528.21	53141.86
528.38	53134.84
528.55	53221.44
528.72	53134.84
528.89	53371.24
529.07	53478.90
529.24	52952.28
529.41	53661.46
529.58	53249.53
529.75	53673.16
529.92	53502.31
530.09	53588.91
530.26	53705.93
530.43	53680.19
530.60	53654.44
530.77	53801.89
530.94	53900.20
531.11	53771.47
531.28	54171.70
531.46	54026.59
531.63	53794.87
531.80	53921.26
531.97	54007.86
532.14	54110.85
532.31	54108.50
532.48	54272.34
532.65	54815.35
532.82	53982.12
532.99	54464.27
533.16	54330.86
533.33	54543.84
533.50	54756.83
533.67	54710.02
533.84	54609.38
534.01	54391.71
534.18	54740.45
534.35	55072.81
534.52	54431.50
534.69	54993.23
534.86	55028.34
535.03	54808.32
535.20	54857.48
535.37	55093.87
535.54	55360.69
535.71	54780.24
535.88	55098.55
536.05	55136.00
536.22	55180.47
536.38	55269.41
536.55	55480.06
536.72	55444.95
536.89	55337.29
537.06	55356.01
537.23	55695.39
537.40	55351.33
537.57	55386.44
537.74	55636.87
537.91	55732.84
538.08	55824.12
538.25	55536.23
538.42	55583.04
538.59	55849.86
538.75	55805.39
538.92	55842.84
539.09	56121.37
539.26	55936.46
539.43	55952.85
539.60	56013.70
539.77	56193.92
539.94	56179.88
540.11	56360.10
540.28	56222.01
540.44	56154.13
540.61	56320.31
540.78	56179.88
540.95	56357.76
541.12	55917.74
541.29	56247.75
541.46	56285.20
541.62	56362.44
541.79	56617.56
541.96	56102.64
542.13	56444.36
542.30	56423.29
542.47	56732.25
542.63	56584.79
542.80	56713.52
542.97	56816.50
543.14	57073.96
543.31	56907.79
543.48	57099.71
543.64	57387.60
543.81	57329.08
543.98	57247.16
544.15	57167.58
544.32	57312.70
544.48	57364.19
544.65	57146.52
544.82	57317.38
544.99	57244.82
545.16	57034.17
545.32	57041.20
545.49	57689.52
545.66	57572.50
545.83	57415.68
546.00	57521.01
546.16	57415.68
546.33	57495.26
546.50	57179.29
546.67	57771.44
546.83	57209.71
547.00	57523.35
547.17	57635.69
547.34	57614.63
547.50	57752.72
547.67	58054.65
547.84	57769.10
548.00	57909.53
548.17	58174.02
548.34	57797.19
548.51	58080.39
548.67	58136.57
548.84	57860.38
549.01	57989.11
549.18	57982.09
549.34	58190.40
549.51	58094.44
549.68	58056.99
549.84	57914.22
550.01	58466.58
550.18	57986.77
550.34	58436.16
550.51	58347.21
550.68	58042.95
550.84	57970.39
551.01	58539.14
551.18	58288.70
551.34	58513.39
551.51	58281.68
551.68	58356.58
551.84	58597.65
552.01	58384.66
552.18	58384.66
552.34	58429.13
552.51	58419.77
552.68	58457.22
552.84	58452.54
553.01	58803.62
553.18	58394.03
553.34	58710.00
553.51	58541.48
553.67	58539.14
553.84	58838.73
554.01	58817.66
554.17	58550.84
554.34	58770.85
554.51	58735.74
554.67	58857.45
554.84	58812.98
555.00	58738.08
555.17	58688.93
555.33	58922.99
555.50	58817.66
555.67	58745.11
555.83	58988.52
556.00	58979.16
556.16	59313.86
556.33	59248.32
556.50	59199.17
556.66	58990.86
556.83	58965.12
556.99	59311.52
557.16	59288.11
557.32	59260.02
557.49	59440.24
557.65	59278.75
557.82	59199.17
557.98	59145.34
558.15	59215.55
558.32	59082.14
558.48	59215.55
558.65	59360.67
558.81	59449.61
558.98	59353.65
559.14	59477.69
559.31	59402.80
559.47	59360.67
559.64	59566.63
559.80	59409.82
559.97	59585.36
560.13	59545.57
560.30	59360.67
560.46	59416.84
560.63	59716.43
560.79	59662.60
560.96	59732.81
561.12	59660.26
561.29	59650.89
561.45	59690.68
561.61	59716.43
561.78	59405.14
561.94	59620.47
562.11	59718.77
562.27	59540.89
562.44	60009.00
562.60	59674.30
562.77	59788.98
562.93	59695.36
563.10	59758.56
563.26	59978.57
563.42	59952.82
563.59	59707.07
563.75	59849.84
563.92	59875.58
564.08	59746.86
564.24	59927.08
564.41	59934.10
564.57	59873.24
564.74	60001.97
564.90	60009.00
565.07	59983.25
565.23	59915.37
565.39	59793.67
565.56	59884.95
565.72	59894.31
565.88	59959.84
566.05	59978.57
566.21	59913.03
566.38	60090.91
566.54	60165.81
566.70	60144.75
566.87	60308.58
567.03	59908.35
567.19	60329.65
567.36	60086.23
567.52	60149.43
567.68	60439.65
567.85	60060.49
568.01	60310.92
568.17	60086.23
568.34	60102.62
568.50	60151.77
568.66	59959.84
568.83	60081.55
568.99	60243.05
569.15	60058.15
569.32	60243.05
569.48	60177.51
569.64	60554.34
569.81	60341.35
569.97	60308.58
570.13	60378.80
570.30	60205.60
570.46	60200.92
570.62	60172.83
570.78	60339.01
570.95	60306.24
571.11	60420.93
571.27	60416.25
571.43	60388.16
571.60	60254.75
571.76	60467.74
571.92	60360.08
572.09	60474.76
572.25	60294.54
572.41	60193.90
572.57	60381.14
572.74	60699.45
572.90	60219.64
573.06	60460.72
573.22	60310.92
573.38	60544.98
573.55	60385.82
573.71	60680.73
573.87	60598.81
574.03	60406.89
574.20	60615.19
574.36	60383.48
574.52	60420.93
574.68	60664.35
574.84	60676.05
575.01	60395.18
575.17	60671.37
575.33	60374.12
575.49	60458.38
575.65	60432.63
575.82	60633.92
575.98	60734.56
576.14	60741.58
576.30	60596.47
576.46	60598.81
576.62	60596.47
576.79	60549.66
576.95	60434.97
577.11	60743.92
577.27	60767.33
577.43	60493.49
577.59	60727.54
577.75	60612.85
577.92	60453.70
578.08	60568.38
578.24	60741.58
578.40	60708.82
578.56	60795.42
578.72	60561.36
578.88	60797.76
579.04	60928.83
579.21	60559.02
579.37	60786.05
579.53	60772.01
579.69	60505.19
579.85	60444.33
580.01	60617.53
580.17	60383.48
580.33	60760.31
580.49	60676.05
580.65	60884.36
580.82	60753.29
580.98	60608.17
581.14	60692.43
581.30	60949.89
581.46	60631.58
581.62	60982.66
581.78	60570.72
581.94	60673.71
582.10	60526.25
582.26	60795.42
582.42	60697.11
582.58	60816.48
582.74	60882.02
582.90	60739.24
583.06	60685.41
583.22	60650.30
583.38	60708.82
583.54	60739.24
583.70	60853.93
583.86	60917.12
584.02	60814.14
584.18	60910.10
584.34	60767.33
584.50	60645.62
584.66	60643.28
584.82	60640.94
584.98	60996.70
585.14	60898.40
585.30	60643.28
585.46	60970.96
585.62	60835.20
585.78	60856.27
585.94	60910.10
586.10	60842.23
586.26	60783.71
586.42	60781.37
586.58	60800.10
586.74	60692.43
586.90	60804.78
587.06	60818.82
587.22	60928.83
587.38	60956.91
587.54	61006.06
587.70	61031.81
587.86	60982.66
588.02	60814.14
588.18	60917.12
588.34	60889.04
588.49	60996.70
