SpectraSuite Data File
++++++++++++++++++++++++++++++++++++
Date: Fri Oct 25 11:26:08 EDT 2013
User: price-jones
Dark Spectrum Present: No
Reference Spectrum Present: No
Number of Sampled Component Spectra: 1
Spectrometers: USB2+H05261
Integration Time (usec): 100000 (USB2+H05261)
Spectra Averaged: 1 (USB2+H05261)
Boxcar Smoothing: 0 (USB2+H05261)
Correct for Electrical Dark: No (USB2+H05261)
Strobe/Lamp Enabled: No (USB2+H05261)
Correct for Detector Non-linearity: No (USB2+H05261)
Correct for Stray Light: No (USB2+H05261)
Number of Pixels in Processed Spectrum: 2048
>>>>>Begin Processed Spectral Data<<<<<
365.73	257.46
365.92	257.46
366.12	257.46
366.32	95.96
366.52	51.49
366.72	149.79
366.91	154.48
367.11	124.05
367.31	161.50
367.51	147.45
367.70	168.52
367.90	154.48
368.10	196.60
368.30	149.79
368.49	208.31
368.69	156.82
368.89	163.84
369.09	166.18
369.28	243.42
369.48	177.88
369.68	269.16
369.87	245.76
370.07	177.88
370.27	283.20
370.47	372.15
370.66	564.07
370.86	662.37
371.06	676.41
371.25	664.71
371.45	704.50
371.65	681.10
371.84	681.10
372.04	650.67
372.24	674.07
372.44	725.57
372.63	777.06
372.83	777.06
373.03	807.48
373.22	716.20
373.42	709.18
373.62	791.10
373.81	720.88
374.01	833.23
374.21	765.36
374.40	908.13
374.60	835.57
374.79	917.49
374.99	847.27
375.19	828.55
375.38	842.59
375.58	821.53
375.78	873.02
375.97	891.74
376.17	910.47
376.37	851.96
376.56	919.83
376.76	835.57
376.95	816.85
377.15	926.85
377.35	968.98
377.54	912.81
377.74	912.81
377.93	919.83
378.13	908.13
378.33	884.72
378.52	968.98
378.72	947.92
378.91	1013.45
379.11	976.00
379.31	968.98
379.50	926.85
379.70	940.90
379.89	959.62
380.09	961.96
380.28	926.85
380.48	999.41
380.68	950.26
380.87	952.60
381.07	1046.22
381.26	1074.31
381.46	961.96
381.65	1071.97
381.85	1088.35
382.04	1064.94
382.24	1029.84
382.43	1025.15
382.63	1020.47
382.83	1174.95
383.02	1121.12
383.22	1132.82
383.41	1067.28
383.61	1128.14
383.80	1205.38
384.00	1057.92
384.19	1142.18
384.39	1181.97
384.58	1053.24
384.78	1039.20
384.97	1158.57
385.17	1071.97
385.36	1104.73
385.56	1228.78
385.75	1097.71
385.95	1214.74
386.14	1291.98
386.34	1158.57
386.53	1242.82
386.72	1107.07
386.92	1231.12
387.11	1247.51
387.31	1263.89
387.50	1294.32
387.70	1261.55
387.89	1275.59
388.09	1266.23
388.28	1275.59
388.48	1259.21
388.67	1411.34
388.86	1338.79
389.06	1336.45
389.25	1434.75
389.45	1324.74
389.64	1273.25
389.84	1273.25
390.03	1343.47
390.22	1427.73
390.42	1355.17
390.61	1392.62
390.81	1392.62
391.00	1519.01
391.19	1481.56
391.39	1427.73
391.58	1504.96
391.78	1439.43
391.97	1474.54
392.16	1437.09
392.36	1448.79
392.55	1474.54
392.75	1593.90
392.94	1493.26
393.13	1467.52
393.33	1490.92
393.52	1540.07
393.71	1591.56
393.91	1504.96
394.10	1593.90
394.29	1591.56
394.49	1568.16
394.68	1617.31
394.88	1586.88
395.07	1666.46
395.26	1708.59
395.46	1584.54
395.65	1675.82
395.84	1664.12
396.04	1727.32
396.23	1774.13
396.42	1652.42
396.62	1755.40
396.81	1827.96
397.00	1701.57
397.19	1769.44
397.39	1858.39
397.58	1832.64
397.77	1844.34
397.97	1858.39
398.16	1832.64
398.35	1865.41
398.55	1975.41
398.74	1839.66
398.93	1961.37
399.12	1886.47
399.32	1933.28
399.51	1834.98
399.70	2024.56
399.90	1858.39
400.09	1952.01
400.28	2043.29
400.47	1982.43
400.67	2066.69
400.86	2172.02
401.05	2040.95
401.24	2017.54
401.44	2057.33
401.63	2188.40
401.82	2244.57
402.01	2239.89
402.21	2153.29
402.40	2118.18
402.59	2153.29
402.78	2246.91
402.97	2172.02
403.17	2223.51
403.36	2305.43
403.55	2291.38
403.74	2394.37
403.93	2394.37
404.13	2298.41
404.32	2368.62
404.51	2429.48
404.70	2413.09
404.89	2349.90
405.09	2452.88
405.28	2445.86
405.47	2497.35
405.66	2534.80
405.85	2583.95
406.05	2677.57
406.24	2506.71
406.43	2644.81
406.62	2637.78
406.81	2616.72
407.00	2473.95
407.20	2614.38
407.39	2691.62
407.58	2675.23
407.77	2808.64
407.96	2747.79
408.15	2715.02
408.34	2703.32
408.54	2869.50
408.73	2712.68
408.92	2883.54
409.11	2956.10
409.30	2827.37
409.49	2869.50
409.68	2869.50
409.87	2988.86
410.07	2878.86
410.26	2944.39
410.45	2939.71
410.64	3023.97
410.83	3007.59
411.02	3117.59
411.21	3187.81
411.40	3143.34
411.59	3276.75
411.78	3152.70
411.98	3208.87
412.17	3337.60
412.36	3187.81
412.55	3391.44
412.74	3414.84
412.93	3274.41
413.12	3281.43
413.31	3541.23
413.50	3492.08
413.69	3365.69
413.88	3510.80
414.07	3531.87
414.26	3562.30
414.45	3641.87
414.64	3662.94
414.83	3698.05
415.02	3784.65
415.22	3791.67
415.41	3878.27
415.60	3751.88
415.79	3927.42
415.98	3859.54
416.17	4037.42
416.36	4105.30
416.55	3901.67
416.74	4046.79
416.93	4114.66
417.12	3960.19
417.31	4126.36
417.50	4121.68
417.69	4315.95
417.88	4259.78
418.07	4217.65
418.26	4227.01
418.45	4414.25
418.64	4552.34
418.83	4411.91
419.02	4381.48
419.21	4255.09
419.39	4315.95
419.58	4362.76
419.77	4505.53
419.96	4641.28
420.15	4475.10
420.34	4643.62
420.53	4634.26
420.72	4837.89
420.91	4664.69
421.10	4662.35
421.29	4807.46
421.48	4580.43
421.67	4755.97
421.86	4685.75
422.05	4758.31
422.24	4718.52
422.43	4791.08
422.61	4922.15
422.80	4889.38
422.99	4873.00
423.18	4814.48
423.37	4987.68
423.56	4849.59
423.75	4929.17
423.94	4739.58
424.13	4674.05
424.32	4751.29
424.50	4978.32
424.69	5107.05
424.88	5039.17
425.07	4997.04
425.26	4835.55
425.45	5001.72
425.64	5011.09
425.83	4992.36
426.01	5167.90
426.20	5050.88
426.39	5046.20
426.58	5025.13
426.77	5034.49
426.96	5144.50
427.15	5156.20
427.33	5128.11
427.52	5142.16
427.71	5313.02
427.90	5364.51
428.09	5413.66
428.28	5350.46
428.46	5355.15
428.65	5310.68
428.84	5495.58
429.03	5577.50
429.22	5301.31
429.40	5462.81
429.59	5434.72
429.78	5406.64
429.97	5179.61
430.16	5390.25
430.34	5535.37
430.53	5444.09
430.72	5722.61
430.91	5664.10
431.10	5467.49
431.28	5748.36
431.47	5526.00
431.66	5980.07
431.85	5790.49
432.03	5795.17
432.22	6005.81
432.41	5816.23
432.60	5816.23
432.79	6008.16
432.97	5980.07
433.16	6029.22
433.35	5851.34
433.54	6251.57
433.72	6087.73
433.91	6122.84
434.10	6108.80
434.28	6157.95
434.47	6120.50
434.66	6277.32
434.85	6216.46
435.03	6469.24
435.22	6263.27
435.41	6513.71
435.59	6272.64
435.78	6300.72
435.97	6473.92
436.16	6326.47
436.34	6296.04
436.53	6424.77
436.72	6679.89
436.90	6370.94
437.09	6647.12
437.28	6520.73
437.46	6513.71
437.65	6651.80
437.84	6693.93
438.02	6679.89
438.21	6700.95
438.40	6855.43
438.58	6750.10
438.77	6984.16
438.96	6817.98
439.14	6841.39
439.33	7192.47
439.52	7229.91
439.70	7009.90
439.89	7183.10
440.08	7300.13
440.26	7204.17
440.45	7206.51
440.63	7400.77
440.82	7283.75
441.01	7442.90
441.19	7616.10
441.38	7541.21
441.57	7857.18
441.75	7751.85
441.94	7833.77
442.12	7824.41
442.31	7995.27
442.50	8112.30
442.68	7873.56
442.87	8035.06
443.05	8102.93
443.24	8152.09
443.43	8149.75
443.61	8063.15
443.80	8264.43
443.98	8161.45
444.17	7927.39
444.35	8241.03
444.54	8142.72
444.73	8287.84
444.91	8205.92
445.10	8273.79
445.28	8290.18
445.47	8299.54
445.65	8161.45
445.84	8430.61
446.02	8411.89
446.21	8252.73
446.39	8402.52
446.58	8468.06
446.77	8636.58
446.95	8208.26
447.14	8468.06
447.32	8734.88
447.51	8610.83
447.69	8676.37
447.88	8468.06
448.06	8524.23
448.25	8510.19
448.43	8461.04
448.62	8744.24
448.80	8664.66
448.99	8519.55
449.17	8737.22
449.36	8631.90
449.54	8688.07
449.73	8847.22
449.91	9074.26
450.10	8901.06
450.28	8978.30
450.46	9090.64
450.65	9174.90
450.83	9011.06
451.02	8861.27
451.20	9240.44
451.39	9139.79
451.57	9172.56
451.76	9018.08
451.94	9020.42
452.13	9174.90
452.31	9160.86
452.49	9172.56
452.68	9118.73
452.86	9355.12
453.05	9387.89
453.23	9406.61
453.42	9226.39
453.60	9268.52
453.78	9593.86
453.97	9383.21
454.15	9610.24
454.34	9507.26
454.52	9542.36
454.70	9689.82
454.89	9694.50
455.07	9757.69
455.26	9806.84
455.44	10080.69
455.62	9879.40
455.81	9755.35
455.99	9856.00
456.17	10036.22
456.36	9949.62
456.54	10183.67
456.73	10317.08
456.91	10384.96
457.09	10403.68
457.28	10406.02
457.46	10099.41
457.64	10375.59
457.83	10511.35
458.01	10279.63
458.19	10607.31
458.38	10698.59
458.56	10705.61
458.74	10499.64
458.93	10621.35
459.11	10710.29
459.29	10752.42
459.48	10820.30
459.66	10822.64
459.84	10864.77
460.03	10911.58
460.21	11026.26
460.39	10881.15
460.57	11075.42
460.76	11012.22
460.94	11171.38
461.12	11143.29
461.31	11145.63
461.49	11178.40
461.67	11061.37
461.85	11344.58
462.04	11295.43
462.22	11786.94
462.40	11524.80
462.59	11618.42
462.77	11470.97
462.95	11398.41
463.13	11461.60
463.32	11651.19
463.50	11520.12
463.68	11583.31
463.86	11646.51
464.05	11758.85
464.23	11714.38
464.41	11988.22
464.59	11819.71
464.78	12065.46
464.96	12065.46
465.14	11864.18
465.32	11754.17
465.50	11950.78
465.69	12159.08
465.87	11950.78
466.05	12025.67
466.23	12042.06
466.41	12203.55
466.60	12524.21
466.78	12182.49
466.96	12287.81
467.14	12243.34
467.32	12343.99
467.51	12407.18
467.69	12004.61
467.87	12294.83
468.05	12329.94
468.23	12561.66
468.41	12362.71
468.60	12650.60
468.78	12711.45
468.96	12514.84
469.14	12823.80
469.32	12760.60
469.50	12571.02
469.69	12879.97
469.87	13067.21
470.05	12952.52
470.23	12858.90
470.41	13018.06
470.59	13186.58
470.77	13004.02
470.95	13055.51
471.14	13465.10
471.32	13118.70
471.50	13429.99
471.68	13415.95
471.86	13523.62
472.04	13408.93
472.22	13855.97
472.40	13549.36
472.58	13984.70
472.77	13816.18
472.95	13886.40
473.13	14530.05
473.31	14178.97
473.49	14085.34
473.67	14083.00
473.85	13832.57
474.03	14569.83
474.21	14300.67
474.39	14813.25
474.57	14506.64
474.75	14986.45
474.93	14918.57
475.12	15138.58
475.30	15021.56
475.48	15154.97
475.66	15363.28
475.84	15035.60
476.02	15351.57
476.20	15131.56
476.38	15473.28
476.56	16095.86
476.74	15662.86
476.92	15648.82
477.10	15536.48
477.28	15969.48
477.46	16063.10
477.64	16334.60
477.82	16510.14
478.00	16919.73
478.18	16769.94
478.36	16992.29
478.54	17046.12
478.72	16999.31
478.90	17167.83
479.08	17575.08
479.26	17664.02
479.44	17596.15
479.62	17621.89
479.80	17851.27
479.98	17778.71
480.16	18663.43
480.34	18305.33
480.52	18471.51
480.70	18567.47
480.88	18097.02
481.06	18719.60
481.24	18640.03
481.41	18958.34
481.59	19398.36
481.77	19452.19
481.95	19583.26
482.13	19627.73
482.31	19330.48
482.49	20219.89
482.67	20011.58
482.85	20336.91
483.03	20599.05
483.21	20725.44
483.39	20910.35
483.57	20905.66
483.74	20851.83
483.92	21355.05
484.10	21046.10
484.28	21640.59
484.46	21982.31
484.64	22155.51
484.82	21827.84
485.00	22246.79
485.18	22595.53
485.35	22801.50
485.53	22572.13
485.71	22888.10
485.89	23428.76
486.07	23122.15
486.25	23197.05
486.43	23669.84
486.61	23573.88
486.78	23967.09
486.96	23892.19
487.14	24369.66
487.32	24299.44
487.50	24489.03
487.68	24893.94
487.85	25420.56
488.03	25184.16
488.21	25439.28
488.39	25766.96
488.57	26195.28
488.75	25818.45
488.92	26354.43
489.10	26375.50
489.28	26422.31
489.46	26977.01
489.64	26895.10
489.81	27168.94
489.99	27445.12
490.17	27353.84
490.35	28198.77
490.53	27887.48
490.70	28676.24
490.88	28212.82
491.06	28762.84
491.24	28584.96
491.41	29294.14
491.59	29179.46
491.77	29284.78
491.95	29259.04
492.13	29406.49
492.30	29823.11
492.48	29926.09
492.66	30017.37
492.84	29858.21
493.01	30726.55
493.19	30347.39
493.37	31056.57
493.54	30916.14
493.72	31211.04
493.90	31246.15
494.08	31438.08
494.25	31859.37
494.43	32039.59
494.61	31810.22
494.79	32591.96
494.96	32357.91
495.14	32699.62
495.32	32577.92
495.49	33013.26
495.67	32912.61
495.85	33481.36
496.02	33717.76
496.20	33862.87
496.38	33778.61
496.55	33584.35
496.73	34494.82
496.91	34012.66
497.09	35012.07
497.26	34803.77
497.44	34574.39
497.62	35023.78
497.79	35770.41
497.97	35278.89
498.14	35927.22
498.32	35716.58
498.50	36039.57
498.67	36250.22
498.85	36203.41
499.03	36772.16
499.20	36507.68
499.38	36650.45
499.56	36411.71
499.73	37298.78
499.91	37099.83
500.08	37383.04
500.26	37102.17
500.44	37741.14
500.61	37771.57
500.79	37584.32
500.97	37780.93
501.14	38022.00
501.32	38143.71
501.49	37972.85
501.67	38326.27
501.84	38707.78
502.02	38778.00
502.20	38679.69
502.37	39079.92
502.55	39342.06
502.72	39611.23
502.90	39126.74
503.07	39346.75
503.25	39744.64
503.43	39423.98
503.60	39578.46
503.78	40088.70
503.95	40170.61
504.13	40313.39
504.30	40559.14
504.48	40481.91
504.65	40467.86
504.83	40722.98
505.01	40987.46
505.18	40942.99
505.36	41464.93
505.53	41209.81
505.71	41383.01
505.88	41404.08
506.06	41013.21
506.23	42075.81
506.41	41804.31
506.58	41832.39
506.76	41682.60
506.93	42274.76
507.11	42052.41
507.28	42679.67
507.46	42424.55
507.63	42579.03
507.81	43072.88
507.98	42721.80
508.16	43056.50
508.33	43012.02
508.50	43227.35
508.68	43320.98
508.85	43601.84
509.03	43714.19
509.20	43613.54
509.38	43882.70
509.55	44128.46
509.73	44041.86
509.90	44357.83
510.08	44547.42
510.25	44617.63
510.42	44378.90
510.60	45078.72
510.77	44683.17
510.95	45305.75
511.12	44945.31
511.30	45067.02
511.47	45151.27
511.64	45352.56
511.82	46045.36
511.99	45422.78
512.17	45591.30
512.34	45628.74
512.51	45965.78
512.69	46550.91
512.86	46209.20
513.04	46773.27
513.21	46618.79
513.38	46480.70
513.56	46637.51
513.73	46574.32
513.90	46873.91
514.08	46667.94
514.25	46916.04
514.43	47105.62
514.60	47515.22
514.77	46927.74
514.95	47437.98
515.12	47342.02
515.29	47522.24
515.47	47576.07
515.64	48034.81
515.81	47992.68
515.99	47913.11
516.16	48456.11
516.33	47966.94
516.51	48444.41
516.68	48259.51
516.85	48041.84
517.03	48521.65
517.20	48949.96
517.37	48533.35
517.54	48584.84
517.72	48790.81
517.89	48816.55
518.06	49167.63
518.24	48985.07
518.41	49366.58
518.58	49345.51
518.75	49312.75
518.93	49397.01
519.10	49279.98
519.27	49712.98
519.45	49322.11
519.62	49689.57
519.79	50064.06
519.96	49923.63
520.14	50045.33
520.31	50117.89
520.48	50171.72
520.65	50230.24
520.83	50319.18
521.00	50721.75
521.17	50368.33
521.34	50110.87
521.52	50270.03
521.69	50639.83
521.86	51082.19
522.03	50997.93
522.20	50951.12
522.38	50944.10
522.55	51145.39
522.72	50887.93
522.89	51140.71
523.07	51751.59
523.24	51264.75
523.41	51487.10
523.58	51580.73
523.75	51702.43
523.92	51716.48
524.10	51774.99
524.27	51655.62
524.44	51700.09
524.61	51929.47
524.78	51990.32
524.96	52083.94
525.13	52109.69
525.30	52189.27
525.47	52315.65
525.64	52002.02
525.81	52416.30
525.98	52371.83
526.16	52374.17
526.33	52437.36
526.50	52891.43
526.67	52514.60
526.84	52900.79
527.01	52528.64
527.18	52882.06
527.36	52900.79
527.53	52692.48
527.70	53251.87
527.87	53251.87
528.04	53038.88
528.21	53319.74
528.38	52989.73
528.55	53071.65
528.72	53322.08
528.89	53483.58
529.07	53333.79
529.24	53272.93
529.41	53689.55
529.58	53312.72
529.75	53595.93
529.92	53584.22
530.09	53911.90
530.26	53727.00
530.43	53921.26
530.60	53748.06
530.77	53724.66
530.94	53979.78
531.11	53862.75
531.28	53895.52
531.46	54082.76
531.63	54230.21
531.80	54073.40
531.97	54148.29
532.14	54309.79
532.31	54031.27
532.48	54419.80
532.65	54464.27
532.82	54291.07
532.99	54532.14
533.16	54391.71
533.33	54482.99
533.50	54836.41
533.67	54766.20
533.84	54438.52
534.01	54827.05
534.18	54770.88
534.35	54960.46
534.52	54871.52
534.69	54965.14
534.86	54967.48
535.03	54843.43
535.20	54944.08
535.37	55147.70
535.54	55262.39
535.71	55178.13
535.88	55412.18
536.05	55449.63
536.22	55554.96
536.38	55381.76
536.55	55580.70
536.72	55519.85
536.89	55489.42
537.06	55395.80
537.23	55484.74
537.40	55217.92
537.57	55662.62
537.74	55674.32
537.91	55870.93
538.08	55690.71
538.25	55428.57
538.42	55824.12
538.59	55810.07
538.75	55643.90
538.92	55824.12
539.09	56055.83
539.26	56048.81
539.43	56018.38
539.60	56018.38
539.77	56226.69
539.94	56191.58
540.11	56219.67
540.28	56189.24
540.44	56357.76
540.61	56207.97
540.78	56147.11
540.95	56346.06
541.12	56252.44
541.29	56275.84
541.46	56566.07
541.62	56418.61
541.79	56582.45
541.96	56238.39
542.13	56376.48
542.30	56423.29
542.47	56470.11
542.63	56423.29
542.80	56947.57
542.97	57001.41
543.14	57038.86
543.31	57181.63
543.48	57027.15
543.64	57186.31
543.81	57162.90
543.98	57298.65
544.15	57055.24
544.32	57228.44
544.48	57537.39
544.65	57179.29
544.82	57160.56
544.99	57275.25
545.16	57425.04
545.32	57216.74
545.49	57521.01
545.66	57551.43
545.83	57338.44
546.00	57591.22
546.16	57354.83
546.33	57490.58
546.50	57567.82
546.67	57780.81
546.83	57406.32
547.00	57640.37
547.17	57572.50
547.34	57432.07
547.50	57799.53
547.67	57909.53
547.84	57925.92
548.00	57659.10
548.17	57970.39
548.34	57888.47
548.51	58347.21
548.67	58244.23
548.84	58061.67
549.01	57860.38
549.18	57867.40
549.34	58202.10
549.51	58138.91
549.68	58337.85
549.84	58288.70
550.01	58241.89
550.18	58197.42
550.34	58368.28
550.51	58672.55
550.68	58206.78
550.84	57982.09
551.01	58583.61
551.18	58401.05
551.34	58394.03
551.51	58550.84
551.68	58588.29
551.84	58429.13
552.01	58202.10
552.18	58391.68
552.34	58471.26
552.51	58583.61
552.68	58616.38
552.84	58492.33
553.01	58801.28
553.18	58571.91
553.34	58805.96
553.51	58747.45
553.67	58728.72
553.84	58738.08
554.01	58728.72
554.17	58848.09
554.34	58848.09
554.51	58937.03
554.67	58850.43
554.84	59096.19
555.00	58946.39
555.17	58969.80
555.33	58768.51
555.50	58698.30
555.67	58939.37
555.83	58801.28
556.00	58871.49
556.16	59269.39
556.33	59217.89
556.50	59051.72
556.66	59243.64
556.83	58967.46
556.99	59290.45
557.16	59171.08
557.32	59341.94
557.49	59704.73
557.65	59185.13
557.82	59276.41
557.98	59178.10
558.15	59231.94
558.32	59536.21
558.48	59377.05
558.65	59384.07
558.81	59276.41
558.98	59676.64
559.14	59505.78
559.31	59529.19
559.47	59498.76
559.64	59566.63
559.80	59395.77
559.97	59620.47
560.13	59430.88
560.30	59468.33
560.46	59629.83
560.63	59662.60
560.79	59587.70
560.96	59735.15
561.12	59746.86
561.29	59540.89
561.45	59798.35
561.61	59671.96
561.78	59681.32
561.94	59465.99
562.11	59901.33
562.27	59803.03
562.44	59807.71
562.60	59887.29
562.77	59817.07
562.93	59707.07
563.10	60011.34
563.26	59707.07
563.42	60090.91
563.59	59772.60
563.75	59875.58
563.92	59976.23
564.08	59812.39
564.24	60175.17
564.41	59835.80
564.57	60013.68
564.74	59826.43
564.90	59817.07
565.07	59976.23
565.23	60023.04
565.39	60121.34
565.56	60170.49
565.72	60126.02
565.88	59906.01
566.05	59901.33
566.21	60058.15
566.38	60170.49
566.54	60065.17
566.70	60128.36
566.87	60149.43
567.03	60090.91
567.19	60310.92
567.36	60301.56
567.52	60133.04
567.68	60327.31
567.85	60371.78
568.01	60100.28
568.17	60154.11
568.34	60210.28
568.50	60184.54
568.66	60282.84
568.83	60331.99
568.99	60250.07
569.15	60144.75
569.32	60465.40
569.48	60189.22
569.64	60388.16
569.81	60287.52
569.97	60301.56
570.13	60280.50
570.30	60245.39
570.46	60336.67
570.62	60367.10
570.78	60343.69
570.95	60514.55
571.11	60573.06
571.27	60238.37
571.43	60472.42
571.60	60434.97
571.76	60612.85
571.92	60399.86
572.09	60390.50
572.25	60573.06
572.41	60346.03
572.57	60331.99
572.74	60493.49
572.90	60615.19
573.06	60533.28
573.22	60420.93
573.38	60711.16
573.55	60491.15
573.71	60739.24
573.87	60786.05
574.03	60198.58
574.20	60535.62
574.36	60640.94
574.52	60575.40
574.68	60673.71
574.84	60608.17
575.01	60533.28
575.17	60643.28
575.33	60383.48
575.49	60516.89
575.65	60708.82
575.82	60680.73
575.98	60530.93
576.14	60743.92
576.30	60781.37
576.46	60629.24
576.62	60680.73
576.79	60779.03
576.95	60566.04
577.11	60645.62
577.27	60683.07
577.43	60683.07
577.59	60676.05
577.75	60542.64
577.92	60582.43
578.08	60701.79
578.24	60760.31
578.40	61001.38
578.56	60874.99
578.72	60858.61
578.88	60879.67
579.04	60949.89
579.21	60788.39
579.37	60727.54
579.53	61010.74
579.69	60430.29
579.85	60844.57
580.01	60762.65
580.17	60439.65
580.33	60727.54
580.49	60905.42
580.65	60809.46
580.82	60825.84
580.98	60650.30
581.14	60720.52
581.30	60921.80
581.46	60739.24
581.62	60657.32
581.78	60603.49
581.94	60842.23
582.10	60851.59
582.26	60757.97
582.42	60900.74
582.58	60776.69
582.74	60828.18
582.90	60863.29
583.06	60786.05
583.22	60498.17
583.38	60804.78
583.54	60713.50
583.70	61001.38
583.86	61050.53
584.02	60694.77
584.18	60872.65
584.34	60912.44
584.50	60931.17
584.66	60683.07
584.82	60678.39
584.98	61071.60
585.14	60903.08
585.30	60818.82
585.46	60919.46
585.62	60994.36
585.78	61073.94
585.94	60514.55
586.10	60935.85
586.26	60938.19
586.42	60931.17
586.58	61029.47
586.74	60807.12
586.90	60804.78
587.06	60940.53
587.22	60919.46
587.38	61024.79
587.54	61141.81
587.70	61099.68
587.86	60970.96
588.02	60896.06
588.18	61186.28
588.34	60832.86
588.49	60914.78
