SpectraSuite Data File
++++++++++++++++++++++++++++++++++++
Date: Fri Oct 25 11:25:22 EDT 2013
User: price-jones
Dark Spectrum Present: No
Reference Spectrum Present: No
Number of Sampled Component Spectra: 1
Spectrometers: USB2+H05261
Integration Time (usec): 100000 (USB2+H05261)
Spectra Averaged: 1 (USB2+H05261)
Boxcar Smoothing: 0 (USB2+H05261)
Correct for Electrical Dark: No (USB2+H05261)
Strobe/Lamp Enabled: No (USB2+H05261)
Correct for Detector Non-linearity: No (USB2+H05261)
Correct for Stray Light: No (USB2+H05261)
Number of Pixels in Processed Spectrum: 2048
>>>>>Begin Processed Spectral Data<<<<<
365.73	184.90
365.92	184.90
366.12	184.90
366.32	105.32
366.52	121.71
366.72	182.56
366.91	81.92
367.11	168.52
367.31	117.03
367.51	156.82
367.70	119.37
367.90	145.11
368.10	138.09
368.30	166.18
368.49	110.01
368.69	173.20
368.89	175.54
369.09	154.48
369.28	117.03
369.48	154.48
369.68	184.90
369.87	166.18
370.07	100.64
370.27	189.58
370.47	353.42
370.66	582.79
370.86	596.84
371.06	601.52
371.25	751.31
371.45	683.44
371.65	758.33
371.84	653.01
372.04	725.57
372.24	763.01
372.44	671.73
372.63	763.01
372.83	723.23
373.03	748.97
373.22	760.67
373.42	807.48
373.62	788.76
373.81	765.36
374.01	821.53
374.21	741.95
374.40	734.93
374.60	784.08
374.79	777.06
374.99	898.77
375.19	830.89
375.38	849.61
375.58	840.25
375.78	929.19
375.97	887.06
376.17	847.27
376.37	903.45
376.56	891.74
376.76	858.98
376.95	835.57
377.15	919.83
377.35	875.36
377.54	851.96
377.74	971.32
377.93	840.25
378.13	929.19
378.33	898.77
378.52	938.55
378.72	933.87
378.91	889.40
379.11	994.73
379.31	894.08
379.50	903.45
379.70	922.17
379.89	901.11
380.09	938.55
380.28	959.62
380.48	985.37
380.68	964.30
380.87	1011.11
381.07	952.60
381.26	1004.09
381.46	1057.92
381.65	1102.39
381.85	1008.77
382.04	1088.35
382.24	1071.97
382.43	1071.97
382.63	1074.31
382.83	994.73
383.02	1167.93
383.22	1111.75
383.41	1090.69
383.61	1137.50
383.80	1123.46
384.00	1104.73
384.19	1144.52
384.39	1149.20
384.58	1128.14
384.78	1123.46
384.97	1125.80
385.17	1146.86
385.36	1102.39
385.56	1170.27
385.75	1219.42
385.95	1163.25
386.14	1114.10
386.34	1167.93
386.53	1142.18
386.72	1261.55
386.92	1224.10
387.11	1207.72
387.31	1217.08
387.50	1254.53
387.70	1313.04
387.89	1376.24
388.09	1191.33
388.28	1188.99
388.48	1252.19
388.67	1416.02
388.86	1308.36
389.06	1345.81
389.25	1357.51
389.45	1345.81
389.64	1338.79
389.84	1383.26
390.03	1364.53
390.22	1404.32
390.42	1364.53
390.61	1299.00
390.81	1409.00
391.00	1336.45
391.19	1411.34
391.39	1448.79
391.58	1448.79
391.78	1357.51
391.97	1483.90
392.16	1448.79
392.36	1514.33
392.55	1427.73
392.75	1549.43
392.94	1502.62
393.13	1530.71
393.33	1500.28
393.52	1572.84
393.71	1586.88
393.91	1563.48
394.10	1643.06
394.29	1664.12
394.49	1565.82
394.68	1603.27
394.88	1692.21
395.07	1694.55
395.26	1664.12
395.46	1696.89
395.65	1694.55
395.84	1682.85
396.04	1741.36
396.23	1746.04
396.42	1743.70
396.62	1750.72
396.81	1736.68
397.00	1799.87
397.19	1769.44
397.39	1720.29
397.58	1806.89
397.77	1825.62
397.97	1809.23
398.16	1846.68
398.35	1881.79
398.55	1849.02
398.74	1827.96
398.93	1956.69
399.12	1961.37
399.32	1914.56
399.51	1944.99
399.70	1982.43
399.90	1926.26
400.09	1928.60
400.28	2038.61
400.47	2022.22
400.67	1952.01
400.86	2076.06
401.05	2092.44
401.24	2101.80
401.44	2113.50
401.63	2136.91
401.82	2125.21
402.01	2136.91
402.21	2118.18
402.40	2239.89
402.59	2197.76
402.78	2242.23
402.97	2221.17
403.17	2195.42
403.36	2258.62
403.55	2326.49
403.74	2328.83
403.93	2326.49
404.13	2385.01
404.32	2328.83
404.51	2296.07
404.70	2485.65
404.89	2307.77
405.09	2349.90
405.28	2462.24
405.47	2520.76
405.66	2506.71
405.85	2551.18
406.05	2420.11
406.24	2499.69
406.43	2553.52
406.62	2696.30
406.81	2649.49
407.00	2537.14
407.20	2497.35
407.39	2614.38
407.58	2733.75
407.77	2640.12
407.96	2782.90
408.15	2710.34
408.34	2679.91
408.54	2743.11
408.73	2794.60
408.92	2761.83
409.11	2768.85
409.30	2920.99
409.49	2913.97
409.68	2925.67
409.87	2967.80
410.07	3073.12
410.26	3049.72
410.45	2944.39
410.64	2977.16
410.83	3131.64
411.02	3108.23
411.21	3211.22
411.40	2958.44
411.59	3197.17
411.78	3171.43
411.98	3183.13
412.17	3258.03
412.36	3293.13
412.55	3225.26
412.74	3410.16
412.93	3412.50
413.12	3309.52
413.31	3510.80
413.50	3426.54
413.69	3522.51
413.88	3524.85
414.07	3545.91
414.26	3592.72
414.45	3702.73
414.64	3786.99
414.83	3756.56
415.02	3803.37
415.22	3911.04
415.41	3810.39
415.60	3794.01
415.79	3878.27
415.98	3911.04
416.17	3850.18
416.36	4016.36
416.55	3948.48
416.74	4121.68
416.93	3922.74
417.12	4058.49
417.31	4028.06
417.50	4243.39
417.69	4362.76
417.88	4201.26
418.07	4201.26
418.26	4339.35
418.45	4255.09
418.64	4308.93
418.83	4493.83
419.02	4482.13
419.21	4461.06
419.39	4461.06
419.58	4456.38
419.77	4437.66
419.96	4465.74
420.15	4526.60
420.34	4594.47
420.53	4540.64
420.72	4744.27
420.91	4559.36
421.10	4643.62
421.29	4585.11
421.48	4800.44
421.67	4720.86
421.86	4704.48
422.05	4772.35
422.24	4718.52
422.43	4739.58
422.61	4844.91
422.80	4931.51
422.99	4887.04
423.18	4992.36
423.37	5104.71
423.56	4938.53
423.75	4903.42
423.94	4765.33
424.13	4592.13
424.32	4669.37
424.50	4940.87
424.69	5050.88
424.88	4952.57
425.07	4999.38
425.26	4854.27
425.45	4767.67
425.64	5053.22
425.83	4718.52
426.01	5015.77
426.20	5036.83
426.39	5053.22
426.58	4924.49
426.77	4950.23
426.96	5151.52
427.15	5146.84
427.33	5050.88
427.52	5135.14
427.71	5001.72
427.90	5181.95
428.09	5233.44
428.28	5355.15
428.46	5376.21
428.65	5329.40
428.84	5420.68
429.03	5432.38
429.22	5282.59
429.40	5313.02
429.59	5362.17
429.78	5191.31
429.97	5212.37
430.16	5408.98
430.34	5472.17
430.53	5673.46
430.72	5572.82
430.91	5713.25
431.10	5600.90
431.28	5633.67
431.47	5673.46
431.66	5795.17
431.85	5750.70
432.03	5839.64
432.22	6005.81
432.41	5832.62
432.60	5809.21
432.79	5966.03
432.97	6104.12
433.16	5858.36
433.35	6019.86
433.54	6118.16
433.72	6078.37
433.91	6073.69
434.10	6256.25
434.28	6029.22
434.47	6106.46
434.66	6195.40
434.85	6190.72
435.03	6335.83
435.22	6352.21
435.41	6401.37
435.59	6354.55
435.78	6387.32
435.97	6429.45
436.16	6326.47
436.34	6279.66
436.53	6504.35
436.72	6520.73
436.90	6427.11
437.09	6722.02
437.28	6473.92
437.46	6499.67
437.65	6513.71
437.84	6766.49
438.02	6658.82
438.21	6834.36
438.40	6558.18
438.58	6932.67
438.77	6817.98
438.96	6850.75
439.14	6949.05
439.33	7103.53
439.52	7225.23
439.70	7159.70
439.89	7293.11
440.08	7197.15
440.26	7353.96
440.45	7459.29
440.63	7552.91
440.82	7475.67
441.01	7590.36
441.19	7466.31
441.38	7683.98
441.57	7576.31
441.75	7833.77
441.94	7918.03
442.12	8067.83
442.31	7946.12
442.50	7871.22
442.68	7875.90
442.87	7962.50
443.05	8184.85
443.24	8145.06
443.43	8037.40
443.61	8028.04
443.80	8369.76
443.98	8049.10
444.17	7906.33
444.35	8208.26
444.54	8292.52
444.73	8360.39
444.91	8360.39
445.10	8276.13
445.28	8194.22
445.47	8156.77
445.65	8252.73
445.84	8250.39
446.02	8372.10
446.21	8421.25
446.39	8538.27
446.58	8416.57
446.77	8526.57
446.95	8262.09
447.14	8360.39
447.32	8400.18
447.51	8533.59
447.69	8304.22
447.88	8454.02
448.06	8418.91
448.25	8421.25
448.43	8425.93
448.62	8500.83
448.80	8578.06
448.99	8610.83
449.17	8669.34
449.36	8636.58
449.54	8631.90
449.73	9043.83
449.91	8994.68
450.10	8784.03
450.28	9057.87
450.46	8952.55
450.65	9062.55
450.83	8940.85
451.02	8959.57
451.20	9111.71
451.39	9053.19
451.57	9217.03
451.76	8919.78
451.94	9212.35
452.13	9378.53
452.31	9163.20
452.49	9310.65
452.68	9310.65
452.86	9350.44
453.05	9270.86
453.23	9488.53
453.42	9397.25
453.60	9158.52
453.78	9479.17
453.97	9228.73
454.15	9495.55
454.34	9488.53
454.52	9666.41
454.70	9643.01
454.89	9638.33
455.07	9598.54
455.26	9764.72
455.44	10031.54
455.62	9863.02
455.81	9757.69
455.99	10005.79
456.17	9851.31
456.36	10099.41
456.54	9844.29
456.73	10132.18
456.91	10420.06
457.09	10434.11
457.28	10331.12
457.46	10361.55
457.64	10616.67
457.83	10399.00
458.01	10340.49
458.19	10710.29
458.38	10242.18
458.56	10588.58
458.74	10796.89
458.93	10588.58
459.11	10733.70
459.29	10731.36
459.48	10787.53
459.66	10848.38
459.84	10829.66
460.03	10787.53
460.21	10860.09
460.39	10939.66
460.57	11117.54
460.76	11037.97
460.94	11290.74
461.12	11281.38
461.31	11042.65
461.49	11157.33
461.67	11047.33
461.85	11377.34
462.04	11332.87
462.22	11698.00
462.40	11756.51
462.59	11527.14
462.77	11433.52
462.95	11562.25
463.13	11307.13
463.32	11616.08
463.50	11719.06
463.68	11473.31
463.86	11723.74
464.05	11604.38
464.23	11733.11
464.41	11761.19
464.59	11531.82
464.78	12187.17
464.96	11997.59
465.14	11651.19
465.32	12028.01
465.50	12067.80
465.69	12180.15
465.87	12098.23
466.05	12145.04
466.23	12049.08
466.41	12154.40
466.60	12458.67
466.78	12241.00
466.96	12079.50
467.14	12159.08
467.32	12601.44
467.51	12732.51
467.69	11943.75
467.87	12568.68
468.05	12573.36
468.23	12524.21
468.41	12507.82
468.60	12533.57
468.78	12784.01
468.96	12397.82
469.14	12645.91
469.32	12830.82
469.50	12788.69
469.69	12821.45
469.87	13001.68
470.05	12982.95
470.23	13097.64
470.41	12844.86
470.59	13022.74
470.77	12996.99
470.95	13172.54
471.14	13483.83
471.32	13132.75
471.50	13678.09
471.68	13589.15
471.86	13727.24
472.04	13598.51
472.22	13657.03
472.40	13617.24
472.58	13544.68
472.77	13645.32
472.95	14090.02
473.13	14710.27
473.31	14010.45
473.49	14036.19
473.67	13930.87
473.85	14169.60
474.03	14567.49
474.21	14494.94
474.39	15014.54
474.57	14551.11
474.75	14888.15
474.93	14700.90
475.12	15049.64
475.30	14911.55
475.48	14958.36
475.66	15002.83
475.84	14998.15
476.02	15480.30
476.20	15466.26
476.38	15503.71
476.56	15775.21
476.74	15908.62
476.92	15880.53
477.10	15520.09
477.28	16137.99
477.46	16063.10
477.64	16210.55
477.82	16362.69
478.00	16987.61
478.18	16690.36
478.36	17071.87
478.54	16617.80
478.72	16994.63
478.90	17048.46
479.08	17371.46
479.26	17385.50
479.44	17558.70
479.62	17736.58
479.80	17678.07
479.98	18263.20
480.16	18544.06
480.34	18038.51
480.52	18157.88
480.70	18494.91
480.88	18480.87
481.06	18792.16
481.24	18712.58
481.41	19082.39
481.59	19503.68
481.77	19367.93
481.95	19587.94
482.13	19686.25
482.31	19286.01
482.49	19932.00
482.67	20123.93
482.85	20472.67
483.03	20690.34
483.21	20692.68
483.39	20512.46
483.57	20301.81
483.74	21041.42
483.92	21034.39
484.10	21006.31
484.28	21621.87
484.46	22052.53
484.64	22171.89
484.82	21556.33
485.00	22361.48
485.18	22719.58
485.35	23166.62
485.53	22733.62
485.71	22937.25
485.89	23367.91
486.07	23339.82
486.25	23285.99
486.43	23379.61
486.61	23763.46
486.78	23817.29
486.96	23817.29
487.14	24212.84
487.32	24816.70
487.50	24491.37
487.68	24966.49
487.85	25104.59
488.03	25671.00
488.21	26015.05
488.39	25539.93
488.57	25972.92
488.75	26068.89
488.92	26001.01
489.10	26401.24
489.28	26139.10
489.46	27016.80
489.64	26799.13
489.81	27496.61
489.99	27470.87
490.17	27601.94
490.35	28070.04
490.53	28048.98
490.70	28341.55
490.88	27992.81
491.06	28816.68
491.24	28624.75
491.41	28830.72
491.59	28975.83
491.77	29163.08
491.95	29542.24
492.13	29654.59
492.30	29621.82
492.48	29965.88
492.66	30457.39
492.84	29731.83
493.01	30410.58
493.19	30504.20
493.37	30895.07
493.54	30988.69
493.72	31459.14
493.90	31440.42
494.08	31206.36
494.25	31660.43
494.43	31831.29
494.61	32046.62
494.79	32423.44
494.96	32376.63
495.14	32086.40
495.32	33132.62
495.49	32856.44
495.67	33289.44
495.85	33385.40
496.02	33507.11
496.20	33666.27
496.38	33809.04
496.55	34019.69
496.73	34916.11
496.91	34073.52
497.09	34778.02
497.26	34623.54
497.44	34398.85
497.62	35220.38
497.79	35571.46
497.97	35222.72
498.14	35660.40
498.32	35768.07
498.50	35735.30
498.67	36392.99
498.85	36151.91
499.03	36912.59
499.20	36495.97
499.38	36414.05
499.56	37034.30
499.73	36636.41
499.91	37139.62
500.08	37317.50
500.26	37064.72
500.44	37060.04
500.61	37469.64
500.79	37682.62
500.97	37914.34
501.14	37928.38
501.32	37984.55
501.49	38302.87
501.67	38337.98
501.84	38375.42
502.02	38452.66
502.20	39166.52
502.37	39189.93
502.55	39143.12
502.72	39061.20
502.90	39225.04
503.07	39494.20
503.25	39590.16
503.43	39524.63
503.60	40041.88
503.78	40027.84
503.95	40006.78
504.13	40552.12
504.30	40446.80
504.48	40074.65
504.65	40755.75
504.83	40713.62
505.01	40751.07
505.18	40708.94
505.36	41165.34
505.53	40767.45
505.71	41574.94
505.88	41338.54
506.06	41450.89
506.23	41649.83
506.41	41668.56
506.58	42038.36
506.76	42122.62
506.93	42052.41
507.11	42019.64
507.28	42312.20
507.46	42569.66
507.63	42579.03
507.81	42836.48
507.98	42534.56
508.16	42836.48
508.33	43164.16
508.50	43276.51
508.68	43028.41
508.85	43498.86
509.03	43285.87
509.20	43821.85
509.38	44498.26
509.55	44030.16
509.73	44079.31
509.90	44320.38
510.08	44231.44
510.25	44165.91
510.42	44219.74
510.60	44495.92
510.77	44739.34
510.95	45181.70
511.12	44701.89
511.30	44587.21
511.47	45488.31
511.64	45165.32
511.82	45708.32
511.99	45680.24
512.17	45516.40
512.34	45860.46
512.51	46241.96
512.69	46342.61
512.86	46230.26
513.04	46541.55
513.21	45928.33
513.38	46335.59
513.56	46340.27
513.73	46710.07
513.90	46745.18
514.08	46515.81
514.25	47213.29
514.43	47370.10
514.60	46880.93
514.77	47058.81
514.95	47215.63
515.12	47047.11
515.29	47447.34
515.47	47952.90
515.64	48093.33
515.81	47611.18
515.99	47770.33
516.16	48023.11
516.33	48411.64
516.51	48292.27
516.68	48329.72
516.85	48311.00
517.03	48648.03
517.20	48552.07
517.37	48697.19
517.54	48280.57
517.72	48451.43
517.89	48825.92
518.06	49158.27
518.24	49071.67
518.41	49034.22
518.58	49167.63
518.75	49389.98
518.93	49483.61
519.10	49399.35
519.27	49537.44
519.45	49900.22
519.62	49581.91
519.79	49916.61
519.96	49806.60
520.14	49951.71
520.31	49663.83
520.48	50038.31
520.65	50131.93
520.83	50241.94
521.00	50490.04
521.17	50302.79
521.34	50742.81
521.52	50375.35
521.69	50731.11
521.86	50660.90
522.03	50923.04
522.20	51098.58
522.38	51185.18
522.55	51009.64
522.72	51213.26
522.89	51292.84
523.07	51405.19
523.24	51157.09
523.41	51583.07
523.58	50899.63
523.75	51700.09
523.92	51639.24
524.10	51554.98
524.27	51917.76
524.44	51807.76
524.61	51695.41
524.78	51959.89
524.96	52163.52
525.13	52285.23
525.30	52303.95
525.47	52219.69
525.64	52554.39
525.81	52493.54
525.98	52638.65
526.16	52584.82
526.33	52367.15
526.50	52905.47
526.67	52699.50
526.84	52664.39
527.01	52404.59
527.18	52488.85
527.36	52559.07
527.53	52755.68
527.70	52886.74
527.87	53055.26
528.04	52748.65
528.21	53429.75
528.38	53312.72
528.55	53343.15
528.72	53013.13
528.89	53048.24
529.07	53263.57
529.24	53244.85
529.41	53750.40
529.58	53670.82
529.75	53415.71
529.92	53712.95
530.09	53858.07
530.26	53628.69
530.43	53958.71
530.60	53631.04
530.77	53710.61
530.94	54049.99
531.11	53881.47
531.28	53984.46
531.46	53930.62
531.63	54138.93
531.80	53902.54
531.97	53932.96
532.14	54585.97
532.31	54312.13
532.48	54255.96
532.65	54279.36
532.82	54623.42
532.99	54557.89
533.16	54216.17
533.33	54468.95
533.50	54571.93
533.67	55072.81
533.84	54681.94
534.01	54698.32
534.18	54761.51
534.35	54915.99
534.52	55093.87
534.69	54953.44
534.86	55189.83
535.03	54836.41
535.20	54815.35
535.37	55220.26
535.54	55047.06
535.71	54976.84
535.88	55133.66
536.05	55318.56
536.22	55365.37
536.38	55370.05
536.55	55327.92
536.72	55220.26
536.89	55269.41
537.06	55550.27
537.23	55700.07
537.40	55400.48
537.57	55533.89
537.74	55683.69
537.91	55700.07
538.08	55690.71
538.25	55601.77
538.42	55714.11
538.59	55817.10
538.75	55772.63
538.92	55852.20
539.09	56126.05
539.26	55931.78
539.43	55922.42
539.60	56067.53
539.77	55990.30
539.94	56151.79
540.11	56264.14
540.28	56329.67
540.44	56505.21
540.61	56355.42
540.78	56210.31
540.95	56259.46
541.12	56224.35
541.29	56151.79
541.46	56240.73
541.62	56322.65
541.79	56514.58
541.96	56163.50
542.13	56488.83
542.30	56442.02
542.47	56655.01
542.63	56715.86
542.80	56598.83
542.97	56938.21
543.14	57174.61
543.31	56938.21
543.48	57092.69
543.64	57308.02
543.81	56992.04
543.98	57048.22
544.15	57160.56
544.32	57413.34
544.48	57371.21
544.65	57090.35
544.82	57286.95
544.99	56975.66
545.16	57352.49
545.32	57441.43
545.49	57546.75
545.66	57558.45
545.83	57422.70
546.00	57614.63
546.16	57502.28
546.33	57560.79
546.50	57289.29
546.67	57766.76
546.83	57284.61
547.00	57354.83
547.17	57523.35
547.34	57418.02
547.50	57794.85
547.67	57977.41
547.84	57682.50
548.00	57907.19
548.17	58061.67
548.34	58078.05
548.51	58157.63
548.67	58113.16
548.84	58021.88
549.01	57869.75
549.18	58073.37
549.34	58234.87
549.51	58216.14
549.68	58363.60
549.84	58230.19
550.01	58344.87
550.18	58085.07
550.34	58265.30
550.51	58239.55
550.68	58199.76
550.84	58176.36
551.01	58429.13
551.18	58321.47
551.34	58351.90
551.51	58262.96
551.68	58464.24
551.84	58557.86
552.01	58401.05
552.18	58450.20
552.34	58459.56
552.51	58553.18
552.68	58298.06
552.84	58539.14
553.01	58719.36
553.18	58623.40
553.34	58649.14
553.51	58630.42
553.67	58803.62
553.84	58719.36
554.01	58972.14
554.17	59021.29
554.34	58820.00
554.51	58798.94
554.67	58930.01
554.84	58827.02
555.00	58845.75
555.17	58796.60
555.33	58911.28
555.50	58836.39
555.67	59030.65
555.83	58869.15
556.00	58892.56
556.16	59353.65
556.33	59178.10
556.50	59068.10
556.66	59011.93
556.83	58827.02
556.99	59128.95
557.16	59405.14
557.32	59274.07
557.49	59463.65
557.65	59292.79
557.82	59292.79
557.98	59126.61
558.15	59248.32
558.32	59444.93
558.48	59236.62
558.65	59407.48
558.81	59351.30
558.98	59306.83
559.14	59669.62
559.31	59372.37
559.47	59533.87
559.64	59557.27
559.80	59704.73
559.97	59636.85
560.13	59433.22
560.30	59639.19
560.46	59547.91
560.63	59709.41
560.79	59566.63
560.96	59774.94
561.12	59613.44
561.29	59697.70
561.45	59653.23
561.61	59669.62
561.78	59648.55
561.94	59770.26
562.11	59746.86
562.27	59798.35
562.44	59767.92
562.60	59952.82
562.77	59943.46
562.93	59618.13
563.10	59999.63
563.26	59870.90
563.42	60093.25
563.59	59779.62
563.75	59845.16
563.92	59835.80
564.08	59999.63
564.24	59943.46
564.41	59875.58
564.57	59861.54
564.74	59973.89
564.90	59941.12
565.07	60205.60
565.23	60079.21
565.39	59887.29
565.56	60107.30
565.72	60067.51
565.88	60032.40
566.05	60004.31
566.21	60083.89
566.38	60196.24
566.54	60149.43
566.70	60327.31
566.87	60238.37
567.03	60023.04
567.19	60357.74
567.36	60158.79
567.52	60245.39
567.68	60240.71
567.85	60346.03
568.01	60339.01
568.17	60170.49
568.34	60090.91
568.50	60254.75
568.66	60142.41
568.83	60331.99
568.99	60214.96
569.15	60294.54
569.32	60491.15
569.48	60310.92
569.64	60479.44
569.81	60257.09
569.97	60154.11
570.13	60364.76
570.30	60369.44
570.46	60261.77
570.62	60161.13
570.78	60343.69
570.95	60238.37
571.11	60285.18
571.27	60505.19
571.43	60385.82
571.60	60498.17
571.76	60409.23
571.92	60472.42
572.09	60423.27
572.25	60535.62
572.41	60449.02
572.57	60374.12
572.74	60573.06
572.90	60514.55
573.06	60465.40
573.22	60589.45
573.38	60364.76
573.55	60252.41
573.71	60774.35
573.87	60542.64
574.03	60402.21
574.20	60505.19
574.36	60470.08
574.52	60561.36
574.68	60633.92
574.84	60547.32
575.01	60568.38
575.17	60657.32
575.33	60552.00
575.49	60427.95
575.65	60516.89
575.82	60793.07
575.98	60495.83
576.14	60867.97
576.30	60846.91
576.46	60678.39
576.62	60537.96
576.79	60589.45
576.95	60446.68
577.11	60610.51
577.27	60865.63
577.43	60657.32
577.59	60547.32
577.75	60800.10
577.92	60664.35
578.08	60582.43
578.24	60706.47
578.40	60907.76
578.56	60884.36
578.72	60772.01
578.88	60802.44
579.04	60715.84
579.21	60821.16
579.37	60898.40
579.53	60762.65
579.69	60498.17
579.85	60535.62
580.01	60743.92
580.17	60474.76
580.33	60755.63
580.49	60790.73
580.65	60839.89
580.82	60905.42
580.98	60750.94
581.14	60659.66
581.30	61010.74
581.46	60645.62
581.62	60736.90
581.78	60776.69
581.94	60903.08
582.10	60928.83
582.26	60832.86
582.42	60619.88
582.58	60760.31
582.74	60860.95
582.90	60823.50
583.06	60996.70
583.22	60736.90
583.38	60856.27
583.54	60816.48
583.70	60776.69
583.86	60722.86
584.02	60711.16
584.18	61071.60
584.34	60823.50
584.50	60860.95
584.66	60739.24
584.82	60650.30
584.98	60963.93
585.14	60900.74
585.30	60701.79
585.46	60928.83
585.62	60844.57
585.78	61083.30
585.94	60544.98
586.10	60977.98
586.26	61102.03
586.42	60844.57
586.58	60910.10
586.74	60807.12
586.90	60781.37
587.06	61097.34
587.22	61034.15
587.38	60697.11
587.54	61118.41
587.70	61167.56
587.86	60994.36
588.02	60839.89
588.18	61064.58
588.34	60746.26
588.49	61066.92
