SpectraSuite Data File
++++++++++++++++++++++++++++++++++++
Date: Fri Oct 25 10:44:18 EDT 2013
User: price-jones
Dark Spectrum Present: No
Reference Spectrum Present: No
Number of Sampled Component Spectra: 1
Spectrometers: USB2+H05261
Integration Time (usec): 100000 (USB2+H05261)
Spectra Averaged: 1 (USB2+H05261)
Boxcar Smoothing: 0 (USB2+H05261)
Correct for Electrical Dark: No (USB2+H05261)
Strobe/Lamp Enabled: No (USB2+H05261)
Correct for Detector Non-linearity: No (USB2+H05261)
Correct for Stray Light: No (USB2+H05261)
Number of Pixels in Processed Spectrum: 2048
>>>>>Begin Processed Spectral Data<<<<<
365.73	102.98
365.92	102.98
366.12	102.98
366.32	42.13
366.52	0.00
366.72	70.22
366.91	30.43
367.11	53.83
367.31	0.00
367.51	42.13
367.70	23.41
367.90	9.36
368.10	65.54
368.30	23.41
368.49	0.00
368.69	0.00
368.89	95.96
369.09	37.45
369.28	95.96
369.48	105.32
369.68	53.83
369.87	91.28
370.07	93.62
370.27	147.45
370.47	135.75
370.66	425.98
370.86	451.72
371.06	458.74
371.25	524.28
371.45	477.47
371.65	463.43
371.84	477.47
372.04	437.68
372.24	461.09
372.44	526.62
372.63	461.09
372.83	475.13
373.03	447.04
373.22	479.81
373.42	425.98
373.62	561.73
373.81	559.39
374.01	699.82
374.21	566.41
374.40	461.09
374.60	704.50
374.79	559.39
374.99	571.09
375.19	561.73
375.38	554.71
375.58	610.88
375.78	566.41
375.97	533.64
376.17	596.84
376.37	662.37
376.56	582.79
376.76	554.71
376.95	608.54
377.15	606.20
377.35	683.44
377.54	645.99
377.74	657.69
377.93	678.76
378.13	676.41
378.33	753.65
378.52	676.41
378.72	706.84
378.91	613.22
379.11	688.12
379.31	643.65
379.50	622.58
379.70	805.14
379.89	645.99
380.09	688.12
380.28	718.54
380.48	730.25
380.68	795.78
380.87	702.16
381.07	746.63
381.26	695.14
381.46	718.54
381.65	730.25
381.85	812.17
382.04	725.57
382.24	730.25
382.43	741.95
382.63	706.84
382.83	704.50
383.02	727.91
383.22	767.70
383.41	713.86
383.61	730.25
383.80	812.17
384.00	770.04
384.19	746.63
384.39	770.04
384.58	823.87
384.78	760.67
384.97	772.38
385.17	854.30
385.36	779.40
385.56	765.36
385.75	795.78
385.95	814.51
386.14	814.51
386.34	793.44
386.53	877.70
386.72	786.42
386.92	830.89
387.11	896.43
387.31	842.59
387.50	929.19
387.70	940.90
387.89	861.32
388.09	882.38
388.28	854.30
388.48	940.90
388.67	976.00
388.86	938.55
389.06	912.81
389.25	980.68
389.45	917.49
389.64	980.68
389.84	1025.15
390.03	973.66
390.22	922.17
390.42	952.60
390.61	943.24
390.81	1053.24
391.00	1071.97
391.19	1146.86
391.39	1053.24
391.58	1132.82
391.78	1074.31
391.97	1039.20
392.16	1050.90
392.36	1123.46
392.55	1004.09
392.75	997.07
392.94	997.07
393.13	1018.13
393.33	1053.24
393.52	1156.22
393.71	1109.41
393.91	1057.92
394.10	1109.41
394.29	1146.86
394.49	1151.54
394.68	1203.04
394.88	1249.85
395.07	1249.85
395.26	1188.99
395.46	1306.02
395.65	1224.10
395.84	1247.51
396.04	1238.14
396.23	1102.39
396.42	1102.39
396.62	1233.46
396.81	1212.40
397.00	1198.35
397.19	1453.47
397.39	1336.45
397.58	1390.28
397.77	1401.98
397.97	1387.94
398.16	1394.96
398.35	1392.62
398.55	1434.75
398.74	1437.09
398.93	1643.06
399.12	1542.41
399.32	1507.30
399.51	1596.25
399.70	1607.95
399.90	1631.35
400.09	1600.93
400.28	1589.22
400.47	1586.88
400.67	1682.85
400.86	1650.08
401.05	1682.85
401.24	1785.83
401.44	1692.21
401.63	1713.27
401.82	1813.92
402.01	1722.63
402.21	1886.47
402.40	1849.02
402.59	1872.43
402.78	1785.83
402.97	1867.75
403.17	1771.79
403.36	1872.43
403.55	1914.56
403.74	1778.81
403.93	1984.77
404.13	1895.83
404.32	1856.04
404.51	1919.24
404.70	1994.14
404.89	1912.22
405.09	2024.56
405.28	1923.92
405.47	1930.94
405.66	1987.11
405.85	1994.14
406.05	1991.80
406.24	1944.99
406.43	1982.43
406.62	2139.25
406.81	2228.19
407.00	2111.16
407.20	2134.57
407.39	2179.04
407.58	2211.81
407.77	2251.60
407.96	2244.57
408.15	2272.66
408.34	2223.51
408.54	2307.77
408.73	2342.88
408.92	2396.71
409.11	2363.94
409.30	2314.79
409.49	2331.17
409.68	2361.60
409.87	2275.00
410.07	2385.01
410.26	2445.86
410.45	2492.67
410.64	2410.75
410.83	2565.23
411.02	2593.31
411.21	2588.63
411.40	2605.02
411.59	2665.87
411.78	2586.29
411.98	2581.61
412.17	2670.55
412.36	2679.91
412.55	2637.78
412.74	2939.71
412.93	2708.00
413.12	2796.94
413.31	2958.44
413.50	2904.60
413.69	2888.22
413.88	2960.78
414.07	2892.90
414.26	2977.16
414.45	3021.63
414.64	3068.44
414.83	3080.14
415.02	3089.51
415.22	3117.59
415.41	3279.09
415.60	3155.04
415.79	3309.52
415.98	3272.07
416.17	3206.53
416.36	3253.34
416.55	3309.52
416.74	3314.20
416.93	3332.92
417.12	3330.58
417.31	3344.63
417.50	3410.16
417.69	3520.17
417.88	3517.83
418.07	3576.34
418.26	3400.80
418.45	3538.89
418.64	3566.98
418.83	3595.06
419.02	3606.77
419.21	3698.05
419.39	3648.90
419.58	3686.34
419.77	3658.26
419.96	3583.36
420.15	3796.35
420.34	3824.44
420.53	3836.14
420.72	3836.14
420.91	3960.19
421.10	3833.80
421.29	3831.46
421.48	3918.06
421.67	3852.52
421.86	3934.44
422.05	3709.75
422.24	3747.20
422.43	3829.12
422.61	3847.84
422.80	3899.33
422.99	3939.12
423.18	3995.29
423.37	4023.38
423.56	3939.12
423.75	4002.32
423.94	3964.87
424.13	3817.41
424.32	3906.35
424.50	4170.83
424.69	3995.29
424.88	3976.57
425.07	3901.67
425.26	3941.46
425.45	4070.19
425.64	3941.46
425.83	4023.38
426.01	4161.47
426.20	4128.70
426.39	4056.15
426.58	3967.21
426.77	3997.64
426.96	3999.98
427.15	4112.32
427.33	4084.23
427.52	4187.22
427.71	4191.90
427.90	4131.05
428.09	4248.07
428.28	4278.50
428.46	4208.28
428.65	4264.46
428.84	4311.27
429.03	4339.35
429.22	4196.58
429.40	4205.94
429.59	4329.99
429.78	3964.87
429.97	3889.97
430.16	4126.36
430.34	4159.13
430.53	4243.39
430.72	4217.65
430.91	4166.15
431.10	4285.52
431.28	4599.15
431.47	4660.01
431.66	4957.25
431.85	4519.57
432.03	4638.94
432.22	4788.74
432.41	4599.15
432.60	4662.35
432.79	4828.53
432.97	4793.42
433.16	4821.50
433.35	4781.71
433.54	4671.71
433.72	4833.21
433.91	4800.44
434.10	4891.72
434.28	4919.81
434.47	4943.21
434.66	5081.30
434.85	5055.56
435.03	5102.37
435.22	5048.54
435.41	5188.97
435.59	5266.21
435.78	5090.67
435.97	5310.68
436.16	5320.04
436.34	5203.01
436.53	5195.99
436.72	5341.10
436.90	5256.84
437.09	5252.16
437.28	5284.93
437.46	5135.14
437.65	5315.36
437.84	5291.95
438.02	5224.08
438.21	5249.82
438.40	5111.73
438.58	5486.22
438.77	5479.19
438.96	5411.32
439.14	5774.10
439.33	5664.10
439.52	5722.61
439.70	5638.35
439.89	5792.83
440.08	5769.42
440.26	5753.04
440.45	5748.36
440.63	5977.73
440.82	6094.76
441.01	5909.85
441.19	6038.58
441.38	6087.73
441.57	6122.84
441.75	6382.64
441.94	6326.47
442.12	6305.40
442.31	6572.22
442.50	6424.77
442.68	6478.60
442.87	6471.58
443.05	6518.39
443.24	6464.56
443.43	6436.47
443.61	6511.37
443.80	6609.67
443.98	6567.54
444.17	6324.13
444.35	6761.81
444.54	6773.51
444.73	6633.08
444.91	6841.39
445.10	6527.75
445.28	6541.80
445.47	6497.33
445.65	6548.82
445.84	6670.53
446.02	6684.57
446.21	6672.87
446.39	6691.59
446.58	6792.23
446.77	6600.31
446.95	6705.63
447.14	6909.26
447.32	6815.64
447.51	6675.21
447.69	6771.17
447.88	6705.63
448.06	6794.58
448.25	6899.90
448.43	6899.90
448.62	6839.05
448.80	7021.61
448.99	6897.56
449.17	6813.30
449.36	6906.92
449.54	7234.60
449.73	7208.85
449.91	7115.23
450.10	7307.15
450.28	7386.73
450.46	7463.97
450.65	7283.75
450.83	7382.05
451.02	7243.96
451.20	7260.34
451.39	7353.96
451.57	7372.69
451.76	7236.94
451.94	7304.81
452.13	7421.84
452.31	7314.17
452.49	7295.45
452.68	7258.00
452.86	7325.88
453.05	7356.30
453.23	7531.84
453.42	7407.80
453.60	7499.08
453.78	7639.51
453.97	7403.11
454.15	7470.99
454.34	7487.37
454.52	7527.16
454.70	7719.09
454.89	7630.15
455.07	7751.85
455.26	7896.97
455.44	7899.31
455.62	7871.22
455.81	7866.54
455.99	8147.40
456.17	7983.57
456.36	7885.26
456.54	8070.17
456.73	8081.87
456.91	8327.63
457.09	8269.11
457.28	8344.01
457.46	8374.44
457.64	8369.76
457.83	8369.76
458.01	8236.35
458.19	8304.22
458.38	8126.34
458.56	8465.72
458.74	8306.56
458.93	8386.14
459.11	8407.20
459.29	8404.86
459.48	8472.74
459.66	8557.00
459.84	8479.76
460.03	8676.37
460.21	8592.11
460.39	8547.64
460.57	8407.20
460.76	8674.03
460.94	8627.21
461.12	8842.54
461.31	8727.86
461.49	8849.57
461.67	8950.21
461.85	9025.11
462.04	9015.74
462.22	9310.65
462.40	9181.92
462.59	8940.85
462.77	9146.81
462.95	9151.49
463.13	9083.62
463.32	8973.61
463.50	9172.56
463.68	9100.00
463.86	9191.28
464.05	8999.36
464.23	8954.89
464.41	9401.93
464.59	9092.98
464.78	9324.69
464.96	9291.93
465.14	9174.90
465.32	9371.50
465.50	9507.26
465.69	9320.01
465.87	9376.19
466.05	9467.47
466.23	9404.27
466.41	9507.26
466.60	9511.94
466.78	9338.74
466.96	9289.59
467.14	9593.86
467.32	9500.23
467.51	9544.70
467.69	9259.16
467.87	9640.67
468.05	9769.40
468.23	9437.04
468.41	9635.99
468.60	9675.77
468.78	9724.93
468.96	9554.07
469.14	10019.83
469.32	9844.29
469.50	9593.86
469.69	10164.95
469.87	9856.00
470.05	10045.58
470.23	10047.92
470.41	9984.73
470.59	10026.86
470.77	10111.11
470.95	10104.09
471.14	10253.89
471.32	10148.56
471.50	10401.34
471.68	10256.23
471.86	10607.31
472.04	10523.05
472.22	10855.40
472.40	10279.63
472.58	10719.65
472.77	10555.82
472.95	10839.02
473.13	11063.71
473.31	10736.04
473.49	10621.35
473.67	10864.77
473.85	10871.79
474.03	11194.78
474.21	10932.64
474.39	11197.12
474.57	11192.44
474.75	11335.21
474.93	11250.96
475.12	11459.26
475.30	11300.11
475.48	11286.06
475.66	11623.10
475.84	11290.74
476.02	11492.03
476.20	11585.65
476.38	11744.81
476.56	12046.74
476.74	11861.84
476.92	11836.09
477.10	12002.27
477.28	12248.02
477.46	12315.90
477.64	12514.84
477.82	12573.36
478.00	12732.51
478.18	12835.50
478.36	12648.26
478.54	13032.10
478.72	12973.59
478.90	12978.27
479.08	13516.59
479.26	13401.91
479.44	13418.29
479.62	13418.29
479.80	13600.85
479.98	13802.14
480.16	13790.44
480.34	13654.69
480.52	13774.05
480.70	13905.12
480.88	13919.17
481.06	14031.51
481.24	14237.48
481.41	14506.64
481.59	14810.91
481.77	14593.24
481.95	14768.78
482.13	14871.76
482.31	14934.96
482.49	15363.28
482.67	14946.66
482.85	15145.61
483.03	15426.47
483.21	15428.81
483.39	15709.68
483.57	15704.99
483.74	15719.04
483.92	15964.79
484.10	15613.71
484.28	16107.57
484.46	16510.14
484.64	16449.28
484.82	16222.25
485.00	16861.22
485.18	16552.27
485.35	16737.17
485.53	16287.79
485.71	16374.39
485.89	16886.97
486.07	16484.39
486.25	16973.56
486.43	16872.92
486.61	17364.43
486.78	17619.55
486.96	17778.71
487.14	18111.07
487.32	18326.39
487.50	18111.07
487.68	18462.15
487.85	18941.96
488.03	18923.23
488.21	18647.05
488.39	18703.22
488.57	19206.44
488.75	18934.93
488.92	19517.73
489.10	19817.32
489.28	19644.12
489.46	20042.01
489.64	19915.62
489.81	20489.05
489.99	20355.64
490.17	20617.78
490.35	20458.62
490.53	20744.17
490.70	20842.47
490.88	20699.70
491.06	21191.21
491.24	20968.86
491.41	21160.78
491.59	21048.44
491.77	21223.98
491.95	21348.03
492.13	21633.57
492.30	21895.71
492.48	21858.26
492.66	21984.65
492.84	22319.35
493.01	22368.50
493.19	22436.38
493.37	22389.56
493.54	22740.64
493.72	23073.00
493.90	23026.19
494.08	23204.07
494.25	23337.48
494.43	23709.63
494.61	23468.55
494.79	24002.19
494.96	23836.02
495.14	23934.32
495.32	23828.99
495.49	24016.24
495.67	24233.91
495.85	24254.97
496.02	24563.92
496.20	24929.05
496.38	24769.89
496.55	24966.49
496.73	25352.68
496.91	25090.54
497.09	25289.49
497.26	25610.14
497.44	25420.56
497.62	25336.30
497.79	25493.12
497.97	25612.48
498.14	25607.80
498.32	26054.84
498.50	26022.08
498.67	26682.11
498.85	26267.83
499.03	26726.58
499.20	26574.44
499.38	26859.99
499.56	26639.98
499.73	26918.50
499.91	26637.64
500.08	27115.11
500.26	27072.98
500.44	27030.85
500.61	26850.63
500.79	26951.27
500.97	27290.65
501.14	27604.28
501.32	27463.85
501.49	27466.19
501.67	27583.21
501.84	27651.09
502.02	27833.65
502.20	27882.80
502.37	28243.24
502.55	28016.21
502.72	28521.77
502.90	28486.66
503.07	28666.88
503.25	28158.99
503.43	28299.42
503.60	28393.04
503.78	28601.35
503.95	28671.56
504.13	28830.72
504.30	29050.73
504.48	29191.16
504.65	29270.74
504.83	29493.09
505.01	29415.85
505.18	29600.76
505.36	30192.91
505.53	29954.18
505.71	30092.27
505.88	29907.37
506.06	29694.38
506.23	30319.30
506.41	30038.44
506.58	30150.78
506.76	30391.86
506.93	30494.84
507.11	30518.25
507.28	30331.00
507.46	30246.74
507.63	30731.23
507.81	30611.87
507.98	30569.74
508.16	30338.02
508.33	31700.22
508.50	31154.87
508.68	31154.87
508.85	31732.98
509.03	31264.88
509.20	31613.62
509.38	32013.85
509.55	31122.10
509.73	31576.17
509.90	32177.68
510.08	31730.64
510.25	31922.57
510.42	32093.43
510.60	32037.25
510.77	32301.73
510.95	32835.38
511.12	32699.62
511.30	32807.29
511.47	32659.84
511.64	32774.52
511.82	33102.20
511.99	32545.15
512.17	33053.05
512.34	32718.35
512.51	33439.23
512.69	33336.25
512.86	33069.43
513.04	33413.49
513.21	33113.90
513.38	32989.85
513.56	33560.94
513.73	33137.30
513.90	33436.89
514.08	33043.68
514.25	33582.01
514.43	33490.73
514.60	33345.61
514.77	33582.01
514.95	33631.16
515.12	34167.14
515.29	34178.84
515.47	34543.97
515.64	34218.63
515.81	33895.64
515.99	34368.43
516.16	34316.93
516.33	33860.53
516.51	34253.74
516.68	33851.17
516.85	33516.47
517.03	34178.84
517.20	34288.85
517.37	34995.69
517.54	35180.59
517.72	34543.97
517.89	34146.08
518.06	34583.76
518.24	34616.52
518.41	34628.23
518.58	34785.04
518.75	34995.69
518.93	35288.26
519.10	35140.80
519.27	35496.56
519.45	35625.29
519.62	36201.07
519.79	35751.68
519.96	35981.06
520.14	36023.19
520.31	35786.79
520.48	36100.42
520.65	35735.30
520.83	36484.27
521.00	36519.38
521.17	36395.33
521.34	36957.06
521.52	36297.03
521.69	36570.87
521.86	36755.77
522.03	36910.25
522.20	36641.09
522.38	37064.72
522.55	36884.50
522.72	36797.90
522.89	36856.42
523.07	37273.03
523.24	37024.93
523.41	37589.00
523.58	37088.13
523.75	37811.35
523.92	37530.49
524.10	37963.49
524.27	37741.14
524.44	37787.95
524.61	38045.41
524.78	37921.36
524.96	37914.34
525.13	37935.40
525.30	38113.28
525.47	39091.63
525.64	37961.15
525.81	38031.36
525.98	38036.05
526.16	37944.76
526.33	37893.27
526.50	38274.78
526.67	37923.70
526.84	37731.78
527.01	37944.76
527.18	38246.69
527.36	38579.05
527.53	38876.30
527.70	39262.49
527.87	38466.70
528.04	38965.24
528.21	38820.13
528.38	38763.95
528.55	38916.09
528.72	39510.58
528.89	39704.85
529.07	39173.55
529.24	39100.99
529.41	39594.84
529.58	39255.46
529.75	39679.10
529.92	39470.79
530.09	39461.43
530.26	39709.53
530.43	39908.47
530.60	39309.30
530.77	39426.32
530.94	39974.01
531.11	39695.49
531.28	39990.39
531.46	40187.00
531.63	40041.88
531.80	39632.29
531.97	39962.31
532.14	40088.70
532.31	39435.69
532.48	40081.67
532.65	39849.96
532.82	40107.42
532.99	40708.94
533.16	40285.30
533.33	40477.22
533.50	40549.78
533.67	40395.31
533.84	40385.94
534.01	40027.84
534.18	40502.97
534.35	40786.18
534.52	41045.97
534.69	40704.26
534.86	41043.63
535.03	41001.50
535.20	41298.75
535.37	41521.10
535.54	41708.35
535.71	41177.04
535.88	41385.35
536.05	40755.75
536.22	41251.94
536.38	41340.88
536.55	41537.49
536.72	41069.38
536.89	40989.80
537.06	41464.93
537.23	41284.71
537.40	41167.68
537.57	41347.90
537.74	41778.56
537.91	42057.09
538.08	41961.12
538.25	41483.66
538.42	41691.96
538.59	42333.27
538.75	41469.61
538.92	41420.46
539.09	41940.06
539.26	41647.49
539.43	41364.29
539.60	42120.28
539.77	41858.14
539.94	41956.44
540.11	41652.17
540.28	41689.62
540.44	41879.21
540.61	41670.90
540.78	41853.46
540.95	41890.91
541.12	42136.66
541.29	42178.79
541.46	42576.69
541.62	42307.52
541.79	42485.40
541.96	42036.02
542.13	42656.26
542.30	42202.20
542.47	42557.96
542.63	42546.26
542.80	42602.43
542.97	43302.25
543.14	43416.94
543.31	42969.90
543.48	43241.40
543.64	43463.75
543.81	43372.47
543.98	43590.14
544.15	43353.74
544.32	43454.39
544.48	43468.43
544.65	43758.66
544.82	43328.00
544.99	43309.27
545.16	43824.19
545.32	43526.94
545.49	44266.55
545.66	43702.48
545.83	43627.59
546.00	44048.88
546.16	43679.08
546.33	43405.23
546.50	43798.44
546.67	43569.07
546.83	43423.96
547.00	43517.58
547.17	43503.54
547.34	43786.74
547.50	44189.31
547.67	43943.56
547.84	43959.94
548.00	44025.48
548.17	44655.08
548.34	44287.62
548.51	44559.12
548.67	43929.51
548.84	44385.92
549.01	44041.86
549.18	44072.29
549.34	44065.27
549.51	44245.49
549.68	44404.64
549.84	44367.20
550.01	44369.54
550.18	44437.41
550.34	44683.17
550.51	44533.37
550.68	44910.20
550.84	44030.16
551.01	44402.30
551.18	44610.61
551.34	44697.21
551.51	44463.16
551.68	44484.22
551.84	44872.75
552.01	44348.47
552.18	44903.18
552.34	44737.00
552.51	44711.25
552.68	44914.88
552.84	44814.24
553.01	45099.78
553.18	45158.30
553.34	44318.04
553.51	44502.95
553.67	45223.83
553.84	45057.65
554.01	45326.81
554.17	45434.48
554.34	45518.74
554.51	45160.64
554.67	45305.75
554.84	45422.78
555.00	45282.34
555.17	45155.96
555.33	45558.53
555.50	44919.56
555.67	45095.10
555.83	45464.91
556.00	45418.10
556.16	45586.61
556.33	45801.94
556.50	45427.46
556.66	45490.65
556.83	45200.43
556.99	45263.62
557.16	45628.74
557.32	45347.88
557.49	45631.08
557.65	45380.65
557.82	45345.54
557.98	45574.91
558.15	45492.99
558.32	45713.00
558.48	45429.80
558.65	45471.93
558.81	44980.42
558.98	45170.00
559.14	45837.05
559.31	45638.11
559.47	45319.79
559.64	45570.23
559.80	45914.29
559.97	45450.86
560.13	45621.72
560.30	45954.08
560.46	45916.63
560.63	45895.56
560.79	46040.68
560.96	45764.49
561.12	45645.13
561.29	45897.91
561.45	46155.36
561.61	45785.56
561.78	45656.83
561.94	45656.83
562.11	46003.23
562.27	46003.23
562.44	45975.14
562.60	45893.22
562.77	46340.27
562.93	45907.27
563.10	45813.65
563.26	45677.90
563.42	46220.90
563.59	45783.22
563.75	46094.51
563.92	46087.49
564.08	45958.76
564.24	46469.00
564.41	46181.11
564.57	45851.09
564.74	45668.53
564.90	45808.96
565.07	45958.76
565.23	46122.60
565.39	45968.12
565.56	46078.13
565.72	45933.01
565.88	46265.37
566.05	45940.04
566.21	45942.38
566.38	46571.98
566.54	45961.10
566.70	46586.02
566.87	46967.53
567.03	46361.33
567.19	46951.15
567.36	46586.02
567.52	46169.41
567.68	46520.49
567.85	46323.88
568.01	46101.53
568.17	46110.89
568.34	46340.27
568.50	46366.01
568.66	46267.71
568.83	46319.20
568.99	45825.35
569.15	45954.08
569.32	45855.78
569.48	46190.47
569.64	46485.38
569.81	46375.37
569.97	46597.73
570.13	46443.25
570.30	46312.18
570.46	45902.59
570.62	46155.36
570.78	46174.09
570.95	45998.55
571.11	46061.74
571.27	46045.36
571.43	46213.88
571.60	46127.28
571.76	45940.04
571.92	46113.23
572.09	46536.87
572.25	46113.23
572.41	46232.60
572.57	46536.87
572.74	47114.98
572.90	46590.70
573.06	46457.29
573.22	46272.39
573.38	46829.44
573.55	46099.19
573.71	46834.12
573.87	46714.75
574.03	46426.87
574.20	46941.78
574.36	46794.33
574.52	46532.19
574.68	46286.43
574.84	46443.25
575.01	46649.22
575.17	46597.73
575.33	46115.58
575.49	46534.53
575.65	46707.73
575.82	46808.37
575.98	46511.13
576.14	46710.07
576.30	46660.92
576.46	46461.97
576.62	46333.24
576.79	46595.38
576.95	46293.46
577.11	46658.58
577.27	46480.70
577.43	46323.88
577.59	46295.80
577.75	46555.60
577.92	46433.89
578.08	46330.90
578.24	46281.75
578.40	46445.59
578.56	46497.08
578.72	46117.92
578.88	46916.04
579.04	46635.17
579.21	46794.33
579.37	46621.13
579.53	46616.45
579.69	46389.42
579.85	46583.68
580.01	46806.03
580.17	46553.26
580.33	46740.50
580.49	46693.69
580.65	46714.75
580.82	46916.04
580.98	46330.90
581.14	46284.09
581.30	46883.27
581.46	46717.09
581.62	46916.04
581.78	46595.38
581.94	46911.36
582.10	47012.00
582.26	46894.97
582.42	46726.46
582.58	46710.07
582.74	46452.61
582.90	46848.16
583.06	47306.91
583.22	46766.24
583.38	46625.81
583.54	46707.73
583.70	46674.96
583.86	46822.42
584.02	46574.32
584.18	46808.37
584.34	46623.47
584.50	46855.18
584.66	46630.49
584.82	46518.15
584.98	46843.48
585.14	46670.28
585.30	46431.55
585.46	46712.41
585.62	46520.49
585.78	46590.70
585.94	46700.71
586.10	46288.77
586.26	46368.35
586.42	46911.36
586.58	46756.88
586.74	46892.63
586.90	46412.82
587.06	46745.18
587.22	46485.38
587.38	46373.03
587.54	46667.94
587.70	46677.30
587.86	46721.77
588.02	46237.28
588.18	46693.69
588.34	46672.62
588.49	46129.62
588.65	46012.59
588.81	45972.80
588.97	46312.18
589.13	46138.98
589.29	46171.75
589.45	46623.47
589.61	46550.91
589.77	46653.90
589.93	46569.64
