SpectraSuite Data File
++++++++++++++++++++++++++++++++++++
Date: Fri Oct 25 11:33:54 EDT 2013
User: price-jones
Dark Spectrum Present: No
Reference Spectrum Present: No
Number of Sampled Component Spectra: 1
Spectrometers: USB2+H05261
Integration Time (usec): 100000 (USB2+H05261)
Spectra Averaged: 1 (USB2+H05261)
Boxcar Smoothing: 0 (USB2+H05261)
Correct for Electrical Dark: No (USB2+H05261)
Strobe/Lamp Enabled: No (USB2+H05261)
Correct for Detector Non-linearity: No (USB2+H05261)
Correct for Stray Light: No (USB2+H05261)
Number of Pixels in Processed Spectrum: 2048
>>>>>Begin Processed Spectral Data<<<<<
365.73	280.86
365.92	280.86
366.12	280.86
366.32	163.84
366.52	149.79
366.72	236.39
366.91	170.86
367.11	234.05
367.31	110.01
367.51	180.22
367.70	149.79
367.90	259.80
368.10	166.18
368.30	107.66
368.49	138.09
368.69	156.82
368.89	184.90
369.09	210.65
369.28	212.99
369.48	173.20
369.68	175.54
369.87	266.82
370.07	271.50
370.27	217.67
370.47	351.08
370.66	444.70
370.86	521.94
371.06	543.00
371.25	500.87
371.45	479.81
371.65	505.56
371.84	568.75
372.04	535.98
372.24	571.09
372.44	507.90
372.63	552.37
372.83	606.20
373.03	578.11
373.22	678.76
373.42	599.18
373.62	650.67
373.81	601.52
374.01	568.75
374.21	660.03
374.40	697.48
374.60	669.39
374.79	650.67
374.99	685.78
375.19	697.48
375.38	763.01
375.58	601.52
375.78	648.33
375.97	669.39
376.17	683.44
376.37	622.58
376.56	786.42
376.76	662.37
376.95	650.67
377.15	676.41
377.35	688.12
377.54	706.84
377.74	697.48
377.93	627.26
378.13	645.99
378.33	667.05
378.52	755.99
378.72	713.86
378.91	770.04
379.11	645.99
379.31	657.69
379.50	683.44
379.70	685.78
379.89	751.31
380.09	678.76
380.28	741.95
380.48	645.99
380.68	683.44
380.87	695.14
381.07	835.57
381.26	791.10
381.46	858.98
381.65	760.67
381.85	683.44
382.04	713.86
382.24	744.29
382.43	798.12
382.63	723.23
382.83	718.54
383.02	837.91
383.22	856.64
383.41	739.61
383.61	739.61
383.80	779.40
384.00	819.19
384.19	755.99
384.39	847.27
384.58	844.93
384.78	821.53
384.97	875.36
385.17	842.59
385.36	770.04
385.56	849.61
385.75	863.66
385.95	805.14
386.14	842.59
386.34	777.06
386.53	875.36
386.72	891.74
386.92	905.79
387.11	933.87
387.31	873.02
387.50	814.51
387.70	861.32
387.89	940.90
388.09	924.51
388.28	805.14
388.48	870.68
388.67	894.08
388.86	964.30
389.06	950.26
389.25	994.73
389.45	945.58
389.64	910.47
389.84	964.30
390.03	1029.84
390.22	976.00
390.42	936.21
390.61	938.55
390.81	947.92
391.00	985.37
391.19	990.05
391.39	992.39
391.58	1034.52
391.78	1018.13
391.97	1013.45
392.16	1008.77
392.36	1086.01
392.55	1090.69
392.75	936.21
392.94	1006.43
393.13	1011.11
393.33	1069.62
393.52	950.26
393.71	1167.93
393.91	1032.18
394.10	1043.88
394.29	1071.97
394.49	1090.69
394.68	1114.10
394.88	1139.84
395.07	1238.14
395.26	1121.12
395.46	1118.78
395.65	1210.06
395.84	1212.40
396.04	1212.40
396.23	1170.27
396.42	1132.82
396.62	1203.04
396.81	1123.46
397.00	1256.87
397.19	1210.06
397.39	1219.42
397.58	1287.29
397.77	1226.44
397.97	1301.34
398.16	1277.93
398.35	1261.55
398.55	1212.40
398.74	1238.14
398.93	1322.40
399.12	1299.00
399.32	1268.57
399.51	1308.36
399.70	1266.23
399.90	1369.21
400.09	1376.24
400.28	1301.34
400.47	1348.15
400.67	1399.64
400.86	1371.55
401.05	1467.52
401.24	1289.64
401.44	1434.75
401.63	1416.02
401.82	1500.28
402.01	1394.96
402.21	1549.43
402.40	1474.54
402.59	1460.49
402.78	1481.56
402.97	1486.24
403.17	1519.01
403.36	1593.90
403.55	1533.05
403.74	1659.44
403.93	1453.47
404.13	1540.07
404.32	1593.90
404.51	1643.06
404.70	1607.95
404.89	1633.69
405.09	1732.00
405.28	1638.38
405.47	1685.19
405.66	1743.70
405.85	1671.14
406.05	1713.27
406.24	1743.70
406.43	1710.93
406.62	1788.17
406.81	1827.96
407.00	1750.72
407.20	1802.21
407.39	1877.11
407.58	1832.64
407.77	1846.68
407.96	1935.62
408.15	1902.86
408.34	1867.75
408.54	1942.64
408.73	1942.64
408.92	1968.39
409.11	1912.22
409.30	1872.43
409.49	2010.52
409.68	1989.46
409.87	2003.50
410.07	2036.27
410.26	2143.93
410.45	2113.50
410.64	2094.78
410.83	2143.93
411.02	2129.89
411.21	2167.34
411.40	2146.27
411.59	2143.93
411.78	2125.21
411.98	2155.63
412.17	2167.34
412.36	2239.89
412.55	2242.23
412.74	2347.56
412.93	2366.28
413.12	2183.72
413.31	2452.88
413.50	2445.86
413.69	2242.23
413.88	2506.71
414.07	2415.43
414.26	2385.01
414.45	2495.01
414.64	2516.08
414.83	2513.74
415.02	2642.46
415.22	2663.53
415.41	2729.06
415.60	2766.51
415.79	2693.96
415.98	2801.62
416.17	2715.02
416.36	2621.40
416.55	2649.49
416.74	2803.96
416.93	2822.69
417.12	2757.15
417.31	2836.73
417.50	2836.73
417.69	2904.60
417.88	2949.08
418.07	2904.60
418.26	2829.71
418.45	2988.86
418.64	3108.23
418.83	2904.60
419.02	3005.25
419.21	2993.55
419.39	3101.21
419.58	2965.46
419.77	3148.02
419.96	3159.72
420.15	2942.05
420.34	3276.75
420.53	3234.62
420.72	3176.11
420.91	3267.39
421.10	3122.27
421.29	3318.88
421.48	3323.56
421.67	3243.98
421.86	3194.83
422.05	3239.30
422.24	3316.54
422.43	3421.86
422.61	3442.93
422.80	3379.73
422.99	3297.81
423.18	3400.80
423.37	3494.42
423.56	3412.50
423.75	3414.84
423.94	3272.07
424.13	3232.28
424.32	3274.41
424.50	3307.18
424.69	3426.54
424.88	3510.80
425.07	3452.29
425.26	3398.46
425.45	3400.80
425.64	3293.13
425.83	3480.38
426.01	3431.23
426.20	3611.45
426.39	3428.88
426.58	3403.14
426.77	3438.25
426.96	3482.72
427.15	3592.72
427.33	3433.57
427.52	3550.59
427.71	3662.94
427.90	3681.66
428.09	3632.51
428.28	3639.53
428.46	3723.79
428.65	3684.00
428.84	3735.50
429.03	3796.35
429.22	3571.66
429.40	3665.28
429.59	3889.97
429.78	3641.87
429.97	3667.62
430.16	3662.94
430.34	3772.94
430.53	3850.18
430.72	3969.55
430.91	3824.44
431.10	3822.09
431.28	4023.38
431.47	3936.78
431.66	3882.95
431.85	3941.46
432.03	3990.61
432.22	4189.56
432.41	4049.13
432.60	4128.70
432.79	4007.00
432.97	4077.21
433.16	4112.32
433.35	4021.04
433.54	4124.02
433.72	4173.18
433.91	4322.97
434.10	4255.09
434.28	4196.58
434.47	4208.28
434.66	4262.12
434.85	4306.59
435.03	4458.72
435.22	4278.50
435.41	4322.97
435.59	4259.78
435.78	4196.58
435.97	4367.44
436.16	4313.61
436.34	4337.01
436.53	4414.25
436.72	4601.49
436.90	4547.66
437.09	4444.68
437.28	4482.13
437.46	4400.21
437.65	4416.59
437.84	4545.32
438.02	4498.51
438.21	4751.29
438.40	4636.60
438.58	4734.90
438.77	4695.11
438.96	4697.46
439.14	4767.67
439.33	4931.51
439.52	5001.72
439.70	4952.57
439.89	4819.16
440.08	4940.87
440.26	5013.43
440.45	5064.92
440.63	5132.79
440.82	4973.64
441.01	5160.88
441.19	5245.14
441.38	5268.55
441.57	5219.39
441.75	5352.81
441.94	5518.98
442.12	5432.38
442.31	5404.30
442.50	5205.35
442.68	5254.50
442.87	5509.62
443.05	5420.68
443.24	5610.26
443.43	5706.23
443.61	5437.06
443.80	5603.24
443.98	5406.64
444.17	5331.74
444.35	5563.45
444.54	5708.57
444.73	5465.15
444.91	5612.60
445.10	5591.54
445.28	5568.13
445.47	5544.73
445.65	5565.79
445.84	5664.10
446.02	5565.79
446.21	5607.92
446.39	5781.12
446.58	5837.30
446.77	5633.67
446.95	5591.54
447.14	5743.67
447.32	5715.59
447.51	5666.44
447.69	5755.38
447.88	5781.12
448.06	5645.37
448.25	5605.58
448.43	5795.17
448.62	5727.29
448.80	5858.36
448.99	5837.30
449.17	5776.44
449.36	5764.74
449.54	6113.48
449.73	5996.45
449.91	6017.52
450.10	5905.17
450.28	5940.28
450.46	6073.69
450.65	5966.03
450.83	6157.95
451.02	6050.28
451.20	6235.19
451.39	6113.48
451.57	6223.48
451.76	6094.76
451.94	6164.97
452.13	6183.70
452.31	6256.25
452.49	6186.04
452.68	6366.26
452.86	6207.10
453.05	6490.31
453.23	6258.59
453.42	6413.07
453.60	6424.77
453.78	6466.90
453.97	6333.49
454.15	6394.34
454.34	6349.87
454.52	6548.82
454.70	6394.34
454.89	6450.52
455.07	6588.61
455.26	6572.22
455.44	6579.25
455.62	6462.22
455.81	6808.62
455.99	6815.64
456.17	6656.48
456.36	6628.40
456.54	6881.18
456.73	6855.43
456.91	7094.16
457.09	7148.00
457.28	7077.78
457.46	6808.62
457.64	7070.76
457.83	7084.80
458.01	7075.44
458.19	7215.87
458.38	7152.68
458.56	7108.21
458.74	7197.15
458.93	7180.76
459.11	7445.24
459.29	7267.36
459.48	7260.34
459.66	7180.76
459.84	7375.03
460.03	7396.09
460.21	7412.48
460.39	7283.75
460.57	7438.22
460.76	7494.40
460.94	7382.05
461.12	7606.74
461.31	7463.97
461.49	7332.90
461.67	7290.77
461.85	7707.38
462.04	7536.52
462.22	7985.91
462.40	7815.05
462.59	7595.04
462.77	7611.42
462.95	7576.31
463.13	7747.17
463.32	7903.99
463.50	7768.24
463.68	7882.92
463.86	7873.56
464.05	7770.58
464.23	7922.71
464.41	7885.26
464.59	7798.66
464.78	8006.97
464.96	8046.76
465.14	7899.31
465.32	8095.91
465.50	7995.27
465.69	8056.12
465.87	8079.53
466.05	8100.59
466.23	8109.96
466.41	8086.55
466.60	8390.82
466.78	7847.82
466.96	8238.69
467.14	8210.60
467.32	8299.54
467.51	8262.09
467.69	8030.38
467.87	8140.38
468.05	8346.35
468.23	8215.28
468.41	8325.29
468.60	8362.73
468.78	8458.70
468.96	8329.97
469.14	8465.72
469.32	8617.85
469.50	8374.44
469.69	8723.18
469.87	8730.20
470.05	8669.34
470.23	8744.24
470.41	8688.07
470.59	8990.00
470.77	8854.25
470.95	8596.79
471.14	9118.73
471.32	8807.44
471.50	8861.27
471.68	9165.54
471.86	9011.06
472.04	9006.38
472.22	9348.10
472.40	8933.82
472.58	9008.72
472.77	9268.52
472.95	9451.08
473.13	9640.67
473.31	9455.76
473.49	9331.72
473.67	9343.42
473.85	9423.00
474.03	9607.90
474.21	9666.41
474.39	9600.88
474.57	9654.71
474.75	9769.40
474.93	9877.06
475.12	9774.08
475.30	9797.48
475.48	9867.70
475.66	9937.91
475.84	10157.92
476.02	10073.67
476.20	10424.75
476.38	10157.92
476.56	10527.73
476.74	10492.62
476.92	10328.78
477.10	10239.84
477.28	10658.80
477.46	10527.73
477.64	10787.53
477.82	10747.74
478.00	11014.56
478.18	10965.41
478.36	11335.21
478.54	11171.38
478.72	11459.26
478.90	11508.41
479.08	11365.64
479.26	11580.97
479.44	11599.70
479.62	11812.68
479.80	11578.63
479.98	11824.39
480.16	12194.19
480.34	12009.29
480.52	12042.06
480.70	12297.17
480.88	12067.80
481.06	12271.43
481.24	12250.36
481.41	12638.89
481.59	12610.81
481.77	12655.28
481.95	12912.74
482.13	12779.32
482.31	13048.49
482.49	13294.24
482.67	13301.26
482.85	13614.90
483.03	13565.74
483.21	13689.79
483.39	13902.78
483.57	13638.30
483.74	13816.18
483.92	13827.88
484.10	13827.88
484.28	14019.81
484.46	14469.19
484.64	14740.69
484.82	14225.78
485.00	14728.99
485.18	14899.85
485.35	15206.46
485.53	15091.77
485.71	14803.89
485.89	15033.26
486.07	15311.78
486.25	15328.17
486.43	15201.78
486.61	15559.88
486.78	15541.16
486.96	15887.56
487.14	15960.11
487.32	16133.31
487.50	15941.39
487.68	16322.90
487.85	16568.65
488.03	16563.97
488.21	16765.26
488.39	16716.11
488.57	17057.82
488.75	16919.73
488.92	17341.03
489.10	17523.59
489.28	17680.41
489.46	17617.21
489.64	17324.65
489.81	17757.64
489.99	17956.59
490.17	17937.87
490.35	18251.50
490.53	18438.74
490.70	18429.38
490.88	18735.99
491.06	18902.17
491.24	19033.24
491.41	18988.77
491.59	19080.05
491.77	18831.95
491.95	19241.54
492.13	19719.01
492.30	19215.80
492.48	19377.30
492.66	19697.95
492.84	20018.60
493.01	20011.58
493.19	20072.43
493.37	20137.97
493.54	20065.41
493.72	20503.09
493.90	20631.82
494.08	20699.70
494.25	20566.29
494.43	20652.89
494.61	21188.87
494.79	21359.73
494.96	21041.42
495.14	21509.52
495.32	21575.06
495.49	21635.91
495.67	21563.36
495.85	22251.47
496.02	21825.50
496.20	22370.84
496.38	22242.11
496.55	22246.79
496.73	22665.75
496.91	22513.61
497.09	22850.65
497.26	22508.93
497.44	22632.98
497.62	22665.75
497.79	23557.49
497.97	23239.18
498.14	23384.29
498.32	23506.00
498.50	23477.91
498.67	23826.65
498.85	23627.71
499.03	23548.13
499.20	23892.19
499.38	23913.25
499.56	24088.79
499.73	24610.73
499.91	24535.84
500.08	24563.92
500.26	24432.85
500.44	24643.50
500.61	24629.46
500.79	24254.97
500.97	24931.39
501.14	24929.05
501.32	25317.57
501.49	25242.68
501.67	25132.67
501.84	25436.94
502.02	25525.88
502.20	25692.06
502.37	25537.59
502.55	25635.89
502.72	25603.12
502.90	25872.28
503.07	25703.76
503.25	25830.15
503.43	25912.07
503.60	26143.78
503.78	26302.94
503.95	26235.06
504.13	26204.64
504.30	26544.02
504.48	26162.51
504.65	26558.06
504.83	26658.70
505.01	27126.81
505.18	26782.75
505.36	27040.21
505.53	26916.16
505.71	27421.72
505.88	27204.05
506.06	27084.68
506.23	27491.93
506.41	27613.64
506.58	27817.27
506.76	27503.64
506.93	28037.28
507.11	27784.50
507.28	28081.75
507.46	27929.61
507.63	27946.00
507.81	28201.11
507.98	28290.06
508.16	28123.88
508.33	28449.21
508.50	28547.51
508.68	28435.17
508.85	28725.39
509.03	28582.62
509.20	28971.15
509.38	29343.30
509.55	29039.03
509.73	29116.26
509.90	29170.10
510.08	29373.72
510.25	29392.45
510.42	29565.65
510.60	29324.57
510.77	29968.22
510.95	30015.03
511.12	29972.90
511.30	29640.54
511.47	30000.99
511.64	30150.78
511.82	30169.51
511.99	29638.20
512.17	30361.43
512.34	30153.12
512.51	30405.90
512.69	30761.66
512.86	30506.54
513.04	30541.65
513.21	30780.39
513.38	30890.39
513.56	30852.94
513.73	30836.56
513.90	30850.60
514.08	31014.44
514.25	31468.50
514.43	31426.37
514.60	31459.14
514.77	31529.36
514.95	31536.38
515.12	31784.48
515.29	31557.44
515.47	31840.65
515.64	31716.60
515.81	31660.43
515.99	31835.97
516.16	32383.65
516.33	32191.73
516.51	32158.96
516.68	32165.98
516.85	32329.82
517.03	32479.61
517.20	32566.21
517.37	32561.53
517.54	32751.12
517.72	32811.97
517.89	33024.96
518.06	32755.80
518.24	32790.91
518.41	32388.33
518.58	32734.73
518.75	32950.06
518.93	33036.66
519.10	33343.27
519.27	33392.42
519.45	33308.16
519.62	33614.77
519.79	33392.42
519.96	33710.74
520.14	33947.13
520.31	33577.33
520.48	33572.64
520.65	33530.51
520.83	34220.97
521.00	34279.49
521.17	34080.54
521.34	34089.90
521.52	34490.13
521.69	34298.21
521.86	34340.34
522.03	34307.57
522.20	34756.96
522.38	34859.94
522.55	34843.56
522.72	34948.88
522.89	34763.98
523.07	35281.24
523.24	34742.91
523.41	34967.60
523.58	34979.31
523.75	35679.13
523.92	35105.70
524.10	35370.18
524.27	35739.98
524.44	35309.32
524.61	35908.50
524.78	35531.67
524.96	35807.86
525.13	35955.31
525.30	35950.63
525.47	35981.06
525.64	35981.06
525.81	36158.94
525.98	36474.91
526.16	36081.70
526.33	36016.16
526.50	36355.54
526.67	36407.03
526.84	36334.48
527.01	36247.88
527.18	36596.62
527.36	36575.55
527.53	36774.50
527.70	37261.33
527.87	36737.05
528.04	36542.78
528.21	36877.48
528.38	36928.97
528.55	37069.40
528.72	37057.70
528.89	37074.09
529.07	37099.83
529.24	36877.48
529.41	37539.85
529.58	37504.74
529.75	37331.54
529.92	36678.54
530.09	37427.51
530.26	37769.22
530.43	37577.30
530.60	37406.44
530.77	37127.92
530.94	37528.15
531.11	37612.41
531.28	37865.19
531.46	37631.13
531.63	38237.33
531.80	37848.80
531.97	38078.18
532.14	38176.48
532.31	38242.01
532.48	38005.62
532.65	38127.33
532.82	38171.80
532.99	38328.61
533.16	38361.38
533.33	38728.84
533.50	38403.51
533.67	38546.28
533.84	38272.44
534.01	38471.39
534.18	38361.38
534.35	39363.13
534.52	39274.19
534.69	39091.63
534.86	39084.61
535.03	38850.55
535.20	39400.58
535.37	39494.20
535.54	39189.93
535.71	39159.50
535.88	39213.34
536.05	38904.38
536.22	39613.57
536.38	39789.11
536.55	39690.80
536.72	39625.27
536.89	39463.77
537.06	39725.91
537.23	39569.10
537.40	39524.63
537.57	39812.51
537.74	39732.93
537.91	39927.20
538.08	39290.57
538.25	39629.95
538.42	39943.58
538.59	40320.41
538.75	39936.56
538.92	40041.88
539.09	40528.72
539.26	40458.50
539.43	40121.46
539.60	40264.24
539.77	40137.85
539.94	40430.41
540.11	40603.61
540.28	40524.04
540.44	40505.31
540.61	40458.50
540.78	40084.01
540.95	40292.32
541.12	40449.14
541.29	41057.68
541.46	40898.52
541.62	40992.14
541.79	41102.15
541.96	40189.34
542.13	40931.29
542.30	40950.01
542.47	41240.24
542.63	40968.74
542.80	41619.41
542.97	41600.68
543.14	41748.14
543.31	41570.25
543.48	41284.71
543.64	41635.79
543.81	41675.58
543.98	41460.25
544.15	41399.40
544.32	41954.10
544.48	42328.59
544.65	41680.26
544.82	42171.77
544.99	41879.21
545.16	41509.40
545.32	42021.98
545.49	42059.43
545.66	42174.11
545.83	42424.55
546.00	42059.43
546.16	42031.34
546.33	42618.81
546.50	41876.86
546.67	42557.96
546.83	41968.15
547.00	42363.70
547.17	42520.51
547.34	42522.85
547.50	42721.80
547.67	42810.74
547.84	42637.54
548.00	43304.59
548.17	43285.87
548.34	42960.53
548.51	43426.30
548.67	42873.93
548.84	43131.39
549.01	42724.14
549.18	43384.17
549.34	43002.66
549.51	43370.13
549.68	43168.84
549.84	43178.20
550.01	43023.73
550.18	42974.58
550.34	43297.57
550.51	43342.04
550.68	43138.41
550.84	42890.32
551.01	43510.56
551.18	43765.68
551.34	43871.00
551.51	43824.19
551.68	43297.57
551.84	43552.69
552.01	43206.29
552.18	43297.57
552.34	43611.20
552.51	44088.67
552.68	43349.06
552.84	43700.14
553.01	43950.58
553.18	43927.17
553.34	44102.71
553.51	43768.02
553.67	43920.15
553.84	43959.94
554.01	43758.66
554.17	43976.33
554.34	44161.23
554.51	43955.26
554.67	44016.11
554.84	44236.12
555.00	44130.80
555.17	44215.06
555.33	44500.61
555.50	44376.56
555.67	44610.61
555.83	44219.74
556.00	44612.95
556.16	44729.98
556.33	44729.98
556.50	44559.12
556.66	44374.22
556.83	44219.74
556.99	44933.60
557.16	44926.58
557.32	44671.46
557.49	45244.90
557.65	44568.48
557.82	44706.57
557.98	45123.19
558.15	44949.99
558.32	44992.12
558.48	45015.52
558.65	44856.37
558.81	44828.28
558.98	44802.53
559.14	44907.86
559.31	45282.34
559.47	45134.89
559.64	44999.14
559.80	44896.16
559.97	45057.65
560.13	44987.44
560.30	45174.68
560.46	45537.46
560.63	45488.31
560.79	45895.56
560.96	45542.14
561.12	45579.59
561.29	45626.40
561.45	46043.02
561.61	45535.12
561.78	45312.77
561.94	45549.17
562.11	45130.21
562.27	45247.24
562.44	45265.96
562.60	46405.80
562.77	45109.14
562.93	45617.04
563.10	45872.16
563.26	45226.17
563.42	45918.97
563.59	45212.13
563.75	45659.17
563.92	45507.04
564.08	45462.57
564.24	45757.47
564.41	45500.01
564.57	45904.93
564.74	45769.18
564.90	45830.03
565.07	45593.64
565.23	45680.24
565.39	45773.86
565.56	45883.86
565.72	45820.67
565.88	45886.20
566.05	45827.69
566.21	45907.27
566.38	45605.34
566.54	46007.91
566.70	46127.28
566.87	45722.37
567.03	46012.59
567.19	46256.01
567.36	46244.30
567.52	46059.40
567.68	46183.45
567.85	46478.36
568.01	46213.88
568.17	45862.80
568.34	46511.13
568.50	46094.51
568.66	46148.34
568.83	46134.30
568.99	46398.78
569.15	46190.47
569.32	46202.18
569.48	46127.28
569.64	46791.99
569.81	46478.36
569.97	46005.57
570.13	46457.29
570.30	46209.20
570.46	46160.05
570.62	46085.15
570.78	46330.90
570.95	45958.76
571.11	46710.07
571.27	46459.63
571.43	46052.38
571.60	46251.33
571.76	46279.41
571.92	46380.06
572.09	46373.03
572.25	46590.70
572.41	46153.02
572.57	46576.66
572.74	46766.24
572.90	46665.60
573.06	46916.04
573.22	46515.81
573.38	46780.29
573.55	46719.43
573.71	46892.63
573.87	46899.65
574.03	46405.80
574.20	46696.03
574.36	46831.78
574.52	46623.47
574.68	46632.83
574.84	46698.37
575.01	46855.18
575.17	47419.25
575.33	46883.27
575.49	46684.33
575.65	46515.81
575.82	46848.16
575.98	46745.18
576.14	46878.59
576.30	47016.68
576.46	47054.13
576.62	46691.35
576.79	46831.78
576.95	46253.67
577.11	46780.29
577.27	46679.64
577.43	46642.20
577.59	46501.76
577.75	46660.92
577.92	46579.00
578.08	46773.27
578.24	47028.38
578.40	46986.25
578.56	47037.75
578.72	46681.98
578.88	47217.97
579.04	46511.13
579.21	46466.66
579.37	47175.84
579.53	46714.75
579.69	46536.87
579.85	46380.06
580.01	46979.23
580.17	46976.89
580.33	47047.11
580.49	46749.86
580.65	46738.16
580.82	46887.95
580.98	46920.72
581.14	46569.64
581.30	46752.20
581.46	46483.04
581.62	46962.85
581.78	46480.70
581.94	47133.71
582.10	46740.50
582.26	47285.84
582.42	46918.38
582.58	46745.18
582.74	47236.69
582.90	47311.59
583.06	46927.74
583.22	46700.71
583.38	47131.37
583.54	47292.86
583.70	46892.63
583.86	47229.67
584.02	46904.34
584.18	47489.47
584.34	47316.27
584.50	47217.97
584.66	46974.55
584.82	46981.57
584.98	47278.82
585.14	47068.17
585.30	47152.43
585.46	47334.99
585.62	46918.38
585.78	47571.39
585.94	46745.18
586.10	47161.79
586.26	46829.44
586.42	47203.92
586.58	47028.38
586.74	47416.91
586.90	46885.61
587.06	46890.29
587.22	46759.22
587.38	46777.95
587.54	47241.37
587.70	47515.22
587.86	47232.01
588.02	47079.88
588.18	46864.55
588.34	47241.37
588.49	47267.12
588.65	46600.07
588.81	46909.02
588.97	46890.29
589.13	46913.70
589.29	47339.68
589.45	47260.10
589.61	47136.05
589.77	47503.51
589.93	46869.23
590.08	47770.33
