SpectraSuite Data File
++++++++++++++++++++++++++++++++++++
Date: Fri Oct 25 11:25:38 EDT 2013
User: price-jones
Dark Spectrum Present: No
Reference Spectrum Present: No
Number of Sampled Component Spectra: 1
Spectrometers: USB2+H05261
Integration Time (usec): 100000 (USB2+H05261)
Spectra Averaged: 1 (USB2+H05261)
Boxcar Smoothing: 0 (USB2+H05261)
Correct for Electrical Dark: No (USB2+H05261)
Strobe/Lamp Enabled: No (USB2+H05261)
Correct for Detector Non-linearity: No (USB2+H05261)
Correct for Stray Light: No (USB2+H05261)
Number of Pixels in Processed Spectrum: 2048
>>>>>Begin Processed Spectral Data<<<<<
365.73	201.29
365.92	201.29
366.12	201.29
366.32	198.95
366.52	105.32
366.72	128.73
366.91	152.13
367.11	156.82
367.31	100.64
367.51	58.51
367.70	131.07
367.90	159.16
368.10	124.05
368.30	84.26
368.49	149.79
368.69	133.41
368.89	131.07
369.09	100.64
369.28	152.13
369.48	196.60
369.68	168.52
369.87	217.67
370.07	191.92
370.27	205.97
370.47	271.50
370.66	561.73
370.86	664.71
371.06	627.26
371.25	709.18
371.45	669.39
371.65	716.20
371.84	648.33
372.04	671.73
372.24	638.97
372.44	702.16
372.63	662.37
372.83	774.72
373.03	692.80
373.22	692.80
373.42	798.12
373.62	755.99
373.81	870.68
374.01	863.66
374.21	812.17
374.40	819.19
374.60	840.25
374.79	807.48
374.99	821.53
375.19	805.14
375.38	863.66
375.58	877.70
375.78	868.34
375.97	835.57
376.17	922.17
376.37	844.93
376.56	849.61
376.76	882.38
376.95	884.72
377.15	858.98
377.35	870.68
377.54	816.85
377.74	933.87
377.93	884.72
378.13	884.72
378.33	929.19
378.52	856.64
378.72	936.21
378.91	992.39
379.11	870.68
379.31	985.37
379.50	1008.77
379.70	1041.54
379.89	959.62
380.09	901.11
380.28	980.68
380.48	945.58
380.68	926.85
380.87	954.94
381.07	1034.52
381.26	1015.79
381.46	1013.45
381.65	1022.81
381.85	990.05
382.04	1039.20
382.24	985.37
382.43	976.00
382.63	1081.33
382.83	987.71
383.02	1050.90
383.22	1095.37
383.41	1093.03
383.61	1055.58
383.80	1114.10
384.00	1153.88
384.19	1128.14
384.39	1193.67
384.58	1090.69
384.78	1088.35
384.97	1156.22
385.17	1219.42
385.36	1172.61
385.56	1174.95
385.75	1081.33
385.95	1128.14
386.14	1231.12
386.34	1245.16
386.53	1179.63
386.72	1181.97
386.92	1203.04
387.11	1210.06
387.31	1163.25
387.50	1263.89
387.70	1193.67
387.89	1301.34
388.09	1210.06
388.28	1270.91
388.48	1380.92
388.67	1212.40
388.86	1324.74
389.06	1287.29
389.25	1315.38
389.45	1373.89
389.64	1317.72
389.84	1394.96
390.03	1336.45
390.22	1359.85
390.42	1329.42
390.61	1240.48
390.81	1362.19
391.00	1462.83
391.19	1406.66
391.39	1455.81
391.58	1434.75
391.78	1544.75
391.97	1427.73
392.16	1509.65
392.36	1610.29
392.55	1467.52
392.75	1600.93
392.94	1453.47
393.13	1523.69
393.33	1542.41
393.52	1507.30
393.71	1507.30
393.91	1547.09
394.10	1526.03
394.29	1582.20
394.49	1572.84
394.68	1685.19
394.88	1549.43
395.07	1619.65
395.26	1720.29
395.46	1673.48
395.65	1647.74
395.84	1701.57
396.04	1746.04
396.23	1668.80
396.42	1739.02
396.62	1785.83
396.81	1657.10
397.00	1776.47
397.19	1732.00
397.39	1764.76
397.58	1778.81
397.77	1898.17
397.97	1858.39
398.16	1830.30
398.35	1942.64
398.55	1816.26
398.74	1839.66
398.93	1907.54
399.12	1905.20
399.32	1837.32
399.51	1937.96
399.70	2071.37
399.90	1909.88
400.09	2071.37
400.28	1991.80
400.47	1937.96
400.67	2092.44
400.86	2165.00
401.05	2071.37
401.24	2118.18
401.44	2094.78
401.63	2118.18
401.82	2118.18
402.01	2094.78
402.21	2090.10
402.40	2155.63
402.59	2202.44
402.78	2333.51
402.97	2111.16
403.17	2232.87
403.36	2352.24
403.55	2284.36
403.74	2340.54
403.93	2277.34
404.13	2401.39
404.32	2408.41
404.51	2431.82
404.70	2392.03
404.89	2253.94
405.09	2480.97
405.28	2492.67
405.47	2443.52
405.66	2644.81
405.85	2548.84
406.05	2499.69
406.24	2513.74
406.43	2513.74
406.62	2607.36
406.81	2628.42
407.00	2567.57
407.20	2560.55
407.39	2555.86
407.58	2747.79
407.77	2698.64
407.96	2789.92
408.15	2705.66
408.34	2686.94
408.54	2724.38
408.73	2846.09
408.92	2780.56
409.11	2813.32
409.30	2913.97
409.49	2792.26
409.68	3012.27
409.87	2906.95
410.07	2988.86
410.26	3019.29
410.45	2991.20
410.64	2986.52
410.83	3138.66
411.02	3180.79
411.21	3176.11
411.40	3101.21
411.59	3152.70
411.78	3239.30
411.98	3248.66
412.17	3222.92
412.36	3375.05
412.55	3311.86
412.74	3311.86
412.93	3255.69
413.12	3328.24
413.31	3545.91
413.50	3440.59
413.69	3482.72
413.88	3597.40
414.07	3679.32
414.26	3536.55
414.45	3604.42
414.64	3597.40
414.83	3667.62
415.02	3695.71
415.22	3784.65
415.41	3857.20
415.60	3852.52
415.79	3990.61
415.98	4074.87
416.17	3831.46
416.36	3922.74
416.55	4021.04
416.74	4163.81
416.93	3892.31
417.12	4056.15
417.31	4044.45
417.50	4140.41
417.69	4367.44
417.88	4257.43
418.07	4322.97
418.26	4341.69
418.45	4241.05
418.64	4430.63
418.83	4493.83
419.02	4320.63
419.21	4622.56
419.39	4573.41
419.58	4421.27
419.77	4376.80
419.96	4615.54
420.15	4533.62
420.34	4645.96
420.53	4596.81
420.72	4678.73
420.91	4739.58
421.10	4732.56
421.29	4844.91
421.48	4519.57
421.67	4652.98
421.86	4681.07
422.05	4903.42
422.24	4699.80
422.43	4870.65
422.61	4837.89
422.80	5064.92
422.99	4889.38
423.18	4741.93
423.37	4992.36
423.56	4849.59
423.75	4819.16
423.94	4812.14
424.13	4557.02
424.32	4678.73
424.50	5029.81
424.69	5097.69
424.88	5130.45
425.07	4863.63
425.26	4828.53
425.45	4905.76
425.64	4954.91
425.83	4978.32
426.01	5123.43
426.20	4959.60
426.39	5027.47
426.58	5109.39
426.77	5048.54
426.96	5203.01
427.15	5055.56
427.33	5221.74
427.52	5074.28
427.71	5259.18
427.90	5177.26
428.09	5275.57
428.28	5453.45
428.46	5184.29
428.65	5207.69
428.84	5486.22
429.03	5392.59
429.22	5392.59
429.40	5584.52
429.59	5460.47
429.78	5247.48
429.97	5336.42
430.16	5317.70
430.34	5493.24
430.53	5516.64
430.72	5544.73
430.91	5689.84
431.10	5479.19
431.28	5720.27
431.47	5907.51
431.66	5755.38
431.85	5708.57
432.03	5949.64
432.22	6106.46
432.41	5879.43
432.60	5841.98
432.79	5921.56
432.97	6108.80
433.16	6061.99
433.35	5863.04
433.54	5926.24
433.72	6176.67
433.91	6106.46
434.10	6146.25
434.28	6022.20
434.47	6061.99
434.66	6045.60
434.85	6244.55
435.03	6270.30
435.22	6314.77
435.41	6375.62
435.59	6417.75
435.78	6417.75
435.97	6434.13
436.16	6417.75
436.34	6373.28
436.53	6424.77
436.72	6635.42
436.90	6445.84
437.09	6630.74
437.28	6544.14
437.46	6469.24
437.65	6747.76
437.84	6731.38
438.02	6965.43
438.21	6682.23
438.40	6586.27
438.58	6904.58
438.77	6993.52
438.96	6738.40
439.14	6937.35
439.33	7080.12
439.52	7199.49
439.70	7115.23
439.89	7187.79
440.08	7232.26
440.26	7400.77
440.45	7260.34
440.63	7248.64
440.82	7581.00
441.01	7559.93
441.19	7555.25
441.38	7573.97
441.57	7658.23
441.75	7822.07
441.94	7894.63
442.12	7812.71
442.31	7955.48
442.50	8072.51
442.68	7943.78
442.87	7978.89
443.05	8037.40
443.24	8290.18
443.43	8060.80
443.61	8163.79
443.80	8224.64
443.98	8056.12
444.17	7892.29
444.35	8339.33
444.54	8348.69
444.73	8226.98
444.91	8264.43
445.10	8285.50
445.28	8175.49
445.47	8189.53
445.65	8203.58
445.84	8362.73
446.02	8372.10
446.21	8507.85
446.39	8292.52
446.58	8381.46
446.77	8402.52
446.95	8369.76
447.14	8517.21
447.32	8706.79
447.51	8582.74
447.69	8575.72
447.88	8463.38
448.06	8568.70
448.25	8547.64
448.43	8432.95
448.62	8641.26
448.80	8358.05
448.99	8847.22
449.17	8765.31
449.36	8493.80
449.54	8615.51
449.73	8905.74
449.91	8917.44
450.10	8936.17
450.28	9013.40
450.46	8922.12
450.65	8985.32
450.83	9092.98
451.02	9198.31
451.20	9167.88
451.39	9074.26
451.57	9144.47
451.76	9057.87
451.94	9004.04
452.13	9341.08
452.31	9273.20
452.49	9043.83
452.68	9282.56
452.86	9107.02
453.05	9137.45
453.23	9497.89
453.42	9404.27
453.60	9240.44
453.78	9460.45
453.97	9444.06
454.15	9483.85
454.34	9551.73
454.52	9757.69
454.70	9837.27
454.89	9877.06
455.07	9657.05
455.26	9753.01
455.44	9891.10
455.62	9750.67
455.81	10068.98
455.99	9825.57
456.17	9958.98
456.36	10073.67
456.54	10207.08
456.73	10193.03
456.91	10382.62
457.09	10403.68
457.28	10459.85
457.46	10197.71
457.64	10569.86
457.83	10530.07
458.01	10541.77
458.19	10719.65
458.38	10321.76
458.56	10801.57
458.74	10654.12
458.93	10775.83
459.11	10644.76
459.29	10745.40
459.48	10663.48
459.66	10789.87
459.84	10839.02
460.03	11068.39
460.21	10810.93
460.39	11183.08
460.57	11103.50
460.76	11124.57
460.94	11215.85
461.12	11115.20
461.31	11295.43
461.49	11030.94
461.67	11131.59
461.85	11459.26
462.04	11274.36
462.22	11798.64
462.40	11637.14
462.59	11569.27
462.77	11485.01
462.95	11602.04
463.13	11377.34
463.32	11433.52
463.50	11756.51
463.68	11662.89
463.86	11763.53
464.05	11803.32
464.23	11700.34
464.41	11866.52
464.59	11679.27
464.78	12102.91
464.96	11981.20
465.14	12004.61
465.32	12306.54
465.50	12028.01
465.69	12175.47
465.87	11985.88
466.05	11992.90
466.23	12063.12
466.41	12100.57
466.60	12606.13
466.78	12208.23
466.96	12215.26
467.14	12145.04
467.32	12273.77
467.51	12507.82
467.69	12072.48
467.87	12358.03
468.05	12526.55
468.23	12123.98
468.41	12273.77
468.60	12746.56
468.78	12524.21
468.96	12468.03
469.14	12786.35
469.32	12908.05
469.50	12730.17
469.69	13011.04
469.87	13011.04
470.05	13074.23
470.23	13146.79
470.41	13039.12
470.59	13362.12
470.77	13050.83
470.95	13130.41
471.14	13469.78
471.32	13467.44
471.50	13547.02
471.68	13745.97
471.86	13472.12
472.04	13614.90
472.22	13998.74
472.40	13769.37
472.58	13708.52
472.77	14033.85
472.95	13930.87
473.13	14352.16
473.31	14090.02
473.49	14221.10
473.67	14050.24
473.85	14216.41
474.03	14501.96
474.21	14740.69
474.39	14857.72
474.57	14728.99
474.75	14895.17
474.93	14991.13
475.12	15009.86
475.30	15014.54
475.48	15051.99
475.66	14958.36
475.84	14883.47
476.02	15161.99
476.20	15559.88
476.38	15716.70
476.56	16077.14
476.74	15910.96
476.92	15796.28
477.10	15716.70
477.28	16606.10
477.46	16173.10
477.64	16381.41
477.82	16585.04
478.00	16992.29
478.18	16760.58
478.36	16732.49
478.54	16926.75
478.72	16964.20
478.90	17336.35
479.08	17355.07
479.26	17617.21
479.44	17521.25
479.62	17783.39
479.80	18068.94
479.98	17958.93
480.16	18633.00
480.34	18171.92
480.52	18527.68
480.70	18815.57
480.88	18436.40
481.06	18618.96
481.24	18855.36
481.41	19253.25
481.59	19393.68
481.77	19360.91
481.95	19295.38
482.13	19679.22
482.31	19576.24
482.49	20116.90
482.67	19831.36
482.85	20297.13
483.03	20641.18
483.21	20580.33
483.39	20900.98
483.57	20769.91
483.74	20915.03
483.92	21352.71
484.10	21216.96
484.28	21549.31
484.46	21762.30
484.64	22434.03
484.82	21774.00
485.00	22169.55
485.18	23002.78
485.35	22792.14
485.53	22860.01
485.71	23056.62
485.89	23344.50
486.07	23073.00
486.25	23473.23
486.43	23634.73
486.61	23470.89
486.78	24011.56
486.96	24034.96
487.14	24680.95
487.32	24599.03
487.50	24922.02
487.68	25034.37
487.85	25394.81
488.03	25289.49
488.21	25738.87
488.39	25752.91
488.57	25710.78
488.75	25989.31
488.92	26469.12
489.10	26923.18
489.28	26455.08
489.46	27016.80
489.64	27061.27
489.81	27571.51
489.99	27672.15
490.17	27363.20
490.35	28119.20
490.53	28151.96
490.70	28491.34
490.88	27962.38
491.06	28591.98
491.24	28797.95
491.41	28737.10
491.59	28978.17
491.77	29312.87
491.95	29317.55
492.13	29605.44
492.30	30029.07
492.48	29874.60
492.66	30321.64
492.84	30263.13
493.01	30499.52
493.19	30569.74
493.37	30703.15
493.54	30658.68
493.72	31433.39
493.90	31283.60
494.08	31578.51
494.25	32196.41
494.43	31992.78
494.61	32217.47
494.79	32226.84
494.96	32271.31
495.14	32737.07
495.32	32847.08
495.49	32940.70
495.67	32938.36
495.85	33624.14
496.02	33886.28
496.20	33809.04
496.38	33750.52
496.55	34087.56
496.73	34660.99
496.91	34160.12
497.09	34976.97
497.26	34969.94
497.44	34604.82
497.62	35309.32
497.79	35374.86
497.97	35016.75
498.14	35828.92
498.32	35899.14
498.50	35971.69
498.67	36563.85
498.85	36357.88
499.03	36467.89
499.20	36804.92
499.38	36645.77
499.56	36648.11
499.73	37118.56
499.91	37202.82
500.08	37422.83
500.26	37050.68
500.44	37968.17
500.61	37738.80
500.79	37722.41
500.97	37783.27
501.14	38157.75
501.32	38242.01
501.49	38389.47
501.67	38277.12
501.84	38937.15
502.02	38347.34
502.20	39143.12
502.37	39468.45
502.55	38925.45
502.72	39459.09
502.90	39597.18
503.07	39051.84
503.25	39548.03
503.43	39512.92
503.60	40053.59
503.78	40421.05
503.95	39913.16
504.13	40151.89
504.30	40830.65
504.48	40325.09
504.65	40758.09
504.83	40786.18
505.01	41179.39
505.18	41474.29
505.36	41476.63
505.53	40999.16
505.71	41455.57
505.88	41493.02
506.06	40914.90
506.23	41425.14
506.41	41727.07
506.58	41897.93
506.76	42031.34
506.93	42616.47
507.11	41930.70
507.28	42337.95
507.46	42724.14
507.63	42623.50
507.81	43253.10
507.98	42906.70
508.16	43222.67
508.33	43325.66
508.50	43241.40
508.68	43484.81
508.85	43934.20
509.03	43665.03
509.20	43971.64
509.38	44360.17
509.55	44411.67
509.73	44479.54
509.90	44603.59
510.08	43955.26
510.25	44357.83
510.42	44636.36
510.60	44765.09
510.77	45151.27
510.95	45153.62
511.12	44718.28
511.30	45216.81
511.47	45535.12
511.64	45743.43
511.82	46171.75
511.99	45394.69
512.17	45640.45
512.34	45544.48
512.51	45970.46
512.69	46607.09
512.86	46401.12
513.04	46635.17
513.21	46429.21
513.38	46569.64
513.56	46492.40
513.73	47049.45
513.90	46918.38
514.08	46564.96
514.25	47079.88
514.43	47023.70
514.60	47487.13
514.77	47215.63
514.95	47349.04
515.12	47093.92
515.29	47154.77
515.47	47775.02
515.64	47828.85
515.81	47885.02
515.99	47915.45
516.16	48355.47
516.33	48374.19
516.51	48587.18
516.68	48175.25
516.85	48306.32
517.03	48624.63
517.20	48802.51
517.37	48594.20
517.54	48898.47
517.72	49031.88
517.89	49062.31
518.06	49235.51
518.24	49160.61
518.41	49158.27
518.58	48818.89
518.75	49064.65
518.93	49469.56
519.10	49251.89
519.27	49811.28
519.45	49418.07
519.62	49640.42
519.79	49918.95
519.96	49937.67
520.14	49918.95
520.31	49867.45
520.48	50160.02
520.65	50265.34
520.83	50375.35
521.00	50499.40
521.17	50543.87
521.34	50466.63
521.52	50843.46
521.69	50979.21
521.86	50817.71
522.03	50988.57
522.20	51260.07
522.38	51480.08
522.55	50876.22
522.72	51112.62
522.89	51241.35
523.07	51426.25
523.24	51327.95
523.41	51489.45
523.58	51166.45
523.75	51650.94
523.92	51702.43
524.10	51662.64
524.27	51964.57
524.44	51901.38
524.61	52072.24
524.78	51962.23
524.96	52229.05
525.13	52030.11
525.30	51952.87
525.47	52353.10
525.64	52399.91
525.81	52416.30
525.98	52638.65
526.16	52329.70
526.33	52811.85
526.50	53027.18
526.67	52781.42
526.84	52938.24
527.01	52942.92
527.18	52825.89
527.36	52910.15
527.53	53006.11
527.70	53326.77
527.87	53319.74
528.04	53308.04
528.21	53275.27
528.38	53017.82
528.55	53230.80
528.72	53338.47
528.89	53340.81
529.07	53226.12
529.24	53188.67
529.41	53518.69
529.58	53439.11
529.75	53755.08
529.92	53488.26
530.09	53822.96
530.26	53844.02
530.43	53937.65
530.60	53710.61
530.77	53506.99
530.94	53989.14
531.11	53862.75
531.28	54246.60
531.46	54115.53
531.63	54403.41
531.80	54089.78
531.97	54635.13
532.14	54440.86
532.31	54288.73
532.48	54480.65
532.65	54485.33
532.82	54253.62
532.99	54464.27
533.16	54354.26
533.33	54782.58
533.50	54976.84
533.67	54738.11
533.84	54700.66
534.01	54775.56
534.18	54923.01
534.35	54997.91
534.52	54677.25
534.69	54890.24
534.86	54976.84
535.03	54981.52
535.20	55084.51
535.37	54934.71
535.54	55316.22
535.71	54937.05
535.88	55426.23
536.05	55402.82
536.22	55538.57
536.38	55451.97
536.55	55601.77
536.72	55426.23
536.89	55440.27
537.06	55386.44
537.23	55803.05
537.40	55498.78
537.57	55634.53
537.74	55653.26
537.91	55894.33
538.08	55618.15
538.25	55386.44
538.42	55835.82
538.59	55978.59
538.75	55863.91
538.92	55964.55
539.09	56009.02
539.26	56011.36
539.43	55922.42
539.60	56037.11
539.77	56004.34
539.94	56327.33
540.11	56219.67
540.28	56313.29
540.44	56266.48
540.61	56399.89
540.78	56332.01
540.95	56324.99
541.12	56259.46
541.29	56308.61
541.46	56388.19
541.62	56636.28
541.79	56495.85
541.96	56350.74
542.13	56371.80
542.30	56479.47
542.47	56643.30
542.63	56697.14
542.80	56807.14
542.97	57015.45
543.14	57153.54
543.31	57102.05
543.48	57055.24
543.64	57352.49
543.81	57277.59
543.98	57195.67
544.15	57303.34
544.32	57317.38
544.48	57509.30
544.65	57326.74
544.82	57460.15
544.99	57172.27
545.16	57631.01
545.32	57190.99
545.49	57544.41
545.66	57642.71
545.83	57457.81
546.00	57712.93
546.16	57352.49
546.33	57684.84
546.50	57535.05
546.67	57712.93
546.83	57308.02
547.00	57588.88
547.17	57457.81
547.34	57588.88
547.50	58054.65
547.67	57996.13
547.84	58012.52
548.00	58014.86
548.17	58244.23
548.34	58106.14
548.51	58265.30
548.67	58127.20
548.84	57890.81
549.01	57949.32
549.18	57963.37
549.34	57867.40
549.51	58071.03
549.68	58403.39
549.84	58136.57
550.01	58251.25
550.18	58145.93
550.34	58321.47
550.51	58518.07
550.68	58199.76
550.84	58319.13
551.01	58450.20
551.18	58286.36
551.34	58475.94
551.51	58300.40
551.68	58454.88
551.84	58653.82
552.01	58356.58
552.18	58377.64
552.34	58323.81
552.51	58770.85
552.68	58391.68
552.84	58731.06
553.01	58869.15
553.18	58616.38
553.34	58812.98
553.51	58574.25
553.67	58665.53
553.84	58997.88
554.01	58761.49
554.17	58817.66
554.34	59054.06
554.51	58937.03
554.67	58892.56
554.84	59016.61
555.00	58962.78
555.17	58974.48
555.33	58883.20
555.50	58983.84
555.67	58691.27
555.83	59042.35
556.00	59220.23
556.16	59437.90
556.33	59238.96
556.50	59004.91
556.66	59295.13
556.83	58927.67
556.99	59372.37
557.16	59400.46
557.32	59435.56
557.49	59526.84
557.65	59325.56
557.82	59206.19
557.98	59334.92
558.15	59220.23
558.32	59473.01
558.48	59433.22
558.65	59480.03
558.81	59313.86
558.98	59402.80
559.14	59451.95
559.31	59664.94
559.47	59465.99
559.64	59458.97
559.80	59566.63
559.97	59653.23
560.13	59348.96
560.30	59571.32
560.46	59714.09
560.63	59671.96
560.79	59812.39
560.96	59674.30
561.12	59641.53
561.29	59700.04
561.45	59700.04
561.61	59613.44
561.78	59767.92
561.94	59739.83
562.11	59618.13
562.27	59760.90
562.44	59828.77
562.60	60046.44
562.77	59957.50
562.93	59788.98
563.10	59924.74
563.26	59779.62
563.42	60217.30
563.59	59992.61
563.75	59938.78
563.92	59983.25
564.08	59767.92
564.24	60114.32
564.41	60093.25
564.57	60186.88
564.74	60158.79
564.90	60004.31
565.07	59915.37
565.23	59955.16
565.39	59999.63
565.56	60065.17
565.72	59915.37
565.88	60170.49
566.05	60034.74
566.21	60074.53
566.38	60102.62
566.54	60100.28
566.70	60350.71
566.87	60280.50
567.03	59952.82
567.19	60273.48
567.36	60142.41
567.52	60207.94
567.68	60530.93
567.85	60233.69
568.01	60346.03
568.17	60184.54
568.34	60498.17
568.50	60186.88
568.66	60498.17
568.83	60444.33
568.99	60086.23
569.15	60427.95
569.32	60285.18
569.48	60282.84
569.64	60481.78
569.81	60537.96
569.97	60121.34
570.13	60481.78
570.30	60360.08
570.46	60348.37
570.62	60516.89
570.78	60378.80
570.95	60191.56
571.11	60498.17
571.27	60514.55
571.43	60301.56
571.60	60690.09
571.76	60685.41
571.92	60580.09
572.09	60537.96
572.25	60439.65
572.41	60161.13
572.57	60589.45
572.74	60800.10
572.90	60378.80
573.06	60547.32
573.22	60582.43
573.38	60715.84
573.55	60540.30
573.71	60800.10
573.87	60687.75
574.03	60580.09
574.20	60544.98
574.36	60530.93
574.52	60608.17
574.68	60769.67
574.84	60884.36
575.01	60877.33
575.17	60514.55
575.33	60575.40
575.49	60465.40
575.65	60664.35
575.82	60736.90
575.98	60612.85
576.14	61024.79
576.30	60811.80
576.46	60617.53
576.62	60781.37
576.79	60694.77
576.95	60605.83
577.11	60711.16
577.27	60624.56
577.43	60856.27
577.59	60650.30
577.75	60650.30
577.92	60692.43
578.08	60612.85
578.24	60818.82
578.40	60722.86
578.56	60856.27
578.72	60830.52
578.88	60762.65
579.04	61130.11
579.21	60715.84
579.37	61038.83
579.53	60856.27
579.69	60573.06
579.85	60470.08
580.01	60774.35
580.17	60617.53
580.33	60973.30
580.49	60898.40
580.65	61066.92
580.82	61092.66
580.98	60788.39
581.14	60673.71
581.30	60870.31
581.46	60914.78
581.62	60898.40
581.78	60945.21
581.94	60872.65
582.10	60587.11
582.26	60666.69
582.42	60743.92
582.58	60711.16
582.74	61045.85
582.90	60865.63
583.06	60874.99
583.22	60638.60
583.38	61024.79
583.54	60720.52
583.70	60914.78
583.86	60823.50
584.02	60839.89
584.18	61069.26
584.34	60919.46
584.50	60912.44
584.66	60893.72
584.82	60837.54
584.98	60982.66
585.14	60877.33
585.30	60889.04
585.46	60872.65
585.62	61029.47
585.78	61003.72
585.94	60893.72
586.10	60985.00
586.26	61034.15
586.42	61052.87
586.58	60889.04
586.74	61029.47
586.90	60914.78
587.06	60882.02
587.22	60933.51
587.38	61045.85
587.54	61076.28
587.70	61113.73
587.86	61095.00
588.02	60870.31
588.18	61013.08
588.34	60924.14
588.49	61174.58
