SpectraSuite Data File
++++++++++++++++++++++++++++++++++++
Date: Fri Oct 25 11:23:27 EDT 2013
User: price-jones
Dark Spectrum Present: No
Reference Spectrum Present: No
Number of Sampled Component Spectra: 1
Spectrometers: USB2+H05261
Integration Time (usec): 100000 (USB2+H05261)
Spectra Averaged: 1 (USB2+H05261)
Boxcar Smoothing: 0 (USB2+H05261)
Correct for Electrical Dark: No (USB2+H05261)
Strobe/Lamp Enabled: No (USB2+H05261)
Correct for Detector Non-linearity: No (USB2+H05261)
Correct for Stray Light: No (USB2+H05261)
Number of Pixels in Processed Spectrum: 2048
>>>>>Begin Processed Spectral Data<<<<<
365.73	236.39
365.92	236.39
366.12	236.39
366.32	88.94
366.52	149.79
366.72	170.86
366.91	147.45
367.11	110.01
367.31	105.32
367.51	126.39
367.70	114.69
367.90	152.13
368.10	107.66
368.30	112.35
368.49	14.04
368.69	198.95
368.89	182.56
369.09	119.37
369.28	170.86
369.48	191.92
369.68	203.63
369.87	175.54
370.07	196.60
370.27	234.05
370.47	297.25
370.66	613.22
370.86	573.43
371.06	657.69
371.25	725.57
371.45	596.84
371.65	662.37
371.84	683.44
372.04	662.37
372.24	678.76
372.44	692.80
372.63	767.70
372.83	723.23
373.03	763.01
373.22	798.12
373.42	704.50
373.62	734.93
373.81	840.25
374.01	842.59
374.21	774.72
374.40	835.57
374.60	819.19
374.79	805.14
374.99	828.55
375.19	821.53
375.38	837.91
375.58	816.85
375.78	823.87
375.97	858.98
376.17	931.53
376.37	912.81
376.56	910.47
376.76	903.45
376.95	887.06
377.15	908.13
377.35	901.11
377.54	912.81
377.74	884.72
377.93	889.40
378.13	854.30
378.33	929.19
378.52	952.60
378.72	908.13
378.91	961.96
379.11	957.28
379.31	1004.09
379.50	912.81
379.70	994.73
379.89	1081.33
380.09	990.05
380.28	943.24
380.48	978.34
380.68	945.58
380.87	976.00
381.07	966.64
381.26	1142.18
381.46	980.68
381.65	994.73
381.85	1146.86
382.04	997.07
382.24	1076.65
382.43	1109.41
382.63	1118.78
382.83	1095.37
383.02	1064.94
383.22	1203.04
383.41	1107.07
383.61	1069.62
383.80	1074.31
384.00	1018.13
384.19	1156.22
384.39	1076.65
384.58	1062.60
384.78	1104.73
384.97	1111.75
385.17	1139.84
385.36	1062.60
385.56	1074.31
385.75	1050.90
385.95	1144.52
386.14	1233.46
386.34	1160.91
386.53	1214.74
386.72	1217.08
386.92	1235.80
387.11	1245.16
387.31	1167.93
387.50	1226.44
387.70	1273.25
387.89	1210.06
388.09	1263.89
388.28	1188.99
388.48	1299.00
388.67	1273.25
388.86	1247.51
389.06	1406.66
389.25	1444.11
389.45	1448.79
389.64	1287.29
389.84	1380.92
390.03	1336.45
390.22	1425.39
390.42	1399.64
390.61	1366.87
390.81	1322.40
391.00	1479.22
391.19	1434.75
391.39	1497.94
391.58	1439.43
391.78	1460.49
391.97	1533.05
392.16	1493.26
392.36	1544.75
392.55	1397.30
392.75	1554.12
392.94	1540.07
393.13	1514.33
393.33	1523.69
393.52	1603.27
393.71	1610.29
393.91	1605.61
394.10	1603.27
394.29	1572.84
394.49	1535.39
394.68	1596.25
394.88	1657.10
395.07	1575.18
395.26	1528.37
395.46	1624.33
395.65	1687.53
395.84	1713.27
396.04	1797.53
396.23	1650.08
396.42	1776.47
396.62	1675.82
396.81	1846.68
397.00	1727.32
397.19	1832.64
397.39	1799.87
397.58	1851.36
397.77	1916.90
397.97	1842.00
398.16	1764.76
398.35	1886.47
398.55	1863.07
398.74	1921.58
398.93	2015.20
399.12	1886.47
399.32	1914.56
399.51	1914.56
399.70	2052.65
399.90	1949.67
400.09	2003.50
400.28	1982.43
400.47	1996.48
400.67	2090.10
400.86	2043.29
401.05	2026.90
401.24	2169.68
401.44	2169.68
401.63	2111.16
401.82	2033.93
402.01	2169.68
402.21	2136.91
402.40	2099.46
402.59	2190.74
402.78	2237.55
402.97	2303.09
403.17	2270.32
403.36	2207.13
403.55	2321.81
403.74	2263.30
403.93	2436.50
404.13	2363.94
404.32	2370.96
404.51	2408.41
404.70	2497.35
404.89	2429.48
405.09	2480.97
405.28	2441.18
405.47	2438.84
405.66	2600.34
405.85	2511.39
406.05	2457.56
406.24	2478.63
406.43	2518.42
406.62	2490.33
406.81	2663.53
407.00	2595.65
407.20	2513.74
407.39	2658.85
407.58	2799.28
407.77	2832.05
407.96	2885.88
408.15	2722.04
408.34	2782.90
408.54	2794.60
408.73	2846.09
408.92	2794.60
409.11	2825.03
409.30	2860.13
409.49	2923.33
409.68	2949.08
409.87	2895.24
410.07	3023.97
410.26	2963.12
410.45	3005.25
410.64	3002.91
410.83	3150.36
411.02	3110.57
411.21	3220.58
411.40	3297.81
411.59	3131.64
411.78	3148.02
411.98	3398.46
412.17	3384.41
412.36	3204.19
412.55	3311.86
412.74	3314.20
412.93	3288.45
413.12	3375.05
413.31	3548.25
413.50	3382.07
413.69	3407.82
413.88	3461.65
414.07	3428.88
414.26	3646.55
414.45	3698.05
414.64	3761.24
414.83	3782.31
415.02	3740.18
415.22	3845.50
415.41	3918.06
415.60	4002.32
415.79	3943.80
415.98	3941.46
416.17	3955.51
416.36	3918.06
416.55	3978.91
416.74	3999.98
416.93	4053.81
417.12	4023.38
417.31	4112.32
417.50	4175.52
417.69	4236.37
417.88	4257.43
418.07	4175.52
418.26	4320.63
418.45	4468.08
418.64	4437.66
418.83	4400.21
419.02	4421.27
419.21	4482.13
419.39	4606.17
419.58	4447.02
419.77	4362.76
419.96	4578.09
420.15	4772.35
420.34	4622.56
420.53	4674.05
420.72	4716.18
420.91	4685.75
421.10	4760.65
421.29	4746.61
421.48	4629.58
421.67	4760.65
421.86	4823.84
422.05	4741.93
422.24	4727.88
422.43	4716.18
422.61	4947.89
422.80	4938.53
422.99	4711.50
423.18	4891.72
423.37	4901.08
423.56	4966.62
423.75	4858.95
423.94	4816.82
424.13	4538.30
424.32	4767.67
424.50	5027.47
424.69	5081.30
424.88	4961.94
425.07	4870.65
425.26	5011.09
425.45	4983.00
425.64	4938.53
425.83	4940.87
426.01	5027.47
426.20	4908.10
426.39	4926.83
426.58	5011.09
426.77	4873.00
426.96	5256.84
427.15	5226.42
427.33	5249.82
427.52	5317.70
427.71	5303.65
427.90	5167.90
428.09	5165.56
428.28	5277.91
428.46	5392.59
428.65	5355.15
428.84	5446.43
429.03	5523.66
429.22	5210.03
429.40	5582.18
429.59	5343.44
429.78	5245.14
429.97	5329.40
430.16	5479.19
430.34	5631.33
430.53	5710.91
430.72	5474.51
430.91	5680.48
431.10	5643.03
431.28	5661.76
431.47	5734.31
431.66	5797.51
431.85	5743.67
432.03	5921.56
432.22	5844.32
432.41	5884.11
432.60	5893.47
432.79	6029.22
432.97	6094.76
433.16	5841.98
433.35	5949.64
433.54	6061.99
433.72	6012.84
433.91	6111.14
434.10	6176.67
434.28	6253.91
434.47	6099.44
434.66	6223.48
434.85	6293.70
435.03	6342.85
435.22	6317.11
435.41	6548.82
435.59	6382.64
435.78	6614.35
435.97	6583.93
436.16	6429.45
436.34	6457.54
436.53	6363.92
436.72	6609.67
436.90	6504.35
437.09	6670.53
437.28	6441.15
437.46	6502.01
437.65	6539.46
437.84	6801.60
438.02	6771.17
438.21	6832.02
438.40	6757.13
438.58	6876.49
438.77	6970.12
438.96	6803.94
439.14	7159.70
439.33	7119.91
439.52	7075.44
439.70	7103.53
439.89	7475.67
440.08	7269.70
440.26	7330.56
440.45	7314.17
440.63	7456.95
440.82	7529.50
441.01	7485.03
441.19	7658.23
441.38	7728.45
441.57	7873.56
441.75	7803.35
441.94	7936.76
442.12	8025.70
442.31	8042.08
442.50	8149.75
442.68	8032.72
442.87	8116.98
443.05	8044.42
443.24	8294.86
443.43	8105.28
443.61	8262.09
443.80	8425.93
443.98	8060.80
444.17	7906.33
444.35	8212.94
444.54	8332.31
444.73	8133.36
444.91	8404.86
445.10	8329.97
445.28	8243.37
445.47	8217.62
445.65	8418.91
445.84	8465.72
446.02	8620.19
446.21	8407.20
446.39	8369.76
446.58	8407.20
446.77	8585.08
446.95	8152.09
447.14	8222.30
447.32	8540.61
447.51	8587.43
447.69	8592.11
447.88	8372.10
448.06	8489.12
448.25	8521.89
448.43	8683.39
448.62	8772.33
448.80	8573.38
448.99	8716.16
449.17	8746.58
449.36	8676.37
449.54	8877.65
449.73	8898.72
449.91	8952.55
450.10	8861.27
450.28	9130.43
450.46	9205.33
450.65	9254.48
450.83	9146.81
451.02	9025.11
451.20	9214.69
451.39	9177.24
451.57	9135.11
451.76	9235.75
451.94	9179.58
452.13	9394.91
452.31	9273.20
452.49	9071.92
452.68	9329.38
452.86	9455.76
453.05	9430.02
453.23	9434.70
453.42	9312.99
453.60	9437.04
453.78	9556.41
453.97	9378.53
454.15	9549.39
454.34	9568.11
454.52	9596.20
454.70	9767.06
454.89	9507.26
455.07	9816.21
455.26	9638.33
455.44	9872.38
455.62	9680.46
455.81	10169.63
455.99	10319.42
456.17	10218.78
456.36	10087.71
456.54	10270.27
456.73	10363.89
456.91	10504.32
457.09	10331.12
457.28	10459.85
457.46	10291.34
457.64	10335.81
457.83	10541.77
458.01	10534.75
458.19	10668.16
458.38	10677.52
458.56	10560.50
458.74	10516.03
458.93	10796.89
459.11	10841.36
459.29	10768.80
459.48	10682.20
459.66	10885.83
459.84	10864.77
460.03	11159.67
460.21	11103.50
460.39	10981.79
460.57	10920.94
460.76	11154.99
460.94	10972.43
461.12	11253.30
461.31	11204.14
461.49	11173.72
461.67	11311.81
461.85	11445.22
462.04	11314.15
462.22	11543.52
462.40	11517.78
462.59	11332.87
462.77	11147.97
462.95	11543.52
463.13	11557.57
463.32	11719.06
463.50	11882.90
463.68	11859.49
463.86	11803.32
464.05	11744.81
464.23	11824.39
464.41	12030.35
464.59	11779.92
464.78	12184.83
464.96	11920.35
465.14	11819.71
465.32	11995.25
465.50	12175.47
465.69	12322.92
465.87	12264.41
466.05	12257.39
466.23	12170.79
466.41	12327.60
466.60	12418.88
466.78	12355.69
466.96	12028.01
467.14	12264.41
467.32	12645.91
467.51	12657.62
467.69	12236.32
467.87	12751.24
468.05	12840.18
468.23	12489.10
468.41	12435.27
468.60	12657.62
468.78	12926.78
468.96	12603.78
469.14	12837.84
469.32	13069.55
469.50	12786.35
469.69	12690.38
469.87	13221.69
470.05	12961.89
470.23	13195.94
470.41	13046.15
470.59	13303.60
470.77	12915.08
470.95	13371.48
471.14	13689.79
471.32	13151.47
471.50	13582.13
471.68	13537.66
471.86	13584.47
472.04	13912.14
472.22	14260.88
472.40	13701.50
472.58	13549.36
472.77	14068.96
472.95	14216.41
473.13	14406.00
473.31	14139.18
473.49	14122.79
473.67	14010.45
473.85	14361.53
474.03	14565.15
474.21	14445.79
474.39	14881.13
474.57	14750.06
474.75	14766.44
474.93	15030.92
475.12	15321.15
475.30	15206.46
475.48	15112.84
475.66	15356.25
475.84	15255.61
476.02	15337.53
476.20	15288.38
476.38	15630.10
476.56	16039.69
476.74	15871.17
476.92	16060.76
477.10	15847.77
477.28	16273.74
477.46	16229.27
477.64	16294.81
477.82	16463.33
478.00	17156.13
478.18	16786.32
478.36	17050.80
478.54	17104.64
478.72	17245.07
478.90	17425.29
479.08	17752.96
479.26	17853.61
479.44	17703.81
479.62	17848.93
479.80	18333.42
479.98	18293.63
480.16	18700.88
480.34	18118.09
480.52	18391.93
480.70	18743.01
480.88	18579.17
481.06	18750.03
481.24	18789.82
481.41	19246.23
481.59	19194.73
481.77	19309.42
481.95	19646.46
482.13	19847.74
482.31	19639.44
482.49	20482.03
482.67	20114.56
482.85	20397.77
483.03	20355.64
483.21	20823.75
483.39	21022.69
483.57	21013.33
483.74	21102.27
483.92	21291.85
484.10	21135.04
484.28	21947.20
484.46	22052.53
484.64	22317.01
484.82	22300.62
485.00	22249.13
485.18	22600.21
485.35	22630.64
485.53	22742.99
485.71	22974.70
485.89	23700.26
486.07	23150.24
486.25	23573.88
486.43	23817.29
486.61	23873.46
486.78	23915.59
486.96	24334.55
487.14	24402.43
487.32	24599.03
487.50	24924.36
487.68	25254.38
487.85	25481.41
488.03	25692.06
488.21	25837.17
488.39	25972.92
488.57	26398.90
488.75	26281.88
488.92	26738.28
489.10	26757.00
489.28	26941.91
489.46	27115.11
489.64	27475.55
489.81	27683.86
489.99	27571.51
490.17	27735.35
490.35	28180.05
490.53	28451.55
490.70	28425.81
490.88	28357.93
491.06	28790.93
491.24	28957.11
491.41	28912.64
491.59	29359.68
491.77	29319.89
491.95	29486.07
492.13	29598.41
492.30	29738.85
492.48	30132.06
492.66	30295.89
492.84	30450.37
493.01	30717.19
493.19	30742.94
493.37	31154.87
493.54	31442.76
493.72	31477.86
493.90	31461.48
494.08	31599.57
494.25	32182.37
494.43	32170.66
494.61	32378.97
494.79	32840.06
494.96	32725.37
495.14	32828.35
495.32	33502.43
495.49	33376.04
495.67	33535.20
495.85	33626.48
496.02	33797.34
496.20	33914.36
496.38	34019.69
496.55	34396.51
496.73	34960.58
496.91	34611.84
497.09	34532.26
497.26	35021.44
497.44	35091.65
497.62	35196.98
497.79	35992.76
497.97	35438.05
498.14	35723.60
498.32	36046.59
498.50	36226.81
498.67	36697.26
498.85	36730.03
499.03	36718.32
499.20	36786.20
499.38	37223.88
499.56	37317.50
499.73	37193.45
499.91	37689.65
500.08	37668.58
500.26	37340.91
500.44	37530.49
500.61	37977.53
500.79	37464.96
500.97	38382.45
501.14	38553.30
501.32	38780.34
501.49	38382.45
501.67	39005.03
501.84	39089.29
502.02	38567.35
502.20	39232.06
502.37	39632.29
502.55	38993.32
502.72	39655.70
502.90	39482.50
503.07	39573.78
503.25	39529.31
503.43	39922.52
503.60	40182.32
503.78	40299.34
503.95	40219.77
504.13	40580.21
504.30	40659.79
504.48	40931.29
504.65	40938.31
504.83	41347.90
505.01	41790.27
505.18	41530.47
505.36	41762.18
505.53	41406.42
505.71	41830.05
505.88	41956.44
506.06	41361.95
506.23	42059.43
506.41	41764.52
506.58	42447.96
506.76	42426.89
506.93	42684.35
507.11	42445.62
507.28	42799.04
507.46	42403.49
507.63	43194.59
507.81	43276.51
507.98	42913.72
508.16	43477.79
508.33	44041.86
508.50	43592.48
508.68	43835.89
508.85	43927.17
509.03	43604.18
509.20	44135.48
509.38	44615.29
509.55	44514.65
509.73	44795.51
509.90	44835.30
510.08	44463.16
510.25	44533.37
510.42	44767.43
510.60	44989.78
510.77	45647.47
510.95	45530.44
511.12	45567.89
511.30	45195.74
511.47	44952.33
511.64	45731.73
511.82	45762.15
511.99	45570.23
512.17	46309.84
512.34	45979.82
512.51	46583.68
512.69	46684.33
512.86	46263.03
513.04	46553.26
513.21	46562.62
513.38	46644.54
513.56	47063.49
513.73	46642.20
513.90	46937.10
514.08	46850.50
514.25	47487.13
514.43	47552.66
514.60	47475.43
514.77	47131.37
514.95	47920.13
515.12	47526.92
515.29	47723.52
515.47	47936.51
515.64	48205.67
515.81	48016.09
515.99	48170.57
516.16	48531.01
516.33	48425.68
516.51	48987.41
516.68	48308.66
516.85	48364.83
517.03	48835.28
517.20	49118.48
517.37	48502.92
517.54	48846.98
517.72	48797.83
517.89	48987.41
518.06	49221.47
518.24	49294.02
518.41	49530.42
518.58	49408.71
518.75	49205.08
518.93	49113.80
519.10	49764.47
519.27	49942.35
519.45	49916.61
519.62	49982.14
519.79	50265.34
519.96	50246.62
520.14	50281.73
520.31	50312.16
520.48	50450.25
520.65	50576.64
520.83	50738.13
521.00	50670.26
521.17	50721.75
521.34	50850.48
521.52	50710.05
521.69	51009.64
521.86	51409.87
522.03	51107.94
522.20	51636.90
522.38	51334.97
522.55	51440.29
522.72	51386.46
522.89	51767.97
523.07	51693.07
523.24	51529.23
523.41	51866.27
523.58	51489.45
523.75	51810.10
523.92	51669.67
524.10	51920.10
524.27	52041.81
524.44	52346.08
524.61	52254.80
524.78	52044.15
524.96	52121.39
525.13	52156.50
525.30	52626.95
525.47	52687.80
525.64	52341.40
525.81	52879.72
525.98	52882.06
526.16	52486.51
526.33	52615.24
526.50	52905.47
526.67	52821.21
526.84	52942.92
527.01	52861.00
527.18	53017.82
527.36	53095.05
527.53	53106.76
527.70	53242.51
527.87	53464.86
528.04	53282.30
528.21	53574.86
528.38	53549.12
528.55	53783.17
528.72	53392.30
528.89	53535.07
529.07	53254.21
529.24	53228.46
529.41	53635.72
529.58	53544.44
529.75	53560.82
529.92	53890.83
530.09	53935.30
530.26	53982.12
530.43	54010.20
530.60	53893.18
530.77	53977.43
530.94	54110.85
531.11	53886.15
531.28	54178.72
531.46	54230.21
531.63	54295.75
531.80	54504.06
531.97	54337.88
532.14	54712.36
532.31	54450.22
532.48	54504.06
532.65	54635.13
532.82	54480.65
532.99	54763.85
533.16	54763.85
533.33	54822.37
533.50	54780.24
533.67	54878.54
533.84	54728.75
534.01	55213.24
534.18	54927.69
534.35	55215.58
534.52	54770.88
534.69	55098.55
534.86	55386.44
535.03	55075.15
535.20	55227.28
535.37	55199.19
535.54	55561.98
535.71	55498.78
535.88	55264.73
536.05	55468.36
536.22	55618.15
536.38	55573.68
536.55	55489.42
536.72	55744.54
536.89	55753.90
537.06	55732.84
537.23	55842.84
537.40	55496.44
537.57	55629.85
537.74	55826.46
537.91	56025.40
538.08	55817.10
538.25	55798.37
538.42	55620.49
538.59	56093.28
538.75	56067.53
538.92	56135.41
539.09	56409.25
539.26	56058.17
539.43	56198.60
539.60	56271.16
539.77	56062.85
539.94	56577.77
540.11	56631.60
540.28	56519.26
540.44	56519.26
540.61	56629.26
540.78	56245.41
540.95	56481.81
541.12	56360.10
541.29	56699.48
541.46	56615.22
541.62	56512.23
541.79	56652.67
541.96	56500.53
542.13	56603.52
542.30	56741.61
542.47	56797.78
542.63	56931.19
542.80	56842.25
542.97	57144.18
543.14	57254.18
543.31	57207.37
543.48	57216.74
543.64	57457.81
543.81	57418.02
543.98	57469.51
544.15	57457.81
544.32	57516.32
544.48	57577.18
544.65	57478.88
544.82	57464.83
544.99	57083.33
545.16	57570.16
545.32	57532.71
545.49	57675.48
545.66	57865.06
545.83	57733.99
546.00	57769.10
546.16	57553.77
546.33	57598.24
546.50	57453.13
546.67	57925.92
546.83	57495.26
547.00	57668.46
547.17	57729.31
547.34	57893.15
547.50	58021.88
547.67	58258.27
547.84	58145.93
548.00	58122.52
548.17	58389.34
548.34	58183.38
548.51	58452.54
548.67	58150.61
548.84	58307.43
549.01	58066.35
549.18	58417.43
549.34	58429.13
549.51	58312.11
549.68	58604.67
549.84	58384.66
550.01	58478.28
550.18	58309.77
550.34	58412.75
550.51	58651.48
550.68	58277.00
550.84	58415.09
551.01	58492.33
551.18	58639.78
551.34	58384.66
551.51	58459.56
551.68	58576.59
551.84	58679.57
552.01	58557.86
552.18	58625.74
552.34	58635.10
552.51	58878.52
552.68	58576.59
552.84	58887.88
553.01	59047.04
553.18	58829.37
553.34	59072.78
553.51	58962.78
553.67	58890.22
553.84	58993.20
554.01	59086.82
554.17	59054.06
554.34	58969.80
554.51	59196.83
554.67	59180.45
554.84	58990.86
555.00	59154.70
555.17	58857.45
555.33	58965.12
555.50	59175.76
555.67	58927.67
555.83	59138.32
556.00	59330.24
556.16	59524.50
556.33	59316.20
556.50	59339.60
556.66	59458.97
556.83	59161.72
556.99	59461.31
557.16	59451.95
557.32	59447.27
557.49	59522.16
557.65	59400.46
557.82	59377.05
557.98	59372.37
558.15	59615.79
558.32	59627.49
558.48	59299.81
558.65	59451.95
558.81	59519.82
558.98	59620.47
559.14	59700.04
559.31	59686.00
559.47	59753.88
559.64	59749.20
559.80	59648.55
559.97	59817.07
560.13	59704.73
560.30	59854.52
560.46	59910.69
560.63	59894.31
560.79	59880.27
560.96	59950.48
561.12	59901.33
561.29	59873.24
561.45	59852.18
561.61	59751.54
561.78	60018.36
561.94	59962.18
562.11	59922.40
562.27	59634.51
562.44	59934.10
562.60	59973.89
562.77	59983.25
562.93	59966.87
563.10	60051.12
563.26	59887.29
563.42	60233.69
563.59	60107.30
563.75	60006.65
563.92	60111.98
564.08	59969.21
564.24	60055.81
564.41	60306.24
564.57	60418.59
564.74	60065.17
564.90	60322.63
565.07	60147.09
565.23	60123.68
565.39	60046.44
565.56	60196.24
565.72	60186.88
565.88	60266.45
566.05	60210.28
566.21	60254.75
566.38	60313.26
566.54	60411.57
566.70	60397.52
566.87	60411.57
567.03	60135.38
567.19	60420.93
567.36	60378.80
567.52	60301.56
567.68	60697.11
567.85	60339.01
568.01	60540.30
568.17	60500.51
568.34	60411.57
568.50	60624.56
568.66	60367.10
568.83	60657.32
568.99	60257.09
569.15	60364.76
569.32	60521.57
569.48	60463.06
569.64	60671.37
569.81	60395.18
569.97	60273.48
570.13	60437.31
570.30	60409.23
570.46	60603.49
570.62	60764.99
570.78	60561.36
570.95	60537.96
571.11	60626.90
571.27	60568.38
571.43	60500.51
571.60	60605.83
571.76	60399.86
571.92	60521.57
572.09	60811.80
572.25	60530.93
572.41	60505.19
572.57	60521.57
572.74	60732.22
572.90	60568.38
573.06	60757.97
573.22	60647.96
573.38	60814.14
573.55	60640.94
573.71	60917.12
573.87	60690.09
574.03	60617.53
574.20	60718.18
574.36	60598.81
574.52	60725.20
574.68	60764.99
574.84	61017.77
575.01	60584.77
575.17	60907.76
575.33	60636.26
575.49	60872.65
575.65	60772.01
575.82	60914.78
575.98	60650.30
576.14	60903.08
576.30	60907.76
576.46	60725.20
576.62	60680.73
576.79	60779.03
576.95	60760.31
577.11	60893.72
577.27	60802.44
577.43	60755.63
577.59	60643.28
577.75	60725.20
577.92	60821.16
578.08	60790.73
578.24	61024.79
578.40	61022.45
578.56	61001.38
578.72	60987.34
578.88	61027.13
579.04	61197.99
579.21	60914.78
579.37	60987.34
579.53	60996.70
579.69	60940.53
579.85	61050.53
580.01	60823.50
580.17	60828.18
580.33	60954.57
580.49	60947.55
580.65	60914.78
580.82	60956.91
580.98	60842.23
581.14	60933.51
581.30	60907.76
581.46	61017.77
581.62	60884.36
581.78	60856.27
581.94	61106.71
582.10	61099.68
582.26	61125.43
582.42	60954.57
582.58	60900.74
582.74	61169.90
582.90	61095.00
583.06	60896.06
583.22	60795.42
583.38	60956.91
583.54	60996.70
583.70	60856.27
583.86	61024.79
584.02	60942.87
584.18	61139.47
584.34	60956.91
584.50	60811.80
584.66	61167.56
584.82	61027.13
584.98	61139.47
585.14	61099.68
585.30	61064.58
585.46	61197.99
585.62	61038.83
585.78	61223.73
585.94	61055.21
586.10	61069.26
586.26	61104.37
586.42	61038.83
586.58	61109.05
586.74	61015.43
586.90	61137.13
587.06	60764.99
587.22	61169.90
587.38	61130.11
587.54	61066.92
587.70	61116.07
587.86	61179.26
588.02	61293.95
588.18	61078.62
588.34	61195.65
588.49	60959.25
