SpectraSuite Data File
++++++++++++++++++++++++++++++++++++
Date: Fri Oct 25 11:23:23 EDT 2013
User: price-jones
Dark Spectrum Present: No
Reference Spectrum Present: No
Number of Sampled Component Spectra: 1
Spectrometers: USB2+H05261
Integration Time (usec): 100000 (USB2+H05261)
Spectra Averaged: 1 (USB2+H05261)
Boxcar Smoothing: 0 (USB2+H05261)
Correct for Electrical Dark: No (USB2+H05261)
Strobe/Lamp Enabled: No (USB2+H05261)
Correct for Detector Non-linearity: No (USB2+H05261)
Correct for Stray Light: No (USB2+H05261)
Number of Pixels in Processed Spectrum: 2048
>>>>>Begin Processed Spectral Data<<<<<
365.73	257.46
365.92	257.46
366.12	257.46
366.32	152.13
366.52	91.28
366.72	107.66
366.91	133.41
367.11	147.45
367.31	65.54
367.51	166.18
367.70	154.48
367.90	170.86
368.10	138.09
368.30	154.48
368.49	42.13
368.69	124.05
368.89	135.75
369.09	93.62
369.28	182.56
369.48	173.20
369.68	152.13
369.87	217.67
370.07	131.07
370.27	189.58
370.47	334.70
370.66	596.84
370.86	610.88
371.06	697.48
371.25	676.41
371.45	606.20
371.65	657.69
371.84	723.23
372.04	676.41
372.24	683.44
372.44	690.46
372.63	826.21
372.83	739.61
373.03	821.53
373.22	795.78
373.42	748.97
373.62	732.59
373.81	781.74
374.01	828.55
374.21	774.72
374.40	798.12
374.60	894.08
374.79	793.44
374.99	814.51
375.19	854.30
375.38	851.96
375.58	940.90
375.78	840.25
375.97	870.68
376.17	901.11
376.37	854.30
376.56	854.30
376.76	777.06
376.95	908.13
377.15	903.45
377.35	940.90
377.54	870.68
377.74	896.43
377.93	990.05
378.13	922.17
378.33	1015.79
378.52	924.51
378.72	898.77
378.91	922.17
379.11	912.81
379.31	938.55
379.50	875.36
379.70	933.87
379.89	1074.31
380.09	924.51
380.28	1006.43
380.48	936.21
380.68	978.34
380.87	940.90
381.07	987.71
381.26	943.24
381.46	1083.67
381.65	1055.58
381.85	1011.11
382.04	943.24
382.24	992.39
382.43	1074.31
382.63	1125.80
382.83	1086.01
383.02	1034.52
383.22	1170.27
383.41	1121.12
383.61	1074.31
383.80	1179.63
384.00	1116.44
384.19	1184.31
384.39	1193.67
384.58	1144.52
384.78	1179.63
384.97	1238.14
385.17	1221.76
385.36	1128.14
385.56	1153.88
385.75	1123.46
385.95	1240.48
386.14	1142.18
386.34	1160.91
386.53	1095.37
386.72	1184.31
386.92	1275.59
387.11	1226.44
387.31	1226.44
387.50	1268.57
387.70	1139.84
387.89	1331.76
388.09	1228.78
388.28	1245.16
388.48	1247.51
388.67	1345.81
388.86	1320.06
389.06	1308.36
389.25	1242.82
389.45	1362.19
389.64	1418.36
389.84	1399.64
390.03	1378.58
390.22	1423.05
390.42	1359.85
390.61	1411.34
390.81	1514.33
391.00	1430.07
391.19	1364.53
391.39	1427.73
391.58	1444.11
391.78	1502.62
391.97	1472.20
392.16	1406.66
392.36	1600.93
392.55	1465.18
392.75	1500.28
392.94	1462.83
393.13	1565.82
393.33	1621.99
393.52	1528.37
393.71	1577.52
393.91	1570.50
394.10	1626.67
394.29	1699.23
394.49	1535.39
394.68	1636.03
394.88	1636.03
395.07	1652.42
395.26	1764.76
395.46	1736.68
395.65	1778.81
395.84	1631.35
396.04	1846.68
396.23	1668.80
396.42	1785.83
396.62	1736.68
396.81	1783.49
397.00	1750.72
397.19	1746.04
397.39	1755.40
397.58	1834.98
397.77	1856.04
397.97	1781.15
398.16	1795.19
398.35	1860.73
398.55	1914.56
398.74	1952.01
398.93	1984.77
399.12	1984.77
399.32	2001.16
399.51	1942.64
399.70	1944.99
399.90	2043.29
400.09	2066.69
400.28	2071.37
400.47	2066.69
400.67	1984.77
400.86	2010.52
401.05	1982.43
401.24	2076.06
401.44	2101.80
401.63	2092.44
401.82	2193.08
402.01	2160.31
402.21	2202.44
402.40	2225.85
402.59	2253.94
402.78	2167.34
402.97	2256.28
403.17	2286.70
403.36	2286.70
403.55	2289.04
403.74	2326.49
403.93	2272.66
404.13	2359.26
404.32	2375.64
404.51	2263.30
404.70	2417.77
404.89	2415.43
405.09	2511.39
405.28	2487.99
405.47	2445.86
405.66	2572.25
405.85	2602.68
406.05	2516.08
406.24	2471.61
406.43	2539.48
406.62	2733.75
406.81	2602.68
407.00	2527.78
407.20	2544.16
407.39	2513.74
407.58	2719.70
407.77	2736.09
407.96	2719.70
408.15	2708.00
408.34	2686.94
408.54	2895.24
408.73	2761.83
408.92	2773.53
409.11	2883.54
409.30	2956.10
409.49	2958.44
409.68	2942.05
409.87	2937.37
410.07	3007.59
410.26	3066.10
410.45	2981.84
410.64	3056.74
410.83	3176.11
411.02	3126.96
411.21	3225.26
411.40	3185.47
411.59	3211.22
411.78	3222.92
411.98	3157.38
412.17	3201.85
412.36	3253.34
412.55	3323.56
412.74	3463.99
412.93	3309.52
413.12	3358.67
413.31	3552.93
413.50	3534.21
413.69	3566.98
413.88	3623.15
414.07	3466.33
414.26	3676.98
414.45	3550.59
414.64	3765.92
414.83	3796.35
415.02	3794.01
415.22	3847.84
415.41	3983.59
415.60	3859.54
415.79	3868.91
415.98	3885.29
416.17	4042.11
416.36	4065.51
416.55	4170.83
416.74	4138.07
416.93	4049.13
417.12	4252.75
417.31	4250.41
417.50	4156.79
417.69	4280.84
417.88	4257.43
418.07	4299.56
418.26	4383.82
418.45	4325.31
418.64	4521.92
418.83	4545.32
419.02	4475.10
419.21	4465.74
419.39	4561.70
419.58	4594.47
419.77	4498.51
419.96	4409.57
420.15	4762.99
420.34	4622.56
420.53	4723.20
420.72	4809.80
420.91	4631.92
421.10	4699.80
421.29	4828.53
421.48	4720.86
421.67	4732.56
421.86	4751.29
422.05	4730.22
422.24	4774.69
422.43	4952.57
422.61	4856.61
422.80	5041.51
422.99	5027.47
423.18	5055.56
423.37	4985.34
423.56	5048.54
423.75	4954.91
423.94	4910.44
424.13	4573.41
424.32	4802.78
424.50	5200.67
424.69	5226.42
424.88	5184.29
425.07	4903.42
425.26	4901.08
425.45	4926.83
425.64	4966.62
425.83	5036.83
426.01	5074.28
426.20	5118.75
426.39	4980.66
426.58	4957.25
426.77	5081.30
426.96	5207.69
427.15	5043.85
427.33	5345.78
427.52	5193.65
427.71	5336.42
427.90	5277.91
428.09	5275.57
428.28	5453.45
428.46	5357.49
428.65	5472.17
428.84	5535.37
429.03	5547.07
429.22	5444.09
429.40	5530.69
429.59	5621.97
429.78	5210.03
429.97	5322.38
430.16	5526.00
430.34	5488.56
430.53	5664.10
430.72	5645.37
430.91	5717.93
431.10	5589.20
431.28	5923.90
431.47	5856.02
431.66	6108.80
431.85	5902.83
432.03	6022.20
432.22	5856.02
432.41	5998.79
432.60	6057.31
432.79	5891.13
432.97	6001.13
433.16	6179.01
433.35	5930.92
433.54	6024.54
433.72	6036.24
433.91	6150.93
434.10	6127.52
434.28	6181.35
434.47	6317.11
434.66	6382.64
434.85	6235.19
435.03	6256.25
435.22	6197.74
435.41	6579.25
435.59	6370.94
435.78	6455.20
435.97	6518.39
436.16	6677.55
436.34	6637.76
436.53	6616.69
436.72	6731.38
436.90	6635.42
437.09	6698.61
437.28	6581.59
437.46	6637.76
437.65	6565.20
437.84	6757.13
438.02	6803.94
438.21	6862.45
438.40	6675.21
438.58	6993.52
438.77	6913.94
438.96	7045.01
439.14	7382.05
439.33	7213.53
439.52	7215.87
439.70	7265.02
439.89	7358.64
440.08	7314.17
440.26	7438.22
440.45	7365.67
440.63	7403.11
440.82	7737.81
441.01	7695.68
441.19	7595.04
441.38	7726.11
441.57	7606.74
441.75	7801.01
441.94	7934.42
442.12	7957.82
442.31	8166.13
442.50	8109.96
442.68	8093.57
442.87	7971.86
443.05	8313.58
443.24	8222.30
443.43	8257.41
443.61	8198.90
443.80	8699.77
443.98	8152.09
444.17	7786.96
444.35	8407.20
444.54	8491.46
444.73	8353.37
444.91	8250.39
445.10	8395.50
445.28	8470.40
445.47	8308.90
445.65	8273.79
445.84	8470.40
446.02	8360.39
446.21	8435.29
446.39	8592.11
446.58	8538.27
446.77	8676.37
446.95	8416.57
447.14	8608.49
447.32	8585.08
447.51	8559.34
447.69	8596.79
447.88	8603.81
448.06	8617.85
448.25	8557.00
448.43	8664.66
448.62	8676.37
448.80	8528.91
448.99	8655.30
449.17	8709.13
449.36	8727.86
449.54	8912.76
449.73	8978.30
449.91	9048.51
450.10	9046.17
450.28	9008.72
450.46	9060.21
450.65	8961.91
450.83	9177.24
451.02	9109.36
451.20	9231.07
451.39	9226.39
451.57	9284.91
451.76	9308.31
451.94	9348.10
452.13	9441.72
452.31	9193.62
452.49	9245.12
452.68	9364.48
452.86	9259.16
453.05	9500.23
453.23	9650.03
453.42	9547.05
453.60	9376.19
453.78	9678.12
453.97	9652.37
454.15	9528.32
454.34	9558.75
454.52	9804.50
454.70	9586.83
454.89	9987.07
455.07	9958.98
455.26	9935.57
455.44	9966.00
455.62	10125.16
455.81	9804.50
455.99	10181.33
456.17	10019.83
456.36	10026.86
456.54	10188.35
456.73	10162.61
456.91	10628.37
457.09	10480.92
457.28	10658.80
457.46	10380.28
457.64	10654.12
457.83	10677.52
458.01	10649.44
458.19	10642.42
458.38	10633.05
458.56	10686.89
458.74	10792.21
458.93	10569.86
459.11	10885.83
459.29	10848.38
459.48	10843.70
459.66	10902.22
459.84	10972.43
460.03	11269.68
460.21	11215.85
460.39	11040.31
460.57	11157.33
460.76	11307.13
460.94	11290.74
461.12	11433.52
461.31	11136.27
461.49	11318.83
461.67	11096.48
461.85	11749.49
462.04	11382.03
462.22	11506.07
462.40	11719.06
462.59	11524.80
462.77	11566.93
462.95	11840.77
463.13	11646.51
463.32	11602.04
463.50	11819.71
463.68	11864.18
463.86	11908.65
464.05	11833.75
464.23	11730.76
464.41	11974.18
464.59	11967.16
464.78	12280.79
464.96	11791.62
465.14	11969.50
465.32	12196.53
465.50	12126.32
465.69	12329.94
465.87	12346.33
466.05	12306.54
466.23	12381.43
466.41	12313.56
466.60	12671.66
466.78	12269.09
466.96	12400.16
467.14	12294.83
467.32	12568.68
467.51	12786.35
467.69	12131.00
467.87	12458.67
468.05	12762.94
468.23	12439.95
468.41	12439.95
468.60	12594.42
468.78	12774.64
468.96	12533.57
469.14	12903.37
469.32	12982.95
469.50	12840.18
469.69	13001.68
469.87	13132.75
470.05	13383.18
470.23	13296.58
470.41	13160.83
470.59	13502.55
470.77	13486.17
470.95	13338.71
471.14	13598.51
471.32	13334.03
471.50	13607.87
471.68	13633.62
471.86	13846.61
472.04	13839.59
472.22	14284.29
472.40	13820.86
472.58	13935.55
472.77	13980.02
472.95	14492.60
473.13	14607.28
473.31	14162.58
473.49	14258.54
473.67	14148.54
473.85	14555.79
474.03	14736.01
474.21	14700.90
474.39	14897.51
474.57	14792.19
474.75	15197.10
474.93	15232.21
475.12	15028.58
475.30	14911.55
475.48	15255.61
475.66	15393.70
475.84	15236.89
476.02	15445.20
476.20	15719.04
476.38	15939.05
476.56	16198.85
476.74	16224.59
476.92	16074.80
477.10	15847.77
477.28	16390.77
477.46	16035.01
477.64	16615.46
477.82	16650.57
478.00	17032.08
478.18	17008.67
478.36	17081.23
478.54	17254.43
478.72	17373.80
478.90	17781.05
479.08	17804.46
479.26	17998.72
479.44	17970.63
479.62	18291.29
479.80	18429.38
479.98	18279.58
480.16	18539.38
480.34	18338.10
480.52	18497.25
480.70	19070.68
480.88	18618.96
481.06	18778.12
481.24	19019.19
481.41	19229.84
481.59	19456.87
481.77	19700.29
481.95	19543.47
482.13	19784.55
482.31	19822.00
482.49	20393.09
482.67	19946.05
482.85	20734.81
483.03	20610.76
483.21	20975.88
483.39	20996.95
483.57	21158.44
483.74	21469.73
483.92	21575.06
484.10	21401.86
484.28	22054.87
484.46	22033.80
484.64	22593.19
484.82	22038.48
485.00	22469.14
485.18	22703.20
485.35	22705.54
485.53	23089.38
485.71	22927.89
485.89	23447.49
486.07	23742.39
486.25	23550.47
486.43	23803.25
486.61	23960.06
486.78	24301.78
486.96	24395.40
487.14	24563.92
487.32	25010.96
487.50	25015.65
487.68	25390.13
487.85	25493.12
488.03	25720.15
488.21	25603.12
488.39	26031.44
488.57	26094.63
488.75	26441.03
488.92	26174.21
489.10	27115.11
489.28	26707.85
489.46	27314.05
489.64	27381.93
489.81	27608.96
489.99	27840.67
490.17	27899.19
490.35	28290.06
490.53	28327.50
490.70	28765.18
490.88	28617.73
491.06	28779.23
491.24	28971.15
491.41	29443.94
491.59	29254.36
491.77	29542.24
491.95	29567.99
492.13	29949.50
492.30	30445.69
492.48	30279.51
492.66	30745.28
492.84	30380.15
493.01	30843.58
493.19	30609.53
493.37	31206.36
493.54	31094.02
493.72	31634.68
493.90	32009.17
494.08	32079.38
494.25	31842.99
494.43	32488.98
494.61	32725.37
494.79	32657.49
494.96	33003.89
495.14	33387.74
495.32	33369.02
495.49	33469.66
495.67	33427.53
495.85	33603.07
496.02	33855.85
496.20	34614.18
496.38	34330.98
496.55	34199.91
496.73	35105.70
496.91	34672.70
497.09	35089.31
497.26	35454.44
497.44	35136.12
497.62	35637.00
497.79	35957.65
497.97	35873.39
498.14	36243.20
498.32	36580.23
498.50	36154.26
498.67	36645.77
498.85	36474.91
499.03	36767.48
499.20	36982.80
499.38	37434.53
499.56	37397.08
499.73	37319.84
499.91	37591.34
500.08	37869.87
500.26	37806.67
500.44	37694.33
500.61	38120.31
500.79	38096.90
500.97	38513.52
501.14	38731.18
501.32	38913.75
501.49	38880.98
501.67	39175.89
501.84	39337.38
502.02	38852.89
502.20	39002.69
502.37	39414.62
502.55	40018.48
502.72	40119.12
502.90	39725.91
503.07	40027.84
503.25	40072.31
503.43	39917.84
503.60	40011.46
503.78	40315.73
503.95	40935.97
504.13	40942.99
504.30	40898.52
504.48	40629.36
504.65	41198.11
504.83	41347.90
505.01	41914.31
505.18	41425.14
505.36	41801.97
505.53	41720.05
505.71	41921.34
505.88	42433.91
506.06	42019.64
506.23	42492.43
506.41	42012.62
506.58	42258.37
506.76	42440.93
506.93	42761.59
507.11	42930.11
507.28	42733.50
507.46	42932.45
507.63	43140.75
507.81	43449.70
507.98	43346.72
508.16	43487.15
508.33	43894.41
508.50	43952.92
508.68	44484.22
508.85	43964.62
509.03	44233.78
509.20	44594.23
509.38	44886.79
509.55	44683.17
509.73	44556.78
509.90	45031.91
510.08	44748.70
510.25	45256.60
510.42	44706.57
510.60	45160.64
510.77	45509.38
510.95	46010.25
511.12	45209.79
511.30	45474.27
511.47	45544.48
511.64	46174.09
511.82	46127.28
511.99	46026.63
512.17	45991.53
512.34	46183.45
512.51	46616.45
512.69	46693.69
512.86	46843.48
513.04	47026.04
513.21	47126.69
513.38	47330.31
513.56	47119.66
513.73	47035.41
513.90	47419.25
514.08	46873.91
514.25	47531.60
514.43	47423.93
514.60	47625.22
514.77	47491.81
514.95	48275.89
515.12	48027.79
515.29	48037.16
515.47	48296.95
515.64	48282.91
515.81	47915.45
515.99	48788.47
516.16	48692.50
516.33	48952.30
516.51	48917.20
516.68	48664.42
516.85	48587.18
517.03	49090.40
517.20	49544.46
517.37	49319.77
517.54	49284.66
517.72	49385.30
517.89	49193.38
518.06	49567.87
518.24	49530.42
518.41	49471.90
518.58	49907.24
518.75	49516.37
518.93	49614.68
519.10	49893.20
519.27	50192.79
519.45	50031.29
519.62	50347.26
519.79	50323.86
519.96	50094.49
520.14	50447.91
520.31	50527.48
520.48	50438.54
520.65	50302.79
520.83	50798.99
521.00	51100.92
521.17	51126.66
521.34	50923.04
521.52	51033.04
521.69	51309.22
521.86	51473.06
522.03	51536.26
522.20	51517.53
522.38	51653.28
522.55	51627.54
522.72	51716.48
522.89	51828.82
523.07	51789.03
523.24	51688.39
523.41	51716.48
523.58	51667.33
523.75	52402.25
523.92	51966.91
524.10	52053.51
524.27	52580.13
524.44	52491.19
524.61	52240.76
524.78	52472.47
524.96	52547.37
525.13	52509.92
525.30	52823.55
525.47	52786.10
525.64	52732.27
525.81	52800.15
525.98	53125.48
526.16	52741.63
526.33	52603.54
526.50	53024.84
526.67	52741.63
526.84	53254.21
527.01	53010.79
527.18	53165.27
527.36	53373.58
527.53	53223.78
527.70	53577.20
527.87	53521.03
528.04	53160.59
528.21	53338.47
528.38	53668.48
528.55	53670.82
528.72	53705.93
528.89	53698.91
529.07	53755.08
529.24	53738.70
529.41	53921.26
529.58	54131.91
529.75	53558.48
529.92	54246.60
530.09	54260.64
530.26	54202.13
530.43	54192.76
530.60	54071.06
530.77	53773.81
530.94	54672.57
531.11	54265.32
531.28	54527.46
531.46	54206.81
531.63	54454.90
531.80	54595.34
531.97	54663.21
532.14	54754.49
532.31	54805.98
532.48	54890.24
532.65	55014.29
532.82	54756.83
532.99	54822.37
533.16	54955.78
533.33	54937.05
533.50	55196.85
533.67	55093.87
533.84	55023.65
534.01	55318.56
534.18	55049.40
534.35	55503.46
534.52	55114.94
534.69	55377.08
534.86	55573.68
535.03	55164.09
535.20	55599.43
535.37	55482.40
535.54	55664.96
535.71	55571.34
535.88	55587.72
536.05	55831.14
536.22	55669.64
536.38	55683.69
536.55	55856.88
536.72	55732.84
536.89	55763.26
537.06	55723.47
537.23	56018.38
537.40	55772.63
537.57	55849.86
537.74	56041.79
537.91	56371.80
538.08	56165.84
538.25	55852.20
538.42	56100.30
538.59	56474.79
538.75	56088.60
538.92	56128.39
539.09	56540.32
539.26	56315.63
539.43	56317.97
539.60	56535.64
539.77	56404.57
539.94	56708.84
540.11	56416.27
540.28	56601.18
540.44	56713.52
540.61	56624.58
540.78	56814.16
540.95	56678.41
541.12	56292.22
541.29	56718.20
541.46	56835.23
541.62	56736.93
541.79	57010.77
541.96	56629.26
542.13	56853.95
542.30	56931.19
542.47	57034.17
542.63	57151.20
542.80	57013.11
542.97	57200.35
543.14	57532.71
543.31	57359.51
543.48	57546.75
543.64	57439.09
543.81	57853.36
543.98	57607.61
544.15	57535.05
544.32	57780.81
544.48	57670.80
544.65	57626.33
544.82	57649.74
544.99	57448.45
545.16	57682.50
545.32	57380.57
545.49	57865.06
545.66	57855.70
545.83	57970.39
546.00	57914.22
546.16	57776.12
546.33	57701.23
546.50	57762.08
546.67	58110.82
546.83	57694.21
547.00	57872.09
547.17	58031.24
547.34	57972.73
547.50	58298.06
547.67	58321.47
547.84	58066.35
548.00	58148.27
548.17	58436.16
548.34	58223.17
548.51	58286.36
548.67	58471.26
548.84	58387.00
549.01	58120.18
549.18	58607.01
549.34	58553.18
549.51	58548.50
549.68	58508.71
549.84	58487.65
550.01	58649.14
550.18	58513.39
550.34	58436.16
550.51	58571.91
550.68	58660.85
550.84	58784.90
551.01	58756.81
551.18	58628.08
551.34	58557.86
551.51	58995.54
551.68	58707.66
551.84	58728.72
552.01	58759.15
552.18	58805.96
552.34	58611.70
552.51	58969.80
552.68	58993.20
552.84	58908.94
553.01	58993.20
553.18	59117.25
553.34	58852.77
553.51	58941.71
553.67	59166.40
553.84	59077.46
554.01	59269.39
554.17	59381.73
554.34	59274.07
554.51	59171.08
554.67	59243.64
554.84	59234.28
555.00	59330.24
555.17	59072.78
555.33	59194.49
555.50	58958.09
555.67	59290.45
555.83	59325.56
556.00	59201.51
556.16	59650.89
556.33	59678.98
556.50	59491.74
556.66	59664.94
556.83	59341.94
556.99	59578.34
557.16	59714.09
557.32	59662.60
557.49	59557.27
557.65	59730.47
557.82	59615.79
557.98	59629.83
558.15	59639.19
558.32	59718.77
558.48	59433.22
558.65	59707.07
558.81	59800.69
558.98	59718.77
559.14	59910.69
559.31	59831.11
559.47	59788.98
559.64	59910.69
559.80	60032.40
559.97	59922.40
560.13	59936.44
560.30	59831.11
560.46	59969.21
560.63	59826.43
560.79	59915.37
560.96	60210.28
561.12	60156.45
561.29	59929.42
561.45	60130.70
561.61	59882.61
561.78	60074.53
561.94	60095.60
562.11	59955.16
562.27	59980.91
562.44	60221.98
562.60	60320.29
562.77	60156.45
562.93	59990.27
563.10	60247.73
563.26	60016.02
563.42	60423.27
563.59	60142.41
563.75	60027.72
563.92	60329.65
564.08	60074.53
564.24	60196.24
564.41	60254.75
564.57	60317.95
564.74	60472.42
564.90	60432.63
565.07	60376.46
565.23	60100.28
565.39	60453.70
565.56	60378.80
565.72	60144.75
565.88	60376.46
566.05	60397.52
566.21	60266.45
566.38	60224.32
566.54	60322.63
566.70	60566.04
566.87	60409.23
567.03	60310.92
567.19	60645.62
567.36	60561.36
567.52	60371.78
567.68	60690.09
567.85	60582.43
568.01	60727.54
568.17	60704.13
568.34	60580.09
568.50	60556.68
568.66	60392.84
568.83	60575.40
568.99	60605.83
569.15	60610.51
569.32	60577.75
569.48	60495.83
569.64	60589.45
569.81	60521.57
569.97	60488.80
570.13	60767.33
570.30	60748.60
570.46	60734.56
570.62	60690.09
570.78	60865.63
570.95	60734.56
571.11	60760.31
571.27	60498.17
571.43	60727.54
571.60	60954.57
571.76	60755.63
571.92	60753.29
572.09	60713.50
572.25	60645.62
572.41	60664.35
572.57	60802.44
572.74	61052.87
572.90	60786.05
573.06	61090.32
573.22	60788.39
573.38	60779.03
573.55	60816.48
573.71	60802.44
573.87	60919.46
574.03	60699.45
574.20	60870.31
574.36	60664.35
574.52	60959.25
574.68	60949.89
574.84	61001.38
575.01	60877.33
575.17	60994.36
575.33	60755.63
575.49	60992.02
575.65	60959.25
575.82	60767.33
575.98	60959.25
576.14	61109.05
576.30	61087.98
576.46	60926.49
576.62	60800.10
576.79	60935.85
576.95	60722.86
577.11	60919.46
577.27	61214.37
577.43	60992.02
577.59	60837.54
577.75	60865.63
577.92	60947.55
578.08	60870.31
578.24	60996.70
578.40	61165.22
578.56	61064.58
578.72	61174.58
578.88	61087.98
579.04	61214.37
579.21	60893.72
579.37	61183.94
579.53	61141.81
579.69	60856.27
579.85	61059.90
580.01	61095.00
580.17	61038.83
580.33	61102.03
580.49	61003.72
580.65	61155.86
580.82	60917.12
580.98	61092.66
581.14	60975.64
581.30	60996.70
581.46	61031.81
581.62	61207.35
581.78	61160.54
581.94	61256.50
582.10	61127.77
582.26	61200.33
582.42	61141.81
582.58	61326.72
582.74	61160.54
582.90	61200.33
583.06	61020.11
583.22	61048.19
583.38	61141.81
583.54	60996.70
583.70	61045.85
583.86	61197.99
584.02	60973.30
584.18	61331.40
584.34	61307.99
584.50	61144.16
584.66	61066.92
584.82	60825.84
584.98	61174.58
585.14	61312.67
585.30	61120.75
585.46	61240.12
585.62	61282.25
585.78	61333.74
585.94	61066.92
586.10	61403.95
586.26	61167.56
586.42	61368.85
586.58	61172.24
586.74	61207.35
586.90	61006.06
587.06	61134.79
587.22	61200.33
587.38	61092.66
587.54	61258.84
587.70	61429.70
587.86	61336.08
588.02	61310.33
588.18	61450.77
588.34	61188.63
588.49	61258.84
