SpectraSuite Data File
++++++++++++++++++++++++++++++++++++
Date: Fri Oct 25 10:48:00 EDT 2013
User: price-jones
Dark Spectrum Present: No
Reference Spectrum Present: No
Number of Sampled Component Spectra: 1
Spectrometers: USB2+H05261
Integration Time (usec): 100000 (USB2+H05261)
Spectra Averaged: 1 (USB2+H05261)
Boxcar Smoothing: 0 (USB2+H05261)
Correct for Electrical Dark: No (USB2+H05261)
Strobe/Lamp Enabled: No (USB2+H05261)
Correct for Detector Non-linearity: No (USB2+H05261)
Correct for Stray Light: No (USB2+H05261)
Number of Pixels in Processed Spectrum: 2048
>>>>>Begin Processed Spectral Data<<<<<
365.73	156.82
365.92	156.82
366.12	156.82
366.32	2.34
366.52	53.83
366.72	74.90
366.91	81.92
367.11	60.85
367.31	23.41
367.51	58.51
367.70	98.30
367.90	11.70
368.10	0.00
368.30	56.17
368.49	11.70
368.69	86.60
368.89	42.13
369.09	86.60
369.28	67.88
369.48	0.00
369.68	88.94
369.87	114.69
370.07	63.19
370.27	149.79
370.47	236.39
370.66	365.12
370.86	395.55
371.06	376.83
371.25	545.34
371.45	470.45
371.65	433.00
371.84	334.70
372.04	435.34
372.24	465.77
372.44	414.27
372.63	547.69
372.83	533.64
373.03	526.62
373.22	423.64
373.42	493.85
373.62	482.15
373.81	573.43
374.01	554.71
374.21	505.56
374.40	463.43
374.60	582.79
374.79	580.45
374.99	578.11
375.19	564.07
375.38	596.84
375.58	524.28
375.78	631.94
375.97	559.39
376.17	550.03
376.37	592.16
376.56	573.43
376.76	620.24
376.95	587.47
377.15	526.62
377.35	624.92
377.54	585.13
377.74	634.29
377.93	589.82
378.13	517.26
378.33	676.41
378.52	543.00
378.72	610.88
378.91	690.46
379.11	641.31
379.31	648.33
379.50	587.47
379.70	671.73
379.89	657.69
380.09	575.77
380.28	592.16
380.48	676.41
380.68	587.47
380.87	629.60
381.07	688.12
381.26	645.99
381.46	716.20
381.65	627.26
381.85	620.24
382.04	699.82
382.24	631.94
382.43	629.60
382.63	641.31
382.83	634.29
383.02	667.05
383.22	671.73
383.41	674.07
383.61	716.20
383.80	765.36
384.00	667.05
384.19	678.76
384.39	770.04
384.58	697.48
384.78	884.72
384.97	751.31
385.17	699.82
385.36	725.57
385.56	788.76
385.75	748.97
385.95	805.14
386.14	847.27
386.34	737.27
386.53	676.41
386.72	713.86
386.92	798.12
387.11	837.91
387.31	788.76
387.50	837.91
387.70	716.20
387.89	819.19
388.09	819.19
388.28	889.40
388.48	875.36
388.67	856.64
388.86	828.55
389.06	863.66
389.25	816.85
389.45	938.55
389.64	873.02
389.84	919.83
390.03	959.62
390.22	971.32
390.42	931.53
390.61	903.45
390.81	870.68
391.00	933.87
391.19	971.32
391.39	938.55
391.58	947.92
391.78	950.26
391.97	1006.43
392.16	1004.09
392.36	1048.56
392.55	952.60
392.75	894.08
392.94	910.47
393.13	891.74
393.33	945.58
393.52	898.77
393.71	1029.84
393.91	1018.13
394.10	1020.47
394.29	1057.92
394.49	1008.77
394.68	1174.95
394.88	1086.01
395.07	1107.07
395.26	1029.84
395.46	1125.80
395.65	1095.37
395.84	1081.33
396.04	1132.82
396.23	1046.22
396.42	1109.41
396.62	1086.01
396.81	1114.10
397.00	1102.39
397.19	1151.54
397.39	1226.44
397.58	1181.97
397.77	1270.91
397.97	1242.82
398.16	1245.16
398.35	1219.42
398.55	1296.66
398.74	1343.47
398.93	1331.76
399.12	1268.57
399.32	1345.81
399.51	1306.02
399.70	1287.29
399.90	1301.34
400.09	1467.52
400.28	1425.39
400.47	1336.45
400.67	1380.92
400.86	1432.41
401.05	1444.11
401.24	1444.11
401.44	1416.02
401.63	1509.65
401.82	1432.41
402.01	1376.24
402.21	1446.45
402.40	1467.52
402.59	1486.24
402.78	1647.74
402.97	1483.90
403.17	1474.54
403.36	1577.52
403.55	1500.28
403.74	1605.61
403.93	1629.01
404.13	1657.10
404.32	1661.78
404.51	1610.29
404.70	1713.27
404.89	1694.55
405.09	1748.38
405.28	1631.35
405.47	1673.48
405.66	1753.06
405.85	1813.92
406.05	1724.97
406.24	1757.74
406.43	1682.85
406.62	1764.76
406.81	1771.79
407.00	1788.17
407.20	1715.61
407.39	1736.68
407.58	1942.64
407.77	1771.79
407.96	1879.45
408.15	1877.11
408.34	1959.03
408.54	1944.99
408.73	1898.17
408.92	1970.73
409.11	1989.46
409.30	2036.27
409.49	1994.14
409.68	1956.69
409.87	1888.81
410.07	2083.08
410.26	2062.01
410.45	2090.10
410.64	2214.15
410.83	2157.97
411.02	2176.70
411.21	2160.31
411.40	2328.83
411.59	2228.19
411.78	2202.44
411.98	2181.38
412.17	2345.22
412.36	2197.76
412.55	2422.45
412.74	2347.56
412.93	2335.85
413.12	2352.24
413.31	2448.20
413.50	2415.43
413.69	2541.82
413.88	2574.59
414.07	2523.10
414.26	2553.52
414.45	2492.67
414.64	2499.69
414.83	2616.72
415.02	2651.83
415.22	2649.49
415.41	2724.38
415.60	2764.17
415.79	2747.79
415.98	2752.47
416.17	2715.02
416.36	2801.62
416.55	2832.05
416.74	2799.28
416.93	2871.84
417.12	2920.99
417.31	3052.06
417.50	3002.91
417.69	3098.87
417.88	2993.55
418.07	3014.61
418.26	2981.84
418.45	3009.93
418.64	3143.34
418.83	3115.25
419.02	3117.59
419.21	3199.51
419.39	3021.63
419.58	3068.44
419.77	3082.49
419.96	3215.90
420.15	3199.51
420.34	3148.02
420.53	3239.30
420.72	3215.90
420.91	3225.26
421.10	3332.92
421.29	3344.63
421.48	3351.65
421.67	3363.35
421.86	3391.44
422.05	3311.86
422.24	3363.35
422.43	3321.22
422.61	3386.76
422.80	3417.18
422.99	3417.18
423.18	3435.91
423.37	3456.97
423.56	3424.20
423.75	3604.42
423.94	3323.56
424.13	3318.88
424.32	3384.41
424.50	3398.46
424.69	3627.83
424.88	3597.40
425.07	3524.85
425.26	3576.34
425.45	3393.78
425.64	3463.99
425.83	3438.25
426.01	3620.81
426.20	3686.34
426.39	3447.61
426.58	3471.01
426.77	3513.14
426.96	3679.32
427.15	3606.77
427.33	3529.53
427.52	3662.94
427.71	3599.74
427.90	3651.24
428.09	3536.55
428.28	3590.38
428.46	3543.57
428.65	3721.45
428.84	3709.75
429.03	3875.93
429.22	3634.85
429.40	3789.33
429.59	3660.60
429.78	3545.91
429.97	3571.66
430.16	3681.66
430.34	3721.45
430.53	3786.99
430.72	3789.33
430.91	3887.63
431.10	3810.39
431.28	3904.01
431.47	4035.08
431.66	4231.69
431.85	3925.08
432.03	4037.42
432.22	4292.54
432.41	4032.74
432.60	4217.65
432.79	4248.07
432.97	4175.52
433.16	4219.99
433.35	4187.22
433.54	4212.96
433.72	4222.33
433.91	4133.39
434.10	4140.41
434.28	4163.81
434.47	4290.20
434.66	4257.43
434.85	4383.82
435.03	4414.25
435.22	4435.32
435.41	4533.62
435.59	4461.06
435.78	4395.53
435.97	4440.00
436.16	4528.94
436.34	4475.10
436.53	4606.17
436.72	4634.26
436.90	4580.43
437.09	4641.28
437.28	4407.23
437.46	4688.09
437.65	4585.11
437.84	4566.39
438.02	4533.62
438.21	4678.73
438.40	4496.17
438.58	4837.89
438.77	4779.37
438.96	4730.22
439.14	4950.23
439.33	4983.00
439.52	5029.81
439.70	4926.83
439.89	5046.20
440.08	5064.92
440.26	5025.13
440.45	5102.37
440.63	5235.78
440.82	5294.29
441.01	5071.94
441.19	5259.18
441.38	5357.49
441.57	5357.49
441.75	5359.83
441.94	5540.05
442.12	5514.30
442.31	5544.73
442.50	5612.60
442.68	5444.09
442.87	5568.13
443.05	5607.92
443.24	5685.16
443.43	5645.37
443.61	5769.42
443.80	5750.70
443.98	5568.13
444.17	5518.98
444.35	5598.56
444.54	5907.51
444.73	5675.80
444.91	5668.78
445.10	5783.46
445.28	5738.99
445.47	5762.40
445.65	5757.72
445.84	5832.62
446.02	5767.08
446.21	5621.97
446.39	5830.27
446.58	5888.79
446.77	6036.24
446.95	5797.51
447.14	5769.42
447.32	5909.85
447.51	5921.56
447.69	5816.23
447.88	5865.38
448.06	5984.75
448.25	5860.70
448.43	5919.21
448.62	5790.49
448.80	5804.53
448.99	6232.85
449.17	6211.78
449.36	6087.73
449.54	6115.82
449.73	6267.95
449.91	6242.21
450.10	6190.72
450.28	6368.60
450.46	6394.34
450.65	6317.11
450.83	6239.87
451.02	6305.40
451.20	6532.44
451.39	6366.26
451.57	6282.00
451.76	6289.02
451.94	6286.68
452.13	6509.03
452.31	6408.39
452.49	6368.60
452.68	6361.58
452.86	6431.79
453.05	6429.45
453.23	6548.82
453.42	6394.34
453.60	6387.32
453.78	6675.21
453.97	6363.92
454.15	6553.50
454.34	6384.98
454.52	6689.25
454.70	6703.29
454.89	6815.64
455.07	6635.42
455.26	6799.26
455.44	6752.45
455.62	6839.05
455.81	6792.23
455.99	6764.15
456.17	6731.38
456.36	6806.28
456.54	7176.08
456.73	7185.44
456.91	7199.49
457.09	6984.16
457.28	7353.96
457.46	7155.02
457.64	7281.41
457.83	7239.28
458.01	7112.89
458.19	7382.05
458.38	7295.45
458.56	7288.43
458.74	7349.28
458.93	7274.38
459.11	7311.83
459.29	7386.73
459.48	7325.88
459.66	7346.94
459.84	7393.75
460.03	7499.08
460.21	7442.90
460.39	7573.97
460.57	7447.58
460.76	7602.06
460.94	7492.05
461.12	7623.12
461.31	7625.47
461.49	7754.19
461.67	7513.12
461.85	7754.19
462.04	7737.81
462.22	8013.99
462.40	7742.49
462.59	7892.29
462.77	7906.33
462.95	8198.90
463.13	7819.73
463.32	8032.72
463.50	7864.20
463.68	7894.63
463.86	7988.25
464.05	7817.39
464.23	8016.33
464.41	7990.59
464.59	7962.50
464.78	8138.04
464.96	8093.57
465.14	7981.23
465.32	8124.00
465.50	8336.99
465.69	8353.37
465.87	8116.98
466.05	8334.65
466.23	8116.98
466.41	8362.73
466.60	8428.27
466.78	8262.09
466.96	8156.77
467.14	8056.12
467.32	8430.61
467.51	8423.59
467.69	8088.89
467.87	8578.06
468.05	8280.82
468.23	8454.02
468.41	8409.54
468.60	8535.93
468.78	8568.70
468.96	8493.80
469.14	8554.66
469.32	8802.75
469.50	8379.12
469.69	8599.13
469.87	8826.16
470.05	8870.63
470.23	8915.10
470.41	8788.71
470.59	9046.17
470.77	8840.20
470.95	8681.05
471.14	8992.34
471.32	8769.99
471.50	8999.36
471.68	9177.24
471.86	9202.99
472.04	9224.05
472.22	9617.26
472.40	8865.95
472.58	9320.01
472.77	9200.65
472.95	9406.61
473.13	9755.35
473.31	9385.55
473.49	9329.38
473.67	9401.93
473.85	9451.08
474.03	9792.80
474.21	9846.63
474.39	9881.74
474.57	9650.03
474.75	9809.19
474.93	9968.34
475.12	9802.16
475.30	10061.96
475.48	10022.17
475.66	10050.26
475.84	10097.07
476.02	10160.27
476.20	10289.00
476.38	10176.65
476.56	10602.63
476.74	10420.06
476.92	10541.77
477.10	10588.58
477.28	10913.92
477.46	10822.64
477.64	10764.12
477.82	10946.69
478.00	11321.17
478.18	11033.29
478.36	11213.51
478.54	11447.56
478.72	11318.83
478.90	11452.24
479.08	11527.14
479.26	11716.72
479.44	11819.71
479.62	11922.69
479.80	11847.79
479.98	11850.13
480.16	12283.13
480.34	12241.00
480.52	12203.55
480.70	12233.98
480.88	12133.34
481.06	12489.10
481.24	12376.75
481.41	12655.28
481.59	13062.53
481.77	12781.67
481.95	12641.23
482.13	12851.88
482.31	12802.73
482.49	13422.97
482.67	13310.63
482.85	13352.76
483.03	13399.57
483.21	13664.05
483.39	13685.11
483.57	13900.44
483.74	13844.27
483.92	14111.09
484.10	14015.13
484.28	14384.93
484.46	14429.40
484.64	14839.00
484.82	14410.68
485.00	14647.07
485.18	14757.08
485.35	15002.83
485.53	14993.47
485.71	14876.44
485.89	15405.41
486.07	15374.98
486.25	15143.27
486.43	15351.57
486.61	15634.78
486.78	15634.78
486.96	15800.96
487.14	16137.99
487.32	16063.10
487.50	16428.22
487.68	16374.39
487.85	16498.44
488.03	16479.71
488.21	16861.22
488.39	16760.58
488.57	17174.85
488.75	17132.72
488.92	17069.53
489.10	17493.16
489.28	17680.41
489.46	17715.51
489.64	17467.42
489.81	18249.16
489.99	18331.08
490.17	18293.63
490.35	18377.89
490.53	18377.89
490.70	18396.61
490.88	18677.48
491.06	19026.21
491.24	18719.60
491.41	18824.93
491.59	18853.02
491.77	18787.48
491.95	19211.12
492.13	19489.64
492.30	19587.94
492.48	19861.79
492.66	19695.61
492.84	19744.76
493.01	20044.35
493.19	20025.62
493.37	20313.51
493.54	20084.14
493.72	20442.24
493.90	20332.23
494.08	20524.16
494.25	20610.76
494.43	20940.77
494.61	21008.65
494.79	20783.96
494.96	21336.32
495.14	21413.56
495.32	21776.34
495.49	21312.92
495.67	21579.74
495.85	21881.67
496.02	22043.17
496.20	21996.35
496.38	22188.28
496.55	22218.71
496.73	22848.31
496.91	22544.04
497.09	22794.48
497.26	22621.28
497.44	22443.40
497.62	22735.96
497.79	23152.58
497.97	22951.29
498.14	23379.61
498.32	23625.37
498.50	23311.74
498.67	23552.81
498.85	23695.58
499.03	23374.93
499.20	23885.17
499.38	23861.76
499.56	24257.31
499.73	24315.83
499.91	24128.58
500.08	24421.15
500.26	24276.04
500.44	24566.26
500.61	24119.22
500.79	24114.54
500.97	24751.17
501.14	24907.98
501.32	24629.46
501.49	24664.57
501.67	24704.35
501.84	25385.45
502.02	25256.72
502.20	25720.15
502.37	25387.79
502.55	25528.22
502.72	25605.46
502.90	25523.54
503.07	25872.28
503.25	25673.34
503.43	25525.88
503.60	25937.82
503.78	26129.74
503.95	26068.89
504.13	26080.59
504.30	26352.09
504.48	26272.51
504.65	26429.33
504.83	26668.06
505.01	26796.79
505.18	26309.96
505.36	26979.36
505.53	26705.51
505.71	27000.42
505.88	27206.39
506.06	26944.25
506.23	26930.20
506.41	27449.80
506.58	27527.04
506.76	27152.55
506.93	27733.01
507.11	27388.95
507.28	27227.45
507.46	27559.81
507.63	27377.25
507.81	27938.97
507.98	27805.56
508.16	27634.71
508.33	28243.24
508.50	28123.88
508.68	28163.67
508.85	28414.10
509.03	28409.42
509.20	28498.36
509.38	29109.24
509.55	28879.87
509.73	28641.14
509.90	28975.83
510.08	28664.54
510.25	28877.53
510.42	28936.04
510.60	29060.09
510.77	29275.42
510.95	29273.08
511.12	29488.41
511.30	29476.71
511.47	29944.81
511.64	29727.14
511.82	29853.53
511.99	29186.48
512.17	30235.04
512.34	29802.04
512.51	30295.89
512.69	30312.28
512.86	29909.71
513.04	30452.71
513.21	30073.54
513.38	30354.41
513.56	30471.43
513.73	30499.52
513.90	30492.50
514.08	30239.72
514.25	30649.32
514.43	30513.56
514.60	30764.00
514.77	30618.89
514.95	31049.55
515.12	30930.18
515.29	31257.85
515.47	31330.41
515.64	31253.17
515.81	31384.24
515.99	31173.60
516.16	31667.45
516.33	31910.86
516.51	31454.46
516.68	30958.27
516.85	31049.55
517.03	31864.05
517.20	31871.07
517.37	31611.28
517.54	32098.11
517.72	31735.32
517.89	31831.29
518.06	32081.72
518.24	32002.14
518.41	31505.95
518.58	32250.24
518.75	31962.36
518.93	32861.12
519.10	32388.33
519.27	32063.00
519.45	32484.30
519.62	32687.92
519.79	32889.21
519.96	32645.79
520.14	33149.01
520.31	32734.73
520.48	33017.94
520.65	33116.24
520.83	33528.17
521.00	33076.45
521.17	33130.28
521.34	33354.97
521.52	33266.03
521.69	33469.66
521.86	33778.61
522.03	33589.03
522.20	34117.99
522.38	33890.96
522.55	33956.49
522.72	33787.97
522.89	33652.22
523.07	34010.32
523.24	34178.84
523.41	34085.22
523.58	33841.81
523.75	34621.20
523.92	34506.52
524.10	34403.53
524.27	34572.05
524.44	34724.19
524.61	34948.88
524.78	35171.23
524.96	34803.77
525.13	34974.63
525.30	35150.17
525.47	35042.50
525.64	35136.12
525.81	35178.25
525.98	35124.42
526.16	35276.55
526.33	35084.63
526.50	35182.93
526.67	34801.43
526.84	35501.25
527.01	34951.22
527.18	35402.94
527.36	35957.65
527.53	35812.54
527.70	35981.06
527.87	35784.45
528.04	35777.43
528.21	35868.71
528.38	35641.68
528.55	36341.50
528.72	35903.82
528.89	36023.19
529.07	36268.94
529.24	36219.79
529.41	36093.40
529.58	35915.52
529.75	36189.36
529.92	36690.24
530.09	36545.12
530.26	36430.44
530.43	36910.25
530.60	36371.92
530.77	36893.86
530.94	36898.55
531.11	36219.79
531.28	36790.88
531.46	36694.92
531.63	37160.69
531.80	36903.23
531.97	37076.43
532.14	36795.56
532.31	36535.76
532.48	37188.77
532.65	37120.90
532.82	37408.78
532.99	37331.54
533.16	37043.66
533.33	37427.51
533.50	37600.71
533.67	37556.24
533.84	37476.66
534.01	37429.85
534.18	37734.12
534.35	38045.41
534.52	37546.87
534.69	37715.39
534.86	37914.34
535.03	37453.25
535.20	38223.29
535.37	37872.21
535.54	38141.37
535.71	38319.25
535.88	38045.41
536.05	37841.78
536.22	38014.98
536.38	37848.80
536.55	38274.78
536.72	38003.28
536.89	38330.95
537.06	38220.95
537.23	38398.83
537.40	38167.12
537.57	38391.81
537.74	38366.06
537.91	38710.12
538.08	38504.15
538.25	38061.79
538.42	38361.38
538.59	38946.51
538.75	38682.03
538.92	38773.31
539.09	39309.30
539.26	38789.70
539.43	38859.91
539.60	39042.48
539.77	38822.47
539.94	39117.37
540.11	38705.44
540.28	38993.32
540.44	39014.39
540.61	38906.73
540.78	38990.98
540.95	39187.59
541.12	38862.26
541.29	39248.44
541.46	39526.97
541.62	39700.17
541.79	39672.08
541.96	39110.35
542.13	39728.25
542.30	39751.66
542.47	39828.90
542.63	39831.24
542.80	39952.94
542.97	40334.45
543.14	40432.75
543.31	40474.88
543.48	40409.35
543.64	40474.88
543.81	40289.98
543.98	40177.64
544.15	40119.12
544.32	40425.73
544.48	40760.43
544.65	40648.08
544.82	40224.45
544.99	40664.47
545.16	40418.71
545.32	40182.32
545.49	40694.89
545.66	40882.14
545.83	41029.59
546.00	40835.33
546.16	40940.65
546.33	40435.10
546.50	40404.67
546.67	40603.61
546.83	40720.64
547.00	40690.21
547.17	40568.51
547.34	40797.88
547.50	41125.55
547.67	40769.79
547.84	41270.67
548.00	41060.02
548.17	41392.37
548.34	41003.85
548.51	41558.55
548.67	41394.71
548.84	41221.52
549.01	41324.50
549.18	41202.79
549.34	41324.50
549.51	41706.01
549.68	41720.05
549.84	41748.14
550.01	41698.98
550.18	41703.67
550.34	41455.57
550.51	41720.05
550.68	41469.61
550.84	41593.66
551.01	41755.16
551.18	41921.34
551.34	41666.22
551.51	41979.85
551.68	41766.86
551.84	42391.78
552.01	41710.69
552.18	42071.13
552.34	41766.86
552.51	42052.41
552.68	41949.42
552.84	42176.45
553.01	42700.73
553.18	41879.21
553.34	42607.11
553.51	42101.56
553.67	42363.70
553.84	42492.43
554.01	42218.58
554.17	42696.05
554.34	42909.04
554.51	42452.64
554.67	42588.39
554.84	42162.41
555.00	42375.40
555.17	42192.84
555.33	42885.64
555.50	42693.71
555.67	42733.50
555.83	42550.94
556.00	42689.03
556.16	43344.38
556.33	42742.86
556.50	42827.12
556.66	42567.32
556.83	42518.17
556.99	42618.81
557.16	42527.53
557.32	42529.87
557.49	42972.24
557.65	42227.95
557.82	42667.97
557.98	43154.80
558.15	42859.89
558.32	43021.39
558.48	42850.53
558.65	42803.72
558.81	42768.61
558.98	43124.37
559.14	43019.05
559.31	42932.45
559.47	42948.83
559.64	43091.60
559.80	42780.31
559.97	43519.92
560.13	42899.68
560.30	43208.63
560.46	43442.68
560.63	43065.86
560.79	43208.63
560.96	43580.78
561.12	43367.79
561.29	43557.37
561.45	43283.53
561.61	42965.21
561.78	43449.70
561.94	43044.79
562.11	43367.79
562.27	43531.62
562.44	43061.18
562.60	43973.98
562.77	43849.94
562.93	43763.34
563.10	43957.60
563.26	43571.41
563.42	43517.58
563.59	43206.29
563.75	43662.69
563.92	43615.88
564.08	43629.93
564.24	43573.75
564.41	43753.97
564.57	43772.70
564.74	43969.30
564.90	43899.09
565.07	44130.80
565.23	43625.25
565.39	44011.43
565.56	44105.06
565.72	43580.78
565.88	44065.27
566.05	43386.51
566.21	43744.61
566.38	44259.53
566.54	43821.85
566.70	43938.88
566.87	44144.84
567.03	43491.83
567.19	44404.64
567.36	43899.09
567.52	43676.74
567.68	44226.76
567.85	44067.61
568.01	44065.27
568.17	43665.03
568.34	44137.82
568.50	44325.07
568.66	43948.24
568.83	43866.32
568.99	43782.06
569.15	43856.96
569.32	43423.96
569.48	44184.63
569.64	44025.48
569.81	43959.94
569.97	44107.40
570.13	44053.56
570.30	43538.65
570.46	43777.38
570.62	43868.66
570.78	43756.32
570.95	44069.95
571.11	43936.54
571.27	43791.42
571.43	43997.39
571.60	44353.15
571.76	44060.58
571.92	44107.40
572.09	43945.90
572.25	44133.14
572.41	44018.46
572.57	43899.09
572.74	44509.97
572.90	44165.91
573.06	44603.59
573.22	44196.34
573.38	43927.17
573.55	43931.86
573.71	43950.58
573.87	43990.37
574.03	43988.03
574.20	44247.83
574.36	43906.11
574.52	44238.47
574.68	43803.13
574.84	44369.54
575.01	44409.32
575.17	44275.91
575.33	44219.74
575.49	44133.14
575.65	44596.57
575.82	44758.06
575.98	43962.28
576.14	44610.61
576.30	44339.11
576.46	44069.95
576.62	43835.89
576.79	44009.09
576.95	43861.64
577.11	44072.29
577.27	43702.48
577.43	44484.22
577.59	43861.64
577.75	44130.80
577.92	44140.16
578.08	44257.19
578.24	44076.97
578.40	44308.68
578.56	44102.71
578.72	44285.28
578.88	44327.41
579.04	44484.22
579.21	44254.85
579.37	44016.11
579.53	43880.36
579.69	43908.45
579.85	44493.58
580.01	44612.95
580.17	43915.47
580.33	44751.04
580.49	44339.11
580.65	44566.14
580.82	44165.91
580.98	44603.59
581.14	44631.68
581.30	44704.23
581.46	44430.39
581.62	44732.32
581.78	44474.86
581.94	44615.29
582.10	44577.84
582.26	44678.49
582.42	43981.01
582.58	44191.65
582.74	44315.70
582.90	43878.02
583.06	44978.07
583.22	44905.52
583.38	44851.69
583.54	44048.88
583.70	44243.15
583.86	44425.71
584.02	44032.50
584.18	44563.80
584.34	44238.47
584.50	44294.64
584.66	44545.08
584.82	44339.11
584.98	44790.83
585.14	44926.58
585.30	44411.67
585.46	44669.12
585.62	44444.43
585.78	44416.35
585.94	44198.68
586.10	44516.99
586.26	44318.04
586.42	44697.21
586.58	44678.49
586.74	44406.98
586.90	44587.21
587.06	44034.84
587.22	44863.39
587.38	44032.50
587.54	44170.59
587.70	44760.40
587.86	44547.42
588.02	44739.34
588.18	44800.19
588.34	44247.83
588.49	44580.18
588.65	44093.35
588.81	44580.18
588.97	44130.80
589.13	44311.02
589.29	44554.44
589.45	44512.31
589.61	44516.99
589.77	45275.32
589.93	44823.60
590.08	44528.69
590.24	44341.45
