SpectraSuite Data File
++++++++++++++++++++++++++++++++++++
Date: Fri Oct 25 11:23:47 EDT 2013
User: price-jones
Dark Spectrum Present: No
Reference Spectrum Present: No
Number of Sampled Component Spectra: 1
Spectrometers: USB2+H05261
Integration Time (usec): 100000 (USB2+H05261)
Spectra Averaged: 1 (USB2+H05261)
Boxcar Smoothing: 0 (USB2+H05261)
Correct for Electrical Dark: No (USB2+H05261)
Strobe/Lamp Enabled: No (USB2+H05261)
Correct for Detector Non-linearity: No (USB2+H05261)
Correct for Stray Light: No (USB2+H05261)
Number of Pixels in Processed Spectrum: 2048
>>>>>Begin Processed Spectral Data<<<<<
365.73	215.33
365.92	215.33
366.12	215.33
366.32	152.13
366.52	119.37
366.72	35.11
366.91	84.26
367.11	138.09
367.31	175.54
367.51	121.71
367.70	107.66
367.90	79.58
368.10	138.09
368.30	152.13
368.49	184.90
368.69	138.09
368.89	208.31
369.09	107.66
369.28	184.90
369.48	121.71
369.68	114.69
369.87	161.50
370.07	166.18
370.27	208.31
370.47	348.74
370.66	594.50
370.86	676.41
371.06	678.76
371.25	697.48
371.45	660.03
371.65	723.23
371.84	720.88
372.04	730.25
372.24	711.52
372.44	730.25
372.63	709.18
372.83	730.25
373.03	755.99
373.22	678.76
373.42	711.52
373.62	711.52
373.81	772.38
374.01	889.40
374.21	854.30
374.40	774.72
374.60	854.30
374.79	901.11
374.99	830.89
375.19	854.30
375.38	882.38
375.58	837.91
375.78	905.79
375.97	891.74
376.17	889.40
376.37	866.00
376.56	903.45
376.76	875.36
376.95	833.23
377.15	844.93
377.35	884.72
377.54	917.49
377.74	936.21
377.93	964.30
378.13	858.98
378.33	912.81
378.52	945.58
378.72	936.21
378.91	922.17
379.11	880.04
379.31	945.58
379.50	926.85
379.70	1086.01
379.89	985.37
380.09	978.34
380.28	870.68
380.48	1046.22
380.68	1001.75
380.87	917.49
381.07	1039.20
381.26	985.37
381.46	976.00
381.65	973.66
381.85	1027.50
382.04	992.39
382.24	1076.65
382.43	1069.62
382.63	997.07
382.83	1046.22
383.02	1149.20
383.22	1203.04
383.41	1015.79
383.61	1043.88
383.80	1170.27
384.00	1125.80
384.19	1123.46
384.39	1128.14
384.58	1130.48
384.78	1114.10
384.97	1158.57
385.17	1069.62
385.36	1116.44
385.56	1123.46
385.75	1249.85
385.95	1299.00
386.14	1207.72
386.34	1165.59
386.53	1181.97
386.72	1181.97
386.92	1308.36
387.11	1231.12
387.31	1306.02
387.50	1254.53
387.70	1207.72
387.89	1376.24
388.09	1308.36
388.28	1317.72
388.48	1299.00
388.67	1394.96
388.86	1233.46
389.06	1366.87
389.25	1451.13
389.45	1387.94
389.64	1390.28
389.84	1455.81
390.03	1322.40
390.22	1277.93
390.42	1287.29
390.61	1331.76
390.81	1371.55
391.00	1399.64
391.19	1394.96
391.39	1399.64
391.58	1451.13
391.78	1523.69
391.97	1451.13
392.16	1476.88
392.36	1544.75
392.55	1448.79
392.75	1528.37
392.94	1497.94
393.13	1479.22
393.33	1523.69
393.52	1486.24
393.71	1568.16
393.91	1673.48
394.10	1556.46
394.29	1577.52
394.49	1570.50
394.68	1687.53
394.88	1607.95
395.07	1753.06
395.26	1713.27
395.46	1748.38
395.65	1813.92
395.84	1764.76
396.04	1790.51
396.23	1746.04
396.42	1865.41
396.62	1720.29
396.81	1823.28
397.00	1781.15
397.19	1736.68
397.39	1900.52
397.58	1888.81
397.77	1877.11
397.97	1811.57
398.16	1851.36
398.35	1949.67
398.55	1816.26
398.74	1909.88
398.93	1994.14
399.12	1966.05
399.32	1877.11
399.51	1980.09
399.70	1912.22
399.90	2012.86
400.09	1961.37
400.28	2005.84
400.47	2073.71
400.67	1947.33
400.86	2047.97
401.05	2087.76
401.24	2200.10
401.44	2010.52
401.63	2062.01
401.82	2237.55
402.01	2125.21
402.21	2099.46
402.40	2190.74
402.59	2258.62
402.78	2244.57
402.97	2120.53
403.17	2200.10
403.36	2303.09
403.55	2270.32
403.74	2314.79
403.93	2314.79
404.13	2406.07
404.32	2328.83
404.51	2352.24
404.70	2399.05
404.89	2382.67
405.09	2420.11
405.28	2476.29
405.47	2363.94
405.66	2462.24
405.85	2516.08
406.05	2429.48
406.24	2597.99
406.43	2672.89
406.62	2672.89
406.81	2569.91
407.00	2628.42
407.20	2635.44
407.39	2590.97
407.58	2656.51
407.77	2602.68
407.96	2670.55
408.15	2722.04
408.34	2771.19
408.54	2733.75
408.73	2782.90
408.92	2841.41
409.11	2836.73
409.30	3000.57
409.49	2867.16
409.68	2977.16
409.87	2909.29
410.07	3115.25
410.26	3089.51
410.45	2963.12
410.64	3042.70
410.83	3063.76
411.02	3026.31
411.21	3283.77
411.40	3201.85
411.59	3241.64
411.78	3185.47
411.98	3215.90
412.17	3232.28
412.36	3379.73
412.55	3269.73
412.74	3435.91
412.93	3515.48
413.12	3370.37
413.31	3548.25
413.50	3515.48
413.69	3515.48
413.88	3557.61
414.07	3552.93
414.26	3597.40
414.45	3716.77
414.64	3538.89
414.83	3581.02
415.02	3798.69
415.22	3854.86
415.41	3913.38
415.60	3955.51
415.79	3953.16
415.98	4102.96
416.17	4126.36
416.36	4053.81
416.55	3957.85
416.74	4046.79
416.93	4042.11
417.12	4271.48
417.31	4243.39
417.50	4227.01
417.69	4320.63
417.88	4222.33
418.07	4175.52
418.26	4341.69
418.45	4344.03
418.64	4531.28
418.83	4463.40
419.02	4320.63
419.21	4486.81
419.39	4552.34
419.58	4486.81
419.77	4559.36
419.96	4418.93
420.15	4599.15
420.34	4606.17
420.53	4587.45
420.72	4755.97
420.91	4802.78
421.10	4772.35
421.29	4833.21
421.48	4737.24
421.67	4788.74
421.86	4809.80
422.05	4730.22
422.24	4943.21
422.43	4821.50
422.61	4863.63
422.80	4971.30
422.99	4973.64
423.18	4887.04
423.37	4999.38
423.56	5071.94
423.75	5050.88
423.94	4933.85
424.13	4788.74
424.32	4809.80
424.50	4990.02
424.69	4971.30
424.88	5006.41
425.07	5011.09
425.26	4964.28
425.45	5053.22
425.64	4933.85
425.83	5050.88
426.01	5097.69
426.20	5064.92
426.39	5125.77
426.58	5057.90
426.77	5179.61
426.96	5207.69
427.15	5165.56
427.33	5383.23
427.52	5146.84
427.71	5219.39
427.90	5224.08
428.09	5378.55
428.28	5458.13
428.46	5418.34
428.65	5345.78
428.84	5500.26
429.03	5511.96
429.22	5598.56
429.40	5540.05
429.59	5647.71
429.78	5385.57
429.97	5331.74
430.16	5385.57
430.34	5518.98
430.53	5717.93
430.72	5619.63
430.91	5654.73
431.10	5401.96
431.28	5755.38
431.47	5813.89
431.66	5966.03
431.85	5865.38
432.03	5996.45
432.22	6157.95
432.41	5968.37
432.60	5877.09
432.79	5916.87
432.97	6221.14
433.16	6146.25
433.35	6064.33
433.54	6136.88
433.72	6221.14
433.91	6164.97
434.10	6204.76
434.28	6050.28
434.47	6211.78
434.66	6387.32
434.85	6274.98
435.03	6455.20
435.22	6282.00
435.41	6499.67
435.59	6335.83
435.78	6471.58
435.97	6668.19
436.16	6387.32
436.34	6392.00
436.53	6602.65
436.72	6700.95
436.90	6546.48
437.09	6780.53
437.28	6546.48
437.46	6675.21
437.65	6658.82
437.84	7023.95
438.02	6719.68
438.21	6731.38
438.40	6888.20
438.58	7014.59
438.77	7185.44
438.96	7026.29
439.14	7250.98
439.33	7124.59
439.52	7192.47
439.70	7227.57
439.89	7208.85
440.08	7470.99
440.26	7157.36
440.45	7517.80
440.63	7485.03
440.82	7754.19
441.01	7445.24
441.19	7655.89
441.38	7585.68
441.57	7585.68
441.75	7822.07
441.94	8119.32
442.12	8121.66
442.31	7962.50
442.50	8100.59
442.68	8177.83
442.87	8116.98
443.05	8189.53
443.24	8161.45
443.43	8133.36
443.61	8266.77
443.80	8524.23
443.98	7985.91
444.17	8039.74
444.35	8320.60
444.54	8273.79
444.73	8351.03
444.91	8229.32
445.10	8442.31
445.28	8325.29
445.47	8409.54
445.65	8425.93
445.84	8477.42
446.02	8505.51
446.21	8578.06
446.39	8327.63
446.58	8493.80
446.77	8491.46
446.95	8341.67
447.14	8255.07
447.32	8489.12
447.51	8643.60
447.69	8458.70
447.88	8425.93
448.06	8685.73
448.25	8587.43
448.43	8739.56
448.62	8746.58
448.80	8720.84
448.99	8669.34
449.17	8692.75
449.36	8645.94
449.54	8872.97
449.73	8896.38
449.91	8823.82
450.10	8952.55
450.28	8985.32
450.46	9163.20
450.65	9163.20
450.83	9062.55
451.02	8777.01
451.20	9064.89
451.39	9135.11
451.57	9366.82
451.76	9118.73
451.94	9214.69
452.13	9521.30
452.31	9502.58
452.49	9270.86
452.68	9298.95
452.86	9172.56
453.05	9621.94
453.23	9413.63
453.42	9423.00
453.60	9327.03
453.78	9584.49
453.97	9605.56
454.15	9586.83
454.34	9568.11
454.52	9682.80
454.70	9729.61
454.89	9783.44
455.07	9944.94
455.26	9935.57
455.44	10087.71
455.62	9839.61
455.81	9872.38
455.99	10141.54
456.17	9928.55
456.36	10017.49
456.54	10162.61
456.73	10436.45
456.91	10387.30
457.09	10480.92
457.28	10534.75
457.46	10396.66
457.64	10588.58
457.83	10607.31
458.01	10611.99
458.19	10878.81
458.38	10682.20
458.56	10738.38
458.74	10736.04
458.93	10698.59
459.11	10836.68
459.29	10675.18
459.48	10911.58
459.66	10911.58
459.84	10979.45
460.03	11250.96
460.21	11044.99
460.39	11204.14
460.57	10869.45
460.76	11110.52
460.94	11241.59
461.12	11215.85
461.31	11337.56
461.49	11164.36
461.67	11293.08
461.85	11644.17
462.04	11410.11
462.22	11571.61
462.40	11630.12
462.59	11632.46
462.77	11658.21
462.95	11735.45
463.13	11618.42
463.32	11658.21
463.50	11946.09
463.68	11913.33
463.86	11990.56
464.05	11616.08
464.23	11976.52
464.41	12126.32
464.59	11918.01
464.78	12311.22
464.96	12105.25
465.14	11845.45
465.32	12086.53
465.50	12334.62
465.69	12306.54
465.87	12198.87
466.05	12233.98
466.23	12276.11
466.41	12395.48
466.60	12573.36
466.78	12184.83
466.96	12219.94
467.14	12201.21
467.32	12343.99
467.51	12587.40
467.69	12037.38
467.87	12362.71
468.05	12758.26
468.23	12645.91
468.41	12479.74
468.60	12727.83
468.78	12858.90
468.96	12578.04
469.14	12879.97
469.32	13319.99
469.50	12786.35
469.69	12896.35
469.87	13217.01
470.05	13193.60
470.23	13188.92
470.41	13294.24
470.59	13474.46
470.77	13303.60
470.95	13458.08
471.14	13617.24
471.32	13280.20
471.50	13687.45
471.68	13502.55
471.86	13689.79
472.04	13511.91
472.22	13940.23
472.40	13694.47
472.58	14040.87
472.77	14033.85
472.95	14267.91
473.13	14771.12
473.31	14017.47
473.49	13965.98
473.67	14427.06
473.85	14310.04
474.03	14794.53
474.21	14665.80
474.39	15037.94
474.57	14869.42
474.75	14923.26
474.93	15140.93
475.12	15084.75
475.30	15220.50
475.48	15159.65
475.66	15309.44
475.84	15014.54
476.02	15328.17
476.20	15536.48
476.38	15564.56
476.56	15934.37
476.74	15836.06
476.92	16142.67
477.10	15917.98
477.28	16437.58
477.46	16079.48
477.64	16491.41
477.82	16547.59
478.00	16973.56
478.18	16568.65
478.36	16828.45
478.54	17397.20
478.72	17022.72
478.90	17322.30
479.08	17703.81
479.26	17860.63
479.44	17834.88
479.62	17792.75
479.80	18195.32
479.98	18108.72
480.16	18621.30
480.34	18221.07
480.52	18871.74
480.70	18855.36
480.88	18579.17
481.06	19028.56
481.24	18988.77
481.41	19103.45
481.59	19477.94
481.77	19716.67
481.95	19644.12
482.13	19861.79
482.31	19999.88
482.49	20638.84
482.67	20372.02
482.85	20706.72
483.03	20563.95
483.21	20821.41
483.39	21151.42
483.57	20884.60
483.74	21221.64
483.92	21568.04
484.10	21507.18
484.28	21788.05
484.46	22197.64
484.64	22679.79
484.82	22129.77
485.00	22352.12
485.18	22665.75
485.35	23023.85
485.53	23028.53
485.71	23293.01
485.89	23520.04
486.07	23667.50
486.25	23337.48
486.43	23838.36
486.61	23859.42
486.78	24018.58
486.96	24201.14
487.14	24872.87
487.32	24788.61
487.50	24989.90
487.68	25006.28
487.85	25357.36
488.03	25537.59
488.21	25671.00
488.39	25694.40
488.57	25986.97
488.75	26623.59
488.92	26946.59
489.10	26838.92
489.28	26590.83
489.46	27197.02
489.64	27096.38
489.81	27999.83
489.99	27875.78
490.17	27978.76
490.35	28409.42
490.53	28236.22
490.70	28177.71
490.88	28215.16
491.06	28898.59
491.24	29113.92
491.41	29085.84
491.59	29385.43
491.77	29479.05
491.95	29567.99
492.13	30199.93
492.30	30033.75
492.48	29993.97
492.66	30415.26
492.84	30426.96
493.01	30864.64
493.19	30501.86
493.37	31054.23
493.54	31147.85
493.72	31622.98
493.90	31477.86
494.08	32009.17
494.25	32360.25
494.43	32142.58
494.61	32458.55
494.79	32826.01
494.96	32481.95
495.14	32500.68
495.32	33280.08
495.49	33638.18
495.67	33607.75
495.85	33790.31
496.02	33813.72
496.20	33977.56
496.38	34244.38
496.55	34668.02
496.73	35225.06
496.91	35019.10
497.09	34792.06
497.26	34906.75
497.44	34923.13
497.62	35487.20
497.79	35941.27
497.97	35665.08
498.14	36102.76
498.32	36397.67
498.50	36086.38
498.67	36814.29
498.85	36823.65
499.03	36954.72
499.20	36961.74
499.38	36931.31
499.56	37436.87
499.73	37174.73
499.91	37633.47
500.08	37708.37
500.26	37720.07
500.44	37926.04
500.61	38167.12
500.79	37827.74
500.97	38157.75
501.14	38651.61
501.32	38880.98
501.49	38939.49
501.67	38700.76
501.84	39201.63
502.02	38583.73
502.20	39491.86
502.37	39782.09
502.55	39796.13
502.72	39772.72
502.90	39739.96
503.07	39847.62
503.25	40023.16
503.43	39922.52
503.60	39915.50
503.78	40254.87
503.95	40423.39
504.13	40313.39
504.30	40519.35
504.48	40456.16
504.65	40851.71
504.83	41333.86
505.01	41390.03
505.18	41366.63
505.36	42052.41
505.53	41471.95
505.71	41734.09
505.88	41916.65
506.06	41593.66
506.23	42403.49
506.41	41848.78
506.58	42546.26
506.76	42293.48
506.93	42752.23
507.11	42616.47
507.28	42682.01
507.46	42646.90
507.63	42745.20
507.81	43704.82
507.98	43292.89
508.16	43096.28
508.33	43271.82
508.50	43634.61
508.68	44091.01
508.85	43892.07
509.03	44041.86
509.20	44294.64
509.38	44453.79
509.55	44505.29
509.73	44577.84
509.90	44701.89
510.08	44676.15
510.25	45001.48
510.42	44996.80
510.60	45443.84
510.77	45530.44
510.95	45656.83
511.12	45387.67
511.30	45104.46
511.47	45677.90
511.64	45380.65
511.82	46019.61
511.99	45890.88
512.17	46431.55
512.34	45790.24
512.51	46604.75
512.69	46698.37
512.86	46848.16
513.04	46698.37
513.21	46836.46
513.38	46890.29
513.56	46918.38
513.73	46855.18
513.90	47119.66
514.08	47187.54
514.25	47234.35
514.43	47725.86
514.60	47510.53
514.77	47477.77
514.95	47725.86
515.12	48245.46
515.29	47646.29
515.47	47943.53
515.64	48210.35
515.81	47985.66
515.99	48392.92
516.16	48498.24
516.33	48542.71
516.51	48830.60
516.68	48481.86
516.85	48516.96
517.03	48807.19
517.20	49198.06
517.37	49106.78
517.54	49113.80
517.72	48783.79
517.89	49425.09
518.06	49429.77
518.24	49521.05
518.41	49312.75
518.58	49593.61
518.75	49319.77
518.93	49659.15
519.10	49495.31
519.27	50010.23
519.45	50089.80
519.62	50335.56
519.79	50218.53
519.96	50417.48
520.14	50075.76
520.31	50064.06
520.48	50487.70
520.65	50408.12
520.83	50644.51
521.00	50384.71
521.17	50894.95
521.34	50806.01
521.52	51098.58
521.69	50997.93
521.86	51278.80
522.03	51161.77
522.20	51440.29
522.38	51599.45
522.55	51566.68
522.72	51428.59
522.89	51395.82
523.07	51828.82
523.24	51770.31
523.41	52034.79
523.58	51681.37
523.75	52175.22
523.92	52186.92
524.10	52334.38
524.27	52090.96
524.44	52275.87
524.61	52037.13
524.78	52437.36
524.96	52334.38
525.13	52215.01
525.30	52556.73
525.47	52748.65
525.64	52687.80
525.81	52793.12
525.98	52839.93
526.16	52687.80
526.33	52746.31
526.50	53343.15
526.67	53017.82
526.84	53272.93
527.01	52720.57
527.18	53179.31
527.36	53242.51
527.53	53427.41
527.70	53626.35
527.87	53633.38
528.04	53254.21
528.21	53645.08
528.38	53558.48
528.55	53825.30
528.72	53675.51
528.89	53659.12
529.07	53712.95
529.24	53308.04
529.41	54138.93
529.58	53532.73
529.75	53848.71
529.92	53970.41
530.09	53986.80
530.26	54038.29
530.43	54026.59
530.60	53883.81
530.77	53977.43
530.94	54145.95
531.11	54169.36
531.28	54375.33
531.46	54501.71
531.63	54213.83
531.80	54471.29
531.97	54532.14
532.14	54653.85
532.31	54527.46
532.48	54525.12
532.65	54784.92
532.82	54698.32
532.99	54714.70
533.16	54820.03
533.33	55105.57
533.50	55096.21
533.67	54639.81
533.84	54866.84
534.01	54768.54
534.18	55143.02
534.35	55463.67
534.52	55075.15
534.69	55409.84
534.86	55182.81
535.03	55136.00
535.20	55367.71
535.37	55393.46
535.54	55529.21
535.71	55477.72
535.88	55571.34
536.05	55632.19
536.22	55564.32
536.38	55648.58
536.55	55585.38
536.72	55683.69
536.89	55824.12
537.06	55744.54
537.23	56123.71
537.40	55693.05
537.57	55791.35
537.74	55950.51
537.91	56250.09
538.08	56102.64
538.25	55828.80
538.42	55966.89
538.59	56287.54
538.75	56191.58
538.92	56135.41
539.09	56437.34
539.26	56364.78
539.43	56144.77
539.60	56165.84
539.77	56521.60
539.94	56371.80
540.11	56463.08
540.28	56566.07
540.44	56610.54
540.61	56704.16
540.78	56523.94
540.95	56530.96
541.12	56540.32
541.29	56598.83
541.46	56610.54
541.62	56652.67
541.79	56856.29
541.96	56425.64
542.13	56615.22
542.30	56765.01
542.47	56889.06
542.63	57017.79
542.80	56949.92
542.97	57190.99
543.14	57364.19
543.31	57174.61
543.48	57333.76
543.64	57640.37
543.81	57759.74
543.98	57488.24
544.15	57427.38
544.32	57572.50
544.48	57991.45
544.65	57525.69
544.82	57614.63
544.99	57279.93
545.16	57581.86
545.32	57455.47
545.49	57773.78
545.66	57710.59
545.83	57642.71
546.00	57914.22
546.16	57935.28
546.33	57942.30
546.50	57743.36
546.67	57977.41
546.83	57654.42
547.00	57876.77
547.17	57673.14
547.34	57939.96
547.50	58195.08
547.67	58396.37
547.84	58021.88
548.00	58452.54
548.17	58227.85
548.34	58204.44
548.51	58592.97
548.67	58293.38
548.84	58124.86
549.01	58258.27
549.18	58279.34
549.34	58375.30
549.51	58375.30
549.68	58616.38
549.84	58609.35
550.01	58497.01
550.18	58412.75
550.34	58599.99
550.51	58553.18
550.68	58623.40
550.84	58314.45
551.01	58567.23
551.18	58616.38
551.34	58700.64
551.51	58562.54
551.68	58695.95
551.84	58688.93
552.01	58646.80
552.18	58965.12
552.34	58728.72
552.51	59056.40
552.68	58714.68
552.84	58724.04
553.01	59121.93
553.18	59023.63
553.34	59044.69
553.51	58745.11
553.67	58887.88
553.84	58937.03
554.01	59161.72
554.17	59058.74
554.34	59119.59
554.51	59093.85
554.67	59372.37
554.84	59028.31
555.00	59192.15
555.17	59054.06
555.33	59187.47
555.50	59093.85
555.67	59185.13
555.83	59117.25
556.00	58990.86
556.16	59458.97
556.33	59498.76
556.50	59344.28
556.66	59554.93
556.83	59236.62
556.99	59407.48
557.16	59442.59
557.32	59561.95
557.49	59723.45
557.65	59227.26
557.82	59470.67
557.98	59458.97
558.15	59409.82
558.32	59370.03
558.48	59487.06
558.65	59561.95
558.81	59709.41
558.98	59632.17
559.14	59641.53
559.31	59629.83
559.47	59929.42
559.64	59929.42
559.80	59709.41
559.97	59903.67
560.13	59590.04
560.30	59744.51
560.46	59927.08
560.63	59859.20
560.79	59978.57
560.96	60001.97
561.12	60037.08
561.29	60252.41
561.45	60147.09
561.61	60039.42
561.78	59805.37
561.94	59934.10
562.11	60086.23
562.27	59807.71
562.44	60144.75
562.60	60088.57
562.77	60203.26
562.93	59962.18
563.10	60175.17
563.26	60111.98
563.42	60151.77
563.59	60205.60
563.75	60243.05
563.92	60200.92
564.08	60121.34
564.24	60236.03
564.41	60100.28
564.57	60367.10
564.74	60142.41
564.90	60294.54
565.07	60151.77
565.23	60271.14
565.39	60322.63
565.56	60236.03
565.72	60179.85
565.88	60250.07
566.05	60348.37
566.21	60196.24
566.38	60324.97
566.54	60481.78
566.70	60521.57
566.87	60472.42
567.03	60317.95
567.19	60552.00
567.36	60437.31
567.52	60320.29
567.68	60722.86
567.85	60554.34
568.01	60647.96
568.17	60456.04
568.34	60580.09
568.50	60654.98
568.66	60528.59
568.83	60828.18
568.99	60402.21
569.15	60453.70
569.32	60420.93
569.48	60465.40
569.64	60697.11
569.81	60542.64
569.97	60612.85
570.13	60718.18
570.30	60568.38
570.46	60662.00
570.62	60563.70
570.78	60690.09
570.95	60713.50
571.11	60685.41
571.27	60636.26
571.43	60776.69
571.60	60828.18
571.76	60729.88
571.92	60772.01
572.09	60779.03
572.25	60720.52
572.41	60622.22
572.57	60664.35
572.74	60994.36
572.90	60706.47
573.06	60727.54
573.22	60793.07
573.38	60856.27
573.55	60818.82
573.71	60732.22
573.87	60835.20
574.03	60718.18
574.20	60704.13
574.36	60626.90
574.52	60711.16
574.68	60973.30
574.84	60926.49
575.01	60900.74
575.17	60790.73
575.33	60769.67
575.49	60519.23
575.65	60734.56
575.82	60886.70
575.98	60989.68
576.14	61038.83
576.30	60903.08
576.46	60828.18
576.62	60814.14
576.79	60788.39
576.95	60624.56
577.11	61043.51
577.27	61106.71
577.43	60931.17
577.59	60800.10
577.75	60893.72
577.92	60907.76
578.08	60907.76
578.24	61022.45
578.40	61022.45
578.56	61083.30
578.72	60935.85
578.88	61118.41
579.04	61118.41
579.21	60945.21
579.37	61186.28
579.53	61195.65
579.69	60940.53
579.85	60729.88
580.01	60959.25
580.17	60690.09
580.33	61048.19
580.49	61064.58
580.65	61099.68
580.82	60982.66
580.98	60966.27
581.14	60804.78
581.30	61165.22
581.46	61062.24
581.62	60987.34
581.78	61015.43
581.94	61132.45
582.10	61017.77
582.26	61174.58
582.42	60987.34
582.58	61071.60
582.74	61099.68
582.90	60898.40
583.06	60910.10
583.22	60863.29
583.38	61038.83
583.54	61010.74
583.70	61207.35
583.86	61036.49
584.02	60959.25
584.18	61048.19
584.34	60921.80
584.50	61174.58
584.66	61020.11
584.82	60851.59
584.98	61446.08
585.14	61162.88
585.30	61118.41
585.46	61080.96
585.62	61090.32
585.78	61305.65
585.94	61001.38
586.10	61183.94
586.26	61099.68
586.42	61366.51
586.58	61324.38
586.74	61300.97
586.90	61087.98
587.06	61050.53
587.22	61242.46
587.38	61188.63
587.54	61410.98
587.70	61413.32
587.86	61141.81
588.02	61174.58
588.18	61331.40
588.34	61141.81
588.49	61155.86
