SpectraSuite Data File
++++++++++++++++++++++++++++++++++++
Date: Fri Oct 25 10:44:23 EDT 2013
User: price-jones
Dark Spectrum Present: No
Reference Spectrum Present: No
Number of Sampled Component Spectra: 1
Spectrometers: USB2+H05261
Integration Time (usec): 100000 (USB2+H05261)
Spectra Averaged: 1 (USB2+H05261)
Boxcar Smoothing: 0 (USB2+H05261)
Correct for Electrical Dark: No (USB2+H05261)
Strobe/Lamp Enabled: No (USB2+H05261)
Correct for Detector Non-linearity: No (USB2+H05261)
Correct for Stray Light: No (USB2+H05261)
Number of Pixels in Processed Spectrum: 2048
>>>>>Begin Processed Spectral Data<<<<<
365.73	180.22
365.92	180.22
366.12	180.22
366.32	0.00
366.52	21.06
366.72	0.00
366.91	70.22
367.11	0.00
367.31	44.47
367.51	0.00
367.70	4.68
367.90	98.30
368.10	11.70
368.30	70.22
368.49	32.77
368.69	70.22
368.89	58.51
369.09	42.13
369.28	39.79
369.48	72.56
369.68	60.85
369.87	56.17
370.07	105.32
370.27	177.88
370.47	212.99
370.66	404.91
370.86	400.23
371.06	477.47
371.25	428.32
371.45	514.92
371.65	458.74
371.84	479.81
372.04	465.77
372.24	557.05
372.44	554.71
372.63	557.05
372.83	573.43
373.03	503.22
373.22	489.17
373.42	500.87
373.62	510.24
373.81	531.30
374.01	510.24
374.21	568.75
374.40	603.86
374.60	592.16
374.79	545.34
374.99	608.54
375.19	596.84
375.38	557.05
375.58	543.00
375.78	580.45
375.97	606.20
376.17	638.97
376.37	510.24
376.56	566.41
376.76	613.22
376.95	667.05
377.15	587.47
377.35	648.33
377.54	685.78
377.74	610.88
377.93	634.29
378.13	634.29
378.33	667.05
378.52	674.07
378.72	723.23
378.91	732.59
379.11	697.48
379.31	674.07
379.50	662.37
379.70	636.63
379.89	730.25
380.09	674.07
380.28	760.67
380.48	699.82
380.68	716.20
380.87	660.03
381.07	786.42
381.26	758.33
381.46	716.20
381.65	795.78
381.85	681.10
382.04	800.46
382.24	741.95
382.43	671.73
382.63	669.39
382.83	746.63
383.02	751.31
383.22	699.82
383.41	702.16
383.61	744.29
383.80	856.64
384.00	798.12
384.19	856.64
384.39	896.43
384.58	830.89
384.78	842.59
384.97	784.08
385.17	760.67
385.36	858.98
385.56	863.66
385.75	854.30
385.95	912.81
386.14	882.38
386.34	875.36
386.53	840.25
386.72	812.17
386.92	823.87
387.11	833.23
387.31	837.91
387.50	826.21
387.70	854.30
387.89	917.49
388.09	994.73
388.28	873.02
388.48	882.38
388.67	866.00
388.86	936.21
389.06	940.90
389.25	985.37
389.45	1057.92
389.64	952.60
389.84	1018.13
390.03	978.34
390.22	1067.28
390.42	1018.13
390.61	1025.15
390.81	1081.33
391.00	1081.33
391.19	1020.47
391.39	1139.84
391.58	1104.73
391.78	1125.80
391.97	1083.67
392.16	1078.99
392.36	1069.62
392.55	1081.33
392.75	1041.54
392.94	1041.54
393.13	1034.52
393.33	978.34
393.52	1048.56
393.71	1198.35
393.91	1181.97
394.10	1095.37
394.29	1212.40
394.49	1200.69
394.68	1167.93
394.88	1149.20
395.07	1238.14
395.26	1303.68
395.46	1261.55
395.65	1345.81
395.84	1336.45
396.04	1313.04
396.23	1289.64
396.42	1165.59
396.62	1231.12
396.81	1149.20
397.00	1167.93
397.19	1352.83
397.39	1385.60
397.58	1455.81
397.77	1500.28
397.97	1369.21
398.16	1476.88
398.35	1474.54
398.55	1383.26
398.74	1575.18
398.93	1589.22
399.12	1467.52
399.32	1549.43
399.51	1563.48
399.70	1624.33
399.90	1607.95
400.09	1636.03
400.28	1636.03
400.47	1659.44
400.67	1703.91
400.86	1673.48
401.05	1724.97
401.24	1692.21
401.44	1729.66
401.63	1790.51
401.82	1919.24
402.01	1799.87
402.21	1834.98
402.40	1895.83
402.59	1856.04
402.78	1799.87
402.97	1874.77
403.17	1820.94
403.36	1853.70
403.55	1839.66
403.74	1879.45
403.93	1954.35
404.13	1926.26
404.32	1872.43
404.51	1947.33
404.70	2008.18
404.89	1933.28
405.09	2047.97
405.28	2003.50
405.47	1963.71
405.66	1998.82
405.85	2092.44
406.05	2019.88
406.24	2094.78
406.43	2045.63
406.62	2186.06
406.81	2218.83
407.00	2099.46
407.20	2064.35
407.39	2097.12
407.58	2127.55
407.77	2207.13
407.96	2275.00
408.15	2263.30
408.34	2324.15
408.54	2385.01
408.73	2331.17
408.92	2385.01
409.11	2347.56
409.30	2417.77
409.49	2389.69
409.68	2359.26
409.87	2321.81
410.07	2373.30
410.26	2457.56
410.45	2539.48
410.64	2476.29
410.83	2537.14
411.02	2663.53
411.21	2719.70
411.40	2581.61
411.59	2745.45
411.78	2675.23
411.98	2712.68
412.17	2698.64
412.36	2843.75
412.55	2869.50
412.74	2810.98
412.93	2822.69
413.12	2860.13
413.31	3063.76
413.50	2930.35
413.69	2979.50
413.88	2972.48
414.07	3035.67
414.26	2960.78
414.45	2883.54
414.64	3105.89
414.83	3232.28
415.02	3070.78
415.22	3220.58
415.41	3176.11
415.60	3215.90
415.79	3330.58
415.98	3379.73
416.17	3272.07
416.36	3391.44
416.55	3269.73
416.74	3414.84
416.93	3272.07
417.12	3365.69
417.31	3506.12
417.50	3492.08
417.69	3604.42
417.88	3552.93
418.07	3555.27
418.26	3445.27
418.45	3538.89
418.64	3653.58
418.83	3679.32
419.02	3700.39
419.21	3648.90
419.39	3648.90
419.58	3681.66
419.77	3637.19
419.96	3922.74
420.15	3784.65
420.34	3744.86
420.53	3754.22
420.72	4002.32
420.91	3892.31
421.10	3889.97
421.29	3948.48
421.48	3932.10
421.67	4077.21
421.86	4011.68
422.05	3962.53
422.24	3882.95
422.43	3873.59
422.61	4053.81
422.80	3992.95
422.99	3983.59
423.18	4032.74
423.37	4014.02
423.56	4044.45
423.75	4035.08
423.94	4063.17
424.13	3758.90
424.32	3950.82
424.50	4086.58
424.69	4114.66
424.88	4081.89
425.07	3967.21
425.26	3995.29
425.45	4145.09
425.64	4030.40
425.83	4149.77
426.01	4126.36
426.20	4168.49
426.39	4187.22
426.58	4142.75
426.77	4170.83
426.96	4128.70
427.15	4016.36
427.33	4145.09
427.52	4156.79
427.71	4248.07
427.90	4224.67
428.09	4320.63
428.28	4337.01
428.46	4215.30
428.65	4334.67
428.84	4423.61
429.03	4486.81
429.22	4119.34
429.40	4266.80
429.59	4386.16
429.78	4070.19
429.97	4023.38
430.16	4124.02
430.34	4318.29
430.53	4393.19
430.72	4322.97
430.91	4355.74
431.10	4390.84
431.28	4526.60
431.47	4723.20
431.66	4760.65
431.85	4669.37
432.03	4676.39
432.22	4880.02
432.41	4777.03
432.60	4873.00
432.79	4753.63
432.97	4676.39
433.16	4922.15
433.35	4655.33
433.54	4713.84
433.72	4830.87
433.91	4781.71
434.10	4933.85
434.28	4980.66
434.47	4973.64
434.66	5109.39
434.85	5184.29
435.03	5144.50
435.22	4975.98
435.41	5217.05
435.59	5139.82
435.78	5338.76
435.97	5329.40
436.16	5268.55
436.34	5387.91
436.53	5441.75
436.72	5350.46
436.90	5284.93
437.09	5526.00
437.28	5301.31
437.46	5170.24
437.65	5380.89
437.84	5439.40
438.02	5327.06
438.21	5317.70
438.40	5338.76
438.58	5411.32
438.77	5561.11
438.96	5598.56
439.14	5748.36
439.33	5865.38
439.52	5914.53
439.70	5788.14
439.89	5809.21
440.08	6040.92
440.26	5746.02
440.45	5802.19
440.63	5893.47
440.82	6073.69
441.01	6061.99
441.19	6253.91
441.38	6368.60
441.57	6324.13
441.75	6284.34
441.94	6307.74
442.12	6448.18
442.31	6590.95
442.50	6595.63
442.68	6530.09
442.87	6377.96
443.05	6560.52
443.24	6913.94
443.43	6588.61
443.61	6658.82
443.80	6700.95
443.98	6635.42
444.17	6464.56
444.35	6693.93
444.54	6853.09
444.73	6843.73
444.91	6785.21
445.10	6544.14
445.28	6576.91
445.47	6551.16
445.65	6649.46
445.84	6796.92
446.02	6822.66
446.21	6759.47
446.39	6860.11
446.58	6640.10
446.77	6937.35
446.95	6817.98
447.14	7108.21
447.32	7052.03
447.51	6857.77
447.69	6656.48
447.88	6862.45
448.06	6939.69
448.25	6979.48
448.43	7021.61
448.62	7101.19
448.80	7033.31
448.99	7089.48
449.17	6970.12
449.36	7096.50
449.54	7222.89
449.73	7311.83
449.91	7208.85
450.10	7302.47
450.28	7449.93
450.46	7506.10
450.65	7548.23
450.83	7337.58
451.02	7515.46
451.20	7550.57
451.39	7625.47
451.57	7424.18
451.76	7424.18
451.94	7630.15
452.13	7609.08
452.31	7445.24
452.49	7449.93
452.68	7461.63
452.86	7428.86
453.05	7449.93
453.23	7691.00
453.42	7536.52
453.60	7583.34
453.78	7674.62
453.97	7447.58
454.15	7463.97
454.34	7478.01
454.52	7847.82
454.70	7775.26
454.89	7566.95
455.07	7719.09
455.26	7763.56
455.44	7997.61
455.62	7822.07
455.81	7932.08
455.99	8109.96
456.17	8023.36
456.36	8285.50
456.54	8252.73
456.73	8161.45
456.91	8236.35
457.09	8322.94
457.28	8580.40
457.46	8269.11
457.64	8456.36
457.83	8262.09
458.01	8091.23
458.19	8348.69
458.38	8430.61
458.56	8538.27
458.74	8517.21
458.93	8489.12
459.11	8458.70
459.29	8540.61
459.48	8624.87
459.66	8538.27
459.84	8760.63
460.03	8819.14
460.21	8650.62
460.39	8718.50
460.57	8772.33
460.76	8826.16
460.94	8868.29
461.12	8896.38
461.31	8901.06
461.49	8987.66
461.67	8744.24
461.85	9193.62
462.04	9008.72
462.22	9233.41
462.40	9310.65
462.59	9092.98
462.77	9128.09
462.95	9336.40
463.13	9177.24
463.32	9130.43
463.50	9252.14
463.68	9338.74
463.86	9266.18
464.05	9214.69
464.23	8999.36
464.41	9371.50
464.59	9130.43
464.78	9437.04
464.96	9577.47
465.14	9212.35
465.32	9563.43
465.50	9516.62
465.69	9413.63
465.87	9462.79
466.05	9605.56
466.23	9514.28
466.41	9598.54
466.60	9703.86
466.78	9373.85
466.96	9364.48
467.14	9418.32
467.32	9832.59
467.51	9717.90
467.69	9650.03
467.87	9771.74
468.05	9741.31
468.23	9504.92
468.41	9694.50
468.60	9783.44
468.78	9944.94
468.96	9851.31
469.14	10012.81
469.32	9991.75
469.50	9809.19
469.69	9853.66
469.87	10115.80
470.05	10150.90
470.23	10214.10
470.41	10019.83
470.59	10139.20
470.77	10118.14
470.95	10370.91
471.14	10354.53
471.32	10258.57
471.50	10691.57
471.68	10602.63
471.86	10527.73
472.04	10775.83
472.22	10878.81
472.40	10700.93
472.58	10808.59
472.77	10672.84
472.95	10565.18
473.13	11377.34
473.31	10953.71
473.49	10745.40
473.67	10707.95
473.85	11009.88
474.03	11042.65
474.21	11311.81
474.39	11372.66
474.57	11178.40
474.75	11309.47
474.93	11459.26
475.12	11644.17
475.30	11564.59
475.48	11382.03
475.66	11695.66
475.84	11805.66
476.02	11875.88
476.20	11672.25
476.38	11726.08
476.56	12114.61
476.74	12147.38
476.92	12147.38
477.10	12339.30
477.28	12475.06
477.46	12507.82
477.64	12652.94
477.82	12526.55
478.00	12910.40
478.18	12788.69
478.36	12875.29
478.54	13057.85
478.72	13013.38
478.90	13238.07
479.08	13540.00
479.26	13378.50
479.44	13345.73
479.62	13598.51
479.80	13659.37
479.98	13881.72
480.16	14157.90
480.34	14031.51
480.52	14120.45
480.70	14396.64
480.88	14185.99
481.06	14455.15
481.24	14497.28
481.41	14696.22
481.59	14941.98
481.77	14775.80
481.95	15042.62
482.13	14944.32
482.31	14965.39
482.49	15384.34
482.67	15307.10
482.85	15417.11
483.03	15697.97
483.21	15599.67
483.39	16016.29
483.57	15728.40
483.74	15976.50
483.92	15824.36
484.10	16325.24
484.28	16381.41
484.46	16847.18
484.64	16954.84
484.82	16304.17
485.00	16620.14
485.18	16886.97
485.35	16858.88
485.53	16585.04
485.71	16381.41
485.89	16844.84
486.07	16870.58
486.25	17106.98
486.43	17451.03
486.61	17284.86
486.78	17811.48
486.96	17940.21
487.14	18253.84
487.32	18113.41
487.50	18342.78
487.68	18602.58
487.85	18766.42
488.03	18869.40
488.21	18991.11
488.39	19241.54
488.57	19012.17
488.75	19264.95
488.92	19789.23
489.10	19955.41
489.28	20088.82
489.46	20161.37
489.64	19990.52
489.81	20805.02
489.99	20395.43
490.17	20868.22
490.35	21006.31
490.53	20755.87
490.70	20936.09
490.88	21060.14
491.06	21565.70
491.24	21151.42
491.41	21497.82
491.59	21343.35
491.77	21390.16
491.95	21549.31
492.13	22094.66
492.30	22265.52
492.48	22527.66
492.66	22354.46
492.84	22539.36
493.01	22522.98
493.19	22611.92
493.37	23058.96
493.54	23049.60
493.72	23152.58
493.90	23452.17
494.08	23419.40
494.25	23587.92
494.43	23981.13
494.61	24280.72
494.79	24191.78
494.96	24144.97
495.14	24060.71
495.32	24121.56
495.49	24353.27
495.67	24442.21
495.85	24563.92
496.02	24943.09
496.20	24786.27
496.38	25263.74
496.55	25144.38
496.73	25348.00
496.91	25869.94
497.09	25661.63
497.26	25694.40
497.44	25722.49
497.62	25738.87
497.79	26103.99
497.97	25916.75
498.14	25511.84
498.32	26242.09
498.50	26246.77
498.67	26747.64
498.85	26532.31
499.03	26906.80
499.20	27269.58
499.38	27072.98
499.56	27129.15
499.73	27014.46
499.91	27218.09
500.08	27112.77
500.26	26977.01
500.44	27386.61
500.61	27491.93
500.79	27550.45
500.97	27725.99
501.14	28081.75
501.32	27861.74
501.49	27824.29
501.67	27934.29
501.84	28020.89
502.02	28013.87
502.20	28435.17
502.37	28533.47
502.55	28748.80
502.72	28919.66
502.90	28570.92
503.07	28741.78
503.25	28769.86
503.43	28833.06
503.60	28746.46
503.78	28907.96
503.95	28816.68
504.13	29181.80
504.30	29331.59
504.48	28952.43
504.65	29364.36
504.83	29722.46
505.01	29792.68
505.18	30075.88
505.36	30361.43
505.53	30167.16
505.71	30251.42
505.88	30597.82
506.06	30115.67
506.23	30773.36
506.41	30450.37
506.58	30405.90
506.76	30668.04
506.93	30906.77
507.11	30312.28
507.28	30726.55
507.46	30775.70
507.63	30998.06
507.81	30951.24
507.98	30993.37
508.16	31330.41
508.33	31419.35
508.50	31452.12
508.68	31613.62
508.85	31821.92
509.03	31922.57
509.20	31824.26
509.38	31782.13
509.55	32009.17
509.73	32259.60
509.90	32283.01
510.08	31852.35
510.25	32119.17
510.42	32376.63
510.60	32404.72
510.77	32280.67
510.95	33055.39
511.12	32854.10
511.30	32830.69
511.47	33184.12
511.64	33001.55
511.82	33350.29
511.99	32910.27
512.17	33371.36
512.34	32788.56
512.51	33275.40
512.69	33483.70
512.86	33755.21
513.04	33841.81
513.21	33699.03
513.38	33486.04
513.56	33736.48
513.73	33488.38
513.90	33692.01
514.08	33504.77
514.25	34015.01
514.43	34134.37
514.60	33893.30
514.77	33895.64
514.95	34490.13
515.12	34527.58
515.29	34485.45
515.47	34843.56
515.64	35009.73
515.81	34382.47
515.99	34508.86
516.16	34497.16
516.33	34256.08
516.51	34628.23
516.68	33537.54
516.85	33905.00
517.03	34270.12
517.20	34370.77
517.37	34822.49
517.54	35386.56
517.72	34789.72
517.89	35023.78
518.06	34604.82
518.24	34448.00
518.41	35208.68
518.58	35426.35
518.75	35459.12
518.93	35924.88
519.10	35346.77
519.27	35793.81
519.45	35721.26
519.62	36058.29
519.79	36552.15
519.96	36037.23
520.14	36252.56
520.31	36128.51
520.48	36407.03
520.65	36170.64
520.83	36835.35
521.00	36723.01
521.17	36608.32
521.34	36861.10
521.52	37043.66
521.69	37207.50
521.86	36879.82
522.03	37429.85
522.20	37062.38
522.38	37116.22
522.55	36851.73
522.72	37200.47
522.89	37385.38
523.07	37521.13
523.24	37647.52
523.41	38026.68
523.58	37642.84
523.75	38225.63
523.92	38300.53
524.10	38162.43
524.27	38319.25
524.44	38515.86
524.61	38216.27
524.78	38202.22
524.96	38433.94
525.13	38532.24
525.30	38286.48
525.47	39122.05
525.64	38639.90
525.81	38735.87
525.98	38272.44
526.16	38473.73
526.33	37935.40
526.50	38054.77
526.67	37853.48
526.84	38337.98
527.01	38567.35
527.18	38457.34
527.36	38925.45
527.53	38871.62
527.70	39049.50
527.87	39470.79
528.04	39360.79
528.21	39395.90
528.38	39590.16
528.55	39756.34
528.72	39702.51
528.89	39847.62
529.07	39484.84
529.24	39674.42
529.41	39871.03
529.58	39704.85
529.75	39770.38
529.92	39789.11
530.09	40201.04
530.26	40271.26
530.43	40100.40
530.60	40205.72
530.77	39878.05
530.94	40245.51
531.11	40730.00
531.28	40533.40
531.46	40762.77
531.63	40442.12
531.80	40402.33
531.97	40224.45
532.14	40229.13
532.31	39672.08
532.48	40435.10
532.65	40517.01
532.82	40472.54
532.99	40737.02
533.16	40467.86
533.33	40690.21
533.50	41022.57
533.67	40734.68
533.84	40755.75
534.01	40804.90
534.18	40891.50
534.35	41324.50
534.52	40828.30
534.69	41441.53
534.86	41432.16
535.03	41132.57
535.20	41663.88
535.37	41603.02
535.54	41848.78
535.71	41708.35
535.88	41523.44
536.05	41411.10
536.22	41769.20
536.38	41748.14
536.55	41163.00
536.72	41373.65
536.89	41684.94
537.06	42117.94
537.23	42000.91
537.40	41523.44
537.57	42298.16
537.74	41954.10
537.91	42316.89
538.08	41823.03
538.25	41748.14
538.42	42492.43
538.59	42323.91
538.75	41876.86
538.92	41970.49
539.09	42263.05
539.26	42302.84
539.43	42447.96
539.60	42241.99
539.77	42169.43
539.94	42459.66
540.11	42307.52
540.28	42504.13
540.44	42335.61
540.61	42366.04
540.78	42150.71
540.95	42319.23
541.12	42424.55
541.29	42555.62
541.46	42281.78
541.62	42777.97
541.79	43260.12
541.96	42527.53
542.13	42803.72
542.30	42841.17
542.47	42817.76
542.63	42759.25
542.80	43070.54
542.97	43519.92
543.14	43594.82
543.31	43250.76
543.48	43749.29
543.64	43964.62
543.81	43779.72
543.98	43564.39
544.15	43470.77
544.32	43915.47
544.48	43716.53
544.65	43655.67
544.82	43913.13
544.99	43122.03
545.16	43704.82
545.32	43676.74
545.49	44425.71
545.66	44196.34
545.83	44182.29
546.00	43999.73
546.16	44161.23
546.33	43934.20
546.50	43810.15
546.67	43992.71
546.83	43838.23
547.00	43789.08
547.17	44175.27
547.34	44133.14
547.50	44390.60
547.67	44215.06
547.84	44446.77
548.00	44547.42
548.17	44390.60
548.34	44619.97
548.51	44912.54
548.67	44215.06
548.84	44624.65
549.01	44371.88
549.18	44573.16
549.34	44706.57
549.51	44638.70
549.68	44783.81
549.84	44500.61
550.01	44818.92
550.18	44383.58
550.34	44385.92
550.51	45003.82
550.68	44849.35
550.84	44975.73
551.01	44919.56
551.18	45062.33
551.34	44772.11
551.51	45177.02
551.68	44905.52
551.84	45305.75
552.01	44858.71
552.18	45228.51
552.34	44416.35
552.51	44751.04
552.68	45104.46
552.84	45670.87
553.01	45453.20
553.18	45071.70
553.34	45022.54
553.51	45174.68
553.67	45249.58
553.84	45654.49
554.01	45010.84
554.17	45584.27
554.34	45937.69
554.51	45268.30
554.67	45698.96
554.84	45441.50
555.00	45844.07
555.17	45621.72
555.33	45387.67
555.50	45511.72
555.67	45933.01
555.83	45050.63
556.00	45525.76
556.16	46054.72
556.33	45698.96
556.50	45390.01
556.66	45909.61
556.83	45490.65
556.99	45925.99
557.16	46239.62
557.32	45853.44
557.49	46305.16
557.65	45865.14
557.82	46012.59
557.98	45956.42
558.15	45869.82
558.32	46026.63
558.48	45570.23
558.65	46260.69
558.81	45558.53
558.98	45909.61
559.14	45450.86
559.31	46073.45
559.47	46206.86
559.64	46054.72
559.80	46195.15
559.97	46087.49
560.13	46129.62
560.30	45869.82
560.46	45846.41
560.63	46199.83
560.79	46288.77
560.96	46508.79
561.12	46450.27
561.29	46045.36
561.45	46129.62
561.61	46061.74
561.78	46342.61
561.94	45696.62
562.11	46246.65
562.27	46349.63
562.44	46164.73
562.60	46295.80
562.77	46644.54
562.93	46256.01
563.10	46696.03
563.26	45977.48
563.42	46356.65
563.59	46124.94
563.75	46513.47
563.92	46429.21
564.08	46265.37
564.24	46735.82
564.41	46696.03
564.57	46234.94
564.74	46476.02
564.90	46185.79
565.07	46382.40
565.23	46831.78
565.39	46052.38
565.56	46696.03
565.72	46412.82
565.88	46340.27
566.05	46064.08
566.21	46665.60
566.38	46405.80
566.54	46433.89
566.70	46707.73
566.87	47269.46
567.03	46724.11
567.19	47122.01
567.36	46827.10
567.52	46597.73
567.68	46609.43
567.85	46719.43
568.01	46429.21
568.17	46473.68
568.34	46251.33
568.50	46457.29
568.66	47002.64
568.83	46419.84
568.99	46146.00
569.15	46265.37
569.32	46667.94
569.48	46529.85
569.64	46408.14
569.81	46937.10
569.97	46794.33
570.13	46660.92
570.30	46492.40
570.46	46227.92
570.62	46831.78
570.78	46136.64
570.95	46534.53
571.11	46473.68
571.27	46487.72
571.43	46529.85
571.60	46333.24
571.76	46562.62
571.92	46988.60
572.09	46581.34
572.25	46801.35
572.41	46492.40
572.57	46967.53
572.74	47304.57
572.90	46843.48
573.06	47285.84
573.22	47014.34
573.38	46628.15
573.55	46749.86
573.71	47302.23
573.87	46979.23
574.03	46527.51
574.20	46838.80
574.36	47019.02
574.52	46883.27
574.68	46691.35
574.84	46782.63
575.01	46672.62
575.17	46705.39
575.33	46721.77
575.49	46731.14
575.65	46773.27
575.82	46817.74
575.98	46586.02
576.14	46454.95
576.30	47009.66
576.46	46806.03
576.62	46431.55
576.79	46806.03
576.95	46658.58
577.11	46770.93
577.27	47070.51
577.43	47002.64
577.59	46852.84
577.75	46492.40
577.92	46054.72
578.08	46590.70
578.24	46457.29
578.40	46775.61
578.56	47072.85
578.72	47030.72
578.88	46780.29
579.04	46869.23
579.21	47077.54
579.37	46864.55
579.53	46834.12
579.69	46485.38
579.85	47040.09
580.01	47232.01
580.17	47030.72
580.33	47227.33
580.49	46824.76
580.65	47138.39
580.82	47072.85
580.98	46635.17
581.14	47077.54
581.30	47054.13
581.46	47110.30
581.62	47004.98
581.78	46897.31
581.94	47241.37
582.10	46766.24
582.26	47049.45
582.42	46927.74
582.58	47112.64
582.74	46822.42
582.90	47468.40
583.06	47332.65
583.22	47334.99
583.38	47175.84
583.54	47033.07
583.70	47068.17
583.86	46986.25
584.02	46696.03
584.18	46902.00
584.34	47028.38
584.50	46766.24
584.66	46693.69
584.82	46469.00
584.98	47423.93
585.14	47124.35
585.30	46852.84
585.46	46707.73
585.62	46892.63
585.78	46600.07
585.94	46567.30
586.10	46920.72
586.26	47014.34
586.42	47178.18
586.58	47239.03
586.74	46878.59
586.90	46646.88
587.06	47145.41
587.22	47126.69
587.38	46515.81
587.54	47014.34
587.70	47000.30
587.86	47217.97
588.02	47103.28
588.18	47281.16
588.34	46974.55
588.49	46349.63
588.65	45895.56
588.81	46263.03
588.97	46216.22
589.13	46183.45
589.29	46326.22
589.45	46946.47
589.61	46459.63
589.77	47255.42
589.93	46845.82
