SpectraSuite Data File
++++++++++++++++++++++++++++++++++++
Date: Fri Oct 25 10:47:15 EDT 2013
User: price-jones
Dark Spectrum Present: No
Reference Spectrum Present: No
Number of Sampled Component Spectra: 1
Spectrometers: USB2+H05261
Integration Time (usec): 100000 (USB2+H05261)
Spectra Averaged: 1 (USB2+H05261)
Boxcar Smoothing: 0 (USB2+H05261)
Correct for Electrical Dark: No (USB2+H05261)
Strobe/Lamp Enabled: No (USB2+H05261)
Correct for Detector Non-linearity: No (USB2+H05261)
Correct for Stray Light: No (USB2+H05261)
Number of Pixels in Processed Spectrum: 2048
>>>>>Begin Processed Spectral Data<<<<<
365.73	152.13
365.92	152.13
366.12	152.13
366.32	37.45
366.52	30.43
366.72	88.94
366.91	56.17
367.11	53.83
367.31	35.11
367.51	28.09
367.70	21.06
367.90	37.45
368.10	77.24
368.30	117.03
368.49	35.11
368.69	138.09
368.89	79.58
369.09	70.22
369.28	30.43
369.48	28.09
369.68	49.15
369.87	53.83
370.07	124.05
370.27	175.54
370.47	187.24
370.66	337.04
370.86	416.62
371.06	360.44
371.25	449.38
371.45	351.08
371.65	425.98
371.84	430.66
372.04	390.87
372.24	400.23
372.44	514.92
372.63	449.38
372.83	505.56
373.03	528.96
373.22	444.70
373.42	449.38
373.62	463.43
373.81	486.83
374.01	528.96
374.21	580.45
374.40	592.16
374.60	479.81
374.79	582.79
374.99	512.58
375.19	561.73
375.38	547.69
375.58	603.86
375.78	636.63
375.97	510.24
376.17	594.50
376.37	564.07
376.56	571.09
376.76	533.64
376.95	550.03
377.15	547.69
377.35	547.69
377.54	552.37
377.74	535.98
377.93	521.94
378.13	568.75
378.33	624.92
378.52	550.03
378.72	599.18
378.91	547.69
379.11	662.37
379.31	629.60
379.50	599.18
379.70	610.88
379.89	660.03
380.09	599.18
380.28	617.90
380.48	629.60
380.68	669.39
380.87	638.97
381.07	692.80
381.26	737.27
381.46	641.31
381.65	667.05
381.85	617.90
382.04	627.26
382.24	653.01
382.43	660.03
382.63	648.33
382.83	702.16
383.02	641.31
383.22	695.14
383.41	697.48
383.61	671.73
383.80	664.71
384.00	706.84
384.19	683.44
384.39	655.35
384.58	709.18
384.78	704.50
384.97	725.57
385.17	697.48
385.36	753.65
385.56	753.65
385.75	723.23
385.95	723.23
386.14	737.27
386.34	692.80
386.53	751.31
386.72	763.01
386.92	692.80
387.11	772.38
387.31	751.31
387.50	844.93
387.70	697.48
387.89	823.87
388.09	802.80
388.28	751.31
388.48	784.08
388.67	828.55
388.86	777.06
389.06	884.72
389.25	898.77
389.45	856.64
389.64	851.96
389.84	854.30
390.03	994.73
390.22	870.68
390.42	788.76
390.61	814.51
390.81	854.30
391.00	926.85
391.19	910.47
391.39	875.36
391.58	891.74
391.78	908.13
391.97	924.51
392.16	924.51
392.36	1001.75
392.55	929.19
392.75	889.40
392.94	884.72
393.13	968.98
393.33	931.53
393.52	952.60
393.71	1004.09
393.91	985.37
394.10	1008.77
394.29	959.62
394.49	1041.54
394.68	945.58
394.88	1069.62
395.07	1025.15
395.26	1128.14
395.46	1032.18
395.65	1062.60
395.84	1090.69
396.04	1135.16
396.23	1109.41
396.42	964.30
396.62	1034.52
396.81	1048.56
397.00	1097.71
397.19	1193.67
397.39	1146.86
397.58	1238.14
397.77	1247.51
397.97	1205.38
398.16	1118.78
398.35	1247.51
398.55	1270.91
398.74	1268.57
398.93	1266.23
399.12	1355.17
399.32	1289.64
399.51	1334.11
399.70	1320.06
399.90	1277.93
400.09	1249.85
400.28	1387.94
400.47	1284.95
400.67	1355.17
400.86	1380.92
401.05	1404.32
401.24	1355.17
401.44	1355.17
401.63	1432.41
401.82	1380.92
402.01	1359.85
402.21	1416.02
402.40	1493.26
402.59	1416.02
402.78	1596.25
402.97	1350.49
403.17	1420.71
403.36	1483.90
403.55	1509.65
403.74	1572.84
403.93	1558.80
404.13	1509.65
404.32	1575.18
404.51	1551.78
404.70	1640.72
404.89	1633.69
405.09	1657.10
405.28	1558.80
405.47	1645.40
405.66	1533.05
405.85	1631.35
406.05	1755.40
406.24	1666.46
406.43	1645.40
406.62	1687.53
406.81	1909.88
407.00	1727.32
407.20	1724.97
407.39	1813.92
407.58	1818.60
407.77	1846.68
407.96	1846.68
408.15	1895.83
408.34	1937.96
408.54	1930.94
408.73	1844.34
408.92	1914.56
409.11	1937.96
409.30	2033.93
409.49	1949.67
409.68	2008.18
409.87	2033.93
410.07	2064.35
410.26	2003.50
410.45	1975.41
410.64	2047.97
410.83	2085.42
411.02	2176.70
411.21	2090.10
411.40	2085.42
411.59	2113.50
411.78	2174.36
411.98	2186.06
412.17	2183.72
412.36	2216.49
412.55	2289.04
412.74	2186.06
412.93	2279.68
413.12	2305.43
413.31	2410.75
413.50	2286.70
413.69	2289.04
413.88	2452.88
414.07	2445.86
414.26	2537.14
414.45	2401.39
414.64	2431.82
414.83	2483.31
415.02	2476.29
415.22	2700.98
415.41	2642.46
415.60	2642.46
415.79	2581.61
415.98	2747.79
416.17	2672.89
416.36	2766.51
416.55	2710.34
416.74	2731.41
416.93	2855.45
417.12	2780.56
417.31	2963.12
417.50	2801.62
417.69	3005.25
417.88	2939.71
418.07	2911.63
418.26	2930.35
418.45	2946.73
418.64	3148.02
418.83	2972.48
419.02	2953.76
419.21	3169.09
419.39	3077.80
419.58	2944.39
419.77	2995.89
419.96	3155.04
420.15	3208.87
420.34	3220.58
420.53	3157.38
420.72	3288.45
420.91	3204.19
421.10	3187.81
421.29	3363.35
421.48	3218.24
421.67	3318.88
421.86	3190.15
422.05	3262.71
422.24	3276.75
422.43	3311.86
422.61	3386.76
422.80	3358.67
422.99	3421.86
423.18	3454.63
423.37	3424.20
423.56	3342.28
423.75	3332.92
423.94	3297.81
424.13	3173.77
424.32	3239.30
424.50	3335.26
424.69	3396.12
424.88	3499.10
425.07	3396.12
425.26	3363.35
425.45	3318.88
425.64	3220.58
425.83	3346.97
426.01	3417.18
426.20	3510.80
426.39	3538.89
426.58	3466.33
426.77	3449.95
426.96	3499.10
427.15	3449.95
427.33	3590.38
427.52	3501.44
427.71	3660.60
427.90	3478.04
428.09	3655.92
428.28	3620.81
428.46	3595.06
428.65	3595.06
428.84	3691.02
429.03	3693.37
429.22	3602.08
429.40	3702.73
429.59	3707.41
429.78	3485.06
429.97	3442.93
430.16	3707.41
430.34	3712.09
430.53	3730.81
430.72	3747.20
430.91	3782.31
431.10	3754.22
431.28	3967.21
431.47	3922.74
431.66	3939.12
431.85	3894.65
432.03	4042.11
432.22	4037.42
432.41	3932.10
432.60	4002.32
432.79	3962.53
432.97	4234.03
433.16	4170.83
433.35	4088.92
433.54	4196.58
433.72	4138.07
433.91	4149.77
434.10	4177.86
434.28	4133.39
434.47	4278.50
434.66	4217.65
434.85	4344.03
435.03	4283.18
435.22	4299.56
435.41	4325.31
435.59	4306.59
435.78	4287.86
435.97	4259.78
436.16	4360.42
436.34	4397.87
436.53	4353.40
436.72	4545.32
436.90	4348.72
437.09	4566.39
437.28	4423.61
437.46	4414.25
437.65	4617.88
437.84	4444.68
438.02	4524.26
438.21	4535.96
438.40	4435.32
438.58	4601.49
438.77	4580.43
438.96	4767.67
439.14	4805.12
439.33	4912.78
439.52	4933.85
439.70	4760.65
439.89	4716.18
440.08	4887.04
440.26	4922.15
440.45	4999.38
440.63	5142.16
440.82	5294.29
441.01	4964.28
441.19	5151.52
441.38	5146.84
441.57	5132.79
441.75	5385.57
441.94	5287.27
442.12	5345.78
442.31	5479.19
442.50	5448.77
442.68	5315.36
442.87	5277.91
443.05	5420.68
443.24	5605.58
443.43	5483.88
443.61	5558.77
443.80	5607.92
443.98	5540.05
444.17	5247.48
444.35	5544.73
444.54	5701.54
444.73	5528.35
444.91	5408.98
445.10	5748.36
445.28	5603.24
445.47	5514.30
445.65	5694.52
445.84	5664.10
446.02	5738.99
446.21	5621.97
446.39	5518.98
446.58	5760.06
446.77	5631.33
446.95	5495.58
447.14	5881.77
447.32	5825.59
447.51	5636.01
447.69	5741.33
447.88	5762.40
448.06	5863.04
448.25	5781.12
448.43	5640.69
448.62	5666.44
448.80	5657.07
448.99	5930.92
449.17	6026.88
449.36	5881.77
449.54	6008.16
449.73	6078.37
449.91	6157.95
450.10	6153.27
450.28	6363.92
450.46	6134.54
450.65	6176.67
450.83	6242.21
451.02	6045.60
451.20	6293.70
451.39	6132.20
451.57	6174.33
451.76	6134.54
451.94	6382.64
452.13	6256.25
452.31	6242.21
452.49	6246.89
452.68	6284.34
452.86	6111.14
453.05	6314.77
453.23	6230.51
453.42	6174.33
453.60	6361.58
453.78	6583.93
453.97	6286.68
454.15	6286.68
454.34	6265.61
454.52	6452.86
454.70	6602.65
454.89	6548.82
455.07	6623.72
455.26	6597.97
455.44	6642.44
455.62	6815.64
455.81	6677.55
455.99	6796.92
456.17	6806.28
456.36	6832.02
456.54	6792.23
456.73	6782.87
456.91	6988.84
457.09	7155.02
457.28	7229.91
457.46	6925.65
457.64	7094.16
457.83	7033.31
458.01	6829.68
458.19	7187.79
458.38	7115.23
458.56	7176.08
458.74	7328.22
458.93	7162.04
459.11	7215.87
459.29	7162.04
459.48	7208.85
459.66	7335.24
459.84	7279.07
460.03	7330.56
460.21	7431.20
460.39	7478.01
460.57	7239.28
460.76	7531.84
460.94	7461.63
461.12	7562.27
461.31	7426.52
461.49	7569.29
461.67	7351.62
461.85	7566.95
462.04	7590.36
462.22	8088.89
462.40	7517.80
462.59	7604.40
462.77	7702.70
462.95	7758.88
463.13	7686.32
463.32	7639.51
463.50	7793.98
463.68	7789.30
463.86	7597.38
464.05	7609.08
464.23	7679.30
464.41	7922.71
464.59	7808.03
464.78	8021.02
464.96	8086.55
465.14	7688.66
465.32	8093.57
465.50	7950.80
465.69	8032.72
465.87	7943.78
466.05	8177.83
466.23	8119.32
466.41	8088.89
466.60	8128.68
466.78	8070.17
466.96	8098.25
467.14	8175.49
467.32	8264.43
467.51	8173.15
467.69	8175.49
467.87	8154.43
468.05	8351.03
468.23	8250.39
468.41	8163.79
468.60	8231.66
468.78	8252.73
468.96	8304.22
469.14	8390.82
469.32	8557.00
469.50	8243.37
469.69	8404.86
469.87	8510.19
470.05	8671.68
470.23	8599.13
470.41	8652.96
470.59	8758.28
470.77	8870.63
470.95	8713.81
471.14	8908.08
471.32	8655.30
471.50	8999.36
471.68	8919.78
471.86	9032.13
472.04	9055.53
472.22	9167.88
472.40	8957.23
472.58	8985.32
472.77	8992.34
472.95	9315.33
473.13	9444.06
473.31	9116.39
473.49	9198.31
473.67	9364.48
473.85	9387.89
474.03	9511.94
474.21	9549.39
474.39	9533.00
474.57	9628.96
474.75	9755.35
474.93	9806.84
475.12	9872.38
475.30	9888.76
475.48	9853.66
475.66	9916.85
475.84	9937.91
476.02	10064.30
476.20	10136.86
476.38	10190.69
476.56	10396.66
476.74	10464.54
476.92	10113.45
477.10	10207.08
477.28	10539.43
477.46	10501.98
477.64	10626.03
477.82	10956.05
478.00	11019.24
478.18	10815.62
478.36	11094.14
478.54	11112.86
478.72	11154.99
478.90	11360.96
479.08	11375.00
479.26	11499.05
479.44	11328.19
479.62	11496.71
479.80	11531.82
479.98	11894.60
480.16	12229.30
480.34	11941.41
480.52	12030.35
480.70	11999.93
480.88	12025.67
481.06	12271.43
481.24	12479.74
481.41	12395.48
481.59	12507.82
481.77	12692.73
481.95	12451.65
482.13	12568.68
482.31	12489.10
482.49	13076.57
482.67	13004.02
482.85	13287.22
483.03	13392.55
483.21	13268.50
483.39	13657.03
483.57	13624.26
483.74	13717.88
483.92	13678.09
484.10	13715.54
484.28	13930.87
484.46	14389.61
484.64	14422.38
484.82	14141.52
485.00	14455.15
485.18	14431.74
485.35	14656.43
485.53	14422.38
485.71	14696.22
485.89	14930.28
486.07	14864.74
486.25	14958.36
486.43	15161.99
486.61	15042.62
486.78	15683.93
486.96	15400.72
487.14	15744.78
487.32	15690.95
487.50	15721.38
487.68	15854.79
487.85	16109.91
488.03	16566.31
488.21	16297.15
488.39	16362.69
488.57	16690.36
488.75	16603.76
488.92	17144.42
489.10	17102.29
489.28	17275.49
489.46	17493.16
489.64	17355.07
489.81	18019.78
489.99	17657.00
490.17	18005.74
490.35	18036.17
490.53	17994.04
490.70	18146.17
490.88	18216.39
491.06	18621.30
491.24	18410.65
491.41	18544.06
491.59	18792.16
491.77	18654.07
491.95	18728.97
492.13	18920.89
492.30	19227.50
492.48	19679.22
492.66	19440.49
492.84	19213.46
493.01	19740.08
493.19	19309.42
493.37	19878.17
493.54	19971.79
493.72	20027.96
493.90	19833.70
494.08	20472.67
494.25	20470.33
494.43	20512.46
494.61	20610.76
494.79	21064.82
494.96	20615.44
495.14	20966.52
495.32	20966.52
495.49	21167.80
495.67	21359.73
495.85	21755.28
496.02	21752.94
496.20	21638.25
496.38	21654.64
496.55	21869.97
496.73	22153.17
496.91	21860.60
497.09	22050.19
497.26	22214.02
497.44	22082.95
497.62	22628.30
497.79	22740.64
497.97	22389.56
498.14	22656.39
498.32	23065.98
498.50	22981.72
498.67	23342.16
498.85	23124.49
499.03	23377.27
499.20	23536.43
499.38	23782.18
499.56	23784.52
499.73	23491.96
499.91	23576.22
500.08	24013.90
500.26	23836.02
500.44	23674.52
500.61	23793.89
500.79	23878.15
500.97	24381.36
501.14	24542.86
501.32	24748.82
501.49	24584.99
501.67	24788.61
501.84	24797.98
502.02	24851.81
502.20	24987.56
502.37	25146.72
502.55	24910.32
502.72	24849.47
502.90	25120.97
503.07	25432.26
503.25	25570.35
503.43	25362.04
503.60	25453.33
503.78	25493.12
503.95	25762.28
504.13	25734.19
504.30	25759.94
504.48	25979.95
504.65	25811.43
504.83	25951.86
505.01	26225.70
505.18	25876.96
505.36	26700.83
505.53	26284.22
505.71	26590.83
505.88	26647.00
506.06	26780.41
506.23	26712.53
506.41	26569.76
506.58	26916.16
506.76	26700.83
506.93	26859.99
507.11	26984.04
507.28	26792.11
507.46	26878.71
507.63	27351.50
507.81	27197.02
507.98	27248.52
508.16	27517.68
508.33	27538.74
508.50	28140.26
508.68	27885.14
508.85	27737.69
509.03	27978.76
509.20	28086.43
509.38	28484.32
509.55	27992.81
509.73	28666.88
509.90	28046.64
510.08	28507.72
510.25	28430.49
510.42	28694.97
510.60	28648.16
510.77	28755.82
510.95	28704.33
511.12	28694.97
511.30	28865.83
511.47	28940.72
511.64	29301.17
511.82	29476.71
511.99	28830.72
512.17	29179.46
512.34	29516.50
512.51	29362.02
512.69	29675.65
512.86	29434.58
513.04	29853.53
513.21	29869.92
513.38	30068.86
513.56	29989.28
513.73	29993.97
513.90	30408.24
514.08	29652.25
514.25	30356.75
514.43	30476.12
514.60	30307.60
514.77	30225.68
514.95	30745.28
515.12	30443.35
515.29	30691.44
515.47	30731.23
515.64	30911.46
515.81	30850.60
515.99	30937.20
516.16	31009.76
516.33	30906.77
516.51	31274.24
516.68	30909.11
516.85	30902.09
517.03	31103.38
517.20	31541.06
517.37	31257.85
517.54	31358.50
517.72	31330.41
517.89	31459.14
518.06	31665.11
518.24	31749.37
518.41	31814.90
518.58	31501.27
518.75	31527.02
518.93	32109.81
519.10	31651.06
519.27	32292.37
519.45	32224.50
519.62	32247.90
519.79	32238.54
519.96	32620.05
520.14	32678.56
520.31	32238.54
520.48	32252.58
520.65	32727.71
520.83	32762.82
521.00	33144.33
521.17	32643.45
521.34	32954.74
521.52	33202.84
521.69	32591.96
521.86	33474.34
522.03	33083.47
522.20	33347.95
522.38	33759.89
522.55	33748.18
522.72	33479.02
522.89	33282.42
523.07	33773.93
523.24	33329.23
523.41	33937.77
523.58	33614.77
523.75	34043.09
523.92	34155.44
524.10	33832.44
524.27	34192.89
524.44	34291.19
524.61	34146.08
524.78	33886.28
524.96	34281.83
525.13	34473.75
525.30	34728.87
525.47	34726.53
525.64	34473.75
525.81	34895.05
525.98	34747.59
526.16	34419.92
526.33	34665.67
526.50	34899.73
526.67	34593.12
526.84	34745.25
527.01	34527.58
527.18	34808.45
527.36	35201.66
527.53	35124.42
527.70	35487.20
527.87	35742.32
528.04	35089.31
528.21	35325.71
528.38	35168.89
528.55	35194.64
528.72	35889.77
528.89	35583.16
529.07	35634.66
529.24	35452.09
529.41	35922.54
529.58	35861.69
529.75	35510.61
529.92	35978.72
530.09	35784.45
530.26	36177.66
530.43	36121.49
530.60	35599.55
530.77	36137.87
530.94	36552.15
531.11	35976.37
531.28	36554.49
531.46	36608.32
531.63	36465.55
531.80	36495.97
531.97	36367.24
532.14	36491.29
532.31	36538.10
532.48	36685.56
532.65	36589.59
532.82	36788.54
532.99	36950.04
533.16	36559.17
533.33	36928.97
533.50	37235.58
533.67	37251.97
533.84	37006.21
534.01	37111.53
534.18	36898.55
534.35	37270.69
534.52	36943.02
534.69	37317.50
534.86	37663.90
535.03	37146.64
535.20	37450.91
535.37	37406.44
535.54	37970.51
535.71	37364.31
535.88	37717.73
536.05	37916.68
536.22	37542.19
536.38	37804.33
536.55	37848.80
536.72	37921.36
536.89	37579.64
537.06	37965.83
537.23	38120.31
537.40	37804.33
537.57	37928.38
537.74	37972.85
537.91	38354.36
538.08	38010.30
538.25	37581.98
538.42	37860.51
538.59	38513.52
538.75	38450.32
538.92	38401.17
539.09	38298.19
539.26	38387.13
539.43	38576.71
539.60	38394.15
539.77	38497.13
539.94	38878.64
540.11	38398.83
540.28	38857.57
540.44	38600.12
540.61	39166.52
540.78	38972.26
540.95	38567.35
541.12	38302.87
541.29	39040.14
541.46	39068.22
541.62	39122.05
541.79	39695.49
541.96	39100.99
542.13	39005.03
542.30	38902.04
542.47	39271.85
542.63	39021.41
542.80	39524.63
542.97	39878.05
543.14	39796.13
543.31	39721.23
543.48	39662.72
543.64	39927.20
543.81	39952.94
543.98	39770.38
544.15	40369.56
544.32	39833.58
544.48	40404.67
544.65	39859.32
544.82	40287.64
544.99	39271.85
545.16	40582.55
545.32	40151.89
545.49	40168.27
545.66	39934.22
545.83	40442.12
546.00	40414.03
546.16	40573.19
546.33	40348.50
546.50	40411.69
546.67	40570.85
546.83	40205.72
547.00	40643.40
547.17	39878.05
547.34	40451.48
547.50	40540.42
547.67	40732.34
547.84	40294.66
548.00	40816.60
548.17	40608.29
548.34	40811.92
548.51	40428.07
548.67	40931.29
548.84	40755.75
549.01	41116.19
549.18	40673.83
549.34	41261.30
549.51	40840.01
549.68	41268.33
549.84	41322.16
550.01	41294.07
550.18	41104.49
550.34	41048.32
550.51	41191.09
550.68	40835.33
550.84	41221.52
551.01	41624.09
551.18	41076.40
551.34	41425.14
551.51	41244.92
551.68	41584.30
551.84	41710.69
552.01	41144.28
552.18	41766.86
552.34	41359.61
552.51	41776.22
552.68	41670.90
552.84	41839.42
553.01	41886.23
553.18	41523.44
553.34	41556.21
553.51	41455.57
553.67	41921.34
553.84	41998.57
554.01	41876.86
554.17	42323.91
554.34	42548.60
554.51	42368.38
554.67	42223.26
554.84	42054.75
555.00	42047.72
555.17	42265.39
555.33	42485.40
555.50	42124.96
555.67	41991.55
555.83	42157.73
556.00	42564.98
556.16	42782.65
556.33	42464.34
556.50	42302.84
556.66	42752.23
556.83	42387.10
556.99	42581.37
557.16	42586.05
557.32	42429.23
557.49	42232.63
557.65	42209.22
557.82	42405.83
557.98	42473.70
558.15	42356.67
558.32	42983.94
558.48	42574.34
558.65	42784.99
558.81	42452.64
558.98	42845.85
559.14	42576.69
559.31	42710.10
559.47	42412.85
559.64	42745.20
559.80	43328.00
559.97	42951.17
560.13	43206.29
560.30	42974.58
560.46	43210.97
560.63	42962.87
560.79	43147.78
560.96	43166.50
561.12	43152.46
561.29	42749.88
561.45	43283.53
561.61	43002.66
561.78	42887.98
561.94	42665.63
562.11	42799.04
562.27	42883.30
562.44	43166.50
562.60	43283.53
562.77	43360.76
562.93	43145.44
563.10	42930.11
563.26	42665.63
563.42	43068.20
563.59	42850.53
563.75	43386.51
563.92	43007.34
564.08	43154.80
564.24	43262.46
564.41	43372.47
564.57	43131.39
564.74	43152.46
564.90	43337.36
565.07	43213.31
565.23	43250.76
565.39	43119.69
565.56	43835.89
565.72	43318.64
565.88	43194.59
566.05	43180.54
566.21	43676.74
566.38	43533.96
566.54	43192.25
566.70	43370.13
566.87	43646.31
567.03	43386.51
567.19	43611.20
567.36	43812.49
567.52	43545.67
567.68	43552.69
567.85	43648.65
568.01	43604.18
568.17	43573.75
568.34	43878.02
568.50	43840.57
568.66	43470.77
568.83	43796.10
568.99	43374.81
569.15	43871.00
569.32	43386.51
569.48	43185.22
569.64	43856.96
569.81	43772.70
569.97	43325.66
570.13	44149.53
570.30	43810.15
570.46	43388.85
570.62	43335.02
570.78	43665.03
570.95	43225.01
571.11	44170.59
571.27	43571.41
571.43	43969.30
571.60	44208.04
571.76	43648.65
571.92	43522.26
572.09	43828.87
572.25	43510.56
572.41	43405.23
572.57	44030.16
572.74	44224.42
572.90	43931.86
573.06	44006.75
573.22	43618.22
573.38	43548.01
573.55	43730.57
573.71	43779.72
573.87	43555.03
574.03	43737.59
574.20	43887.39
574.36	43700.14
574.52	43892.07
574.68	43571.41
574.84	44006.75
575.01	43966.96
575.17	44374.22
575.33	43613.54
575.49	43480.13
575.65	44123.78
575.82	44105.06
575.98	43981.01
576.14	44151.87
576.30	44165.91
576.46	43749.29
576.62	43856.96
576.79	43983.35
576.95	43716.53
577.11	44032.50
577.27	43964.62
577.43	44074.63
577.59	44236.12
577.75	43955.26
577.92	44025.48
578.08	43849.94
578.24	43320.98
578.40	44144.84
578.56	43782.06
578.72	44020.80
578.88	44306.34
579.04	44334.43
579.21	44119.10
579.37	43835.89
579.53	43580.78
579.69	43538.65
579.85	44198.68
580.01	44065.27
580.17	44486.56
580.33	44706.57
580.49	43779.72
580.65	44121.44
580.82	44210.38
580.98	44500.61
581.14	43746.95
581.30	44308.68
581.46	44238.47
581.62	44334.43
581.78	44025.48
581.94	44388.26
582.10	43950.58
582.26	44250.17
582.42	44172.93
582.58	43271.82
582.74	43676.74
582.90	44025.48
583.06	44341.45
583.22	43819.51
583.38	44156.55
583.54	44093.35
583.70	43861.64
583.86	44126.12
584.02	43892.07
584.18	44086.33
584.34	44079.31
584.50	44406.98
584.66	44128.46
584.82	44030.16
584.98	44292.30
585.14	44208.04
585.30	44189.31
585.46	44411.67
585.62	44116.76
585.78	43959.94
585.94	43473.11
586.10	44016.11
586.26	44039.52
586.42	43915.47
586.58	44222.08
586.74	43990.37
586.90	43934.20
587.06	44226.76
587.22	44112.08
587.38	43976.33
587.54	44538.05
587.70	44463.16
587.86	44423.37
588.02	44367.20
588.18	44095.69
588.34	44032.50
588.49	43739.93
588.65	44158.89
588.81	43749.29
588.97	44055.90
589.13	43847.60
589.29	44154.21
589.45	44231.44
589.61	44383.58
589.77	44439.75
589.93	44460.82
590.08	44414.01
590.24	44589.55
590.40	44165.91
