SpectraSuite Data File
++++++++++++++++++++++++++++++++++++
Date: Fri Oct 25 11:25:51 EDT 2013
User: price-jones
Dark Spectrum Present: No
Reference Spectrum Present: No
Number of Sampled Component Spectra: 1
Spectrometers: USB2+H05261
Integration Time (usec): 100000 (USB2+H05261)
Spectra Averaged: 1 (USB2+H05261)
Boxcar Smoothing: 0 (USB2+H05261)
Correct for Electrical Dark: No (USB2+H05261)
Strobe/Lamp Enabled: No (USB2+H05261)
Correct for Detector Non-linearity: No (USB2+H05261)
Correct for Stray Light: No (USB2+H05261)
Number of Pixels in Processed Spectrum: 2048
>>>>>Begin Processed Spectral Data<<<<<
365.73	241.08
365.92	241.08
366.12	241.08
366.32	196.60
366.52	187.24
366.72	142.77
366.91	196.60
367.11	117.03
367.31	128.73
367.51	70.22
367.70	110.01
367.90	107.66
368.10	145.11
368.30	191.92
368.49	227.03
368.69	133.41
368.89	208.31
369.09	170.86
369.28	208.31
369.48	220.01
369.68	198.95
369.87	222.35
370.07	182.56
370.27	257.46
370.47	365.12
370.66	641.31
370.86	650.67
371.06	526.62
371.25	697.48
371.45	671.73
371.65	641.31
371.84	758.33
372.04	688.12
372.24	699.82
372.44	725.57
372.63	706.84
372.83	753.65
373.03	732.59
373.22	784.08
373.42	784.08
373.62	786.42
373.81	823.87
374.01	793.44
374.21	800.46
374.40	753.65
374.60	858.98
374.79	905.79
374.99	821.53
375.19	826.21
375.38	863.66
375.58	795.78
375.78	870.68
375.97	931.53
376.17	901.11
376.37	915.15
376.56	880.04
376.76	908.13
376.95	854.30
377.15	882.38
377.35	875.36
377.54	940.90
377.74	959.62
377.93	933.87
378.13	898.77
378.33	933.87
378.52	961.96
378.72	999.41
378.91	961.96
379.11	947.92
379.31	926.85
379.50	891.74
379.70	908.13
379.89	999.41
380.09	997.07
380.28	980.68
380.48	1006.43
380.68	950.26
380.87	954.94
381.07	976.00
381.26	980.68
381.46	1048.56
381.65	1067.28
381.85	1069.62
382.04	971.32
382.24	1043.88
382.43	1013.45
382.63	968.98
382.83	1043.88
383.02	1081.33
383.22	1121.12
383.41	1135.16
383.61	1104.73
383.80	1132.82
384.00	1100.05
384.19	1090.69
384.39	1118.78
384.58	1165.59
384.78	1088.35
384.97	1214.74
385.17	1217.08
385.36	1198.35
385.56	1109.41
385.75	1139.84
385.95	1289.64
386.14	1231.12
386.34	1191.33
386.53	1245.16
386.72	1247.51
386.92	1320.06
387.11	1301.34
387.31	1261.55
387.50	1277.93
387.70	1235.80
387.89	1277.93
388.09	1294.32
388.28	1249.85
388.48	1217.08
388.67	1219.42
388.86	1252.19
389.06	1329.42
389.25	1338.79
389.45	1401.98
389.64	1427.73
389.84	1394.96
390.03	1385.60
390.22	1362.19
390.42	1399.64
390.61	1324.74
390.81	1455.81
391.00	1359.85
391.19	1378.58
391.39	1472.20
391.58	1376.24
391.78	1533.05
391.97	1462.83
392.16	1432.41
392.36	1558.80
392.55	1607.95
392.75	1577.52
392.94	1605.61
393.13	1488.58
393.33	1563.48
393.52	1526.03
393.71	1547.09
393.91	1554.12
394.10	1577.52
394.29	1551.78
394.49	1603.27
394.68	1755.40
394.88	1570.50
395.07	1790.51
395.26	1629.01
395.46	1626.67
395.65	1722.63
395.84	1778.81
396.04	1748.38
396.23	1788.17
396.42	1778.81
396.62	1692.21
396.81	1802.21
397.00	1778.81
397.19	1806.89
397.39	1856.04
397.58	1940.30
397.77	1783.49
397.97	1825.62
398.16	1832.64
398.35	1900.52
398.55	1893.49
398.74	1884.13
398.93	1966.05
399.12	1916.90
399.32	1860.73
399.51	1874.77
399.70	1926.26
399.90	1926.26
400.09	1966.05
400.28	2057.33
400.47	2097.12
400.67	2064.35
400.86	2038.61
401.05	2115.84
401.24	2005.84
401.44	2167.34
401.63	2204.78
401.82	2122.87
402.01	2174.36
402.21	2143.93
402.40	2169.68
402.59	2118.18
402.78	2165.00
402.97	2270.32
403.17	2333.51
403.36	2228.19
403.55	2239.89
403.74	2305.43
403.93	2427.14
404.13	2410.75
404.32	2385.01
404.51	2415.43
404.70	2387.35
404.89	2424.80
405.09	2462.24
405.28	2401.39
405.47	2495.01
405.66	2431.82
405.85	2534.80
406.05	2452.88
406.24	2551.18
406.43	2464.58
406.62	2661.19
406.81	2766.51
407.00	2586.29
407.20	2513.74
407.39	2619.06
407.58	2527.78
407.77	2738.43
407.96	2722.04
408.15	2775.88
408.34	2796.94
408.54	2850.77
408.73	2909.29
408.92	2691.62
409.11	2825.03
409.30	2853.11
409.49	3000.57
409.68	2888.22
409.87	2920.99
410.07	3049.72
410.26	2956.10
410.45	3087.17
410.64	3070.78
410.83	3070.78
411.02	3143.34
411.21	3246.32
411.40	3087.17
411.59	3136.32
411.78	3246.32
411.98	3176.11
412.17	3302.50
412.36	3414.84
412.55	3279.09
412.74	3407.82
412.93	3433.57
413.12	3325.90
413.31	3639.53
413.50	3417.18
413.69	3431.23
413.88	3646.55
414.07	3522.51
414.26	3510.80
414.45	3606.77
414.64	3786.99
414.83	3815.07
415.02	3667.62
415.22	3878.27
415.41	3808.05
415.60	3707.41
415.79	3904.01
415.98	3992.95
416.17	3957.85
416.36	3936.78
416.55	3955.51
416.74	4124.02
416.93	4119.34
417.12	4119.34
417.31	4161.47
417.50	4187.22
417.69	4201.26
417.88	4259.78
418.07	4353.40
418.26	4346.37
418.45	4362.76
418.64	4535.96
418.83	4437.66
419.02	4369.78
419.21	4440.00
419.39	4491.49
419.58	4521.92
419.77	4358.08
419.96	4479.79
420.15	4505.53
420.34	4496.17
420.53	4655.33
420.72	4713.84
420.91	4784.06
421.10	4875.34
421.29	4807.46
421.48	4620.22
421.67	4671.71
421.86	4643.62
422.05	4730.22
422.24	4655.33
422.43	4812.14
422.61	4887.04
422.80	4896.40
422.99	4823.84
423.18	4926.83
423.37	4983.00
423.56	4968.96
423.75	4908.10
423.94	4851.93
424.13	4730.22
424.32	4662.35
424.50	4950.23
424.69	5235.78
424.88	5123.43
425.07	4940.87
425.26	5088.32
425.45	5001.72
425.64	4945.55
425.83	5041.51
426.01	5107.05
426.20	5001.72
426.39	4985.34
426.58	4980.66
426.77	5050.88
426.96	5093.01
427.15	5111.73
427.33	5268.55
427.52	5104.71
427.71	5142.16
427.90	5132.79
428.09	5408.98
428.28	5350.46
428.46	5210.03
428.65	5305.99
428.84	5387.91
429.03	5591.54
429.22	5352.81
429.40	5612.60
429.59	5378.55
429.78	5324.72
429.97	5385.57
430.16	5420.68
430.34	5628.99
430.53	5530.69
430.72	5816.23
430.91	5675.80
431.10	5668.78
431.28	5680.48
431.47	5977.73
431.66	5802.19
431.85	5778.78
432.03	5961.34
432.22	6043.26
432.41	5846.66
432.60	5914.53
432.79	5912.19
432.97	5858.36
433.16	5949.64
433.35	5942.62
433.54	6209.44
433.72	6186.04
433.91	6157.95
434.10	6216.46
434.28	6169.65
434.47	6188.38
434.66	6118.16
434.85	6373.28
435.03	6424.77
435.22	6225.82
435.41	6539.46
435.59	6272.64
435.78	6513.71
435.97	6354.55
436.16	6431.79
436.34	6539.46
436.53	6633.08
436.72	6820.32
436.90	6471.58
437.09	6579.25
437.28	6539.46
437.46	6644.78
437.65	6658.82
437.84	6712.66
438.02	6630.74
438.21	6752.45
438.40	6593.29
438.58	7056.72
438.77	7063.74
438.96	6988.84
439.14	7047.35
439.33	7208.85
439.52	7037.99
439.70	7274.38
439.89	7379.71
440.08	7482.69
440.26	7143.32
440.45	7215.87
440.63	7342.26
440.82	7576.31
441.01	7522.48
441.19	7630.15
441.38	7707.38
441.57	7756.54
441.75	7644.19
441.94	7943.78
442.12	7878.24
442.31	7995.27
442.50	8102.93
442.68	8152.09
442.87	8077.19
443.05	8224.64
443.24	8234.00
443.43	8131.02
443.61	8226.98
443.80	8294.86
443.98	8065.49
444.17	7899.31
444.35	8353.37
444.54	8358.05
444.73	8210.60
444.91	8423.59
445.10	8161.45
445.28	8486.78
445.47	8374.44
445.65	8266.77
445.84	8451.67
446.02	8313.58
446.21	8454.02
446.39	8301.88
446.58	8465.72
446.77	8589.77
446.95	8489.12
447.14	8348.69
447.32	8568.70
447.51	8353.37
447.69	8554.66
447.88	8753.60
448.06	8486.78
448.25	8585.08
448.43	8524.23
448.62	8549.98
448.80	8767.65
448.99	8643.60
449.17	8798.07
449.36	8809.78
449.54	8659.98
449.73	9027.45
449.91	9022.77
450.10	8908.08
450.28	9125.75
450.46	9149.15
450.65	9151.49
450.83	8957.23
451.02	8954.89
451.20	9165.54
451.39	9111.71
451.57	9188.94
451.76	9020.42
451.94	9212.35
452.13	9294.27
452.31	9207.67
452.49	9193.62
452.68	9373.85
452.86	9350.44
453.05	9423.00
453.23	9357.46
453.42	9298.95
453.60	9408.95
453.78	9621.94
453.97	9462.79
454.15	9631.30
454.34	9507.26
454.52	9809.19
454.70	9619.60
454.89	9635.99
455.07	9778.76
455.26	9757.69
455.44	9884.08
455.62	9678.12
455.81	9975.36
455.99	10066.64
456.17	9966.00
456.36	9966.00
456.54	10085.37
456.73	10164.95
456.91	10356.87
457.09	10399.00
457.28	10356.87
457.46	10188.35
457.64	10604.97
457.83	10530.07
458.01	10539.43
458.19	10736.04
458.38	10644.76
458.56	10775.83
458.74	10736.04
458.93	10558.16
459.11	10644.76
459.29	10792.21
459.48	10698.59
459.66	10719.65
459.84	10593.26
460.03	10932.64
460.21	11066.05
460.39	10750.08
460.57	11068.39
460.76	11047.33
460.94	11133.93
461.12	11253.30
461.31	11253.30
461.49	11297.77
461.67	11229.89
461.85	11522.46
462.04	11328.19
462.22	12121.63
462.40	11531.82
462.59	11520.12
462.77	11309.47
462.95	11716.72
463.13	11693.32
463.32	11833.75
463.50	11796.30
463.68	11775.24
463.86	11852.47
464.05	11772.89
464.23	11875.88
464.41	11910.99
464.59	11564.59
464.78	11962.48
464.96	12217.60
465.14	11988.22
465.32	12135.68
465.50	11957.80
465.69	12121.63
465.87	11985.88
466.05	12023.33
466.23	12070.14
466.41	12716.13
466.60	12512.50
466.78	12233.98
466.96	12381.43
467.14	12255.04
467.32	12493.78
467.51	12386.12
467.69	12219.94
467.87	12294.83
468.05	12638.89
468.23	12470.37
468.41	12271.43
468.60	12812.09
468.78	12784.01
468.96	12606.13
469.14	12582.72
469.32	13132.75
469.50	12606.13
469.69	13046.15
469.87	13128.06
470.05	12943.16
470.23	13228.71
470.41	13280.20
470.59	13273.18
470.77	13149.13
470.95	13205.30
471.14	13748.31
471.32	13249.77
471.50	13682.77
471.68	13600.85
471.86	13572.77
472.04	13788.10
472.22	14087.68
472.40	13736.60
472.58	13668.73
472.77	14029.17
472.95	14024.49
473.13	14588.56
473.31	14113.43
473.49	14349.82
473.67	14146.20
473.85	14375.57
474.03	14586.22
474.21	14789.85
474.39	15030.92
474.57	14607.28
474.75	14934.96
474.93	14876.44
475.12	14733.67
475.30	15112.84
475.48	15300.08
475.66	15070.71
475.84	14972.41
476.02	15335.19
476.20	15454.56
476.38	15573.92
476.56	16409.50
476.74	15754.15
476.92	15665.21
477.10	15936.71
477.28	16088.84
477.46	16376.73
477.64	16404.81
477.82	16266.72
478.00	16688.02
478.18	17060.16
478.36	16690.36
478.54	17123.36
478.72	17254.43
478.90	17399.54
479.08	17486.14
479.26	17778.71
479.44	17809.14
479.62	17965.95
479.80	17933.18
479.98	18097.02
480.16	18513.64
480.34	18239.79
480.52	18757.05
480.70	18455.12
480.88	18333.42
481.06	18885.78
481.24	19122.18
481.41	19290.70
481.59	19211.12
481.77	19587.94
481.95	19264.95
482.13	19913.28
482.31	19660.50
482.49	20084.14
482.67	20276.06
482.85	20414.15
483.03	20549.90
483.21	20821.41
483.39	21125.68
483.57	20680.97
483.74	20954.82
483.92	21404.20
484.10	21238.02
484.28	21448.67
484.46	21876.99
484.64	22284.24
484.82	21891.03
485.00	22478.50
485.18	22597.87
485.35	23117.47
485.53	22993.42
485.71	23145.56
485.89	23164.28
486.07	23101.09
486.25	23349.18
486.43	23592.60
486.61	24098.16
486.78	23728.35
486.96	24175.39
487.14	24533.50
487.32	24788.61
487.50	24945.43
487.68	25158.42
487.85	25240.34
488.03	25291.83
488.21	25769.30
488.39	26033.78
488.57	25956.54
488.75	26082.93
488.92	26277.19
489.10	26176.55
489.28	26815.52
489.46	27229.79
489.64	27075.32
489.81	27290.65
489.99	27358.52
490.17	27803.22
490.35	27997.49
490.53	28582.62
490.70	28208.14
490.88	28350.91
491.06	28655.18
491.24	28992.22
491.41	28957.11
491.59	29390.11
491.77	29130.31
491.95	29556.28
492.13	29855.87
492.30	30064.18
492.48	30120.35
492.66	30338.02
492.84	30389.52
493.01	30733.57
493.19	30705.49
493.37	30944.22
493.54	31316.37
493.72	31414.67
493.90	31627.66
494.08	31868.73
494.25	32077.04
494.43	31948.31
494.61	32074.70
494.79	32720.69
494.96	32528.77
495.14	33027.30
495.32	33378.38
495.49	33359.66
495.67	33160.71
495.85	33640.52
496.02	33553.92
496.20	33736.48
496.38	34117.99
496.55	34120.33
496.73	34595.46
496.91	34155.44
497.09	34579.07
497.26	34895.05
497.44	34806.11
497.62	35489.54
497.79	35559.76
497.97	35349.11
498.14	35864.03
498.32	36158.94
498.50	36172.98
498.67	36268.94
498.85	36479.59
499.03	37048.34
499.20	36229.15
499.38	36694.92
499.56	36933.65
499.73	37167.71
499.91	37172.39
500.08	37818.38
500.26	37530.49
500.44	37853.48
500.61	37818.38
500.79	37820.72
500.97	37979.87
501.14	38307.55
501.32	38010.30
501.49	38494.79
501.67	39002.69
501.84	38845.87
502.02	38710.12
502.20	39105.67
502.37	39587.82
502.55	39253.12
502.72	39494.20
502.90	39452.07
503.07	39475.48
503.25	39538.67
503.43	39849.96
503.60	40285.30
503.78	39927.20
503.95	40128.48
504.13	40481.91
504.30	40645.74
504.48	40275.94
504.65	40931.29
504.83	41188.75
505.01	41319.82
505.18	40959.38
505.36	41542.17
505.53	41268.33
505.71	41460.25
505.88	41752.82
506.06	41301.09
506.23	41588.98
506.41	41652.17
506.58	41895.59
506.76	42131.98
506.93	42354.33
507.11	42256.03
507.28	42440.93
507.46	42670.31
507.63	43047.13
507.81	43262.46
507.98	42726.48
508.16	43056.50
508.33	43215.65
508.50	43349.06
508.68	43225.01
508.85	43646.31
509.03	43929.51
509.20	43924.83
509.38	44170.59
509.55	44341.45
509.73	44208.04
509.90	44416.35
510.08	44402.30
510.25	44444.43
510.42	44509.97
510.60	44900.84
510.77	45155.96
510.95	45165.32
511.12	45301.07
511.30	45076.38
511.47	45691.94
511.64	45542.14
511.82	45542.14
511.99	45249.58
512.17	45720.02
512.34	45464.91
512.51	46309.84
512.69	46354.31
512.86	46277.07
513.04	46534.53
513.21	46831.78
513.38	46504.10
513.56	47016.68
513.73	47009.66
513.90	46677.30
514.08	47026.04
514.25	47494.15
514.43	46944.12
514.60	47585.43
514.77	47482.45
514.95	47454.36
515.12	47353.72
515.29	47384.15
515.47	48137.80
515.64	48252.48
515.81	47957.58
515.99	48458.45
516.16	48177.59
516.33	48151.84
516.51	48713.57
516.68	48313.34
516.85	48566.12
517.03	48657.40
517.20	49113.80
517.37	48589.52
517.54	48879.75
517.72	48736.98
517.89	49052.95
518.06	49237.85
518.24	49076.35
518.41	49099.76
518.58	49214.44
518.75	49055.29
518.93	49591.27
519.10	49249.55
519.27	49642.76
519.45	49832.35
519.62	50003.20
519.79	50122.57
519.96	49792.56
520.14	50164.70
520.31	50218.53
520.48	50672.60
520.65	50497.06
520.83	50791.97
521.00	50597.70
521.17	50688.98
521.34	50735.79
521.52	50824.73
521.69	51061.13
521.86	50986.23
522.03	50997.93
522.20	51311.56
522.38	51234.33
522.55	51325.61
522.72	51208.58
522.89	51505.83
523.07	51489.45
523.24	51657.96
523.41	51714.14
523.58	51412.21
523.75	51681.37
523.92	51700.09
524.10	52168.20
524.27	52177.56
524.44	52161.18
524.61	52030.11
524.78	52177.56
524.96	52254.80
525.13	52376.51
525.30	52435.02
525.47	52505.24
525.64	52430.34
525.81	52521.62
525.98	52566.09
526.16	52804.83
526.33	52388.21
526.50	53186.33
526.67	52903.13
526.84	52994.41
527.01	52966.32
527.18	53113.78
527.36	52928.87
527.53	52882.06
527.70	53261.23
527.87	53111.44
528.04	53102.07
528.21	53420.39
528.38	53371.24
528.55	53581.88
528.72	53471.88
528.89	53504.65
529.07	53455.50
529.24	53385.28
529.41	53616.99
529.58	53745.72
529.75	53429.75
529.92	54014.88
530.09	53956.37
530.26	53942.33
530.43	54047.65
530.60	53581.88
530.77	53977.43
530.94	53848.71
531.11	54138.93
531.28	54190.42
531.46	54148.29
531.63	54578.95
531.80	54094.46
531.97	54262.98
532.14	54475.97
532.31	54014.88
532.48	54541.50
532.65	54915.99
532.82	54553.21
532.99	54532.14
533.16	54492.35
533.33	54873.86
533.50	54773.22
533.67	54780.24
533.84	54642.15
534.01	54703.00
534.18	54731.09
534.35	55075.15
534.52	54848.11
534.69	55458.99
534.86	55063.44
535.03	54983.86
535.20	54974.50
535.37	55189.83
535.54	55601.77
535.71	55257.71
535.88	55147.70
536.05	55360.69
536.22	55697.73
536.38	55636.87
536.55	55536.23
536.72	55662.62
536.89	55512.83
537.06	55604.11
537.23	55718.79
537.40	55676.66
537.57	55480.06
537.74	55735.18
537.91	55891.99
538.08	55915.40
538.25	55632.19
538.42	55749.22
538.59	56048.81
538.75	55896.67
538.92	56034.77
539.09	56285.20
539.26	55877.95
539.43	56025.40
539.60	56261.80
539.77	56313.29
539.94	56292.22
540.11	56348.40
540.28	56238.39
540.44	56395.21
540.61	56575.43
540.78	56355.42
540.95	56374.14
541.12	56498.19
541.29	56486.49
541.46	56596.49
541.62	56523.94
541.79	56673.73
541.96	56423.29
542.13	56671.39
542.30	56502.87
542.47	56821.19
542.63	56961.62
542.80	56851.61
542.97	56945.23
543.14	56959.28
543.31	57193.33
543.48	57158.22
543.64	57338.44
543.81	57190.99
543.98	57134.82
544.15	57176.95
544.32	57361.85
544.48	57598.24
544.65	57516.32
544.82	57326.74
544.99	57336.10
545.16	57453.13
545.32	57275.25
545.49	57759.74
545.66	57544.41
545.83	57352.49
546.00	57640.37
546.16	57626.33
546.33	57612.29
546.50	57331.42
546.67	57563.14
546.83	57427.38
547.00	57441.43
547.17	57748.04
547.34	57776.12
547.50	58031.24
547.67	58042.95
547.84	58096.78
548.00	58305.09
548.17	58195.08
548.34	58021.88
548.51	58192.74
548.67	58143.59
548.84	58138.91
549.01	57996.13
549.18	58068.69
549.34	58159.97
549.51	58117.84
549.68	58291.04
549.84	58379.98
550.01	58506.37
550.18	58113.16
550.34	58569.57
550.51	58368.28
550.68	58471.26
550.84	58117.84
551.01	58389.34
551.18	58321.47
551.34	58230.19
551.51	58686.59
551.68	58632.76
551.84	58422.11
552.01	58431.47
552.18	58569.57
552.34	58415.09
552.51	58796.60
552.68	58485.31
552.84	58576.59
553.01	58822.34
553.18	58660.85
553.34	59002.56
553.51	58827.02
553.67	58747.45
553.84	58913.62
554.01	59171.08
554.17	58955.75
554.34	58939.37
554.51	59000.22
554.67	59007.25
554.84	58869.15
555.00	59147.68
555.17	58995.54
555.33	58934.69
555.50	58979.16
555.67	59002.56
555.83	58922.99
556.00	59124.27
556.16	59643.87
556.33	59262.36
556.50	59025.97
556.66	59402.80
556.83	59133.63
556.99	59297.47
557.16	59444.93
557.32	59421.52
557.49	59536.21
557.65	59451.95
557.82	59536.21
557.98	59512.80
558.15	59398.12
558.32	59496.42
558.48	59166.40
558.65	59477.69
558.81	59428.54
558.98	59393.43
559.14	59578.34
559.31	59503.44
559.47	59613.44
559.64	59515.14
559.80	59524.50
559.97	59765.58
560.13	59550.25
560.30	59615.79
560.46	59716.43
560.63	59861.54
560.79	59636.85
560.96	59924.74
561.12	59681.32
561.29	59966.87
561.45	59604.08
561.61	59700.04
561.78	59826.43
561.94	59884.95
562.11	59770.26
562.27	60037.08
562.44	59812.39
562.60	59938.78
562.77	59987.93
562.93	59760.90
563.10	60142.41
563.26	59938.78
563.42	60172.83
563.59	60046.44
563.75	60046.44
563.92	60090.91
564.08	60006.65
564.24	60207.94
564.41	60121.34
564.57	60266.45
564.74	60224.32
564.90	60254.75
565.07	60226.66
565.23	59873.24
565.39	60100.28
565.56	60041.76
565.72	60170.49
565.88	60229.01
566.05	59870.90
566.21	60299.22
566.38	60287.52
566.54	60133.04
566.70	60451.36
566.87	60301.56
567.03	60158.79
567.19	60306.24
567.36	60252.41
567.52	60530.93
567.68	60708.82
567.85	60477.10
568.01	60458.38
568.17	60355.39
568.34	60537.96
568.50	60301.56
568.66	60357.74
568.83	60416.25
568.99	60182.19
569.15	60420.93
569.32	60425.61
569.48	60381.14
569.64	60437.31
569.81	60467.74
569.97	60367.10
570.13	60449.02
570.30	60186.88
570.46	60533.28
570.62	60390.50
570.78	60432.63
570.95	60507.53
571.11	60500.51
571.27	60519.23
571.43	60385.82
571.60	60612.85
571.76	60631.58
571.92	60549.66
572.09	60669.03
572.25	60645.62
572.41	60542.64
572.57	60530.93
572.74	60584.77
572.90	60507.53
573.06	60722.86
573.22	60605.83
573.38	60596.47
573.55	60493.49
573.71	60722.86
573.87	60718.18
574.03	60591.79
574.20	60657.32
574.36	60617.53
574.52	60573.06
574.68	60610.51
574.84	60718.18
575.01	60739.24
575.17	60643.28
575.33	60633.92
575.49	60680.73
575.65	60779.03
575.82	60779.03
575.98	60666.69
576.14	60914.78
576.30	60694.77
576.46	60818.82
576.62	60807.12
576.79	60690.09
576.95	60596.47
577.11	60837.54
577.27	60877.33
577.43	60706.47
577.59	60802.44
577.75	60977.98
577.92	60580.09
578.08	60736.90
578.24	60690.09
578.40	61013.08
578.56	61017.77
578.72	60879.67
578.88	60963.93
579.04	61073.94
579.21	60823.50
579.37	60823.50
579.53	60849.25
579.69	60736.90
579.85	60659.66
580.01	60720.52
580.17	60891.38
580.33	60879.67
580.49	61172.24
580.65	61057.56
580.82	60680.73
580.98	60931.17
581.14	60797.76
581.30	60907.76
581.46	60790.73
581.62	60818.82
581.78	60748.60
581.94	61036.49
582.10	60870.31
582.26	60977.98
582.42	60921.80
582.58	60999.04
582.74	60837.54
582.90	61090.32
583.06	61083.30
583.22	60926.49
583.38	60830.52
583.54	60825.84
583.70	60947.55
583.86	60996.70
584.02	60968.61
584.18	60942.87
584.34	60882.02
584.50	60893.72
584.66	60849.25
584.82	60809.46
584.98	60898.40
585.14	61188.63
585.30	60992.02
585.46	61038.83
585.62	60788.39
585.78	61092.66
585.94	61034.15
586.10	60924.14
586.26	61006.06
586.42	61015.43
586.58	61045.85
586.74	61066.92
586.90	60907.76
587.06	60956.91
587.22	61315.01
587.38	61111.39
587.54	60987.34
587.70	61300.97
587.86	61144.16
588.02	61062.24
588.18	61340.76
588.34	60970.96
588.49	61052.87
