SpectraSuite Data File
++++++++++++++++++++++++++++++++++++
Date: Fri Oct 25 10:47:53 EDT 2013
User: price-jones
Dark Spectrum Present: No
Reference Spectrum Present: No
Number of Sampled Component Spectra: 1
Spectrometers: USB2+H05261
Integration Time (usec): 100000 (USB2+H05261)
Spectra Averaged: 1 (USB2+H05261)
Boxcar Smoothing: 0 (USB2+H05261)
Correct for Electrical Dark: No (USB2+H05261)
Strobe/Lamp Enabled: No (USB2+H05261)
Correct for Detector Non-linearity: No (USB2+H05261)
Correct for Stray Light: No (USB2+H05261)
Number of Pixels in Processed Spectrum: 2048
>>>>>Begin Processed Spectral Data<<<<<
365.73	140.43
365.92	140.43
366.12	140.43
366.32	107.66
366.52	11.70
366.72	98.30
366.91	4.68
367.11	11.70
367.31	46.81
367.51	11.70
367.70	23.41
367.90	11.70
368.10	53.83
368.30	39.79
368.49	28.09
368.69	95.96
368.89	81.92
369.09	65.54
369.28	79.58
369.48	112.35
369.68	37.45
369.87	131.07
370.07	56.17
370.27	107.66
370.47	189.58
370.66	262.14
370.86	397.89
371.06	437.68
371.25	409.59
371.45	484.49
371.65	435.34
371.84	397.89
372.04	493.85
372.24	486.83
372.44	454.06
372.63	423.64
372.83	535.98
373.03	526.62
373.22	535.98
373.42	512.58
373.62	566.41
373.81	454.06
374.01	510.24
374.21	552.37
374.40	557.05
374.60	531.30
374.79	559.39
374.99	557.05
375.19	475.13
375.38	521.94
375.58	538.32
375.78	571.09
375.97	547.69
376.17	596.84
376.37	589.82
376.56	587.47
376.76	674.07
376.95	580.45
377.15	610.88
377.35	599.18
377.54	613.22
377.74	566.41
377.93	638.97
378.13	650.67
378.33	660.03
378.52	622.58
378.72	650.67
378.91	699.82
379.11	655.35
379.31	603.86
379.50	578.11
379.70	629.60
379.89	709.18
380.09	585.13
380.28	606.20
380.48	624.92
380.68	650.67
380.87	669.39
381.07	660.03
381.26	671.73
381.46	667.05
381.65	706.84
381.85	734.93
382.04	706.84
382.24	650.67
382.43	737.27
382.63	741.95
382.83	641.31
383.02	760.67
383.22	870.68
383.41	648.33
383.61	730.25
383.80	695.14
384.00	720.88
384.19	697.48
384.39	784.08
384.58	741.95
384.78	763.01
384.97	746.63
385.17	727.91
385.36	779.40
385.56	763.01
385.75	765.36
385.95	849.61
386.14	779.40
386.34	711.52
386.53	730.25
386.72	844.93
386.92	802.80
387.11	800.46
387.31	767.70
387.50	739.61
387.70	767.70
387.89	866.00
388.09	823.87
388.28	844.93
388.48	877.70
388.67	882.38
388.86	891.74
389.06	924.51
389.25	983.02
389.45	896.43
389.64	954.94
389.84	887.06
390.03	919.83
390.22	924.51
390.42	873.02
390.61	901.11
390.81	837.91
391.00	964.30
391.19	994.73
391.39	987.71
391.58	964.30
391.78	903.45
391.97	999.41
392.16	938.55
392.36	1034.52
392.55	978.34
392.75	896.43
392.94	947.92
393.13	980.68
393.33	980.68
393.52	994.73
393.71	992.39
393.91	992.39
394.10	987.71
394.29	992.39
394.49	1032.18
394.68	1064.94
394.88	1137.50
395.07	1109.41
395.26	1071.97
395.46	1158.57
395.65	1224.10
395.84	1090.69
396.04	1240.48
396.23	1128.14
396.42	1170.27
396.62	1104.73
396.81	1184.31
397.00	1146.86
397.19	1102.39
397.39	1196.01
397.58	1226.44
397.77	1207.72
397.97	1231.12
398.16	1210.06
398.35	1355.17
398.55	1315.38
398.74	1392.62
398.93	1252.19
399.12	1341.13
399.32	1341.13
399.51	1327.08
399.70	1345.81
399.90	1394.96
400.09	1334.11
400.28	1406.66
400.47	1387.94
400.67	1465.18
400.86	1441.77
401.05	1394.96
401.24	1444.11
401.44	1626.67
401.63	1514.33
401.82	1509.65
402.01	1629.01
402.21	1453.47
402.40	1593.90
402.59	1554.12
402.78	1455.81
402.97	1621.99
403.17	1504.96
403.36	1516.67
403.55	1577.52
403.74	1661.78
403.93	1591.56
404.13	1661.78
404.32	1715.61
404.51	1575.18
404.70	1652.42
404.89	1647.74
405.09	1696.89
405.28	1659.44
405.47	1729.66
405.66	1870.09
405.85	1767.10
406.05	1675.82
406.24	1823.28
406.43	1750.72
406.62	1764.76
406.81	1827.96
407.00	1795.19
407.20	1739.02
407.39	1757.74
407.58	1930.94
407.77	1968.39
407.96	1923.92
408.15	1982.43
408.34	2031.58
408.54	1970.73
408.73	1991.80
408.92	1987.11
409.11	1977.75
409.30	2005.84
409.49	1996.48
409.68	2118.18
409.87	2043.29
410.07	2052.65
410.26	2024.56
410.45	2076.06
410.64	2150.95
410.83	2272.66
411.02	2106.48
411.21	2326.49
411.40	2253.94
411.59	2282.02
411.78	2298.41
411.98	2296.07
412.17	2382.67
412.36	2361.60
412.55	2289.04
412.74	2415.43
412.93	2363.94
413.12	2319.47
413.31	2619.06
413.50	2408.41
413.69	2450.54
413.88	2513.74
414.07	2546.50
414.26	2537.14
414.45	2574.59
414.64	2551.18
414.83	2651.83
415.02	2621.40
415.22	2672.89
415.41	2773.53
415.60	2771.19
415.79	2843.75
415.98	2923.33
416.17	2951.42
416.36	2850.77
416.55	2860.13
416.74	2892.90
416.93	2860.13
417.12	2888.22
417.31	2944.39
417.50	2949.08
417.69	3112.91
417.88	2988.86
418.07	2895.24
418.26	3026.31
418.45	3222.92
418.64	3082.49
418.83	3197.17
419.02	3136.32
419.21	3133.98
419.39	3192.49
419.58	3159.72
419.77	3215.90
419.96	3225.26
420.15	3335.26
420.34	3300.16
420.53	3382.07
420.72	3307.18
420.91	3454.63
421.10	3410.16
421.29	3356.33
421.48	3309.52
421.67	3485.06
421.86	3400.80
422.05	3384.41
422.24	3482.72
422.43	3445.27
422.61	3471.01
422.80	3566.98
422.99	3513.14
423.18	3559.95
423.37	3456.97
423.56	3585.70
423.75	3534.21
423.94	3407.82
424.13	3225.26
424.32	3414.84
424.50	3548.25
424.69	3707.41
424.88	3555.27
425.07	3559.95
425.26	3487.40
425.45	3435.91
425.64	3428.88
425.83	3585.70
426.01	3461.65
426.20	3585.70
426.39	3571.66
426.58	3585.70
426.77	3585.70
426.96	3583.36
427.15	3637.19
427.33	3641.87
427.52	3688.68
427.71	3740.18
427.90	3630.17
428.09	3726.13
428.28	3794.01
428.46	3735.50
428.65	3714.43
428.84	3878.27
429.03	3906.35
429.22	3691.02
429.40	3648.90
429.59	3768.26
429.78	3595.06
429.97	3644.21
430.16	3648.90
430.34	3904.01
430.53	3889.97
430.72	3852.52
430.91	3796.35
431.10	3927.42
431.28	3971.89
431.47	4166.15
431.66	4227.01
431.85	4032.74
432.03	4121.68
432.22	4067.85
432.41	3997.64
432.60	4287.86
432.79	4102.96
432.97	4203.60
433.16	4170.83
433.35	4109.98
433.54	4147.43
433.72	4465.74
433.91	4114.66
434.10	4369.78
434.28	4325.31
434.47	4299.56
434.66	4374.46
434.85	4418.93
435.03	4465.74
435.22	4407.23
435.41	4573.41
435.59	4528.94
435.78	4465.74
435.97	4468.08
436.16	4564.04
436.34	4550.00
436.53	4594.47
436.72	4765.33
436.90	4552.34
437.09	4629.58
437.28	4542.98
437.46	4655.33
437.65	4674.05
437.84	4610.86
438.02	4725.54
438.21	4641.28
438.40	4704.48
438.58	5008.75
438.77	4709.16
438.96	4734.90
439.14	4994.70
439.33	5125.77
439.52	5167.90
439.70	5151.52
439.89	5090.67
440.08	5048.54
440.26	5085.98
440.45	5130.45
440.63	5207.69
440.82	5348.12
441.01	5348.12
441.19	5364.51
441.38	5561.11
441.57	5444.09
441.75	5528.35
441.94	5589.20
442.12	5523.66
442.31	5673.46
442.50	5661.76
442.68	5467.49
442.87	5671.12
443.05	5631.33
443.24	5907.51
443.43	5692.18
443.61	5785.80
443.80	5912.19
443.98	5612.60
444.17	5617.29
444.35	5874.74
444.54	5951.98
444.73	5844.32
444.91	5998.79
445.10	5813.89
445.28	5666.44
445.47	5741.33
445.65	5785.80
445.84	5994.11
446.02	5905.17
446.21	5994.11
446.39	5944.96
446.58	6005.81
446.77	6040.92
446.95	5916.87
447.14	5951.98
447.32	5916.87
447.51	5753.04
447.69	5977.73
447.88	6134.54
448.06	5982.41
448.25	6029.22
448.43	6314.77
448.62	5909.85
448.80	5799.85
448.99	6162.63
449.17	6143.91
449.36	6108.80
449.54	6176.67
449.73	6349.87
449.91	6417.75
450.10	6394.34
450.28	6296.04
450.46	6375.62
450.65	6420.09
450.83	6188.38
451.02	6459.88
451.20	6593.29
451.39	6410.73
451.57	6516.05
451.76	6424.77
451.94	6441.15
452.13	6614.35
452.31	6370.94
452.49	6392.00
452.68	6310.08
452.86	6539.46
453.05	6499.67
453.23	6623.72
453.42	6504.35
453.60	6579.25
453.78	6656.48
453.97	6572.22
454.15	6668.19
454.34	6686.91
454.52	6794.58
454.70	6736.06
454.89	6796.92
455.07	6841.39
455.26	6775.85
455.44	7005.22
455.62	6846.07
455.81	6965.43
455.99	6799.26
456.17	6883.52
456.36	7110.55
456.54	7225.23
456.73	7101.19
456.91	7176.08
457.09	7126.93
457.28	7480.35
457.46	6967.77
457.64	7393.75
457.83	7407.80
458.01	7180.76
458.19	7571.63
458.38	7466.31
458.56	7412.48
458.74	7250.98
458.93	7407.80
459.11	7410.14
459.29	7466.31
459.48	7494.40
459.66	7599.72
459.84	7557.59
460.03	7602.06
460.21	7662.91
460.39	7449.93
460.57	7494.40
460.76	7625.47
460.94	7620.78
461.12	7763.56
461.31	7981.23
461.49	7751.85
461.67	7730.79
461.85	8053.78
462.04	7829.09
462.22	8102.93
462.40	8004.63
462.59	8018.68
462.77	7871.22
462.95	8126.34
463.13	7906.33
463.32	7941.44
463.50	8191.88
463.68	8173.15
463.86	8105.28
464.05	8025.70
464.23	8035.06
464.41	8140.38
464.59	7974.21
464.78	8163.79
464.96	8180.17
465.14	8011.65
465.32	8241.03
465.50	8411.89
465.69	8369.76
465.87	8322.94
466.05	8360.39
466.23	8332.31
466.41	8313.58
466.60	8507.85
466.78	8355.71
466.96	8334.65
467.14	8161.45
467.32	8503.17
467.51	8496.14
467.69	8351.03
467.87	8414.23
468.05	8713.81
468.23	8454.02
468.41	8596.79
468.60	8671.68
468.78	8641.26
468.96	8554.66
469.14	8961.91
469.32	8779.35
469.50	8634.24
469.69	8744.24
469.87	8805.10
470.05	8985.32
470.23	8723.18
470.41	8828.50
470.59	8898.72
470.77	8968.93
470.95	8966.59
471.14	9324.69
471.32	8940.85
471.50	9184.26
471.68	9291.93
471.86	9118.73
472.04	9312.99
472.22	9717.90
472.40	9366.82
472.58	9540.02
472.77	9507.26
472.95	9727.27
473.13	9825.57
473.31	9430.02
473.49	9500.23
473.67	9685.14
473.85	9825.57
474.03	10090.05
474.21	9970.68
474.39	10101.75
474.57	9991.75
474.75	9942.60
474.93	10284.31
475.12	9989.41
475.30	10265.59
475.48	10120.48
475.66	10221.12
475.84	10012.81
476.02	10506.66
476.20	10284.31
476.38	10555.82
476.56	10817.96
476.74	10850.72
476.92	10656.46
477.10	10738.38
477.28	10913.92
477.46	10899.87
477.64	11098.82
477.82	11201.80
478.00	11349.26
478.18	11272.02
478.36	11288.40
478.54	11623.10
478.72	11707.36
478.90	11377.34
479.08	11620.76
479.26	11688.64
479.44	11908.65
479.62	11866.52
479.80	11840.77
479.98	12224.62
480.16	12348.67
480.34	12201.21
480.52	12463.35
480.70	12430.59
480.88	12060.78
481.06	12662.30
481.24	12629.53
481.41	13036.78
481.59	13123.38
481.77	13083.59
481.95	13158.49
482.13	13142.11
482.31	13298.92
482.49	13764.69
482.67	13626.60
482.85	13666.39
483.03	13752.99
483.21	13750.65
483.39	13837.25
483.57	13862.99
483.74	14160.24
483.92	14050.24
484.10	14277.27
484.28	14333.44
484.46	14565.15
484.64	14759.42
484.82	14731.33
485.00	14684.52
485.18	14958.36
485.35	14918.57
485.53	14892.83
485.71	14979.43
485.89	15279.02
486.07	15232.21
486.25	15239.23
486.43	15417.11
486.61	15405.41
486.78	15929.69
486.96	15962.45
487.14	16114.59
487.32	15964.79
487.50	16388.43
487.68	16702.06
487.85	16781.64
488.03	16566.31
488.21	17102.29
488.39	16842.50
488.57	17181.87
488.75	17500.19
488.92	17514.23
489.10	17635.94
489.28	17561.04
489.46	17930.84
489.64	18001.06
489.81	18501.93
489.99	18403.63
490.17	18249.16
490.35	18595.56
490.53	18434.06
490.70	19112.81
490.88	18689.18
491.06	18883.44
491.24	18958.34
491.41	19150.26
491.59	19267.29
491.77	18967.70
491.95	19536.45
492.13	19576.24
492.30	20058.39
492.48	19639.44
492.66	19964.77
492.84	19920.30
493.01	20407.13
493.19	19948.39
493.37	20334.57
493.54	20559.27
493.72	20751.19
493.90	20723.10
494.08	20973.54
494.25	21507.18
494.43	20905.66
494.61	21207.59
494.79	21408.88
494.96	21521.23
495.14	21223.98
495.32	21516.54
495.49	21696.77
495.67	21972.95
495.85	21757.62
496.02	22132.11
496.20	22129.77
496.38	22560.42
496.55	22410.63
496.73	22792.14
496.91	22883.42
497.09	22998.10
497.26	22792.14
497.44	22911.50
497.62	23047.26
497.79	23426.42
497.97	22953.63
498.14	23594.94
498.32	23665.16
498.50	23669.84
498.67	24112.20
498.85	23906.23
499.03	24285.40
499.20	23747.08
499.38	24196.46
499.56	24390.72
499.73	24313.48
499.91	24425.83
500.08	24315.83
500.26	24713.72
500.44	24273.70
500.61	24301.78
500.79	24507.75
500.97	24905.64
501.14	25163.10
501.32	25277.79
501.49	24732.44
501.67	25015.65
501.84	25352.68
502.02	25577.37
502.20	25560.99
502.37	25993.99
502.55	25757.60
502.72	25558.65
502.90	26099.31
503.07	26019.74
503.25	25673.34
503.43	26047.82
503.60	26726.58
503.78	26073.57
503.95	26293.58
504.13	26078.25
504.30	26813.18
504.48	26405.92
504.65	26630.62
504.83	26794.45
505.01	27035.53
505.18	27201.71
505.36	27164.26
505.53	27108.08
505.71	27316.39
505.88	27463.85
506.06	27005.10
506.23	27548.11
506.41	27477.89
506.58	27370.22
506.76	27496.61
506.93	27892.16
507.11	27833.65
507.28	27938.97
507.46	27953.02
507.63	27824.29
507.81	28194.09
507.98	27983.44
508.16	28046.64
508.33	28336.87
508.50	28470.28
508.68	28776.89
508.85	28882.21
509.03	28374.31
509.20	28694.97
509.38	28772.21
509.55	29188.82
509.73	28886.89
509.90	29060.09
510.08	28987.53
510.25	29085.84
510.42	29364.36
510.60	29668.63
510.77	29378.40
510.95	30003.33
511.12	29296.49
511.30	29996.31
511.47	29769.27
511.64	30008.01
511.82	30096.95
511.99	30015.03
512.17	30244.40
512.34	29666.29
512.51	30450.37
512.69	30483.14
512.86	30480.80
513.04	30909.11
513.21	30799.11
513.38	30431.65
513.56	30611.87
513.73	30621.23
513.90	30742.94
514.08	30534.63
514.25	30859.96
514.43	30850.60
514.60	30764.00
514.77	30995.71
514.95	31470.84
515.12	31152.53
515.29	31068.27
515.47	31601.91
515.64	31871.07
515.81	31461.48
515.99	31571.49
516.16	31580.85
516.33	31524.68
516.51	31931.93
516.68	31587.87
516.85	31798.52
517.03	31599.57
517.20	32128.53
517.37	32205.77
517.54	32285.35
517.72	32154.28
517.89	32002.14
518.06	31992.78
518.24	32217.47
518.41	32210.45
518.58	32032.57
518.75	32308.76
518.93	32940.70
519.10	33106.88
519.27	33006.23
519.45	32659.84
519.62	33198.16
519.79	32966.45
519.96	33326.89
520.14	33385.40
520.31	33661.58
520.48	33415.83
520.65	33523.49
520.83	33493.07
521.00	33642.86
521.17	33443.91
521.34	33549.24
521.52	33862.87
521.69	34122.67
521.86	34073.52
522.03	33853.51
522.20	34113.31
522.38	34232.68
522.55	34440.98
522.72	34330.98
522.89	33900.32
523.07	34321.62
523.24	34089.90
523.41	34433.96
523.58	34506.52
523.75	34572.05
523.92	34480.77
524.10	34799.08
524.27	34876.32
524.44	34939.52
524.61	35133.78
524.78	35166.55
524.96	35232.08
525.13	35543.38
525.30	35566.78
525.47	35517.63
525.64	35096.33
525.81	35416.99
525.98	35278.89
526.16	34993.35
526.33	35145.48
526.50	36074.68
526.67	35330.39
526.84	35494.22
527.01	35728.28
527.18	35672.10
527.36	36020.84
527.53	36025.53
527.70	36343.84
527.87	36210.43
528.04	36004.46
528.21	35971.69
528.38	36105.10
528.55	36268.94
528.72	36189.36
528.89	36788.54
529.07	36739.39
529.24	36306.39
529.41	36498.31
529.58	36421.08
529.75	36306.39
529.92	36788.54
530.09	36627.04
530.26	37001.53
530.43	36891.52
530.60	37088.13
530.77	36772.16
530.94	37230.90
531.11	37242.60
531.28	37134.94
531.46	37357.29
531.63	37509.43
531.80	37390.06
531.97	37303.46
532.14	37254.31
532.31	37078.77
532.48	37457.93
532.65	37764.54
532.82	37029.62
532.99	37607.73
533.16	37691.99
533.33	37350.27
533.50	38003.28
533.67	37748.16
533.84	37694.33
534.01	38050.09
534.18	37900.29
534.35	37970.51
534.52	38174.14
534.69	38019.66
534.86	38150.73
535.03	38188.18
535.20	38284.14
535.37	38312.23
535.54	38068.81
535.71	38277.12
535.88	38267.76
536.05	38337.98
536.22	38799.06
536.38	38616.50
536.55	38436.28
536.72	38508.83
536.89	38520.54
537.06	38644.59
537.23	38562.67
537.40	38883.32
537.57	38752.25
537.74	38756.93
537.91	39021.41
538.08	38958.22
538.25	38581.39
538.42	38703.10
538.59	38892.68
538.75	38824.81
538.92	39281.21
539.09	39346.75
539.26	39321.00
539.43	38843.53
539.60	39445.05
539.77	39203.97
539.94	39100.99
540.11	39690.80
540.28	39192.27
540.44	39468.45
540.61	39573.78
540.78	39381.85
540.95	39398.24
541.12	39150.14
541.29	39707.19
541.46	39672.08
541.62	40020.82
541.79	39868.69
541.96	39484.84
542.13	39952.94
542.30	39995.07
542.47	40275.94
542.63	39405.26
542.80	40231.47
542.97	40264.24
543.14	40989.80
543.31	40470.20
543.48	40479.57
543.64	41242.58
543.81	40694.89
543.98	40610.64
544.15	40442.12
544.32	40591.91
544.48	40765.11
544.65	40715.96
544.82	40673.83
544.99	40411.69
545.16	40982.78
545.32	40725.32
545.49	41024.91
545.66	40671.49
545.83	40940.65
546.00	41172.36
546.16	40987.46
546.33	40753.41
546.50	40788.52
546.67	40919.59
546.83	40575.53
547.00	41118.53
547.17	41209.81
547.34	41390.03
547.50	41319.82
547.67	41502.38
547.84	41258.96
548.00	41724.73
548.17	42057.09
548.34	41495.36
548.51	41553.87
548.67	41729.41
548.84	41752.82
549.01	41408.76
549.18	41640.47
549.34	41689.62
549.51	41820.69
549.68	41865.16
549.84	41731.75
550.01	42216.24
550.18	41928.36
550.34	41715.37
550.51	41502.38
550.68	42057.09
550.84	41406.42
551.01	41940.06
551.18	41883.89
551.34	42288.80
551.51	42134.32
551.68	42326.25
551.84	42258.37
552.01	42092.19
552.18	42263.05
552.34	41787.92
552.51	42543.92
552.68	42323.91
552.84	42234.97
553.01	42593.07
553.18	42202.20
553.34	42089.85
553.51	42576.69
553.67	42270.08
553.84	42871.59
554.01	42845.85
554.17	42621.16
554.34	42480.72
554.51	42792.01
554.67	42822.44
554.84	42380.08
555.00	42696.05
555.17	42719.46
555.33	42997.98
555.50	42637.54
555.67	42913.72
555.83	42829.46
556.00	42899.68
556.16	43414.60
556.33	42890.32
556.50	42799.04
556.66	43234.38
556.83	42740.52
556.99	43047.13
557.16	43012.02
557.32	43093.94
557.49	43168.84
557.65	42773.29
557.82	42756.91
557.98	43459.07
558.15	43484.81
558.32	43271.82
558.48	43035.43
558.65	43370.13
558.81	43349.06
558.98	43166.50
559.14	43550.35
559.31	43335.02
559.47	43304.59
559.64	43548.01
559.80	43639.29
559.97	43365.45
560.13	43526.94
560.30	43557.37
560.46	43922.49
560.63	43409.92
560.79	43709.50
560.96	43536.30
561.12	43566.73
561.29	43625.25
561.45	43679.08
561.61	43309.27
561.78	43833.55
561.94	43082.24
562.11	43573.75
562.27	43395.87
562.44	43505.88
562.60	44194.00
562.77	43948.24
562.93	44053.56
563.10	44037.18
563.26	43629.93
563.42	43871.00
563.59	43372.47
563.75	43707.16
563.92	43889.73
564.08	43636.95
564.24	44388.26
564.41	44296.98
564.57	44128.46
564.74	43690.78
564.90	44032.50
565.07	44205.70
565.23	44102.71
565.39	44011.43
565.56	44465.50
565.72	43643.97
565.88	44069.95
566.05	44231.44
566.21	43814.83
566.38	44123.78
566.54	43789.08
566.70	44549.76
566.87	44765.09
567.03	44416.35
567.19	44500.61
567.36	44212.72
567.52	43868.66
567.68	44093.35
567.85	44254.85
568.01	44212.72
568.17	44219.74
568.34	44254.85
568.50	44313.36
568.66	44229.10
568.83	44151.87
568.99	43835.89
569.15	44095.69
569.32	44289.96
569.48	44301.66
569.64	44254.85
569.81	44245.49
569.97	44130.80
570.13	44376.56
570.30	43959.94
570.46	44231.44
570.62	44201.02
570.78	44149.53
570.95	44172.93
571.11	44140.16
571.27	44060.58
571.43	44519.33
571.60	44392.94
571.76	44648.06
571.92	44306.34
572.09	44388.26
572.25	44360.17
572.41	44275.91
572.57	44198.68
572.74	44921.90
572.90	44486.56
573.06	44512.31
573.22	44142.50
573.38	44741.68
573.55	44264.21
573.71	44755.72
573.87	44226.76
574.03	44491.24
574.20	44446.77
574.36	44282.94
574.52	44928.92
574.68	44591.89
574.84	44652.74
575.01	44706.57
575.17	44626.99
575.33	44353.15
575.49	44292.30
575.65	44797.85
575.82	44753.38
575.98	44493.58
576.14	44940.63
576.30	44493.58
576.46	44708.91
576.62	44423.37
576.79	44191.65
576.95	44002.07
577.11	44287.62
577.27	44442.09
577.43	44339.11
577.59	44521.67
577.75	44259.53
577.92	44194.00
578.08	44376.56
578.24	44472.52
578.40	44486.56
578.56	44666.78
578.72	44488.90
578.88	44477.20
579.04	44402.30
579.21	44229.10
579.37	44289.96
579.53	44280.60
579.69	44453.79
579.85	44528.69
580.01	44699.55
580.17	44788.49
580.33	44947.65
580.49	44383.58
580.65	44821.26
580.82	44809.56
580.98	44650.40
581.14	44074.63
581.30	44985.10
581.46	44671.46
581.62	44610.61
581.78	44399.96
581.94	44847.00
582.10	44928.92
582.26	44463.16
582.42	45261.28
582.58	44378.90
582.74	44648.06
582.90	44790.83
583.06	44568.48
583.22	44884.45
583.38	45160.64
583.54	44212.72
583.70	44552.10
583.86	44603.59
584.02	44598.91
584.18	44886.79
584.34	44729.98
584.50	44601.25
584.66	44659.76
584.82	44641.04
584.98	45027.23
585.14	44893.82
585.30	44786.15
585.46	44713.59
585.62	44453.79
585.78	44392.94
585.94	44385.92
586.10	44151.87
586.26	44491.24
586.42	44467.84
586.58	44804.88
586.74	44538.05
586.90	44648.06
587.06	44360.17
587.22	44942.97
587.38	44783.81
587.54	44779.13
587.70	45095.10
587.86	45036.59
588.02	44863.39
588.18	44659.76
588.34	44446.77
588.49	44495.92
588.65	44432.73
588.81	44406.98
588.97	44641.04
589.13	44641.04
589.29	44619.97
589.45	44472.52
589.61	44694.87
589.77	44907.86
589.93	44605.93
590.08	44839.98
590.24	45022.54
