SpectraSuite Data File
++++++++++++++++++++++++++++++++++++
Date: Fri Oct 25 11:25:44 EDT 2013
User: price-jones
Dark Spectrum Present: No
Reference Spectrum Present: No
Number of Sampled Component Spectra: 1
Spectrometers: USB2+H05261
Integration Time (usec): 100000 (USB2+H05261)
Spectra Averaged: 1 (USB2+H05261)
Boxcar Smoothing: 0 (USB2+H05261)
Correct for Electrical Dark: No (USB2+H05261)
Strobe/Lamp Enabled: No (USB2+H05261)
Correct for Detector Non-linearity: No (USB2+H05261)
Correct for Stray Light: No (USB2+H05261)
Number of Pixels in Processed Spectrum: 2048
>>>>>Begin Processed Spectral Data<<<<<
365.73	222.35
365.92	222.35
366.12	222.35
366.32	112.35
366.52	196.60
366.72	152.13
366.91	187.24
367.11	107.66
367.31	147.45
367.51	161.50
367.70	152.13
367.90	217.67
368.10	159.16
368.30	166.18
368.49	135.75
368.69	175.54
368.89	124.05
369.09	128.73
369.28	231.71
369.48	191.92
369.68	135.75
369.87	257.46
370.07	217.67
370.27	248.10
370.47	355.76
370.66	589.82
370.86	608.54
371.06	645.99
371.25	781.74
371.45	601.52
371.65	730.25
371.84	702.16
372.04	683.44
372.24	695.14
372.44	767.70
372.63	711.52
372.83	727.91
373.03	748.97
373.22	765.36
373.42	718.54
373.62	746.63
373.81	821.53
374.01	795.78
374.21	744.29
374.40	844.93
374.60	823.87
374.79	812.17
374.99	809.83
375.19	784.08
375.38	875.36
375.58	823.87
375.78	950.26
375.97	877.70
376.17	830.89
376.37	873.02
376.56	901.11
376.76	912.81
376.95	856.64
377.15	861.32
377.35	917.49
377.54	854.30
377.74	901.11
377.93	814.51
378.13	947.92
378.33	997.07
378.52	917.49
378.72	961.96
378.91	959.62
379.11	933.87
379.31	917.49
379.50	980.68
379.70	990.05
379.89	1043.88
380.09	1015.79
380.28	957.28
380.48	959.62
380.68	1015.79
380.87	1034.52
381.07	992.39
381.26	1020.47
381.46	1034.52
381.65	1043.88
381.85	1043.88
382.04	1034.52
382.24	1015.79
382.43	1064.94
382.63	1090.69
382.83	1050.90
383.02	1163.25
383.22	1090.69
383.41	1125.80
383.61	1069.62
383.80	1123.46
384.00	1088.35
384.19	1200.69
384.39	1188.99
384.58	1125.80
384.78	1107.07
384.97	1158.57
385.17	1163.25
385.36	1193.67
385.56	1123.46
385.75	1132.82
385.95	1235.80
386.14	1170.27
386.34	1118.78
386.53	1224.10
386.72	1212.40
386.92	1277.93
387.11	1275.59
387.31	1188.99
387.50	1249.85
387.70	1233.46
387.89	1259.21
388.09	1254.53
388.28	1310.70
388.48	1331.76
388.67	1327.08
388.86	1266.23
389.06	1336.45
389.25	1315.38
389.45	1242.82
389.64	1341.13
389.84	1355.17
390.03	1315.38
390.22	1348.15
390.42	1380.92
390.61	1348.15
390.81	1488.58
391.00	1451.13
391.19	1488.58
391.39	1378.58
391.58	1467.52
391.78	1427.73
391.97	1474.54
392.16	1554.12
392.36	1497.94
392.55	1462.83
392.75	1432.41
392.94	1556.46
393.13	1530.71
393.33	1526.03
393.52	1542.41
393.71	1633.69
393.91	1586.88
394.10	1547.09
394.29	1591.56
394.49	1638.38
394.68	1694.55
394.88	1593.90
395.07	1638.38
395.26	1739.02
395.46	1788.17
395.65	1722.63
395.84	1715.61
396.04	1753.06
396.23	1774.13
396.42	1750.72
396.62	1739.02
396.81	1729.66
397.00	1778.81
397.19	1778.81
397.39	1769.44
397.58	1891.15
397.77	1858.39
397.97	1849.02
398.16	1844.34
398.35	1863.07
398.55	1813.92
398.74	1816.26
398.93	1916.90
399.12	1923.92
399.32	1984.77
399.51	1858.39
399.70	1961.37
399.90	2059.67
400.09	2050.31
400.28	2083.08
400.47	1973.07
400.67	2040.95
400.86	1987.11
401.05	2054.99
401.24	2132.23
401.44	2132.23
401.63	2113.50
401.82	2200.10
402.01	2172.02
402.21	2136.91
402.40	2218.83
402.59	2216.49
402.78	2218.83
402.97	2342.88
403.17	2342.88
403.36	2221.17
403.55	2293.72
403.74	2228.19
403.93	2422.45
404.13	2370.96
404.32	2317.13
404.51	2450.54
404.70	2377.98
404.89	2438.84
405.09	2476.29
405.28	2457.56
405.47	2581.61
405.66	2530.12
405.85	2427.14
406.05	2392.03
406.24	2593.31
406.43	2679.91
406.62	2532.46
406.81	2663.53
407.00	2523.10
407.20	2626.08
407.39	2572.25
407.58	2530.12
407.77	2757.15
407.96	2745.45
408.15	2693.96
408.34	2712.68
408.54	2724.38
408.73	2869.50
408.92	2745.45
409.11	2850.77
409.30	2785.24
409.49	2867.16
409.68	2911.63
409.87	2876.52
410.07	2946.73
410.26	2899.92
410.45	2937.37
410.64	3042.70
410.83	2953.76
411.02	3068.44
411.21	3251.00
411.40	3040.36
411.59	3290.79
411.78	3213.56
411.98	3028.65
412.17	3316.54
412.36	3321.22
412.55	3302.50
412.74	3344.63
412.93	3297.81
413.12	3452.29
413.31	3691.02
413.50	3445.27
413.69	3368.03
413.88	3625.49
414.07	3665.28
414.26	3599.74
414.45	3613.79
414.64	3508.46
414.83	3712.09
415.02	3756.56
415.22	3822.09
415.41	4011.68
415.60	3836.14
415.79	3906.35
415.98	3871.25
416.17	3939.12
416.36	3880.61
416.55	3943.80
416.74	4140.41
416.93	4042.11
417.12	4074.87
417.31	4184.88
417.50	4133.39
417.69	4269.14
417.88	4280.84
418.07	4442.34
418.26	4285.52
418.45	4329.99
418.64	4456.38
418.83	4421.27
419.02	4383.82
419.21	4526.60
419.39	4414.25
419.58	4414.25
419.77	4360.42
419.96	4498.51
420.15	4601.49
420.34	4622.56
420.53	4641.28
420.72	4655.33
420.91	4692.77
421.10	4737.24
421.29	4870.65
421.48	4678.73
421.67	4791.08
421.86	4730.22
422.05	4760.65
422.24	4781.71
422.43	4908.10
422.61	4770.01
422.80	4842.57
422.99	4814.48
423.18	4903.42
423.37	5135.14
423.56	5008.75
423.75	4922.15
423.94	4774.69
424.13	4704.48
424.32	4842.57
424.50	4926.83
424.69	5018.11
424.88	5097.69
425.07	4947.89
425.26	4798.10
425.45	5015.77
425.64	4952.57
425.83	4737.24
426.01	5088.32
426.20	5057.90
426.39	5074.28
426.58	5191.31
426.77	5121.09
426.96	5055.56
427.15	5268.55
427.33	5177.26
427.52	5107.05
427.71	5170.24
427.90	5177.26
428.09	5343.44
428.28	5404.30
428.46	5301.31
428.65	5228.76
428.84	5404.30
429.03	5460.47
429.22	5338.76
429.40	5371.53
429.59	5544.73
429.78	5219.39
429.97	5198.33
430.16	5357.49
430.34	5502.60
430.53	5542.39
430.72	5507.28
430.91	5586.86
431.10	5549.41
431.28	5563.45
431.47	5547.07
431.66	5837.30
431.85	5802.19
432.03	5961.34
432.22	5956.66
432.41	5926.24
432.60	5956.66
432.79	5930.92
432.97	5893.47
433.16	5907.51
433.35	6010.50
433.54	6038.58
433.72	5991.77
433.91	6333.49
434.10	6047.94
434.28	5994.11
434.47	6179.01
434.66	6197.74
434.85	6345.19
435.03	6246.89
435.22	6218.80
435.41	6473.92
435.59	6492.65
435.78	6345.19
435.97	6593.29
436.16	6434.13
436.34	6466.90
436.53	6466.90
436.72	6633.08
436.90	6558.18
437.09	6630.74
437.28	6534.78
437.46	6651.80
437.65	6686.91
437.84	6707.98
438.02	6661.16
438.21	6803.94
438.40	6551.16
438.58	6691.59
438.77	6960.75
438.96	6691.59
439.14	7103.53
439.33	7283.75
439.52	7133.95
439.70	7204.17
439.89	7379.71
440.08	7246.30
440.26	7185.44
440.45	7391.41
440.63	7293.11
440.82	7611.42
441.01	7468.65
441.19	7674.62
441.38	7861.86
441.57	7492.05
441.75	7770.58
441.94	7915.69
442.12	8016.33
442.31	8126.34
442.50	7948.46
442.68	8126.34
442.87	7831.43
443.05	8032.72
443.24	8241.03
443.43	8168.47
443.61	7999.95
443.80	8482.10
443.98	7936.76
444.17	7728.45
444.35	8231.66
444.54	8542.96
444.73	8231.66
444.91	8140.38
445.10	8276.13
445.28	8177.83
445.47	8259.75
445.65	8280.82
445.84	8468.06
446.02	8386.14
446.21	8409.54
446.39	8446.99
446.58	8542.96
446.77	8196.56
446.95	8241.03
447.14	8423.59
447.32	8557.00
447.51	8418.91
447.69	8425.93
447.88	8355.71
448.06	8475.08
448.25	8479.76
448.43	8739.56
448.62	8688.07
448.80	8439.97
448.99	8571.04
449.17	8503.17
449.36	8664.66
449.54	8765.31
449.73	8954.89
449.91	8980.64
450.10	8861.27
450.28	9160.86
450.46	9088.30
450.65	9043.83
450.83	8814.46
451.02	8947.87
451.20	9415.98
451.39	9036.81
451.57	9181.92
451.76	9100.00
451.94	9186.60
452.13	9025.11
452.31	9266.18
452.49	9018.08
452.68	9207.67
452.86	9336.40
453.05	9355.12
453.23	9378.53
453.42	9336.40
453.60	9455.76
453.78	9427.68
453.97	9446.40
454.15	9451.08
454.34	9533.00
454.52	9802.16
454.70	9591.52
454.89	9757.69
455.07	10024.51
455.26	9905.15
455.44	9844.29
455.62	9806.84
455.81	9823.23
455.99	9858.34
456.17	10193.03
456.36	10122.82
456.54	10146.22
456.73	10230.48
456.91	10417.72
457.09	10342.83
457.28	10516.03
457.46	10291.34
457.64	10450.49
457.83	10464.54
458.01	10296.02
458.19	10656.46
458.38	10539.43
458.56	10656.46
458.74	10693.91
458.93	10614.33
459.11	10541.77
459.29	10565.18
459.48	10750.08
459.66	10665.82
459.84	10841.36
460.03	10843.70
460.21	10916.26
460.39	10923.28
460.57	10764.12
460.76	10995.84
460.94	11035.63
461.12	10942.00
461.31	11213.51
461.49	11157.33
461.67	11082.44
461.85	11265.00
462.04	11164.36
462.22	11793.96
462.40	11590.33
462.59	11379.68
462.77	11501.39
462.95	11477.99
463.13	11632.46
463.32	11688.64
463.50	11751.83
463.68	11473.31
463.86	11829.07
464.05	11571.61
464.23	11431.18
464.41	11878.22
464.59	11735.45
464.78	12278.45
464.96	11775.24
465.14	11915.67
465.32	11829.07
465.50	11903.96
465.69	12009.29
465.87	12133.34
466.05	12006.95
466.23	12208.23
466.41	12149.72
466.60	12390.80
466.78	12042.06
466.96	12170.79
467.14	12175.47
467.32	12498.46
467.51	12329.94
467.69	12262.07
467.87	12367.39
468.05	12603.78
468.23	12496.12
468.41	12327.60
468.60	12587.40
468.78	13004.02
468.96	12559.31
469.14	12688.04
469.32	12957.21
469.50	12610.81
469.69	13036.78
469.87	12697.41
470.05	13088.28
470.23	12968.91
470.41	13064.87
470.59	13174.88
470.77	12933.80
470.95	13184.24
471.14	13516.59
471.32	12980.61
471.50	13385.52
471.68	13493.19
471.86	13771.71
472.04	13638.30
472.22	13909.80
472.40	13696.82
472.58	13830.23
472.77	13949.59
472.95	14174.28
473.13	14459.83
473.31	13919.17
473.49	14010.45
473.67	13837.25
473.85	13963.64
474.03	14497.28
474.21	14511.32
474.39	14768.78
474.57	14689.20
474.75	14743.03
474.93	15056.67
475.12	14988.79
475.30	15047.30
475.48	14932.62
475.66	15087.09
475.84	15131.56
476.02	15178.37
476.20	15365.62
476.38	15618.39
476.56	15859.47
476.74	15901.60
476.92	15822.02
477.10	15557.54
477.28	16245.66
477.46	15981.18
477.64	16430.56
477.82	16269.06
478.00	16606.10
478.18	16851.86
478.36	16971.22
478.54	17284.86
478.72	17156.13
478.90	17401.88
479.08	17242.73
479.26	17401.88
479.44	17455.72
479.62	17792.75
479.80	18033.83
479.98	18082.98
480.16	18382.57
480.34	18291.29
480.52	18562.79
480.70	18815.57
480.88	18183.62
481.06	18548.75
481.24	18733.65
481.41	19115.16
481.59	19447.51
481.77	19405.38
481.95	19194.73
482.13	19686.25
482.31	19494.32
482.49	20252.66
482.67	20376.70
482.85	20367.34
483.03	20807.36
483.21	20629.48
483.39	20809.70
483.57	20547.56
483.74	20912.69
483.92	21315.26
484.10	21287.17
484.28	21771.66
484.46	21841.88
484.64	22513.61
484.82	21816.13
485.00	22286.58
485.18	22314.67
485.35	22689.15
485.53	23061.30
485.71	22651.70
485.89	23616.01
486.07	23353.87
486.25	23051.94
486.43	23730.69
486.61	23747.08
486.78	23843.04
486.96	24147.31
487.14	24315.83
487.32	24264.33
487.50	24367.32
487.68	24657.54
487.85	25146.72
488.03	25621.84
488.21	25734.19
488.39	25682.70
488.57	25818.45
488.75	26103.99
488.92	26539.33
489.10	26527.63
489.28	26899.78
489.46	26759.34
489.64	27084.68
489.81	27644.07
489.99	27562.15
490.17	27538.74
490.35	28048.98
490.53	28362.61
490.70	28519.43
490.88	27915.57
491.06	28947.75
491.24	28652.84
491.41	28723.05
491.59	29181.80
491.77	28830.72
491.95	29415.85
492.13	29951.84
492.30	30223.34
492.48	29949.50
492.66	29993.97
492.84	29975.24
493.01	30553.35
493.19	30864.64
493.37	30654.00
493.54	31328.07
493.72	31421.69
493.90	31491.91
494.08	31686.17
494.25	31489.57
494.43	31807.88
494.61	32128.53
494.79	31981.08
494.96	32435.14
495.14	32357.91
495.32	33259.01
495.49	32929.00
495.67	32959.42
495.85	33450.94
496.02	33432.21
496.20	33848.83
496.38	33755.21
496.55	33806.70
496.73	34644.61
496.91	34312.25
497.09	34644.61
497.26	34789.72
497.44	34895.05
497.62	35199.32
497.79	35543.38
497.97	35274.21
498.14	35744.66
498.32	35920.20
498.50	35957.65
498.67	36472.57
498.85	36231.49
499.03	36741.73
499.20	36392.99
499.38	36849.39
499.56	37046.00
499.73	36772.16
499.91	36882.16
500.08	37706.03
500.26	37481.34
500.44	37317.50
500.61	37280.05
500.79	37598.37
500.97	37965.83
501.14	38646.93
501.32	38045.41
501.49	38192.86
501.67	38309.89
501.84	39054.18
502.02	38925.45
502.20	38850.55
502.37	39531.65
502.55	39337.38
502.72	39463.77
502.90	39281.21
503.07	38871.62
503.25	39175.89
503.43	39964.65
503.60	39882.73
503.78	39662.72
503.95	40259.55
504.13	40388.28
504.30	40346.15
504.48	40294.66
504.65	40034.86
504.83	41017.89
505.01	41352.58
505.18	40624.68
505.36	41375.99
505.53	40947.67
505.71	41256.62
505.88	41834.74
506.06	41638.13
506.23	41790.27
506.41	41453.23
506.58	41897.93
506.76	42064.11
506.93	42478.38
507.11	42291.14
507.28	42361.36
507.46	42239.65
507.63	42452.64
507.81	43044.79
507.98	42614.13
508.16	43133.73
508.33	43229.69
508.50	43428.64
508.68	43599.50
508.85	43791.42
509.03	43896.75
509.20	43515.24
509.38	44105.06
509.55	43887.39
509.73	44566.14
509.90	44240.81
510.08	44378.90
510.25	44624.65
510.42	44671.46
510.60	44547.42
510.77	45179.36
510.95	45034.25
511.12	44652.74
511.30	44837.64
511.47	45460.23
511.64	45743.43
511.82	45600.66
511.99	45485.97
512.17	46014.93
512.34	45989.19
512.51	46101.53
512.69	45851.09
512.86	46209.20
513.04	46763.90
513.21	46588.36
513.38	46485.38
513.56	46693.69
513.73	46607.09
513.90	46852.84
514.08	46906.68
514.25	46892.63
514.43	47313.93
514.60	47072.85
514.77	47477.77
514.95	47445.00
515.12	47077.54
515.29	46979.23
515.47	47508.19
515.64	47878.00
515.81	47653.31
515.99	47870.98
516.16	48470.15
516.33	48362.49
516.51	48151.84
516.68	48205.67
516.85	48554.41
517.03	48617.61
517.20	48339.08
517.37	48509.94
517.54	48687.82
517.72	48683.14
517.89	48854.00
518.06	48973.37
518.24	48940.60
518.41	49200.40
518.58	49078.69
518.75	48809.53
518.93	49373.60
519.10	49544.46
519.27	49640.42
519.45	49703.62
519.62	49804.26
519.79	49617.02
519.96	50106.19
520.14	49984.48
520.31	50225.56
520.48	50188.11
520.65	50038.31
520.83	50836.44
521.00	50499.40
521.17	50522.80
521.34	50483.01
521.52	50759.20
521.69	50838.78
521.86	50817.71
522.03	51004.95
522.20	51224.96
522.38	51112.62
522.55	51292.84
522.72	51051.76
522.89	51299.86
523.07	51597.11
523.24	51639.24
523.41	51718.82
523.58	51306.88
523.75	51578.39
523.92	51529.23
524.10	51899.04
524.27	52011.38
524.44	51854.57
524.61	52076.92
524.78	51999.68
524.96	52060.54
525.13	52287.57
525.30	52325.02
525.47	52690.14
525.64	52121.39
525.81	52594.18
525.98	52640.99
526.16	52552.05
526.33	52453.75
526.50	52942.92
526.67	52706.52
526.84	52458.43
527.01	52746.31
527.18	52701.84
527.36	52643.33
527.53	52708.86
527.70	53102.07
527.87	53015.47
528.04	53212.08
528.21	52959.30
528.38	53268.25
528.55	53453.15
528.72	53219.10
528.89	53247.19
529.07	53212.08
529.24	53319.74
529.41	53619.33
529.58	53345.49
529.75	53680.19
529.92	53825.30
530.09	53675.51
530.26	53640.40
530.43	53675.51
530.60	53418.05
530.77	53640.40
530.94	54031.27
531.11	53975.09
531.28	54218.51
531.46	54080.42
531.63	53818.28
531.80	54026.59
531.97	54298.09
532.14	54326.17
532.31	54321.49
532.48	54534.48
532.65	54691.30
532.82	54347.24
532.99	54738.11
533.16	54588.31
533.33	55016.63
533.50	55103.23
533.67	54698.32
533.84	54686.62
534.01	54639.81
534.18	54506.40
534.35	55164.09
534.52	55009.61
534.69	55044.72
534.86	55028.34
535.03	54918.33
535.20	54915.99
535.37	55201.53
535.54	55463.67
535.71	55302.18
535.88	55217.92
536.05	55318.56
536.22	55473.04
536.38	55587.72
536.55	55463.67
536.72	55426.23
536.89	55580.70
537.06	55676.66
537.23	55533.89
537.40	55592.40
537.57	55648.58
537.74	55538.57
537.91	55812.41
538.08	55679.00
538.25	55559.64
538.42	55870.93
538.59	56060.51
538.75	55580.70
538.92	56013.70
539.09	56329.67
539.26	55969.23
539.43	56142.43
539.60	56165.84
539.77	56203.28
539.94	56100.30
540.11	56156.47
540.28	56310.95
540.44	56308.61
540.61	56261.80
540.78	56289.88
540.95	56261.80
541.12	56453.72
541.29	56530.96
541.46	56191.58
541.62	56313.29
541.79	56451.38
541.96	56210.31
542.13	56339.04
542.30	56673.73
542.47	56495.85
542.63	56772.03
542.80	56687.78
542.97	56875.02
543.14	56992.04
543.31	56994.39
543.48	57263.55
543.64	57326.74
543.81	57235.46
543.98	57286.95
544.15	57422.70
544.32	57298.65
544.48	57293.97
544.65	57331.42
544.82	57198.01
544.99	57251.84
545.16	57389.94
545.32	57263.55
545.49	57263.55
545.66	57448.45
545.83	57509.30
546.00	57790.17
546.16	57340.78
546.33	57511.64
546.50	57429.72
546.67	57471.85
546.83	57167.58
547.00	57570.16
547.17	57748.04
547.34	57396.96
547.50	57787.83
547.67	58047.63
547.84	57883.79
548.00	57879.11
548.17	58127.20
548.34	57996.13
548.51	57916.56
548.67	57794.85
548.84	58026.56
549.01	57925.92
549.18	58108.48
549.34	57996.13
549.51	58237.21
549.68	58216.14
549.84	58293.38
550.01	58436.16
550.18	58068.69
550.34	58197.42
550.51	58326.15
550.68	58410.41
550.84	58227.85
551.01	58422.11
551.18	58152.95
551.34	58279.34
551.51	58567.23
551.68	58314.45
551.84	58721.70
552.01	58358.92
552.18	58770.85
552.34	58410.41
552.51	58635.10
552.68	58454.88
552.84	58700.64
553.01	58714.68
553.18	58663.19
553.34	58827.02
553.51	58796.60
553.67	58684.25
553.84	58890.22
554.01	58965.12
554.17	58948.73
554.34	58745.11
554.51	59112.57
554.67	58960.44
554.84	58761.49
555.00	58997.88
555.17	58946.39
555.33	59035.33
555.50	58665.53
555.67	58993.20
555.83	58862.13
556.00	58972.14
556.16	59166.40
556.33	59157.04
556.50	59213.21
556.66	59327.90
556.83	59096.19
556.99	59391.09
557.16	59274.07
557.32	59414.50
557.49	59529.19
557.65	59187.47
557.82	59395.77
557.98	59339.60
558.15	59337.26
558.32	59372.37
558.48	59465.99
558.65	59440.24
558.81	59154.70
558.98	59536.21
559.14	59442.59
559.31	59704.73
559.47	59568.97
559.64	59564.29
559.80	59559.61
559.97	59554.93
560.13	59550.25
560.30	59620.47
560.46	59660.26
560.63	59718.77
560.79	59592.38
560.96	59756.22
561.12	59810.05
561.29	59859.20
561.45	59681.32
561.61	59746.86
561.78	59758.56
561.94	59920.05
562.11	59756.22
562.27	59674.30
562.44	60027.72
562.60	60149.43
562.77	59765.58
562.93	59678.98
563.10	59955.16
563.26	59751.54
563.42	60123.68
563.59	59938.78
563.75	59971.55
563.92	59887.29
564.08	59824.09
564.24	59992.61
564.41	59985.59
564.57	59891.97
564.74	59927.08
564.90	59882.61
565.07	59934.10
565.23	60037.08
565.39	59906.01
565.56	59896.65
565.72	60011.34
565.88	60179.85
566.05	59987.93
566.21	60055.81
566.38	60041.76
566.54	60039.42
566.70	60331.99
566.87	60168.15
567.03	59971.55
567.19	60467.74
567.36	60130.70
567.52	60147.09
567.68	60467.74
567.85	60264.11
568.01	60233.69
568.17	60104.96
568.34	60582.43
568.50	60179.85
568.66	60336.67
568.83	60207.94
568.99	60303.90
569.15	60317.95
569.32	60353.05
569.48	60219.64
569.64	60229.01
569.81	60107.30
569.97	60037.08
570.13	60322.63
570.30	60261.77
570.46	60432.63
570.62	60486.46
570.78	60409.23
570.95	60444.33
571.11	60493.49
571.27	60341.35
571.43	60360.08
571.60	60610.51
571.76	60526.25
571.92	60608.17
572.09	60313.26
572.25	60502.85
572.41	60582.43
572.57	60479.44
572.74	60800.10
572.90	60472.42
573.06	60584.77
573.22	60580.09
573.38	60570.72
573.55	60451.36
573.71	60767.33
573.87	60512.21
574.03	60568.38
574.20	60706.47
574.36	60638.60
574.52	60568.38
574.68	60643.28
574.84	60612.85
575.01	60692.43
575.17	60544.98
575.33	60554.34
575.49	60556.68
575.65	60519.23
575.82	60750.94
575.98	60498.17
576.14	60807.12
576.30	60727.54
576.46	60575.40
576.62	60715.84
576.79	60910.10
576.95	60580.09
577.11	60783.71
577.27	60589.45
577.43	60842.23
577.59	60711.16
577.75	60587.11
577.92	60608.17
578.08	60659.66
578.24	60790.73
578.40	60776.69
578.56	60982.66
578.72	60608.17
578.88	60870.31
579.04	60741.58
579.21	60830.52
579.37	60877.33
579.53	61062.24
579.69	60533.28
579.85	60741.58
580.01	60647.96
580.17	60727.54
580.33	60631.58
580.49	61038.83
580.65	60818.82
580.82	60523.91
580.98	60729.88
581.14	60671.37
581.30	60715.84
581.46	60802.44
581.62	60795.42
581.78	60900.74
581.94	60832.86
582.10	60837.54
582.26	60872.65
582.42	60823.50
582.58	60867.97
582.74	60654.98
582.90	60849.25
583.06	60877.33
583.22	60788.39
583.38	60814.14
583.54	60821.16
583.70	60807.12
583.86	60942.87
584.02	60879.67
584.18	60970.96
584.34	60823.50
584.50	60851.59
584.66	60748.60
584.82	60797.76
584.98	60949.89
585.14	61064.58
585.30	60982.66
585.46	61057.56
585.62	60851.59
585.78	61027.13
585.94	60851.59
586.10	60975.64
586.26	60699.45
586.42	60961.59
586.58	61298.63
586.74	60935.85
586.90	60774.35
587.06	60788.39
587.22	60912.44
587.38	60914.78
587.54	60987.34
587.70	61160.54
587.86	60889.04
588.02	60933.51
588.18	61102.03
588.34	60804.78
