SpectraSuite Data File
++++++++++++++++++++++++++++++++++++
Date: Fri Oct 25 11:23:03 EDT 2013
User: price-jones
Dark Spectrum Present: No
Reference Spectrum Present: No
Number of Sampled Component Spectra: 1
Spectrometers: USB2+H05261
Integration Time (usec): 100000 (USB2+H05261)
Spectra Averaged: 1 (USB2+H05261)
Boxcar Smoothing: 0 (USB2+H05261)
Correct for Electrical Dark: No (USB2+H05261)
Strobe/Lamp Enabled: No (USB2+H05261)
Correct for Detector Non-linearity: No (USB2+H05261)
Correct for Stray Light: No (USB2+H05261)
Number of Pixels in Processed Spectrum: 2048
>>>>>Begin Processed Spectral Data<<<<<
365.73	234.05
365.92	234.05
366.12	234.05
366.32	112.35
366.52	163.84
366.72	142.77
366.91	70.22
367.11	102.98
367.31	110.01
367.51	154.48
367.70	140.43
367.90	138.09
368.10	156.82
368.30	205.97
368.49	149.79
368.69	147.45
368.89	100.64
369.09	159.16
369.28	51.49
369.48	133.41
369.68	184.90
369.87	210.65
370.07	163.84
370.27	273.84
370.47	365.12
370.66	589.82
370.86	596.84
371.06	746.63
371.25	690.46
371.45	681.10
371.65	629.60
371.84	674.07
372.04	765.36
372.24	683.44
372.44	716.20
372.63	713.86
372.83	723.23
373.03	702.16
373.22	739.61
373.42	788.76
373.62	786.42
373.81	802.80
374.01	858.98
374.21	851.96
374.40	847.27
374.60	777.06
374.79	842.59
374.99	802.80
375.19	847.27
375.38	894.08
375.58	781.74
375.78	884.72
375.97	835.57
376.17	910.47
376.37	901.11
376.56	805.14
376.76	805.14
376.95	858.98
377.15	926.85
377.35	915.15
377.54	985.37
377.74	823.87
377.93	912.81
378.13	880.04
378.33	866.00
378.52	959.62
378.72	992.39
378.91	964.30
379.11	1050.90
379.31	931.53
379.50	917.49
379.70	959.62
379.89	908.13
380.09	917.49
380.28	1034.52
380.48	933.87
380.68	947.92
380.87	959.62
381.07	938.55
381.26	992.39
381.46	1123.46
381.65	1015.79
381.85	1090.69
382.04	1081.33
382.24	1050.90
382.43	1125.80
382.63	999.41
382.83	1004.09
383.02	1055.58
383.22	1095.37
383.41	1179.63
383.61	1083.67
383.80	1174.95
384.00	999.41
384.19	1071.97
384.39	1057.92
384.58	1034.52
384.78	1210.06
384.97	1125.80
385.17	1184.31
385.36	1107.07
385.56	1100.05
385.75	1116.44
385.95	1146.86
386.14	1114.10
386.34	1144.52
386.53	1139.84
386.72	1226.44
386.92	1226.44
387.11	1205.38
387.31	1233.46
387.50	1329.42
387.70	1249.85
387.89	1280.27
388.09	1266.23
388.28	1294.32
388.48	1296.66
388.67	1303.68
388.86	1399.64
389.06	1416.02
389.25	1343.47
389.45	1256.87
389.64	1390.28
389.84	1439.43
390.03	1413.68
390.22	1427.73
390.42	1434.75
390.61	1350.49
390.81	1394.96
391.00	1406.66
391.19	1486.24
391.39	1493.26
391.58	1425.39
391.78	1519.01
391.97	1547.09
392.16	1362.19
392.36	1509.65
392.55	1589.22
392.75	1526.03
392.94	1633.69
393.13	1638.38
393.33	1467.52
393.52	1547.09
393.71	1631.35
393.91	1591.56
394.10	1694.55
394.29	1659.44
394.49	1577.52
394.68	1710.93
394.88	1685.19
395.07	1619.65
395.26	1600.93
395.46	1685.19
395.65	1827.96
395.84	1685.19
396.04	1973.07
396.23	1762.42
396.42	1746.04
396.62	1834.98
396.81	1790.51
397.00	1748.38
397.19	1741.36
397.39	1816.26
397.58	1891.15
397.77	1984.77
397.97	1898.17
398.16	1811.57
398.35	1853.70
398.55	1879.45
398.74	1921.58
398.93	2017.54
399.12	1895.83
399.32	1921.58
399.51	1991.80
399.70	2024.56
399.90	1977.75
400.09	2001.16
400.28	2010.52
400.47	2066.69
400.67	1987.11
400.86	2132.23
401.05	2015.20
401.24	2083.08
401.44	2122.87
401.63	2162.66
401.82	2190.74
402.01	2186.06
402.21	2062.01
402.40	2200.10
402.59	2146.27
402.78	2260.96
402.97	2282.02
403.17	2466.92
403.36	2392.03
403.55	2230.53
403.74	2293.72
403.93	2492.67
404.13	2359.26
404.32	2373.30
404.51	2277.34
404.70	2335.85
404.89	2326.49
405.09	2513.74
405.28	2443.52
405.47	2593.31
405.66	2576.93
405.85	2485.65
406.05	2497.35
406.24	2595.65
406.43	2565.23
406.62	2616.72
406.81	2834.39
407.00	2738.43
407.20	2537.14
407.39	2684.59
407.58	2651.83
407.77	2724.38
407.96	2843.75
408.15	2757.15
408.34	2801.62
408.54	2855.45
408.73	2916.31
408.92	2827.37
409.11	3007.59
409.30	2911.63
409.49	3094.19
409.68	2923.33
409.87	3070.78
410.07	3042.70
410.26	3002.91
410.45	3014.61
410.64	3084.83
410.83	3059.08
411.02	3087.17
411.21	3084.83
411.40	3122.27
411.59	3211.22
411.78	3321.22
411.98	3239.30
412.17	3323.56
412.36	3419.52
412.55	3297.81
412.74	3426.54
412.93	3361.01
413.12	3447.61
413.31	3529.53
413.50	3522.51
413.69	3646.55
413.88	3541.23
414.07	3646.55
414.26	3728.47
414.45	3674.64
414.64	3712.09
414.83	3817.41
415.02	3833.80
415.22	3889.97
415.41	3941.46
415.60	4011.68
415.79	4091.26
415.98	3934.44
416.17	3927.42
416.36	3964.87
416.55	4154.45
416.74	4067.85
416.93	4166.15
417.12	4292.54
417.31	4175.52
417.50	4107.64
417.69	4259.78
417.88	4257.43
418.07	4437.66
418.26	4411.91
418.45	4442.34
418.64	4507.87
418.83	4514.89
419.02	4470.42
419.21	4674.05
419.39	4627.24
419.58	4493.83
419.77	4463.40
419.96	4636.60
420.15	4725.54
420.34	4629.58
420.53	4744.27
420.72	4741.93
420.91	4734.90
421.10	4678.73
421.29	4688.09
421.48	4760.65
421.67	4784.06
421.86	4704.48
422.05	4823.84
422.24	4873.00
422.43	5093.01
422.61	5074.28
422.80	5034.49
422.99	5022.79
423.18	4884.70
423.37	5055.56
423.56	4898.74
423.75	4891.72
423.94	4887.04
424.13	4681.07
424.32	4744.27
424.50	4882.36
424.69	5193.65
424.88	5277.91
425.07	5121.09
425.26	4826.18
425.45	5057.90
425.64	4983.00
425.83	5139.82
426.01	5149.18
426.20	5006.41
426.39	5193.65
426.58	5074.28
426.77	5118.75
426.96	5001.72
427.15	5217.05
427.33	5324.72
427.52	5142.16
427.71	5397.28
427.90	5331.74
428.09	5413.66
428.28	5406.64
428.46	5472.17
428.65	5336.42
428.84	5645.37
429.03	5518.98
429.22	5378.55
429.40	5500.26
429.59	5511.96
429.78	5259.18
429.97	5170.24
430.16	5322.38
430.34	5619.63
430.53	5638.35
430.72	5643.03
430.91	5734.31
431.10	5647.71
431.28	5771.76
431.47	5914.53
431.66	6040.92
431.85	5816.23
432.03	5921.56
432.22	5977.73
432.41	5989.43
432.60	5954.32
432.79	5984.75
432.97	6132.20
433.16	6101.78
433.35	5961.34
433.54	6040.92
433.72	6179.01
433.91	6164.97
434.10	6146.25
434.28	6218.80
434.47	6171.99
434.66	6366.26
434.85	6244.55
435.03	6469.24
435.22	6457.54
435.41	6534.78
435.59	6478.60
435.78	6466.90
435.97	6483.28
436.16	6377.96
436.34	6499.67
436.53	6523.07
436.72	6693.93
436.90	6497.33
437.09	6656.48
437.28	6520.73
437.46	6619.04
437.65	6745.42
437.84	6827.34
438.02	6902.24
438.21	6892.88
438.40	7023.95
438.58	7007.56
438.77	7124.59
438.96	7068.42
439.14	7115.23
439.33	7379.71
439.52	7185.44
439.70	7087.14
439.89	7468.65
440.08	7269.70
440.26	7393.75
440.45	7576.31
440.63	7627.81
440.82	7609.08
441.01	7583.34
441.19	7765.90
441.38	7859.52
441.57	7679.30
441.75	7751.85
441.94	8109.96
442.12	8124.00
442.31	8116.98
442.50	8112.30
442.68	7889.95
442.87	8088.89
443.05	8313.58
443.24	8430.61
443.43	8128.68
443.61	8425.93
443.80	8580.40
443.98	8116.98
444.17	7918.03
444.35	8280.82
444.54	8521.89
444.73	8582.74
444.91	8599.13
445.10	8493.80
445.28	8428.27
445.47	8442.31
445.65	8507.85
445.84	8505.51
446.02	8739.56
446.21	8655.30
446.39	8585.08
446.58	8631.90
446.77	8451.67
446.95	8304.22
447.14	8589.77
447.32	8617.85
447.51	8578.06
447.69	8575.72
447.88	8596.79
448.06	8547.64
448.25	8439.97
448.43	8620.19
448.62	8655.30
448.80	8791.05
448.99	8894.04
449.17	8718.50
449.36	8765.31
449.54	8870.63
449.73	8950.21
449.91	9139.79
450.10	8999.36
450.28	8959.57
450.46	9153.84
450.65	9043.83
450.83	9254.48
451.02	9046.17
451.20	9497.89
451.39	9046.17
451.57	9294.27
451.76	8945.53
451.94	9254.48
452.13	9327.03
452.31	9462.79
452.49	9317.67
452.68	9420.66
452.86	9315.33
453.05	9547.05
453.23	9722.59
453.42	9490.87
453.60	9577.47
453.78	9551.73
453.97	9584.49
454.15	9675.77
454.34	9619.60
454.52	9750.67
454.70	9827.91
454.89	10073.67
455.07	9809.19
455.26	10221.12
455.44	9998.77
455.62	10167.29
455.81	9877.06
455.99	10068.98
456.17	10181.33
456.36	10090.05
456.54	10136.86
456.73	10530.07
456.91	10424.75
457.09	10401.34
457.28	10740.72
457.46	10789.87
457.64	10729.02
457.83	10595.61
458.01	10424.75
458.19	10890.51
458.38	10658.80
458.56	10874.13
458.74	10974.77
458.93	10958.39
459.11	10846.04
459.29	10731.36
459.48	11124.57
459.66	10916.26
459.84	11014.56
460.03	11187.76
460.21	11166.70
460.39	11103.50
460.57	11187.76
460.76	11297.77
460.94	11337.56
461.12	11342.24
461.31	11485.01
461.49	11389.05
461.67	11178.40
461.85	11693.32
462.04	11419.47
462.22	11744.81
462.40	11751.83
462.59	11595.01
462.77	11655.87
462.95	11527.14
463.13	11702.68
463.32	12018.65
463.50	11782.26
463.68	12023.33
463.86	11838.43
464.05	11974.18
464.23	11735.45
464.41	11873.54
464.59	11782.26
464.78	12297.17
464.96	12142.70
465.14	12051.42
465.32	12163.76
465.50	12095.89
465.69	12397.82
465.87	12030.35
466.05	12334.62
466.23	12236.32
466.41	12334.62
466.60	12559.31
466.78	12329.94
466.96	12231.64
467.14	12542.93
467.32	12512.50
467.51	12568.68
467.69	12318.24
467.87	12498.46
468.05	12690.38
468.23	12582.72
468.41	12718.47
468.60	12676.34
468.78	12884.65
468.96	12676.34
469.14	12987.63
469.32	13277.86
469.50	12849.54
469.69	12938.48
469.87	13156.15
470.05	13439.36
470.23	13170.19
470.41	13289.56
470.59	13682.77
470.77	13259.13
470.95	13535.32
471.14	13624.26
471.32	13247.43
471.50	14064.28
471.68	13549.36
471.86	13811.50
472.04	13853.63
472.22	14001.08
472.40	13820.86
472.58	13823.20
472.77	14097.05
472.95	14132.15
473.13	14710.27
473.31	14176.62
473.49	14328.76
473.67	14307.69
473.85	14501.96
474.03	14974.75
474.21	14860.06
474.39	14984.11
474.57	15056.67
474.75	15019.22
474.93	15115.18
475.12	14860.06
475.30	15255.61
475.48	15236.89
475.66	15403.07
475.84	15082.41
476.02	15543.50
476.20	15611.37
476.38	15665.21
476.56	16271.40
476.74	16184.80
476.92	16004.58
477.10	15812.66
477.28	16336.94
477.46	16353.32
477.64	16709.08
477.82	16973.56
478.00	17221.66
478.18	16910.37
478.36	17137.40
478.54	17397.20
478.72	17378.48
478.90	17549.34
479.08	17804.46
479.26	17764.67
479.44	18010.42
479.62	18204.69
479.80	18143.83
479.98	18134.47
480.16	18656.41
480.34	18691.52
480.52	18965.36
480.70	18691.52
480.88	18707.90
481.06	18981.74
481.24	19349.21
481.41	19585.60
481.59	19370.27
481.77	19735.40
481.95	19978.81
482.13	19927.32
482.31	19882.85
482.49	20563.95
482.67	20549.90
482.85	20460.96
483.03	20683.31
483.21	21200.57
483.39	21116.31
483.57	20959.50
483.74	21032.05
483.92	21614.85
484.10	21240.36
484.28	21729.53
484.46	22012.74
484.64	22459.78
484.82	22265.52
485.00	22635.32
485.18	22726.60
485.35	23400.68
485.53	23000.44
485.71	23194.71
485.89	23758.78
486.07	23674.52
486.25	23831.33
486.43	23674.52
486.61	24116.88
486.78	24278.38
486.96	24271.36
487.14	24767.55
487.32	24940.75
487.50	25177.14
487.68	24781.59
487.85	25584.40
488.03	25963.56
488.21	26064.21
488.39	26071.23
488.57	26209.32
488.75	26721.90
488.92	26581.46
489.10	27159.58
489.28	26897.44
489.46	27538.74
489.64	27623.00
489.81	28100.47
489.99	28105.15
490.17	28217.50
490.35	28463.25
490.53	28474.96
490.70	29053.07
490.88	28725.39
491.06	29062.43
491.24	29432.24
491.41	29493.09
491.59	29741.19
491.77	29741.19
491.95	29986.94
492.13	29998.65
492.30	30176.53
492.48	30155.46
492.66	30719.53
492.84	30237.38
493.01	31248.49
493.19	31241.47
493.37	31456.80
493.54	31519.99
493.72	31770.43
493.90	31721.28
494.08	31941.29
494.25	32620.05
494.43	32294.71
494.61	32517.06
494.79	32961.76
494.96	32774.52
495.14	33259.01
495.32	33535.20
495.49	33621.80
495.67	33378.38
495.85	33958.83
496.02	34167.14
496.20	34663.33
496.38	34794.40
496.55	34293.53
496.73	35044.84
496.91	34707.80
497.09	35005.05
497.26	35505.93
497.44	35629.98
497.62	35398.26
497.79	36175.32
497.97	35957.65
498.14	36184.68
498.32	36781.52
498.50	36334.48
498.67	36884.50
498.85	36503.00
499.03	37359.63
499.20	36870.46
499.38	36954.72
499.56	37305.80
499.73	37373.67
499.91	37652.20
500.08	38183.50
500.26	38225.63
500.44	37963.49
500.61	38199.88
500.79	38373.08
500.97	38272.44
501.14	38820.13
501.32	38899.70
501.49	39028.43
501.67	39309.30
501.84	39157.16
502.02	39435.69
502.20	39257.81
502.37	39873.37
502.55	39707.19
502.72	39887.41
502.90	39938.90
503.07	40428.07
503.25	40278.28
503.43	40074.65
503.60	40414.03
503.78	40825.96
503.95	40102.74
504.13	40989.80
504.30	41289.39
504.48	41172.36
504.65	41284.71
504.83	41329.18
505.01	41418.12
505.18	41441.53
505.36	42019.64
505.53	41471.95
505.71	41998.57
505.88	42691.37
506.06	41823.03
506.23	42263.05
506.41	41982.19
506.58	42443.27
506.76	42770.95
506.93	42834.14
507.11	42733.50
507.28	43248.42
507.46	43173.52
507.63	43194.59
507.81	43959.94
507.98	43033.09
508.16	43709.50
508.33	43711.84
508.50	44236.12
508.68	44105.06
508.85	44650.40
509.03	44233.78
509.20	44701.89
509.38	44755.72
509.55	44261.87
509.73	44800.19
509.90	45109.14
510.08	44669.12
510.25	45212.13
510.42	45158.30
510.60	45287.03
510.77	45715.34
510.95	45961.10
511.12	45488.31
511.30	45944.72
511.47	46082.81
511.64	46291.12
511.82	46143.66
511.99	46146.00
512.17	46719.43
512.34	46600.07
512.51	46700.71
512.69	47019.02
512.86	46480.70
513.04	47150.09
513.21	47199.24
513.38	46880.93
513.56	47365.42
513.73	47124.35
513.90	47737.57
514.08	47091.58
514.25	47601.82
514.43	47838.21
514.60	48016.09
514.77	47606.50
514.95	48362.49
515.12	48261.85
515.29	48009.07
515.47	48495.90
515.64	48364.83
515.81	48367.17
515.99	48545.05
516.16	48832.94
516.33	48718.25
516.51	49155.93
516.68	49317.43
516.85	49134.87
517.03	49120.82
517.20	49291.68
517.37	48828.26
517.54	49668.51
517.72	49315.09
517.89	49764.47
518.06	49221.47
518.24	49792.56
518.41	49558.50
518.58	49874.48
518.75	49574.89
518.93	50115.55
519.10	49911.92
519.27	49895.54
519.45	50248.96
519.62	50244.28
519.79	50042.99
519.96	50183.43
520.14	50869.20
520.31	50405.78
520.48	50485.36
520.65	50745.15
520.83	51239.01
521.00	50862.18
521.17	50887.93
521.34	51114.96
521.52	50873.88
521.69	51199.22
521.86	51400.50
522.03	51400.50
522.20	51653.28
522.38	52282.89
522.55	51798.40
522.72	51510.51
522.89	51746.90
523.07	52037.13
523.24	52060.54
523.41	52294.59
523.58	51662.64
523.75	52207.99
523.92	52142.45
524.10	52259.48
524.27	52420.98
524.44	52739.29
524.61	52376.51
524.78	52402.25
524.96	52722.91
525.13	52690.14
525.30	52697.16
525.47	52912.49
525.64	52617.58
525.81	52980.37
525.98	52996.75
526.16	52835.25
526.33	52926.53
526.50	53385.28
526.67	53095.05
526.84	53244.85
527.01	53055.26
527.18	53200.38
527.36	53308.04
527.53	53106.76
527.70	53741.04
527.87	53787.85
528.04	53563.16
528.21	53766.79
528.38	53717.64
528.55	54101.48
528.72	53787.85
528.89	53773.81
529.07	53427.41
529.24	53872.11
529.41	54052.33
529.58	54176.38
529.75	53909.56
529.92	53914.24
530.09	54078.08
530.26	54127.23
530.43	54234.89
530.60	54071.06
530.77	53869.77
530.94	54525.12
531.11	54206.81
531.28	54539.16
531.46	54525.12
531.63	54541.50
531.80	54473.63
531.97	54602.36
532.14	54726.41
532.31	55098.55
532.48	55037.70
532.65	55049.40
532.82	54583.63
532.99	55009.61
533.16	54777.90
533.33	55351.33
533.50	55178.13
533.67	55058.76
533.84	55082.17
534.01	55068.12
534.18	55098.55
534.35	55536.23
534.52	55384.10
534.69	55615.81
534.86	55405.16
535.03	55426.23
535.20	55402.82
535.37	56044.13
535.54	55613.47
535.71	55412.18
535.88	55599.43
536.05	55924.76
536.22	55973.91
536.38	56095.62
536.55	55828.80
536.72	55896.67
536.89	55852.20
537.06	55894.33
537.23	55891.99
537.40	55948.17
537.57	56067.53
537.74	56147.11
537.91	56186.90
538.08	56296.91
538.25	56095.62
538.42	56324.99
538.59	56444.36
538.75	56257.12
538.92	56346.06
539.09	56587.13
539.26	56189.24
539.43	56334.35
539.60	56409.25
539.77	56678.41
539.94	56603.52
540.11	56767.35
540.28	56795.44
540.44	56781.40
540.61	56886.72
540.78	56715.86
540.95	56825.87
541.12	56692.46
541.29	56790.76
541.46	56783.74
541.62	56608.20
541.79	56879.70
541.96	56741.61
542.13	56966.30
542.30	57155.88
542.47	57017.79
542.63	57282.27
542.80	57249.50
542.97	57256.53
543.14	57448.45
543.31	57272.91
543.48	57455.47
543.64	57785.49
543.81	57556.11
543.98	57600.58
544.15	57418.02
544.32	57647.39
544.48	57865.06
544.65	57694.21
544.82	57574.84
544.99	57485.90
545.16	57855.70
545.32	57897.83
545.49	57911.88
545.66	58272.32
545.83	57780.81
546.00	58052.31
546.16	57993.79
546.33	57986.77
546.50	57918.90
546.67	57804.21
546.83	57705.91
547.00	58021.88
547.17	58134.23
547.34	57972.73
547.50	58471.26
547.67	58106.14
547.84	58272.32
548.00	58291.04
548.17	58415.09
548.34	58330.83
548.51	58478.28
548.67	58658.51
548.84	58487.65
549.01	58384.66
549.18	58223.17
549.34	58520.41
549.51	58461.90
549.68	58651.48
549.84	58447.86
550.01	58710.00
550.18	58602.33
550.34	58532.12
550.51	58728.72
550.68	58777.87
550.84	58796.60
551.01	58848.09
551.18	58838.73
551.34	58845.75
551.51	58728.72
551.68	58894.90
551.84	58780.21
552.01	58508.71
552.18	59032.99
552.34	58838.73
552.51	59021.29
552.68	58822.34
552.84	59007.25
553.01	59159.38
553.18	59107.89
553.34	59121.93
553.51	58878.52
553.67	59051.72
553.84	59185.13
554.01	59180.45
554.17	59194.49
554.34	59180.45
554.51	59278.75
554.67	59168.74
554.84	59351.30
555.00	59168.74
555.17	59381.73
555.33	59426.20
555.50	59285.77
555.67	59135.98
555.83	59238.96
556.00	59501.10
556.16	59812.39
556.33	59487.06
556.50	59508.12
556.66	59580.68
556.83	59428.54
556.99	59660.26
557.16	59756.22
557.32	59840.48
557.49	59929.42
557.65	59660.26
557.82	59641.53
557.98	59620.47
558.15	59620.47
558.32	59856.86
558.48	59765.58
558.65	59487.06
558.81	59941.12
558.98	59955.16
559.14	59901.33
559.31	60081.55
559.47	59910.69
559.64	59922.40
559.80	59978.57
559.97	59849.84
560.13	59877.93
560.30	59931.76
560.46	59969.21
560.63	59917.71
560.79	60126.02
560.96	60229.01
561.12	60172.83
561.29	60027.72
561.45	60280.50
561.61	59980.91
561.78	59969.21
561.94	59889.63
562.11	60001.97
562.27	60261.77
562.44	60137.72
562.60	60149.43
562.77	60472.42
562.93	60254.75
563.10	60259.43
563.26	60231.35
563.42	60388.16
563.59	60292.20
563.75	60217.30
563.92	60423.27
564.08	60275.82
564.24	60535.62
564.41	60404.55
564.57	60619.88
564.74	60327.31
564.90	60367.10
565.07	60472.42
565.23	60406.89
565.39	60336.67
565.56	60470.08
565.72	60456.04
565.88	60406.89
566.05	60289.86
566.21	60626.90
566.38	60577.75
566.54	60533.28
566.70	60507.53
566.87	60692.43
567.03	60413.91
567.19	60694.77
567.36	60575.40
567.52	60617.53
567.68	60699.45
567.85	60610.51
568.01	60666.69
568.17	60697.11
568.34	60757.97
568.50	60355.39
568.66	60650.30
568.83	60711.16
568.99	60542.64
569.15	60619.88
569.32	60495.83
569.48	60654.98
569.64	60685.41
569.81	60865.63
569.97	60441.99
570.13	60898.40
570.30	60814.14
570.46	60715.84
570.62	60851.59
570.78	60612.85
570.95	60563.70
571.11	60828.18
571.27	60809.46
571.43	60666.69
571.60	61034.15
571.76	60715.84
571.92	60858.61
572.09	60982.66
572.25	60727.54
572.41	60692.43
572.57	60790.73
572.74	61104.37
572.90	60889.04
573.06	60970.96
573.22	60760.31
573.38	60912.44
573.55	60846.91
573.71	61043.51
573.87	60828.18
574.03	60903.08
574.20	60814.14
574.36	60736.90
574.52	61003.72
574.68	61111.39
574.84	60977.98
575.01	61001.38
575.17	60889.04
575.33	61059.90
575.49	60872.65
575.65	61020.11
575.82	60989.68
575.98	60919.46
576.14	61125.43
576.30	61095.00
576.46	61155.86
576.62	61097.34
576.79	60945.21
576.95	60912.44
577.11	61034.15
577.27	61073.94
577.43	61169.90
577.59	60999.04
577.75	60893.72
577.92	60949.89
578.08	61336.08
578.24	61006.06
578.40	61087.98
578.56	61282.25
578.72	60970.96
578.88	61172.24
579.04	61254.16
579.21	61141.81
579.37	61162.88
579.53	61258.84
579.69	60832.86
579.85	61038.83
580.01	61076.28
580.17	60879.67
580.33	61050.53
580.49	61190.97
580.65	61216.71
580.82	60980.32
580.98	60942.87
581.14	61034.15
581.30	61333.74
581.46	61228.41
581.62	61251.82
581.78	61188.63
581.94	61277.57
582.10	61207.35
582.26	61247.14
582.42	61127.77
582.58	61249.48
582.74	61247.14
582.90	61214.37
583.06	61357.14
583.22	61015.43
583.38	61188.63
583.54	61244.80
583.70	61214.37
583.86	61242.46
584.02	61130.11
584.18	61254.16
584.34	61317.35
584.50	61174.58
584.66	61137.13
584.82	61109.05
584.98	61544.39
585.14	61272.88
585.30	61064.58
585.46	61413.32
585.62	61298.63
585.78	61216.71
585.94	61181.60
586.10	61244.80
586.26	61144.16
586.42	61214.37
586.58	61392.25
586.74	61277.57
586.90	61249.48
587.06	61034.15
587.22	61373.53
587.38	61272.88
587.54	61647.37
587.70	61553.75
587.86	61169.90
588.02	61347.78
588.18	61434.38
588.34	61305.65
588.49	61272.88
