SpectraSuite Data File
++++++++++++++++++++++++++++++++++++
Date: Fri Oct 25 10:44:29 EDT 2013
User: price-jones
Dark Spectrum Present: No
Reference Spectrum Present: No
Number of Sampled Component Spectra: 1
Spectrometers: USB2+H05261
Integration Time (usec): 100000 (USB2+H05261)
Spectra Averaged: 1 (USB2+H05261)
Boxcar Smoothing: 0 (USB2+H05261)
Correct for Electrical Dark: No (USB2+H05261)
Strobe/Lamp Enabled: No (USB2+H05261)
Correct for Detector Non-linearity: No (USB2+H05261)
Correct for Stray Light: No (USB2+H05261)
Number of Pixels in Processed Spectrum: 2048
>>>>>Begin Processed Spectral Data<<<<<
365.73	93.62
365.92	93.62
366.12	93.62
366.32	28.09
366.52	4.68
366.72	65.54
366.91	37.45
367.11	0.00
367.31	25.75
367.51	0.00
367.70	0.00
367.90	11.70
368.10	21.06
368.30	86.60
368.49	84.26
368.69	98.30
368.89	84.26
369.09	0.00
369.28	14.04
369.48	74.90
369.68	53.83
369.87	74.90
370.07	105.32
370.27	58.51
370.47	159.16
370.66	315.97
370.86	468.11
371.06	510.24
371.25	514.92
371.45	404.91
371.65	456.40
371.84	421.30
372.04	461.09
372.24	524.28
372.44	491.51
372.63	461.09
372.83	547.69
373.03	409.59
373.22	498.53
373.42	500.87
373.62	594.50
373.81	512.58
374.01	571.09
374.21	566.41
374.40	573.43
374.60	568.75
374.79	613.22
374.99	568.75
375.19	585.13
375.38	622.58
375.58	561.73
375.78	657.69
375.97	662.37
376.17	653.01
376.37	631.94
376.56	641.31
376.76	622.58
376.95	571.09
377.15	629.60
377.35	606.20
377.54	596.84
377.74	627.26
377.93	603.86
378.13	578.11
378.33	676.41
378.52	655.35
378.72	643.65
378.91	589.82
379.11	592.16
379.31	638.97
379.50	620.24
379.70	648.33
379.89	695.14
380.09	629.60
380.28	657.69
380.48	641.31
380.68	671.73
380.87	704.50
381.07	727.91
381.26	690.46
381.46	662.37
381.65	702.16
381.85	723.23
382.04	622.58
382.24	727.91
382.43	695.14
382.63	685.78
382.83	643.65
383.02	692.80
383.22	798.12
383.41	692.80
383.61	730.25
383.80	737.27
384.00	814.51
384.19	725.57
384.39	826.21
384.58	741.95
384.78	723.23
384.97	837.91
385.17	744.29
385.36	711.52
385.56	765.36
385.75	784.08
385.95	840.25
386.14	889.40
386.34	786.42
386.53	837.91
386.72	844.93
386.92	793.44
387.11	821.53
387.31	889.40
387.50	903.45
387.70	812.17
387.89	898.77
388.09	875.36
388.28	856.64
388.48	835.57
388.67	849.61
388.86	844.93
389.06	858.98
389.25	936.21
389.45	912.81
389.64	957.28
389.84	894.08
390.03	987.71
390.22	1015.79
390.42	910.47
390.61	973.66
390.81	1004.09
391.00	1006.43
391.19	1057.92
391.39	1064.94
391.58	957.28
391.78	1013.45
391.97	1001.75
392.16	980.68
392.36	954.94
392.55	1055.58
392.75	968.98
392.94	997.07
393.13	990.05
393.33	896.43
393.52	1041.54
393.71	1013.45
393.91	1081.33
394.10	1022.81
394.29	1165.59
394.49	1128.14
394.68	1146.86
394.88	1181.97
395.07	1203.04
395.26	1132.82
395.46	1203.04
395.65	1245.16
395.84	1163.25
396.04	1188.99
396.23	1167.93
396.42	1137.50
396.62	1184.31
396.81	1172.61
397.00	1261.55
397.19	1135.16
397.39	1224.10
397.58	1301.34
397.77	1324.74
397.97	1350.49
398.16	1406.66
398.35	1416.02
398.55	1380.92
398.74	1446.45
398.93	1387.94
399.12	1430.07
399.32	1514.33
399.51	1453.47
399.70	1528.37
399.90	1516.67
400.09	1533.05
400.28	1565.82
400.47	1465.18
400.67	1530.71
400.86	1537.73
401.05	1556.46
401.24	1523.69
401.44	1568.16
401.63	1654.76
401.82	1671.14
402.01	1614.97
402.21	1727.32
402.40	1671.14
402.59	1645.40
402.78	1614.97
402.97	1671.14
403.17	1603.27
403.36	1720.29
403.55	1809.23
403.74	1785.83
403.93	1710.93
404.13	1776.47
404.32	1816.26
404.51	1851.36
404.70	1806.89
404.89	1839.66
405.09	1839.66
405.28	1799.87
405.47	1916.90
405.66	1921.58
405.85	1944.99
406.05	1849.02
406.24	1928.60
406.43	1863.07
406.62	1905.20
406.81	2019.88
407.00	2017.54
407.20	1895.83
407.39	1937.96
407.58	1961.37
407.77	2129.89
407.96	2134.57
408.15	2146.27
408.34	1970.73
408.54	2260.96
408.73	2176.70
408.92	2162.66
409.11	2146.27
409.30	2232.87
409.49	2249.25
409.68	2246.91
409.87	2256.28
410.07	2284.36
410.26	2267.98
410.45	2265.64
410.64	2410.75
410.83	2338.20
411.02	2408.41
411.21	2349.90
411.40	2382.67
411.59	2462.24
411.78	2427.14
411.98	2513.74
412.17	2534.80
412.36	2548.84
412.55	2597.99
412.74	2640.12
412.93	2588.63
413.12	2572.25
413.31	2621.40
413.50	2726.72
413.69	2670.55
413.88	2766.51
414.07	2649.49
414.26	2820.35
414.45	2850.77
414.64	2796.94
414.83	2794.60
415.02	2935.03
415.22	2930.35
415.41	2855.45
415.60	2930.35
415.79	3150.36
415.98	3124.62
416.17	2998.23
416.36	3070.78
416.55	3070.78
416.74	3091.85
416.93	3063.76
417.12	3265.05
417.31	3267.39
417.50	3199.51
417.69	3379.73
417.88	3302.50
418.07	3295.47
418.26	3368.03
418.45	3241.64
418.64	3438.25
418.83	3389.10
419.02	3426.54
419.21	3435.91
419.39	3501.44
419.58	3398.46
419.77	3503.78
419.96	3363.35
420.15	3684.00
420.34	3536.55
420.53	3634.85
420.72	3737.84
420.91	3585.70
421.10	3728.47
421.29	3824.44
421.48	3606.77
421.67	3707.41
421.86	3646.55
422.05	3686.34
422.24	3637.19
422.43	3653.58
422.61	3700.39
422.80	3784.65
422.99	3836.14
423.18	3740.18
423.37	3847.84
423.56	3829.12
423.75	3889.97
423.94	3768.26
424.13	3555.27
424.32	3786.99
424.50	3922.74
424.69	3775.28
424.88	3885.29
425.07	3775.28
425.26	3691.02
425.45	3698.05
425.64	3782.31
425.83	3712.09
426.01	3871.25
426.20	3782.31
426.39	3878.27
426.58	3801.03
426.77	3838.48
426.96	3742.52
427.15	3934.44
427.33	3810.39
427.52	3889.97
427.71	3969.55
427.90	3967.21
428.09	3978.91
428.28	4105.30
428.46	4065.51
428.65	4037.42
428.84	4037.42
429.03	4138.07
429.22	3988.27
429.40	4009.34
429.59	3967.21
429.78	3768.26
429.97	3801.03
430.16	3833.80
430.34	3999.98
430.53	3983.59
430.72	4147.43
430.91	4086.58
431.10	4138.07
431.28	4269.14
431.47	4369.78
431.66	4484.47
431.85	4332.33
432.03	4404.89
432.22	4699.80
432.41	4557.02
432.60	4500.85
432.79	4514.89
432.97	4575.75
433.16	4669.37
433.35	4531.28
433.54	4493.83
433.72	4535.96
433.91	4545.32
434.10	4615.54
434.28	4594.47
434.47	4608.51
434.66	4732.56
434.85	4688.09
435.03	4858.95
435.22	4919.81
435.41	4987.68
435.59	4809.80
435.78	5043.85
435.97	4959.60
436.16	4945.55
436.34	4992.36
436.53	5011.09
436.72	5135.14
436.90	4877.68
437.09	4938.53
437.28	4929.17
437.46	5029.81
437.65	4959.60
437.84	5043.85
438.02	4933.85
438.21	5025.13
438.40	4954.91
438.58	5195.99
438.77	5093.01
438.96	5179.61
439.14	5303.65
439.33	5369.19
439.52	5467.49
439.70	5467.49
439.89	5509.62
440.08	5544.73
440.26	5568.13
440.45	5521.32
440.63	5640.69
440.82	5741.33
441.01	5633.67
441.19	5806.87
441.38	5825.59
441.57	5858.36
441.75	5926.24
441.94	6069.01
442.12	6026.88
442.31	6263.27
442.50	5853.68
442.68	5956.66
442.87	6113.48
443.05	6200.08
443.24	6118.16
443.43	6186.04
443.61	6272.64
443.80	6296.04
443.98	6108.80
444.17	5907.51
444.35	6303.06
444.54	6511.37
444.73	6253.91
444.91	6193.06
445.10	6214.12
445.28	6113.48
445.47	6253.91
445.65	6136.88
445.84	6202.42
446.02	6490.31
446.21	6230.51
446.39	6305.40
446.58	6459.88
446.77	6417.75
446.95	6340.51
447.14	6492.65
447.32	6619.04
447.51	6406.05
447.69	6455.20
447.88	6349.87
448.06	6284.34
448.25	6607.33
448.43	6457.54
448.62	6452.86
448.80	6476.26
448.99	6658.82
449.17	6576.91
449.36	6572.22
449.54	6633.08
449.73	6963.09
449.91	6977.14
450.10	6867.13
450.28	6937.35
450.46	6977.14
450.65	6862.45
450.83	6946.71
451.02	6860.11
451.20	6925.65
451.39	6792.23
451.57	6806.28
451.76	6853.09
451.94	6911.60
452.13	7070.76
452.31	7103.53
452.49	6855.43
452.68	6951.39
452.86	6752.45
453.05	7131.61
453.23	7084.80
453.42	7213.53
453.60	6836.70
453.78	7075.44
453.97	7070.76
454.15	7108.21
454.34	7030.97
454.52	7241.62
454.70	7077.78
454.89	7307.15
455.07	7232.26
455.26	7487.37
455.44	7449.93
455.62	7286.09
455.81	7438.22
455.99	7648.87
456.17	7414.82
456.36	7243.96
456.54	7775.26
456.73	7705.04
456.91	7737.81
457.09	7585.68
457.28	7868.88
457.46	7735.47
457.64	7831.43
457.83	7672.28
458.01	7688.66
458.19	8030.38
458.38	7903.99
458.56	8149.75
458.74	7875.90
458.93	7754.19
459.11	7880.58
459.29	8088.89
459.48	7997.61
459.66	7887.61
459.84	8049.10
460.03	8149.75
460.21	8210.60
460.39	8252.73
460.57	8194.22
460.76	8313.58
460.94	8542.96
461.12	8435.29
461.31	8409.54
461.49	8070.17
461.67	8297.20
461.85	8592.11
462.04	8435.29
462.22	8641.26
462.40	8823.82
462.59	8524.23
462.77	8566.36
462.95	8662.32
463.13	8606.15
463.32	8587.43
463.50	8802.75
463.68	8739.56
463.86	8723.18
464.05	8608.49
464.23	8514.87
464.41	8849.57
464.59	8496.14
464.78	8725.52
464.96	8802.75
465.14	8788.71
465.32	8980.64
465.50	8973.61
465.69	8865.95
465.87	8964.25
466.05	8926.80
466.23	8833.18
466.41	8973.61
466.60	9310.65
466.78	8870.63
466.96	9043.83
467.14	8987.66
467.32	9029.79
467.51	8975.95
467.69	8865.95
467.87	9081.28
468.05	9125.75
468.23	9100.00
468.41	9170.22
468.60	9188.94
468.78	9373.85
468.96	9289.59
469.14	9366.82
469.32	9427.68
469.50	9160.86
469.69	9427.68
469.87	9479.17
470.05	9444.06
470.23	9516.62
470.41	9437.04
470.59	9657.05
470.77	9703.86
470.95	9745.99
471.14	9511.94
471.32	9678.12
471.50	9905.15
471.68	9844.29
471.86	10111.11
472.04	10045.58
472.22	10214.10
472.40	9989.41
472.58	9935.57
472.77	10204.74
472.95	10211.76
473.13	10576.88
473.31	9998.77
473.49	10139.20
473.67	10281.97
473.85	10480.92
474.03	10567.52
474.21	10541.77
474.39	10684.55
474.57	10810.93
474.75	10693.91
474.93	10920.94
475.12	10700.93
475.30	10897.53
475.48	11009.88
475.66	10771.15
475.84	10867.11
476.02	10956.05
476.20	11108.18
476.38	11349.26
476.56	11386.71
476.74	11330.53
476.92	11482.67
477.10	11585.65
477.28	11674.59
477.46	11716.72
477.64	11683.95
477.82	11922.69
478.00	12009.29
478.18	12126.32
478.36	12042.06
478.54	12306.54
478.72	12299.52
478.90	12409.52
479.08	12514.84
479.26	12465.69
479.44	12561.66
479.62	13238.07
479.80	13036.78
479.98	12830.82
480.16	12910.40
480.34	13207.64
480.52	13373.82
480.70	13226.37
480.88	13511.91
481.06	13376.16
481.24	13451.06
481.41	13699.16
481.59	14003.43
481.77	14101.73
481.95	13954.27
482.13	14169.60
482.31	13930.87
482.49	14499.62
482.67	14590.90
482.85	14553.45
483.03	14771.12
483.21	14829.63
483.39	14857.72
483.57	14754.74
483.74	15243.91
483.92	15129.22
484.10	15246.25
484.28	15536.48
484.46	15627.76
484.64	15917.98
484.82	15632.44
485.00	15807.98
485.18	15789.25
485.35	15967.13
485.53	15819.68
485.71	15693.29
485.89	16168.42
486.07	15880.53
486.25	15932.03
486.43	16648.23
486.61	16847.18
486.78	16816.75
486.96	16762.92
487.14	17069.53
487.32	17036.76
487.50	17326.99
487.68	17729.56
487.85	17703.81
488.03	18026.81
488.21	17769.35
488.39	18066.60
488.57	18345.12
488.75	18408.31
488.92	18466.83
489.10	18888.12
489.28	18754.71
489.46	19396.02
489.64	18967.70
489.81	19391.34
489.99	19316.44
490.17	19651.14
490.35	19707.31
490.53	19426.45
490.70	19978.81
490.88	19955.41
491.06	20156.69
491.24	19880.51
491.41	20002.22
491.59	20577.99
491.77	20369.68
491.95	20566.29
492.13	20877.58
492.30	20851.83
492.48	20987.58
492.66	21074.18
492.84	21221.64
493.01	21436.97
493.19	21415.90
493.37	21610.17
493.54	21841.88
493.72	21699.11
493.90	22064.23
494.08	22178.92
494.25	22731.28
494.43	22506.59
494.61	22590.85
494.79	22539.36
494.96	22735.96
495.14	22883.42
495.32	23080.02
495.49	22796.82
495.67	23255.56
495.85	23211.09
496.02	23419.40
496.20	23733.03
496.38	23658.14
496.55	23704.95
496.73	24463.28
496.91	24194.12
497.09	24166.03
497.26	24306.46
497.44	24528.81
497.62	24570.94
497.79	25027.35
497.97	24357.96
498.14	24938.41
498.32	25015.65
498.50	25006.28
498.67	25305.87
498.85	25331.62
499.03	25298.85
499.20	25923.77
499.38	25603.12
499.56	25575.03
499.73	26118.04
499.91	25802.07
500.08	26015.05
500.26	25727.17
500.44	26164.85
500.61	26096.97
500.79	25785.68
500.97	26387.20
501.14	26700.83
501.32	26192.94
501.49	26499.55
501.67	26747.64
501.84	26913.82
502.02	27002.76
502.20	27157.24
502.37	26986.38
502.55	26986.38
502.72	26977.01
502.90	27164.26
503.07	26944.25
503.25	27761.09
503.43	27194.68
503.60	27529.38
503.78	27087.02
503.95	27543.42
504.13	27793.86
504.30	27999.83
504.48	28086.43
504.65	28196.43
504.83	28596.67
505.01	28226.86
505.18	28219.84
505.36	29043.71
505.53	28720.71
505.71	28706.67
505.88	28999.24
506.06	28582.62
506.23	28905.62
506.41	28636.45
506.58	28875.19
506.76	29326.91
506.93	29347.98
507.11	29053.07
507.28	28980.51
507.46	29371.38
507.63	29343.30
507.81	29682.67
507.98	29252.02
508.16	29673.31
508.33	29736.51
508.50	30036.09
508.68	30277.17
508.85	30272.49
509.03	30377.81
509.20	30478.46
509.38	30288.87
509.55	30354.41
509.73	30632.93
509.90	30967.63
510.08	30536.97
510.25	30604.84
510.42	31047.21
510.60	31065.93
510.77	30974.65
510.95	31124.44
511.12	31337.43
511.30	31505.95
511.47	31721.28
511.64	31475.52
511.82	31770.43
511.99	31215.72
512.17	31552.76
512.34	31503.61
512.51	32121.51
512.69	31690.85
512.86	31842.99
513.04	32173.00
513.21	32093.43
513.38	31964.70
513.56	31995.12
513.73	32051.30
513.90	31871.07
514.08	32395.35
514.25	32184.71
514.43	32631.75
514.60	32465.57
514.77	32776.86
514.95	33127.94
515.12	32978.15
515.29	32872.82
515.47	33237.95
515.64	32947.72
515.81	33214.54
515.99	33048.36
516.16	33387.74
516.33	33127.94
516.51	33095.18
516.68	32870.48
516.85	32755.80
517.03	32893.89
517.20	33450.94
517.37	33448.60
517.54	33965.85
517.72	33385.40
517.89	33879.25
518.06	33259.01
518.24	33692.01
518.41	33663.93
518.58	33916.70
518.75	34012.66
518.93	33919.04
519.10	34335.66
519.27	33900.32
519.45	34555.67
519.62	34635.25
519.79	34558.01
519.96	34794.40
520.14	34859.94
520.31	34756.96
520.48	34780.36
520.65	34668.02
520.83	35360.81
521.00	35363.15
521.17	35129.10
521.34	34845.90
521.52	35213.36
521.69	35166.55
521.86	35604.23
522.03	35379.54
522.20	35302.30
522.38	35278.89
522.55	35641.68
522.72	35917.86
522.89	35707.21
523.07	36088.72
523.24	35805.52
523.41	36397.67
523.58	35756.36
523.75	36360.22
523.92	36325.11
524.10	36591.94
524.27	36292.35
524.44	36734.71
524.61	36774.50
524.78	36718.32
524.96	36624.70
525.13	36694.92
525.30	36945.36
525.47	37041.32
525.64	37024.93
525.81	36725.35
525.98	36863.44
526.16	36755.77
526.33	36474.91
526.50	36629.38
526.67	36760.45
526.84	36676.19
527.01	36498.31
527.18	37287.07
527.36	37315.16
527.53	37432.19
527.70	38014.98
527.87	37703.69
528.04	37743.48
528.21	37701.35
528.38	37483.68
528.55	38014.98
528.72	38129.67
528.89	38323.93
529.07	37830.08
529.24	37902.64
529.41	37715.39
529.58	38330.95
529.75	38148.39
529.92	38375.42
530.09	38277.12
530.26	38256.06
530.43	38761.61
530.60	38579.05
530.77	38471.39
530.94	38429.26
531.11	38553.30
531.28	38520.54
531.46	39014.39
531.63	38735.87
531.80	38871.62
531.97	38895.02
532.14	38944.17
532.31	38923.11
532.48	38948.85
532.65	38848.21
532.82	38810.76
532.99	39161.84
533.16	38953.54
533.33	39487.18
533.50	39075.24
533.67	39414.62
533.84	39154.82
534.01	39363.13
534.18	39342.06
534.35	40051.25
534.52	39374.83
534.69	39613.57
534.86	39578.46
535.03	39754.00
535.20	40229.13
535.37	40341.47
535.54	39765.70
535.71	39648.68
535.88	39945.92
536.05	39665.06
536.22	39990.39
536.38	40280.62
536.55	39889.75
536.72	39995.07
536.89	40140.19
537.06	40350.84
537.23	40385.94
537.40	40025.50
537.57	40170.61
537.74	40495.95
537.91	40807.24
538.08	40362.54
538.25	40076.99
538.42	40556.80
538.59	40711.28
538.75	40704.26
538.92	40481.91
539.09	40931.29
539.26	40982.78
539.43	40575.53
539.60	40807.24
539.77	40524.04
539.94	40739.36
540.11	40509.99
540.28	41223.86
540.44	40634.04
540.61	40673.83
540.78	40397.65
540.95	40832.99
541.12	40563.82
541.29	40746.39
541.46	41067.04
541.62	40814.26
541.79	41296.41
541.96	41043.63
542.13	41619.41
542.30	41251.94
542.47	41118.53
542.63	41413.44
542.80	41469.61
542.97	41675.58
543.14	41696.64
543.31	42010.28
543.48	41350.24
543.64	42188.16
543.81	42356.67
543.98	42541.58
544.15	41830.05
544.32	42340.29
544.48	42562.64
544.65	41874.52
544.82	42335.61
544.99	41986.87
545.16	42211.56
545.32	42288.80
545.49	42939.47
545.66	42686.69
545.83	42768.61
546.00	42735.84
546.16	42412.85
546.33	42164.75
546.50	42014.96
546.67	42518.17
546.83	42148.37
547.00	42749.88
547.17	42670.31
547.34	42742.86
547.50	42820.10
547.67	43012.02
547.84	43288.21
548.00	43309.27
548.17	43189.91
548.34	42782.65
548.51	43264.80
548.67	42836.48
548.84	43110.33
549.01	42876.27
549.18	42906.70
549.34	42820.10
549.51	42948.83
549.68	42890.32
549.84	42939.47
550.01	43597.16
550.18	42920.74
550.34	43100.97
550.51	43260.12
550.68	43782.06
550.84	42738.18
551.01	43805.47
551.18	43400.55
551.34	43257.78
551.51	43707.16
551.68	43709.50
551.84	43817.17
552.01	43704.82
552.18	43878.02
552.34	43267.14
552.51	43372.47
552.68	43452.05
552.84	43461.41
553.01	43885.04
553.18	44245.49
553.34	43835.89
553.51	43519.92
553.67	43995.05
553.84	44411.67
554.01	43887.39
554.17	44385.92
554.34	44451.45
554.51	43969.30
554.67	43929.51
554.84	44079.31
555.00	43957.60
555.17	43878.02
555.33	44114.42
555.50	44121.44
555.67	44048.88
555.83	43976.33
556.00	44320.38
556.16	44790.83
556.33	44133.14
556.50	44006.75
556.66	44636.36
556.83	44156.55
556.99	44804.88
557.16	44528.69
557.32	44563.80
557.49	44690.19
557.65	44451.45
557.82	44088.67
557.98	44512.31
558.15	44666.78
558.32	44811.90
558.48	44456.14
558.65	44287.62
558.81	44662.10
558.98	44304.00
559.14	44624.65
559.31	44856.37
559.47	44390.60
559.64	44783.81
559.80	44856.37
559.97	44687.85
560.13	44334.43
560.30	44624.65
560.46	45064.67
560.63	44638.70
560.79	44973.39
560.96	45174.68
561.12	45186.38
561.29	45085.74
561.45	44982.76
561.61	44912.54
561.78	44556.78
561.94	44917.22
562.11	44697.21
562.27	44804.88
562.44	44947.65
562.60	45535.12
562.77	44690.19
562.93	45132.55
563.10	44842.32
563.26	44718.28
563.42	45008.50
563.59	44584.86
563.75	45511.72
563.92	45500.01
564.08	45195.74
564.24	45078.72
564.41	44999.14
564.57	45045.95
564.74	44989.78
564.90	45106.80
565.07	45329.16
565.23	44849.35
565.39	45008.50
565.56	45345.54
565.72	45071.70
565.88	45209.79
566.05	45422.78
566.21	45247.24
566.38	45350.22
566.54	45076.38
566.70	45485.97
566.87	45478.95
567.03	45762.15
567.19	46155.36
567.36	44737.00
567.52	44842.32
567.68	45675.55
567.85	44985.10
568.01	45359.58
568.17	45029.57
568.34	45619.38
568.50	45125.53
568.66	45621.72
568.83	45291.71
568.99	45102.12
569.15	45083.40
569.32	45237.87
569.48	45237.87
569.64	45612.36
569.81	45511.72
569.97	45492.99
570.13	45614.70
570.30	45078.72
570.46	45411.07
570.62	44919.56
570.78	45385.33
570.95	45256.60
571.11	45478.95
571.27	45375.97
571.43	45064.67
571.60	45240.21
571.76	44947.65
571.92	45455.54
572.09	45165.32
572.25	45317.45
572.41	45390.01
572.57	45485.97
572.74	45848.75
572.90	45785.56
573.06	45450.86
573.22	45436.82
573.38	45322.13
573.55	45525.76
573.71	45881.52
573.87	45485.97
574.03	45418.10
574.20	45509.38
574.36	45542.14
574.52	45420.44
574.68	45792.58
574.84	45425.12
575.01	45153.62
575.17	45619.38
575.33	45326.81
575.49	45404.05
575.65	46040.68
575.82	45813.65
575.98	45490.65
576.14	45776.20
576.30	45652.15
576.46	45478.95
576.62	45663.85
576.79	45713.00
576.95	45469.59
577.11	45345.54
577.27	45411.07
577.43	45879.18
577.59	45308.09
577.75	45408.73
577.92	45162.98
578.08	45450.86
578.24	45144.25
578.40	45221.49
578.56	45422.78
578.72	45174.68
578.88	45701.30
579.04	45860.46
579.21	45652.15
579.37	45549.17
579.53	45600.66
579.69	45296.39
579.85	45558.53
580.01	45439.16
580.17	46220.90
580.33	45823.01
580.49	45757.47
580.65	45998.55
580.82	45595.98
580.98	45570.23
581.14	46129.62
581.30	45949.40
581.46	45247.24
581.62	45907.27
581.78	45904.93
581.94	45867.48
582.10	45750.45
582.26	45565.55
582.42	45869.82
582.58	45626.40
582.74	45715.34
582.90	45645.13
583.06	45869.82
583.22	45806.62
583.38	46288.77
583.54	46174.09
583.70	46054.72
583.86	45600.66
584.02	45792.58
584.18	45867.48
584.34	46040.68
584.50	45858.12
584.66	45949.40
584.82	45216.81
584.98	45989.19
585.14	45710.66
585.30	45605.34
585.46	45317.45
585.62	45715.34
585.78	45970.46
585.94	45401.71
586.10	45081.06
586.26	45818.33
586.42	46017.27
586.58	46508.79
586.74	46190.47
586.90	45600.66
587.06	46036.00
587.22	46085.15
587.38	45591.30
587.54	45778.54
587.70	45907.27
587.86	45799.60
588.02	45696.62
588.18	45886.20
588.34	45804.28
588.49	45008.50
588.65	45528.10
588.81	45305.75
588.97	45474.27
589.13	45631.08
589.29	45741.09
589.45	45191.06
589.61	45659.17
589.77	45488.31
589.93	45827.69
590.08	46195.15
