SpectraSuite Data File
++++++++++++++++++++++++++++++++++++
Date: Fri Oct 25 10:44:47 EDT 2013
User: price-jones
Dark Spectrum Present: No
Reference Spectrum Present: No
Number of Sampled Component Spectra: 1
Spectrometers: USB2+H05261
Integration Time (usec): 100000 (USB2+H05261)
Spectra Averaged: 1 (USB2+H05261)
Boxcar Smoothing: 0 (USB2+H05261)
Correct for Electrical Dark: No (USB2+H05261)
Strobe/Lamp Enabled: No (USB2+H05261)
Correct for Detector Non-linearity: No (USB2+H05261)
Correct for Stray Light: No (USB2+H05261)
Number of Pixels in Processed Spectrum: 2048
>>>>>Begin Processed Spectral Data<<<<<
365.73	135.75
365.92	135.75
366.12	135.75
366.32	4.68
366.52	74.90
366.72	21.06
366.91	11.70
367.11	42.13
367.31	74.90
367.51	46.81
367.70	30.43
367.90	25.75
368.10	0.00
368.30	35.11
368.49	53.83
368.69	25.75
368.89	0.00
369.09	51.49
369.28	74.90
369.48	9.36
369.68	63.19
369.87	133.41
370.07	51.49
370.27	91.28
370.47	175.54
370.66	332.36
370.86	390.87
371.06	325.33
371.25	437.68
371.45	395.55
371.65	367.46
371.84	416.62
372.04	435.34
372.24	472.79
372.44	540.66
372.63	463.43
372.83	458.74
373.03	489.17
373.22	472.79
373.42	524.28
373.62	440.02
373.81	454.06
374.01	456.40
374.21	498.53
374.40	468.11
374.60	627.26
374.79	601.52
374.99	519.60
375.19	472.79
375.38	535.98
375.58	468.11
375.78	559.39
375.97	543.00
376.17	547.69
376.37	564.07
376.56	566.41
376.76	517.26
376.95	561.73
377.15	603.86
377.35	524.28
377.54	617.90
377.74	608.54
377.93	568.75
378.13	552.37
378.33	610.88
378.52	615.56
378.72	648.33
378.91	592.16
379.11	636.63
379.31	571.09
379.50	596.84
379.70	592.16
379.89	711.52
380.09	662.37
380.28	634.29
380.48	622.58
380.68	692.80
380.87	667.05
381.07	688.12
381.26	655.35
381.46	624.92
381.65	695.14
381.85	636.63
382.04	620.24
382.24	713.86
382.43	657.69
382.63	683.44
382.83	765.36
383.02	695.14
383.22	741.95
383.41	709.18
383.61	615.56
383.80	653.01
384.00	720.88
384.19	734.93
384.39	631.94
384.58	755.99
384.78	760.67
384.97	718.54
385.17	690.46
385.36	718.54
385.56	730.25
385.75	751.31
385.95	805.14
386.14	805.14
386.34	744.29
386.53	779.40
386.72	774.72
386.92	802.80
387.11	821.53
387.31	816.85
387.50	791.10
387.70	784.08
387.89	774.72
388.09	786.42
388.28	727.91
388.48	847.27
388.67	901.11
388.86	861.32
389.06	854.30
389.25	833.23
389.45	840.25
389.64	833.23
389.84	924.51
390.03	880.04
390.22	905.79
390.42	849.61
390.61	854.30
390.81	1034.52
391.00	973.66
391.19	943.24
391.39	952.60
391.58	1036.86
391.78	866.00
391.97	999.41
392.16	917.49
392.36	1046.22
392.55	903.45
392.75	999.41
392.94	992.39
393.13	938.55
393.33	840.25
393.52	1057.92
393.71	1104.73
393.91	999.41
394.10	997.07
394.29	1081.33
394.49	1053.24
394.68	1055.58
394.88	1097.71
395.07	1200.69
395.26	1151.54
395.46	1053.24
395.65	1203.04
395.84	1179.63
396.04	1177.29
396.23	994.73
396.42	1123.46
396.62	1142.18
396.81	1130.48
397.00	1074.31
397.19	1153.88
397.39	1228.78
397.58	1249.85
397.77	1107.07
397.97	1240.48
398.16	1200.69
398.35	1334.11
398.55	1341.13
398.74	1266.23
398.93	1423.05
399.12	1291.98
399.32	1369.21
399.51	1336.45
399.70	1385.60
399.90	1343.47
400.09	1343.47
400.28	1472.20
400.47	1469.86
400.67	1406.66
400.86	1444.11
401.05	1479.22
401.24	1575.18
401.44	1502.62
401.63	1418.36
401.82	1474.54
402.01	1486.24
402.21	1551.78
402.40	1554.12
402.59	1523.69
402.78	1551.78
402.97	1586.88
403.17	1640.72
403.36	1657.10
403.55	1605.61
403.74	1678.16
403.93	1586.88
404.13	1579.86
404.32	1584.54
404.51	1699.23
404.70	1717.95
404.89	1724.97
405.09	1863.07
405.28	1675.82
405.47	1645.40
405.66	1720.29
405.85	1767.10
406.05	1764.76
406.24	1778.81
406.43	1736.68
406.62	1858.39
406.81	1870.09
407.00	1823.28
407.20	1760.08
407.39	1867.75
407.58	1909.88
407.77	1783.49
407.96	1898.17
408.15	1928.60
408.34	1874.77
408.54	1989.46
408.73	2017.54
408.92	2003.50
409.11	2022.22
409.30	2108.82
409.49	2036.27
409.68	2019.88
409.87	2019.88
410.07	2057.33
410.26	2165.00
410.45	2211.81
410.64	2207.13
410.83	2214.15
411.02	2153.29
411.21	2324.15
411.40	2244.57
411.59	2305.43
411.78	2253.94
411.98	2235.21
412.17	2265.64
412.36	2340.54
412.55	2370.96
412.74	2356.92
412.93	2375.64
413.12	2420.11
413.31	2443.52
413.50	2466.92
413.69	2483.31
413.88	2661.19
414.07	2626.08
414.26	2640.12
414.45	2642.46
414.64	2612.04
414.83	2677.57
415.02	2792.26
415.22	2796.94
415.41	2796.94
415.60	2628.42
415.79	2834.39
415.98	2878.86
416.17	2958.44
416.36	2881.20
416.55	2813.32
416.74	2799.28
416.93	3082.49
417.12	2991.20
417.31	2939.71
417.50	3040.36
417.69	3122.27
417.88	3082.49
418.07	3110.57
418.26	3049.72
418.45	3122.27
418.64	3255.69
418.83	3122.27
419.02	3180.79
419.21	3351.65
419.39	3300.16
419.58	3243.98
419.77	3183.13
419.96	3232.28
420.15	3323.56
420.34	3213.56
420.53	3400.80
420.72	3330.58
420.91	3358.67
421.10	3440.59
421.29	3499.10
421.48	3405.48
421.67	3456.97
421.86	3412.50
422.05	3389.10
422.24	3323.56
422.43	3396.12
422.61	3538.89
422.80	3426.54
422.99	3496.76
423.18	3442.93
423.37	3522.51
423.56	3524.85
423.75	3562.30
423.94	3641.87
424.13	3309.52
424.32	3335.26
424.50	3487.40
424.69	3613.79
424.88	3536.55
425.07	3571.66
425.26	3517.83
425.45	3531.87
425.64	3501.44
425.83	3492.08
426.01	3627.83
426.20	3492.08
426.39	3714.43
426.58	3541.23
426.77	3618.47
426.96	3665.28
427.15	3648.90
427.33	3728.47
427.52	3658.26
427.71	3824.44
427.90	3857.20
428.09	3700.39
428.28	3723.79
428.46	3819.75
428.65	3852.52
428.84	3932.10
429.03	3843.16
429.22	3763.58
429.40	3747.20
429.59	3850.18
429.78	3733.15
429.97	3667.62
430.16	3763.58
430.34	3691.02
430.53	3871.25
430.72	3885.29
430.91	3941.46
431.10	3992.95
431.28	4081.89
431.47	4149.77
431.66	4227.01
431.85	4154.45
432.03	4203.60
432.22	4285.52
432.41	4189.56
432.60	4170.83
432.79	4320.63
432.97	4292.54
433.16	4346.37
433.35	4325.31
433.54	4234.03
433.72	4334.67
433.91	4217.65
434.10	4212.96
434.28	4327.65
434.47	4322.97
434.66	4524.26
434.85	4624.90
435.03	4491.49
435.22	4479.79
435.41	4648.30
435.59	4566.39
435.78	4547.66
435.97	4547.66
436.16	4601.49
436.34	4547.66
436.53	4655.33
436.72	4669.37
436.90	4519.57
437.09	4594.47
437.28	4683.41
437.46	4655.33
437.65	4594.47
437.84	4706.82
438.02	4772.35
438.21	4737.24
438.40	4587.45
438.58	4833.21
438.77	4945.55
438.96	4854.27
439.14	4884.70
439.33	5048.54
439.52	5069.60
439.70	5121.09
439.89	5020.45
440.08	5233.44
440.26	5294.29
440.45	5240.46
440.63	5420.68
440.82	5373.87
441.01	5336.42
441.19	5408.98
441.38	5540.05
441.57	5376.21
441.75	5593.88
441.94	5544.73
442.12	5664.10
442.31	5746.02
442.50	5781.12
442.68	5668.78
442.87	5774.10
443.05	5774.10
443.24	5736.65
443.43	5746.02
443.61	5682.82
443.80	6059.65
443.98	5832.62
444.17	5647.71
444.35	6031.56
444.54	5867.72
444.73	5898.15
444.91	5813.89
445.10	5837.30
445.28	5762.40
445.47	5795.17
445.65	5994.11
445.84	5841.98
446.02	6064.33
446.21	5954.32
446.39	6045.60
446.58	6015.18
446.77	6022.20
446.95	5921.56
447.14	5947.30
447.32	6050.28
447.51	5909.85
447.69	5849.00
447.88	5968.37
448.06	6005.81
448.25	5858.36
448.43	6080.71
448.62	5870.06
448.80	5954.32
448.99	6193.06
449.17	6200.08
449.36	6143.91
449.54	6209.44
449.73	6216.46
449.91	6249.23
450.10	6286.68
450.28	6544.14
450.46	6494.99
450.65	6396.68
450.83	6450.52
451.02	6459.88
451.20	6612.01
451.39	6562.86
451.57	6471.58
451.76	6480.94
451.94	6438.81
452.13	6722.02
452.31	6464.56
452.49	6349.87
452.68	6555.84
452.86	6532.44
453.05	6401.37
453.23	6644.78
453.42	6677.55
453.60	6597.97
453.78	6691.59
453.97	6544.14
454.15	6729.04
454.34	6614.35
454.52	6834.36
454.70	6862.45
454.89	6906.92
455.07	6869.47
455.26	6778.19
455.44	6869.47
455.62	6815.64
455.81	6897.56
455.99	7016.93
456.17	7190.13
456.36	7059.06
456.54	7178.42
456.73	7070.76
456.91	7407.80
457.09	7393.75
457.28	7258.00
457.46	7169.06
457.64	7419.50
457.83	7332.90
458.01	7187.79
458.19	7506.10
458.38	7351.62
458.56	7473.33
458.74	7323.54
458.93	7562.27
459.11	7438.22
459.29	7698.02
459.48	7564.61
459.66	7662.91
459.84	7487.37
460.03	7733.13
460.21	7456.95
460.39	7817.39
460.57	7592.70
460.76	7871.22
460.94	7712.07
461.12	7641.85
461.31	7859.52
461.49	7726.11
461.67	7826.75
461.85	7903.99
462.04	7850.16
462.22	8056.12
462.40	7927.39
462.59	8112.30
462.77	8060.80
462.95	8124.00
463.13	7896.97
463.32	8114.64
463.50	8140.38
463.68	8077.19
463.86	8255.07
464.05	8039.74
464.23	8116.98
464.41	8205.92
464.59	8086.55
464.78	8390.82
464.96	8241.03
465.14	8355.71
465.32	8388.48
465.50	8449.33
465.69	8355.71
465.87	8205.92
466.05	8304.22
466.23	8217.62
466.41	8336.99
466.60	8512.53
466.78	8414.23
466.96	8533.59
467.14	8332.31
467.32	8446.99
467.51	8713.81
467.69	8484.44
467.87	8454.02
468.05	8641.26
468.23	8526.57
468.41	8454.02
468.60	8568.70
468.78	8723.18
468.96	8585.08
469.14	8603.81
469.32	8739.56
469.50	8692.75
469.69	8924.46
469.87	8910.42
470.05	8896.38
470.23	8751.26
470.41	8629.56
470.59	9132.77
470.77	8945.53
470.95	9245.12
471.14	8978.30
471.32	9088.30
471.50	9476.83
471.68	9324.69
471.86	9315.33
472.04	9535.34
472.22	9640.67
472.40	9420.66
472.58	9249.80
472.77	9645.35
472.95	9603.22
473.13	9830.25
473.31	9525.98
473.49	9415.98
473.67	9507.26
473.85	9727.27
474.03	10059.62
474.21	10129.84
474.39	10097.07
474.57	10178.99
474.75	10218.78
474.93	10310.06
475.12	10113.45
475.30	10324.10
475.48	10171.97
475.66	10270.27
475.84	10366.23
476.02	10609.65
476.20	10450.49
476.38	10651.78
476.56	10848.38
476.74	10590.92
476.92	10876.47
477.10	10963.07
477.28	10834.34
477.46	11023.92
477.64	11164.36
477.82	11234.57
478.00	11286.06
478.18	11470.97
478.36	11548.20
478.54	11552.88
478.72	11756.51
478.90	11726.08
479.08	11817.36
479.26	11997.59
479.44	11925.03
479.62	12025.67
479.80	12269.09
479.98	12060.78
480.16	12248.02
480.34	12283.13
480.52	12655.28
480.70	12493.78
480.88	12496.12
481.06	12631.87
481.24	12879.97
481.41	12947.84
481.59	12999.34
481.77	13137.43
481.95	13111.68
482.13	13411.27
482.31	13212.32
482.49	13465.10
482.67	13760.01
482.85	13867.67
483.03	13848.95
483.21	14214.07
483.39	14008.11
483.57	14150.88
483.74	14235.14
483.92	14326.42
484.10	14015.13
484.28	14288.97
484.46	14878.79
484.64	15056.67
484.82	14721.97
485.00	15021.56
485.18	15117.52
485.35	15218.16
485.53	14792.19
485.71	15143.27
485.89	15323.49
486.07	15269.66
486.25	15372.64
486.43	15583.29
486.61	15667.55
486.78	15978.84
486.96	15983.52
487.14	16603.76
487.32	16248.00
487.50	16446.94
487.68	16589.72
487.85	17041.44
488.03	16987.61
488.21	17137.40
488.39	16905.69
488.57	16936.12
488.75	17221.66
488.92	17380.82
489.10	17612.53
489.28	17869.99
489.46	18178.94
489.64	18120.43
489.81	18597.90
489.99	18359.16
490.17	18607.26
490.35	18525.34
490.53	18747.69
490.70	18860.04
490.88	18874.08
491.06	19077.71
491.24	19157.28
491.41	19016.85
491.59	19335.17
491.77	19307.08
491.95	19550.49
492.13	19405.38
492.30	19555.18
492.48	19737.74
492.66	20009.24
492.84	19822.00
493.01	20467.98
493.19	20182.44
493.37	20624.80
493.54	20301.81
493.72	20624.80
493.90	20858.85
494.08	20758.21
494.25	21095.25
494.43	21521.23
494.61	21556.33
494.79	21549.31
494.96	21507.18
495.14	21797.41
495.32	21832.52
495.49	21476.76
495.67	21722.51
495.85	22050.19
496.02	22188.28
496.20	22298.28
496.38	22281.90
496.55	22719.58
496.73	22902.14
496.91	22920.87
497.09	22750.01
497.26	23049.60
497.44	23206.41
497.62	23293.01
497.79	23651.11
497.97	23316.42
498.14	23475.57
498.32	23484.94
498.50	23843.04
498.67	24095.82
498.85	23779.84
499.03	24121.56
499.20	24393.06
499.38	24390.72
499.56	24081.77
499.73	24610.73
499.91	24418.81
500.08	24486.68
500.26	24079.43
500.44	24790.95
500.61	24793.29
500.79	24711.38
500.97	24814.36
501.14	25275.45
501.32	25102.25
501.49	25249.70
501.67	25362.04
501.84	25553.97
502.02	25254.38
502.20	25614.82
502.37	25928.45
502.55	25902.71
502.72	26045.48
502.90	26052.50
503.07	26031.44
503.25	26132.08
503.43	25792.70
503.60	26061.87
503.78	26256.13
503.95	26153.15
504.13	26373.16
504.30	26719.56
504.48	26441.03
504.65	26747.64
504.83	26955.95
505.01	27302.35
505.18	26586.15
505.36	27339.80
505.53	27143.19
505.71	27267.24
505.88	27646.41
506.06	27480.23
506.23	27084.68
506.41	27360.86
506.58	27445.12
506.76	27585.55
506.93	27761.09
507.11	27777.48
507.28	27828.97
507.46	27737.69
507.63	27999.83
507.81	28170.69
507.98	28070.04
508.16	28273.67
508.33	28229.20
508.50	28512.41
508.68	28648.16
508.85	29312.87
509.03	28430.49
509.20	28835.40
509.38	29017.96
509.55	28994.56
509.73	29017.96
509.90	28872.85
510.08	29228.61
510.25	29549.26
510.42	29790.34
510.60	29476.71
510.77	29369.04
510.95	29392.45
511.12	29504.79
511.30	29862.90
511.47	30176.53
511.64	29647.57
511.82	30089.93
511.99	29785.66
512.17	30309.94
512.34	30291.21
512.51	30295.89
512.69	30426.96
512.86	30445.69
513.04	30679.74
513.21	30899.75
513.38	30366.11
513.56	30808.47
513.73	30405.90
513.90	30937.20
514.08	30637.61
514.25	31019.12
514.43	30834.22
514.60	31021.46
514.77	31021.46
514.95	31512.97
515.12	31189.98
515.29	31480.21
515.47	31299.98
515.64	31915.54
515.81	31538.72
515.99	31620.64
516.16	31534.04
516.33	31047.21
516.51	31716.60
516.68	31484.89
516.85	31637.02
517.03	31852.35
517.20	31775.11
517.37	31896.82
517.54	32320.46
517.72	32119.17
517.89	32294.71
518.06	32070.02
518.24	31983.42
518.41	32414.08
518.58	32418.76
518.75	32620.05
518.93	33046.02
519.10	32467.91
519.27	33242.63
519.45	32645.79
519.62	33099.86
519.79	33207.52
519.96	33010.92
520.14	33156.03
520.31	33027.30
520.48	33097.52
520.65	33460.30
520.83	33944.79
521.00	33703.71
521.17	34279.49
521.34	33729.46
521.52	33958.83
521.69	33816.06
521.86	34134.37
522.03	34363.75
522.20	34024.37
522.38	34377.79
522.55	34506.52
522.72	34216.29
522.89	34319.28
523.07	34653.97
523.24	34122.67
523.41	34637.59
523.58	34682.06
523.75	34836.53
523.92	34700.78
524.10	35084.63
524.27	34932.50
524.44	35201.66
524.61	35171.23
524.78	35311.66
524.96	35002.71
525.13	35239.11
525.30	35721.26
525.47	35662.74
525.64	35571.46
525.81	35356.13
525.98	35325.71
526.16	34836.53
526.33	35346.77
526.50	35562.10
526.67	35143.14
526.84	35262.51
527.01	35524.65
527.18	35608.91
527.36	35831.26
527.53	35714.23
527.70	36301.71
527.87	36161.28
528.04	35990.42
528.21	36130.85
528.38	36215.11
528.55	36425.76
528.72	36701.94
528.89	36795.56
529.07	36158.94
529.24	36215.11
529.41	36503.00
529.58	36275.96
529.75	36793.22
529.92	36978.12
530.09	36451.50
530.26	36928.97
530.43	36898.55
530.60	36765.14
530.77	36917.27
530.94	37198.13
531.11	36821.31
531.28	37156.00
531.46	37198.13
531.63	37251.97
531.80	37507.08
531.97	37158.34
532.14	37371.33
532.31	37153.66
532.48	37298.78
532.65	37612.41
532.82	37961.15
532.99	37347.93
533.16	37261.33
533.33	37727.10
533.50	37944.76
533.67	37914.34
533.84	38012.64
534.01	37956.47
534.18	37914.34
534.35	38382.45
534.52	38183.50
534.69	37916.68
534.86	38232.65
535.03	38007.96
535.20	38532.24
535.37	38440.96
535.54	38602.46
535.71	38770.97
535.88	38232.65
536.05	38604.80
536.22	38829.49
536.38	38843.53
536.55	38653.95
536.72	38440.96
536.89	38286.48
537.06	38583.73
537.23	38579.05
537.40	38740.55
537.57	38738.21
537.74	38693.74
537.91	39491.86
538.08	38913.75
538.25	38752.25
538.42	38831.83
538.59	39063.54
538.75	38871.62
538.92	39182.91
539.09	38778.00
539.26	39372.49
539.43	39218.02
539.60	39131.42
539.77	38930.13
539.94	39522.29
540.11	39047.16
540.28	39402.92
540.44	39454.41
540.61	39349.09
540.78	39662.72
540.95	39262.49
541.12	39529.31
541.29	39405.26
541.46	39248.44
541.62	39543.35
541.79	40034.86
541.96	39089.29
542.13	39658.04
542.30	40100.40
542.47	39447.39
542.63	39887.41
542.80	39782.09
542.97	39868.69
543.14	40540.42
543.31	40744.05
543.48	40252.53
543.64	41006.19
543.81	40610.64
543.98	41031.93
544.15	40872.78
544.32	41310.46
544.48	40680.85
544.65	40818.94
544.82	40664.47
544.99	40900.86
545.16	40849.37
545.32	40521.69
545.49	41146.62
545.66	41483.66
545.83	41390.03
546.00	41490.68
546.16	40896.18
546.33	40706.60
546.50	40744.05
546.67	41439.18
546.83	40730.00
547.00	41476.63
547.17	41144.28
547.34	41691.96
547.50	41097.47
547.67	41329.18
547.84	41265.99
548.00	41752.82
548.17	41741.11
548.34	41663.88
548.51	41785.58
548.67	41708.35
548.84	41832.39
549.01	41544.51
549.18	41539.83
549.34	41748.14
549.51	41680.26
549.68	41572.60
549.84	41375.99
550.01	42106.24
550.18	41390.03
550.34	42288.80
550.51	42005.59
550.68	42249.01
550.84	41818.35
551.01	42082.83
551.18	41911.97
551.34	42043.04
551.51	41825.37
551.68	42256.03
551.84	42237.31
552.01	41907.29
552.18	42316.89
552.34	42143.69
552.51	42597.75
552.68	42071.13
552.84	42539.24
553.01	42359.02
553.18	42749.88
553.34	42174.11
553.51	42101.56
553.67	42382.42
553.84	42904.36
554.01	42649.24
554.17	42518.17
554.34	42611.79
554.51	42677.33
554.67	42572.00
554.84	42775.63
555.00	42504.13
555.17	42459.66
555.33	42705.41
555.50	43180.54
555.67	42721.80
555.83	42560.30
556.00	43122.03
556.16	43353.74
556.33	42937.13
556.50	42909.04
556.66	42752.23
556.83	42667.97
556.99	43288.21
557.16	43540.99
557.32	42979.26
557.49	43407.58
557.65	42829.46
557.82	42939.47
557.98	43262.46
558.15	43030.75
558.32	43115.01
558.48	42873.93
558.65	43091.60
558.81	42852.87
558.98	42892.66
559.14	43028.41
559.31	43297.57
559.47	43477.79
559.64	43419.28
559.80	43636.95
559.97	42967.55
560.13	43213.31
560.30	43412.26
560.46	43079.90
560.63	43318.64
560.79	43737.59
560.96	43913.13
561.12	43274.16
561.29	43430.98
561.45	43475.45
561.61	43557.37
561.78	43342.04
561.94	43185.22
562.11	43529.28
562.27	43337.36
562.44	43711.84
562.60	43753.97
562.77	43749.29
562.93	43735.25
563.10	43533.96
563.26	43470.77
563.42	43924.83
563.59	43447.36
563.75	43477.79
563.92	44109.74
564.08	43611.20
564.24	43704.82
564.41	43978.67
564.57	44011.43
564.74	43831.21
564.90	43739.93
565.07	43957.60
565.23	43690.78
565.39	43985.69
565.56	44194.00
565.72	43323.32
565.88	43873.34
566.05	44128.46
566.21	43941.22
566.38	43831.21
566.54	44163.57
566.70	44259.53
566.87	44205.70
567.03	44137.82
567.19	44172.93
567.36	44046.54
567.52	43676.74
567.68	44222.08
567.85	43686.10
568.01	44098.03
568.17	44165.91
568.34	43875.68
568.50	44140.16
568.66	44266.55
568.83	44364.85
568.99	44002.07
569.15	43777.38
569.32	43847.60
569.48	43821.85
569.64	44112.08
569.81	44163.57
569.97	44116.76
570.13	44044.20
570.30	43847.60
570.46	43496.52
570.62	44067.61
570.78	44135.48
570.95	43863.98
571.11	44540.39
571.27	43863.98
571.43	44168.25
571.60	44149.53
571.76	44027.82
571.92	44404.64
572.09	44495.92
572.25	43779.72
572.41	44137.82
572.57	44156.55
572.74	44488.90
572.90	44334.43
573.06	44238.47
573.22	44266.55
573.38	44004.41
573.55	44428.05
573.71	44334.43
573.87	44428.05
574.03	44088.67
574.20	44006.75
574.36	44327.41
574.52	44512.31
574.68	44561.46
574.84	44308.68
575.01	44383.58
575.17	44547.42
575.33	44360.17
575.49	43892.07
575.65	44395.28
575.82	44657.42
575.98	44449.11
576.14	44776.79
576.30	44535.71
576.46	44626.99
576.62	44133.14
576.79	44575.50
576.95	43936.54
577.11	44238.47
577.27	44797.85
577.43	44208.04
577.59	44257.19
577.75	44430.39
577.92	44282.94
578.08	44215.06
578.24	43943.56
578.40	44051.22
578.56	44093.35
578.72	44102.71
578.88	44229.10
579.04	44278.25
579.21	44587.21
579.37	43985.69
579.53	44500.61
579.69	44374.22
579.85	44561.46
580.01	44540.39
580.17	44098.03
580.33	44355.49
580.49	44584.86
580.65	44507.63
580.82	44404.64
580.98	44713.59
581.14	44495.92
581.30	44444.43
581.46	44666.78
581.62	44622.31
581.78	44493.58
581.94	44612.95
582.10	44348.47
582.26	44844.66
582.42	44158.89
582.58	44414.01
582.74	44231.44
582.90	45165.32
583.06	44912.54
583.22	44495.92
583.38	44715.93
583.54	44540.39
583.70	44151.87
583.86	44477.20
584.02	44257.19
584.18	44458.48
584.34	44215.06
584.50	44390.60
584.66	44273.57
584.82	44481.88
584.98	44514.65
585.14	44643.38
585.30	44643.38
585.46	44479.54
585.62	44509.97
585.78	44301.66
585.94	44229.10
586.10	44392.94
586.26	44292.30
586.42	44758.06
586.58	45031.91
586.74	44854.03
586.90	44418.69
587.06	44388.26
587.22	44507.63
587.38	43976.33
587.54	44406.98
587.70	44839.98
587.86	44507.63
588.02	44322.72
588.18	44818.92
588.34	44203.36
588.49	44091.01
588.65	44004.41
588.81	44072.29
588.97	44821.26
589.13	44053.56
589.29	44531.03
589.45	44577.84
589.61	44296.98
589.77	44444.43
589.93	44708.91
590.08	44673.81
590.24	44737.00
