SpectraSuite Data File
++++++++++++++++++++++++++++++++++++
Date: Fri Oct 25 11:34:33 EDT 2013
User: price-jones
Dark Spectrum Present: No
Reference Spectrum Present: No
Number of Sampled Component Spectra: 1
Spectrometers: USB2+H05261
Integration Time (usec): 100000 (USB2+H05261)
Spectra Averaged: 1 (USB2+H05261)
Boxcar Smoothing: 0 (USB2+H05261)
Correct for Electrical Dark: No (USB2+H05261)
Strobe/Lamp Enabled: No (USB2+H05261)
Correct for Detector Non-linearity: No (USB2+H05261)
Correct for Stray Light: No (USB2+H05261)
Number of Pixels in Processed Spectrum: 2048
>>>>>Begin Processed Spectral Data<<<<<
365.73	276.18
365.92	276.18
366.12	276.18
366.32	182.56
366.52	161.50
366.72	191.92
366.91	121.71
367.11	194.26
367.31	100.64
367.51	222.35
367.70	168.52
367.90	262.14
368.10	243.42
368.30	154.48
368.49	180.22
368.69	138.09
368.89	182.56
369.09	131.07
369.28	234.05
369.48	292.57
369.68	229.37
369.87	255.12
370.07	217.67
370.27	285.55
370.47	313.63
370.66	468.11
370.86	416.62
371.06	550.03
371.25	580.45
371.45	550.03
371.65	543.00
371.84	592.16
372.04	521.94
372.24	575.77
372.44	578.11
372.63	578.11
372.83	641.31
373.03	550.03
373.22	664.71
373.42	634.29
373.62	624.92
373.81	697.48
374.01	667.05
374.21	699.82
374.40	603.86
374.60	664.71
374.79	636.63
374.99	720.88
375.19	624.92
375.38	557.05
375.58	638.97
375.78	655.35
375.97	704.50
376.17	741.95
376.37	615.56
376.56	674.07
376.76	627.26
376.95	744.29
377.15	713.86
377.35	718.54
377.54	594.50
377.74	631.94
377.93	695.14
378.13	688.12
378.33	674.07
378.52	655.35
378.72	711.52
378.91	648.33
379.11	674.07
379.31	812.17
379.50	732.59
379.70	805.14
379.89	746.63
380.09	699.82
380.28	795.78
380.48	662.37
380.68	746.63
380.87	802.80
381.07	692.80
381.26	716.20
381.46	713.86
381.65	716.20
381.85	802.80
382.04	744.29
382.24	807.48
382.43	765.36
382.63	795.78
382.83	781.74
383.02	781.74
383.22	849.61
383.41	727.91
383.61	863.66
383.80	957.28
384.00	772.38
384.19	781.74
384.39	798.12
384.58	903.45
384.78	842.59
384.97	833.23
385.17	793.44
385.36	833.23
385.56	805.14
385.75	847.27
385.95	915.15
386.14	882.38
386.34	835.57
386.53	816.85
386.72	826.21
386.92	894.08
387.11	819.19
387.31	854.30
387.50	880.04
387.70	807.48
387.89	851.96
388.09	868.34
388.28	903.45
388.48	877.70
388.67	884.72
388.86	945.58
389.06	919.83
389.25	868.34
389.45	938.55
389.64	961.96
389.84	936.21
390.03	910.47
390.22	889.40
390.42	910.47
390.61	985.37
390.81	912.81
391.00	924.51
391.19	976.00
391.39	1004.09
391.58	1015.79
391.78	1011.11
391.97	966.64
392.16	947.92
392.36	1039.20
392.55	1039.20
392.75	1046.22
392.94	1069.62
393.13	1064.94
393.33	1015.79
393.52	999.41
393.71	1090.69
393.91	1067.28
394.10	1050.90
394.29	1102.39
394.49	1011.11
394.68	1090.69
394.88	1067.28
395.07	1146.86
395.26	1172.61
395.46	1125.80
395.65	1172.61
395.84	1128.14
396.04	1268.57
396.23	1174.95
396.42	1242.82
396.62	1242.82
396.81	1219.42
397.00	1144.52
397.19	1181.97
397.39	1181.97
397.58	1235.80
397.77	1217.08
397.97	1174.95
398.16	1226.44
398.35	1210.06
398.55	1217.08
398.74	1240.48
398.93	1336.45
399.12	1203.04
399.32	1263.89
399.51	1200.69
399.70	1303.68
399.90	1345.81
400.09	1338.79
400.28	1352.83
400.47	1348.15
400.67	1369.21
400.86	1446.45
401.05	1383.26
401.24	1320.06
401.44	1348.15
401.63	1418.36
401.82	1380.92
402.01	1378.58
402.21	1387.94
402.40	1427.73
402.59	1401.98
402.78	1432.41
402.97	1535.39
403.17	1394.96
403.36	1519.01
403.55	1460.49
403.74	1605.61
403.93	1593.90
404.13	1563.48
404.32	1633.69
404.51	1591.56
404.70	1570.50
404.89	1521.35
405.09	1659.44
405.28	1645.40
405.47	1636.03
405.66	1596.25
405.85	1724.97
406.05	1757.74
406.24	1629.01
406.43	1722.63
406.62	1722.63
406.81	1748.38
407.00	1755.40
407.20	1626.67
407.39	1654.76
407.58	1844.34
407.77	1902.86
407.96	1783.49
408.15	1849.02
408.34	1785.83
408.54	1891.15
408.73	1816.26
408.92	1851.36
409.11	1914.56
409.30	1914.56
409.49	1914.56
409.68	1895.83
409.87	1961.37
410.07	1982.43
410.26	2019.88
410.45	1952.01
410.64	2045.63
410.83	2036.27
411.02	2094.78
411.21	2207.13
411.40	2097.12
411.59	2122.87
411.78	2047.97
411.98	2148.61
412.17	2101.80
412.36	2064.35
412.55	2153.29
412.74	2345.22
412.93	2239.89
413.12	2260.96
413.31	2258.62
413.50	2237.55
413.69	2195.42
413.88	2422.45
414.07	2377.98
414.26	2338.20
414.45	2385.01
414.64	2387.35
414.83	2450.54
415.02	2506.71
415.22	2621.40
415.41	2581.61
415.60	2518.42
415.79	2450.54
415.98	2630.76
416.17	2605.02
416.36	2506.71
416.55	2663.53
416.74	2623.74
416.93	2586.29
417.12	2696.30
417.31	2768.85
417.50	2801.62
417.69	2715.02
417.88	2810.98
418.07	2867.16
418.26	2946.73
418.45	2820.35
418.64	2918.65
418.83	2906.95
419.02	2806.30
419.21	2876.52
419.39	2974.82
419.58	2939.71
419.77	2895.24
419.96	2986.52
420.15	3117.59
420.34	3166.74
420.53	3052.06
420.72	3033.33
420.91	3042.70
421.10	3136.32
421.29	3194.83
421.48	3112.91
421.67	3056.74
421.86	3070.78
422.05	3222.92
422.24	3145.68
422.43	3227.60
422.61	3227.60
422.80	3309.52
422.99	3225.26
423.18	3318.88
423.37	3229.94
423.56	3368.03
423.75	3243.98
423.94	3180.79
424.13	3084.83
424.32	3110.57
424.50	3201.85
424.69	3384.41
424.88	3370.37
425.07	3220.58
425.26	3218.24
425.45	3346.97
425.64	3260.37
425.83	3246.32
426.01	3400.80
426.20	3328.24
426.39	3379.73
426.58	3438.25
426.77	3248.66
426.96	3421.86
427.15	3351.65
427.33	3559.95
427.52	3527.19
427.71	3515.48
427.90	3407.82
428.09	3424.20
428.28	3492.08
428.46	3555.27
428.65	3548.25
428.84	3721.45
429.03	3646.55
429.22	3522.51
429.40	3630.17
429.59	3564.64
429.78	3508.46
429.97	3456.97
430.16	3688.68
430.34	3758.90
430.53	3698.05
430.72	3815.07
430.91	3840.82
431.10	3698.05
431.28	3686.34
431.47	3906.35
431.66	3714.43
431.85	3758.90
432.03	3796.35
432.22	3999.98
432.41	3889.97
432.60	3974.23
432.79	3885.29
432.97	3836.14
433.16	4011.68
433.35	3728.47
433.54	3887.63
433.72	3899.33
433.91	4109.98
434.10	3953.16
434.28	4011.68
434.47	4021.04
434.66	4032.74
434.85	4119.34
435.03	4109.98
435.22	4173.18
435.41	4124.02
435.59	4234.03
435.78	4168.49
435.97	4327.65
436.16	4238.71
436.34	4259.78
436.53	4311.27
436.72	4458.72
436.90	4191.90
437.09	4393.19
437.28	4156.79
437.46	4369.78
437.65	4388.50
437.84	4428.29
438.02	4535.96
438.21	4414.25
438.40	4463.40
438.58	4552.34
438.77	4624.90
438.96	4458.72
439.14	4552.34
439.33	4624.90
439.52	4601.49
439.70	4762.99
439.89	4669.37
440.08	4858.95
440.26	4847.25
440.45	4746.61
440.63	4849.59
440.82	4908.10
441.01	4873.00
441.19	4896.40
441.38	4992.36
441.57	4985.34
441.75	4968.96
441.94	5284.93
442.12	5186.63
442.31	5200.67
442.50	5130.45
442.68	5210.03
442.87	5235.78
443.05	5266.21
443.24	5231.10
443.43	5266.21
443.61	5210.03
443.80	5518.98
443.98	5338.76
444.17	5008.75
444.35	5350.46
444.54	5336.42
444.73	5420.68
444.91	5495.58
445.10	5263.86
445.28	5355.15
445.47	5530.69
445.65	5423.02
445.84	5446.43
446.02	5469.83
446.21	5399.62
446.39	5472.17
446.58	5481.53
446.77	5420.68
446.95	5423.02
447.14	5462.81
447.32	5469.83
447.51	5488.56
447.69	5411.32
447.88	5628.99
448.06	5661.76
448.25	5636.01
448.43	5652.39
448.62	5600.90
448.80	5621.97
448.99	5579.84
449.17	5643.03
449.36	5453.45
449.54	5678.14
449.73	5809.21
449.91	5846.66
450.10	5790.49
450.28	5858.36
450.46	6024.54
450.65	5825.59
450.83	5823.25
451.02	5891.13
451.20	6003.47
451.39	5923.90
451.57	6010.50
451.76	5930.92
451.94	5937.94
452.13	5832.62
452.31	6101.78
452.49	5832.62
452.68	6026.88
452.86	6087.73
453.05	6080.71
453.23	6155.61
453.42	6040.92
453.60	5912.19
453.78	6258.59
453.97	6188.38
454.15	6003.47
454.34	6085.39
454.52	6171.99
454.70	6326.47
454.89	6445.84
455.07	6384.98
455.26	6415.41
455.44	6487.96
455.62	6272.64
455.81	6485.62
455.99	6462.22
456.17	6480.94
456.36	6590.95
456.54	6539.46
456.73	6684.57
456.91	6698.61
457.09	6661.16
457.28	6803.94
457.46	6817.98
457.64	6712.66
457.83	6764.15
458.01	6569.88
458.19	6939.69
458.38	6801.60
458.56	6857.77
458.74	6857.77
458.93	6731.38
459.11	6902.24
459.29	7042.67
459.48	6712.66
459.66	7014.59
459.84	6993.52
460.03	7145.66
460.21	7185.44
460.39	6942.03
460.57	6977.14
460.76	7030.97
460.94	7138.63
461.12	7129.27
461.31	7370.35
461.49	7124.59
461.67	7133.95
461.85	7206.51
462.04	7288.43
462.22	7644.19
462.40	7559.93
462.59	7463.97
462.77	7225.23
462.95	7545.89
463.13	7412.48
463.32	7639.51
463.50	7536.52
463.68	7515.46
463.86	7531.84
464.05	7426.52
464.23	7510.78
464.41	7503.76
464.59	7569.29
464.78	7864.20
464.96	7583.34
465.14	7517.80
465.32	7709.72
465.50	7803.35
465.69	7639.51
465.87	7686.32
466.05	7665.25
466.23	7740.15
466.41	7892.29
466.60	7833.77
466.78	7927.39
466.96	7826.75
467.14	7796.32
467.32	8163.79
467.51	8067.83
467.69	7705.04
467.87	7892.29
468.05	8079.53
468.23	8006.97
468.41	7885.26
468.60	8105.28
468.78	8060.80
468.96	7985.91
469.14	8187.19
469.32	8278.47
469.50	7936.76
469.69	8184.85
469.87	8491.46
470.05	8456.36
470.23	8432.95
470.41	8367.42
470.59	8449.33
470.77	8580.40
470.95	8442.31
471.14	8535.93
471.32	8301.88
471.50	8648.28
471.68	8798.07
471.86	8596.79
472.04	8755.94
472.22	8903.40
472.40	8578.06
472.58	8926.80
472.77	9048.51
472.95	9097.66
473.13	9200.65
473.31	9020.42
473.49	8968.93
473.67	8929.14
473.85	9261.50
474.03	9294.27
474.21	9329.38
474.39	9439.38
474.57	9387.89
474.75	9474.49
474.93	9430.02
475.12	9355.12
475.30	9703.86
475.48	9589.17
475.66	9554.07
475.84	9624.28
476.02	9722.59
476.20	9760.03
476.38	9926.21
476.56	10267.93
476.74	10246.87
476.92	10115.80
477.10	10160.27
477.28	10389.64
477.46	10181.33
477.64	10260.91
477.82	10581.56
478.00	10647.10
478.18	10628.37
478.36	10726.68
478.54	10832.00
478.72	10820.30
478.90	10923.28
479.08	10942.00
479.26	11091.80
479.44	11250.96
479.62	11103.50
479.80	11105.84
479.98	11529.48
480.16	11903.96
480.34	11426.50
480.52	11784.60
480.70	11793.96
480.88	11569.27
481.06	11784.60
481.24	11971.84
481.41	12025.67
481.59	12084.19
481.77	12304.20
481.95	12250.36
482.13	12348.67
482.31	12257.39
482.49	12711.45
482.67	12709.11
482.85	12821.45
483.03	13081.25
483.21	12800.39
483.39	13125.72
483.57	13217.01
483.74	13605.53
483.92	13357.44
484.10	13418.29
484.28	13678.09
484.46	13996.40
484.64	13783.41
484.82	13696.82
485.00	13991.72
485.18	14197.69
485.35	14307.69
485.53	14270.25
485.71	14530.05
485.89	14895.17
486.07	14862.40
486.25	14740.69
486.43	14857.72
486.61	14792.19
486.78	15054.33
486.96	15073.05
487.14	15176.03
487.32	15136.24
487.50	15328.17
487.68	15585.63
487.85	16072.46
488.03	15838.41
488.21	16362.69
488.39	16039.69
488.57	16273.74
488.75	16594.40
488.92	16521.84
489.10	16601.42
489.28	16884.62
489.46	16826.11
489.64	16849.52
489.81	17172.51
489.99	17352.73
490.17	17385.50
490.35	17708.49
490.53	17488.48
490.70	17731.90
490.88	17671.04
491.06	17886.37
491.24	17996.38
491.41	18181.28
491.59	18202.35
491.77	18160.22
491.95	18211.71
492.13	18761.73
492.30	18572.15
492.48	18754.71
492.66	18740.67
492.84	18906.85
493.01	19407.72
493.19	19126.86
493.37	19398.36
493.54	19166.65
493.72	19796.25
493.90	19847.74
494.08	19978.81
494.25	20161.37
494.43	19985.83
494.61	20215.21
494.79	20269.04
494.96	20238.61
495.14	20280.74
495.32	20748.85
495.49	20552.24
495.67	20631.82
495.85	20823.75
496.02	21373.77
496.20	21329.30
496.38	21076.52
496.55	21406.54
496.73	21841.88
496.91	21432.29
497.09	21656.98
497.26	21968.27
497.44	21879.33
497.62	21930.82
497.79	22293.60
497.97	22132.11
498.14	22216.36
498.32	22284.24
498.50	22604.89
498.67	22906.82
498.85	22593.19
499.03	22923.21
499.20	23138.54
499.38	23101.09
499.56	22885.76
499.73	23608.98
499.91	23440.47
500.08	23440.47
500.26	23295.35
500.44	23805.59
500.61	23529.41
500.79	23393.65
500.97	23985.81
501.14	23957.72
501.32	23847.72
501.49	23854.74
501.67	24269.01
501.84	24599.03
502.02	24243.27
502.20	24514.77
502.37	24301.78
502.55	24430.51
502.72	24865.85
502.90	24706.70
503.07	24819.04
503.25	24755.85
503.43	24439.87
503.60	25177.14
503.78	25132.67
503.95	25252.04
504.13	25378.43
504.30	25376.09
504.48	25106.93
504.65	25771.64
504.83	25874.62
505.01	25589.08
505.18	25748.23
505.36	26061.87
505.53	25986.97
505.71	25926.11
505.88	26277.19
506.06	25862.92
506.23	26551.04
506.41	26141.44
506.58	26480.82
506.76	26544.02
506.93	26895.10
507.11	26628.27
507.28	26672.74
507.46	26590.83
507.63	27182.98
507.81	27190.00
507.98	26600.19
508.16	27283.62
508.33	27166.60
508.50	27379.59
508.68	26981.70
508.85	27545.76
509.03	27264.90
509.20	27840.67
509.38	27953.02
509.55	27988.13
509.73	28142.60
509.90	28058.34
510.08	27824.29
510.25	27995.15
510.42	28346.23
510.60	28243.24
510.77	28776.89
510.95	28414.10
511.12	28622.41
511.30	28432.83
511.47	29104.56
511.64	28442.19
511.82	29057.75
511.99	28996.90
512.17	28992.22
512.34	28891.57
512.51	29322.23
512.69	29687.36
512.86	28999.24
513.04	29355.00
513.21	29209.89
513.38	29465.00
513.56	29717.78
513.73	29479.05
513.90	29741.19
514.08	29645.23
514.25	29532.88
514.43	30150.78
514.60	29898.00
514.77	29954.18
514.95	30050.14
515.12	30218.66
515.29	30141.42
515.47	30382.49
515.64	30546.33
515.81	30183.55
515.99	30518.25
516.16	30857.62
516.33	30649.32
516.51	31166.57
516.68	31019.12
516.85	30962.95
517.03	31344.45
517.20	31424.03
517.37	30768.68
517.54	31330.41
517.72	31136.15
517.89	30965.29
518.06	31749.37
518.24	31353.82
518.41	31346.79
518.58	31732.98
518.75	31299.98
518.93	31793.84
519.10	31985.76
519.27	31960.02
519.45	32184.71
519.62	32264.28
519.79	32180.03
519.96	32177.68
520.14	32343.86
520.31	32151.94
520.48	32732.39
520.65	32594.30
520.83	32704.31
521.00	32659.84
521.17	32154.28
521.34	33085.81
521.52	32783.88
521.69	32879.85
521.86	33153.69
522.03	33046.02
522.20	33394.76
522.38	33483.70
522.55	33230.93
522.72	33034.32
522.89	33085.81
523.07	33909.68
523.24	33699.03
523.41	33844.15
523.58	33329.23
523.75	33879.25
523.92	33418.17
524.10	33813.72
524.27	33752.87
524.44	33830.10
524.61	34115.65
524.78	34352.04
524.96	33977.56
525.13	34497.16
525.30	34036.07
525.47	34382.47
525.64	34150.76
525.81	34338.00
525.98	34773.34
526.16	34422.26
526.33	34419.92
526.50	34548.65
526.67	34527.58
526.84	34946.54
527.01	34976.97
527.18	34962.92
527.36	35182.93
527.53	35201.66
527.70	35653.38
527.87	35068.25
528.04	35161.87
528.21	34876.32
528.38	35409.96
528.55	35187.61
528.72	35662.74
528.89	35828.92
529.07	35768.07
529.24	35344.43
529.41	35548.06
529.58	35782.11
529.75	35571.46
529.92	35515.29
530.09	35803.17
530.26	35632.32
530.43	35552.74
530.60	35906.16
530.77	35892.12
530.94	36287.67
531.11	36046.59
531.28	36407.03
531.46	36414.05
531.63	36175.32
531.80	36048.93
531.97	36596.62
532.14	36542.78
532.31	36311.07
532.48	36727.69
532.65	36769.82
532.82	36367.24
532.99	36804.92
533.16	36601.30
533.33	37043.66
533.50	37046.00
533.67	36790.88
533.84	36978.12
534.01	37144.30
534.18	36996.85
534.35	37158.34
534.52	37511.77
534.69	37235.58
534.86	37493.04
535.03	37347.93
535.20	37507.08
535.37	37633.47
535.54	37837.10
535.71	37532.83
535.88	37670.92
536.05	37839.44
536.22	38024.34
536.38	37572.62
536.55	37584.32
536.72	37532.83
536.89	37411.12
537.06	38302.87
537.23	37780.93
537.40	37804.33
537.57	38148.39
537.74	37773.91
537.91	38314.57
538.08	38099.24
538.25	38450.32
538.42	38349.68
538.59	38557.99
538.75	38099.24
538.92	38382.45
539.09	38349.68
539.26	38672.67
539.43	38719.48
539.60	38572.03
539.77	38822.47
539.94	38747.57
540.11	38672.67
540.28	38986.30
540.44	38749.91
540.61	38675.01
540.78	38511.17
540.95	38920.77
541.12	38855.23
541.29	38810.76
541.46	39391.22
541.62	39056.52
541.79	39550.37
541.96	38595.43
542.13	38780.34
542.30	39562.08
542.47	39405.26
542.63	39543.35
542.80	39908.47
542.97	39931.88
543.14	39751.66
543.31	39412.28
543.48	40046.57
543.64	39938.90
543.81	39758.68
543.98	39683.78
544.15	39999.76
544.32	40509.99
544.48	40601.27
544.65	40151.89
544.82	40130.83
544.99	40098.06
545.16	40437.44
545.32	40062.95
545.49	40694.89
545.66	40744.05
545.83	40823.62
546.00	40465.52
546.16	40568.51
546.33	40582.55
546.50	40481.91
546.67	40769.79
546.83	40421.05
547.00	40657.45
547.17	40758.09
547.34	40755.75
547.50	40739.36
547.67	41383.01
547.84	40755.75
548.00	40643.40
548.17	42033.68
548.34	41247.26
548.51	41495.36
548.67	40809.58
548.84	41336.20
549.01	41345.56
549.18	41614.72
549.34	41202.79
549.51	41256.62
549.68	41689.62
549.84	41146.62
550.01	41478.97
550.18	40966.40
550.34	41460.25
550.51	41963.46
550.68	41846.44
550.84	41647.49
551.01	42134.32
551.18	41434.50
551.34	41848.78
551.51	41949.42
551.68	41322.16
551.84	41883.89
552.01	41366.63
552.18	41914.31
552.34	41741.11
552.51	41949.42
552.68	41640.47
552.84	42031.34
553.01	42078.15
553.18	42417.53
553.34	41954.10
553.51	41607.70
553.67	42136.66
553.84	42249.01
554.01	42347.31
554.17	42384.76
554.34	42230.29
554.51	42188.16
554.67	42607.11
554.84	42726.48
555.00	42471.36
555.17	42389.44
555.33	42600.09
555.50	42621.16
555.67	42340.29
555.83	42789.67
556.00	42817.76
556.16	43489.49
556.33	42983.94
556.50	42618.81
556.66	43005.00
556.83	42483.06
556.99	43264.80
557.16	43171.18
557.32	43005.00
557.49	43136.07
557.65	43014.37
557.82	43077.56
557.98	43241.40
558.15	43306.93
558.32	42794.36
558.48	43295.23
558.65	43173.52
558.81	43543.33
558.98	42974.58
559.14	42972.24
559.31	43388.85
559.47	43079.90
559.64	43562.05
559.80	43152.46
559.97	43587.80
560.13	43000.32
560.30	43639.29
560.46	43938.88
560.63	43686.10
560.79	43683.76
560.96	43997.39
561.12	43821.85
561.29	43847.60
561.45	43538.65
561.61	43330.34
561.78	43594.82
561.94	43454.39
562.11	43510.56
562.27	43840.57
562.44	43765.68
562.60	43559.71
562.77	43990.37
562.93	43447.36
563.10	44196.34
563.26	43564.39
563.42	44009.09
563.59	43550.35
563.75	43508.22
563.92	43845.26
564.08	43955.26
564.24	44037.18
564.41	43655.67
564.57	43587.80
564.74	44250.17
564.90	43753.97
565.07	44065.27
565.23	44034.84
565.39	43906.11
565.56	44205.70
565.72	43803.13
565.88	43920.15
566.05	43948.24
566.21	44226.76
566.38	44484.22
566.54	44357.83
566.70	44055.90
566.87	44210.38
567.03	44402.30
567.19	44341.45
567.36	44296.98
567.52	44266.55
567.68	44622.31
567.85	44247.83
568.01	44430.39
568.17	44414.01
568.34	44348.47
568.50	44566.14
568.66	44355.49
568.83	44261.87
568.99	44025.48
569.15	44210.38
569.32	44149.53
569.48	44500.61
569.64	44659.76
569.81	44151.87
569.97	44584.86
570.13	44634.02
570.30	44161.23
570.46	44926.58
570.62	44744.02
570.78	44638.70
570.95	44367.20
571.11	44655.08
571.27	44765.09
571.43	44671.46
571.60	44404.64
571.76	44493.58
571.92	44727.64
572.09	44598.91
572.25	44474.86
572.41	44676.15
572.57	44629.34
572.74	45148.93
572.90	44184.63
573.06	44458.48
573.22	44605.93
573.38	44900.84
573.55	44685.51
573.71	45301.07
573.87	44942.97
574.03	44800.19
574.20	45092.76
574.36	44409.32
574.52	45134.89
574.68	45123.19
574.84	44966.37
575.01	45130.21
575.17	45104.46
575.33	45041.27
575.49	44516.99
575.65	45193.40
575.82	44727.64
575.98	44844.66
576.14	45031.91
576.30	45329.16
576.46	45055.31
576.62	45284.68
576.79	44568.48
576.95	44748.70
577.11	44755.72
577.27	44989.78
577.43	45090.42
577.59	45006.16
577.75	45052.97
577.92	44435.07
578.08	44947.65
578.24	45043.61
578.40	45106.80
578.56	45200.43
578.72	44910.20
578.88	45235.53
579.04	44643.38
579.21	44858.71
579.37	45296.39
579.53	44847.00
579.69	44882.11
579.85	44945.31
580.01	45308.09
580.17	44645.72
580.33	45612.36
580.49	45219.15
580.65	45265.96
580.82	44830.62
580.98	44910.20
581.14	44739.34
581.30	45251.92
581.46	44891.48
581.62	44601.25
581.78	44964.03
581.94	45104.46
582.10	45305.75
582.26	45067.02
582.42	44980.42
582.58	45036.59
582.74	45024.89
582.90	44973.39
583.06	45240.21
583.22	45177.02
583.38	45020.20
583.54	44900.84
583.70	44980.42
583.86	44903.18
584.02	44917.22
584.18	45240.21
584.34	45254.26
584.50	45497.67
584.66	45289.37
584.82	45530.44
584.98	45937.69
585.14	45544.48
585.30	45160.64
585.46	45160.64
585.62	45345.54
585.78	45179.36
585.94	45280.00
586.10	45024.89
586.26	44830.62
586.42	45233.19
586.58	45448.52
586.74	44818.92
586.90	45045.95
587.06	45214.47
587.22	45469.59
587.38	45291.71
587.54	45621.72
587.70	45572.57
587.86	45560.87
588.02	45471.93
588.18	45282.34
588.34	45595.98
588.49	45544.48
588.65	45237.87
588.81	45546.82
588.97	45305.75
589.13	45228.51
589.29	45497.67
589.45	45897.91
589.61	45432.14
589.77	45422.78
589.93	45502.35
590.08	45560.87
