SpectraSuite Data File
++++++++++++++++++++++++++++++++++++
Date: Fri Oct 25 11:33:37 EDT 2013
User: price-jones
Dark Spectrum Present: No
Reference Spectrum Present: No
Number of Sampled Component Spectra: 1
Spectrometers: USB2+H05261
Integration Time (usec): 100000 (USB2+H05261)
Spectra Averaged: 1 (USB2+H05261)
Boxcar Smoothing: 0 (USB2+H05261)
Correct for Electrical Dark: No (USB2+H05261)
Strobe/Lamp Enabled: No (USB2+H05261)
Correct for Detector Non-linearity: No (USB2+H05261)
Correct for Stray Light: No (USB2+H05261)
Number of Pixels in Processed Spectrum: 2048
>>>>>Begin Processed Spectral Data<<<<<
365.73	306.61
365.92	306.61
366.12	306.61
366.32	217.67
366.52	182.56
366.72	145.11
366.91	166.18
367.11	159.16
367.31	112.35
367.51	187.24
367.70	138.09
367.90	234.05
368.10	124.05
368.30	208.31
368.49	182.56
368.69	198.95
368.89	159.16
369.09	241.08
369.28	156.82
369.48	175.54
369.68	234.05
369.87	191.92
370.07	168.52
370.27	297.25
370.47	334.70
370.66	489.17
370.86	463.43
371.06	449.38
371.25	545.34
371.45	540.66
371.65	566.41
371.84	585.13
372.04	547.69
372.24	608.54
372.44	631.94
372.63	552.37
372.83	552.37
373.03	585.13
373.22	559.39
373.42	645.99
373.62	662.37
373.81	688.12
374.01	627.26
374.21	725.57
374.40	676.41
374.60	617.90
374.79	669.39
374.99	631.94
375.19	650.67
375.38	655.35
375.58	638.97
375.78	753.65
375.97	702.16
376.17	737.27
376.37	730.25
376.56	683.44
376.76	709.18
376.95	704.50
377.15	648.33
377.35	683.44
377.54	688.12
377.74	657.69
377.93	681.10
378.13	720.88
378.33	755.99
378.52	669.39
378.72	737.27
378.91	667.05
379.11	662.37
379.31	748.97
379.50	741.95
379.70	716.20
379.89	727.91
380.09	683.44
380.28	671.73
380.48	746.63
380.68	699.82
380.87	695.14
381.07	819.19
381.26	695.14
381.46	781.74
381.65	753.65
381.85	765.36
382.04	833.23
382.24	744.29
382.43	784.08
382.63	774.72
382.83	807.48
383.02	784.08
383.22	823.87
383.41	807.48
383.61	784.08
383.80	830.89
384.00	814.51
384.19	734.93
384.39	819.19
384.58	861.32
384.78	849.61
384.97	849.61
385.17	842.59
385.36	844.93
385.56	901.11
385.75	858.98
385.95	809.83
386.14	903.45
386.34	866.00
386.53	833.23
386.72	903.45
386.92	954.94
387.11	816.85
387.31	903.45
387.50	894.08
387.70	770.04
387.89	952.60
388.09	912.81
388.28	938.55
388.48	840.25
388.67	987.71
388.86	922.17
389.06	877.70
389.25	912.81
389.45	884.72
389.64	971.32
389.84	957.28
390.03	856.64
390.22	1004.09
390.42	997.07
390.61	898.77
390.81	938.55
391.00	971.32
391.19	1071.97
391.39	987.71
391.58	992.39
391.78	1076.65
391.97	1095.37
392.16	1036.86
392.36	1041.54
392.55	952.60
392.75	1050.90
392.94	1006.43
393.13	1060.26
393.33	1008.77
393.52	1160.91
393.71	1095.37
393.91	1144.52
394.10	1118.78
394.29	1069.62
394.49	1083.67
394.68	1123.46
394.88	1036.86
395.07	1027.50
395.26	1144.52
395.46	1149.20
395.65	1137.50
395.84	1191.33
396.04	1247.51
396.23	1301.34
396.42	1184.31
396.62	1217.08
396.81	1219.42
397.00	1184.31
397.19	1277.93
397.39	1263.89
397.58	1217.08
397.77	1193.67
397.97	1270.91
398.16	1200.69
398.35	1221.76
398.55	1198.35
398.74	1345.81
398.93	1320.06
399.12	1348.15
399.32	1369.21
399.51	1317.72
399.70	1334.11
399.90	1261.55
400.09	1373.89
400.28	1439.43
400.47	1474.54
400.67	1397.30
400.86	1479.22
401.05	1383.26
401.24	1399.64
401.44	1467.52
401.63	1441.77
401.82	1481.56
402.01	1434.75
402.21	1502.62
402.40	1549.43
402.59	1430.07
402.78	1556.46
402.97	1460.49
403.17	1596.25
403.36	1575.18
403.55	1614.97
403.74	1563.48
403.93	1558.80
404.13	1678.16
404.32	1591.56
404.51	1654.76
404.70	1558.80
404.89	1596.25
405.09	1720.29
405.28	1717.95
405.47	1732.00
405.66	1575.18
405.85	1696.89
406.05	1710.93
406.24	1696.89
406.43	1727.32
406.62	1842.00
406.81	1849.02
407.00	1823.28
407.20	1811.57
407.39	1846.68
407.58	1811.57
407.77	1842.00
407.96	1935.62
408.15	1954.35
408.34	1923.92
408.54	2045.63
408.73	1860.73
408.92	1977.75
409.11	1980.09
409.30	2019.88
409.49	2005.84
409.68	2120.53
409.87	2010.52
410.07	2005.84
410.26	2012.86
410.45	2134.57
410.64	2069.03
410.83	2087.76
411.02	2099.46
411.21	2289.04
411.40	2132.23
411.59	2258.62
411.78	2258.62
411.98	2148.61
412.17	2209.47
412.36	2228.19
412.55	2331.17
412.74	2300.75
412.93	2361.60
413.12	2310.11
413.31	2448.20
413.50	2340.54
413.69	2469.27
413.88	2457.56
414.07	2420.11
414.26	2574.59
414.45	2509.05
414.64	2452.88
414.83	2586.29
415.02	2579.27
415.22	2551.18
415.41	2569.91
415.60	2675.23
415.79	2609.70
415.98	2780.56
416.17	2752.47
416.36	2703.32
416.55	2778.22
416.74	2768.85
416.93	2808.64
417.12	2839.07
417.31	2911.63
417.50	2839.07
417.69	2878.86
417.88	2958.44
418.07	2794.60
418.26	2988.86
418.45	3019.29
418.64	3126.96
418.83	3061.42
419.02	3059.08
419.21	3052.06
419.39	3115.25
419.58	3234.62
419.77	2974.82
419.96	3052.06
420.15	3187.81
420.34	3225.26
420.53	3112.91
420.72	3300.16
420.91	3171.43
421.10	3157.38
421.29	3309.52
421.48	3201.85
421.67	3372.71
421.86	3253.34
422.05	3229.94
422.24	3389.10
422.43	3335.26
422.61	3302.50
422.80	3428.88
422.99	3169.09
423.18	3398.46
423.37	3454.63
423.56	3421.86
423.75	3407.82
423.94	3353.99
424.13	3220.58
424.32	3316.54
424.50	3414.84
424.69	3480.38
424.88	3576.34
425.07	3375.05
425.26	3400.80
425.45	3524.85
425.64	3382.07
425.83	3419.52
426.01	3496.76
426.20	3508.46
426.39	3337.60
426.58	3391.44
426.77	3513.14
426.96	3541.23
427.15	3583.36
427.33	3562.30
427.52	3527.19
427.71	3644.21
427.90	3510.80
428.09	3756.56
428.28	3646.55
428.46	3641.87
428.65	3749.54
428.84	3784.65
429.03	3803.37
429.22	3684.00
429.40	3669.96
429.59	3906.35
429.78	3758.90
429.97	3679.32
430.16	3686.34
430.34	3936.78
430.53	3913.38
430.72	3861.88
430.91	3906.35
431.10	3953.16
431.28	3892.31
431.47	4079.55
431.66	4053.81
431.85	3932.10
432.03	3929.76
432.22	4131.05
432.41	4053.81
432.60	4030.40
432.79	4112.32
432.97	4191.90
433.16	4112.32
433.35	4147.43
433.54	4173.18
433.72	4072.53
433.91	4119.34
434.10	4278.50
434.28	4276.16
434.47	4299.56
434.66	4276.16
434.85	4341.69
435.03	4519.57
435.22	4238.71
435.41	4432.97
435.59	4482.13
435.78	4379.14
435.97	4374.46
436.16	4479.79
436.34	4299.56
436.53	4262.12
436.72	4533.62
436.90	4465.74
437.09	4615.54
437.28	4557.02
437.46	4540.64
437.65	4596.81
437.84	4674.05
438.02	4512.55
438.21	4662.35
438.40	4578.09
438.58	4887.04
438.77	5004.07
438.96	4863.63
439.14	4844.91
439.33	4723.20
439.52	4926.83
439.70	4851.93
439.89	4961.94
440.08	5008.75
440.26	4891.72
440.45	4957.25
440.63	5060.24
440.82	5130.45
441.01	5067.26
441.19	5266.21
441.38	5259.18
441.57	5240.46
441.75	5521.32
441.94	5542.39
442.12	5416.00
442.31	5423.02
442.50	5493.24
442.68	5476.85
442.87	5416.00
443.05	5561.11
443.24	5504.94
443.43	5591.54
443.61	5579.84
443.80	5610.26
443.98	5547.07
444.17	5217.05
444.35	5570.48
444.54	5504.94
444.73	5631.33
444.91	5671.12
445.10	5577.50
445.28	5664.10
445.47	5717.93
445.65	5692.18
445.84	5708.57
446.02	5823.25
446.21	5806.87
446.39	5795.17
446.58	5706.23
446.77	5881.77
446.95	5607.92
447.14	5738.99
447.32	5942.62
447.51	5893.47
447.69	5755.38
447.88	5774.10
448.06	5715.59
448.25	5888.79
448.43	5865.38
448.62	5771.76
448.80	5776.44
448.99	5696.86
449.17	5984.75
449.36	5898.15
449.54	5905.17
449.73	6188.38
449.91	6242.21
450.10	6106.46
450.28	5991.77
450.46	6139.23
450.65	6064.33
450.83	6197.74
451.02	6108.80
451.20	6097.10
451.39	6127.52
451.57	6202.42
451.76	6139.23
451.94	6099.44
452.13	6312.42
452.31	6204.76
452.49	6286.68
452.68	6392.00
452.86	6333.49
453.05	6340.51
453.23	6436.47
453.42	6324.13
453.60	6284.34
453.78	6462.22
453.97	6539.46
454.15	6368.60
454.34	6548.82
454.52	6637.76
454.70	6560.52
454.89	6434.13
455.07	6597.97
455.26	6658.82
455.44	6729.04
455.62	6722.02
455.81	6539.46
455.99	6752.45
456.17	6752.45
456.36	6789.89
456.54	6878.83
456.73	6986.50
456.91	7002.88
457.09	7049.69
457.28	7068.42
457.46	6768.83
457.64	6913.94
457.83	7162.04
458.01	7176.08
458.19	7232.26
458.38	6956.07
458.56	7150.34
458.74	7234.60
458.93	7091.82
459.11	7173.74
459.29	7145.66
459.48	7197.15
459.66	7494.40
459.84	7356.30
460.03	7538.87
460.21	7335.24
460.39	7470.99
460.57	7410.14
460.76	7609.08
460.94	7581.00
461.12	7555.25
461.31	7407.80
461.49	7468.65
461.67	7691.00
461.85	7644.19
462.04	7658.23
462.22	7932.08
462.40	7962.50
462.59	7838.45
462.77	7833.77
462.95	7840.79
463.13	7695.68
463.32	7906.33
463.50	7950.80
463.68	7815.05
463.86	8056.12
464.05	7777.60
464.23	7833.77
464.41	7978.89
464.59	7824.41
464.78	8032.72
464.96	8229.32
465.14	7943.78
465.32	8056.12
465.50	8201.24
465.69	8032.72
465.87	8093.57
466.05	8032.72
466.23	8114.64
466.41	8238.69
466.60	8229.32
466.78	8341.67
466.96	8152.09
467.14	8358.05
467.32	8276.13
467.51	8575.72
467.69	8212.94
467.87	8351.03
468.05	8430.61
468.23	8355.71
468.41	8201.24
468.60	8201.24
468.78	8599.13
468.96	8446.99
469.14	8510.19
469.32	8578.06
469.50	8336.99
469.69	8777.01
469.87	8741.90
470.05	8802.75
470.23	8674.03
470.41	8606.15
470.59	8872.97
470.77	8816.80
470.95	8723.18
471.14	8858.93
471.32	8924.46
471.50	9046.17
471.68	9114.05
471.86	9320.01
472.04	9088.30
472.22	9441.72
472.40	9004.04
472.58	9226.39
472.77	9427.68
472.95	9467.47
473.13	9856.00
473.31	9577.47
473.49	9362.14
473.67	9359.80
473.85	9682.80
474.03	9703.86
474.21	9469.81
474.39	9724.93
474.57	9720.24
474.75	9858.34
474.93	9820.89
475.12	9991.75
475.30	10047.92
475.48	9944.94
475.66	10024.51
475.84	9881.74
476.02	10209.42
476.20	10235.16
476.38	10429.43
476.56	10438.79
476.74	10731.36
476.92	10504.32
477.10	10445.81
477.28	10609.65
477.46	10693.91
477.64	11136.27
477.82	11089.46
478.00	11419.47
478.18	11052.01
478.36	11133.93
478.54	11126.91
478.72	11440.54
478.90	11651.19
479.08	11606.72
479.26	11688.64
479.44	11587.99
479.62	11983.54
479.80	11838.43
479.98	11988.22
480.16	12147.38
480.34	12006.95
480.52	12219.94
480.70	12388.46
480.88	12367.39
481.06	12498.46
481.24	12580.38
481.41	12489.10
481.59	12929.12
481.77	13095.30
481.95	12945.50
482.13	13130.41
482.31	12765.28
482.49	13343.39
482.67	13500.21
482.85	13446.38
483.03	13612.56
483.21	13797.46
483.39	13818.52
483.57	13853.63
483.74	14083.00
483.92	14019.81
484.10	14012.79
484.28	14153.22
484.46	14476.21
484.64	14583.88
484.82	14457.49
485.00	14628.35
485.18	15103.48
485.35	15150.29
485.53	15028.58
485.71	15054.33
485.89	15662.86
486.07	15337.53
486.25	15452.22
486.43	15592.65
486.61	15754.15
486.78	15585.63
486.96	15999.90
487.14	16194.17
487.32	16273.74
487.50	16585.04
487.68	16315.87
487.85	16716.11
488.03	16800.37
488.21	16819.09
488.39	16730.15
488.57	17078.89
488.75	17111.66
488.92	17525.93
489.10	17785.73
489.28	17694.45
489.46	17860.63
489.64	17736.58
489.81	17951.91
489.99	18132.13
490.17	18085.32
490.35	18546.40
490.53	18396.61
490.70	18759.39
490.88	18604.92
491.06	18794.50
491.24	19248.57
491.41	19164.31
491.59	19435.81
491.77	18892.80
491.95	19398.36
492.13	19786.89
492.30	19859.45
492.48	20009.24
492.66	20217.55
492.84	19880.51
493.01	20229.25
493.19	20032.65
493.37	20390.75
493.54	20475.01
493.72	20603.74
493.90	20449.26
494.08	20620.12
494.25	21200.57
494.43	20959.50
494.61	21003.97
494.79	21666.34
494.96	21364.41
495.14	21128.02
495.32	22178.92
495.49	21816.13
495.67	22101.68
495.85	21916.78
496.02	22061.89
496.20	22579.15
496.38	22160.19
496.55	22462.12
496.73	23166.62
496.91	22684.47
497.09	22888.10
497.26	23019.17
497.44	23206.41
497.62	23075.34
497.79	23473.23
497.97	23211.09
498.14	23704.95
498.32	23569.19
498.50	23896.87
498.67	24030.28
498.85	23800.91
499.03	24072.41
499.20	24290.08
499.38	24098.16
499.56	24627.12
499.73	24505.41
499.91	24685.63
500.08	24573.28
500.26	24376.68
500.44	24671.59
500.61	24842.45
500.79	24746.48
500.97	25174.80
501.14	25497.80
501.32	25343.32
501.49	25458.01
501.67	25678.02
501.84	25809.09
502.02	24919.68
502.20	25764.62
502.37	25710.78
502.55	25729.51
502.72	25785.68
502.90	25930.80
503.07	25905.05
503.25	26314.64
503.43	26045.48
503.60	26309.96
503.78	26548.70
503.95	26359.11
504.13	26714.87
504.30	26623.59
504.48	26909.14
504.65	26698.49
504.83	27325.75
505.01	27175.96
505.18	27201.71
505.36	27679.18
505.53	27377.25
505.71	27445.12
505.88	27398.31
506.06	27342.14
506.23	27735.35
506.41	27328.10
506.58	27641.73
506.76	28009.19
506.93	28320.48
507.11	27894.50
507.28	27910.89
507.46	28121.54
507.63	28376.66
507.81	28247.93
507.98	28133.24
508.16	28713.69
508.33	28811.99
508.50	28680.92
508.68	28685.61
508.85	29172.44
509.03	28973.49
509.20	29289.46
509.38	29593.73
509.55	29390.11
509.73	29443.94
509.90	29607.78
510.08	29500.11
510.25	29610.12
510.42	29525.86
510.60	29626.50
510.77	29762.25
510.95	29874.60
511.12	29771.61
511.30	29926.09
511.47	30237.38
511.64	30204.61
511.82	30520.59
511.99	30450.37
512.17	30581.44
512.34	30548.67
512.51	30558.03
512.69	30827.20
512.86	30927.84
513.04	31211.04
513.21	31112.74
513.38	31161.89
513.56	31075.29
513.73	31082.31
513.90	30969.97
514.08	31131.47
514.25	31611.28
514.43	31648.72
514.60	31646.38
514.77	31882.78
514.95	31868.73
515.12	31936.61
515.29	31826.60
515.47	31934.27
515.64	32109.81
515.81	31927.25
515.99	32657.49
516.16	32194.07
516.33	32519.40
516.51	32716.01
516.68	32268.97
516.85	32891.55
517.03	32751.12
517.20	32748.78
517.37	32849.42
517.54	32741.75
517.72	33244.97
517.89	33195.82
518.06	32870.48
518.24	32692.60
518.41	33263.69
518.58	33156.03
518.75	33219.22
518.93	33177.09
519.10	33359.66
519.27	33621.80
519.45	33694.35
519.62	33404.13
519.79	34047.77
519.96	33947.13
520.14	34012.66
520.31	33656.90
520.48	34429.28
520.65	33972.88
520.83	34335.66
521.00	34515.88
521.17	34480.77
521.34	34466.73
521.52	34335.66
521.69	34499.50
521.86	34485.45
522.03	34801.43
522.20	34972.28
522.38	34981.65
522.55	35023.78
522.72	35089.31
522.89	35297.62
523.07	35234.42
523.24	34958.24
523.41	35707.21
523.58	35124.42
523.75	35622.95
523.92	35271.87
524.10	35618.27
524.27	35985.74
524.44	35903.82
524.61	35594.87
524.78	35686.15
524.96	35906.16
525.13	36334.48
525.30	36121.49
525.47	36100.42
525.64	36191.70
525.81	36510.02
525.98	36987.49
526.16	36210.43
526.33	36381.29
526.50	36837.69
526.67	36130.85
526.84	36542.78
527.01	36547.47
527.18	36416.40
527.36	36907.91
527.53	37053.02
527.70	37535.17
527.87	37235.58
528.04	37043.66
528.21	37195.79
528.38	37053.02
528.55	37221.54
528.72	37029.62
528.89	37132.60
529.07	36957.06
529.24	37626.45
529.41	37553.90
529.58	37371.33
529.75	37724.75
529.92	37689.65
530.09	37469.64
530.26	37956.47
530.43	37837.10
530.60	37642.84
530.77	37848.80
530.94	37986.89
531.11	37610.07
531.28	37907.32
531.46	38373.08
531.63	38216.27
531.80	38302.87
531.97	38770.97
532.14	38667.99
532.31	38447.98
532.48	38462.02
532.65	38745.23
532.82	38522.88
532.99	38382.45
533.16	38646.93
533.33	38813.10
533.50	38747.57
533.67	39119.71
533.84	38852.89
534.01	38778.00
534.18	39313.98
534.35	39480.16
534.52	39023.75
534.69	39381.85
534.86	39402.92
535.03	39302.28
535.20	39721.23
535.37	39241.42
535.54	39367.81
535.71	39391.22
535.88	39835.92
536.05	39402.92
536.22	40135.51
536.38	39842.94
536.55	39725.91
536.72	39835.92
536.89	39746.98
537.06	39920.18
537.23	40069.97
537.40	39573.78
537.57	39601.86
537.74	40243.17
537.91	40495.95
538.08	40095.72
538.25	40030.18
538.42	40355.52
538.59	40371.90
538.75	40470.20
538.92	40872.78
539.09	40769.79
539.26	40222.11
539.43	40636.38
539.60	40437.44
539.77	40203.38
539.94	41315.14
540.11	40577.87
540.28	40505.31
540.44	41048.32
540.61	40924.27
540.78	40472.54
540.95	40655.11
541.12	40790.86
541.29	41074.06
541.46	41174.70
541.62	41305.77
541.79	41247.26
541.96	41282.37
542.13	41048.32
542.30	41064.70
542.47	41163.00
542.63	41378.33
542.80	41413.44
542.97	41820.69
543.14	41879.21
543.31	41794.95
543.48	41710.69
543.64	42405.83
543.81	42045.38
543.98	42281.78
544.15	42117.94
544.32	42543.92
544.48	42677.33
544.65	42117.94
544.82	42541.58
544.99	42099.22
545.16	42431.57
545.32	42497.11
545.49	42728.82
545.66	42937.13
545.83	42682.01
546.00	42564.98
546.16	42738.18
546.33	42752.23
546.50	42749.88
546.67	42848.19
546.83	42234.97
547.00	42534.56
547.17	42714.78
547.34	42939.47
547.50	42749.88
547.67	43365.45
547.84	43288.21
548.00	43047.13
548.17	43278.85
548.34	43180.54
548.51	43281.19
548.67	43061.18
548.84	43250.76
549.01	43297.57
549.18	43681.42
549.34	43360.76
549.51	43665.03
549.68	43643.97
549.84	43466.09
550.01	43985.69
550.18	43487.15
550.34	43604.18
550.51	44243.15
550.68	43665.03
550.84	43728.23
551.01	44037.18
551.18	43690.78
551.34	44392.94
551.51	44076.97
551.68	44044.20
551.84	43945.90
552.01	44119.10
552.18	43683.76
552.34	43833.55
552.51	43906.11
552.68	44357.83
552.84	44416.35
553.01	44467.84
553.18	44355.49
553.34	44243.15
553.51	44353.15
553.67	44406.98
553.84	44933.60
554.01	44100.37
554.17	44533.37
554.34	44783.81
554.51	44966.37
554.67	44524.01
554.84	44708.91
555.00	44507.63
555.17	44823.60
555.33	44832.96
555.50	44879.77
555.67	44968.71
555.83	45127.87
556.00	45034.25
556.16	45069.36
556.33	44992.12
556.50	44975.73
556.66	45282.34
556.83	44673.81
556.99	45029.57
557.16	45312.77
557.32	45406.39
557.49	45661.51
557.65	45071.70
557.82	45265.96
557.98	45511.72
558.15	45371.28
558.32	45610.02
558.48	44823.60
558.65	45223.83
558.81	45553.85
558.98	45174.68
559.14	44952.33
559.31	45081.06
559.47	45324.47
559.64	45284.68
559.80	45298.73
559.97	45544.48
560.13	45460.23
560.30	45673.21
560.46	45607.68
560.63	45750.45
560.79	45738.75
560.96	45979.82
561.12	45647.47
561.29	45958.76
561.45	45902.59
561.61	45773.86
561.78	45808.96
561.94	45918.97
562.11	46071.10
562.27	46017.27
562.44	45567.89
562.60	45867.48
562.77	46211.54
562.93	45748.11
563.10	46014.93
563.26	45830.03
563.42	46344.95
563.59	45853.44
563.75	45446.18
563.92	45581.93
564.08	46096.85
564.24	46258.35
564.41	46064.08
564.57	46298.14
564.74	45956.42
564.90	45893.22
565.07	46131.96
565.23	46216.22
565.39	46724.11
565.56	46253.67
565.72	46490.06
565.88	46429.21
566.05	46099.19
566.21	46579.00
566.38	46377.72
566.54	46454.95
566.70	46232.60
566.87	46321.54
567.03	46356.65
567.19	46263.03
567.36	46518.15
567.52	46291.12
567.68	46932.42
567.85	46557.94
568.01	46873.91
568.17	46471.34
568.34	46611.77
568.50	46532.19
568.66	46513.47
568.83	46759.22
568.99	46342.61
569.15	46328.56
569.32	46153.02
569.48	46368.35
569.64	46866.89
569.81	47019.02
569.97	46564.96
570.13	46803.69
570.30	46642.20
570.46	46726.46
570.62	46344.95
570.78	46681.98
570.95	46918.38
571.11	46768.58
571.27	46632.83
571.43	46920.72
571.60	46670.28
571.76	46410.48
571.92	46892.63
572.09	46553.26
572.25	46609.43
572.41	46609.43
572.57	46871.57
572.74	47152.43
572.90	47079.88
573.06	46784.97
573.22	46920.72
573.38	47494.15
573.55	46679.64
573.71	47306.91
573.87	47096.26
574.03	47061.15
574.20	46983.91
574.36	47199.24
574.52	46883.27
574.68	47014.34
574.84	46892.63
575.01	47075.19
575.17	47325.63
575.33	47196.90
575.49	47166.48
575.65	47281.16
575.82	47405.21
575.98	46726.46
576.14	47274.14
576.30	47395.85
576.46	47131.37
576.62	46698.37
576.79	47093.92
576.95	46726.46
577.11	46902.00
577.27	47119.66
577.43	47056.47
577.59	47093.92
577.75	47208.61
577.92	46951.15
578.08	46941.78
578.24	47767.99
578.40	47309.25
578.56	47622.88
578.72	47351.38
578.88	47360.74
579.04	47224.99
579.21	47091.58
579.37	47489.47
579.53	47468.40
579.69	46974.55
579.85	47339.68
580.01	47051.79
580.17	47552.66
580.33	47344.36
580.49	47229.67
580.65	47358.40
580.82	47531.60
580.98	47283.50
581.14	47295.21
581.30	47625.22
581.46	47112.64
581.62	47075.19
581.78	46979.23
581.94	47037.75
582.10	47030.72
582.26	47384.15
582.42	47344.36
582.58	46904.34
582.74	47714.16
582.90	47203.92
583.06	47538.62
583.22	47234.35
583.38	47512.88
583.54	47412.23
583.70	47749.27
583.86	47320.95
584.02	47665.01
584.18	47564.37
584.34	47697.78
584.50	47732.89
584.66	47576.07
584.82	47267.12
584.98	47936.51
585.14	47587.77
585.30	47566.71
585.46	47428.62
585.62	46822.42
585.78	47367.76
585.94	47634.58
586.10	47454.36
586.26	46990.94
586.42	47580.75
586.58	47744.59
586.74	47629.90
586.90	47657.99
587.06	47217.97
587.22	47313.93
587.38	47536.28
587.54	47349.04
587.70	48009.07
587.86	47503.51
588.02	47313.93
588.18	47545.64
588.34	47461.38
588.49	47480.11
588.65	47704.80
588.81	47948.21
588.97	47882.68
589.13	47522.24
589.29	47894.38
589.45	47760.97
589.61	47519.90
589.77	48100.35
589.93	47463.72
590.08	48224.40
