SpectraSuite Data File
++++++++++++++++++++++++++++++++++++
Date: Fri Oct 25 11:24:07 EDT 2013
User: price-jones
Dark Spectrum Present: No
Reference Spectrum Present: No
Number of Sampled Component Spectra: 1
Spectrometers: USB2+H05261
Integration Time (usec): 100000 (USB2+H05261)
Spectra Averaged: 1 (USB2+H05261)
Boxcar Smoothing: 0 (USB2+H05261)
Correct for Electrical Dark: No (USB2+H05261)
Strobe/Lamp Enabled: No (USB2+H05261)
Correct for Detector Non-linearity: No (USB2+H05261)
Correct for Stray Light: No (USB2+H05261)
Number of Pixels in Processed Spectrum: 2048
>>>>>Begin Processed Spectral Data<<<<<
365.73	262.14
365.92	262.14
366.12	262.14
366.32	124.05
366.52	84.26
366.72	95.96
366.91	149.79
367.11	121.71
367.31	135.75
367.51	91.28
367.70	222.35
367.90	161.50
368.10	114.69
368.30	110.01
368.49	112.35
368.69	152.13
368.89	124.05
369.09	119.37
369.28	205.97
369.48	189.58
369.68	198.95
369.87	168.52
370.07	175.54
370.27	194.26
370.47	241.08
370.66	641.31
370.86	568.75
371.06	676.41
371.25	674.07
371.45	599.18
371.65	685.78
371.84	751.31
372.04	653.01
372.24	744.29
372.44	704.50
372.63	835.57
372.83	753.65
373.03	802.80
373.22	828.55
373.42	816.85
373.62	786.42
373.81	868.34
374.01	887.06
374.21	919.83
374.40	786.42
374.60	943.24
374.79	791.10
374.99	842.59
375.19	884.72
375.38	849.61
375.58	835.57
375.78	894.08
375.97	896.43
376.17	880.04
376.37	788.76
376.56	931.53
376.76	926.85
376.95	917.49
377.15	894.08
377.35	992.39
377.54	957.28
377.74	922.17
377.93	861.32
378.13	882.38
378.33	1001.75
378.52	905.79
378.72	983.02
378.91	1015.79
379.11	870.68
379.31	931.53
379.50	1006.43
379.70	1053.24
379.89	971.32
380.09	987.71
380.28	954.94
380.48	1032.18
380.68	964.30
380.87	940.90
381.07	968.98
381.26	1160.91
381.46	968.98
381.65	1062.60
381.85	1041.54
382.04	1088.35
382.24	1100.05
382.43	1057.92
382.63	1043.88
382.83	947.92
383.02	1116.44
383.22	1109.41
383.41	1088.35
383.61	1057.92
383.80	1191.33
384.00	1055.58
384.19	1221.76
384.39	1111.75
384.58	1128.14
384.78	1193.67
384.97	1111.75
385.17	1137.50
385.36	1118.78
385.56	1114.10
385.75	1186.65
385.95	1193.67
386.14	1249.85
386.34	1174.95
386.53	1259.21
386.72	1125.80
386.92	1156.22
387.11	1245.16
387.31	1329.42
387.50	1282.61
387.70	1324.74
387.89	1268.57
388.09	1273.25
388.28	1242.82
388.48	1320.06
388.67	1226.44
388.86	1359.85
389.06	1303.68
389.25	1277.93
389.45	1317.72
389.64	1336.45
389.84	1350.49
390.03	1373.89
390.22	1366.87
390.42	1387.94
390.61	1406.66
390.81	1378.58
391.00	1476.88
391.19	1462.83
391.39	1444.11
391.58	1441.77
391.78	1497.94
391.97	1458.15
392.16	1448.79
392.36	1530.71
392.55	1497.94
392.75	1504.96
392.94	1516.67
393.13	1551.78
393.33	1523.69
393.52	1577.52
393.71	1600.93
393.91	1582.20
394.10	1577.52
394.29	1582.20
394.49	1572.84
394.68	1657.10
394.88	1640.72
395.07	1619.65
395.26	1750.72
395.46	1682.85
395.65	1687.53
395.84	1727.32
396.04	1778.81
396.23	1732.00
396.42	1736.68
396.62	1750.72
396.81	1769.44
397.00	1722.63
397.19	1827.96
397.39	1757.74
397.58	1853.70
397.77	1827.96
397.97	1935.62
398.16	1802.21
398.35	1942.64
398.55	1905.20
398.74	2008.18
398.93	1874.77
399.12	1907.54
399.32	1966.05
399.51	1996.48
399.70	2092.44
399.90	1930.94
400.09	2080.74
400.28	1963.71
400.47	2050.31
400.67	2059.67
400.86	2113.50
401.05	2106.48
401.24	2094.78
401.44	2125.21
401.63	2150.95
401.82	2186.06
402.01	2038.61
402.21	2155.63
402.40	2284.36
402.59	2146.27
402.78	2267.98
402.97	2258.62
403.17	2242.23
403.36	2190.74
403.55	2225.85
403.74	2434.16
403.93	2408.41
404.13	2260.96
404.32	2352.24
404.51	2392.03
404.70	2415.43
404.89	2436.50
405.09	2518.42
405.28	2434.16
405.47	2583.95
405.66	2551.18
405.85	2518.42
406.05	2537.14
406.24	2471.61
406.43	2684.59
406.62	2565.23
406.81	2567.57
407.00	2605.02
407.20	2609.70
407.39	2511.39
407.58	2778.22
407.77	2726.72
407.96	2726.72
408.15	2883.54
408.34	2745.45
408.54	2745.45
408.73	2778.22
408.92	2925.67
409.11	2850.77
409.30	2949.08
409.49	2970.14
409.68	3028.65
409.87	2970.14
410.07	2923.33
410.26	2984.18
410.45	3056.74
410.64	3077.80
410.83	3077.80
411.02	3052.06
411.21	3197.17
411.40	3089.51
411.59	3267.39
411.78	3281.43
411.98	3150.36
412.17	3265.05
412.36	3412.50
412.55	3466.33
412.74	3281.43
412.93	3323.56
413.12	3417.18
413.31	3545.91
413.50	3559.95
413.69	3461.65
413.88	3623.15
414.07	3473.36
414.26	3578.68
414.45	3679.32
414.64	3590.38
414.83	3740.18
415.02	3798.69
415.22	3824.44
415.41	3751.88
415.60	3878.27
415.79	3864.22
415.98	3997.64
416.17	4056.15
416.36	3920.40
416.55	4007.00
416.74	4161.47
416.93	4128.70
417.12	4131.05
417.31	4147.43
417.50	4334.67
417.69	4393.19
417.88	4280.84
418.07	4175.52
418.26	4205.94
418.45	4318.29
418.64	4526.60
418.83	4428.29
419.02	4388.50
419.21	4645.96
419.39	4690.43
419.58	4416.59
419.77	4500.85
419.96	4566.39
420.15	4730.22
420.34	4550.00
420.53	4711.50
420.72	4685.75
420.91	4660.01
421.10	4627.24
421.29	4870.65
421.48	4755.97
421.67	4765.33
421.86	4788.74
422.05	4683.41
422.24	4807.46
422.43	4917.47
422.61	4755.97
422.80	4870.65
422.99	4943.21
423.18	4950.23
423.37	4924.49
423.56	4898.74
423.75	4919.81
423.94	4819.16
424.13	4599.15
424.32	4798.10
424.50	5057.90
424.69	5210.03
424.88	5174.92
425.07	4873.00
425.26	4865.97
425.45	4858.95
425.64	4873.00
425.83	4938.53
426.01	5071.94
426.20	5001.72
426.39	5069.60
426.58	4943.21
426.77	5046.20
426.96	5118.75
427.15	5078.96
427.33	5268.55
427.52	5240.46
427.71	5261.52
427.90	5200.67
428.09	5301.31
428.28	5369.19
428.46	5366.85
428.65	5455.79
428.84	5647.71
429.03	5547.07
429.22	5371.53
429.40	5507.28
429.59	5526.00
429.78	5376.21
429.97	5336.42
430.16	5542.39
430.34	5575.16
430.53	5689.84
430.72	5563.45
430.91	5687.50
431.10	5687.50
431.28	5792.83
431.47	5736.65
431.66	5881.77
431.85	5823.25
432.03	5839.64
432.22	5968.37
432.41	6080.71
432.60	5881.77
432.79	5806.87
432.97	6050.28
433.16	6024.54
433.35	5994.11
433.54	6033.90
433.72	6003.47
433.91	6054.97
434.10	6207.10
434.28	6202.42
434.47	6258.59
434.66	6218.80
434.85	6417.75
435.03	6368.60
435.22	6258.59
435.41	6640.10
435.59	6424.77
435.78	6345.19
435.97	6579.25
436.16	6464.56
436.34	6548.82
436.53	6494.99
436.72	6771.17
436.90	6640.10
437.09	6593.29
437.28	6623.72
437.46	6621.38
437.65	6785.21
437.84	6635.42
438.02	6883.52
438.21	6846.07
438.40	6621.38
438.58	7129.27
438.77	6979.48
438.96	6946.71
439.14	7272.04
439.33	7126.93
439.52	7152.68
439.70	7183.10
439.89	7461.63
440.08	7510.78
440.26	7417.16
440.45	7276.73
440.63	7531.84
440.82	7538.87
441.01	7602.06
441.19	7700.36
441.38	7698.02
441.57	7824.41
441.75	7836.11
441.94	7913.35
442.12	7950.80
442.31	8243.37
442.50	8166.13
442.68	8004.63
442.87	7997.61
443.05	8119.32
443.24	8390.82
443.43	8355.71
443.61	8234.00
443.80	8344.01
443.98	8093.57
444.17	7829.09
444.35	8311.24
444.54	8299.54
444.73	8212.94
444.91	8292.52
445.10	8500.83
445.28	8442.31
445.47	8131.02
445.65	8454.02
445.84	8510.19
446.02	8533.59
446.21	8531.25
446.39	8545.30
446.58	8557.00
446.77	8741.90
446.95	8423.59
447.14	8372.10
447.32	8571.04
447.51	8596.79
447.69	8713.81
447.88	8395.50
448.06	8432.95
448.25	8542.96
448.43	8489.12
448.62	8592.11
448.80	8774.67
448.99	8650.62
449.17	8781.69
449.36	8641.26
449.54	8929.14
449.73	9039.15
449.91	8973.61
450.10	9198.31
450.28	9200.65
450.46	9118.73
450.65	9153.84
450.83	9036.81
451.02	9128.09
451.20	9163.20
451.39	9156.18
451.57	9380.87
451.76	9252.14
451.94	9273.20
452.13	9575.13
452.31	9289.59
452.49	9322.35
452.68	9364.48
452.86	9254.48
453.05	9401.93
453.23	9488.53
453.42	9415.98
453.60	9324.69
453.78	9582.15
453.97	9565.77
454.15	9645.35
454.34	9521.30
454.52	9497.89
454.70	9818.55
454.89	10113.45
455.07	9914.51
455.26	9738.97
455.44	9879.40
455.62	10043.24
455.81	10052.60
455.99	10003.45
456.17	10073.67
456.36	9963.66
456.54	10445.81
456.73	10286.65
456.91	10431.77
457.09	10387.30
457.28	10600.29
457.46	10427.09
457.64	10562.84
457.83	10574.54
458.01	10434.11
458.19	10822.64
458.38	10511.35
458.56	10771.15
458.74	10656.46
458.93	10654.12
459.11	10846.04
459.29	10792.21
459.48	10733.70
459.66	10775.83
459.84	10848.38
460.03	10979.45
460.21	10853.06
460.39	11082.44
460.57	11052.01
460.76	11147.97
460.94	11344.58
461.12	11145.63
461.31	11269.68
461.49	11183.08
461.67	11286.06
461.85	11435.86
462.04	11183.08
462.22	11571.61
462.40	11550.54
462.59	11534.16
462.77	11632.46
462.95	11571.61
463.13	11698.00
463.32	11772.89
463.50	11889.92
463.68	11918.01
463.86	11920.35
464.05	11672.25
464.23	11669.91
464.41	11920.35
464.59	11829.07
464.78	12065.46
464.96	12159.08
465.14	12023.33
465.32	12142.70
465.50	12332.28
465.69	12505.48
465.87	12156.74
466.05	12166.10
466.23	12264.41
466.41	12540.59
466.60	12720.81
466.78	12360.37
466.96	12297.17
467.14	12168.45
467.32	12533.57
467.51	12575.70
467.69	12259.73
467.87	12685.70
468.05	12767.62
468.23	12353.35
468.41	12690.38
468.60	12643.57
468.78	12634.21
468.96	12674.00
469.14	12821.45
469.32	13214.66
469.50	12599.10
469.69	13135.09
469.87	13114.02
470.05	13029.76
470.23	13114.02
470.41	13280.20
470.59	13493.19
470.77	13319.99
470.95	13294.24
471.14	13371.48
471.32	13144.45
471.50	13692.13
471.68	13809.16
471.86	13919.17
472.04	14122.79
472.22	14061.94
472.40	13820.86
472.58	13582.13
472.77	14235.14
472.95	14153.22
473.13	14773.46
473.31	14181.31
473.49	14235.14
473.67	14249.18
473.85	14422.38
474.03	14721.97
474.21	14780.48
474.39	15073.05
474.57	14569.83
474.75	15070.71
474.93	15234.55
475.12	14759.42
475.30	14984.11
475.48	15129.22
475.66	14993.47
475.84	15197.10
476.02	15180.71
476.20	15314.13
476.38	15822.02
476.56	16025.65
476.74	16051.39
476.92	15920.32
477.10	16013.95
477.28	16402.47
477.46	16559.29
477.64	16123.95
477.82	16793.34
478.00	17011.01
478.18	16737.17
478.36	17137.40
478.54	17195.92
478.72	17240.39
478.90	17584.44
479.08	17544.66
479.26	17626.57
479.44	17727.22
479.62	17980.00
479.80	18092.34
479.98	18218.73
480.16	18986.43
480.34	18284.26
480.52	18618.96
480.70	19000.47
480.88	18572.15
481.06	18778.12
481.24	18890.46
481.41	19297.72
481.59	19669.86
481.77	19583.26
481.95	19742.42
482.13	19971.79
482.31	19896.89
482.49	20477.35
482.67	20177.76
482.85	20379.04
483.03	21008.65
483.21	21062.48
483.39	21092.91
483.57	20833.11
483.74	21188.87
483.92	21507.18
484.10	21235.68
484.28	21598.46
484.46	22019.76
484.64	22686.81
484.82	22169.55
485.00	22553.40
485.18	22581.49
485.35	23117.47
485.53	22963.00
485.71	22810.86
485.89	23658.14
486.07	23459.19
486.25	23782.18
486.43	23672.18
486.61	24252.63
486.78	24081.77
486.96	24217.52
487.14	24847.13
487.32	24664.57
487.50	24779.25
487.68	24884.58
487.85	25329.28
488.03	26010.37
488.21	26150.81
488.39	25841.85
488.57	26160.17
488.75	26232.72
488.92	26597.85
489.10	26944.25
489.28	26855.31
489.46	27152.55
489.64	27213.41
489.81	27503.64
489.99	27330.44
490.17	28013.87
490.35	28226.86
490.53	28287.71
490.70	28491.34
490.88	28664.54
491.06	29144.35
491.24	29116.26
491.41	29156.05
491.59	29495.43
491.77	29647.57
491.95	29408.83
492.13	30036.09
492.30	29965.88
492.48	30019.71
492.66	30237.38
492.84	30682.08
493.01	30733.57
493.19	30836.56
493.37	31344.45
493.54	31164.23
493.72	31557.44
493.90	31470.84
494.08	31917.89
494.25	31976.40
494.43	31992.78
494.61	32507.70
494.79	32786.22
494.96	32849.42
495.14	32680.90
495.32	33263.69
495.49	33254.33
495.67	33326.89
495.85	33984.58
496.02	33706.05
496.20	34148.42
496.38	33853.51
496.55	34506.52
496.73	35026.12
496.91	34972.28
497.09	34993.35
497.26	35042.50
497.44	34735.89
497.62	35161.87
497.79	36025.53
497.97	35440.39
498.14	35913.18
498.32	35786.79
498.50	36648.11
498.67	36875.14
498.85	36739.39
499.03	36830.67
499.20	37060.04
499.38	37006.21
499.56	37387.72
499.73	37156.00
499.91	37539.85
500.08	37865.19
500.26	37242.60
500.44	37673.26
500.61	37872.21
500.79	37792.63
500.97	38450.32
501.14	38684.37
501.32	38696.08
501.49	38981.62
501.67	38520.54
501.84	39323.34
502.02	39047.16
502.20	39313.98
502.37	39253.12
502.55	39807.83
502.72	39676.76
502.90	39791.45
503.07	40128.48
503.25	40069.97
503.43	40072.31
503.60	40231.47
503.78	40545.10
503.95	40634.04
504.13	40804.90
504.30	40610.64
504.48	40858.73
504.65	41244.92
504.83	41603.02
505.01	41242.58
505.18	41167.68
505.36	41890.91
505.53	41401.74
505.71	41628.77
505.88	42220.92
506.06	41799.63
506.23	42391.78
506.41	41771.54
506.58	42363.70
506.76	42146.03
506.93	42611.79
507.11	42340.29
507.28	42780.31
507.46	42831.80
507.63	43625.25
507.81	43304.59
507.98	43393.53
508.16	42932.45
508.33	43753.97
508.50	43929.51
508.68	43871.00
508.85	44215.06
509.03	44060.58
509.20	44346.13
509.38	44582.52
509.55	44212.72
509.73	44823.60
509.90	44612.95
510.08	44685.51
510.25	44940.63
510.42	45050.63
510.60	44987.44
510.77	45507.04
510.95	45542.14
511.12	45387.67
511.30	45453.20
511.47	45467.25
511.64	45612.36
511.82	46195.15
511.99	46277.07
512.17	46279.41
512.34	46176.43
512.51	46588.36
512.69	46316.86
512.86	46377.72
513.04	46911.36
513.21	46955.83
513.38	47269.46
513.56	47423.93
513.73	47091.58
513.90	47346.70
514.08	46962.85
514.25	47208.61
514.43	47414.57
514.60	47515.22
514.77	47796.08
514.95	47969.28
515.12	47660.33
515.29	47828.85
515.47	48041.84
515.64	48177.59
515.81	48266.53
515.99	48498.24
516.16	48856.34
516.33	48442.07
516.51	49083.37
516.68	48699.53
516.85	48671.44
517.03	48886.77
517.20	49144.23
517.37	49001.46
517.54	48765.06
517.72	49174.66
517.89	48846.98
518.06	49111.46
518.24	49184.02
518.41	49256.57
518.58	49729.36
518.75	49633.40
518.93	49869.79
519.10	49478.92
519.27	49745.75
519.45	49776.17
519.62	49888.52
519.79	49940.01
519.96	50054.70
520.14	50635.15
520.31	50085.12
520.48	50890.27
520.65	50593.02
520.83	50733.45
521.00	50965.17
521.17	50719.41
521.34	50859.84
521.52	50969.85
521.69	51105.60
521.86	51440.29
522.03	51028.36
522.20	51334.97
522.38	51707.12
522.55	51344.33
522.72	51466.04
522.89	51512.85
523.07	51966.91
523.24	51973.94
523.41	51943.51
523.58	51753.93
523.75	52343.74
523.92	52168.20
524.10	51920.10
524.27	52444.38
524.44	52133.09
524.61	52303.95
524.78	52184.58
524.96	52264.16
525.13	52463.11
525.30	52568.43
525.47	52516.94
525.64	52835.25
525.81	52687.80
525.98	52926.53
526.16	52886.74
526.33	52804.83
526.50	53188.67
526.67	52701.84
526.84	53261.23
527.01	52980.37
527.18	53015.47
527.36	52779.08
527.53	52987.39
527.70	53338.47
527.87	53577.20
528.04	53148.88
528.21	53429.75
528.38	53492.94
528.55	53752.74
528.72	53521.03
528.89	53663.80
529.07	53595.93
529.24	53759.76
529.41	53783.17
529.58	53991.48
529.75	53820.62
529.92	53703.59
530.09	54113.19
530.26	54391.71
530.43	54316.81
530.60	53801.89
530.77	54038.29
530.94	54340.22
531.11	54251.28
531.28	54007.86
531.46	54459.58
531.63	54342.56
531.80	54452.56
531.97	54347.24
532.14	54487.67
532.31	54548.53
532.48	54789.60
532.65	54820.03
532.82	54532.14
532.99	54848.11
533.16	54850.45
533.33	54850.45
533.50	54923.01
533.67	55093.87
533.84	55119.62
534.01	55299.84
534.18	55077.49
534.35	55248.35
534.52	55487.08
534.69	55189.83
534.86	55353.67
535.03	55215.58
535.20	55332.60
535.37	55463.67
535.54	55807.73
535.71	55482.40
535.88	55578.36
536.05	55723.47
536.22	55484.74
536.38	55561.98
536.55	55440.27
536.72	55751.56
536.89	55779.65
537.06	56006.68
537.23	55821.78
537.40	55884.97
537.57	55994.98
537.74	55999.66
537.91	56088.60
538.08	56126.05
538.25	55819.44
538.42	55952.85
538.59	56247.75
538.75	55931.78
538.92	56158.81
539.09	56310.95
539.26	56217.33
539.43	56341.38
539.60	56371.80
539.77	56360.10
539.94	56411.59
540.11	56486.49
540.28	56690.12
540.44	56664.37
540.61	56718.20
540.78	56860.97
540.95	56395.21
541.12	56519.26
541.29	56432.66
541.46	56582.45
541.62	56594.15
541.79	56837.57
541.96	56287.54
542.13	56905.44
542.30	56884.38
542.47	56748.63
542.63	56800.12
542.80	56954.60
542.97	57144.18
543.14	57338.44
543.31	57322.06
543.48	57403.98
543.64	57427.38
543.81	57502.28
543.98	57490.58
544.15	57228.44
544.32	57607.61
544.48	57581.86
544.65	57528.03
544.82	57694.21
544.99	57415.68
545.16	57425.04
545.32	57506.96
545.49	57869.75
545.66	57886.13
545.83	57572.50
546.00	57778.46
546.16	57909.53
546.33	57525.69
546.50	57490.58
546.67	57851.02
546.83	57483.56
547.00	57682.50
547.17	57925.92
547.34	57895.49
547.50	58033.58
547.67	58031.24
547.84	58197.42
548.00	58265.30
548.17	58354.24
548.34	58255.93
548.51	58129.54
548.67	58316.79
548.84	58218.49
549.01	58176.36
549.18	58508.71
549.34	58473.60
549.51	58534.46
549.68	58480.63
549.84	58321.47
550.01	58459.56
550.18	58258.27
550.34	58426.79
550.51	58543.82
550.68	58504.03
550.84	58321.47
551.01	58859.79
551.18	58714.68
551.34	58581.27
551.51	58885.54
551.68	58639.78
551.84	58775.53
552.01	58595.31
552.18	58899.58
552.34	58735.74
552.51	58679.57
552.68	58618.72
552.84	58880.86
553.01	59150.02
553.18	58824.68
553.34	59011.93
553.51	58731.06
553.67	58873.84
553.84	59103.21
554.01	58883.20
554.17	58941.71
554.34	58965.12
554.51	59089.16
554.67	59159.38
554.84	59164.06
555.00	59157.04
555.17	59299.81
555.33	59164.06
555.50	59206.19
555.67	59143.00
555.83	59180.45
556.00	59351.30
556.16	59316.20
556.33	59519.82
556.50	59166.40
556.66	59402.80
556.83	59147.68
556.99	59473.01
557.16	59564.29
557.32	59606.42
557.49	59854.52
557.65	59594.72
557.82	59463.65
557.98	59311.52
558.15	59522.16
558.32	59592.38
558.48	59498.76
558.65	59695.36
558.81	59639.19
558.98	59550.25
559.14	59763.24
559.31	59704.73
559.47	59966.87
559.64	59887.29
559.80	59856.86
559.97	59852.18
560.13	59618.13
560.30	59662.60
560.46	59920.05
560.63	59835.80
560.79	59838.14
560.96	59877.93
561.12	59819.41
561.29	60193.90
561.45	60018.36
561.61	59812.39
561.78	59824.09
561.94	59758.56
562.11	59791.33
562.27	59994.95
562.44	60013.68
562.60	60055.81
562.77	60060.49
562.93	60032.40
563.10	60175.17
563.26	59931.76
563.42	60285.18
563.59	60203.26
563.75	60065.17
563.92	60280.50
564.08	60402.21
564.24	60278.16
564.41	60097.94
564.57	60395.18
564.74	60245.39
564.90	60320.29
565.07	60182.19
565.23	60154.11
565.39	60175.17
565.56	60126.02
565.72	60434.97
565.88	60259.43
566.05	60144.75
566.21	60336.67
566.38	60275.82
566.54	60252.41
566.70	60470.08
566.87	60416.25
567.03	60093.25
567.19	60544.98
567.36	60491.15
567.52	60397.52
567.68	60587.11
567.85	60495.83
568.01	60587.11
568.17	60514.55
568.34	60671.37
568.50	60505.19
568.66	60287.52
568.83	60601.15
568.99	60577.75
569.15	60294.54
569.32	60647.96
569.48	60505.19
569.64	60580.09
569.81	60743.92
569.97	60559.02
570.13	60561.36
570.30	60425.61
570.46	60673.71
570.62	60727.54
570.78	60650.30
570.95	60816.48
571.11	60800.10
571.27	60617.53
571.43	60643.28
571.60	60736.90
571.76	60711.16
571.92	60769.67
572.09	60734.56
572.25	60762.65
572.41	60643.28
572.57	60816.48
572.74	60940.53
572.90	60704.13
573.06	60729.88
573.22	60521.57
573.38	60781.37
573.55	60706.47
573.71	61024.79
573.87	61083.30
574.03	60537.96
574.20	60793.07
574.36	60753.29
574.52	60776.69
574.68	60713.50
574.84	60952.23
575.01	60912.44
575.17	60764.99
575.33	60900.74
575.49	60849.25
575.65	60882.02
575.82	60912.44
575.98	60816.48
576.14	61010.74
576.30	60870.31
576.46	61003.72
576.62	60683.07
576.79	60800.10
576.95	60734.56
577.11	61029.47
577.27	60926.49
577.43	60896.06
577.59	60694.77
577.75	60825.84
577.92	60729.88
578.08	60942.87
578.24	60975.64
578.40	60837.54
578.56	61139.47
578.72	60994.36
578.88	61179.26
579.04	61172.24
579.21	60996.70
579.37	61057.56
579.53	61045.85
579.69	61041.17
579.85	60942.87
580.01	60839.89
580.17	60907.76
580.33	61174.58
580.49	60844.57
580.65	61010.74
580.82	61001.38
580.98	60851.59
581.14	60992.02
581.30	61200.33
581.46	61013.08
581.62	61080.96
581.78	61052.87
581.94	61052.87
582.10	60884.36
582.26	61104.37
582.42	61003.72
582.58	60917.12
582.74	60992.02
582.90	61057.56
583.06	61146.50
583.22	60889.04
583.38	60952.23
583.54	61064.58
583.70	60992.02
583.86	61153.52
584.02	60924.14
584.18	61134.79
584.34	61289.27
584.50	61195.65
584.66	61109.05
584.82	60947.55
584.98	61228.41
585.14	61085.64
585.30	61043.51
585.46	61148.84
585.62	61226.07
585.78	61319.70
585.94	60720.52
586.10	61001.38
586.26	61265.86
586.42	61242.46
586.58	61125.43
586.74	61080.96
586.90	61048.19
587.06	61104.37
587.22	61291.61
587.38	61080.96
587.54	61298.63
587.70	61361.82
587.86	61277.57
588.02	60977.98
588.18	61408.64
588.34	61237.78
588.49	61172.24
