SpectraSuite Data File
++++++++++++++++++++++++++++++++++++
Date: Fri Oct 25 11:25:46 EDT 2013
User: price-jones
Dark Spectrum Present: No
Reference Spectrum Present: No
Number of Sampled Component Spectra: 1
Spectrometers: USB2+H05261
Integration Time (usec): 100000 (USB2+H05261)
Spectra Averaged: 1 (USB2+H05261)
Boxcar Smoothing: 0 (USB2+H05261)
Correct for Electrical Dark: No (USB2+H05261)
Strobe/Lamp Enabled: No (USB2+H05261)
Correct for Detector Non-linearity: No (USB2+H05261)
Correct for Stray Light: No (USB2+H05261)
Number of Pixels in Processed Spectrum: 2048
>>>>>Begin Processed Spectral Data<<<<<
365.73	278.52
365.92	278.52
366.12	278.52
366.32	156.82
366.52	93.62
366.72	208.31
366.91	205.97
367.11	138.09
367.31	135.75
367.51	81.92
367.70	128.73
367.90	168.52
368.10	184.90
368.30	156.82
368.49	212.99
368.69	149.79
368.89	154.48
369.09	119.37
369.28	161.50
369.48	215.33
369.68	152.13
369.87	222.35
370.07	259.80
370.27	266.82
370.47	346.40
370.66	688.12
370.86	580.45
371.06	641.31
371.25	723.23
371.45	669.39
371.65	645.99
371.84	650.67
372.04	760.67
372.24	690.46
372.44	662.37
372.63	664.71
372.83	741.95
373.03	685.78
373.22	727.91
373.42	800.46
373.62	788.76
373.81	814.51
374.01	814.51
374.21	856.64
374.40	774.72
374.60	873.02
374.79	777.06
374.99	875.36
375.19	748.97
375.38	821.53
375.58	788.76
375.78	851.96
375.97	812.17
376.17	819.19
376.37	933.87
376.56	924.51
376.76	840.25
376.95	870.68
377.15	931.53
377.35	947.92
377.54	856.64
377.74	873.02
377.93	873.02
378.13	945.58
378.33	952.60
378.52	924.51
378.72	912.81
378.91	1004.09
379.11	964.30
379.31	964.30
379.50	905.79
379.70	994.73
379.89	1067.28
380.09	912.81
380.28	931.53
380.48	997.07
380.68	1015.79
380.87	997.07
381.07	954.94
381.26	1078.99
381.46	926.85
381.65	1001.75
381.85	1060.26
382.04	1022.81
382.24	1060.26
382.43	1011.11
382.63	1043.88
382.83	1102.39
383.02	1135.16
383.22	1055.58
383.41	1165.59
383.61	1184.31
383.80	1149.20
384.00	1097.71
384.19	1032.18
384.39	1128.14
384.58	1100.05
384.78	1158.57
384.97	1088.35
385.17	1144.52
385.36	1174.95
385.56	1076.65
385.75	1111.75
385.95	1294.32
386.14	1313.04
386.34	1167.93
386.53	1224.10
386.72	1137.50
386.92	1207.72
387.11	1252.19
387.31	1158.57
387.50	1259.21
387.70	1186.65
387.89	1352.83
388.09	1266.23
388.28	1263.89
388.48	1273.25
388.67	1294.32
388.86	1259.21
389.06	1238.14
389.25	1301.34
389.45	1306.02
389.64	1348.15
389.84	1315.38
390.03	1359.85
390.22	1401.98
390.42	1406.66
390.61	1308.36
390.81	1430.07
391.00	1373.89
391.19	1444.11
391.39	1425.39
391.58	1397.30
391.78	1345.81
391.97	1486.24
392.16	1462.83
392.36	1493.26
392.55	1495.60
392.75	1638.38
392.94	1561.14
393.13	1523.69
393.33	1526.03
393.52	1502.62
393.71	1631.35
393.91	1596.25
394.10	1591.56
394.29	1643.06
394.49	1561.14
394.68	1659.44
394.88	1612.63
395.07	1577.52
395.26	1710.93
395.46	1556.46
395.65	1729.66
395.84	1624.33
396.04	1898.17
396.23	1722.63
396.42	1767.10
396.62	1713.27
396.81	1689.87
397.00	1703.91
397.19	1888.81
397.39	1753.06
397.58	1795.19
397.77	1813.92
397.97	1902.86
398.16	1790.51
398.35	1900.52
398.55	1895.83
398.74	1844.34
398.93	1888.81
399.12	1893.49
399.32	1977.75
399.51	2001.16
399.70	2085.42
399.90	1935.62
400.09	1928.60
400.28	1963.71
400.47	2003.50
400.67	2099.46
400.86	2104.14
401.05	2015.20
401.24	2251.60
401.44	2176.70
401.63	2038.61
401.82	2211.81
402.01	2132.23
402.21	2141.59
402.40	2246.91
402.59	2232.87
402.78	2235.21
402.97	2298.41
403.17	2209.47
403.36	2183.72
403.55	2242.23
403.74	2230.53
403.93	2265.64
404.13	2317.13
404.32	2394.37
404.51	2401.39
404.70	2422.45
404.89	2342.88
405.09	2513.74
405.28	2413.09
405.47	2473.95
405.66	2436.50
405.85	2567.57
406.05	2473.95
406.24	2459.90
406.43	2602.68
406.62	2532.46
406.81	2574.59
407.00	2506.71
407.20	2621.40
407.39	2602.68
407.58	2651.83
407.77	2619.06
407.96	2715.02
408.15	2761.83
408.34	2621.40
408.54	2752.47
408.73	2780.56
408.92	2892.90
409.11	2871.84
409.30	2956.10
409.49	3047.38
409.68	2885.88
409.87	2843.75
410.07	2956.10
410.26	3000.57
410.45	3042.70
410.64	3066.10
410.83	3133.98
411.02	3119.93
411.21	3133.98
411.40	3042.70
411.59	3162.06
411.78	3143.34
411.98	3162.06
412.17	3281.43
412.36	3349.31
412.55	3344.63
412.74	3314.20
412.93	3435.91
413.12	3342.28
413.31	3496.76
413.50	3445.27
413.69	3431.23
413.88	3461.65
414.07	3382.07
414.26	3606.77
414.45	3569.32
414.64	3660.60
414.83	3735.50
415.02	3808.05
415.22	3861.88
415.41	3896.99
415.60	3850.18
415.79	3747.20
415.98	3950.82
416.17	3936.78
416.36	3896.99
416.55	4037.42
416.74	4109.98
416.93	4119.34
417.12	3960.19
417.31	4138.07
417.50	3960.19
417.69	4318.29
417.88	4205.94
418.07	4269.14
418.26	4243.39
418.45	4297.22
418.64	4461.06
418.83	4248.07
419.02	4311.27
419.21	4397.87
419.39	4512.55
419.58	4451.70
419.77	4407.23
419.96	4538.30
420.15	4730.22
420.34	4477.44
420.53	4533.62
420.72	4760.65
420.91	4643.62
421.10	4702.14
421.29	4807.46
421.48	4723.20
421.67	4702.14
421.86	4788.74
422.05	4772.35
422.24	4800.44
422.43	4835.55
422.61	4770.01
422.80	4828.53
422.99	4821.50
423.18	4954.91
423.37	5139.82
423.56	4877.68
423.75	4858.95
423.94	4814.48
424.13	4674.05
424.32	4739.58
424.50	5071.94
424.69	5207.69
424.88	4994.70
425.07	4751.29
425.26	4882.36
425.45	4999.38
425.64	4875.34
425.83	4940.87
426.01	5100.03
426.20	4891.72
426.39	5118.75
426.58	4957.25
426.77	5046.20
426.96	5048.54
427.15	5146.84
427.33	5125.77
427.52	5050.88
427.71	5338.76
427.90	5167.90
428.09	5310.68
428.28	5226.42
428.46	5394.93
428.65	5336.42
428.84	5526.00
429.03	5252.16
429.22	5249.82
429.40	5378.55
429.59	5451.11
429.78	5301.31
429.97	5116.41
430.16	5420.68
430.34	5296.63
430.53	5565.79
430.72	5701.54
430.91	5673.46
431.10	5579.84
431.28	5748.36
431.47	5757.72
431.66	5820.91
431.85	5734.31
432.03	5944.96
432.22	5753.04
432.41	5930.92
432.60	5956.66
432.79	6031.56
432.97	6010.50
433.16	6045.60
433.35	5809.21
433.54	6066.67
433.72	6078.37
433.91	6106.46
434.10	6083.05
434.28	5984.75
434.47	6179.01
434.66	6204.76
434.85	6122.84
435.03	6345.19
435.22	6251.57
435.41	6368.60
435.59	6338.17
435.78	6455.20
435.97	6457.54
436.16	6242.21
436.34	6518.39
436.53	6420.09
436.72	6448.18
436.90	6431.79
437.09	6729.04
437.28	6588.61
437.46	6651.80
437.65	6565.20
437.84	6754.79
438.02	6593.29
438.21	6661.16
438.40	6628.40
438.58	6988.84
438.77	6890.54
438.96	6960.75
439.14	6960.75
439.33	6972.46
439.52	7145.66
439.70	7258.00
439.89	7283.75
440.08	7459.29
440.26	7311.83
440.45	7262.68
440.63	7201.83
440.82	7545.89
441.01	7389.07
441.19	7510.78
441.38	7889.95
441.57	7707.38
441.75	7779.94
441.94	7943.78
442.12	7868.88
442.31	8037.40
442.50	7992.93
442.68	7978.89
442.87	8021.02
443.05	7896.97
443.24	7969.52
443.43	8067.83
443.61	8287.84
443.80	8320.60
443.98	7939.10
444.17	7810.37
444.35	8156.77
444.54	8248.05
444.73	8252.73
444.91	8276.13
445.10	8262.09
445.28	8126.34
445.47	8231.66
445.65	8283.16
445.84	8414.23
446.02	8203.58
446.21	8351.03
446.39	8332.31
446.58	8341.67
446.77	8489.12
446.95	8203.58
447.14	8259.75
447.32	8526.57
447.51	8435.29
447.69	8269.11
447.88	8493.80
448.06	8493.80
448.25	8416.57
448.43	8535.93
448.62	8456.36
448.80	8404.86
448.99	8301.88
449.17	8718.50
449.36	8472.74
449.54	8847.22
449.73	8837.86
449.91	9032.13
450.10	9083.62
450.28	9083.62
450.46	9015.74
450.65	9029.79
450.83	8767.65
451.02	9095.32
451.20	9102.34
451.39	9104.68
451.57	9123.41
451.76	8912.76
451.94	9226.39
452.13	9273.20
452.31	9317.67
452.49	9006.38
452.68	9261.50
452.86	9188.94
453.05	9308.31
453.23	9383.21
453.42	9298.95
453.60	9317.67
453.78	9341.08
453.97	9465.13
454.15	9399.59
454.34	9392.57
454.52	9521.30
454.70	9713.22
454.89	9453.42
455.07	9795.14
455.26	9607.90
455.44	9703.86
455.62	9741.31
455.81	10003.45
455.99	9853.66
456.17	10022.17
456.36	9907.49
456.54	9921.53
456.73	10113.45
456.91	10373.25
457.09	10289.00
457.28	10462.19
457.46	10345.17
457.64	10590.92
457.83	10417.72
458.01	10590.92
458.19	10518.37
458.38	10499.64
458.56	10785.19
458.74	10485.60
458.93	10338.15
459.11	10724.33
459.29	10588.58
459.48	10595.61
459.66	10595.61
459.84	10785.19
460.03	11054.35
460.21	10944.34
460.39	10913.92
460.57	10932.64
460.76	11176.06
460.94	10970.09
461.12	11087.12
461.31	11316.49
461.49	11005.20
461.67	11154.99
461.85	11232.23
462.04	11122.23
462.22	11639.48
462.40	11592.67
462.59	11300.11
462.77	11513.10
462.95	11569.27
463.13	11585.65
463.32	11559.91
463.50	11606.72
463.68	11840.77
463.86	11627.78
464.05	11712.04
464.23	11749.49
464.41	11737.79
464.59	11679.27
464.78	11899.28
464.96	11932.05
465.14	11789.28
465.32	11803.32
465.50	12084.19
465.69	12086.53
465.87	12119.29
466.05	12002.27
466.23	12273.77
466.41	12013.97
466.60	12257.39
466.78	11997.59
466.96	12107.59
467.14	12175.47
467.32	12095.89
467.51	12276.11
467.69	12241.00
467.87	12437.61
468.05	12442.29
468.23	12233.98
468.41	12381.43
468.60	12393.14
468.78	12540.59
468.96	12674.00
469.14	12690.38
469.32	12964.23
469.50	12659.96
469.69	12882.31
469.87	13043.81
470.05	12978.27
470.23	13312.97
470.41	13172.54
470.59	13085.94
470.77	13109.34
470.95	13109.34
471.14	13540.00
471.32	13184.24
471.50	13554.04
471.68	13446.38
471.86	13502.55
472.04	13612.56
472.22	13954.27
472.40	13518.93
472.58	13664.05
472.77	13757.67
472.95	14122.79
473.13	14452.81
473.31	13947.25
473.49	14457.49
473.67	14059.60
473.85	14244.50
474.03	14368.55
474.21	14630.69
474.39	14450.47
474.57	14579.20
474.75	14909.21
474.93	14789.85
475.12	14925.60
475.30	14918.57
475.48	15089.43
475.66	14970.07
475.84	15236.89
476.02	15269.66
476.20	14988.79
476.38	15484.98
476.56	15925.00
476.74	15896.92
476.92	15730.74
477.10	15861.81
477.28	16095.86
477.46	16067.78
477.64	16100.55
477.82	16521.84
478.00	16819.09
478.18	16524.18
478.36	16416.52
478.54	16924.41
478.72	16915.05
478.90	17341.03
479.08	17193.58
479.26	17891.06
479.44	17476.78
479.62	17584.44
479.80	17951.91
479.98	17975.31
480.16	18284.26
480.34	18405.97
480.52	18384.91
480.70	18518.32
480.88	18139.15
481.06	18792.16
481.24	18913.87
481.41	18885.78
481.59	19087.07
481.77	19051.96
481.95	19524.75
482.13	19864.13
482.31	19620.71
482.49	20072.43
482.67	19765.82
482.85	20086.48
483.03	20650.55
483.21	20676.29
483.39	20805.02
483.57	21003.97
483.74	20898.64
483.92	21364.41
484.10	21167.80
484.28	21502.50
484.46	21977.63
484.64	22129.77
484.82	21785.71
485.00	22160.19
485.18	22387.22
485.35	22874.06
485.53	22834.27
485.71	23246.20
485.89	23243.86
486.07	23330.46
486.25	23136.20
486.43	23215.77
486.61	23929.64
486.78	23597.28
486.96	24123.90
487.14	24290.08
487.32	24610.73
487.50	24819.04
487.68	24870.53
487.85	25125.65
488.03	25486.09
488.21	25621.84
488.39	25834.83
488.57	25593.76
488.75	26022.08
488.92	26139.10
489.10	26321.66
489.28	26604.87
489.46	27241.50
489.64	26742.96
489.81	27562.15
489.99	27363.20
490.17	27527.04
490.35	28030.26
490.53	28334.53
490.70	28458.57
490.88	28217.50
491.06	28575.60
491.24	28360.27
491.41	28638.80
491.59	29055.41
491.77	29055.41
491.95	29572.67
492.13	29783.32
492.30	29677.99
492.48	29780.98
492.66	29879.28
492.84	30059.50
493.01	30359.09
493.19	30806.13
493.37	30700.81
493.54	31096.36
493.72	31459.14
493.90	31435.74
494.08	31555.10
494.25	31967.04
494.43	32025.55
494.61	31868.73
494.79	32219.81
494.96	32524.08
495.14	32285.35
495.32	33034.32
495.49	33034.32
495.67	32975.81
495.85	33333.91
496.02	33294.12
496.20	33830.10
496.38	33909.68
496.55	34059.48
496.73	34380.13
496.91	33977.56
497.09	34518.22
497.26	34801.43
497.44	34543.97
497.62	35171.23
497.79	35747.00
497.97	35452.09
498.14	35688.49
498.32	35768.07
498.50	35889.77
498.67	36088.72
498.85	36079.36
499.03	36491.29
499.20	36392.99
499.38	36315.75
499.56	36769.82
499.73	36758.11
499.91	37427.51
500.08	37216.86
500.26	36945.36
500.44	37366.65
500.61	38103.92
500.79	37551.56
500.97	38080.52
501.14	38270.10
501.32	38188.18
501.49	38539.26
501.67	38557.99
501.84	38352.02
502.02	38778.00
502.20	38763.95
502.37	38911.41
502.55	38864.60
502.72	39571.44
502.90	39117.37
503.07	39454.41
503.25	39992.73
503.43	39388.88
503.60	39700.17
503.78	39885.07
503.95	39777.40
504.13	40505.31
504.30	40472.54
504.48	40278.28
504.65	40512.33
504.83	40765.11
505.01	40950.01
505.18	40774.47
505.36	41263.64
505.53	41074.06
505.71	41345.56
505.88	41577.28
506.06	41219.17
506.23	41605.36
506.41	41951.76
506.58	41434.50
506.76	41773.88
506.93	42054.75
507.11	41794.95
507.28	41900.27
507.46	42579.03
507.63	42462.00
507.81	43152.46
507.98	42630.52
508.16	42852.87
508.33	43065.86
508.50	42997.98
508.68	43510.56
508.85	43634.61
509.03	43358.42
509.20	43711.84
509.38	44142.50
509.55	44252.51
509.73	44575.50
509.90	44552.10
510.08	44044.20
510.25	44250.17
510.42	44519.33
510.60	44509.97
510.77	44889.13
510.95	45076.38
511.12	44875.09
511.30	45230.85
511.47	44928.92
511.64	45205.11
511.82	45633.42
511.99	45727.05
512.17	45762.15
512.34	46288.77
512.51	45928.33
512.69	45872.16
512.86	46293.46
513.04	46478.36
513.21	46127.28
513.38	46794.33
513.56	46373.03
513.73	46588.36
513.90	46920.72
514.08	46731.14
514.25	47150.09
514.43	47325.63
514.60	47004.98
514.77	46974.55
514.95	47725.86
515.12	47199.24
515.29	47243.71
515.47	47828.85
515.64	48046.52
515.81	47700.12
515.99	48093.33
516.16	48458.45
516.33	47952.90
516.51	48322.70
516.68	48133.12
516.85	48446.75
517.03	48594.20
517.20	48699.53
517.37	48383.55
517.54	48545.05
517.72	48814.21
517.89	48821.23
518.06	49216.78
518.24	49062.31
518.41	48924.22
518.58	49092.74
518.75	49256.57
518.93	48985.07
519.10	49361.90
519.27	49118.48
519.45	49324.45
519.62	49710.64
519.79	49748.09
519.96	49354.88
520.14	49930.65
520.31	49790.22
520.48	50468.97
520.65	50010.23
520.83	50258.32
521.00	50480.67
521.17	50277.05
521.34	50548.55
521.52	50464.29
521.69	50562.59
521.86	50548.55
522.03	50571.96
522.20	51019.00
522.38	51229.65
522.55	50899.63
522.72	51100.92
522.89	51168.79
523.07	51264.75
523.24	51543.28
523.41	51590.09
523.58	51229.65
523.75	51786.69
523.92	51498.81
524.10	51711.80
524.27	51657.96
524.44	51543.28
524.61	52119.05
524.78	51877.97
524.96	52032.45
525.13	52203.31
525.30	52261.82
525.47	52435.02
525.64	52425.66
525.81	52629.29
525.98	52598.86
526.16	52458.43
526.33	52416.30
526.50	52629.29
526.67	52575.45
526.84	53022.50
527.01	52772.06
527.18	52811.85
527.36	52729.93
527.53	52725.25
527.70	53001.43
527.87	53294.00
528.04	53006.11
528.21	53237.83
528.38	53043.56
528.55	53368.90
528.72	53469.54
528.89	53109.10
529.07	53394.64
529.24	53200.38
529.41	53525.71
529.58	53165.27
529.75	53286.98
529.92	53708.27
530.09	53614.65
530.26	53698.91
530.43	54040.63
530.60	53488.26
530.77	53570.18
530.94	53717.64
531.11	53846.36
531.28	53874.45
531.46	54024.25
531.63	53837.00
531.80	53897.86
531.97	54129.57
532.14	54000.84
532.31	54284.04
532.48	54227.87
532.65	54305.11
532.82	54157.66
532.99	54955.78
533.16	54387.03
533.33	54731.09
533.50	54836.41
533.67	54368.30
533.84	54454.90
534.01	54787.26
534.18	54513.42
534.35	55047.06
534.52	54864.50
534.69	54932.37
534.86	55168.77
535.03	54808.32
535.20	54913.65
535.37	55384.10
535.54	55306.86
535.71	55199.19
535.88	55468.36
536.05	55241.32
536.22	55400.48
536.38	55796.03
536.55	55395.80
536.72	55428.57
536.89	55477.72
537.06	55725.81
537.23	55580.70
537.40	55498.78
537.57	55405.16
537.74	55676.66
537.91	55817.10
538.08	55730.50
538.25	55398.14
538.42	55758.58
538.59	56076.90
538.75	55814.76
538.92	55922.42
539.09	56060.51
539.26	55994.98
539.43	55845.18
539.60	55978.59
539.77	55950.51
539.94	56385.85
540.11	56278.18
540.28	56488.83
540.44	56287.54
540.61	56280.52
540.78	56135.41
540.95	55969.23
541.12	56135.41
541.29	56355.42
541.46	56266.48
541.62	56402.23
541.79	56500.53
541.96	56322.65
542.13	56383.51
542.30	56470.11
542.47	56566.07
542.63	56685.43
542.80	56704.16
542.97	56676.07
543.14	56947.57
543.31	56793.10
543.48	57169.93
543.64	57275.25
543.81	57078.64
543.98	57041.20
544.15	57064.60
544.32	57340.78
544.48	57324.40
544.65	57167.58
544.82	57261.21
544.99	57097.37
545.16	57064.60
545.32	57216.74
545.49	57504.62
545.66	57406.32
545.83	57490.58
546.00	57389.94
546.16	57567.82
546.33	57408.66
546.50	57448.45
546.67	57626.33
546.83	57462.49
547.00	57726.97
547.17	57649.74
547.34	57530.37
547.50	57792.51
547.67	57829.96
547.84	57733.99
548.00	57827.62
548.17	57968.05
548.34	57851.02
548.51	58071.03
548.67	58031.24
548.84	57954.00
549.01	57986.77
549.18	58108.48
549.34	58059.33
549.51	58071.03
549.68	58199.76
549.84	58258.27
550.01	58248.91
550.18	58005.50
550.34	58159.97
550.51	58356.58
550.68	58061.67
550.84	58028.90
551.01	58396.37
551.18	58286.36
551.34	58024.22
551.51	58333.17
551.68	58403.39
551.84	58454.88
552.01	58169.33
552.18	58672.55
552.34	58408.07
552.51	58642.12
552.68	58403.39
552.84	58394.03
553.01	58674.89
553.18	58649.14
553.34	58871.49
553.51	58642.12
553.67	58777.87
553.84	58822.34
554.01	58614.04
554.17	58885.54
554.34	59030.65
554.51	58831.71
554.67	58887.88
554.84	58972.14
555.00	58915.96
555.17	58848.09
555.33	59014.27
555.50	58841.07
555.67	58805.96
555.83	58934.69
556.00	59058.74
556.16	59185.13
556.33	59210.87
556.50	58899.58
556.66	58965.12
556.83	58702.98
556.99	59281.09
557.16	59171.08
557.32	59260.02
557.49	59587.70
557.65	59086.82
557.82	59257.68
557.98	59159.38
558.15	59140.66
558.32	59428.54
558.48	59334.92
558.65	59302.15
558.81	59220.23
558.98	59428.54
559.14	59524.50
559.31	59393.43
559.47	59615.79
559.64	59536.21
559.80	59683.66
559.97	59686.00
560.13	59430.88
560.30	59531.53
560.46	59601.74
560.63	59622.81
560.79	59543.23
560.96	59662.60
561.12	59863.88
561.29	59561.95
561.45	59454.29
561.61	59641.53
561.78	59674.30
561.94	59573.66
562.11	59487.06
562.27	59657.91
562.44	59770.26
562.60	59934.10
562.77	59812.39
562.93	59828.77
563.10	59983.25
563.26	59812.39
563.42	60067.51
563.59	59821.75
563.75	59688.34
563.92	59887.29
564.08	59955.16
564.24	60009.00
564.41	59915.37
564.57	60044.10
564.74	60114.32
564.90	59929.42
565.07	59999.63
565.23	60032.40
565.39	60039.42
565.56	59936.44
565.72	60046.44
565.88	60058.15
566.05	59863.88
566.21	59938.78
566.38	60109.64
566.54	60179.85
566.70	60004.31
566.87	60243.05
567.03	60030.06
567.19	60313.26
567.36	60252.41
567.52	60149.43
567.68	60268.79
567.85	60067.51
568.01	60133.04
568.17	60205.60
568.34	60299.22
568.50	60170.49
568.66	60175.17
568.83	60261.77
568.99	60137.72
569.15	60184.54
569.32	60273.48
569.48	60168.15
569.64	60786.05
569.81	60224.32
569.97	60090.91
570.13	60196.24
570.30	60172.83
570.46	60221.98
570.62	60339.01
570.78	60439.65
570.95	60205.60
571.11	60472.42
571.27	60142.41
571.43	60360.08
571.60	60509.87
571.76	60212.62
571.92	60430.29
572.09	60430.29
572.25	60402.21
572.41	60257.09
572.57	60507.53
572.74	60753.29
572.90	60346.03
573.06	60411.57
573.22	60430.29
573.38	60397.52
573.55	60444.33
573.71	60694.77
573.87	60605.83
574.03	60512.21
574.20	60498.17
574.36	60516.89
574.52	60685.41
574.68	60573.06
574.84	60554.34
575.01	60608.17
575.17	60570.72
575.33	60605.83
575.49	60355.39
575.65	60533.28
575.82	60638.60
575.98	60566.04
576.14	60729.88
576.30	60788.39
576.46	60617.53
576.62	60617.53
576.79	60568.38
576.95	60486.46
577.11	60718.18
577.27	60814.14
577.43	60678.39
577.59	60718.18
577.75	60732.22
577.92	60650.30
578.08	60603.49
578.24	60624.56
578.40	60839.89
578.56	60615.19
578.72	60685.41
578.88	60769.67
579.04	61045.85
579.21	60598.81
579.37	60697.11
579.53	60931.17
579.69	60472.42
579.85	60750.94
580.01	60654.98
580.17	60580.09
580.33	60933.51
580.49	60853.93
580.65	60933.51
580.82	60774.35
580.98	60657.32
581.14	60523.91
581.30	60912.44
581.46	60945.21
581.62	60736.90
581.78	60507.53
581.94	60814.14
582.10	60713.50
582.26	60725.20
582.42	60624.56
582.58	60715.84
582.74	60884.36
582.90	60779.03
583.06	60846.91
583.22	60652.64
583.38	60856.27
583.54	60720.52
583.70	60903.08
583.86	60849.25
584.02	60748.60
584.18	60947.55
584.34	60828.18
584.50	60865.63
584.66	60570.72
584.82	60624.56
584.98	60989.68
585.14	61024.79
585.30	60498.17
585.46	60996.70
585.62	60809.46
585.78	61029.47
585.94	60603.49
586.10	60816.48
586.26	60966.27
586.42	60683.07
586.58	60977.98
586.74	60942.87
586.90	60809.46
587.06	60753.29
587.22	61043.51
587.38	60877.33
587.54	60816.48
587.70	61006.06
587.86	60867.97
588.02	60921.80
588.18	61057.56
588.34	61015.43
588.49	60863.29
