SpectraSuite Data File
++++++++++++++++++++++++++++++++++++
Date: Fri Oct 25 11:23:20 EDT 2013
User: price-jones
Dark Spectrum Present: No
Reference Spectrum Present: No
Number of Sampled Component Spectra: 1
Spectrometers: USB2+H05261
Integration Time (usec): 100000 (USB2+H05261)
Spectra Averaged: 1 (USB2+H05261)
Boxcar Smoothing: 0 (USB2+H05261)
Correct for Electrical Dark: No (USB2+H05261)
Strobe/Lamp Enabled: No (USB2+H05261)
Correct for Detector Non-linearity: No (USB2+H05261)
Correct for Stray Light: No (USB2+H05261)
Number of Pixels in Processed Spectrum: 2048
>>>>>Begin Processed Spectral Data<<<<<
365.73	208.31
365.92	208.31
366.12	208.31
366.32	79.58
366.52	131.07
366.72	156.82
366.91	70.22
367.11	79.58
367.31	135.75
367.51	88.94
367.70	163.84
367.90	145.11
368.10	105.32
368.30	131.07
368.49	140.43
368.69	210.65
368.89	187.24
369.09	166.18
369.28	184.90
369.48	166.18
369.68	208.31
369.87	140.43
370.07	220.01
370.27	198.95
370.47	325.33
370.66	578.11
370.86	657.69
371.06	587.47
371.25	641.31
371.45	657.69
371.65	753.65
371.84	727.91
372.04	683.44
372.24	744.29
372.44	681.10
372.63	795.78
372.83	802.80
373.03	732.59
373.22	748.97
373.42	739.61
373.62	704.50
373.81	763.01
374.01	877.70
374.21	772.38
374.40	842.59
374.60	826.21
374.79	793.44
374.99	805.14
375.19	873.02
375.38	821.53
375.58	779.40
375.78	922.17
375.97	896.43
376.17	926.85
376.37	837.91
376.56	849.61
376.76	908.13
376.95	842.59
377.15	943.24
377.35	926.85
377.54	922.17
377.74	849.61
377.93	847.27
378.13	894.08
378.33	917.49
378.52	933.87
378.72	926.85
378.91	880.04
379.11	959.62
379.31	952.60
379.50	873.02
379.70	901.11
379.89	877.70
380.09	887.06
380.28	931.53
380.48	1034.52
380.68	940.90
380.87	997.07
381.07	1088.35
381.26	1064.94
381.46	1022.81
381.65	1029.84
381.85	1001.75
382.04	1022.81
382.24	1032.18
382.43	1013.45
382.63	1050.90
382.83	1081.33
383.02	1130.48
383.22	1179.63
383.41	1107.07
383.61	1198.35
383.80	1100.05
384.00	1174.95
384.19	1200.69
384.39	1151.54
384.58	1139.84
384.78	1167.93
384.97	1179.63
385.17	1245.16
385.36	1200.69
385.56	1231.12
385.75	1219.42
385.95	1114.10
386.14	1172.61
386.34	1191.33
386.53	1174.95
386.72	1107.07
386.92	1198.35
387.11	1226.44
387.31	1217.08
387.50	1221.76
387.70	1256.87
387.89	1291.98
388.09	1240.48
388.28	1320.06
388.48	1287.29
388.67	1359.85
388.86	1308.36
389.06	1228.78
389.25	1345.81
389.45	1373.89
389.64	1357.51
389.84	1366.87
390.03	1451.13
390.22	1441.77
390.42	1430.07
390.61	1378.58
390.81	1458.15
391.00	1413.68
391.19	1486.24
391.39	1448.79
391.58	1610.29
391.78	1530.71
391.97	1474.54
392.16	1479.22
392.36	1453.47
392.55	1568.16
392.75	1469.86
392.94	1530.71
393.13	1556.46
393.33	1593.90
393.52	1605.61
393.71	1605.61
393.91	1638.38
394.10	1551.78
394.29	1696.89
394.49	1610.29
394.68	1500.28
394.88	1666.46
395.07	1720.29
395.26	1692.21
395.46	1732.00
395.65	1717.95
395.84	1638.38
396.04	1785.83
396.23	1722.63
396.42	1771.79
396.62	1771.79
396.81	1762.42
397.00	1788.17
397.19	1898.17
397.39	1823.28
397.58	1830.30
397.77	1846.68
397.97	1907.54
398.16	1893.49
398.35	1970.73
398.55	1844.34
398.74	1937.96
398.93	1942.64
399.12	1963.71
399.32	1884.13
399.51	1891.15
399.70	1980.09
399.90	2071.37
400.09	1975.41
400.28	2106.48
400.47	2087.76
400.67	2080.74
400.86	2045.63
401.05	2059.67
401.24	2214.15
401.44	2190.74
401.63	2214.15
401.82	2356.92
402.01	2069.03
402.21	2225.85
402.40	2209.47
402.59	2256.28
402.78	2293.72
402.97	2267.98
403.17	2321.81
403.36	2296.07
403.55	2380.32
403.74	2399.05
403.93	2413.09
404.13	2436.50
404.32	2389.69
404.51	2340.54
404.70	2424.80
404.89	2534.80
405.09	2612.04
405.28	2527.78
405.47	2483.31
405.66	2532.46
405.85	2626.08
406.05	2555.86
406.24	2612.04
406.43	2574.59
406.62	2633.10
406.81	2612.04
407.00	2626.08
407.20	2569.91
407.39	2614.38
407.58	2712.68
407.77	2740.77
407.96	2715.02
408.15	2794.60
408.34	2698.64
408.54	2789.92
408.73	2740.77
408.92	2806.30
409.11	2939.71
409.30	2920.99
409.49	2920.99
409.68	2878.86
409.87	2923.33
410.07	3105.89
410.26	3049.72
410.45	3040.36
410.64	3068.44
410.83	3124.62
411.02	3183.13
411.21	3194.83
411.40	3194.83
411.59	3276.75
411.78	3295.47
411.98	3251.00
412.17	3243.98
412.36	3375.05
412.55	3440.59
412.74	3534.21
412.93	3529.53
413.12	3407.82
413.31	3447.61
413.50	3665.28
413.69	3618.47
413.88	3637.19
414.07	3646.55
414.26	3700.39
414.45	3786.99
414.64	3672.30
414.83	3686.34
415.02	3943.80
415.22	3859.54
415.41	3845.50
415.60	3810.39
415.79	3983.59
415.98	3978.91
416.17	3992.95
416.36	4077.21
416.55	3950.82
416.74	4138.07
416.93	3978.91
417.12	4131.05
417.31	4285.52
417.50	4070.19
417.69	4262.12
417.88	4234.03
418.07	4229.35
418.26	4348.72
418.45	4381.48
418.64	4507.87
418.83	4465.74
419.02	4449.36
419.21	4510.21
419.39	4617.88
419.58	4542.98
419.77	4486.81
419.96	4716.18
420.15	4428.29
420.34	4704.48
420.53	4655.33
420.72	4821.50
420.91	4762.99
421.10	4950.23
421.29	4779.37
421.48	4732.56
421.67	4737.24
421.86	4819.16
422.05	4781.71
422.24	4800.44
422.43	4861.29
422.61	4931.51
422.80	4975.98
422.99	4854.27
423.18	5048.54
423.37	4975.98
423.56	5004.07
423.75	4908.10
423.94	4809.80
424.13	4561.70
424.32	4880.02
424.50	4971.30
424.69	5437.06
424.88	5001.72
425.07	5078.96
425.26	4873.00
425.45	5078.96
425.64	5041.51
425.83	4896.40
426.01	5146.84
426.20	5198.33
426.39	5125.77
426.58	5139.82
426.77	5078.96
426.96	5301.31
427.15	5076.62
427.33	5172.58
427.52	5261.52
427.71	5266.21
427.90	5268.55
428.09	5226.42
428.28	5479.19
428.46	5497.92
428.65	5460.47
428.84	5654.73
429.03	5617.29
429.22	5462.81
429.40	5537.71
429.59	5558.77
429.78	5394.93
429.97	5273.23
430.16	5593.88
430.34	5692.18
430.53	5717.93
430.72	5650.05
430.91	5668.78
431.10	5631.33
431.28	5874.74
431.47	5893.47
431.66	5823.25
431.85	5673.46
432.03	5980.07
432.22	6017.52
432.41	5991.77
432.60	5933.26
432.79	6012.84
432.97	6043.26
433.16	6146.25
433.35	6010.50
433.54	6111.14
433.72	6282.00
433.91	6146.25
434.10	6253.91
434.28	6066.67
434.47	6223.48
434.66	6293.70
434.85	6541.80
435.03	6464.56
435.22	6363.92
435.41	6492.65
435.59	6466.90
435.78	6633.08
435.97	6420.09
436.16	6366.26
436.34	6651.80
436.53	6422.43
436.72	6796.92
436.90	6668.19
437.09	6764.15
437.28	6560.52
437.46	6640.10
437.65	6712.66
437.84	6787.55
438.02	6745.42
438.21	6827.34
438.40	6619.04
438.58	7056.72
438.77	7030.97
438.96	7066.08
439.14	7049.69
439.33	7396.09
439.52	7407.80
439.70	7246.30
439.89	7382.05
440.08	7407.80
440.26	7447.58
440.45	7442.90
440.63	7562.27
440.82	7583.34
441.01	7707.38
441.19	7688.66
441.38	7627.81
441.57	7789.30
441.75	7749.51
441.94	7908.67
442.12	8044.42
442.31	8262.09
442.50	8088.89
442.68	8046.76
442.87	8051.44
443.05	8210.60
443.24	8416.57
443.43	8149.75
443.61	8386.14
443.80	8608.49
443.98	8084.21
444.17	8088.89
444.35	8222.30
444.54	8365.07
444.73	8517.21
444.91	8390.82
445.10	8297.20
445.28	8390.82
445.47	8454.02
445.65	8386.14
445.84	8531.25
446.02	8578.06
446.21	8393.16
446.39	8400.18
446.58	8634.24
446.77	8613.17
446.95	8346.35
447.14	8608.49
447.32	8671.68
447.51	8608.49
447.69	8683.39
447.88	8617.85
448.06	8498.49
448.25	8519.55
448.43	8851.91
448.62	8554.66
448.80	8718.50
448.99	8746.58
449.17	8901.06
449.36	8887.01
449.54	8971.27
449.73	8840.20
449.91	9109.36
450.10	9186.60
450.28	9076.60
450.46	9233.41
450.65	9341.08
450.83	9165.54
451.02	9198.31
451.20	9263.84
451.39	9245.12
451.57	8922.12
451.76	9242.78
451.94	9280.22
452.13	9741.31
452.31	9455.76
452.49	9242.78
452.68	9369.16
452.86	9397.25
453.05	9432.36
453.23	9600.88
453.42	9479.17
453.60	9366.82
453.78	9813.87
453.97	9834.93
454.15	9795.14
454.34	9668.75
454.52	9809.19
454.70	9797.48
454.89	9914.51
455.07	9813.87
455.26	9982.38
455.44	10127.50
455.62	9942.60
455.81	9949.62
455.99	10291.34
456.17	10078.35
456.36	10129.84
456.54	10490.28
456.73	10286.65
456.91	10609.65
457.09	10520.71
457.28	10675.18
457.46	10450.49
457.64	10644.76
457.83	10738.38
458.01	10487.94
458.19	10810.93
458.38	10768.80
458.56	10824.98
458.74	10738.38
458.93	10705.61
459.11	10906.90
459.29	11049.67
459.48	10902.22
459.66	10949.03
459.84	11061.37
460.03	11080.10
460.21	11190.10
460.39	11049.67
460.57	11002.86
460.76	11082.44
460.94	11370.32
461.12	11335.21
461.31	11267.34
461.49	11482.67
461.67	11337.56
461.85	11431.18
462.04	11405.43
462.22	11784.60
462.40	11772.89
462.59	11688.64
462.77	11562.25
462.95	11590.33
463.13	11768.21
463.32	11623.10
463.50	11974.18
463.68	11861.84
463.86	12030.35
464.05	11894.60
464.23	11597.35
464.41	12100.57
464.59	11812.68
464.78	12339.30
464.96	12159.08
465.14	11962.48
465.32	12442.29
465.50	12266.75
465.69	12449.31
465.87	12496.12
466.05	12313.56
466.23	12233.98
466.41	12290.15
466.60	12547.61
466.78	12489.10
466.96	12451.65
467.14	12369.73
467.32	12706.77
467.51	12624.85
467.69	12428.24
467.87	12676.34
468.05	12603.78
468.23	12620.17
468.41	12748.90
468.60	12901.03
468.78	12938.48
468.96	12685.70
469.14	12938.48
469.32	13097.64
469.50	12774.64
469.69	12982.95
469.87	13097.64
470.05	13324.67
470.23	13238.07
470.41	13500.21
470.59	13212.32
470.77	13399.57
470.95	13577.45
471.14	13575.11
471.32	13422.97
471.50	13860.65
471.68	13668.73
471.86	13900.44
472.04	13862.99
472.22	14115.77
472.40	13954.27
472.58	14225.78
472.77	14230.46
472.95	14122.79
473.13	14850.70
473.31	14214.07
473.49	14115.77
473.67	14384.93
473.85	14342.80
474.03	14785.16
474.21	14663.46
474.39	15267.31
474.57	14752.40
474.75	15115.18
474.93	15276.68
475.12	15159.65
475.30	15194.76
475.48	15335.19
475.66	15267.31
475.84	15040.28
476.02	15756.49
476.20	15367.96
476.38	15920.32
476.56	16056.08
476.74	16086.50
476.92	16362.69
477.10	15901.60
477.28	16432.90
477.46	16262.04
477.64	16788.66
477.82	16875.26
478.00	16868.24
478.18	17130.38
478.36	17130.38
478.54	17317.62
478.72	17486.14
478.90	17572.74
479.08	17877.01
479.26	17872.33
479.44	17989.36
479.62	18005.74
479.80	18125.11
479.98	18455.12
480.16	18848.33
480.34	18359.16
480.52	18562.79
480.70	18836.63
480.88	18654.07
481.06	18637.69
481.24	19044.94
481.41	19414.74
481.59	19599.65
481.77	19779.87
481.95	19704.97
482.13	20177.76
482.31	19889.87
482.49	20561.61
482.67	20304.15
482.85	20657.57
483.03	20662.25
483.21	20985.24
483.39	20807.36
483.57	21266.11
483.74	21483.78
483.92	21652.30
484.10	21383.13
484.28	22026.78
484.46	22583.83
484.64	22501.91
484.82	22176.58
485.00	22497.23
485.18	22881.08
485.35	23346.84
485.53	23094.07
485.71	23019.17
485.89	23798.57
486.07	23793.89
486.25	23658.14
486.43	23812.61
486.61	24126.24
486.78	24013.90
486.96	24580.31
487.14	24767.55
487.32	24556.90
487.50	24868.19
487.68	25165.44
487.85	25659.29
488.03	25944.84
488.21	25865.26
488.39	26047.82
488.57	25919.09
488.75	26291.24
488.92	26850.63
489.10	26953.61
489.28	27098.72
489.46	27648.75
489.64	27278.94
489.81	27707.26
489.99	27747.05
490.17	28056.00
490.35	28517.09
490.53	28254.95
490.70	28851.78
490.88	28648.16
491.06	29235.63
491.24	29020.30
491.41	29336.27
491.59	29703.74
491.77	29521.18
491.95	29663.95
492.13	30307.60
492.30	30473.78
492.48	30490.16
492.66	30543.99
492.84	30567.40
493.01	31051.89
493.19	30752.30
493.37	31555.10
493.54	31840.65
493.72	31473.18
493.90	31789.16
494.08	32009.17
494.25	32198.75
494.43	32243.22
494.61	32673.88
494.79	32678.56
494.96	32496.00
495.14	32760.48
495.32	33296.46
495.49	33661.58
495.67	33771.59
495.85	34125.01
496.02	34101.61
496.20	34342.68
496.38	34089.90
496.55	34539.29
496.73	35414.65
496.91	35030.80
497.09	34848.24
497.26	35304.64
497.44	35206.34
497.62	35749.34
497.79	36435.12
497.97	35723.60
498.14	36315.75
498.32	36500.65
498.50	36818.97
498.67	37116.22
498.85	36746.41
499.03	37076.43
499.20	37186.43
499.38	37345.59
499.56	37312.82
499.73	37734.12
499.91	37764.54
500.08	37904.98
500.26	38068.81
500.44	38359.04
500.61	38129.67
500.79	37970.51
500.97	38014.98
501.14	38871.62
501.32	38770.97
501.49	39086.95
501.67	39227.38
501.84	39203.97
502.02	39215.68
502.20	39377.17
502.37	39400.58
502.55	39887.41
502.72	39693.15
502.90	39922.52
503.07	40095.72
503.25	40285.30
503.43	39887.41
503.60	40495.95
503.78	40395.31
503.95	41038.95
504.13	40711.28
504.30	41542.17
504.48	40818.94
504.65	41223.86
504.83	41378.33
505.01	41631.11
505.18	41567.91
505.36	42094.53
505.53	41425.14
505.71	41940.06
505.88	42202.20
506.06	41656.85
506.23	42344.97
506.41	41893.25
506.58	43255.44
506.76	42761.59
506.93	43021.39
507.11	42581.37
507.28	43358.42
507.46	42934.79
507.63	43590.14
507.81	43667.37
507.98	43433.32
508.16	43557.37
508.33	43791.42
508.50	44229.10
508.68	43924.83
508.85	44151.87
509.03	44584.86
509.20	44437.41
509.38	44779.13
509.55	44830.62
509.73	45069.36
509.90	45013.18
510.08	45003.82
510.25	44844.66
510.42	44849.35
510.60	44996.80
510.77	45710.66
510.95	45804.28
511.12	45619.38
511.30	45532.78
511.47	45780.88
511.64	45717.68
511.82	46099.19
511.99	46061.74
512.17	46330.90
512.34	46103.87
512.51	46747.52
512.69	46983.91
512.86	46270.05
513.04	47260.10
513.21	46976.89
513.38	47019.02
513.56	47248.39
513.73	47178.18
513.90	47571.39
514.08	47009.66
514.25	47662.67
514.43	47908.43
514.60	47679.05
514.77	47426.28
514.95	48133.12
515.12	47915.45
515.29	47608.84
515.47	48683.14
515.64	48624.63
515.81	48460.79
515.99	48739.32
516.16	48800.17
516.33	48556.75
516.51	49375.94
516.68	49048.27
516.85	48851.66
517.03	49230.83
517.20	49382.96
517.37	49251.89
517.54	49420.41
517.72	49375.94
517.89	49277.64
518.06	49532.76
518.24	49439.14
518.41	49401.69
518.58	49684.89
518.75	49698.94
518.93	49970.44
519.10	49811.28
519.27	50377.69
519.45	50293.43
519.62	50335.56
519.79	50459.61
519.96	50429.18
520.14	50665.58
520.31	50330.88
520.48	50574.30
520.65	50880.91
520.83	50859.84
521.00	51239.01
521.17	51180.49
521.34	51105.60
521.52	51419.23
521.69	51161.77
521.86	51250.71
522.03	51395.82
522.20	51587.75
522.38	52011.38
522.55	51606.47
522.72	51814.78
522.89	51941.17
523.07	52062.88
523.24	51868.61
523.41	52243.10
523.58	51859.25
523.75	52076.92
523.92	52334.38
524.10	52147.14
524.27	52575.45
524.44	52294.59
524.61	52596.52
524.78	52114.37
524.96	52861.00
525.13	52563.75
525.30	52814.19
525.47	52856.32
525.64	52849.30
525.81	52896.11
525.98	53066.97
526.16	52963.98
526.33	52961.64
526.50	53378.26
526.67	53230.80
526.84	53432.09
527.01	53392.30
527.18	53361.87
527.36	53038.88
527.53	53614.65
527.70	53769.13
527.87	53542.10
528.04	53647.42
528.21	53504.65
528.38	53844.02
528.55	54061.69
528.72	53652.10
528.89	53675.51
529.07	53769.13
529.24	53532.73
529.41	53954.03
529.58	53989.14
529.75	54021.90
529.92	54054.67
530.09	54410.43
530.26	54461.93
530.43	54375.33
530.60	53951.69
530.77	54059.35
530.94	54394.05
531.11	54424.48
531.28	54553.21
531.46	54440.86
531.63	54635.13
531.80	54595.34
531.97	54810.67
532.14	54934.71
532.31	54773.22
532.48	54731.09
532.65	55002.59
532.82	54836.41
532.99	54953.44
533.16	55054.08
533.33	55114.94
533.50	55327.92
533.67	55346.65
533.84	55185.15
534.01	55337.29
534.18	55260.05
534.35	55206.22
534.52	55470.70
534.69	55437.93
534.86	55524.53
535.03	55292.82
535.20	55271.75
535.37	55669.64
535.54	55674.32
535.71	55730.50
535.88	55805.39
536.05	55697.73
536.22	55847.52
536.38	55943.48
536.55	55812.41
536.72	55980.93
536.89	55936.46
537.06	56048.81
537.23	56184.56
537.40	55877.95
537.57	55915.40
537.74	56025.40
537.91	56163.50
538.08	56076.90
538.25	56062.85
538.42	56245.41
538.59	56357.76
538.75	56104.98
538.92	56383.51
539.09	56350.74
539.26	56442.02
539.43	56638.62
539.60	56521.60
539.77	56481.81
539.94	56533.30
540.11	56547.34
540.28	56846.93
540.44	56612.88
540.61	56701.82
540.78	56832.89
540.95	56865.66
541.12	56640.96
541.29	56699.48
541.46	56790.76
541.62	56804.80
541.79	56870.34
541.96	56640.96
542.13	56999.07
542.30	56760.33
542.47	57228.44
542.63	57214.40
542.80	57251.84
542.97	57340.78
543.14	57354.83
543.31	57499.94
543.48	57296.31
543.64	57626.33
543.81	57551.43
543.98	57607.61
544.15	57535.05
544.32	57499.94
544.48	57855.70
544.65	57645.05
544.82	57698.89
544.99	57385.25
545.16	57694.21
545.32	57570.16
545.49	58124.86
545.66	58103.80
545.83	57794.85
546.00	58066.35
546.16	58059.33
546.33	58052.31
546.50	57825.28
546.67	58131.89
546.83	57787.83
547.00	57888.47
547.17	57900.17
547.34	57963.37
547.50	58152.95
547.67	58370.62
547.84	58239.55
548.00	58314.45
548.17	58391.68
548.34	58206.78
548.51	58583.61
548.67	58422.11
548.84	58370.62
549.01	58394.03
549.18	58351.90
549.34	58569.57
549.51	58574.25
549.68	58796.60
549.84	58342.53
550.01	58749.79
550.18	58614.04
550.34	58642.12
550.51	58763.83
550.68	58796.60
550.84	58429.13
551.01	58855.11
551.18	58922.99
551.34	58953.41
551.51	58871.49
551.68	58925.33
551.84	58845.75
552.01	58691.27
552.18	58960.44
552.34	58932.35
552.51	58932.35
552.68	59014.27
552.84	58960.44
553.01	58937.03
553.18	58988.52
553.34	58948.73
553.51	58922.99
553.67	58958.09
553.84	59236.62
554.01	59253.00
554.17	59337.26
554.34	59405.14
554.51	59182.79
554.67	59421.52
554.84	59089.16
555.00	59208.53
555.17	59253.00
555.33	59442.59
555.50	59222.58
555.67	59196.83
555.83	59374.71
556.00	59484.72
556.16	59601.74
556.33	59620.47
556.50	59463.65
556.66	59760.90
556.83	59463.65
556.99	59739.83
557.16	59480.03
557.32	59686.00
557.49	59910.69
557.65	59571.32
557.82	59845.16
557.98	59475.35
558.15	59856.86
558.32	59681.32
558.48	59664.94
558.65	59639.19
558.81	59480.03
558.98	59873.24
559.14	59950.48
559.31	59849.84
559.47	60065.17
559.64	60048.78
559.80	59896.65
559.97	59863.88
560.13	59856.86
560.30	59868.56
560.46	59887.29
560.63	60018.36
560.79	60004.31
560.96	60207.94
561.12	60238.37
561.29	59966.87
561.45	60154.11
561.61	60006.65
561.78	60245.39
561.94	59915.37
562.11	59943.46
562.27	60289.86
562.44	60261.77
562.60	60388.16
562.77	60196.24
562.93	60135.38
563.10	60292.20
563.26	59966.87
563.42	60514.55
563.59	60243.05
563.75	60189.22
563.92	60535.62
564.08	60484.12
564.24	60456.04
564.41	60334.33
564.57	60446.68
564.74	60580.09
564.90	60357.74
565.07	60243.05
565.23	60259.43
565.39	60245.39
565.56	60554.34
565.72	60313.26
565.88	60505.19
566.05	60404.55
566.21	60441.99
566.38	60580.09
566.54	60528.59
566.70	60472.42
566.87	60481.78
567.03	60395.18
567.19	60573.06
567.36	60673.71
567.52	60676.05
567.68	60659.66
567.85	60481.78
568.01	60671.37
568.17	60598.81
568.34	60673.71
568.50	60622.22
568.66	60463.06
568.83	60809.46
568.99	60451.36
569.15	60626.90
569.32	60605.83
569.48	60622.22
569.64	60807.12
569.81	60767.33
569.97	60566.04
570.13	60690.09
570.30	60654.98
570.46	60624.56
570.62	60879.67
570.78	60842.23
570.95	60781.37
571.11	60900.74
571.27	60624.56
571.43	60617.53
571.60	60849.25
571.76	60631.58
571.92	61003.72
572.09	60811.80
572.25	60865.63
572.41	60776.69
572.57	60748.60
572.74	60977.98
572.90	60748.60
573.06	60942.87
573.22	60931.17
573.38	60786.05
573.55	60893.72
573.71	61315.01
573.87	60863.29
574.03	60816.48
574.20	61001.38
574.36	60872.65
574.52	61024.79
574.68	60924.14
574.84	61022.45
575.01	61029.47
575.17	60917.12
575.33	61006.06
575.49	60786.05
575.65	61071.60
575.82	61134.79
575.98	61017.77
576.14	61083.30
576.30	61127.77
576.46	61099.68
576.62	60884.36
576.79	60952.23
576.95	60769.67
577.11	60968.61
577.27	61116.07
577.43	61087.98
577.59	61066.92
577.75	61073.94
577.92	60982.66
578.08	60914.78
578.24	61279.91
578.40	61291.61
578.56	61233.10
578.72	61120.75
578.88	61263.52
579.04	61272.88
579.21	61268.20
579.37	61406.30
579.53	61202.67
579.69	60907.76
579.85	61010.74
580.01	61095.00
580.17	61029.47
580.33	61212.03
580.49	61076.28
580.65	61186.28
580.82	61181.60
580.98	61127.77
581.14	61179.26
581.30	61361.82
581.46	61031.81
581.62	61193.31
581.78	61233.10
581.94	61151.18
582.10	61200.33
582.26	61197.99
582.42	61343.10
582.58	61200.33
582.74	61162.88
582.90	61228.41
583.06	61291.61
583.22	61207.35
583.38	61188.63
583.54	61249.48
583.70	61155.86
583.86	61258.84
584.02	60994.36
584.18	61242.46
584.34	61226.07
584.50	61240.12
584.66	61165.22
584.82	61034.15
584.98	61282.25
585.14	61340.76
585.30	61120.75
585.46	61144.16
585.62	61244.80
585.78	61415.66
585.94	61097.34
586.10	61221.39
586.26	61132.45
586.42	61577.15
586.58	61446.08
586.74	61368.85
586.90	61148.84
587.06	61329.06
587.22	61448.42
587.38	61329.06
587.54	61553.75
587.70	61593.54
587.86	61249.48
588.02	61469.49
588.18	61434.38
588.34	61209.69
588.49	61195.65
