SpectraSuite Data File
++++++++++++++++++++++++++++++++++++
Date: Fri Oct 25 11:25:58 EDT 2013
User: price-jones
Dark Spectrum Present: No
Reference Spectrum Present: No
Number of Sampled Component Spectra: 1
Spectrometers: USB2+H05261
Integration Time (usec): 100000 (USB2+H05261)
Spectra Averaged: 1 (USB2+H05261)
Boxcar Smoothing: 0 (USB2+H05261)
Correct for Electrical Dark: No (USB2+H05261)
Strobe/Lamp Enabled: No (USB2+H05261)
Correct for Detector Non-linearity: No (USB2+H05261)
Correct for Stray Light: No (USB2+H05261)
Number of Pixels in Processed Spectrum: 2048
>>>>>Begin Processed Spectral Data<<<<<
365.73	259.80
365.92	259.80
366.12	259.80
366.32	166.18
366.52	189.58
366.72	156.82
366.91	105.32
367.11	161.50
367.31	110.01
367.51	133.41
367.70	91.28
367.90	168.52
368.10	124.05
368.30	166.18
368.49	114.69
368.69	95.96
368.89	175.54
369.09	222.35
369.28	189.58
369.48	184.90
369.68	180.22
369.87	252.78
370.07	173.20
370.27	264.48
370.47	318.31
370.66	557.05
370.86	552.37
371.06	629.60
371.25	681.10
371.45	683.44
371.65	627.26
371.84	645.99
372.04	667.05
372.24	678.76
372.44	702.16
372.63	744.29
372.83	763.01
373.03	765.36
373.22	702.16
373.42	739.61
373.62	763.01
373.81	716.20
374.01	901.11
374.21	863.66
374.40	802.80
374.60	807.48
374.79	821.53
374.99	896.43
375.19	851.96
375.38	884.72
375.58	821.53
375.78	863.66
375.97	933.87
376.17	866.00
376.37	905.79
376.56	819.19
376.76	784.08
376.95	915.15
377.15	968.98
377.35	882.38
377.54	903.45
377.74	851.96
377.93	933.87
378.13	933.87
378.33	884.72
378.52	884.72
378.72	980.68
378.91	938.55
379.11	938.55
379.31	922.17
379.50	950.26
379.70	1060.26
379.89	1050.90
380.09	1008.77
380.28	971.32
380.48	957.28
380.68	999.41
380.87	950.26
381.07	999.41
381.26	1057.92
381.46	1034.52
381.65	1048.56
381.85	1053.24
382.04	1015.79
382.24	1078.99
382.43	1069.62
382.63	1076.65
382.83	947.92
383.02	1055.58
383.22	1081.33
383.41	1034.52
383.61	1020.47
383.80	1214.74
384.00	1146.86
384.19	1121.12
384.39	1135.16
384.58	1160.91
384.78	1174.95
384.97	1181.97
385.17	1137.50
385.36	1273.25
385.56	1116.44
385.75	1123.46
385.95	1174.95
386.14	1254.53
386.34	1261.55
386.53	1210.06
386.72	1188.99
386.92	1245.16
387.11	1275.59
387.31	1217.08
387.50	1217.08
387.70	1289.64
387.89	1289.64
388.09	1249.85
388.28	1355.17
388.48	1270.91
388.67	1348.15
388.86	1287.29
389.06	1252.19
389.25	1348.15
389.45	1345.81
389.64	1313.04
389.84	1343.47
390.03	1352.83
390.22	1341.13
390.42	1406.66
390.61	1336.45
390.81	1369.21
391.00	1409.00
391.19	1453.47
391.39	1380.92
391.58	1394.96
391.78	1439.43
391.97	1406.66
392.16	1453.47
392.36	1511.99
392.55	1652.42
392.75	1556.46
392.94	1430.07
393.13	1511.99
393.33	1493.26
393.52	1612.63
393.71	1568.16
393.91	1610.29
394.10	1486.24
394.29	1593.90
394.49	1547.09
394.68	1614.97
394.88	1664.12
395.07	1582.20
395.26	1736.68
395.46	1708.59
395.65	1722.63
395.84	1661.78
396.04	1790.51
396.23	1757.74
396.42	1760.08
396.62	1837.32
396.81	1795.19
397.00	1757.74
397.19	1767.10
397.39	1750.72
397.58	1893.49
397.77	1708.59
397.97	1809.23
398.16	1816.26
398.35	1940.30
398.55	1846.68
398.74	1830.30
398.93	1909.88
399.12	1989.46
399.32	1849.02
399.51	1818.60
399.70	1961.37
399.90	1977.75
400.09	1949.67
400.28	2059.67
400.47	1928.60
400.67	2066.69
400.86	2111.16
401.05	2031.58
401.24	2099.46
401.44	2069.03
401.63	2176.70
401.82	2179.04
402.01	2202.44
402.21	2146.27
402.40	2181.38
402.59	2249.25
402.78	2258.62
402.97	2195.42
403.17	2186.06
403.36	2242.23
403.55	2223.51
403.74	2349.90
403.93	2263.30
404.13	2349.90
404.32	2377.98
404.51	2307.77
404.70	2438.84
404.89	2417.77
405.09	2462.24
405.28	2462.24
405.47	2417.77
405.66	2525.44
405.85	2548.84
406.05	2600.34
406.24	2544.16
406.43	2544.16
406.62	2649.49
406.81	2708.00
407.00	2612.04
407.20	2565.23
407.39	2541.82
407.58	2649.49
407.77	2640.12
407.96	2846.09
408.15	2764.17
408.34	2829.71
408.54	2787.58
408.73	2825.03
408.92	2745.45
409.11	2726.72
409.30	2904.60
409.49	2897.58
409.68	2946.73
409.87	2899.92
410.07	3131.64
410.26	3045.04
410.45	2974.82
410.64	3009.93
410.83	2972.48
411.02	3098.87
411.21	3272.07
411.40	3171.43
411.59	3239.30
411.78	3152.70
411.98	3098.87
412.17	3300.16
412.36	3353.99
412.55	3258.03
412.74	3286.11
412.93	3393.78
413.12	3379.73
413.31	3463.99
413.50	3417.18
413.69	3478.04
413.88	3648.90
414.07	3637.19
414.26	3599.74
414.45	3403.14
414.64	3609.11
414.83	3737.84
415.02	3719.11
415.22	3803.37
415.41	3840.82
415.60	3815.07
415.79	3864.22
415.98	4009.34
416.17	3955.51
416.36	3967.21
416.55	3943.80
416.74	4002.32
416.93	4119.34
417.12	3988.27
417.31	4168.49
417.50	4205.94
417.69	4313.61
417.88	4177.86
418.07	4355.74
418.26	4266.80
418.45	4283.18
418.64	4585.11
418.83	4397.87
419.02	4334.67
419.21	4498.51
419.39	4425.95
419.58	4461.06
419.77	4388.50
419.96	4547.66
420.15	4437.66
420.34	4545.32
420.53	4741.93
420.72	4723.20
420.91	4650.64
421.10	4664.69
421.29	4744.27
421.48	4681.07
421.67	4816.82
421.86	4795.76
422.05	4823.84
422.24	4999.38
422.43	4795.76
422.61	4865.97
422.80	4919.81
422.99	5011.09
423.18	5050.88
423.37	4861.29
423.56	4924.49
423.75	4968.96
423.94	4812.14
424.13	4709.16
424.32	4887.04
424.50	5032.15
424.69	5062.58
424.88	4999.38
425.07	4964.28
425.26	4968.96
425.45	4823.84
425.64	4968.96
425.83	4966.62
426.01	5167.90
426.20	4919.81
426.39	5022.79
426.58	4936.19
426.77	5011.09
426.96	5093.01
427.15	5109.39
427.33	5191.31
427.52	5109.39
427.71	5095.35
427.90	5233.44
428.09	5313.02
428.28	5380.89
428.46	5420.68
428.65	5486.22
428.84	5416.00
429.03	5467.49
429.22	5336.42
429.40	5446.43
429.59	5537.71
429.78	5217.05
429.97	5317.70
430.16	5507.28
430.34	5565.79
430.53	5451.11
430.72	5678.14
430.91	5607.92
431.10	5710.91
431.28	5703.89
431.47	5724.95
431.66	5865.38
431.85	5657.07
432.03	5891.13
432.22	6012.84
432.41	5891.13
432.60	5888.79
432.79	5961.34
432.97	5980.07
433.16	6047.94
433.35	5813.89
433.54	6052.63
433.72	6136.88
433.91	6054.97
434.10	6150.93
434.28	6078.37
434.47	6017.52
434.66	6153.27
434.85	6368.60
435.03	6164.97
435.22	6272.64
435.41	6513.71
435.59	6298.38
435.78	6429.45
435.97	6296.04
436.16	6392.00
436.34	6375.62
436.53	6551.16
436.72	6794.58
436.90	6455.20
437.09	6590.95
437.28	6527.75
437.46	6487.96
437.65	6616.69
437.84	6724.36
438.02	6707.98
438.21	6850.75
438.40	6623.72
438.58	6860.11
438.77	7000.54
438.96	6864.79
439.14	7030.97
439.33	7332.90
439.52	7140.97
439.70	7119.91
439.89	7316.51
440.08	7407.80
440.26	7389.07
440.45	7248.64
440.63	7473.33
440.82	7623.12
441.01	7412.48
441.19	7733.13
441.38	7630.15
441.57	7779.94
441.75	7829.09
441.94	7847.82
442.12	7768.24
442.31	8121.66
442.50	7955.48
442.68	7672.28
442.87	7918.03
443.05	8114.64
443.24	8259.75
443.43	8037.40
443.61	8224.64
443.80	8348.69
443.98	8290.18
444.17	7899.31
444.35	8236.35
444.54	8369.76
444.73	8344.01
444.91	8325.29
445.10	8177.83
445.28	8201.24
445.47	8376.78
445.65	8318.26
445.84	8362.73
446.02	8557.00
446.21	8334.65
446.39	8374.44
446.58	8540.61
446.77	8482.10
446.95	8248.05
447.14	8430.61
447.32	8437.63
447.51	8411.89
447.69	8306.56
447.88	8582.74
448.06	8444.65
448.25	8355.71
448.43	8678.71
448.62	8805.10
448.80	8540.61
448.99	8641.26
449.17	8657.64
449.36	8664.66
449.54	8723.18
449.73	8849.57
449.91	8671.68
450.10	8854.25
450.28	9128.09
450.46	9022.77
450.65	8901.06
450.83	8791.05
451.02	8936.17
451.20	9214.69
451.39	9057.87
451.57	9104.68
451.76	9015.74
451.94	9060.21
452.13	9493.21
452.31	9329.38
452.49	8999.36
452.68	9301.29
452.86	9420.66
453.05	9444.06
453.23	9530.66
453.42	9338.74
453.60	9270.86
453.78	9561.09
453.97	9490.87
454.15	9287.25
454.34	9404.27
454.52	9682.80
454.70	9701.52
454.89	9568.11
455.07	9743.65
455.26	9593.86
455.44	10050.26
455.62	9661.73
455.81	9977.70
455.99	9860.68
456.17	9827.91
456.36	10052.60
456.54	10076.01
456.73	10265.59
456.91	10326.44
457.09	10335.81
457.28	10464.54
457.46	10272.61
457.64	10244.52
457.83	10499.64
458.01	10450.49
458.19	10677.52
458.38	10537.09
458.56	10600.29
458.74	10478.58
458.93	10640.08
459.11	10672.84
459.29	10792.21
459.48	10593.26
459.66	10609.65
459.84	10771.15
460.03	11023.92
460.21	10958.39
460.39	11061.37
460.57	11218.19
460.76	10956.05
460.94	11178.40
461.12	11166.70
461.31	10895.19
461.49	11129.25
461.67	11009.88
461.85	11482.67
462.04	11133.93
462.22	11866.52
462.40	11702.68
462.59	11559.91
462.77	11386.71
462.95	11412.45
463.13	11325.85
463.32	11639.48
463.50	11852.47
463.68	11658.21
463.86	11910.99
464.05	11602.04
464.23	11737.79
464.41	11892.26
464.59	11602.04
464.78	12023.33
464.96	12107.59
465.14	11927.37
465.32	11997.59
465.50	12119.29
465.69	12154.40
465.87	11976.52
466.05	11999.93
466.23	12128.66
466.41	12177.81
466.60	12535.91
466.78	12194.19
466.96	12173.13
467.14	12404.84
467.32	12386.12
467.51	12685.70
467.69	12074.82
467.87	12325.26
468.05	12475.06
468.23	12456.33
468.41	12381.43
468.60	12631.87
468.78	12596.76
468.96	12498.46
469.14	12587.40
469.32	12800.39
469.50	12636.55
469.69	12950.18
469.87	12833.16
470.05	13032.10
470.23	13200.62
470.41	13153.81
470.59	13142.11
470.77	13137.43
470.95	13238.07
471.14	13554.04
471.32	13305.95
471.50	13504.89
471.68	13399.57
471.86	13390.20
472.04	13816.18
472.22	13982.36
472.40	13589.15
472.58	13937.89
472.77	13715.54
472.95	14120.45
473.13	14633.03
473.31	13874.70
473.49	14139.18
473.67	13928.53
473.85	14476.21
474.03	14803.89
474.21	14394.29
474.39	14813.25
474.57	14939.64
474.75	15019.22
474.93	14939.64
475.12	14972.41
475.30	15009.86
475.48	15115.18
475.66	15101.14
475.84	15110.50
476.02	15272.00
476.20	15279.02
476.38	15819.68
476.56	16098.20
476.74	16020.97
476.92	15866.49
477.10	15683.93
477.28	15969.48
477.46	16100.55
477.64	16255.02
477.82	16154.38
478.00	16996.97
478.18	16915.05
478.36	16765.26
478.54	17076.55
478.72	17399.54
478.90	17139.74
479.08	17476.78
479.26	17640.62
479.44	17659.34
479.62	18094.68
479.80	18024.47
479.98	18218.73
480.16	18705.56
480.34	18263.20
480.52	18675.13
480.70	18455.12
480.88	18410.65
481.06	18384.91
481.24	18836.63
481.41	19206.44
481.59	19058.98
481.77	19557.52
481.95	19314.10
482.13	19634.75
482.31	19702.63
482.49	19868.81
482.67	20304.15
482.85	20060.73
483.03	20568.63
483.21	20814.38
483.39	21113.97
483.57	20613.10
483.74	20842.47
483.92	21165.46
484.10	21261.43
484.28	21603.14
484.46	22127.42
484.64	22129.77
484.82	21687.40
485.00	22230.41
485.18	22541.70
485.35	22932.57
485.53	22850.65
485.71	22991.08
485.89	23309.40
486.07	23379.61
486.25	23646.43
486.43	23681.54
486.61	23786.86
486.78	23840.70
486.96	24339.23
487.14	24290.08
487.32	24390.72
487.50	24767.55
487.68	24865.85
487.85	25523.54
488.03	25387.79
488.21	25734.19
488.39	25675.68
488.57	26033.78
488.75	26017.40
488.92	26363.79
489.10	26771.05
489.28	26686.79
489.46	27253.20
489.64	27199.37
489.81	27854.72
489.99	27461.51
490.17	27889.82
490.35	28327.50
490.53	28177.71
490.70	28371.97
490.88	28507.72
491.06	28549.85
491.24	28760.50
491.41	28947.75
491.59	29235.63
491.77	29081.16
491.95	29411.17
492.13	29729.48
492.30	30103.97
492.48	30017.37
492.66	30143.76
492.84	30536.97
493.01	30761.66
493.19	30625.91
493.37	30796.77
493.54	30932.52
493.72	31669.79
493.90	31269.56
494.08	31482.55
494.25	31931.93
494.43	31611.28
494.61	32107.47
494.79	32533.45
494.96	32498.34
495.14	33062.41
495.32	33626.48
495.49	33340.93
495.67	33141.99
495.85	33626.48
496.02	33633.50
496.20	33757.55
496.38	33755.21
496.55	34050.11
496.73	34780.36
496.91	34174.16
497.09	34211.61
497.26	35239.11
497.44	35220.38
497.62	35098.67
497.79	35517.63
497.97	35662.74
498.14	35562.10
498.32	36346.18
498.50	36053.61
498.67	36650.45
498.85	35948.29
499.03	36715.98
499.20	36910.25
499.38	36746.41
499.56	36793.22
499.73	37228.56
499.91	37160.69
500.08	37762.20
500.26	37336.23
500.44	37736.46
500.61	37771.57
500.79	37741.14
500.97	38162.43
501.14	38494.79
501.32	38061.79
501.49	38326.27
501.67	38478.41
501.84	38892.68
502.02	38834.17
502.20	38808.42
502.37	39215.68
502.55	38705.44
502.72	39381.85
502.90	39267.17
503.07	39636.97
503.25	39704.85
503.43	39522.29
503.60	39702.51
503.78	40341.47
503.95	40320.41
504.13	40109.76
504.30	40802.56
504.48	40641.06
504.65	40121.46
504.83	40694.89
505.01	41462.59
505.18	41315.14
505.36	41233.22
505.53	41020.23
505.71	41404.08
505.88	41663.88
506.06	41078.74
506.23	41888.57
506.41	41823.03
506.58	41998.57
506.76	42153.05
506.93	42588.39
507.11	42370.72
507.28	42384.76
507.46	42557.96
507.63	43009.68
507.81	43372.47
507.98	42724.14
508.16	43192.25
508.33	43229.69
508.50	43154.80
508.68	43489.49
508.85	43882.70
509.03	43655.67
509.20	43730.57
509.38	43929.51
509.55	44179.95
509.73	44325.07
509.90	44439.75
510.08	44460.82
510.25	44472.52
510.42	44737.00
510.60	44823.60
510.77	45017.86
510.95	45338.52
511.12	44786.15
511.30	45167.66
511.47	45317.45
511.64	45542.14
511.82	46127.28
511.99	45441.50
512.17	46387.08
512.34	45883.86
512.51	46232.60
512.69	46401.12
512.86	46267.71
513.04	46461.97
513.21	46658.58
513.38	46564.96
513.56	46674.96
513.73	46724.11
513.90	46710.07
514.08	46810.71
514.25	47138.39
514.43	47384.15
514.60	47206.26
514.77	46958.17
514.95	47765.65
515.12	47304.57
515.29	47555.00
515.47	47543.30
515.64	47882.68
515.81	47342.02
515.99	48250.14
516.16	48247.80
516.33	48254.82
516.51	48346.11
516.68	48718.25
516.85	48582.50
517.03	48514.62
517.20	48893.79
517.37	48636.33
517.54	48673.78
517.72	48954.64
517.89	48842.30
518.06	49275.30
518.24	49340.83
518.41	48992.09
518.58	49102.10
518.75	49310.41
518.93	49364.24
519.10	49654.47
519.27	49677.87
519.45	49813.62
519.62	49619.36
519.79	49792.56
519.96	49839.37
520.14	50113.21
520.31	50019.59
520.48	50216.19
520.65	50234.92
520.83	50515.78
521.00	50454.93
521.17	50607.06
521.34	50908.99
521.52	50632.81
521.69	50663.24
521.86	50623.45
522.03	50747.50
522.20	51208.58
522.38	51489.45
522.55	51459.02
522.72	51239.01
522.89	51384.12
523.07	51571.36
523.24	51346.67
523.41	51552.64
523.58	51346.67
523.75	51746.90
523.92	51693.07
524.10	51786.69
524.27	51976.28
524.44	51746.90
524.61	51894.36
524.78	52137.77
524.96	51870.95
525.13	52374.17
525.30	52341.40
525.47	52444.38
525.64	52170.54
525.81	52296.93
525.98	52739.29
526.16	52638.65
526.33	52650.35
526.50	52954.62
526.67	52568.43
526.84	52919.51
527.01	52636.31
527.18	52552.05
527.36	52832.91
527.53	52811.85
527.70	53181.65
527.87	53223.78
528.04	52954.62
528.21	53448.47
528.38	53291.66
528.55	53616.99
528.72	53338.47
528.89	53179.31
529.07	53345.49
529.24	53310.38
529.41	53567.84
529.58	53624.01
529.75	53483.58
529.92	53483.58
530.09	53602.95
530.26	53755.08
530.43	54082.76
530.60	53778.49
530.77	53806.58
530.94	53932.96
531.11	54078.08
531.28	54174.04
531.46	54169.36
531.63	54218.51
531.80	54293.41
531.97	54281.70
532.14	54330.86
532.31	54398.73
532.48	54609.38
532.65	54513.42
532.82	54218.51
532.99	54609.38
533.16	54328.52
533.33	54621.08
533.50	54855.14
533.67	54920.67
533.84	54564.91
534.01	54883.22
534.18	54803.64
534.35	55042.38
534.52	55044.72
534.69	55168.77
534.86	55260.05
535.03	54908.97
535.20	55063.44
535.37	55391.12
535.54	55299.84
535.71	55299.84
535.88	55154.72
536.05	55512.83
536.22	55466.02
536.38	55632.19
536.55	55526.87
536.72	55477.72
536.89	55365.37
537.06	55395.80
537.23	55700.07
537.40	55365.37
537.57	55618.15
537.74	55746.88
537.91	55931.78
538.08	55915.40
538.25	55772.63
538.42	55770.28
538.59	56329.67
538.75	55875.61
538.92	56044.13
539.09	56229.03
539.26	56034.77
539.43	56142.43
539.60	56083.92
539.77	56184.56
539.94	56486.49
540.11	56144.77
540.28	56156.47
540.44	56364.78
540.61	56376.48
540.78	56275.84
540.95	56545.00
541.12	56533.30
541.29	56519.26
541.46	56411.59
541.62	56631.60
541.79	56563.73
541.96	56268.82
542.13	56278.18
542.30	56734.59
542.47	56750.97
542.63	56793.10
542.80	56582.45
542.97	56816.50
543.14	57041.20
543.31	57485.90
543.48	57258.87
543.64	57387.60
543.81	57233.12
543.98	57286.95
544.15	57055.24
544.32	57202.69
544.48	57563.14
544.65	57242.48
544.82	57350.15
544.99	57373.55
545.16	57361.85
545.32	57237.80
545.49	57572.50
545.66	57551.43
545.83	57198.01
546.00	57773.78
546.16	57352.49
546.33	57270.57
546.50	57312.70
546.67	57682.50
546.83	57340.78
547.00	57741.02
547.17	57598.24
547.34	57586.54
547.50	57738.68
547.67	58073.37
547.84	57984.43
548.00	58033.58
548.17	57937.62
548.34	57965.71
548.51	58157.63
548.67	58183.38
548.84	57982.09
549.01	57764.42
549.18	58054.65
549.34	58047.63
549.51	58314.45
549.68	58354.24
549.84	58094.44
550.01	58265.30
550.18	58003.16
550.34	58188.06
550.51	58288.70
550.68	58478.28
550.84	58267.64
551.01	58394.03
551.18	58227.85
551.34	58431.47
551.51	58585.95
551.68	58452.54
551.84	58365.94
552.01	58326.15
552.18	58665.53
552.34	58475.94
552.51	58766.17
552.68	58478.28
552.84	58749.79
553.01	58710.00
553.18	58822.34
553.34	59009.59
553.51	58607.01
553.67	58630.42
553.84	58871.49
554.01	58885.54
554.17	58958.09
554.34	58892.56
554.51	59140.66
554.67	58915.96
554.84	58880.86
555.00	58915.96
555.17	58983.84
555.33	58796.60
555.50	59070.44
555.67	58805.96
555.83	59056.40
556.00	58969.80
556.16	59428.54
556.33	59245.98
556.50	59068.10
556.66	59461.31
556.83	59150.02
556.99	59451.95
557.16	59526.84
557.32	59297.47
557.49	59407.48
557.65	59248.32
557.82	59508.12
557.98	59192.15
558.15	59407.48
558.32	59264.70
558.48	59393.43
558.65	59260.02
558.81	59475.35
558.98	59470.67
559.14	59543.23
559.31	59737.49
559.47	59576.00
559.64	59480.03
559.80	59650.89
559.97	59515.14
560.13	59695.36
560.30	59671.96
560.46	59608.76
560.63	59669.62
560.79	59627.49
560.96	59882.61
561.12	59817.07
561.29	59711.75
561.45	59898.99
561.61	59821.75
561.78	59714.09
561.94	59639.19
562.11	59772.60
562.27	59854.52
562.44	59957.50
562.60	60046.44
562.77	60062.83
562.93	59924.74
563.10	59922.40
563.26	59777.28
563.42	60044.10
563.59	59936.44
563.75	59938.78
563.92	59716.43
564.08	59884.95
564.24	59969.21
564.41	59915.37
564.57	60037.08
564.74	60142.41
564.90	59882.61
565.07	60074.53
565.23	59934.10
565.39	60039.42
565.56	60062.83
565.72	60044.10
565.88	60081.55
566.05	59884.95
566.21	60210.28
566.38	60044.10
566.54	60086.23
566.70	60254.75
566.87	60154.11
567.03	60142.41
567.19	60273.48
567.36	60055.81
567.52	60172.83
567.68	60502.85
567.85	60142.41
568.01	60395.18
568.17	60158.79
568.34	60203.26
568.50	60238.37
568.66	60369.44
568.83	60317.95
568.99	60306.24
569.15	60287.52
569.32	60278.16
569.48	60268.79
569.64	60388.16
569.81	60367.10
569.97	60313.26
570.13	60212.62
570.30	60128.36
570.46	60317.95
570.62	60488.80
570.78	60406.89
570.95	60317.95
571.11	60493.49
571.27	60383.48
571.43	60299.22
571.60	60615.19
571.76	60559.02
571.92	60324.97
572.09	60437.31
572.25	60523.91
572.41	60491.15
572.57	60736.90
572.74	60610.51
572.90	60552.00
573.06	60420.93
573.22	60425.61
573.38	60505.19
573.55	60552.00
573.71	60711.16
573.87	60743.92
574.03	60533.28
574.20	60500.51
574.36	60437.31
574.52	60474.76
574.68	60671.37
574.84	60872.65
575.01	60664.35
575.17	60615.19
575.33	60505.19
575.49	60526.25
575.65	60704.13
575.82	60594.13
575.98	60662.00
576.14	61013.08
576.30	60666.69
576.46	60699.45
576.62	60449.02
576.79	60804.78
576.95	60441.99
577.11	60654.98
577.27	60739.24
577.43	60912.44
577.59	60884.36
577.75	60617.53
577.92	60666.69
578.08	60701.79
578.24	60669.03
578.40	60928.83
578.56	60940.53
578.72	60687.75
578.88	60928.83
579.04	60917.12
579.21	60477.10
579.37	60921.80
579.53	60692.43
579.69	60624.56
579.85	60664.35
580.01	60837.54
580.17	60739.24
580.33	60942.87
580.49	61050.53
580.65	60638.60
580.82	60837.54
580.98	60720.52
581.14	60598.81
581.30	61139.47
581.46	60804.78
581.62	60842.23
581.78	60746.26
581.94	60973.30
582.10	60804.78
582.26	60694.77
582.42	60884.36
582.58	60860.95
582.74	60818.82
582.90	60680.73
583.06	60804.78
583.22	60643.28
583.38	60858.61
583.54	60865.63
583.70	60809.46
583.86	60996.70
584.02	60748.60
584.18	61036.49
584.34	60945.21
584.50	60860.95
584.66	60853.93
584.82	60753.29
584.98	61092.66
585.14	61024.79
585.30	60853.93
585.46	61024.79
585.62	60985.00
585.78	61167.56
585.94	60889.04
586.10	61020.11
586.26	61209.69
586.42	60914.78
586.58	61144.16
586.74	60956.91
586.90	60940.53
587.06	60996.70
587.22	61099.68
587.38	60858.61
587.54	61062.24
587.70	61141.81
587.86	60931.17
588.02	60947.55
588.18	61010.74
588.34	60992.02
588.49	60884.36
