SpectraSuite Data File
++++++++++++++++++++++++++++++++++++
Date: Fri Oct 25 11:33:59 EDT 2013
User: price-jones
Dark Spectrum Present: No
Reference Spectrum Present: No
Number of Sampled Component Spectra: 1
Spectrometers: USB2+H05261
Integration Time (usec): 100000 (USB2+H05261)
Spectra Averaged: 1 (USB2+H05261)
Boxcar Smoothing: 0 (USB2+H05261)
Correct for Electrical Dark: No (USB2+H05261)
Strobe/Lamp Enabled: No (USB2+H05261)
Correct for Detector Non-linearity: No (USB2+H05261)
Correct for Stray Light: No (USB2+H05261)
Number of Pixels in Processed Spectrum: 2048
>>>>>Begin Processed Spectral Data<<<<<
365.73	238.73
365.92	238.73
366.12	238.73
366.32	152.13
366.52	180.22
366.72	161.50
366.91	163.84
367.11	135.75
367.31	194.26
367.51	191.92
367.70	177.88
367.90	180.22
368.10	201.29
368.30	147.45
368.49	168.52
368.69	220.01
368.89	294.91
369.09	236.39
369.28	133.41
369.48	238.73
369.68	205.97
369.87	215.33
370.07	271.50
370.27	264.48
370.47	346.40
370.66	496.19
370.86	624.92
371.06	550.03
371.25	545.34
371.45	589.82
371.65	545.34
371.84	564.07
372.04	524.28
372.24	566.41
372.44	596.84
372.63	606.20
372.83	638.97
373.03	643.65
373.22	603.86
373.42	641.31
373.62	568.75
373.81	695.14
374.01	648.33
374.21	648.33
374.40	657.69
374.60	685.78
374.79	624.92
374.99	643.65
375.19	601.52
375.38	685.78
375.58	667.05
375.78	688.12
375.97	615.56
376.17	648.33
376.37	585.13
376.56	671.73
376.76	669.39
376.95	645.99
377.15	718.54
377.35	662.37
377.54	720.88
377.74	566.41
377.93	678.76
378.13	662.37
378.33	695.14
378.52	678.76
378.72	753.65
378.91	765.36
379.11	699.82
379.31	664.71
379.50	702.16
379.70	678.76
379.89	760.67
380.09	739.61
380.28	772.38
380.48	732.59
380.68	702.16
380.87	755.99
381.07	772.38
381.26	758.33
381.46	748.97
381.65	786.42
381.85	744.29
382.04	753.65
382.24	784.08
382.43	800.46
382.63	702.16
382.83	774.72
383.02	791.10
383.22	791.10
383.41	746.63
383.61	816.85
383.80	849.61
384.00	807.48
384.19	805.14
384.39	772.38
384.58	844.93
384.78	842.59
384.97	823.87
385.17	793.44
385.36	833.23
385.56	840.25
385.75	901.11
385.95	875.36
386.14	868.34
386.34	767.70
386.53	777.06
386.72	866.00
386.92	823.87
387.11	814.51
387.31	915.15
387.50	868.34
387.70	919.83
387.89	931.53
388.09	896.43
388.28	884.72
388.48	924.51
388.67	1006.43
388.86	938.55
389.06	866.00
389.25	959.62
389.45	919.83
389.64	964.30
389.84	924.51
390.03	1001.75
390.22	980.68
390.42	997.07
390.61	891.74
390.81	917.49
391.00	915.15
391.19	1006.43
391.39	1020.47
391.58	1025.15
391.78	964.30
391.97	1064.94
392.16	983.02
392.36	1146.86
392.55	957.28
392.75	1088.35
392.94	971.32
393.13	1004.09
393.33	1069.62
393.52	1060.26
393.71	1109.41
393.91	1020.47
394.10	1177.29
394.29	1114.10
394.49	1034.52
394.68	1095.37
394.88	1048.56
395.07	1219.42
395.26	1135.16
395.46	1081.33
395.65	1144.52
395.84	1228.78
396.04	1289.64
396.23	1214.74
396.42	1170.27
396.62	1193.67
396.81	1210.06
397.00	1254.53
397.19	1301.34
397.39	1238.14
397.58	1219.42
397.77	1289.64
397.97	1210.06
398.16	1277.93
398.35	1210.06
398.55	1270.91
398.74	1343.47
398.93	1352.83
399.12	1303.68
399.32	1259.21
399.51	1373.89
399.70	1486.24
399.90	1371.55
400.09	1303.68
400.28	1383.26
400.47	1308.36
400.67	1355.17
400.86	1352.83
401.05	1359.85
401.24	1383.26
401.44	1327.08
401.63	1509.65
401.82	1406.66
402.01	1521.35
402.21	1413.68
402.40	1413.68
402.59	1472.20
402.78	1432.41
402.97	1526.03
403.17	1451.13
403.36	1526.03
403.55	1565.82
403.74	1483.90
403.93	1479.22
404.13	1540.07
404.32	1549.43
404.51	1643.06
404.70	1629.01
404.89	1598.59
405.09	1636.03
405.28	1694.55
405.47	1643.06
405.66	1650.08
405.85	1706.25
406.05	1598.59
406.24	1724.97
406.43	1701.57
406.62	1811.57
406.81	1863.07
407.00	1783.49
407.20	1816.26
407.39	1746.04
407.58	1755.40
407.77	1783.49
407.96	1830.30
408.15	1834.98
408.34	1842.00
408.54	1865.41
408.73	1968.39
408.92	1846.68
409.11	1975.41
409.30	1907.54
409.49	1949.67
409.68	1935.62
409.87	1877.11
410.07	1966.05
410.26	1996.48
410.45	2078.40
410.64	2090.10
410.83	2108.82
411.02	2097.12
411.21	2193.08
411.40	2125.21
411.59	2153.29
411.78	2148.61
411.98	2237.55
412.17	2282.02
412.36	2246.91
412.55	2270.32
412.74	2406.07
412.93	2354.58
413.12	2263.30
413.31	2462.24
413.50	2441.18
413.69	2424.80
413.88	2499.69
414.07	2361.60
414.26	2429.48
414.45	2410.75
414.64	2504.37
414.83	2504.37
415.02	2509.05
415.22	2574.59
415.41	2623.74
415.60	2733.75
415.79	2696.30
415.98	2698.64
416.17	2710.34
416.36	2698.64
416.55	2684.59
416.74	2766.51
416.93	2780.56
417.12	2885.88
417.31	2815.66
417.50	2775.88
417.69	2963.12
417.88	2853.11
418.07	2874.18
418.26	2892.90
418.45	2984.18
418.64	2942.05
418.83	2979.50
419.02	3052.06
419.21	3138.66
419.39	3094.19
419.58	3059.08
419.77	3089.51
419.96	3059.08
420.15	3187.81
420.34	3171.43
420.53	3141.00
420.72	3204.19
420.91	3180.79
421.10	3274.41
421.29	3365.69
421.48	3187.81
421.67	3222.92
421.86	3283.77
422.05	3258.03
422.24	3309.52
422.43	3426.54
422.61	3288.45
422.80	3398.46
422.99	3393.78
423.18	3452.29
423.37	3403.14
423.56	3391.44
423.75	3428.88
423.94	3346.97
424.13	3206.53
424.32	3262.71
424.50	3400.80
424.69	3468.67
424.88	3482.72
425.07	3335.26
425.26	3405.48
425.45	3339.94
425.64	3419.52
425.83	3323.56
426.01	3471.01
426.20	3513.14
426.39	3370.37
426.58	3384.41
426.77	3482.72
426.96	3562.30
427.15	3592.72
427.33	3662.94
427.52	3637.19
427.71	3597.40
427.90	3684.00
428.09	3705.07
428.28	3679.32
428.46	3588.04
428.65	3686.34
428.84	3765.92
429.03	3789.33
429.22	3669.96
429.40	3824.44
429.59	3904.01
429.78	3658.26
429.97	3728.47
430.16	3808.05
430.34	3906.35
430.53	3784.65
430.72	3889.97
430.91	3929.76
431.10	3868.91
431.28	3927.42
431.47	3882.95
431.66	4016.36
431.85	3922.74
432.03	3969.55
432.22	4166.15
432.41	4014.02
432.60	4004.66
432.79	3995.29
432.97	4156.79
433.16	4086.58
433.35	4051.47
433.54	4198.92
433.72	4196.58
433.91	4184.88
434.10	4191.90
434.28	4229.35
434.47	4112.32
434.66	4201.26
434.85	4299.56
435.03	4290.20
435.22	4315.95
435.41	4421.27
435.59	4374.46
435.78	4430.63
435.97	4334.67
436.16	4231.69
436.34	4362.76
436.53	4383.82
436.72	4571.07
436.90	4283.18
437.09	4461.06
437.28	4418.93
437.46	4629.58
437.65	4491.49
437.84	4585.11
438.02	4641.28
438.21	4423.61
438.40	4444.68
438.58	4491.49
438.77	4762.99
438.96	4865.97
439.14	4816.82
439.33	4987.68
439.52	4739.58
439.70	4905.76
439.89	5050.88
440.08	5020.45
440.26	5109.39
440.45	4978.32
440.63	5095.35
440.82	5195.99
441.01	5165.56
441.19	5203.01
441.38	5137.48
441.57	5195.99
441.75	5303.65
441.94	5301.31
442.12	5369.19
442.31	5387.91
442.50	5408.98
442.68	5425.36
442.87	5488.56
443.05	5526.00
443.24	5392.59
443.43	5666.44
443.61	5598.56
443.80	5682.82
443.98	5605.58
444.17	5287.27
444.35	5549.41
444.54	5661.76
444.73	5654.73
444.91	5556.43
445.10	5645.37
445.28	5584.52
445.47	5596.22
445.65	5556.43
445.84	5596.22
446.02	5788.14
446.21	5760.06
446.39	5643.03
446.58	5650.05
446.77	5884.11
446.95	5533.03
447.14	5612.60
447.32	5717.93
447.51	5799.85
447.69	5633.67
447.88	5713.25
448.06	5638.35
448.25	5748.36
448.43	5799.85
448.62	5727.29
448.80	5687.50
448.99	5757.72
449.17	5839.64
449.36	5722.61
449.54	5902.83
449.73	6092.41
449.91	6078.37
450.10	6045.60
450.28	6033.90
450.46	6094.76
450.65	5940.28
450.83	5959.00
451.02	5891.13
451.20	6132.20
451.39	6026.88
451.57	6101.78
451.76	6003.47
451.94	6326.47
452.13	6249.23
452.31	6111.14
452.49	6064.33
452.68	6366.26
452.86	6296.04
453.05	6516.05
453.23	6258.59
453.42	6090.07
453.60	6237.53
453.78	6436.47
453.97	6319.45
454.15	6314.77
454.34	6251.57
454.52	6604.99
454.70	6726.70
454.89	6478.60
455.07	6455.20
455.26	6651.80
455.44	6651.80
455.62	6661.16
455.81	6569.88
455.99	6747.76
456.17	6665.85
456.36	6747.76
456.54	6827.34
456.73	6745.42
456.91	7098.84
457.09	6972.46
457.28	6984.16
457.46	6792.23
457.64	7169.06
457.83	6888.20
458.01	6782.87
458.19	7239.28
458.38	7052.03
458.56	7101.19
458.74	7126.93
458.93	7040.33
459.11	7258.00
459.29	7269.70
459.48	7276.73
459.66	7218.21
459.84	7311.83
460.03	7346.94
460.21	7302.47
460.39	7215.87
460.57	7342.26
460.76	7445.24
460.94	7606.74
461.12	7616.10
461.31	7478.01
461.49	7581.00
461.67	7445.24
461.85	7758.88
462.04	7508.44
462.22	8079.53
462.40	7616.10
462.59	7456.95
462.77	7646.53
462.95	7868.88
463.13	7751.85
463.32	7747.17
463.50	7838.45
463.68	7784.62
463.86	8013.99
464.05	7719.09
464.23	7772.92
464.41	7793.98
464.59	7777.60
464.78	7896.97
464.96	7911.01
465.14	7915.69
465.32	7925.05
465.50	7978.89
465.69	7962.50
465.87	7988.25
466.05	8163.79
466.23	8004.63
466.41	8187.19
466.60	8250.39
466.78	8021.02
466.96	8259.75
467.14	8070.17
467.32	8269.11
467.51	8365.07
467.69	8018.68
467.87	8231.66
468.05	8339.33
468.23	8414.23
468.41	8407.20
468.60	8292.52
468.78	8397.84
468.96	8407.20
469.14	8566.36
469.32	8746.58
469.50	8421.25
469.69	8606.15
469.87	8727.86
470.05	8732.54
470.23	8690.41
470.41	8704.45
470.59	8784.03
470.77	8657.64
470.95	8833.18
471.14	9020.42
471.32	8655.30
471.50	8931.48
471.68	8868.29
471.86	8858.93
472.04	9118.73
472.22	9338.74
472.40	8943.19
472.58	9261.50
472.77	9188.94
472.95	9392.57
473.13	9584.49
473.31	9224.05
473.49	9338.74
473.67	9432.36
473.85	9481.51
474.03	9628.96
474.21	9724.93
474.39	9858.34
474.57	9664.07
474.75	9820.89
474.93	9886.42
475.12	9940.26
475.30	9921.53
475.48	9813.87
475.66	10092.39
475.84	9870.04
476.02	10097.07
476.20	10209.42
476.38	10413.04
476.56	10459.85
476.74	10492.62
476.92	10462.19
477.10	10354.53
477.28	10743.06
477.46	10651.78
477.64	10558.16
477.82	10754.76
478.00	11047.33
478.18	11068.39
478.36	10832.00
478.54	11398.41
478.72	11487.35
478.90	11159.67
479.08	11440.54
479.26	11454.58
479.44	11545.86
479.62	11595.01
479.80	11793.96
479.98	11740.13
480.16	12128.66
480.34	12084.19
480.52	12063.12
480.70	12332.28
480.88	12011.63
481.06	12339.30
481.24	12409.52
481.41	12690.38
481.59	12505.48
481.77	12652.94
481.95	12699.75
482.13	12765.28
482.31	12805.07
482.49	13373.82
482.67	13011.04
482.85	13319.99
483.03	13453.40
483.21	13776.39
483.39	13696.82
483.57	13610.22
483.74	13858.31
483.92	13968.32
484.10	13802.14
484.28	14246.84
484.46	14260.88
484.64	14288.97
484.82	14349.82
485.00	14560.47
485.18	14881.13
485.35	14909.21
485.53	14899.85
485.71	15110.50
485.89	15073.05
486.07	15176.03
486.25	15435.83
486.43	15229.87
486.61	15627.76
486.78	15763.51
486.96	15927.35
487.14	16070.12
487.32	15939.05
487.50	15953.09
487.68	16168.42
487.85	16388.43
488.03	16528.86
488.21	16791.00
488.39	16734.83
488.57	17228.68
488.75	17032.08
488.92	17116.34
489.10	17565.72
489.28	17319.96
489.46	17539.97
489.64	17479.12
489.81	17729.56
489.99	18001.06
490.17	18108.72
490.35	18464.49
490.53	18434.06
490.70	18801.52
490.88	18455.12
491.06	19056.64
491.24	18775.78
491.41	18686.84
491.59	19293.04
491.77	18874.08
491.95	19339.85
492.13	19269.63
492.30	19463.90
492.48	19627.73
492.66	19564.54
492.84	19763.48
493.01	19793.91
493.19	19740.08
493.37	19892.21
493.54	19906.26
493.72	20390.75
493.90	20732.47
494.08	20510.11
494.25	20655.23
494.43	20772.25
494.61	21256.75
494.79	20996.95
494.96	21064.82
495.14	21434.63
495.32	21579.74
495.49	21151.42
495.67	21570.38
495.85	21638.25
496.02	21766.98
496.20	22010.40
496.38	22127.42
496.55	22073.59
496.73	22888.10
496.91	22389.56
497.09	22490.21
497.26	22553.40
497.44	22703.20
497.62	22963.00
497.79	23260.24
497.97	23007.47
498.14	23396.00
498.32	23257.90
498.50	23372.59
498.67	23293.01
498.85	23314.08
499.03	23817.29
499.20	23873.46
499.38	24093.47
499.56	23978.79
499.73	24257.31
499.91	24559.24
500.08	24601.37
500.26	24315.83
500.44	24659.88
500.61	24737.12
500.79	24456.26
500.97	24769.89
501.14	24971.18
501.32	25230.98
501.49	24875.21
501.67	25113.95
501.84	25303.53
502.02	25263.74
502.20	25184.16
502.37	25455.67
502.55	25312.89
502.72	25352.68
502.90	25336.30
503.07	25408.86
503.25	26001.01
503.43	26148.46
503.60	25909.73
503.78	26225.70
503.95	26155.49
504.13	26408.26
504.30	26377.84
504.48	26251.45
504.65	26534.65
504.83	26740.62
505.01	26693.81
505.18	26771.05
505.36	26913.82
505.53	27161.92
505.71	27091.70
505.88	27414.69
506.06	27173.62
506.23	27133.83
506.41	27213.41
506.58	27316.39
506.76	27491.93
506.93	27756.41
507.11	27604.28
507.28	27960.04
507.46	27873.44
507.63	28027.92
507.81	28058.34
507.98	28285.37
508.16	28002.17
508.33	28451.55
508.50	28549.85
508.68	28678.58
508.85	28699.65
509.03	28624.75
509.20	28739.44
509.38	28694.97
509.55	29071.79
509.73	29474.37
509.90	29048.39
510.08	29039.03
510.25	29303.51
510.42	29366.70
510.60	29575.01
510.77	29724.80
510.95	29947.15
511.12	29551.60
511.30	29603.10
511.47	29692.04
511.64	30073.54
511.82	29869.92
511.99	29972.90
512.17	30071.20
512.34	29844.17
512.51	30635.27
512.69	30644.63
512.86	30721.87
513.04	30923.16
513.21	30731.23
513.38	30756.98
513.56	30899.75
513.73	30754.64
513.90	30876.35
514.08	31063.59
514.25	31330.41
514.43	31213.38
514.60	31709.58
514.77	31234.45
514.95	31438.08
515.12	31379.56
515.29	31508.29
515.47	31491.91
515.64	31695.53
515.81	31913.20
515.99	31868.73
516.16	32350.88
516.33	32238.54
516.51	32465.57
516.68	32182.37
516.85	32407.06
517.03	32549.83
517.20	32095.77
517.37	32245.56
517.54	32456.21
517.72	32357.91
517.89	32751.12
518.06	32655.15
518.24	32868.14
518.41	32690.26
518.58	32921.98
518.75	32591.96
518.93	32669.20
519.10	32779.20
519.27	33340.93
519.45	32964.10
519.62	32954.74
519.79	32968.79
519.96	33755.21
520.14	33352.63
520.31	33380.72
520.48	33701.37
520.65	33933.09
520.83	34047.77
521.00	34288.85
521.17	33750.52
521.34	34110.97
521.52	33867.55
521.69	34197.57
521.86	34092.24
522.03	34232.68
522.20	34616.52
522.38	34628.23
522.55	34607.16
522.72	34700.78
522.89	34934.84
523.07	34993.35
523.24	34991.01
523.41	35213.36
523.58	35009.73
523.75	35637.00
523.92	35201.66
524.10	35363.15
524.27	35278.89
524.44	35328.05
524.61	35271.87
524.78	35014.41
524.96	35941.27
525.13	35959.99
525.30	35519.97
525.47	35737.64
525.64	35700.19
525.81	36126.17
525.98	35812.54
526.16	36140.21
526.33	35957.65
526.50	35955.31
526.67	35997.44
526.84	36020.84
527.01	36247.88
527.18	35758.70
527.36	36215.11
527.53	36261.92
527.70	36755.77
527.87	36868.12
528.04	36524.06
528.21	37088.13
528.38	36481.93
528.55	37046.00
528.72	37003.87
528.89	36683.22
529.07	36912.59
529.24	36875.14
529.41	37200.47
529.58	37469.64
529.75	37216.86
529.92	36994.51
530.09	37514.11
530.26	37516.45
530.43	37560.92
530.60	37209.84
530.77	37799.65
530.94	37680.28
531.11	37404.10
531.28	37441.55
531.46	37823.06
531.63	37750.50
531.80	37593.68
531.97	38176.48
532.14	38045.41
532.31	37598.37
532.48	37823.06
532.65	38291.16
532.82	37921.36
532.99	38171.80
533.16	38286.48
533.33	38459.68
533.50	38787.36
533.67	38522.88
533.84	38176.48
534.01	38415.21
534.18	38745.23
534.35	39028.43
534.52	39063.54
534.69	38953.54
534.86	38820.13
535.03	38714.80
535.20	38932.47
535.37	38756.93
535.54	39321.00
535.71	39344.41
535.88	39208.65
536.05	39365.47
536.22	39201.63
536.38	39077.58
536.55	39477.82
536.72	38878.64
536.89	39248.44
537.06	39587.82
537.23	39730.59
537.40	39330.36
537.57	39016.73
537.74	39321.00
537.91	40137.85
538.08	39737.62
538.25	39285.89
538.42	40378.92
538.59	39707.19
538.75	39669.74
538.92	39732.93
539.09	39971.67
539.26	39887.41
539.43	40154.23
539.60	39761.02
539.77	40212.74
539.94	40634.04
540.11	40432.75
540.28	40748.73
540.44	40453.82
540.61	40194.02
540.78	40294.66
540.95	40561.48
541.12	40395.31
541.29	40039.54
541.46	40500.63
541.62	40940.65
541.79	40737.02
541.96	40390.62
542.13	40825.96
542.30	40877.46
542.47	41289.39
542.63	40999.16
542.80	41441.53
542.97	41422.80
543.14	41727.07
543.31	41221.52
543.48	41188.75
543.64	41645.15
543.81	41703.67
543.98	41359.61
544.15	41567.91
544.32	41666.22
544.48	42281.78
544.65	41736.43
544.82	41886.23
544.99	41680.26
545.16	41537.49
545.32	41895.59
545.49	42237.31
545.66	42450.30
545.83	42087.51
546.00	41921.34
546.16	42220.92
546.33	41937.72
546.50	41804.31
546.67	42457.32
546.83	41883.89
547.00	42321.57
547.17	42232.63
547.34	42447.96
547.50	42295.82
547.67	42887.98
547.84	42391.78
548.00	42227.95
548.17	43192.25
548.34	43246.08
548.51	43145.44
548.67	42822.44
548.84	43129.05
549.01	43278.85
549.18	42813.08
549.34	42948.83
549.51	43295.23
549.68	42976.92
549.84	43040.11
550.01	43379.49
550.18	42845.85
550.34	43044.79
550.51	43171.18
550.68	43473.11
550.84	42780.31
551.01	43477.79
551.18	43201.61
551.34	43269.48
551.51	43667.37
551.68	43309.27
551.84	43377.15
552.01	43622.90
552.18	43215.65
552.34	43421.62
552.51	43115.01
552.68	43566.73
552.84	43473.11
553.01	43854.62
553.18	43538.65
553.34	43622.90
553.51	43772.70
553.67	43761.00
553.84	43826.53
554.01	43742.27
554.17	44006.75
554.34	44020.80
554.51	44182.29
554.67	44196.34
554.84	43999.73
555.00	44013.77
555.17	44311.02
555.33	43887.39
555.50	44233.78
555.67	44133.14
555.83	44474.86
556.00	44727.64
556.16	44802.53
556.33	44650.40
556.50	44306.34
556.66	44519.33
556.83	44156.55
556.99	44903.18
557.16	44807.22
557.32	44898.50
557.49	45015.52
557.65	44460.82
557.82	44568.48
557.98	44708.91
558.15	44268.89
558.32	44439.75
558.48	44582.52
558.65	44671.46
558.81	44734.66
558.98	44662.10
559.14	44603.59
559.31	44825.94
559.47	44605.93
559.64	45041.27
559.80	45214.47
559.97	45219.15
560.13	44648.06
560.30	45233.19
560.46	45127.87
560.63	44905.52
560.79	45455.54
560.96	45394.69
561.12	45354.90
561.29	44900.84
561.45	45635.77
561.61	45537.46
561.78	45305.75
561.94	45322.13
562.11	45565.55
562.27	45359.58
562.44	45429.80
562.60	45228.51
562.77	45134.89
562.93	45483.63
563.10	45591.30
563.26	45584.27
563.42	46160.05
563.59	44968.71
563.75	45574.91
563.92	45277.66
564.08	45823.01
564.24	45783.22
564.41	45804.28
564.57	45815.99
564.74	45914.29
564.90	45738.75
565.07	45462.57
565.23	45607.68
565.39	45750.45
565.56	45635.77
565.72	45574.91
565.88	45909.61
566.05	46036.00
566.21	45811.31
566.38	46010.25
566.54	45748.11
566.70	45972.80
566.87	45911.95
567.03	45841.73
567.19	46092.17
567.36	45949.40
567.52	45450.86
567.68	46370.69
567.85	45911.95
568.01	46176.43
568.17	46314.52
568.34	46216.22
568.50	46167.07
568.66	45844.07
568.83	46059.40
568.99	45975.14
569.15	46218.56
569.32	45717.68
569.48	45804.28
569.64	46351.97
569.81	46169.41
569.97	46454.95
570.13	45961.10
570.30	45846.41
570.46	46274.73
570.62	45900.25
570.78	46426.87
570.95	46190.47
571.11	46483.04
571.27	45916.63
571.43	46057.06
571.60	46218.56
571.76	46101.53
571.92	46342.61
572.09	45837.05
572.25	46234.94
572.41	46164.73
572.57	46153.02
572.74	47040.09
572.90	46141.32
573.06	46822.42
573.22	46789.65
573.38	46153.02
573.55	46866.89
573.71	46724.11
573.87	46277.07
574.03	46476.02
574.20	46670.28
574.36	46693.69
574.52	46569.64
574.68	46815.40
574.84	46696.03
575.01	46791.99
575.17	46763.90
575.33	46527.51
575.49	46618.79
575.65	46621.13
575.82	46733.48
575.98	46436.23
576.14	46614.11
576.30	46962.85
576.46	46728.80
576.62	46380.06
576.79	46153.02
576.95	46230.26
577.11	46410.48
577.27	46478.36
577.43	46787.31
577.59	46749.86
577.75	46394.10
577.92	45783.22
578.08	46506.44
578.24	46885.61
578.40	46735.82
578.56	47143.07
578.72	46195.15
578.88	47077.54
579.04	47098.60
579.21	46834.12
579.37	46843.48
579.53	46927.74
579.69	46525.17
579.85	46986.25
580.01	46754.54
580.17	46513.47
580.33	46946.47
580.49	46972.21
580.65	46534.53
580.82	46686.67
580.98	46646.88
581.14	46213.88
581.30	46810.71
581.46	46300.48
581.62	46579.00
581.78	46672.62
581.94	46855.18
582.10	46689.01
582.26	47042.43
582.42	46719.43
582.58	47082.22
582.74	46459.63
582.90	47093.92
583.06	47082.22
583.22	47215.63
583.38	46752.20
583.54	46948.81
583.70	46934.76
583.86	46997.96
584.02	46546.23
584.18	47250.74
584.34	47004.98
584.50	47068.17
584.66	47227.33
584.82	46937.10
584.98	47290.52
585.14	46979.23
585.30	46677.30
585.46	46756.88
585.62	47220.31
585.78	47103.28
585.94	46691.35
586.10	46768.58
586.26	46623.47
586.42	47304.57
586.58	47334.99
586.74	46330.90
586.90	46937.10
587.06	46981.57
587.22	47255.42
587.38	47016.68
587.54	47344.36
587.70	47325.63
587.86	47213.29
588.02	46691.35
588.18	47129.03
588.34	47426.28
588.49	46717.09
588.65	47246.05
588.81	47014.34
588.97	47236.69
589.13	47278.82
589.29	47428.62
589.45	47388.83
589.61	47533.94
589.77	46979.23
589.93	47274.14
590.08	47477.77
