SpectraSuite Data File
++++++++++++++++++++++++++++++++++++
Date: Fri Oct 25 11:24:03 EDT 2013
User: price-jones
Dark Spectrum Present: No
Reference Spectrum Present: No
Number of Sampled Component Spectra: 1
Spectrometers: USB2+H05261
Integration Time (usec): 100000 (USB2+H05261)
Spectra Averaged: 1 (USB2+H05261)
Boxcar Smoothing: 0 (USB2+H05261)
Correct for Electrical Dark: No (USB2+H05261)
Strobe/Lamp Enabled: No (USB2+H05261)
Correct for Detector Non-linearity: No (USB2+H05261)
Correct for Stray Light: No (USB2+H05261)
Number of Pixels in Processed Spectrum: 2048
>>>>>Begin Processed Spectral Data<<<<<
365.73	220.01
365.92	220.01
366.12	220.01
366.32	154.48
366.52	124.05
366.72	159.16
366.91	152.13
367.11	140.43
367.31	135.75
367.51	173.20
367.70	114.69
367.90	117.03
368.10	126.39
368.30	205.97
368.49	77.24
368.69	145.11
368.89	156.82
369.09	70.22
369.28	107.66
369.48	166.18
369.68	140.43
369.87	156.82
370.07	250.44
370.27	187.24
370.47	252.78
370.66	578.11
370.86	606.20
371.06	568.75
371.25	664.71
371.45	697.48
371.65	751.31
371.84	727.91
372.04	582.79
372.24	631.94
372.44	744.29
372.63	725.57
372.83	781.74
373.03	676.41
373.22	718.54
373.42	772.38
373.62	812.17
373.81	835.57
374.01	788.76
374.21	791.10
374.40	788.76
374.60	800.46
374.79	821.53
374.99	826.21
375.19	901.11
375.38	877.70
375.58	800.46
375.78	875.36
375.97	887.06
376.17	915.15
376.37	842.59
376.56	863.66
376.76	922.17
376.95	915.15
377.15	912.81
377.35	837.91
377.54	959.62
377.74	856.64
377.93	882.38
378.13	875.36
378.33	908.13
378.52	961.96
378.72	896.43
378.91	973.66
379.11	959.62
379.31	863.66
379.50	1022.81
379.70	976.00
379.89	978.34
380.09	1020.47
380.28	882.38
380.48	1039.20
380.68	994.73
380.87	957.28
381.07	1008.77
381.26	1088.35
381.46	1001.75
381.65	1015.79
381.85	1027.50
382.04	968.98
382.24	1060.26
382.43	1057.92
382.63	1102.39
382.83	1057.92
383.02	1144.52
383.22	1146.86
383.41	1027.50
383.61	1048.56
383.80	1130.48
384.00	1076.65
384.19	1095.37
384.39	1078.99
384.58	1144.52
384.78	1128.14
384.97	1205.38
385.17	1123.46
385.36	1207.72
385.56	1196.01
385.75	1163.25
385.95	1181.97
386.14	1203.04
386.34	1184.31
386.53	1165.59
386.72	1245.16
386.92	1263.89
387.11	1130.48
387.31	1238.14
387.50	1345.81
387.70	1306.02
387.89	1167.93
388.09	1245.16
388.28	1256.87
388.48	1249.85
388.67	1306.02
388.86	1343.47
389.06	1261.55
389.25	1380.92
389.45	1399.64
389.64	1345.81
389.84	1394.96
390.03	1373.89
390.22	1329.42
390.42	1373.89
390.61	1387.94
390.81	1322.40
391.00	1427.73
391.19	1357.51
391.39	1488.58
391.58	1490.92
391.78	1437.09
391.97	1465.18
392.16	1472.20
392.36	1483.90
392.55	1500.28
392.75	1493.26
392.94	1551.78
393.13	1591.56
393.33	1479.22
393.52	1514.33
393.71	1540.07
393.91	1624.33
394.10	1511.99
394.29	1537.73
394.49	1563.48
394.68	1734.34
394.88	1579.86
395.07	1778.81
395.26	1640.72
395.46	1739.02
395.65	1680.50
395.84	1727.32
396.04	1839.66
396.23	1774.13
396.42	1717.95
396.62	1734.34
396.81	1668.80
397.00	1659.44
397.19	1689.87
397.39	1703.91
397.58	1853.70
397.77	1818.60
397.97	1921.58
398.16	1818.60
398.35	1940.30
398.55	1856.04
398.74	1842.00
398.93	1919.24
399.12	1940.30
399.32	1877.11
399.51	1818.60
399.70	1937.96
399.90	1898.17
400.09	1926.26
400.28	1893.49
400.47	1930.94
400.67	2059.67
400.86	2097.12
401.05	2064.35
401.24	2092.44
401.44	2204.78
401.63	2260.96
401.82	2125.21
402.01	2157.97
402.21	2150.95
402.40	2188.40
402.59	2106.48
402.78	2165.00
402.97	2239.89
403.17	2314.79
403.36	2246.91
403.55	2324.15
403.74	2356.92
403.93	2289.04
404.13	2361.60
404.32	2422.45
404.51	2312.45
404.70	2394.37
404.89	2457.56
405.09	2373.30
405.28	2469.27
405.47	2363.94
405.66	2523.10
405.85	2511.39
406.05	2530.12
406.24	2560.55
406.43	2506.71
406.62	2609.70
406.81	2637.78
407.00	2605.02
407.20	2633.10
407.39	2572.25
407.58	2696.30
407.77	2761.83
407.96	2764.17
408.15	2743.11
408.34	2764.17
408.54	2736.09
408.73	2782.90
408.92	2825.03
409.11	2974.82
409.30	2780.56
409.49	2820.35
409.68	2829.71
409.87	2972.48
410.07	3080.14
410.26	2942.05
410.45	3033.33
410.64	3082.49
410.83	3112.91
411.02	3014.61
411.21	3241.64
411.40	3131.64
411.59	3274.41
411.78	3150.36
411.98	3204.19
412.17	3204.19
412.36	3365.69
412.55	3239.30
412.74	3520.17
412.93	3442.93
413.12	3337.60
413.31	3524.85
413.50	3552.93
413.69	3627.83
413.88	3543.57
414.07	3550.59
414.26	3627.83
414.45	3630.17
414.64	3653.58
414.83	3833.80
415.02	3826.78
415.22	3838.48
415.41	3854.86
415.60	3831.46
415.79	3904.01
415.98	4135.73
416.17	4037.42
416.36	3946.14
416.55	3847.84
416.74	4032.74
416.93	4004.66
417.12	4114.66
417.31	4135.73
417.50	4105.30
417.69	4306.59
417.88	4402.55
418.07	4383.82
418.26	4346.37
418.45	4311.27
418.64	4442.34
418.83	4301.90
419.02	4496.17
419.21	4566.39
419.39	4322.97
419.58	4566.39
419.77	4437.66
419.96	4582.77
420.15	4601.49
420.34	4512.55
420.53	4613.20
420.72	4683.41
420.91	4678.73
421.10	4849.59
421.29	4678.73
421.48	4905.76
421.67	4699.80
421.86	4676.39
422.05	4760.65
422.24	4922.15
422.43	4870.65
422.61	4805.12
422.80	4905.76
422.99	4882.36
423.18	5074.28
423.37	4997.04
423.56	4924.49
423.75	4947.89
423.94	4840.23
424.13	4493.83
424.32	4774.69
424.50	5043.85
424.69	5078.96
424.88	5020.45
425.07	4915.12
425.26	5060.24
425.45	4940.87
425.64	5008.75
425.83	5055.56
426.01	5043.85
426.20	5125.77
426.39	5036.83
426.58	5029.81
426.77	5029.81
426.96	5193.65
427.15	5088.32
427.33	5296.63
427.52	5172.58
427.71	5203.01
427.90	5282.59
428.09	5378.55
428.28	5242.80
428.46	5490.90
428.65	5329.40
428.84	5392.59
429.03	5579.84
429.22	5511.96
429.40	5448.77
429.59	5589.20
429.78	5343.44
429.97	5254.50
430.16	5504.94
430.34	5680.48
430.53	5671.12
430.72	5802.19
430.91	5631.33
431.10	5666.44
431.28	5738.99
431.47	5734.31
431.66	5827.93
431.85	5844.32
432.03	5863.04
432.22	5820.91
432.41	6029.22
432.60	6047.94
432.79	5968.37
432.97	6015.18
433.16	5961.34
433.35	5891.13
433.54	5900.49
433.72	6125.18
433.91	5996.45
434.10	6113.48
434.28	6148.59
434.47	6239.87
434.66	6216.46
434.85	6443.49
435.03	6242.21
435.22	6342.85
435.41	6520.73
435.59	6394.34
435.78	6523.07
435.97	6478.60
436.16	6572.22
436.34	6382.64
436.53	6551.16
436.72	6623.72
436.90	6431.79
437.09	6623.72
437.28	6494.99
437.46	6661.16
437.65	6677.55
437.84	6803.94
438.02	6750.10
438.21	6911.60
438.40	6946.71
438.58	6988.84
438.77	7136.29
438.96	6956.07
439.14	7166.72
439.33	7194.81
439.52	7077.78
439.70	7246.30
439.89	7258.00
440.08	7222.89
440.26	7297.79
440.45	7592.70
440.63	7550.57
440.82	7396.09
441.01	7475.67
441.19	7616.10
441.38	7665.25
441.57	7786.96
441.75	7740.15
441.94	7861.86
442.12	8030.38
442.31	8147.40
442.50	8098.25
442.68	8131.02
442.87	8039.74
443.05	8170.81
443.24	8313.58
443.43	8215.28
443.61	8409.54
443.80	8458.70
443.98	8133.36
444.17	7885.26
444.35	8219.96
444.54	8397.84
444.73	8269.11
444.91	8294.86
445.10	8454.02
445.28	8304.22
445.47	8189.53
445.65	8292.52
445.84	8287.84
446.02	8491.46
446.21	8603.81
446.39	8294.86
446.58	8512.53
446.77	8528.91
446.95	8297.20
447.14	8463.38
447.32	8571.04
447.51	8683.39
447.69	8489.12
447.88	8446.99
448.06	8400.18
448.25	8470.40
448.43	8748.92
448.62	8620.19
448.80	8659.98
448.99	8571.04
449.17	8753.60
449.36	8746.58
449.54	8699.77
449.73	9036.81
449.91	9151.49
450.10	9177.24
450.28	9123.41
450.46	9015.74
450.65	8933.82
450.83	9128.09
451.02	9064.89
451.20	9212.35
451.39	9095.32
451.57	9177.24
451.76	9008.72
451.94	9139.79
452.13	9247.46
452.31	9186.60
452.49	9465.13
452.68	9369.16
452.86	9439.38
453.05	9493.21
453.23	9612.58
453.42	9427.68
453.60	9401.93
453.78	9540.02
453.97	9266.18
454.15	9500.23
454.34	9348.10
454.52	9900.47
454.70	9771.74
454.89	9701.52
455.07	9818.55
455.26	9891.10
455.44	9970.68
455.62	10200.05
455.81	9802.16
455.99	9951.96
456.17	10094.73
456.36	10026.86
456.54	10263.25
456.73	10527.73
456.91	10438.79
457.09	10478.58
457.28	10572.20
457.46	10494.96
457.64	10509.01
457.83	10431.77
458.01	10366.23
458.19	10651.78
458.38	10574.54
458.56	10541.77
458.74	10892.85
458.93	10785.19
459.11	10761.78
459.29	10698.59
459.48	10848.38
459.66	10902.22
459.84	11122.23
460.03	10841.36
460.21	10991.16
460.39	11037.97
460.57	11239.25
460.76	11229.89
460.94	11293.08
461.12	11269.68
461.31	11126.91
461.49	11070.73
461.67	11290.74
461.85	11372.66
462.04	11250.96
462.22	11470.97
462.40	11562.25
462.59	11398.41
462.77	11555.22
462.95	11840.77
463.13	11405.43
463.32	11679.27
463.50	11634.80
463.68	11740.13
463.86	11861.84
464.05	11674.59
464.23	11789.28
464.41	12070.14
464.59	11651.19
464.78	11885.24
464.96	11950.78
465.14	11960.14
465.32	12285.47
465.50	12166.10
465.69	12456.33
465.87	12109.93
466.05	12142.70
466.23	12077.16
466.41	12290.15
466.60	12524.21
466.78	12325.26
466.96	12383.77
467.14	12257.39
467.32	12376.75
467.51	12699.75
467.69	12116.95
467.87	12538.25
468.05	12650.60
468.23	12358.03
468.41	12559.31
468.60	12580.38
468.78	12931.46
468.96	12613.15
469.14	12884.65
469.32	13069.55
469.50	12512.50
469.69	13004.02
469.87	13209.98
470.05	13217.01
470.23	13275.52
470.41	12922.10
470.59	13266.16
470.77	13004.02
470.95	13163.17
471.14	13493.19
471.32	13319.99
471.50	13549.36
471.68	13603.19
471.86	13743.63
472.04	13900.44
472.22	14099.39
472.40	13731.92
472.58	13879.38
472.77	14176.62
472.95	14244.50
473.13	14693.88
473.31	14094.71
473.49	14242.16
473.67	14281.95
473.85	14347.48
474.03	14663.46
474.21	14745.38
474.39	14700.90
474.57	14813.25
474.75	15023.90
474.93	15021.56
475.12	14780.48
475.30	15059.01
475.48	15105.82
475.66	15325.83
475.84	15140.93
476.02	15613.71
476.20	15578.61
476.38	15529.45
476.56	15941.39
476.74	15920.32
476.92	15796.28
477.10	15712.02
477.28	15971.82
477.46	16336.94
477.64	16498.44
477.82	16727.81
478.00	16840.15
478.18	16535.88
478.36	16671.64
478.54	17317.62
478.72	17156.13
478.90	17563.38
479.08	17666.36
479.26	17715.51
479.44	17972.97
479.62	17839.56
479.80	18436.40
479.98	18452.78
480.16	18693.86
480.34	18548.75
480.52	18604.92
480.70	18534.70
480.88	18579.17
481.06	18944.30
481.24	18771.10
481.41	19051.96
481.59	19316.44
481.77	19264.95
481.95	19597.31
482.13	19702.63
482.31	19644.12
482.49	20098.18
482.67	20329.89
482.85	20381.38
483.03	20673.95
483.21	20732.47
483.39	21158.44
483.57	21057.80
483.74	20861.19
483.92	21254.40
484.10	21186.53
484.28	21666.34
484.46	22024.44
484.64	22438.72
484.82	21846.56
485.00	22263.18
485.18	22553.40
485.35	22785.12
485.53	23108.11
485.71	23339.82
485.89	23903.89
486.07	23498.98
486.25	23487.28
486.43	23742.39
486.61	24257.31
486.78	24482.00
486.96	24362.64
487.14	24414.13
487.32	24741.80
487.50	24950.11
487.68	25249.70
487.85	25422.90
488.03	25656.95
488.21	25895.69
488.39	25769.30
488.57	26003.35
488.75	26080.59
488.92	26616.57
489.10	26899.78
489.28	26738.28
489.46	27042.55
489.64	27166.60
489.81	27789.18
489.99	27761.09
490.17	27915.57
490.35	28013.87
490.53	28526.45
490.70	28407.08
490.88	28102.81
491.06	28905.62
491.24	28833.06
491.41	29336.27
491.59	29413.51
491.77	29263.72
491.95	29635.86
492.13	29565.65
492.30	30401.22
492.48	30263.13
492.66	30206.95
492.84	30174.19
493.01	30883.37
493.19	30822.51
493.37	30897.41
493.54	31283.60
493.72	31428.71
493.90	31826.60
494.08	32147.26
494.25	31908.52
494.43	31960.02
494.61	32816.65
494.79	32624.73
494.96	32809.63
495.14	32987.51
495.32	33015.60
495.49	33251.99
495.67	33282.42
495.85	33795.00
496.02	33902.66
496.20	33710.74
496.38	33881.60
496.55	34087.56
496.73	34845.90
496.91	34930.16
497.09	34852.92
497.26	34939.52
497.44	34976.97
497.62	35117.40
497.79	35747.00
497.97	35349.11
498.14	36212.77
498.32	36140.21
498.50	36067.66
498.67	36552.15
498.85	36395.33
499.03	36964.08
499.20	36994.51
499.38	37055.36
499.56	37174.73
499.73	36975.78
499.91	37198.13
500.08	37586.66
500.26	37282.39
500.44	38146.05
500.61	37813.70
500.79	37926.04
500.97	38256.06
501.14	38513.52
501.32	38759.27
501.49	38602.46
501.67	39049.50
501.84	39023.75
502.02	38859.91
502.20	39236.74
502.37	39311.64
502.55	39234.40
502.72	39662.72
502.90	39571.44
503.07	39695.49
503.25	40051.25
503.43	39653.36
503.60	40360.20
503.78	40273.60
503.95	40261.90
504.13	40362.54
504.30	40556.80
504.48	40566.16
504.65	41095.13
504.83	40966.40
505.01	41322.16
505.18	41460.25
505.36	41621.75
505.53	41315.14
505.71	41778.56
505.88	42094.53
506.06	41853.46
506.23	42363.70
506.41	42124.96
506.58	42089.85
506.76	42087.51
506.93	42548.60
507.11	42515.83
507.28	42841.17
507.46	42749.88
507.63	43239.06
507.81	42944.15
507.98	42693.71
508.16	43655.67
508.33	43702.48
508.50	43622.90
508.68	43929.51
508.85	43749.29
509.03	43995.05
509.20	44240.81
509.38	44301.66
509.55	44460.82
509.73	44168.25
509.90	44435.07
510.08	44446.77
510.25	45134.89
510.42	44947.65
510.60	44985.10
510.77	45490.65
510.95	45464.91
511.12	45272.98
511.30	45048.29
511.47	45528.10
511.64	45577.25
511.82	46057.06
511.99	45897.91
512.17	46244.30
512.34	46211.54
512.51	46642.20
512.69	46511.13
512.86	46443.25
513.04	46934.76
513.21	46693.69
513.38	46733.48
513.56	46913.70
513.73	46988.60
513.90	47093.92
514.08	47040.09
514.25	47248.39
514.43	47456.70
514.60	47547.98
514.77	47505.85
514.95	47852.25
515.12	47840.55
515.29	47997.37
515.47	48245.46
515.64	48060.56
515.81	48238.44
515.99	48411.64
516.16	48512.28
516.33	48196.31
516.51	48706.55
516.68	48680.80
516.85	48769.74
517.03	48989.75
517.20	49052.95
517.37	49139.55
517.54	48903.15
517.72	48949.96
517.89	49031.88
518.06	49544.46
518.24	49364.24
518.41	49223.81
518.58	49855.75
518.75	49600.63
518.93	49804.26
519.10	49715.32
519.27	49785.54
519.45	49881.50
519.62	50033.63
519.79	50326.20
519.96	50089.80
520.14	50333.22
520.31	50361.31
520.48	50527.48
520.65	50216.19
520.83	50667.92
521.00	50684.30
521.17	50667.92
521.34	50426.84
521.52	50768.56
521.69	50918.35
521.86	51416.89
522.03	51433.27
522.20	51302.20
522.38	51847.55
522.55	51426.25
522.72	51625.20
522.89	51849.89
523.07	51875.63
523.24	51437.95
523.41	51601.79
523.58	51529.23
523.75	51739.88
523.92	51634.56
524.10	52294.59
524.27	51941.17
524.44	52346.08
524.61	52238.42
524.78	52292.25
524.96	52617.58
525.13	52491.19
525.30	52465.45
525.47	52842.27
525.64	52261.82
525.81	52530.98
525.98	52676.10
526.16	52804.83
526.33	52832.91
526.50	53109.10
526.67	52713.55
526.84	52931.22
527.01	53076.33
527.18	53116.12
527.36	53139.52
527.53	53167.61
527.70	53401.66
527.87	53497.62
528.04	53265.91
528.21	53418.05
528.38	53689.55
528.55	53415.71
528.72	53441.45
528.89	53396.98
529.07	53340.81
529.24	53371.24
529.41	53609.97
529.58	53689.55
529.75	53745.72
529.92	54028.93
530.09	53965.73
530.26	54108.50
530.43	54094.46
530.60	53680.19
530.77	53794.87
530.94	54110.85
531.11	54234.89
531.28	54262.98
531.46	54202.13
531.63	54473.63
531.80	54464.27
531.97	54593.00
532.14	54703.00
532.31	54330.86
532.48	54639.81
532.65	54787.26
532.82	54401.07
532.99	54700.66
533.16	54681.94
533.33	55016.63
533.50	55171.11
533.67	55037.70
533.84	54745.13
534.01	54850.45
534.18	55035.36
534.35	55302.18
534.52	55093.87
534.69	55381.76
534.86	55580.70
535.03	55356.01
535.20	54972.16
535.37	55386.44
535.54	55458.99
535.71	55363.03
535.88	55566.66
536.05	55643.90
536.22	55777.31
536.38	55693.05
536.55	55592.40
536.72	55681.34
536.89	55229.62
537.06	55824.12
537.23	55679.00
537.40	55285.79
537.57	55835.82
537.74	55983.27
537.91	56011.36
538.08	56067.53
538.25	55772.63
538.42	56107.32
538.59	55987.95
538.75	56149.45
538.92	56079.24
539.09	56317.97
539.26	56163.50
539.43	56177.54
539.60	56460.74
539.77	56346.06
539.94	56692.46
540.11	56425.64
540.28	56652.67
540.44	56474.79
540.61	56444.36
540.78	56151.79
540.95	56470.11
541.12	56540.32
541.29	56591.81
541.46	56493.51
541.62	56865.66
541.79	56762.67
541.96	56488.83
542.13	56617.56
542.30	56762.67
542.47	57003.75
542.63	56811.82
542.80	56994.39
542.97	57050.56
543.14	57462.49
543.31	57389.94
543.48	57298.65
543.64	57476.54
543.81	57567.82
543.98	57392.28
544.15	57443.77
544.32	57373.55
544.48	57771.44
544.65	57455.47
544.82	57570.16
544.99	57256.53
545.16	57441.43
545.32	57509.30
545.49	57851.02
545.66	57904.85
545.83	57865.06
546.00	57717.61
546.16	57797.19
546.33	57560.79
546.50	57490.58
546.67	57869.75
546.83	57574.84
547.00	57839.32
547.17	57900.17
547.34	57909.53
547.50	57977.41
547.67	58033.58
547.84	57968.05
548.00	58321.47
548.17	58096.78
548.34	58080.39
548.51	58237.21
548.67	58220.83
548.84	58267.64
549.01	58113.16
549.18	58246.57
549.34	58368.28
549.51	58525.10
549.68	58365.94
549.84	58494.67
550.01	58534.46
550.18	58321.47
550.34	58424.45
550.51	58599.99
550.68	58475.94
550.84	58389.34
551.01	58644.46
551.18	58632.76
551.34	58543.82
551.51	58705.32
551.68	58539.14
551.84	58632.76
552.01	58478.28
552.18	58777.87
552.34	58457.22
552.51	58754.47
552.68	58679.57
552.84	58599.99
553.01	59143.00
553.18	58885.54
553.34	58944.05
553.51	58883.20
553.67	58749.79
553.84	58887.88
554.01	58990.86
554.17	58972.14
554.34	59152.36
554.51	59194.49
554.67	59292.79
554.84	59025.97
555.00	59028.31
555.17	59021.29
555.33	59267.05
555.50	58993.20
555.67	59253.00
555.83	59189.81
556.00	59096.19
556.16	59508.12
556.33	59070.44
556.50	59346.62
556.66	59533.87
556.83	59143.00
556.99	59379.39
557.16	59465.99
557.32	59491.74
557.49	59678.98
557.65	59334.92
557.82	59435.56
557.98	59351.30
558.15	59543.23
558.32	59700.04
558.48	59639.19
558.65	59482.37
558.81	59606.42
558.98	59753.88
559.14	59613.44
559.31	59730.47
559.47	59763.24
559.64	59732.81
559.80	59697.70
559.97	59756.22
560.13	59770.26
560.30	59608.76
560.46	59758.56
560.63	60060.49
560.79	59716.43
560.96	59891.97
561.12	59913.03
561.29	59875.58
561.45	60055.81
561.61	59866.22
561.78	59723.45
561.94	60055.81
562.11	59683.66
562.27	60023.04
562.44	59938.78
562.60	60264.11
562.77	60032.40
562.93	59985.59
563.10	60175.17
563.26	59901.33
563.42	60378.80
563.59	60032.40
563.75	60079.21
563.92	60102.62
564.08	60025.38
564.24	60186.88
564.41	60266.45
564.57	60168.15
564.74	60299.22
564.90	60275.82
565.07	60133.04
565.23	60177.51
565.39	60245.39
565.56	60346.03
565.72	60154.11
565.88	60374.12
566.05	60245.39
566.21	60322.63
566.38	60498.17
566.54	60280.50
566.70	60488.80
566.87	60505.19
567.03	60339.01
567.19	60566.04
567.36	60512.21
567.52	60259.43
567.68	60640.94
567.85	60453.70
568.01	60622.22
568.17	60371.78
568.34	60720.52
568.50	60364.76
568.66	60268.79
568.83	60519.23
568.99	60505.19
569.15	60552.00
569.32	60584.77
569.48	60432.63
569.64	60563.70
569.81	60402.21
569.97	60268.79
570.13	60355.39
570.30	60484.12
570.46	60512.21
570.62	60491.15
570.78	60516.89
570.95	60619.88
571.11	60790.73
571.27	60566.04
571.43	60673.71
571.60	60594.13
571.76	60491.15
571.92	60851.59
572.09	60722.86
572.25	60608.17
572.41	60732.22
572.57	60568.38
572.74	60966.27
572.90	60683.07
573.06	60853.93
573.22	60713.50
573.38	60844.57
573.55	60764.99
573.71	60893.72
573.87	60786.05
574.03	60601.15
574.20	60802.44
574.36	60910.10
574.52	60849.25
574.68	60699.45
574.84	61085.64
575.01	60863.29
575.17	60713.50
575.33	60746.26
575.49	60664.35
575.65	60945.21
575.82	60928.83
575.98	60886.70
576.14	60982.66
576.30	60931.17
576.46	60683.07
576.62	60839.89
576.79	60818.82
576.95	60650.30
577.11	60788.39
577.27	60963.93
577.43	60860.95
577.59	60802.44
577.75	60882.02
577.92	60530.93
578.08	60800.10
578.24	60905.42
578.40	60823.50
578.56	61052.87
578.72	61022.45
578.88	61097.34
579.04	61158.20
579.21	61076.28
579.37	61034.15
579.53	60959.25
579.69	60809.46
579.85	60891.38
580.01	60924.14
580.17	60743.92
580.33	60809.46
580.49	61078.62
580.65	60931.17
580.82	61214.37
580.98	60800.10
581.14	60867.97
581.30	61020.11
581.46	60938.19
581.62	60940.53
581.78	60940.53
581.94	60977.98
582.10	60954.57
582.26	61127.77
582.42	60985.00
582.58	60797.76
582.74	60994.36
582.90	60877.33
583.06	60954.57
583.22	61073.94
583.38	60996.70
583.54	60963.93
583.70	61078.62
583.86	61085.64
584.02	61104.37
584.18	61268.20
584.34	60949.89
584.50	61233.10
584.66	60931.17
584.82	60776.69
584.98	61174.58
585.14	61193.31
585.30	60959.25
585.46	61116.07
585.62	61113.73
585.78	61155.86
585.94	61043.51
586.10	61057.56
586.26	61181.60
586.42	61228.41
586.58	61207.35
586.74	60963.93
586.90	61118.41
587.06	61078.62
587.22	61221.39
587.38	61064.58
587.54	61214.37
587.70	61197.99
587.86	61251.82
588.02	61099.68
588.18	61286.93
588.34	61118.41
588.49	61080.96
