SpectraSuite Data File
++++++++++++++++++++++++++++++++++++
Date: Fri Oct 25 11:23:41 EDT 2013
User: price-jones
Dark Spectrum Present: No
Reference Spectrum Present: No
Number of Sampled Component Spectra: 1
Spectrometers: USB2+H05261
Integration Time (usec): 100000 (USB2+H05261)
Spectra Averaged: 1 (USB2+H05261)
Boxcar Smoothing: 0 (USB2+H05261)
Correct for Electrical Dark: No (USB2+H05261)
Strobe/Lamp Enabled: No (USB2+H05261)
Correct for Detector Non-linearity: No (USB2+H05261)
Correct for Stray Light: No (USB2+H05261)
Number of Pixels in Processed Spectrum: 2048
>>>>>Begin Processed Spectral Data<<<<<
365.73	201.29
365.92	201.29
366.12	201.29
366.32	168.52
366.52	84.26
366.72	49.15
366.91	135.75
367.11	128.73
367.31	187.24
367.51	95.96
367.70	131.07
367.90	154.48
368.10	72.56
368.30	138.09
368.49	126.39
368.69	173.20
368.89	161.50
369.09	98.30
369.28	135.75
369.48	133.41
369.68	184.90
369.87	201.29
370.07	170.86
370.27	217.67
370.47	358.10
370.66	645.99
370.86	552.37
371.06	624.92
371.25	674.07
371.45	634.29
371.65	772.38
371.84	608.54
372.04	636.63
372.24	653.01
372.44	725.57
372.63	770.04
372.83	739.61
373.03	781.74
373.22	732.59
373.42	755.99
373.62	737.27
373.81	816.85
374.01	774.72
374.21	730.25
374.40	807.48
374.60	800.46
374.79	805.14
374.99	795.78
375.19	741.95
375.38	781.74
375.58	828.55
375.78	800.46
375.97	863.66
376.17	912.81
376.37	830.89
376.56	908.13
376.76	774.72
376.95	812.17
377.15	851.96
377.35	931.53
377.54	947.92
377.74	940.90
377.93	924.51
378.13	926.85
378.33	973.66
378.52	889.40
378.72	973.66
378.91	947.92
379.11	896.43
379.31	922.17
379.50	957.28
379.70	1022.81
379.89	973.66
380.09	1069.62
380.28	1036.86
380.48	1015.79
380.68	947.92
380.87	973.66
381.07	1015.79
381.26	940.90
381.46	992.39
381.65	1048.56
381.85	1067.28
382.04	961.96
382.24	1055.58
382.43	1074.31
382.63	1078.99
382.83	1050.90
383.02	1139.84
383.22	1076.65
383.41	1050.90
383.61	1090.69
383.80	1137.50
384.00	1132.82
384.19	1081.33
384.39	1130.48
384.58	1086.01
384.78	1069.62
384.97	1153.88
385.17	1107.07
385.36	1228.78
385.56	1196.01
385.75	1149.20
385.95	1095.37
386.14	1165.59
386.34	1165.59
386.53	1118.78
386.72	1186.65
386.92	1327.08
387.11	1291.98
387.31	1282.61
387.50	1226.44
387.70	1247.51
387.89	1235.80
388.09	1280.27
388.28	1287.29
388.48	1226.44
388.67	1322.40
388.86	1315.38
389.06	1289.64
389.25	1364.53
389.45	1341.13
389.64	1383.26
389.84	1390.28
390.03	1301.34
390.22	1362.19
390.42	1287.29
390.61	1327.08
390.81	1390.28
391.00	1420.71
391.19	1425.39
391.39	1439.43
391.58	1472.20
391.78	1558.80
391.97	1427.73
392.16	1544.75
392.36	1519.01
392.55	1582.20
392.75	1509.65
392.94	1490.92
393.13	1488.58
393.33	1561.14
393.52	1523.69
393.71	1584.54
393.91	1593.90
394.10	1537.73
394.29	1563.48
394.49	1547.09
394.68	1610.29
394.88	1596.25
395.07	1633.69
395.26	1748.38
395.46	1596.25
395.65	1732.00
395.84	1736.68
396.04	1727.32
396.23	1769.44
396.42	1722.63
396.62	1762.42
396.81	1802.21
397.00	1776.47
397.19	1771.79
397.39	1823.28
397.58	1797.53
397.77	1762.42
397.97	1853.70
398.16	1823.28
398.35	1888.81
398.55	1844.34
398.74	1930.94
398.93	1933.28
399.12	1980.09
399.32	1893.49
399.51	1933.28
399.70	2019.88
399.90	1956.69
400.09	2033.93
400.28	2113.50
400.47	2094.78
400.67	2064.35
400.86	1989.46
401.05	2090.10
401.24	2076.06
401.44	2139.25
401.63	2108.82
401.82	2150.95
402.01	2113.50
402.21	2111.16
402.40	2307.77
402.59	2125.21
402.78	2176.70
402.97	2186.06
403.17	2228.19
403.36	2256.28
403.55	2251.60
403.74	2282.02
403.93	2296.07
404.13	2406.07
404.32	2303.09
404.51	2420.11
404.70	2420.11
404.89	2377.98
405.09	2394.37
405.28	2420.11
405.47	2466.92
405.66	2466.92
405.85	2480.97
406.05	2567.57
406.24	2509.05
406.43	2548.84
406.62	2520.76
406.81	2635.44
407.00	2656.51
407.20	2642.46
407.39	2658.85
407.58	2679.91
407.77	2684.59
407.96	2750.13
408.15	2754.81
408.34	2710.34
408.54	2796.94
408.73	2799.28
408.92	2782.90
409.11	2827.37
409.30	2977.16
409.49	2825.03
409.68	2960.78
409.87	3028.65
410.07	2972.48
410.26	2972.48
410.45	3042.70
410.64	3035.67
410.83	3145.68
411.02	3098.87
411.21	3131.64
411.40	3105.89
411.59	3222.92
411.78	3192.49
411.98	3173.77
412.17	3204.19
412.36	3389.10
412.55	3293.13
412.74	3471.01
412.93	3236.96
413.12	3475.70
413.31	3478.04
413.50	3536.55
413.69	3342.28
413.88	3630.17
414.07	3527.19
414.26	3581.02
414.45	3552.93
414.64	3545.91
414.83	3798.69
415.02	3545.91
415.22	3763.58
415.41	3948.48
415.60	3911.04
415.79	3857.20
415.98	3894.65
416.17	3957.85
416.36	4046.79
416.55	3896.99
416.74	4060.83
416.93	3969.55
417.12	3978.91
417.31	4025.72
417.50	4053.81
417.69	4236.37
417.88	4276.16
418.07	4177.86
418.26	4252.75
418.45	4447.02
418.64	4383.82
418.83	4475.10
419.02	4538.30
419.21	4533.62
419.39	4564.04
419.58	4414.25
419.77	4397.87
419.96	4695.11
420.15	4575.75
420.34	4559.36
420.53	4652.98
420.72	4739.58
420.91	4631.92
421.10	4760.65
421.29	4709.16
421.48	4622.56
421.67	4655.33
421.86	4575.75
422.05	4760.65
422.24	4858.95
422.43	4830.87
422.61	5004.07
422.80	5071.94
422.99	4891.72
423.18	4903.42
423.37	5025.13
423.56	4964.28
423.75	4870.65
423.94	4889.38
424.13	4711.50
424.32	4629.58
424.50	4945.55
424.69	5090.67
424.88	5036.83
425.07	5069.60
425.26	4865.97
425.45	4903.42
425.64	5041.51
425.83	4947.89
426.01	5205.35
426.20	5104.71
426.39	5123.43
426.58	5093.01
426.77	4940.87
426.96	5090.67
427.15	5118.75
427.33	5315.36
427.52	5121.09
427.71	5240.46
427.90	5296.63
428.09	5284.93
428.28	5343.44
428.46	5238.12
428.65	5128.11
428.84	5657.07
429.03	5444.09
429.22	5322.38
429.40	5577.50
429.59	5493.24
429.78	5200.67
429.97	5247.48
430.16	5437.06
430.34	5504.94
430.53	5678.14
430.72	5783.46
430.91	5650.05
431.10	5628.99
431.28	5837.30
431.47	5858.36
431.66	6003.47
431.85	5778.78
432.03	5977.73
432.22	5970.71
432.41	5940.28
432.60	5844.32
432.79	5902.83
432.97	5921.56
433.16	5851.34
433.35	5891.13
433.54	6083.05
433.72	6017.52
433.91	6059.65
434.10	6069.01
434.28	6202.42
434.47	6132.20
434.66	6312.42
434.85	6291.36
435.03	6279.66
435.22	6448.18
435.41	6607.33
435.59	6384.98
435.78	6356.90
435.97	6291.36
436.16	6401.37
436.34	6597.97
436.53	6548.82
436.72	6743.08
436.90	6345.19
437.09	6609.67
437.28	6436.47
437.46	6647.12
437.65	6619.04
437.84	6745.42
438.02	6803.94
438.21	6848.41
438.40	6693.93
438.58	6911.60
438.77	7164.38
438.96	6820.32
439.14	7021.61
439.33	7332.90
439.52	7274.38
439.70	7290.77
439.89	7304.81
440.08	7492.05
440.26	7499.08
440.45	7665.25
440.63	7454.61
440.82	7705.04
441.01	7529.50
441.19	7651.21
441.38	7424.18
441.57	7623.12
441.75	7726.11
441.94	7847.82
442.12	7974.21
442.31	8058.46
442.50	8107.62
442.68	7728.45
442.87	8070.17
443.05	8138.04
443.24	8238.69
443.43	7985.91
443.61	8311.24
443.80	8486.78
443.98	8044.42
444.17	7964.84
444.35	8477.42
444.54	8374.44
444.73	8444.65
444.91	8177.83
445.10	8437.63
445.28	8664.66
445.47	8147.40
445.65	8205.92
445.84	8425.93
446.02	8468.06
446.21	8421.25
446.39	8521.89
446.58	8449.33
446.77	8468.06
446.95	8348.69
447.14	8393.16
447.32	8704.45
447.51	8290.18
447.69	8414.23
447.88	8674.03
448.06	8430.61
448.25	8491.46
448.43	8542.96
448.62	8596.79
448.80	8643.60
448.99	8704.45
449.17	8678.71
449.36	8837.86
449.54	8997.02
449.73	8879.99
449.91	8985.32
450.10	8840.20
450.28	9128.09
450.46	9046.17
450.65	8936.17
450.83	8945.53
451.02	8980.64
451.20	9198.31
451.39	9146.81
451.57	9025.11
451.76	9109.36
451.94	9308.31
452.13	9289.59
452.31	9348.10
452.49	9118.73
452.68	9425.34
452.86	9188.94
453.05	9392.57
453.23	9544.70
453.42	9312.99
453.60	9186.60
453.78	9626.62
453.97	9640.67
454.15	9558.75
454.34	9495.55
454.52	9582.15
454.70	9535.34
454.89	9783.44
455.07	9891.10
455.26	10026.86
455.44	10026.86
455.62	9820.89
455.81	9867.70
455.99	9949.62
456.17	10207.08
456.36	10148.56
456.54	10284.31
456.73	10363.89
456.91	10640.08
457.09	10274.95
457.28	10848.38
457.46	10417.72
457.64	10626.03
457.83	10588.58
458.01	10445.81
458.19	10504.32
458.38	10501.98
458.56	10869.45
458.74	10471.56
458.93	10885.83
459.11	10719.65
459.29	10668.16
459.48	10897.53
459.66	10892.85
459.84	10920.94
460.03	11075.42
460.21	11044.99
460.39	10920.94
460.57	10963.07
460.76	11054.35
460.94	11257.98
461.12	11073.07
461.31	11323.51
461.49	11150.31
461.67	11164.36
461.85	11576.29
462.04	11449.90
462.22	11405.43
462.40	11576.29
462.59	11442.88
462.77	11698.00
462.95	11815.02
463.13	11646.51
463.32	11651.19
463.50	11651.19
463.68	11637.14
463.86	12189.51
464.05	11779.92
464.23	11850.13
464.41	12114.61
464.59	11791.62
464.78	12224.62
464.96	12203.55
465.14	11777.58
465.32	12257.39
465.50	12411.86
465.69	12191.85
465.87	12123.98
466.05	12257.39
466.23	12107.59
466.41	12512.50
466.60	12622.51
466.78	12372.07
466.96	12306.54
467.14	12463.35
467.32	12320.58
467.51	12463.35
467.69	12236.32
467.87	12732.51
468.05	12643.57
468.23	12552.29
468.41	12453.99
468.60	12566.34
468.78	12655.28
468.96	12568.68
469.14	12830.82
469.32	12954.87
469.50	12664.64
469.69	13050.83
469.87	13315.31
470.05	13015.72
470.23	13394.89
470.41	13139.77
470.59	13053.17
470.77	12971.25
470.95	13509.57
471.14	13542.34
471.32	13322.33
471.50	13511.91
471.68	13661.71
471.86	13633.62
472.04	13605.53
472.22	14026.83
472.40	13769.37
472.58	14052.58
472.77	13902.78
472.95	14363.87
473.13	14658.78
473.31	14230.46
473.49	14223.44
473.67	14216.41
473.85	14415.36
474.03	14579.20
474.21	14429.40
474.39	14824.95
474.57	14782.82
474.75	14890.49
474.93	15070.71
475.12	14705.59
475.30	15140.93
475.48	15075.39
475.66	15239.23
475.84	15286.04
476.02	15232.21
476.20	15382.00
476.38	15602.01
476.56	15969.48
476.74	15934.37
476.92	15985.86
477.10	15833.72
477.28	16147.36
477.46	16690.36
477.64	16493.76
477.82	16465.67
478.00	17097.61
478.18	16678.66
478.36	17053.14
478.54	17181.87
478.72	17212.30
478.90	17315.28
479.08	17603.17
479.26	17696.79
479.44	17851.27
479.62	18122.77
479.80	18197.67
479.98	18368.52
480.16	18740.67
480.34	18253.84
480.52	18445.76
480.70	18824.93
480.88	18679.82
481.06	19000.47
481.24	18534.70
481.41	19061.32
481.59	19491.98
481.77	19414.74
481.95	19719.01
482.13	19791.57
482.31	19941.36
482.49	20170.74
482.67	20266.70
482.85	20460.96
483.03	20631.82
483.21	20704.38
483.39	21179.51
483.57	20879.92
483.74	20954.82
483.92	21558.67
484.10	20929.07
484.28	21582.08
484.46	22017.42
484.64	22511.27
484.82	22071.25
485.00	22239.77
485.18	22991.08
485.35	22897.46
485.53	22991.08
485.71	23229.82
485.89	23632.39
486.07	23194.71
486.25	23325.78
486.43	23772.82
486.61	23721.33
486.78	24470.30
486.96	24102.84
487.14	24589.67
487.32	24725.42
487.50	24842.45
487.68	24875.21
487.85	25111.61
488.03	25724.83
488.21	25816.11
488.39	26089.95
488.57	26368.48
488.75	26462.10
488.92	26567.42
489.10	26738.28
489.28	26867.01
489.46	27269.58
489.64	27089.36
489.81	27714.28
489.99	27728.33
490.17	27838.33
490.35	28238.56
490.53	28280.69
490.70	28397.72
490.88	28388.36
491.06	28914.98
491.24	28952.43
491.41	28989.88
491.59	29263.72
491.77	29221.59
491.95	29682.67
492.13	30218.66
492.30	29851.19
492.48	30377.81
492.66	30464.41
492.84	30356.75
493.01	30448.03
493.19	31058.91
493.37	31143.17
493.54	31040.18
493.72	31470.84
493.90	31782.13
494.08	32203.43
494.25	32163.64
494.43	32086.40
494.61	32250.24
494.79	32051.30
494.96	32484.30
495.14	32765.16
495.32	33172.41
495.49	32809.63
495.67	33247.31
495.85	33656.90
496.02	33839.47
496.20	34043.09
496.38	34403.53
496.55	34230.33
496.73	35023.78
496.91	34794.40
497.09	35021.44
497.26	34897.39
497.44	35122.08
497.62	35260.17
497.79	36055.95
497.97	35526.99
498.14	35924.88
498.32	36699.60
498.50	36203.41
498.67	36671.51
498.85	36348.52
499.03	36875.14
499.20	37006.21
499.38	37027.28
499.56	37453.25
499.73	36842.37
499.91	37610.07
500.08	37219.20
500.26	37659.22
500.44	37684.97
500.61	37574.96
500.79	38061.79
500.97	38272.44
501.14	38429.26
501.32	38927.79
501.49	38550.96
501.67	38298.19
501.84	38993.32
502.02	38899.70
502.20	39115.03
502.37	39192.27
502.55	39681.44
502.72	39711.87
502.90	39751.66
503.07	39440.37
503.25	40011.46
503.43	39922.52
503.60	40156.57
503.78	40098.06
503.95	40084.01
504.13	40472.54
504.30	41031.93
504.48	40720.64
504.65	40996.82
504.83	41282.37
505.01	41371.31
505.18	41490.68
505.36	41937.72
505.53	41422.80
505.71	41460.25
505.88	41581.96
506.06	41825.37
506.23	42195.18
506.41	41928.36
506.58	42284.12
506.76	42185.82
506.93	42274.76
507.11	42752.23
507.28	42728.82
507.46	42890.32
507.63	42876.27
507.81	43428.64
507.98	43145.44
508.16	43578.43
508.33	43295.23
508.50	43941.22
508.68	43845.26
508.85	44357.83
509.03	43828.87
509.20	43896.75
509.38	44322.72
509.55	44751.04
509.73	44500.61
509.90	44744.02
510.08	44652.74
510.25	44854.03
510.42	44828.28
510.60	45373.63
510.77	45539.80
510.95	45607.68
511.12	45413.41
511.30	45272.98
511.47	45361.92
511.64	45727.05
511.82	46469.00
511.99	45497.67
512.17	46003.23
512.34	45923.65
512.51	46433.89
512.69	46277.07
512.86	46480.70
513.04	46731.14
513.21	46869.23
513.38	47159.45
513.56	47122.01
513.73	46471.34
513.90	47054.13
514.08	46719.43
514.25	47459.04
514.43	47512.88
514.60	47473.09
514.77	47278.82
514.95	48200.99
515.12	47756.29
515.29	47906.08
515.47	47962.26
515.64	48030.13
515.81	48133.12
515.99	48390.58
516.16	48343.77
516.33	48598.88
516.51	48601.22
516.68	48732.29
516.85	48404.62
517.03	48835.28
517.20	49081.03
517.37	48758.04
517.54	49029.54
517.72	48947.62
517.89	49045.93
518.06	49614.68
518.24	49188.70
518.41	49331.47
518.58	49221.47
518.75	49308.07
518.93	49811.28
519.10	49703.62
519.27	49743.41
519.45	49549.14
519.62	49815.96
519.79	49909.58
519.96	50059.38
520.14	50185.77
520.31	50408.12
520.48	50543.87
520.65	50499.40
520.83	50946.44
521.00	50637.49
521.17	50468.97
521.34	50658.56
521.52	50920.70
521.69	51121.98
521.86	51236.67
522.03	51456.68
522.20	51264.75
522.38	51746.90
522.55	51700.09
522.72	51454.34
522.89	51496.47
523.07	52013.73
523.24	51737.54
523.41	51835.84
523.58	51718.82
523.75	52133.09
523.92	51877.97
524.10	51887.34
524.27	51971.60
524.44	52357.78
524.61	52519.28
524.78	52308.63
524.96	52423.32
525.13	52619.92
525.30	52411.62
525.47	52491.19
525.64	52341.40
525.81	52725.25
525.98	52800.15
526.16	52662.05
526.33	52853.98
526.50	53336.13
526.67	52669.08
526.84	53317.40
527.01	52947.60
527.18	52968.66
527.36	53043.56
527.53	53249.53
527.70	53663.80
527.87	53530.39
528.04	53155.91
528.21	53483.58
528.38	53642.74
528.55	53357.19
528.72	53511.67
528.89	53539.75
529.07	53771.47
529.24	53497.62
529.41	53834.66
529.58	53734.02
529.75	53670.82
529.92	53666.14
530.09	53780.83
530.26	54007.86
530.43	54113.19
530.60	53432.09
530.77	54033.61
530.94	54204.47
531.11	54321.49
531.28	54372.99
531.46	54319.15
531.63	54401.07
531.80	54471.29
531.97	54513.42
532.14	54719.38
532.31	54646.83
532.48	54693.64
532.65	54651.51
532.82	54522.78
532.99	54632.78
533.16	54665.55
533.33	54901.95
533.50	54925.35
533.67	54960.46
533.84	54693.64
534.01	54955.78
534.18	54962.80
534.35	55227.28
534.52	55238.98
534.69	55238.98
534.86	55117.28
535.03	55267.07
535.20	55257.71
535.37	55437.93
535.54	55423.89
535.71	55496.44
535.88	55370.05
536.05	55416.86
536.22	55393.46
536.38	55941.14
536.55	55690.71
536.72	55629.85
536.89	55585.38
537.06	55884.97
537.23	55999.66
537.40	55437.93
537.57	55870.93
537.74	55945.83
537.91	56205.62
538.08	56224.35
538.25	55686.03
538.42	56058.17
538.59	56212.65
538.75	55987.95
538.92	56088.60
539.09	56388.19
539.26	56179.88
539.43	56142.43
539.60	56100.30
539.77	56322.65
539.94	56734.59
540.11	56608.20
540.28	56416.27
540.44	56385.85
540.61	56577.77
540.78	56470.11
540.95	56493.51
541.12	56341.38
541.29	56566.07
541.46	56645.65
541.62	56783.74
541.79	56949.92
541.96	56392.87
542.13	56573.09
542.30	56924.17
542.47	56926.51
542.63	56788.42
542.80	56959.28
542.97	57329.08
543.14	57151.20
543.31	57176.95
543.48	57123.11
543.64	57406.32
543.81	57387.60
543.98	57420.36
544.15	57366.53
544.32	57535.05
544.48	57712.93
544.65	57317.38
544.82	57469.51
544.99	57242.48
545.16	57497.60
545.32	57457.81
545.49	57804.21
545.66	57862.72
545.83	57930.60
546.00	57867.40
546.16	57855.70
546.33	57715.27
546.50	57680.16
546.67	57656.76
546.83	57418.02
547.00	57851.02
547.17	57895.49
547.34	57876.77
547.50	58014.86
547.67	58071.03
547.84	57958.69
548.00	58286.36
548.17	58405.73
548.34	58127.20
548.51	58337.85
548.67	58265.30
548.84	58244.23
549.01	58122.52
549.18	58326.15
549.34	58370.62
549.51	58398.71
549.68	58518.07
549.84	58267.64
550.01	58525.10
550.18	58272.32
550.34	58525.10
550.51	58581.27
550.68	58422.11
550.84	58368.28
551.01	58599.99
551.18	58695.95
551.34	58656.17
551.51	58831.71
551.68	58663.19
551.84	58592.97
552.01	58560.20
552.18	58885.54
552.34	58773.19
552.51	58906.60
552.68	58539.14
552.84	58681.91
553.01	59021.29
553.18	58735.74
553.34	59018.95
553.51	58801.28
553.67	58946.39
553.84	59175.76
554.01	58953.41
554.17	58979.16
554.34	59063.42
554.51	58911.28
554.67	59096.19
554.84	59189.81
555.00	59070.44
555.17	59028.31
555.33	59313.86
555.50	59049.38
555.67	58850.43
555.83	59260.02
556.00	59025.97
556.16	59585.36
556.33	59405.14
556.50	59250.66
556.66	59386.41
556.83	59330.24
556.99	59274.07
557.16	59348.96
557.32	59524.50
557.49	59517.48
557.65	59388.75
557.82	59412.16
557.98	59292.79
558.15	59480.03
558.32	59538.55
558.48	59398.12
558.65	59416.84
558.81	59454.29
558.98	59604.08
559.14	59861.54
559.31	59704.73
559.47	59742.17
559.64	59887.29
559.80	59955.16
559.97	59866.22
560.13	59512.80
560.30	59819.41
560.46	59695.36
560.63	59901.33
560.79	59730.47
560.96	60023.04
561.12	59838.14
561.29	59819.41
561.45	59889.63
561.61	59868.56
561.78	60074.53
561.94	59901.33
562.11	59863.88
562.27	59859.20
562.44	59917.71
562.60	60247.73
562.77	60032.40
562.93	60037.08
563.10	60247.73
563.26	59884.95
563.42	60198.58
563.59	59992.61
563.75	60100.28
563.92	60018.36
564.08	59971.55
564.24	60275.82
564.41	60266.45
564.57	60119.00
564.74	60044.10
564.90	60250.07
565.07	60161.13
565.23	60264.11
565.39	60313.26
565.56	60285.18
565.72	60163.47
565.88	60362.42
566.05	60236.03
566.21	60310.92
566.38	60367.10
566.54	60331.99
566.70	60568.38
566.87	60306.24
567.03	60268.79
567.19	60683.07
567.36	60467.74
567.52	60374.12
567.68	60582.43
567.85	60392.84
568.01	60519.23
568.17	60453.70
568.34	60626.90
568.50	60280.50
568.66	60259.43
568.83	60629.24
568.99	60474.76
569.15	60425.61
569.32	60301.56
569.48	60495.83
569.64	60580.09
569.81	60601.15
569.97	60498.17
570.13	60718.18
570.30	60439.65
570.46	60542.64
570.62	60472.42
570.78	60477.10
570.95	60446.68
571.11	60722.86
571.27	60650.30
571.43	60580.09
571.60	60767.33
571.76	60566.04
571.92	60673.71
572.09	60781.37
572.25	60743.92
572.41	60633.92
572.57	60617.53
572.74	60776.69
572.90	60673.71
573.06	60697.11
573.22	60755.63
573.38	60680.73
573.55	60767.33
573.71	60699.45
573.87	60832.86
574.03	60603.49
574.20	60685.41
574.36	60804.78
574.52	60690.09
574.68	60811.80
574.84	60790.73
575.01	60973.30
575.17	60781.37
575.33	60816.48
575.49	60664.35
575.65	60905.42
575.82	60996.70
575.98	60882.02
576.14	61052.87
576.30	61050.53
576.46	60804.78
576.62	60774.35
576.79	61008.40
576.95	60753.29
577.11	60867.97
577.27	60872.65
577.43	60795.42
577.59	60762.65
577.75	60968.61
577.92	60807.12
578.08	60858.61
578.24	60842.23
578.40	60970.96
578.56	60938.19
578.72	60823.50
578.88	61048.19
579.04	60921.80
579.21	60942.87
579.37	61099.68
579.53	60987.34
579.69	60863.29
579.85	60959.25
580.01	60940.53
580.17	60940.53
580.33	61123.09
580.49	60963.93
580.65	61015.43
580.82	61144.16
580.98	60842.23
581.14	60870.31
581.30	61029.47
581.46	61015.43
581.62	61090.32
581.78	60764.99
581.94	61069.26
582.10	60947.55
582.26	60919.46
582.42	60893.72
582.58	60966.27
582.74	61083.30
582.90	60903.08
583.06	61001.38
583.22	60884.36
583.38	60994.36
583.54	61123.09
583.70	61162.88
583.86	61237.78
584.02	60963.93
584.18	61254.16
584.34	61165.22
584.50	61029.47
584.66	61013.08
584.82	60900.74
584.98	61139.47
585.14	61111.39
585.30	60942.87
585.46	61162.88
585.62	61045.85
585.78	61144.16
585.94	60821.16
586.10	60970.96
586.26	60961.59
586.42	61099.68
586.58	61010.74
586.74	61141.81
586.90	61085.64
587.06	60999.04
587.22	61127.77
587.38	60889.04
587.54	61209.69
587.70	61298.63
587.86	61190.97
588.02	60963.93
588.18	61268.20
588.34	61151.18
588.49	60952.23
