SpectraSuite Data File
++++++++++++++++++++++++++++++++++++
Date: Fri Oct 25 11:26:03 EDT 2013
User: price-jones
Dark Spectrum Present: No
Reference Spectrum Present: No
Number of Sampled Component Spectra: 1
Spectrometers: USB2+H05261
Integration Time (usec): 100000 (USB2+H05261)
Spectra Averaged: 1 (USB2+H05261)
Boxcar Smoothing: 0 (USB2+H05261)
Correct for Electrical Dark: No (USB2+H05261)
Strobe/Lamp Enabled: No (USB2+H05261)
Correct for Detector Non-linearity: No (USB2+H05261)
Correct for Stray Light: No (USB2+H05261)
Number of Pixels in Processed Spectrum: 2048
>>>>>Begin Processed Spectral Data<<<<<
365.73	273.84
365.92	273.84
366.12	273.84
366.32	180.22
366.52	175.54
366.72	203.63
366.91	163.84
367.11	152.13
367.31	194.26
367.51	117.03
367.70	121.71
367.90	112.35
368.10	131.07
368.30	145.11
368.49	131.07
368.69	102.98
368.89	245.76
369.09	156.82
369.28	198.95
369.48	102.98
369.68	222.35
369.87	245.76
370.07	241.08
370.27	238.73
370.47	283.20
370.66	622.58
370.86	587.47
371.06	734.93
371.25	725.57
371.45	713.86
371.65	716.20
371.84	716.20
372.04	657.69
372.24	718.54
372.44	751.31
372.63	711.52
372.83	814.51
373.03	791.10
373.22	704.50
373.42	805.14
373.62	847.27
373.81	856.64
374.01	884.72
374.21	819.19
374.40	809.83
374.60	842.59
374.79	894.08
374.99	842.59
375.19	844.93
375.38	863.66
375.58	819.19
375.78	875.36
375.97	889.40
376.17	891.74
376.37	901.11
376.56	952.60
376.76	936.21
376.95	926.85
377.15	840.25
377.35	926.85
377.54	947.92
377.74	887.06
377.93	898.77
378.13	910.47
378.33	964.30
378.52	931.53
378.72	945.58
378.91	952.60
379.11	931.53
379.31	978.34
379.50	905.79
379.70	971.32
379.89	1039.20
380.09	980.68
380.28	1043.88
380.48	1018.13
380.68	987.71
380.87	1011.11
381.07	1039.20
381.26	994.73
381.46	997.07
381.65	1123.46
381.85	1123.46
382.04	1097.71
382.24	1067.28
382.43	1022.81
382.63	1039.20
382.83	945.58
383.02	1109.41
383.22	1174.95
383.41	1060.26
383.61	1158.57
383.80	1048.56
384.00	1174.95
384.19	1050.90
384.39	1118.78
384.58	1090.69
384.78	1188.99
384.97	1184.31
385.17	1242.82
385.36	1214.74
385.56	1170.27
385.75	1128.14
385.95	1203.04
386.14	1198.35
386.34	1149.20
386.53	1200.69
386.72	1200.69
386.92	1275.59
387.11	1231.12
387.31	1310.70
387.50	1259.21
387.70	1261.55
387.89	1273.25
388.09	1291.98
388.28	1299.00
388.48	1299.00
388.67	1343.47
388.86	1291.98
389.06	1329.42
389.25	1273.25
389.45	1350.49
389.64	1322.40
389.84	1336.45
390.03	1273.25
390.22	1390.28
390.42	1434.75
390.61	1423.05
390.81	1401.98
391.00	1394.96
391.19	1493.26
391.39	1394.96
391.58	1425.39
391.78	1409.00
391.97	1387.94
392.16	1425.39
392.36	1535.39
392.55	1568.16
392.75	1502.62
392.94	1547.09
393.13	1467.52
393.33	1488.58
393.52	1535.39
393.71	1645.40
393.91	1568.16
394.10	1605.61
394.29	1610.29
394.49	1610.29
394.68	1619.65
394.88	1652.42
395.07	1647.74
395.26	1607.95
395.46	1619.65
395.65	1694.55
395.84	1694.55
396.04	1926.26
396.23	1774.13
396.42	1689.87
396.62	1675.82
396.81	1778.81
397.00	1799.87
397.19	1774.13
397.39	1764.76
397.58	1816.26
397.77	1799.87
397.97	1797.53
398.16	1874.77
398.35	1928.60
398.55	1818.60
398.74	1851.36
398.93	1937.96
399.12	1926.26
399.32	1802.21
399.51	1865.41
399.70	2073.71
399.90	1902.86
400.09	2062.01
400.28	2019.88
400.47	2043.29
400.67	2062.01
400.86	2083.08
401.05	2066.69
401.24	2165.00
401.44	2148.61
401.63	2218.83
401.82	2155.63
402.01	2108.82
402.21	2214.15
402.40	2251.60
402.59	2246.91
402.78	2181.38
402.97	2197.76
403.17	2106.48
403.36	2165.00
403.55	2207.13
403.74	2352.24
403.93	2291.38
404.13	2275.00
404.32	2361.60
404.51	2349.90
404.70	2349.90
404.89	2361.60
405.09	2443.52
405.28	2492.67
405.47	2408.41
405.66	2441.18
405.85	2518.42
406.05	2511.39
406.24	2647.15
406.43	2520.76
406.62	2593.31
406.81	2551.18
407.00	2497.35
407.20	2502.03
407.39	2569.91
407.58	2665.87
407.77	2700.98
407.96	2616.72
408.15	2787.58
408.34	2703.32
408.54	2794.60
408.73	2834.39
408.92	2892.90
409.11	2885.88
409.30	2958.44
409.49	2876.52
409.68	2853.11
409.87	2920.99
410.07	3016.95
410.26	2918.65
410.45	3141.00
410.64	2951.42
410.83	3045.04
411.02	3129.30
411.21	3173.77
411.40	3126.96
411.59	3162.06
411.78	3251.00
411.98	3084.83
412.17	3323.56
412.36	3232.28
412.55	3379.73
412.74	3265.05
412.93	3353.99
413.12	3356.33
413.31	3555.27
413.50	3520.17
413.69	3564.64
413.88	3538.89
414.07	3396.12
414.26	3571.66
414.45	3662.94
414.64	3618.47
414.83	3772.94
415.02	3721.45
415.22	3791.67
415.41	3721.45
415.60	3796.35
415.79	3918.06
415.98	3866.56
416.17	3908.69
416.36	3960.19
416.55	3808.05
416.74	3941.46
416.93	4088.92
417.12	4187.22
417.31	4318.29
417.50	4100.62
417.69	4280.84
417.88	4369.78
418.07	4231.69
418.26	4100.62
418.45	4224.67
418.64	4400.21
418.83	4409.57
419.02	4395.53
419.21	4402.55
419.39	4458.72
419.58	4550.00
419.77	4535.96
419.96	4545.32
420.15	4545.32
420.34	4580.43
420.53	4582.77
420.72	4601.49
420.91	4737.24
421.10	4634.26
421.29	4788.74
421.48	4638.94
421.67	4697.46
421.86	4755.97
422.05	4922.15
422.24	4835.55
422.43	4891.72
422.61	4882.36
422.80	4903.42
422.99	4901.08
423.18	4973.64
423.37	5062.58
423.56	5022.79
423.75	4954.91
423.94	4830.87
424.13	4573.41
424.32	4748.95
424.50	4940.87
424.69	5146.84
424.88	5181.95
425.07	4985.34
425.26	4863.63
425.45	5029.81
425.64	5022.79
425.83	5102.37
426.01	5095.35
426.20	5076.62
426.39	5177.26
426.58	5100.03
426.77	4919.81
426.96	5137.48
427.15	5109.39
427.33	5095.35
427.52	5104.71
427.71	5191.31
427.90	5188.97
428.09	5317.70
428.28	5291.95
428.46	5200.67
428.65	5327.06
428.84	5528.35
429.03	5432.38
429.22	5352.81
429.40	5504.94
429.59	5455.79
429.78	5310.68
429.97	5348.12
430.16	5584.52
430.34	5556.43
430.53	5645.37
430.72	5664.10
430.91	5483.88
431.10	5643.03
431.28	5963.68
431.47	5741.33
431.66	5926.24
431.85	5696.86
432.03	5820.91
432.22	5933.26
432.41	5975.39
432.60	5841.98
432.79	6031.56
432.97	5844.32
433.16	6202.42
433.35	5996.45
433.54	5973.05
433.72	6019.86
433.91	6094.76
434.10	6108.80
434.28	5959.00
434.47	5975.39
434.66	6059.65
434.85	6338.17
435.03	6389.66
435.22	6237.53
435.41	6450.52
435.59	6352.21
435.78	6413.07
435.97	6429.45
436.16	6347.53
436.34	6377.96
436.53	6506.69
436.72	6757.13
436.90	6359.24
437.09	6696.27
437.28	6445.84
437.46	6630.74
437.65	6579.25
437.84	6686.91
438.02	6815.64
438.21	6619.04
438.40	6700.95
438.58	6937.35
438.77	7054.37
438.96	7070.76
439.14	7035.65
439.33	7187.79
439.52	7131.61
439.70	7199.49
439.89	7164.38
440.08	7349.28
440.26	7379.71
440.45	7337.58
440.63	7449.93
440.82	7473.33
441.01	7644.19
441.19	7676.96
441.38	7880.58
441.57	7843.14
441.75	7838.45
441.94	7880.58
442.12	7854.84
442.31	8271.45
442.50	8116.98
442.68	8058.46
442.87	7903.99
443.05	8030.38
443.24	8194.22
443.43	7934.42
443.61	8360.39
443.80	8358.05
443.98	8093.57
444.17	7779.94
444.35	8182.51
444.54	8341.67
444.73	8238.69
444.91	8212.94
445.10	8374.44
445.28	8369.76
445.47	8255.07
445.65	8416.57
445.84	8388.48
446.02	8400.18
446.21	8358.05
446.39	8306.56
446.58	8362.73
446.77	8329.97
446.95	8243.37
447.14	8386.14
447.32	8315.92
447.51	8458.70
447.69	8472.74
447.88	8538.27
448.06	8517.21
448.25	8369.76
448.43	8491.46
448.62	8549.98
448.80	8638.92
448.99	8837.86
449.17	8777.01
449.36	8592.11
449.54	8966.59
449.73	8856.59
449.91	9011.06
450.10	8814.46
450.28	9158.52
450.46	9060.21
450.65	9156.18
450.83	9011.06
451.02	8847.22
451.20	9200.65
451.39	9221.71
451.57	9130.43
451.76	9076.60
451.94	9202.99
452.13	9596.20
452.31	9252.14
452.49	9081.28
452.68	9383.21
452.86	9500.23
453.05	9479.17
453.23	9380.87
453.42	9263.84
453.60	9095.32
453.78	9547.05
453.97	9334.06
454.15	9540.02
454.34	9430.02
454.52	9694.50
454.70	9605.56
454.89	9720.24
455.07	9617.26
455.26	9935.57
455.44	9951.96
455.62	9905.15
455.81	9874.72
455.99	10118.14
456.17	9923.87
456.36	9863.02
456.54	10153.24
456.73	10059.62
456.91	10436.45
457.09	10485.60
457.28	10469.22
457.46	10148.56
457.64	10413.04
457.83	10462.19
458.01	10473.90
458.19	10630.71
458.38	10518.37
458.56	10848.38
458.74	10876.47
458.93	10640.08
459.11	10396.66
459.29	10611.99
459.48	10672.84
459.66	10773.49
459.84	10930.30
460.03	11094.14
460.21	10960.73
460.39	10867.11
460.57	11098.82
460.76	11194.78
460.94	11206.48
461.12	11140.95
461.31	11529.48
461.49	11115.20
461.67	11037.97
461.85	11426.50
462.04	11517.78
462.22	11749.49
462.40	11456.92
462.59	11496.71
462.77	11190.10
462.95	11618.42
463.13	11405.43
463.32	11716.72
463.50	11515.44
463.68	11803.32
463.86	11861.84
464.05	11625.44
464.23	11737.79
464.41	12079.50
464.59	11800.98
464.78	12058.44
464.96	12074.82
465.14	11847.79
465.32	11896.94
465.50	11971.84
465.69	12100.57
465.87	11908.65
466.05	12395.48
466.23	11999.93
466.41	12262.07
466.60	12545.27
466.78	12217.60
466.96	12072.48
467.14	12229.30
467.32	12468.03
467.51	12526.55
467.69	12114.61
467.87	12224.62
468.05	12748.90
468.23	12498.46
468.41	12475.06
468.60	12444.63
468.78	12786.35
468.96	12692.73
469.14	12765.28
469.32	12985.29
469.50	12573.36
469.69	12788.69
469.87	12945.50
470.05	13029.76
470.23	13233.39
470.41	13083.59
470.59	13151.47
470.77	13238.07
470.95	13303.60
471.14	13238.07
471.32	13092.96
471.50	13680.43
471.68	13624.26
471.86	13729.58
472.04	13710.86
472.22	14054.92
472.40	13752.99
472.58	13610.22
472.77	14218.75
472.95	14366.21
473.13	14413.02
473.31	13989.38
473.49	14033.85
473.67	14104.07
473.85	14581.54
474.03	14558.13
474.21	14476.21
474.39	14686.86
474.57	14703.25
474.75	14780.48
474.93	14941.98
475.12	14808.57
475.30	14939.64
475.48	14986.45
475.66	15204.12
475.84	15213.48
476.02	15239.23
476.20	15405.41
476.38	15655.84
476.56	15882.88
476.74	15845.43
476.92	15861.81
477.10	15901.60
477.28	16126.29
477.46	16109.91
477.64	16208.21
477.82	16236.30
478.00	17235.70
478.18	16945.48
478.36	16734.83
478.54	17226.34
478.72	17364.43
478.90	17376.14
479.08	17759.98
479.26	17865.31
479.44	17696.79
479.62	17947.23
479.80	18211.71
479.98	18202.35
480.16	18490.23
480.34	18326.39
480.52	18752.37
480.70	18766.42
480.88	18272.56
481.06	18735.99
481.24	18806.20
481.41	18831.95
481.59	19405.38
481.77	19197.07
481.95	19117.50
482.13	19407.72
482.31	19719.01
482.49	20255.00
482.67	20100.52
482.85	20334.57
483.03	20428.20
483.21	20992.26
483.39	21144.40
483.57	20868.22
483.74	20870.56
483.92	21228.66
484.10	21043.76
484.28	21649.96
484.46	22108.70
484.64	22286.58
484.82	21958.91
485.00	22401.27
485.18	23073.00
485.35	23073.00
485.53	22862.35
485.71	22883.42
485.89	23274.29
486.07	23466.21
486.25	23442.81
486.43	23711.97
486.61	23894.53
486.78	24259.65
486.96	24196.46
487.14	24196.46
487.32	24400.08
487.50	25010.96
487.68	25029.69
487.85	25060.12
488.03	25462.69
488.21	26019.74
488.39	25528.22
488.57	26246.77
488.75	26291.24
488.92	26352.09
489.10	26490.18
489.28	26864.67
489.46	26909.14
489.64	26986.38
489.81	27316.39
489.99	27557.47
490.17	27592.58
490.35	28128.56
490.53	27917.91
490.70	28446.87
490.88	28002.17
491.06	28800.29
491.24	28772.21
491.41	28807.31
491.59	28905.62
491.77	29390.11
491.95	29338.62
492.13	29392.45
492.30	30050.14
492.48	30078.22
492.66	30382.49
492.84	30249.08
493.01	30462.07
493.19	30450.37
493.37	30974.65
493.54	31133.81
493.72	31580.85
493.90	31255.51
494.08	32030.23
494.25	31732.98
494.43	32032.57
494.61	31880.44
494.79	32400.04
494.96	31901.50
495.14	32847.08
495.32	32989.85
495.49	32636.43
495.67	33198.16
495.85	33619.46
496.02	33773.93
496.20	33872.23
496.38	33589.03
496.55	33935.43
496.73	34873.98
496.91	34733.55
497.09	34843.56
497.26	35051.86
497.44	34766.32
497.62	35658.06
497.79	35693.17
497.97	35449.75
498.14	36086.38
498.32	36301.71
498.50	36023.19
498.67	36053.61
498.85	36383.63
499.03	36421.08
499.20	36435.12
499.38	36786.20
499.56	36568.53
499.73	37095.15
499.91	37036.64
500.08	37109.19
500.26	36928.97
500.44	37713.05
500.61	37717.73
500.79	37757.52
500.97	38213.93
501.14	38242.01
501.32	38333.29
501.49	38300.53
501.67	38478.41
501.84	39117.37
502.02	38848.21
502.20	38862.26
502.37	39505.90
502.55	39491.86
502.72	39028.43
502.90	39456.75
503.07	39770.38
503.25	39693.15
503.43	39356.11
503.60	39779.74
503.78	39856.98
503.95	40343.81
504.13	40467.86
504.30	40837.67
504.48	40360.20
504.65	40788.52
504.83	40727.66
505.01	41085.76
505.18	40875.12
505.36	41668.56
505.53	41181.73
505.71	41242.58
505.88	41729.41
506.06	41277.69
506.23	41581.96
506.41	41446.21
506.58	42087.51
506.76	42129.64
506.93	42412.85
507.11	42185.82
507.28	42359.02
507.46	42733.50
507.63	43002.66
507.81	43283.53
507.98	42808.40
508.16	43466.09
508.33	43012.02
508.50	43667.37
508.68	43398.21
508.85	44116.76
509.03	43658.01
509.20	44065.27
509.38	44392.94
509.55	44884.45
509.73	44477.20
509.90	44650.40
510.08	44048.88
510.25	44755.72
510.42	44662.10
510.60	44809.56
510.77	45329.16
510.95	45151.27
511.12	45116.17
511.30	45024.89
511.47	45366.60
511.64	45043.61
511.82	45415.76
511.99	45654.49
512.17	45832.37
512.34	45935.35
512.51	46169.41
512.69	46321.54
512.86	46218.56
513.04	46607.09
513.21	46604.75
513.38	47054.13
513.56	46948.81
513.73	46707.73
513.90	47154.77
514.08	46520.49
514.25	47243.71
514.43	47496.49
514.60	47594.79
514.77	47215.63
514.95	47524.58
515.12	47306.91
515.29	47498.83
515.47	48046.52
515.64	47941.19
515.81	48299.30
515.99	48053.54
516.16	48367.17
516.33	48069.92
516.51	48526.33
516.68	48406.96
516.85	48311.00
517.03	48631.65
517.20	48694.85
517.37	48973.37
517.54	48996.77
517.72	48982.73
517.89	49088.06
518.06	49059.97
518.24	49195.72
518.41	48856.34
518.58	49230.83
518.75	49148.91
518.93	49815.96
519.10	49230.83
519.27	49998.52
519.45	49654.47
519.62	49736.38
519.79	49935.33
519.96	49977.46
520.14	50019.59
520.31	50143.64
520.48	50251.30
520.65	50190.45
520.83	50424.50
521.00	50389.39
521.17	50328.54
521.34	50499.40
521.52	50777.92
521.69	50789.62
521.86	50768.56
522.03	50756.86
522.20	51054.11
522.38	51107.94
522.55	51096.24
522.72	51220.28
522.89	51093.89
523.07	51664.99
523.24	51210.92
523.41	51681.37
523.58	51236.67
523.75	51859.25
523.92	51597.11
524.10	51924.78
524.27	51915.42
524.44	52093.30
524.61	51887.34
524.78	52051.17
524.96	52147.14
525.13	52165.86
525.30	52081.60
525.47	52451.41
525.64	52184.58
525.81	52332.04
525.98	52652.69
526.16	52322.68
526.33	52591.84
526.50	53275.27
526.67	52774.40
526.84	53247.19
527.01	52765.04
527.18	52816.53
527.36	52818.87
527.53	53050.58
527.70	52971.00
527.87	53207.40
528.04	52914.83
528.21	53673.16
528.38	53532.73
528.55	53453.15
528.72	53296.34
528.89	53605.29
529.07	53083.35
529.24	53207.40
529.41	53666.14
529.58	53738.70
529.75	53652.10
529.92	53628.69
530.09	53954.03
530.26	54012.54
530.43	53837.00
530.60	53731.68
530.77	53799.55
530.94	54122.55
531.11	54057.01
531.28	54033.61
531.46	54092.12
531.63	54124.89
531.80	54103.82
531.97	54408.09
532.14	54574.27
532.31	54150.63
532.48	54686.62
532.65	54555.55
532.82	54747.47
532.99	54707.68
533.16	54415.11
533.33	54805.98
533.50	54665.55
533.67	54600.02
533.84	54677.25
534.01	54745.13
534.18	54920.67
534.35	55222.60
534.52	54801.30
534.69	55173.45
534.86	55091.53
535.03	54803.64
535.20	55222.60
535.37	55231.96
535.54	55419.20
535.71	55136.00
535.88	55423.89
536.05	55576.02
536.22	55412.18
536.38	55290.48
536.55	55646.24
536.72	55573.68
536.89	55426.23
537.06	55571.34
537.23	55824.12
537.40	55594.74
537.57	55580.70
537.74	55473.04
537.91	55936.46
538.08	56018.38
538.25	55730.50
538.42	55657.94
538.59	56048.81
538.75	55765.60
538.92	56009.02
539.09	56037.11
539.26	56053.49
539.43	56168.18
539.60	56191.58
539.77	56095.62
539.94	56362.44
540.11	56289.88
540.28	56287.54
540.44	56449.04
540.61	56521.60
540.78	56250.09
540.95	56423.29
541.12	56322.65
541.29	56425.64
541.46	56451.38
541.62	56491.17
541.79	56605.86
541.96	56259.46
542.13	56601.18
542.30	56615.22
542.47	56706.50
542.63	56748.63
542.80	56746.29
542.97	56973.32
543.14	57247.16
543.31	57123.11
543.48	57291.63
543.64	57301.00
543.81	57371.21
543.98	57155.88
544.15	57183.97
544.32	57537.39
544.48	57443.77
544.65	57265.89
544.82	57492.92
544.99	57190.99
545.16	57216.74
545.32	57190.99
545.49	57645.05
545.66	57687.18
545.83	57537.39
546.00	57656.76
546.16	57277.59
546.33	57619.31
546.50	57467.17
546.67	57759.74
546.83	57446.11
547.00	57649.74
547.17	57591.22
547.34	57696.55
547.50	57556.11
547.67	58131.89
547.84	57776.12
548.00	58234.87
548.17	58134.23
548.34	57991.45
548.51	58300.40
548.67	58110.82
548.84	58019.54
549.01	58040.60
549.18	58213.80
549.34	58234.87
549.51	58178.70
549.68	58323.81
549.84	58293.38
550.01	58426.79
550.18	58321.47
550.34	58227.85
550.51	58412.75
550.68	58312.11
550.84	58075.71
551.01	58543.82
551.18	58637.44
551.34	58482.97
551.51	58429.13
551.68	58560.20
551.84	58508.71
552.01	58358.92
552.18	58583.61
552.34	58358.92
552.51	58681.91
552.68	58482.97
552.84	58487.65
553.01	58798.94
553.18	58827.02
553.34	58773.19
553.51	58845.75
553.67	58822.34
553.84	58922.99
554.01	58864.47
554.17	59058.74
554.34	58944.05
554.51	58918.31
554.67	59105.55
554.84	58897.24
555.00	58787.24
555.17	58951.07
555.33	58869.15
555.50	58824.68
555.67	58841.07
555.83	59009.59
556.00	59114.91
556.16	59255.34
556.33	59131.29
556.50	59107.89
556.66	59217.89
556.83	58845.75
556.99	59330.24
557.16	59529.19
557.32	59192.15
557.49	59690.68
557.65	59278.75
557.82	59508.12
557.98	59306.83
558.15	59377.05
558.32	59412.16
558.48	59358.33
558.65	59458.97
558.81	59309.18
558.98	59426.20
559.14	59536.21
559.31	59599.40
559.47	59707.07
559.64	59660.26
559.80	59648.55
559.97	59922.40
560.13	59395.77
560.30	59573.66
560.46	59714.09
560.63	59959.84
560.79	59711.75
560.96	59618.13
561.12	59728.13
561.29	59737.49
561.45	60109.64
561.61	59709.41
561.78	59796.01
561.94	59788.98
562.11	59796.01
562.27	59721.11
562.44	59763.24
562.60	59875.58
562.77	59924.74
562.93	59686.00
563.10	60032.40
563.26	59765.58
563.42	60140.07
563.59	59856.86
563.75	59983.25
563.92	60013.68
564.08	60009.00
564.24	60093.25
564.41	60163.47
564.57	60252.41
564.74	59753.88
564.90	60023.04
565.07	59840.48
565.23	60016.02
565.39	60048.78
565.56	60116.66
565.72	60151.77
565.88	60072.19
566.05	59877.93
566.21	59910.69
566.38	60037.08
566.54	60128.36
566.70	60278.16
566.87	60327.31
567.03	60140.07
567.19	60390.50
567.36	60233.69
567.52	60296.88
567.68	60683.07
567.85	60411.57
568.01	60327.31
568.17	60229.01
568.34	60416.25
568.50	60214.96
568.66	60296.88
568.83	60449.02
568.99	60334.33
569.15	60360.08
569.32	60231.35
569.48	60170.49
569.64	60353.05
569.81	60266.45
569.97	60331.99
570.13	60652.64
570.30	60329.65
570.46	60402.21
570.62	60582.43
570.78	60364.76
570.95	60582.43
571.11	60411.57
571.27	60233.69
571.43	60575.40
571.60	60769.67
571.76	60444.33
571.92	60547.32
572.09	60514.55
572.25	60552.00
572.41	60395.18
572.57	60743.92
572.74	60694.77
572.90	60423.27
573.06	60519.23
573.22	60638.60
573.38	60568.38
573.55	60434.97
573.71	60636.26
573.87	60683.07
574.03	60460.72
574.20	60739.24
574.36	60451.36
574.52	60802.44
574.68	60708.82
574.84	60654.98
575.01	60673.71
575.17	60659.66
575.33	60544.98
575.49	60488.80
575.65	60706.47
575.82	60795.42
575.98	60886.70
576.14	60912.44
576.30	60879.67
576.46	60526.25
576.62	60842.23
576.79	60690.09
576.95	60467.74
577.11	60631.58
577.27	60800.10
577.43	60832.86
577.59	60769.67
577.75	60694.77
577.92	60720.52
578.08	60664.35
578.24	60786.05
578.40	60856.27
578.56	60809.46
578.72	60816.48
578.88	60907.76
579.04	60954.57
579.21	60652.64
579.37	60860.95
579.53	60846.91
579.69	60619.88
579.85	60727.54
580.01	60860.95
580.17	60654.98
580.33	60956.91
580.49	60821.16
580.65	60889.04
580.82	60961.59
580.98	60903.08
581.14	60676.05
581.30	61064.58
581.46	60945.21
581.62	60844.57
581.78	60907.76
581.94	60832.86
582.10	60879.67
582.26	60935.85
582.42	60729.88
582.58	60889.04
582.74	60687.75
582.90	60996.70
583.06	60982.66
583.22	60533.28
583.38	60762.65
583.54	61010.74
583.70	60807.12
583.86	60872.65
584.02	60746.26
584.18	61151.18
584.34	60898.40
584.50	60954.57
584.66	60657.32
584.82	60764.99
584.98	61144.16
585.14	60926.49
585.30	60914.78
585.46	60985.00
585.62	60947.55
585.78	61013.08
585.94	60762.65
586.10	61027.13
586.26	60884.36
586.42	60907.76
586.58	61090.32
586.74	61083.30
586.90	60760.31
587.06	60921.80
587.22	60872.65
587.38	60921.80
587.54	61125.43
587.70	61059.90
587.86	61057.56
588.02	61176.92
588.18	61162.88
588.34	60959.25
588.49	61013.08
