SpectraSuite Data File
++++++++++++++++++++++++++++++++++++
Date: Fri Oct 25 11:23:13 EDT 2013
User: price-jones
Dark Spectrum Present: No
Reference Spectrum Present: No
Number of Sampled Component Spectra: 1
Spectrometers: USB2+H05261
Integration Time (usec): 100000 (USB2+H05261)
Spectra Averaged: 1 (USB2+H05261)
Boxcar Smoothing: 0 (USB2+H05261)
Correct for Electrical Dark: No (USB2+H05261)
Strobe/Lamp Enabled: No (USB2+H05261)
Correct for Detector Non-linearity: No (USB2+H05261)
Correct for Stray Light: No (USB2+H05261)
Number of Pixels in Processed Spectrum: 2048
>>>>>Begin Processed Spectral Data<<<<<
365.73	269.16
365.92	269.16
366.12	269.16
366.32	145.11
366.52	91.28
366.72	159.16
366.91	175.54
367.11	140.43
367.31	154.48
367.51	100.64
367.70	168.52
367.90	189.58
368.10	128.73
368.30	77.24
368.49	100.64
368.69	126.39
368.89	152.13
369.09	100.64
369.28	72.56
369.48	135.75
369.68	161.50
369.87	180.22
370.07	152.13
370.27	229.37
370.47	306.61
370.66	538.32
370.86	608.54
371.06	638.97
371.25	631.94
371.45	599.18
371.65	716.20
371.84	713.86
372.04	629.60
372.24	758.33
372.44	737.27
372.63	812.17
372.83	737.27
373.03	755.99
373.22	634.29
373.42	784.08
373.62	842.59
373.81	763.01
374.01	880.04
374.21	788.76
374.40	858.98
374.60	809.83
374.79	849.61
374.99	788.76
375.19	858.98
375.38	823.87
375.58	837.91
375.78	777.06
375.97	833.23
376.17	894.08
376.37	901.11
376.56	814.51
376.76	844.93
376.95	882.38
377.15	823.87
377.35	915.15
377.54	959.62
377.74	851.96
377.93	835.57
378.13	994.73
378.33	875.36
378.52	940.90
378.72	968.98
378.91	931.53
379.11	945.58
379.31	910.47
379.50	905.79
379.70	910.47
379.89	950.26
380.09	940.90
380.28	1015.79
380.48	964.30
380.68	936.21
380.87	894.08
381.07	1008.77
381.26	1032.18
381.46	1008.77
381.65	1071.97
381.85	980.68
382.04	1036.86
382.24	1015.79
382.43	1114.10
382.63	1083.67
382.83	1107.07
383.02	1064.94
383.22	1207.72
383.41	1062.60
383.61	1053.24
383.80	1153.88
384.00	1069.62
384.19	1114.10
384.39	1238.14
384.58	1224.10
384.78	1139.84
384.97	1156.22
385.17	1203.04
385.36	1069.62
385.56	1165.59
385.75	1146.86
385.95	1228.78
386.14	1224.10
386.34	1273.25
386.53	1240.48
386.72	1186.65
386.92	1240.48
387.11	1254.53
387.31	1280.27
387.50	1221.76
387.70	1345.81
387.89	1263.89
388.09	1247.51
388.28	1268.57
388.48	1287.29
388.67	1291.98
388.86	1301.34
389.06	1310.70
389.25	1310.70
389.45	1376.24
389.64	1277.93
389.84	1385.60
390.03	1380.92
390.22	1397.30
390.42	1462.83
390.61	1348.15
390.81	1392.62
391.00	1481.56
391.19	1568.16
391.39	1432.41
391.58	1519.01
391.78	1488.58
391.97	1526.03
392.16	1455.81
392.36	1465.18
392.55	1547.09
392.75	1624.33
392.94	1514.33
393.13	1479.22
393.33	1519.01
393.52	1507.30
393.71	1657.10
393.91	1579.86
394.10	1586.88
394.29	1621.99
394.49	1572.84
394.68	1596.25
394.88	1750.72
395.07	1710.93
395.26	1694.55
395.46	1689.87
395.65	1724.97
395.84	1575.18
396.04	1909.88
396.23	1813.92
396.42	1788.17
396.62	1818.60
396.81	1776.47
397.00	1802.21
397.19	1799.87
397.39	1865.41
397.58	1755.40
397.77	1921.58
397.97	1853.70
398.16	1851.36
398.35	1987.11
398.55	2001.16
398.74	1895.83
398.93	2010.52
399.12	1961.37
399.32	1942.64
399.51	2017.54
399.70	1977.75
399.90	1975.41
400.09	2019.88
400.28	2047.97
400.47	1996.48
400.67	2165.00
400.86	2129.89
401.05	2080.74
401.24	2087.76
401.44	2179.04
401.63	2214.15
401.82	2155.63
402.01	2167.34
402.21	2228.19
402.40	2092.44
402.59	2167.34
402.78	2305.43
402.97	2270.32
403.17	2296.07
403.36	2331.17
403.55	2312.45
403.74	2394.37
403.93	2331.17
404.13	2370.96
404.32	2314.79
404.51	2338.20
404.70	2471.61
404.89	2413.09
405.09	2555.86
405.28	2452.88
405.47	2499.69
405.66	2483.31
405.85	2616.72
406.05	2574.59
406.24	2621.40
406.43	2459.90
406.62	2612.04
406.81	2750.13
407.00	2588.63
407.20	2656.51
407.39	2677.57
407.58	2738.43
407.77	2789.92
407.96	2731.41
408.15	2703.32
408.34	2747.79
408.54	2822.69
408.73	2843.75
408.92	2729.06
409.11	2822.69
409.30	2906.95
409.49	2918.65
409.68	2888.22
409.87	2892.90
410.07	2902.26
410.26	2916.31
410.45	2932.69
410.64	3091.85
410.83	3070.78
411.02	3141.00
411.21	3197.17
411.40	3218.24
411.59	3243.98
411.78	3251.00
411.98	3297.81
412.17	3300.16
412.36	3398.46
412.55	3440.59
412.74	3365.69
412.93	3323.56
413.12	3459.31
413.31	3630.17
413.50	3482.72
413.69	3545.91
413.88	3630.17
414.07	3515.48
414.26	3634.85
414.45	3723.79
414.64	3726.13
414.83	3796.35
415.02	3943.80
415.22	3868.91
415.41	3960.19
415.60	3864.22
415.79	4014.02
415.98	3941.46
416.17	3899.33
416.36	4002.32
416.55	4100.62
416.74	4081.89
416.93	4133.39
417.12	4107.64
417.31	4327.65
417.50	4159.13
417.69	4334.67
417.88	4243.39
418.07	4430.63
418.26	4337.01
418.45	4423.61
418.64	4447.02
418.83	4468.08
419.02	4465.74
419.21	4542.98
419.39	4594.47
419.58	4461.06
419.77	4482.13
419.96	4620.22
420.15	4573.41
420.34	4774.69
420.53	4741.93
420.72	4676.39
420.91	4571.07
421.10	4802.78
421.29	4924.49
421.48	4854.27
421.67	4812.14
421.86	4802.78
422.05	4819.16
422.24	4851.93
422.43	4877.68
422.61	4880.02
422.80	5053.22
422.99	5060.24
423.18	4926.83
423.37	4983.00
423.56	5008.75
423.75	5048.54
423.94	5008.75
424.13	4683.41
424.32	4791.08
424.50	4990.02
424.69	5128.11
424.88	5181.95
425.07	4987.68
425.26	4926.83
425.45	4966.62
425.64	5015.77
425.83	5055.56
426.01	5121.09
426.20	5214.71
426.39	5036.83
426.58	5114.07
426.77	5081.30
426.96	5254.50
427.15	5207.69
427.33	5172.58
427.52	5203.01
427.71	5280.25
427.90	5458.13
428.09	5350.46
428.28	5373.87
428.46	5392.59
428.65	5453.45
428.84	5469.83
429.03	5504.94
429.22	5427.70
429.40	5530.69
429.59	5514.30
429.78	5273.23
429.97	5509.62
430.16	5523.66
430.34	5643.03
430.53	5731.97
430.72	5617.29
430.91	5764.74
431.10	5643.03
431.28	5820.91
431.47	5685.16
431.66	5778.78
431.85	5860.70
432.03	5933.26
432.22	5916.87
432.41	5956.66
432.60	6066.67
432.79	5937.94
432.97	6209.44
433.16	6108.80
433.35	6026.88
433.54	6225.82
433.72	6333.49
433.91	5996.45
434.10	6293.70
434.28	6141.57
434.47	6258.59
434.66	6286.68
434.85	6300.72
435.03	6312.42
435.22	6153.27
435.41	6616.69
435.59	6452.86
435.78	6532.44
435.97	6525.41
436.16	6588.61
436.34	6462.22
436.53	6527.75
436.72	6747.76
436.90	6525.41
437.09	6642.44
437.28	6403.71
437.46	6448.18
437.65	6843.73
437.84	6642.44
438.02	6841.39
438.21	6813.30
438.40	6614.35
438.58	7014.59
438.77	7089.48
438.96	6993.52
439.14	7094.16
439.33	7255.66
439.52	7164.38
439.70	7194.81
439.89	7274.38
440.08	7274.38
440.26	7426.52
440.45	7545.89
440.63	7442.90
440.82	7840.79
441.01	7613.76
441.19	7782.28
441.38	7765.90
441.57	7878.24
441.75	7978.89
441.94	8016.33
442.12	7824.41
442.31	8198.90
442.50	8060.80
442.68	8044.42
442.87	8135.70
443.05	8056.12
443.24	8439.97
443.43	8301.88
443.61	8280.82
443.80	8681.05
443.98	8189.53
444.17	7840.79
444.35	8344.01
444.54	8442.31
444.73	8196.56
444.91	8477.42
445.10	8402.52
445.28	8486.78
445.47	8355.71
445.65	8430.61
445.84	8641.26
446.02	8421.25
446.21	8592.11
446.39	8351.03
446.58	8397.84
446.77	8486.78
446.95	8306.56
447.14	8573.38
447.32	8568.70
447.51	8285.50
447.69	8519.55
447.88	8636.58
448.06	8547.64
448.25	8709.13
448.43	8821.48
448.62	8489.12
448.80	8603.81
448.99	8587.43
449.17	8748.92
449.36	8732.54
449.54	8718.50
449.73	8968.93
449.91	8975.95
450.10	9032.13
450.28	9027.45
450.46	9097.66
450.65	9320.01
450.83	9315.33
451.02	9095.32
451.20	9317.67
451.39	9357.46
451.57	9254.48
451.76	9228.73
451.94	9444.06
452.13	9341.08
452.31	9437.04
452.49	9212.35
452.68	9413.63
452.86	9252.14
453.05	9507.26
453.23	9617.26
453.42	9535.34
453.60	9486.19
453.78	9563.43
453.97	9504.92
454.15	9490.87
454.34	9179.58
454.52	9685.14
454.70	9856.00
454.89	9785.78
455.07	9851.31
455.26	9621.94
455.44	9827.91
455.62	9816.21
455.81	9933.23
455.99	10181.33
456.17	10141.54
456.36	10204.74
456.54	10171.97
456.73	10380.28
456.91	10525.39
457.09	10626.03
457.28	10504.32
457.46	10380.28
457.64	10679.86
457.83	10553.48
458.01	10459.85
458.19	10778.17
458.38	10611.99
458.56	10569.86
458.74	10846.04
458.93	10911.58
459.11	10778.17
459.29	10647.10
459.48	10803.91
459.66	10899.87
459.84	11002.86
460.03	11124.57
460.21	11133.93
460.39	11035.63
460.57	10904.56
460.76	11180.74
460.94	11520.12
461.12	11201.80
461.31	11164.36
461.49	11206.48
461.67	11286.06
461.85	11632.46
462.04	11302.45
462.22	11681.61
462.40	11536.50
462.59	11639.48
462.77	11480.33
462.95	11688.64
463.13	11672.25
463.32	11786.94
463.50	11838.43
463.68	11932.05
463.86	11840.77
464.05	11742.47
464.23	11955.46
464.41	12081.85
464.59	11721.40
464.78	12348.67
464.96	12259.73
465.14	12056.10
465.32	12107.59
465.50	12067.80
465.69	12210.57
465.87	12353.35
466.05	12280.79
466.23	12259.73
466.41	12547.61
466.60	12386.12
466.78	12519.53
466.96	12119.29
467.14	12531.23
467.32	12493.78
467.51	12833.16
467.69	12320.58
467.87	12575.70
468.05	12779.32
468.23	12341.64
468.41	12521.87
468.60	12795.71
468.78	12894.01
468.96	12554.63
469.14	13067.21
469.32	13004.02
469.50	12699.75
469.69	12996.99
469.87	13151.47
470.05	13102.32
470.23	13144.45
470.41	13177.22
470.59	13451.06
470.77	13420.63
470.95	13322.33
471.14	13500.21
471.32	13233.39
471.50	13792.78
471.68	13610.22
471.86	13902.78
472.04	13762.35
472.22	14218.75
472.40	13818.52
472.58	13764.69
472.77	14253.86
472.95	14209.39
473.13	14480.89
473.31	14295.99
473.49	14394.29
473.67	14438.76
473.85	14457.49
474.03	14675.16
474.21	14656.43
474.39	14780.48
474.57	14757.08
474.75	15150.29
474.93	15098.80
475.12	15035.60
475.30	15344.55
475.48	15180.71
475.66	15157.31
475.84	15222.84
476.02	15648.82
476.20	15405.41
476.38	15730.74
476.56	16065.44
476.74	16016.29
476.92	15899.26
477.10	15866.49
477.28	16297.15
477.46	16432.90
477.64	16374.39
477.82	16622.48
478.00	17165.49
478.18	17116.34
478.36	17064.85
478.54	17408.90
478.72	17212.30
478.90	17556.36
479.08	17855.95
479.26	17813.82
479.44	18265.54
479.62	17708.49
479.80	18375.55
479.98	18209.37
480.16	18686.84
480.34	18333.42
480.52	18752.37
480.70	19131.54
480.88	18712.58
481.06	18909.19
481.24	18986.43
481.41	19131.54
481.59	19578.58
481.77	19557.52
481.95	19688.59
482.13	19880.51
482.31	19878.17
482.49	20325.21
482.67	20470.33
482.85	20444.58
483.03	20706.72
483.21	21032.05
483.39	21259.09
483.57	21003.97
483.74	21095.25
483.92	21598.46
484.10	21434.63
484.28	22038.48
484.46	22286.58
484.64	22602.55
484.82	22291.26
485.00	22405.95
485.18	22890.44
485.35	23236.84
485.53	22820.22
485.71	23220.45
485.89	23594.94
486.07	23503.66
486.25	23550.47
486.43	23779.84
486.61	23887.51
486.78	24325.19
486.96	24411.79
487.14	24748.82
487.32	24833.08
487.50	25273.10
487.68	25270.76
487.85	25284.81
488.03	25743.55
488.21	26190.59
488.39	25998.67
488.57	26546.36
488.75	26438.69
488.92	26632.96
489.10	27023.83
489.28	27330.44
489.46	27042.55
489.64	27632.36
489.81	27833.65
489.99	28065.36
490.17	28074.73
490.35	28030.26
490.53	28652.84
490.70	28795.61
490.88	28753.48
491.06	29146.69
491.24	29067.11
491.41	29411.17
491.59	29771.61
491.77	29860.55
491.95	29914.39
492.13	29713.10
492.30	30431.65
492.48	30143.76
492.66	30600.16
492.84	30209.29
493.01	30707.83
493.19	30885.71
493.37	31536.38
493.54	31644.04
493.72	31828.95
493.90	31831.29
494.08	31927.25
494.25	32404.72
494.43	32128.53
494.61	32769.84
494.79	32641.11
494.96	32601.32
495.14	33158.37
495.32	33359.66
495.49	33467.32
495.67	33914.36
495.85	33727.12
496.02	33722.44
496.20	34363.75
496.38	34616.52
496.55	34501.84
496.73	35021.44
496.91	34909.09
497.09	35096.33
497.26	35274.21
497.44	35421.67
497.62	35887.43
497.79	36252.56
497.97	35627.63
498.14	36629.38
498.32	36507.68
498.50	36659.81
498.67	36706.62
498.85	37053.02
499.03	37287.07
499.20	37095.15
499.38	37390.06
499.56	37055.36
499.73	37645.18
499.91	37556.24
500.08	37745.82
500.26	37329.20
500.44	38443.30
500.61	38026.68
500.79	38197.54
500.97	38581.39
501.14	38817.78
501.32	38972.26
501.49	38663.31
501.67	39269.51
501.84	39267.17
502.02	39325.68
502.20	39435.69
502.37	39681.44
502.55	39431.01
502.72	39526.97
502.90	39833.58
503.07	40041.88
503.25	40013.80
503.43	40254.87
503.60	40711.28
503.78	40734.68
503.95	40573.19
504.13	41038.95
504.30	40793.20
504.48	40751.07
504.65	41207.47
504.83	41160.66
505.01	41518.76
505.18	41593.66
505.36	41666.22
505.53	41710.69
505.71	41890.91
505.88	42052.41
506.06	41937.72
506.23	41982.19
506.41	42426.89
506.58	42546.26
506.76	42515.83
506.93	42836.48
507.11	42852.87
507.28	42801.38
507.46	42962.87
507.63	43154.80
507.81	43578.43
507.98	43470.77
508.16	43938.88
508.33	43873.34
508.50	43978.67
508.68	43878.02
508.85	44376.56
509.03	44568.48
509.20	44144.84
509.38	44774.45
509.55	44961.69
509.73	44987.44
509.90	44952.33
510.08	44734.66
510.25	44554.44
510.42	45228.51
510.60	45687.26
510.77	45621.72
510.95	45755.13
511.12	45287.03
511.30	45469.59
511.47	45638.11
511.64	45984.51
511.82	46202.18
511.99	46010.25
512.17	46267.71
512.34	46286.43
512.51	46426.87
512.69	46799.01
512.86	46616.45
513.04	46981.57
513.21	47269.46
513.38	46930.08
513.56	47016.68
513.73	46953.49
513.90	47316.27
514.08	47583.09
514.25	47337.33
514.43	47597.13
514.60	48151.84
514.77	47594.79
514.95	48013.75
515.12	48048.86
515.29	47767.99
515.47	48243.12
515.64	48175.25
515.81	48058.22
515.99	48573.14
516.16	48875.07
516.33	48842.30
516.51	49158.27
516.68	48924.22
516.85	49071.67
517.03	49043.59
517.20	49155.93
517.37	49184.02
517.54	49347.86
517.72	49361.90
517.89	49588.93
518.06	49315.09
518.24	49425.09
518.41	49511.69
518.58	49595.95
518.75	49525.74
518.93	49822.98
519.10	49881.50
519.27	49937.67
519.45	50153.00
519.62	50520.46
519.79	50291.09
519.96	50314.50
520.14	50447.91
520.31	50557.91
520.48	50789.62
520.65	50796.65
520.83	50937.08
521.00	51100.92
521.17	51056.45
521.34	50930.06
521.52	51075.17
521.69	51351.35
521.86	51124.32
522.03	51339.65
522.20	51414.55
522.38	51835.84
522.55	51859.25
522.72	51669.67
522.89	51304.54
523.07	51807.76
523.24	51702.43
523.41	52032.45
523.58	52212.67
523.75	52219.69
523.92	52191.61
524.10	52463.11
524.27	52306.29
524.44	52273.52
524.61	52406.94
524.78	52322.68
524.96	52460.77
525.13	52648.01
525.30	52420.98
525.47	53008.45
525.64	52694.82
525.81	52837.59
525.98	52935.90
526.16	52594.18
526.33	53071.65
526.50	53289.32
526.67	53151.23
526.84	53427.41
527.01	53258.89
527.18	53099.73
527.36	53396.98
527.53	53055.26
527.70	53537.41
527.87	53869.77
528.04	53509.33
528.21	53752.74
528.38	53422.73
528.55	53893.18
528.72	53605.29
528.89	53771.47
529.07	53911.90
529.24	53766.79
529.41	54209.15
529.58	53879.13
529.75	53717.64
529.92	54096.80
530.09	53925.94
530.26	54010.20
530.43	54270.00
530.60	54202.13
530.77	54059.35
530.94	54260.64
531.11	54171.70
531.28	54642.15
531.46	54244.26
531.63	54288.73
531.80	54384.69
531.97	54934.71
532.14	54724.07
532.31	54883.22
532.48	54962.80
532.65	54901.95
532.82	54742.79
532.99	55138.34
533.16	54791.94
533.33	55161.75
533.50	55395.80
533.67	55150.04
533.84	54972.16
534.01	54955.78
534.18	55140.68
534.35	55381.76
534.52	55260.05
534.69	55627.51
534.86	55536.23
535.03	55243.66
535.20	55360.69
535.37	55711.77
535.54	55693.05
535.71	55440.27
535.88	55707.09
536.05	55746.88
536.22	55882.63
536.38	55882.63
536.55	55847.52
536.72	56025.40
536.89	55789.01
537.06	55910.72
537.23	55700.07
537.40	55917.74
537.57	55798.37
537.74	56048.81
537.91	56355.42
538.08	55957.53
538.25	55896.67
538.42	56427.98
538.59	56168.18
538.75	56315.63
538.92	56343.72
539.09	56245.41
539.26	56231.37
539.43	56425.64
539.60	56343.72
539.77	56397.55
539.94	56694.80
540.11	56629.26
540.28	56615.22
540.44	56669.05
540.61	56472.45
540.78	56530.96
540.95	56750.97
541.12	56533.30
541.29	56561.39
541.46	56907.79
541.62	56884.38
541.79	56846.93
541.96	56673.73
542.13	56779.06
542.30	56807.14
542.47	57095.03
542.63	57066.94
542.80	57209.71
542.97	57141.84
543.14	57261.21
543.31	57305.68
543.48	57509.30
543.64	57691.86
543.81	57467.17
543.98	57558.45
544.15	57422.70
544.32	57722.29
544.48	57876.77
544.65	57497.60
544.82	57579.52
544.99	57394.62
545.16	57670.80
545.32	57530.37
545.49	58085.07
545.66	57696.55
545.83	57806.55
546.00	58092.10
546.16	57989.11
546.33	57825.28
546.50	57710.59
546.67	57996.13
546.83	57851.02
547.00	58068.69
547.17	58127.20
547.34	58159.97
547.50	58225.51
547.67	58253.59
547.84	58134.23
548.00	58295.72
548.17	58396.37
548.34	58534.46
548.51	58625.74
548.67	58377.64
548.84	58468.92
549.01	58302.74
549.18	58361.26
549.34	58415.09
549.51	58433.81
549.68	58482.97
549.84	58457.22
550.01	58616.38
550.18	58681.91
550.34	58667.87
550.51	58604.67
550.68	58707.66
550.84	58471.26
551.01	58932.35
551.18	58595.31
551.34	58742.77
551.51	58789.58
551.68	58918.31
551.84	58693.61
552.01	58581.27
552.18	58911.28
552.34	58791.92
552.51	59105.55
552.68	58794.26
552.84	58857.45
553.01	59269.39
553.18	58780.21
553.34	58852.77
553.51	58915.96
553.67	58927.67
553.84	59063.42
554.01	59203.85
554.17	59166.40
554.34	59267.05
554.51	59419.18
554.67	59276.41
554.84	59358.33
555.00	59210.87
555.17	59227.26
555.33	59271.73
555.50	59068.10
555.67	59487.06
555.83	59285.77
556.00	59215.55
556.16	59676.64
556.33	59576.00
556.50	59274.07
556.66	59512.80
556.83	59281.09
556.99	59608.76
557.16	59681.32
557.32	59718.77
557.49	59749.20
557.65	59428.54
557.82	59491.74
557.98	59601.74
558.15	59494.08
558.32	59934.10
558.48	59487.06
558.65	59634.51
558.81	59781.96
558.98	59629.83
559.14	59833.46
559.31	59882.61
559.47	59959.84
559.64	59994.95
559.80	59704.73
559.97	60020.70
560.13	59646.21
560.30	59936.44
560.46	59927.08
560.63	60079.21
560.79	59898.99
560.96	60097.94
561.12	60133.04
561.29	60191.56
561.45	60154.11
561.61	59962.18
561.78	59821.75
561.94	60102.62
562.11	59978.57
562.27	60009.00
562.44	60182.19
562.60	60114.32
562.77	60221.98
562.93	60027.72
563.10	60051.12
563.26	60116.66
563.42	60397.52
563.59	60065.17
563.75	60025.38
563.92	60165.81
564.08	60317.95
564.24	60411.57
564.41	60273.48
564.57	60210.28
564.74	60374.12
564.90	60474.76
565.07	60327.31
565.23	60416.25
565.39	60278.16
565.56	60346.03
565.72	60317.95
565.88	60456.04
566.05	60416.25
566.21	60229.01
566.38	60458.38
566.54	60554.34
566.70	60638.60
566.87	60683.07
567.03	60521.57
567.19	60505.19
567.36	60694.77
567.52	60339.01
567.68	60750.94
567.85	60486.46
568.01	60697.11
568.17	60650.30
568.34	60488.80
568.50	60559.02
568.66	60676.05
568.83	60547.32
568.99	60439.65
569.15	60734.56
569.32	60502.85
569.48	60451.36
569.64	60708.82
569.81	60575.40
569.97	60486.46
570.13	60580.09
570.30	60701.79
570.46	60594.13
570.62	60776.69
570.78	60760.31
570.95	60748.60
571.11	60741.58
571.27	60814.14
571.43	60811.80
571.60	60917.12
571.76	60654.98
571.92	60720.52
572.09	60907.76
572.25	60896.06
572.41	60844.57
572.57	60783.71
572.74	61006.06
572.90	60741.58
573.06	60968.61
573.22	60678.39
573.38	60891.38
573.55	60877.33
573.71	61083.30
573.87	60926.49
574.03	60636.26
574.20	60980.32
574.36	60722.86
574.52	60999.04
574.68	61083.30
574.84	60921.80
575.01	61003.72
575.17	60905.42
575.33	60823.50
575.49	60872.65
575.65	60987.34
575.82	60912.44
575.98	60912.44
576.14	61020.11
576.30	61181.60
576.46	60968.61
576.62	60772.01
576.79	61137.13
576.95	60704.13
577.11	60985.00
577.27	60961.59
577.43	61001.38
577.59	61069.26
577.75	60694.77
577.92	60903.08
578.08	61085.64
578.24	61052.87
578.40	61057.56
578.56	61216.71
578.72	61123.09
578.88	61261.18
579.04	61205.01
579.21	60999.04
579.37	61296.29
579.53	61097.34
579.69	60743.92
579.85	61085.64
580.01	61144.16
580.17	61010.74
580.33	61106.71
580.49	61270.54
580.65	61268.20
580.82	60921.80
580.98	61174.58
581.14	60992.02
581.30	61244.80
581.46	61104.37
581.62	61029.47
581.78	61069.26
581.94	61055.21
582.10	61251.82
582.26	61186.28
582.42	61268.20
582.58	61069.26
582.74	61263.52
582.90	61116.07
583.06	61048.19
583.22	60832.86
583.38	60905.42
583.54	61120.75
583.70	61006.06
583.86	61277.57
584.02	61066.92
584.18	61307.99
584.34	61322.04
584.50	61132.45
584.66	61022.45
584.82	61146.50
584.98	61343.10
585.14	61338.42
585.30	61006.06
585.46	61275.22
585.62	61181.60
585.78	61277.57
585.94	61006.06
586.10	61102.03
586.26	61200.33
586.42	61247.14
586.58	61258.84
586.74	61240.12
586.90	61151.18
587.06	61261.18
587.22	61340.76
587.38	61439.06
587.54	61317.35
587.70	61546.73
587.86	61284.59
588.02	61303.31
588.18	61406.30
588.34	61247.14
588.49	61399.27
