SpectraSuite Data File
++++++++++++++++++++++++++++++++++++
Date: Fri Oct 25 11:26:14 EDT 2013
User: price-jones
Dark Spectrum Present: No
Reference Spectrum Present: No
Number of Sampled Component Spectra: 1
Spectrometers: USB2+H05261
Integration Time (usec): 100000 (USB2+H05261)
Spectra Averaged: 1 (USB2+H05261)
Boxcar Smoothing: 0 (USB2+H05261)
Correct for Electrical Dark: No (USB2+H05261)
Strobe/Lamp Enabled: No (USB2+H05261)
Correct for Detector Non-linearity: No (USB2+H05261)
Correct for Stray Light: No (USB2+H05261)
Number of Pixels in Processed Spectrum: 2048
>>>>>Begin Processed Spectral Data<<<<<
365.73	264.48
365.92	264.48
366.12	264.48
366.32	180.22
366.52	163.84
366.72	131.07
366.91	152.13
367.11	198.95
367.31	182.56
367.51	133.41
367.70	163.84
367.90	220.01
368.10	126.39
368.30	283.20
368.49	159.16
368.69	175.54
368.89	182.56
369.09	201.29
369.28	217.67
369.48	182.56
369.68	215.33
369.87	191.92
370.07	142.77
370.27	266.82
370.47	409.59
370.66	571.09
370.86	624.92
371.06	631.94
371.25	678.76
371.45	704.50
371.65	720.88
371.84	587.47
372.04	660.03
372.24	702.16
372.44	758.33
372.63	781.74
372.83	725.57
373.03	706.84
373.22	716.20
373.42	770.04
373.62	781.74
373.81	777.06
374.01	837.91
374.21	819.19
374.40	830.89
374.60	823.87
374.79	840.25
374.99	837.91
375.19	924.51
375.38	901.11
375.58	765.36
375.78	816.85
375.97	894.08
376.17	898.77
376.37	870.68
376.56	891.74
376.76	866.00
376.95	891.74
377.15	985.37
377.35	795.78
377.54	873.02
377.74	1008.77
377.93	805.14
378.13	940.90
378.33	976.00
378.52	877.70
378.72	875.36
378.91	952.60
379.11	926.85
379.31	978.34
379.50	889.40
379.70	952.60
379.89	1015.79
380.09	999.41
380.28	931.53
380.48	971.32
380.68	1027.50
380.87	1013.45
381.07	1046.22
381.26	1125.80
381.46	1034.52
381.65	1104.73
381.85	1036.86
382.04	973.66
382.24	1018.13
382.43	985.37
382.63	1123.46
382.83	1060.26
383.02	1076.65
383.22	1109.41
383.41	1128.14
383.61	1043.88
383.80	1109.41
384.00	1078.99
384.19	1146.86
384.39	1123.46
384.58	1102.39
384.78	1165.59
384.97	1160.91
385.17	1191.33
385.36	1158.57
385.56	1254.53
385.75	1170.27
385.95	1109.41
386.14	1165.59
386.34	1170.27
386.53	1165.59
386.72	1313.04
386.92	1294.32
387.11	1306.02
387.31	1193.67
387.50	1231.12
387.70	1233.46
387.89	1324.74
388.09	1259.21
388.28	1348.15
388.48	1315.38
388.67	1401.98
388.86	1357.51
389.06	1282.61
389.25	1394.96
389.45	1303.68
389.64	1303.68
389.84	1366.87
390.03	1324.74
390.22	1416.02
390.42	1362.19
390.61	1294.32
390.81	1380.92
391.00	1357.51
391.19	1411.34
391.39	1383.26
391.58	1364.53
391.78	1441.77
391.97	1502.62
392.16	1502.62
392.36	1568.16
392.55	1413.68
392.75	1514.33
392.94	1519.01
393.13	1493.26
393.33	1437.09
393.52	1523.69
393.71	1542.41
393.91	1582.20
394.10	1582.20
394.29	1633.69
394.49	1561.14
394.68	1664.12
394.88	1647.74
395.07	1624.33
395.26	1654.76
395.46	1577.52
395.65	1757.74
395.84	1764.76
396.04	1722.63
396.23	1631.35
396.42	1813.92
396.62	1802.21
396.81	1727.32
397.00	1788.17
397.19	1856.04
397.39	1820.94
397.58	1701.57
397.77	1722.63
397.97	1797.53
398.16	1952.01
398.35	1952.01
398.55	1858.39
398.74	1891.15
398.93	1858.39
399.12	1832.64
399.32	1858.39
399.51	1968.39
399.70	1949.67
399.90	1966.05
400.09	1961.37
400.28	1949.67
400.47	1982.43
400.67	2073.71
400.86	2017.54
401.05	2022.22
401.24	2080.74
401.44	2090.10
401.63	2141.59
401.82	2113.50
402.01	2136.91
402.21	2120.53
402.40	2174.36
402.59	2207.13
402.78	2242.23
402.97	2293.72
403.17	2375.64
403.36	2256.28
403.55	2345.22
403.74	2361.60
403.93	2279.68
404.13	2431.82
404.32	2310.11
404.51	2448.20
404.70	2415.43
404.89	2361.60
405.09	2408.41
405.28	2403.73
405.47	2478.63
405.66	2450.54
405.85	2485.65
406.05	2492.67
406.24	2532.46
406.43	2539.48
406.62	2581.61
406.81	2509.05
407.00	2485.65
407.20	2628.42
407.39	2572.25
407.58	2651.83
407.77	2780.56
407.96	2782.90
408.15	2754.81
408.34	2780.56
408.54	2785.24
408.73	2768.85
408.92	2801.62
409.11	2857.79
409.30	2953.76
409.49	2890.56
409.68	2860.13
409.87	3023.97
410.07	2963.12
410.26	3049.72
410.45	2974.82
410.64	3028.65
410.83	3030.99
411.02	3178.45
411.21	3159.72
411.40	3187.81
411.59	3054.40
411.78	3190.15
411.98	3187.81
412.17	3328.24
412.36	3269.73
412.55	3342.28
412.74	3552.93
412.93	3494.42
413.12	3419.52
413.31	3571.66
413.50	3524.85
413.69	3473.36
413.88	3646.55
414.07	3669.96
414.26	3630.17
414.45	3735.50
414.64	3693.37
414.83	3669.96
415.02	3779.97
415.22	3726.13
415.41	3798.69
415.60	3833.80
415.79	3906.35
415.98	3892.31
416.17	3939.12
416.36	3990.61
416.55	3992.95
416.74	4147.43
416.93	4016.36
417.12	4109.98
417.31	4093.60
417.50	4154.45
417.69	4257.43
417.88	4269.14
418.07	4255.09
418.26	4262.12
418.45	4180.20
418.64	4425.95
418.83	4409.57
419.02	4168.49
419.21	4652.98
419.39	4521.92
419.58	4498.51
419.77	4535.96
419.96	4428.29
420.15	4613.20
420.34	4533.62
420.53	4608.51
420.72	4615.54
420.91	4739.58
421.10	4606.17
421.29	4793.42
421.48	4760.65
421.67	4821.50
421.86	4770.01
422.05	4599.15
422.24	4685.75
422.43	4802.78
422.61	4917.47
422.80	4861.29
422.99	4961.94
423.18	4933.85
423.37	4964.28
423.56	5036.83
423.75	4809.80
423.94	4891.72
424.13	4610.86
424.32	4802.78
424.50	4980.66
424.69	5102.37
424.88	5041.51
425.07	4905.76
425.26	4884.70
425.45	4919.81
425.64	4898.74
425.83	5006.41
426.01	4954.91
426.20	5081.30
426.39	5060.24
426.58	5013.43
426.77	5093.01
426.96	5254.50
427.15	4933.85
427.33	5294.29
427.52	5064.92
427.71	5214.71
427.90	5268.55
428.09	5357.49
428.28	5310.68
428.46	5359.83
428.65	5324.72
428.84	5462.81
429.03	5509.62
429.22	5371.53
429.40	5509.62
429.59	5666.44
429.78	5315.36
429.97	5310.68
430.16	5570.48
430.34	5502.60
430.53	5692.18
430.72	5411.32
430.91	5540.05
431.10	5605.58
431.28	5717.93
431.47	5813.89
431.66	5898.15
431.85	5839.64
432.03	5907.51
432.22	6017.52
432.41	5846.66
432.60	5877.09
432.79	5944.96
432.97	6066.67
433.16	6001.13
433.35	5951.98
433.54	6099.44
433.72	6061.99
433.91	6001.13
434.10	6073.69
434.28	6054.97
434.47	6164.97
434.66	6394.34
434.85	6267.95
435.03	6272.64
435.22	6242.21
435.41	6516.05
435.59	6382.64
435.78	6558.18
435.97	6368.60
436.16	6272.64
436.34	6251.57
436.53	6649.46
436.72	6593.29
436.90	6396.68
437.09	6527.75
437.28	6424.77
437.46	6462.22
437.65	6520.73
437.84	6745.42
438.02	6604.99
438.21	6661.16
438.40	6649.46
438.58	6916.28
438.77	7028.63
438.96	6946.71
439.14	7166.72
439.33	7311.83
439.52	7318.86
439.70	7246.30
439.89	7363.33
440.08	7417.16
440.26	7389.07
440.45	7290.77
440.63	7410.14
440.82	7520.14
441.01	7276.73
441.19	7524.82
441.38	7634.83
441.57	7691.00
441.75	7683.98
441.94	7918.03
442.12	7861.86
442.31	7934.42
442.50	7887.61
442.68	7971.86
442.87	8051.44
443.05	8170.81
443.24	8067.83
443.43	8126.34
443.61	8091.23
443.80	8358.05
443.98	7925.05
444.17	7845.48
444.35	8248.05
444.54	8273.79
444.73	8226.98
444.91	8175.49
445.10	8308.90
445.28	8145.06
445.47	8212.94
445.65	8315.92
445.84	8531.25
446.02	8446.99
446.21	8472.74
446.39	8283.16
446.58	8383.80
446.77	8416.57
446.95	8238.69
447.14	8329.97
447.32	8617.85
447.51	8444.65
447.69	8578.06
447.88	8437.63
448.06	8400.18
448.25	8599.13
448.43	8292.52
448.62	8631.90
448.80	8524.23
448.99	8383.80
449.17	8657.64
449.36	8505.51
449.54	8772.33
449.73	8931.48
449.91	8971.27
450.10	8872.97
450.28	9114.05
450.46	9057.87
450.65	8842.54
450.83	9102.34
451.02	9184.26
451.20	9046.17
451.39	9202.99
451.57	9083.62
451.76	9011.06
451.94	9004.04
452.13	9256.82
452.31	9256.82
452.49	9179.58
452.68	9261.50
452.86	9315.33
453.05	9540.02
453.23	9523.64
453.42	9317.67
453.60	9270.86
453.78	9685.14
453.97	9453.42
454.15	9432.36
454.34	9423.00
454.52	9603.22
454.70	9745.99
454.89	9734.29
455.07	9715.56
455.26	9837.27
455.44	9996.43
455.62	9785.78
455.81	9963.66
455.99	9958.98
456.17	9877.06
456.36	10328.78
456.54	10064.30
456.73	10087.71
456.91	10513.69
457.09	10232.82
457.28	10562.84
457.46	10338.15
457.64	10478.58
457.83	10333.47
458.01	10516.03
458.19	10642.42
458.38	10633.05
458.56	10927.96
458.74	10623.69
458.93	10569.86
459.11	10651.78
459.29	10661.14
459.48	10733.70
459.66	10574.54
459.84	10745.40
460.03	11082.44
460.21	11040.31
460.39	10733.70
460.57	10794.55
460.76	10953.71
460.94	11220.53
461.12	11140.95
461.31	11147.97
461.49	11154.99
461.67	11129.25
461.85	11417.13
462.04	11049.67
462.22	11754.17
462.40	11672.25
462.59	11433.52
462.77	11297.77
462.95	11658.21
463.13	11604.38
463.32	11651.19
463.50	11852.47
463.68	11791.62
463.86	11646.51
464.05	11590.33
464.23	11599.70
464.41	11808.00
464.59	11646.51
464.78	11971.84
464.96	11817.36
465.14	11683.95
465.32	12058.44
465.50	11948.43
465.69	12135.68
465.87	12088.87
466.05	12107.59
466.23	12067.80
466.41	12255.04
466.60	12414.20
466.78	12138.02
466.96	12245.68
467.14	12329.94
467.32	12266.75
467.51	12535.91
467.69	11990.56
467.87	12538.25
468.05	12290.15
468.23	12463.35
468.41	12435.27
468.60	12545.27
468.78	12706.77
468.96	12657.62
469.14	12730.17
469.32	12835.50
469.50	12800.39
469.69	13053.17
469.87	13165.51
470.05	13043.81
470.23	13202.96
470.41	13495.53
470.59	13270.84
470.77	13125.72
470.95	13291.90
471.14	13373.82
471.32	13099.98
471.50	13373.82
471.68	13680.43
471.86	13839.59
472.04	13666.39
472.22	13825.54
472.40	13645.32
472.58	13902.78
472.77	14085.34
472.95	14188.33
473.13	14328.76
473.31	13937.89
473.49	14288.97
473.67	14230.46
473.85	14211.73
474.03	14768.78
474.21	14661.12
474.39	14745.38
474.57	14609.62
474.75	14696.22
474.93	14993.47
475.12	14724.31
475.30	15178.37
475.48	14841.34
475.66	14871.76
475.84	15239.23
476.02	15349.23
476.20	15410.09
476.38	15709.68
476.56	15957.77
476.74	15939.05
476.92	15639.46
477.10	15697.97
477.28	16039.69
477.46	15894.58
477.64	16423.54
477.82	16601.42
478.00	16688.02
478.18	16313.53
478.36	16971.22
478.54	16957.18
478.72	16945.48
478.90	17446.35
479.08	17752.96
479.26	17823.18
479.44	17893.40
479.62	17827.86
479.80	17994.04
479.98	18260.86
480.16	18532.36
480.34	18321.71
480.52	18506.62
480.70	18593.22
480.88	18354.48
481.06	18600.24
481.24	18459.81
481.41	18895.14
481.59	19075.37
481.77	19351.55
481.95	19571.56
482.13	19611.35
482.31	19683.91
482.49	20063.07
482.67	20023.28
482.85	20336.91
483.03	20519.48
483.21	20648.21
483.39	20915.03
483.57	20552.24
483.74	21198.23
483.92	21109.29
484.10	21228.66
484.28	21359.73
484.46	21884.01
484.64	22031.46
484.82	21685.06
485.00	22532.34
485.18	22628.30
485.35	22838.95
485.53	22724.26
485.71	22705.54
485.89	23487.28
486.07	23452.17
486.25	23199.39
486.43	23337.48
486.61	23941.34
486.78	23873.46
486.96	23908.57
487.14	24687.97
487.32	24643.50
487.50	24505.41
487.68	25322.26
487.85	25455.67
488.03	25343.32
488.21	25523.54
488.39	25706.10
488.57	25935.48
488.75	26029.10
488.92	26214.00
489.10	26607.21
489.28	26675.09
489.46	26803.82
489.64	26654.02
489.81	27468.53
489.99	27721.30
490.17	27510.66
490.35	27938.97
490.53	27981.10
490.70	28364.95
490.88	28034.94
491.06	28470.28
491.24	28985.19
491.41	28924.34
491.59	29202.86
491.77	28999.24
491.95	29366.70
492.13	29425.22
492.30	30052.48
492.48	29839.49
492.66	30558.03
492.84	30277.17
493.01	30403.56
493.19	30731.23
493.37	30817.83
493.54	31246.15
493.72	31482.55
493.90	31695.53
494.08	31323.39
494.25	31976.40
494.43	32254.92
494.61	32687.92
494.79	32327.48
494.96	32641.11
495.14	32737.07
495.32	32973.47
495.49	33092.83
495.67	32863.46
495.85	33179.43
496.02	33612.43
496.20	34033.73
496.38	33806.70
496.55	33752.87
496.73	34471.41
496.91	34117.99
497.09	34600.14
497.26	34433.96
497.44	34796.74
497.62	34668.02
497.79	35637.00
497.97	35367.84
498.14	35791.47
498.32	36058.29
498.50	35697.85
498.67	36575.55
498.85	35868.71
499.03	36435.12
499.20	36547.47
499.38	36510.02
499.56	37188.77
499.73	37319.84
499.91	36973.44
500.08	37270.69
500.26	37099.83
500.44	37413.46
500.61	37258.99
500.79	38014.98
500.97	38010.30
501.14	38080.52
501.32	38220.95
501.49	38370.74
501.67	38630.54
501.84	38902.04
502.02	38773.31
502.20	39117.37
502.37	38998.01
502.55	39192.27
502.72	39456.75
502.90	39522.29
503.07	39442.71
503.25	39674.42
503.43	39714.21
503.60	39744.64
503.78	39882.73
503.95	40156.57
504.13	40299.34
504.30	40528.72
504.48	40589.57
504.65	40629.36
504.83	41111.51
505.01	41165.34
505.18	41090.44
505.36	41251.94
505.53	41202.79
505.71	41467.27
505.88	41715.37
506.06	41188.75
506.23	41612.38
506.41	41619.41
506.58	42096.88
506.76	42033.68
506.93	42213.90
507.11	41991.55
507.28	42232.63
507.46	42284.12
507.63	43065.86
507.81	43026.07
507.98	42775.63
508.16	42602.43
508.33	43449.70
508.50	43416.94
508.68	43559.71
508.85	43599.50
509.03	43449.70
509.20	43761.00
509.38	43973.98
509.55	44182.29
509.73	44137.82
509.90	44451.45
510.08	44170.59
510.25	44765.09
510.42	44676.15
510.60	44903.18
510.77	44947.65
510.95	45104.46
511.12	45092.76
511.30	44755.72
511.47	45450.86
511.64	45148.93
511.82	46085.15
511.99	45291.71
512.17	45696.62
512.34	45502.35
512.51	45977.48
512.69	46349.63
512.86	46136.64
513.04	46356.65
513.21	46506.44
513.38	46574.32
513.56	46850.50
513.73	46611.77
513.90	46822.42
514.08	46424.53
514.25	47246.05
514.43	47391.17
514.60	47248.39
514.77	47484.79
514.95	47866.30
515.12	47313.93
515.29	47295.21
515.47	47838.21
515.64	47889.70
515.81	47655.65
515.99	48039.50
516.16	48383.55
516.33	48032.47
516.51	48690.16
516.68	48411.64
516.85	48516.96
517.03	48626.97
517.20	48547.39
517.37	48821.23
517.54	48676.12
517.72	48861.02
517.89	48945.28
518.06	48917.20
518.24	49050.61
518.41	48842.30
518.58	48956.99
518.75	49221.47
518.93	49422.75
519.10	49373.60
519.27	49401.69
519.45	49418.07
519.62	49701.28
519.79	49909.58
519.96	49928.31
520.14	49893.20
520.31	50167.04
520.48	50239.60
520.65	49986.82
520.83	50452.59
521.00	50274.71
521.17	50473.65
521.34	50504.08
521.52	50632.81
521.69	50782.60
521.86	50824.73
522.03	51049.42
522.20	50988.57
522.38	51255.39
522.55	51276.46
522.72	51187.52
522.89	51208.58
523.07	51449.66
523.24	51489.45
523.41	51585.41
523.58	51583.07
523.75	51590.09
523.92	51379.44
524.10	51639.24
524.27	51885.00
524.44	52189.27
524.61	51992.66
524.78	51842.87
524.96	52203.31
525.13	52374.17
525.30	52397.57
525.47	52409.28
525.64	52376.51
525.81	52392.89
525.98	52299.27
526.16	52376.51
526.33	52650.35
526.50	52971.00
526.67	52879.72
526.84	52554.39
527.01	52985.05
527.18	52772.06
527.36	52818.87
527.53	53139.52
527.70	53375.92
527.87	53506.99
528.04	52924.19
528.21	53411.02
528.38	53375.92
528.55	53448.47
528.72	53090.37
528.89	53336.13
529.07	53254.21
529.24	53099.73
529.41	53642.74
529.58	53546.78
529.75	53375.92
529.92	53663.80
530.09	53680.19
530.26	53797.21
530.43	53820.62
530.60	53488.26
530.77	53588.91
530.94	54078.08
531.11	53965.73
531.28	54124.89
531.46	54042.97
531.63	54071.06
531.80	53785.51
531.97	54270.00
532.14	54326.17
532.31	54246.60
532.48	54494.69
532.65	54705.34
532.82	54454.90
532.99	54707.68
533.16	54356.60
533.33	54705.34
533.50	54883.22
533.67	54801.30
533.84	54712.36
534.01	54883.22
534.18	54813.01
534.35	54871.52
534.52	54883.22
534.69	55189.83
534.86	54848.11
535.03	54915.99
535.20	55049.40
535.37	55267.07
535.54	55208.56
535.71	55175.79
535.88	55278.77
536.05	55250.69
536.22	55442.61
536.38	55529.21
536.55	55440.27
536.72	55435.59
536.89	55505.80
537.06	55391.12
537.23	55877.95
537.40	55576.02
537.57	55875.61
537.74	55606.45
537.91	55669.64
538.08	55723.47
538.25	55274.09
538.42	55798.37
538.59	55973.91
538.75	55781.99
538.92	55927.10
539.09	56044.13
539.26	55786.67
539.43	55936.46
539.60	56383.51
539.77	55999.66
539.94	56418.61
540.11	56332.01
540.28	56542.66
540.44	56547.34
540.61	56315.63
540.78	56369.46
540.95	56308.61
541.12	56212.65
541.29	56411.59
541.46	56655.01
541.62	56573.09
541.79	56444.36
541.96	56233.71
542.13	56573.09
542.30	56549.68
542.47	56720.54
542.63	56783.74
542.80	56722.88
542.97	57027.15
543.14	57017.79
543.31	57073.96
543.48	57088.01
543.64	57268.23
543.81	57574.84
543.98	57134.82
544.15	57298.65
544.32	57343.12
544.48	57483.56
544.65	57134.82
544.82	57277.59
544.99	57399.30
545.16	57546.75
545.32	57289.29
545.49	57705.91
545.66	57528.03
545.83	57563.14
546.00	57628.67
546.16	57638.03
546.33	57499.94
546.50	57258.87
546.67	57677.82
546.83	57223.76
547.00	57581.86
547.17	57860.38
547.34	57766.76
547.50	57813.57
547.67	58178.70
547.84	58045.29
548.00	57916.56
548.17	58089.76
548.34	57860.38
548.51	58049.97
548.67	58255.93
548.84	58197.42
549.01	58061.67
549.18	58005.50
549.34	58028.90
549.51	58141.25
549.68	58202.10
549.84	58361.26
550.01	58176.36
550.18	58106.14
550.34	58230.19
550.51	58220.83
550.68	58326.15
550.84	58199.76
551.01	58555.52
551.18	58433.81
551.34	58298.06
551.51	58370.62
551.68	58454.88
551.84	58379.98
552.01	58216.14
552.18	58417.43
552.34	58312.11
552.51	58499.35
552.68	58555.52
552.84	58607.01
553.01	58841.07
553.18	58702.98
553.34	58644.46
553.51	58567.23
553.67	58721.70
553.84	58712.34
554.01	58951.07
554.17	59117.25
554.34	58925.33
554.51	58831.71
554.67	58897.24
554.84	59028.31
555.00	58763.83
555.17	59030.65
555.33	59164.06
555.50	59011.93
555.67	58812.98
555.83	58904.26
556.00	58829.37
556.16	59245.98
556.33	59292.79
556.50	59054.06
556.66	59353.65
556.83	58967.46
556.99	59253.00
557.16	59426.20
557.32	59304.49
557.49	59550.25
557.65	59290.45
557.82	59215.55
557.98	59302.15
558.15	59255.34
558.32	59395.77
558.48	59353.65
558.65	59260.02
558.81	59332.58
558.98	59442.59
559.14	59482.37
559.31	59716.43
559.47	59395.77
559.64	59559.61
559.80	59529.19
559.97	59510.46
560.13	59526.84
560.30	59613.44
560.46	59508.12
560.63	59683.66
560.79	59606.42
560.96	59704.73
561.12	59678.98
561.29	59704.73
561.45	59875.58
561.61	59653.23
561.78	59681.32
561.94	59620.47
562.11	59688.34
562.27	59906.01
562.44	60097.94
562.60	59948.14
562.77	60069.85
562.93	59826.43
563.10	59976.23
563.26	59770.26
563.42	60018.36
563.59	60023.04
563.75	59952.82
563.92	59875.58
564.08	59838.14
564.24	60074.53
564.41	60090.91
564.57	60135.38
564.74	60037.08
564.90	59943.46
565.07	60037.08
565.23	59936.44
565.39	59931.76
565.56	60093.25
565.72	60179.85
565.88	60170.49
566.05	60083.89
566.21	60217.30
566.38	60168.15
566.54	60048.78
566.70	60086.23
566.87	60259.43
567.03	60088.57
567.19	60343.69
567.36	60058.15
567.52	60111.98
567.68	60598.81
567.85	60287.52
568.01	60360.08
568.17	60261.77
568.34	60285.18
568.50	60161.13
568.66	60308.58
568.83	60364.76
568.99	60266.45
569.15	60065.17
569.32	60254.75
569.48	60161.13
569.64	60392.84
569.81	60348.37
569.97	60133.04
570.13	60191.56
570.30	60275.82
570.46	60402.21
570.62	60193.90
570.78	60329.65
570.95	60430.29
571.11	60509.87
571.27	60437.31
571.43	60626.90
571.60	60423.27
571.76	60523.91
571.92	60500.51
572.09	60465.40
572.25	60444.33
572.41	60273.48
572.57	60523.91
572.74	60605.83
572.90	60519.23
573.06	60507.53
573.22	60481.78
573.38	60685.41
573.55	60533.28
573.71	60704.13
573.87	60643.28
574.03	60491.15
574.20	60549.66
574.36	60437.31
574.52	60537.96
574.68	60617.53
574.84	60699.45
575.01	60589.45
575.17	60474.76
575.33	60505.19
575.49	60589.45
575.65	60629.24
575.82	60898.40
575.98	60830.52
576.14	60912.44
576.30	60853.93
576.46	60685.41
576.62	60594.13
576.79	60729.88
576.95	60594.13
577.11	60622.22
577.27	60769.67
577.43	60683.07
577.59	60556.68
577.75	60537.96
577.92	60505.19
578.08	60739.24
578.24	60790.73
578.40	60907.76
578.56	60793.07
578.72	60680.73
578.88	60846.91
579.04	60886.70
579.21	60795.42
579.37	60781.37
579.53	61045.85
579.69	60420.93
579.85	60874.99
580.01	60715.84
580.17	60474.76
580.33	60963.93
580.49	60928.83
580.65	60772.01
580.82	60823.50
580.98	60727.54
581.14	60832.86
581.30	60779.03
581.46	60573.06
581.62	60884.36
581.78	60566.04
581.94	60945.21
582.10	60896.06
582.26	60846.91
582.42	60818.82
582.58	60851.59
582.74	60952.23
582.90	60835.20
583.06	61050.53
583.22	60844.57
583.38	60818.82
583.54	60874.99
583.70	60992.02
583.86	60811.80
584.02	60626.90
584.18	60947.55
584.34	60837.54
584.50	60968.61
584.66	60786.05
584.82	60795.42
584.98	60879.67
585.14	61076.28
585.30	60849.25
585.46	61003.72
585.62	61137.13
585.78	61029.47
585.94	60781.37
586.10	61006.06
586.26	61057.56
586.42	61064.58
586.58	61003.72
586.74	60893.72
586.90	60900.74
587.06	60853.93
587.22	61020.11
587.38	61010.74
587.54	61118.41
587.70	61190.97
587.86	61006.06
588.02	60940.53
588.18	60907.76
588.34	61118.41
588.49	60985.00
