SpectraSuite Data File
++++++++++++++++++++++++++++++++++++
Date: Fri Oct 25 10:44:26 EDT 2013
User: price-jones
Dark Spectrum Present: No
Reference Spectrum Present: No
Number of Sampled Component Spectra: 1
Spectrometers: USB2+H05261
Integration Time (usec): 100000 (USB2+H05261)
Spectra Averaged: 1 (USB2+H05261)
Boxcar Smoothing: 0 (USB2+H05261)
Correct for Electrical Dark: No (USB2+H05261)
Strobe/Lamp Enabled: No (USB2+H05261)
Correct for Detector Non-linearity: No (USB2+H05261)
Correct for Stray Light: No (USB2+H05261)
Number of Pixels in Processed Spectrum: 2048
>>>>>Begin Processed Spectral Data<<<<<
365.73	173.20
365.92	173.20
366.12	173.20
366.32	0.00
366.52	42.13
366.72	21.06
366.91	0.00
367.11	0.00
367.31	16.38
367.51	0.00
367.70	0.00
367.90	0.00
368.10	49.15
368.30	44.47
368.49	42.13
368.69	98.30
368.89	67.88
369.09	70.22
369.28	51.49
369.48	18.72
369.68	39.79
369.87	142.77
370.07	25.75
370.27	131.07
370.47	196.60
370.66	332.36
370.86	400.23
371.06	491.51
371.25	407.25
371.45	423.64
371.65	503.22
371.84	489.17
372.04	465.77
372.24	463.43
372.44	440.02
372.63	552.37
372.83	505.56
373.03	557.05
373.22	517.26
373.42	505.56
373.62	550.03
373.81	550.03
374.01	587.47
374.21	526.62
374.40	578.11
374.60	535.98
374.79	589.82
374.99	547.69
375.19	641.31
375.38	578.11
375.58	550.03
375.78	610.88
375.97	634.29
376.17	662.37
376.37	571.09
376.56	613.22
376.76	657.69
376.95	594.50
377.15	671.73
377.35	596.84
377.54	741.95
377.74	645.99
377.93	643.65
378.13	704.50
378.33	578.11
378.52	650.67
378.72	613.22
378.91	655.35
379.11	631.94
379.31	653.01
379.50	603.86
379.70	641.31
379.89	760.67
380.09	725.57
380.28	699.82
380.48	770.04
380.68	655.35
380.87	648.33
381.07	781.74
381.26	720.88
381.46	716.20
381.65	784.08
381.85	669.39
382.04	671.73
382.24	720.88
382.43	718.54
382.63	835.57
382.83	699.82
383.02	779.40
383.22	763.01
383.41	697.48
383.61	704.50
383.80	767.70
384.00	791.10
384.19	798.12
384.39	844.93
384.58	828.55
384.78	823.87
384.97	779.40
385.17	854.30
385.36	861.32
385.56	849.61
385.75	837.91
385.95	910.47
386.14	964.30
386.34	835.57
386.53	858.98
386.72	870.68
386.92	891.74
387.11	964.30
387.31	851.96
387.50	788.76
387.70	858.98
387.89	882.38
388.09	880.04
388.28	856.64
388.48	910.47
388.67	978.34
388.86	884.72
389.06	926.85
389.25	992.39
389.45	990.05
389.64	973.66
389.84	1062.60
390.03	1053.24
390.22	1095.37
390.42	1039.20
390.61	994.73
390.81	1116.44
391.00	1048.56
391.19	1020.47
391.39	1095.37
391.58	1123.46
391.78	1107.07
391.97	1093.03
392.16	1088.35
392.36	1086.01
392.55	1067.28
392.75	994.73
392.94	1015.79
393.13	1029.84
393.33	1011.11
393.52	1041.54
393.71	1165.59
393.91	1135.16
394.10	1086.01
394.29	1160.91
394.49	1177.29
394.68	1247.51
394.88	1299.00
395.07	1334.11
395.26	1345.81
395.46	1181.97
395.65	1247.51
395.84	1254.53
396.04	1242.82
396.23	1249.85
396.42	1181.97
396.62	1196.01
396.81	1284.95
397.00	1191.33
397.19	1331.76
397.39	1385.60
397.58	1338.79
397.77	1392.62
397.97	1528.37
398.16	1359.85
398.35	1593.90
398.55	1430.07
398.74	1439.43
398.93	1453.47
399.12	1603.27
399.32	1497.94
399.51	1547.09
399.70	1540.07
399.90	1521.35
400.09	1664.12
400.28	1666.46
400.47	1694.55
400.67	1792.85
400.86	1795.19
401.05	1717.95
401.24	1746.04
401.44	1732.00
401.63	1689.87
401.82	1748.38
402.01	1776.47
402.21	1842.00
402.40	1849.02
402.59	1860.73
402.78	1802.21
402.97	1720.29
403.17	1842.00
403.36	1811.57
403.55	1837.32
403.74	1923.92
403.93	1900.52
404.13	1963.71
404.32	1949.67
404.51	1998.82
404.70	1961.37
404.89	2008.18
405.09	2047.97
405.28	2019.88
405.47	1977.75
405.66	2040.95
405.85	2113.50
406.05	2073.71
406.24	2097.12
406.43	2160.31
406.62	2260.96
406.81	2289.04
407.00	2040.95
407.20	2143.93
407.39	2148.61
407.58	2284.36
407.77	2193.08
407.96	2176.70
408.15	2352.24
408.34	2314.79
408.54	2530.12
408.73	2356.92
408.92	2396.71
409.11	2340.54
409.30	2363.94
409.49	2356.92
409.68	2244.57
409.87	2216.49
410.07	2340.54
410.26	2471.61
410.45	2509.05
410.64	2588.63
410.83	2677.57
411.02	2588.63
411.21	2675.23
411.40	2700.98
411.59	2710.34
411.78	2640.12
411.98	2691.62
412.17	2705.66
412.36	2726.72
412.55	2855.45
412.74	2925.67
412.93	2897.58
413.12	2794.60
413.31	3016.95
413.50	2930.35
413.69	2991.20
413.88	2981.84
414.07	2991.20
414.26	3073.12
414.45	3129.30
414.64	3082.49
414.83	3180.79
415.02	3105.89
415.22	3162.06
415.41	3283.77
415.60	3267.39
415.79	3251.00
415.98	3290.79
416.17	3389.10
416.36	3365.69
416.55	3314.20
416.74	3297.81
416.93	3440.59
417.12	3356.33
417.31	3386.76
417.50	3391.44
417.69	3695.71
417.88	3588.04
418.07	3606.77
418.26	3536.55
418.45	3655.92
418.64	3646.55
418.83	3660.60
419.02	3592.72
419.21	3681.66
419.39	3723.79
419.58	3691.02
419.77	3562.30
419.96	3592.72
420.15	3920.40
420.34	3838.48
420.53	3763.58
420.72	3857.20
420.91	3948.48
421.10	3730.81
421.29	4037.42
421.48	3892.31
421.67	4121.68
421.86	3896.99
422.05	3932.10
422.24	3875.93
422.43	3899.33
422.61	4002.32
422.80	4049.13
422.99	3957.85
423.18	3995.29
423.37	4222.33
423.56	4032.74
423.75	4007.00
423.94	4093.60
424.13	3899.33
424.32	3922.74
424.50	4205.94
424.69	4173.18
424.88	4072.53
425.07	4168.49
425.26	3908.69
425.45	4084.23
425.64	3971.89
425.83	4056.15
426.01	4194.24
426.20	3960.19
426.39	4128.70
426.58	4084.23
426.77	3967.21
426.96	4156.79
427.15	4121.68
427.33	4138.07
427.52	4180.20
427.71	4283.18
427.90	4273.82
428.09	4215.30
428.28	4140.41
428.46	4327.65
428.65	4435.32
428.84	4329.99
429.03	4484.47
429.22	4224.67
429.40	4224.67
429.59	4182.54
429.78	4053.81
429.97	3932.10
430.16	4088.92
430.34	4147.43
430.53	4285.52
430.72	4266.80
430.91	4379.14
431.10	4376.80
431.28	4587.45
431.47	4657.67
431.66	4795.76
431.85	4582.77
432.03	4777.03
432.22	4688.09
432.41	4779.37
432.60	4823.84
432.79	4837.89
432.97	4926.83
433.16	4837.89
433.35	4800.44
433.54	4809.80
433.72	4798.10
433.91	4823.84
434.10	4973.64
434.28	4884.70
434.47	4980.66
434.66	4924.49
434.85	4985.34
435.03	4985.34
435.22	5041.51
435.41	5235.78
435.59	5320.04
435.78	5200.67
435.97	5488.56
436.16	5411.32
436.34	5315.36
436.53	5135.14
436.72	5444.09
436.90	5287.27
437.09	5336.42
437.28	5259.18
437.46	5322.38
437.65	5439.40
437.84	5280.25
438.02	5284.93
438.21	5366.85
438.40	5362.17
438.58	5502.60
438.77	5631.33
438.96	5444.09
439.14	5678.14
439.33	5771.76
439.52	5820.91
439.70	5877.09
439.89	5767.08
440.08	5788.14
440.26	5781.12
440.45	6019.86
440.63	6209.44
440.82	6216.46
441.01	5940.28
441.19	6303.06
441.38	6267.95
441.57	6380.30
441.75	6164.97
441.94	6567.54
442.12	6387.32
442.31	6637.76
442.50	6331.15
442.68	6597.97
442.87	6537.12
443.05	6459.88
443.24	6698.61
443.43	6548.82
443.61	6780.53
443.80	6869.47
443.98	6600.31
444.17	6494.99
444.35	6740.74
444.54	6785.21
444.73	6782.87
444.91	6759.47
445.10	6715.00
445.28	6668.19
445.47	6555.84
445.65	6757.13
445.84	6743.08
446.02	6857.77
446.21	6766.49
446.39	6918.62
446.58	6930.33
446.77	6843.73
446.95	6789.89
447.14	6761.81
447.32	7082.46
447.51	6942.03
447.69	6932.67
447.88	6956.07
448.06	6796.92
448.25	6794.58
448.43	6892.88
448.62	6986.50
448.80	6979.48
448.99	6991.18
449.17	6981.82
449.36	6848.41
449.54	7169.06
449.73	7227.57
449.91	7276.73
450.10	7353.96
450.28	7393.75
450.46	7382.05
450.65	7360.98
450.83	7461.63
451.02	7368.01
451.20	7438.22
451.39	7613.76
451.57	7349.28
451.76	7297.79
451.94	7452.27
452.13	7456.95
452.31	7452.27
452.49	7190.13
452.68	7435.88
452.86	7428.86
453.05	7405.46
453.23	7620.78
453.42	7363.33
453.60	7473.33
453.78	7719.09
453.97	7482.69
454.15	7695.68
454.34	7581.00
454.52	7702.70
454.70	7625.47
454.89	7751.85
455.07	7719.09
455.26	7875.90
455.44	8049.10
455.62	8021.02
455.81	7992.93
455.99	7887.61
456.17	7946.12
456.36	8006.97
456.54	8156.77
456.73	8140.38
456.91	8545.30
457.09	8325.29
457.28	8589.77
457.46	8285.50
457.64	8266.77
457.83	8208.26
458.01	8245.71
458.19	8580.40
458.38	8283.16
458.56	8430.61
458.74	8573.38
458.93	8339.33
459.11	8367.42
459.29	8512.53
459.48	8498.49
459.66	8526.57
459.84	8655.30
460.03	8929.14
460.21	8657.64
460.39	8688.07
460.57	8732.54
460.76	8875.31
460.94	8999.36
461.12	8744.24
461.31	8774.67
461.49	8882.33
461.67	8971.27
461.85	9210.01
462.04	8994.68
462.22	9029.79
462.40	9341.08
462.59	9217.03
462.77	9172.56
462.95	9081.28
463.13	9195.96
463.32	9289.59
463.50	9128.09
463.68	9399.59
463.86	9329.38
464.05	9160.86
464.23	9308.31
464.41	9380.87
464.59	9111.71
464.78	9465.13
464.96	9329.38
465.14	9273.20
465.32	9380.87
465.50	9605.56
465.69	9579.81
465.87	9628.96
466.05	9659.39
466.23	9298.95
466.41	9437.04
466.60	9659.39
466.78	9554.07
466.96	9500.23
467.14	9469.81
467.32	9715.56
467.51	9877.06
467.69	9612.58
467.87	9947.28
468.05	9881.74
468.23	9764.72
468.41	9736.63
468.60	9540.02
468.78	9879.40
468.96	9673.43
469.14	9832.59
469.32	10045.58
469.50	9701.52
469.69	9867.70
469.87	10127.50
470.05	10289.00
470.23	9909.83
470.41	10120.48
470.59	10237.50
470.77	10010.47
470.95	10267.93
471.14	10438.79
471.32	10375.59
471.50	10614.33
471.68	10485.60
471.86	10569.86
472.04	10516.03
472.22	11138.61
472.40	10497.30
472.58	10686.89
472.77	10740.72
472.95	10803.91
473.13	11250.96
473.31	10862.43
473.49	10714.97
473.67	10850.72
473.85	10895.19
474.03	11314.15
474.21	11080.10
474.39	11410.11
474.57	11122.23
474.75	11274.36
474.93	11641.82
475.12	11375.00
475.30	11529.48
475.48	11571.61
475.66	11442.88
475.84	11688.64
476.02	11772.89
476.20	11800.98
476.38	12119.29
476.56	12128.66
476.74	12079.50
476.92	12086.53
477.10	11955.46
477.28	12423.56
477.46	12439.95
477.64	12755.92
477.82	12833.16
478.00	13074.23
478.18	12685.70
478.36	12922.10
478.54	12901.03
478.72	12915.08
478.90	13425.31
479.08	13315.31
479.26	13427.65
479.44	13851.29
479.62	13671.07
479.80	13565.74
479.98	13818.52
480.16	14010.45
480.34	13956.61
480.52	14008.11
480.70	14209.39
480.88	14040.87
481.06	14298.33
481.24	14256.20
481.41	14705.59
481.59	14824.95
481.77	14773.46
481.95	14820.27
482.13	15122.20
482.31	15103.48
482.49	15665.21
482.67	15300.08
482.85	15501.37
483.03	15424.13
483.21	15484.98
483.39	15660.52
483.57	15730.74
483.74	16072.46
483.92	16114.59
484.10	15829.04
484.28	16430.56
484.46	16685.68
484.64	16812.07
484.82	16432.90
485.00	16592.06
485.18	16973.56
485.35	16886.97
485.53	16463.33
485.71	16381.41
485.89	16575.67
486.07	16741.85
486.25	17219.32
486.43	17181.87
486.61	17539.97
486.78	17547.00
486.96	17462.74
487.14	18148.51
487.32	18104.04
487.50	18396.61
487.68	18530.02
487.85	18824.93
488.03	18998.13
488.21	19140.90
488.39	18958.34
488.57	18970.04
488.75	19192.39
488.92	19447.51
489.10	20100.52
489.28	19758.80
489.46	20058.39
489.64	20205.84
489.81	20547.56
489.99	20971.20
490.17	20924.39
490.35	20788.64
490.53	20664.59
490.70	20989.92
490.88	21013.33
491.06	21544.63
491.24	21078.86
491.41	21483.78
491.59	21067.16
491.77	21310.58
491.95	21472.07
492.13	21596.12
492.30	22132.11
492.48	22349.78
492.66	22405.95
492.84	22408.29
493.01	22583.83
493.19	22352.12
493.37	22845.97
493.54	22874.06
493.72	23012.15
493.90	23377.27
494.08	23349.18
494.25	23910.91
494.43	23962.40
494.61	24091.13
494.79	23747.08
494.96	23817.29
495.14	24004.53
495.32	24231.57
495.49	24465.62
495.67	24446.90
495.85	24521.79
496.02	24746.48
496.20	24851.81
496.38	25088.20
496.55	25277.79
496.73	25797.38
496.91	25518.86
497.09	25872.28
497.26	25820.79
497.44	25818.45
497.62	25483.75
497.79	25804.41
497.97	25687.38
498.14	26132.08
498.32	26204.64
498.50	26225.70
498.67	26801.47
498.85	26382.52
499.03	26874.03
499.20	26883.39
499.38	27190.00
499.56	27178.30
499.73	26885.73
499.91	26984.04
500.08	27126.81
500.26	27035.53
500.44	27302.35
500.61	27520.02
500.79	27133.83
500.97	27412.35
501.14	28004.51
501.32	27674.49
501.49	27489.59
501.67	28100.47
501.84	28114.52
502.02	28285.37
502.20	28044.30
502.37	28762.84
502.55	28510.07
502.72	28856.46
502.90	28959.45
503.07	28589.64
503.25	28704.33
503.43	28430.49
503.60	28112.17
503.78	28861.15
503.95	28882.21
504.13	28835.40
504.30	29195.84
504.48	28828.38
504.65	29659.27
504.83	29930.77
505.01	29825.45
505.18	29324.57
505.36	30197.59
505.53	29771.61
505.71	30637.61
505.88	30855.28
506.06	30211.64
506.23	30059.50
506.41	30398.88
506.58	30529.95
506.76	30579.10
506.93	30286.53
507.11	30623.57
507.28	30771.02
507.46	30281.85
507.63	30824.86
507.81	30834.22
507.98	30761.66
508.16	31131.47
508.33	30976.99
508.50	31178.28
508.68	31353.82
508.85	31864.05
509.03	31728.30
509.20	31529.36
509.38	31758.73
509.55	32044.27
509.73	32055.98
509.90	32449.19
510.08	31906.18
510.25	32439.82
510.42	32041.93
510.60	32727.71
510.77	32549.83
510.95	32697.28
511.12	32430.46
511.30	32830.69
511.47	33266.03
511.64	33453.28
511.82	33092.83
511.99	32432.80
512.17	33034.32
512.34	33406.47
512.51	33057.73
512.69	33525.83
512.86	33394.76
513.04	33596.05
513.21	33715.42
513.38	33172.41
513.56	33642.86
513.73	33584.35
513.90	33488.38
514.08	33464.98
514.25	33764.57
514.43	33626.48
514.60	33982.24
514.77	33647.54
514.95	34183.52
515.12	34354.38
515.29	34433.96
515.47	35072.93
515.64	34859.94
515.81	34305.23
515.99	34588.44
516.16	34492.47
516.33	34279.49
516.51	34469.07
516.68	34141.39
516.85	33757.55
517.03	34106.29
517.20	34707.80
517.37	34850.58
517.54	35009.73
517.72	35082.29
517.89	34937.18
518.06	34267.78
518.24	35016.75
518.41	35082.29
518.58	35196.98
518.75	34763.98
518.93	35508.27
519.10	35295.28
519.27	35866.37
519.45	35557.42
519.62	36123.83
519.79	36002.12
519.96	35995.10
520.14	35807.86
520.31	35943.61
520.48	36322.77
520.65	36472.57
520.83	36552.15
521.00	36676.19
521.17	37109.19
521.34	36629.38
521.52	36730.03
521.69	37308.14
521.86	36704.28
522.03	37156.00
522.20	36680.88
522.38	37345.59
522.55	37172.39
522.72	37247.29
522.89	37216.86
523.07	37467.30
523.24	37034.30
523.41	37610.07
523.58	37408.78
523.75	37816.04
523.92	37834.76
524.10	38256.06
524.27	37858.17
524.44	38553.30
524.61	38164.78
524.78	38143.71
524.96	38359.04
525.13	38635.22
525.30	38398.83
525.47	38988.64
525.64	38469.04
525.81	38087.54
525.98	38253.72
526.16	37769.22
526.33	37844.12
526.50	38251.38
526.67	37661.56
526.84	38010.30
527.01	38295.85
527.18	38642.24
527.36	38983.96
527.53	38972.26
527.70	39093.97
527.87	39056.52
528.04	39100.99
528.21	39325.68
528.38	38855.23
528.55	39487.18
528.72	39955.29
528.89	39981.03
529.07	39674.42
529.24	39222.70
529.41	39754.00
529.58	39707.19
529.75	39426.32
529.92	39714.21
530.09	39763.36
530.26	40074.65
530.43	40034.86
530.60	39784.43
530.77	39796.13
530.94	40521.69
531.11	40086.36
531.28	40044.23
531.46	40648.08
531.63	40486.59
531.80	39833.58
531.97	40194.02
532.14	40191.68
532.31	39992.73
532.48	40037.20
532.65	40699.58
532.82	40226.79
532.99	40957.03
533.16	40229.13
533.33	40938.31
533.50	40769.79
533.67	40788.52
533.84	40643.40
534.01	40982.78
534.18	40912.56
534.35	41336.20
534.52	40898.52
534.69	41024.91
534.86	41144.28
535.03	41242.58
535.20	41698.98
535.37	41661.54
535.54	41507.06
535.71	41450.89
535.88	41588.98
536.05	41345.56
536.22	41411.10
536.38	41581.96
536.55	41268.33
536.72	41340.88
536.89	41170.02
537.06	41560.89
537.23	42012.62
537.40	41940.06
537.57	41935.38
537.74	42129.64
537.91	42319.23
538.08	42249.01
538.25	42134.32
538.42	41663.88
538.59	42258.37
538.75	41635.79
538.92	42398.80
539.09	42167.09
539.26	42337.95
539.43	41635.79
539.60	42281.78
539.77	41998.57
539.94	42078.15
540.11	42588.39
540.28	42141.35
540.44	41968.15
540.61	42113.26
540.78	42129.64
540.95	41628.77
541.12	42038.36
541.29	42677.33
541.46	42330.93
541.62	42443.27
541.79	42871.59
541.96	42672.65
542.13	42595.41
542.30	42562.64
542.47	42733.50
542.63	42761.59
542.80	43168.84
542.97	43005.00
543.14	43555.03
543.31	43225.01
543.48	43365.45
543.64	43973.98
543.81	43878.02
543.98	43536.30
544.15	43681.42
544.32	43313.95
544.48	44177.61
544.65	44037.18
544.82	43620.56
544.99	43290.55
545.16	44208.04
545.32	43510.56
545.49	44341.45
545.66	44285.28
545.83	44119.10
546.00	44006.75
546.16	43679.08
546.33	43873.34
546.50	43522.26
546.67	43929.51
546.83	43522.26
547.00	44147.18
547.17	43863.98
547.34	43770.36
547.50	44240.81
547.67	44526.35
547.84	44531.03
548.00	44425.71
548.17	44395.28
548.34	44552.10
548.51	44755.72
548.67	44626.99
548.84	44481.88
549.01	44938.29
549.18	44516.99
549.34	44671.46
549.51	44776.79
549.68	44601.25
549.84	44861.05
550.01	44470.18
550.18	44760.40
550.34	44921.90
550.51	44987.44
550.68	44528.69
550.84	44626.99
551.01	44704.23
551.18	44837.64
551.34	44648.06
551.51	44938.29
551.68	45139.57
551.84	44928.92
552.01	44858.71
552.18	45221.49
552.34	44779.13
552.51	44755.72
552.68	44549.76
552.84	45134.89
553.01	45497.67
553.18	44741.68
553.34	44697.21
553.51	45170.00
553.67	45083.40
553.84	45549.17
554.01	45401.71
554.17	45970.46
554.34	45387.67
554.51	45663.85
554.67	45390.01
554.84	45724.71
555.00	45045.95
555.17	45581.93
555.33	45855.78
555.50	45312.77
555.67	45413.41
555.83	45411.07
556.00	45745.77
556.16	45745.77
556.33	45577.25
556.50	45607.68
556.66	45474.27
556.83	45439.16
556.99	46153.02
557.16	45642.79
557.32	45848.75
557.49	46129.62
557.65	45516.40
557.82	46040.68
557.98	45872.16
558.15	46150.68
558.32	45757.47
558.48	45633.42
558.65	45701.30
558.81	45640.45
558.98	45579.59
559.14	46103.87
559.31	45818.33
559.47	45808.96
559.64	45956.42
559.80	46192.81
559.97	45951.74
560.13	45759.81
560.30	46073.45
560.46	45776.20
560.63	45801.94
560.79	46398.78
560.96	46492.40
561.12	46064.08
561.29	46174.09
561.45	46394.10
561.61	46244.30
561.78	45956.42
561.94	46246.65
562.11	45937.69
562.27	46546.23
562.44	46286.43
562.60	46080.47
562.77	46370.69
562.93	46368.35
563.10	46356.65
563.26	46160.05
563.42	46113.23
563.59	46007.91
563.75	46499.42
563.92	46677.30
564.08	46344.95
564.24	46422.19
564.41	46333.24
564.57	46281.75
564.74	46307.50
564.90	46134.30
565.07	46607.09
565.23	46571.98
565.39	46583.68
565.56	46583.68
565.72	46354.31
565.88	46185.79
566.05	46461.97
566.21	46129.62
566.38	46358.99
566.54	46656.24
566.70	46506.44
566.87	46288.77
567.03	46307.50
567.19	46969.87
567.36	46749.86
567.52	46651.56
567.68	46803.69
567.85	46555.60
568.01	46412.82
568.17	46155.36
568.34	46707.73
568.50	46927.74
568.66	46389.42
568.83	46522.83
568.99	46471.34
569.15	46082.81
569.32	46628.15
569.48	46351.97
569.64	46784.97
569.81	46855.18
569.97	46674.96
570.13	46440.91
570.30	46333.24
570.46	46408.14
570.62	46234.94
570.78	46674.96
570.95	46401.12
571.11	46803.69
571.27	46192.81
571.43	46520.49
571.60	46288.77
571.76	46478.36
571.92	46749.86
572.09	46567.30
572.25	46396.44
572.41	46621.13
572.57	46890.29
572.74	47098.60
572.90	46763.90
573.06	46550.91
573.22	46827.10
573.38	46689.01
573.55	46834.12
573.71	46478.36
573.87	46873.91
574.03	46653.90
574.20	46894.97
574.36	46522.83
574.52	47145.41
574.68	46946.47
574.84	46361.33
575.01	46738.16
575.17	46724.11
575.33	46501.76
575.49	46667.94
575.65	46749.86
575.82	46791.99
575.98	46443.25
576.14	46728.80
576.30	46836.46
576.46	46731.14
576.62	46871.57
576.79	46883.27
576.95	46557.94
577.11	46745.18
577.27	46887.95
577.43	46871.57
577.59	46885.61
577.75	46368.35
577.92	46204.52
578.08	46373.03
578.24	46216.22
578.40	46733.48
578.56	46894.97
578.72	46543.89
578.88	47051.79
579.04	47002.64
579.21	46733.48
579.37	46642.20
579.53	46506.44
579.69	47044.77
579.85	46754.54
580.01	46567.30
580.17	46674.96
580.33	47147.75
580.49	47047.11
580.65	47004.98
580.82	47222.65
580.98	46747.52
581.14	46834.12
581.30	47028.38
581.46	47239.03
581.62	46876.25
581.78	46714.75
581.94	47040.09
582.10	46663.26
582.26	46862.21
582.42	47044.77
582.58	47007.32
582.74	46543.89
582.90	46988.60
583.06	47009.66
583.22	47075.19
583.38	47100.94
583.54	47269.46
583.70	47224.99
583.86	47070.51
584.02	46564.96
584.18	46927.74
584.34	47082.22
584.50	46487.72
584.66	46958.17
584.82	46681.98
584.98	47257.76
585.14	47159.45
585.30	46595.38
585.46	47269.46
585.62	46485.38
585.78	46871.57
585.94	46309.84
586.10	46972.21
586.26	46326.22
586.42	46459.63
586.58	47264.78
586.74	47124.35
586.90	46689.01
587.06	47028.38
587.22	46639.86
587.38	46639.86
587.54	46801.35
587.70	46665.60
587.86	46974.55
588.02	47014.34
588.18	46691.35
588.34	46569.64
588.49	46363.67
588.65	46241.96
588.81	45984.51
588.97	46319.20
589.13	46239.62
589.29	46447.93
589.45	46382.40
589.61	47075.19
589.77	46911.36
589.93	46752.20
