SpectraSuite Data File
++++++++++++++++++++++++++++++++++++
Date: Fri Oct 25 11:24:01 EDT 2013
User: price-jones
Dark Spectrum Present: No
Reference Spectrum Present: No
Number of Sampled Component Spectra: 1
Spectrometers: USB2+H05261
Integration Time (usec): 100000 (USB2+H05261)
Spectra Averaged: 1 (USB2+H05261)
Boxcar Smoothing: 0 (USB2+H05261)
Correct for Electrical Dark: No (USB2+H05261)
Strobe/Lamp Enabled: No (USB2+H05261)
Correct for Detector Non-linearity: No (USB2+H05261)
Correct for Stray Light: No (USB2+H05261)
Number of Pixels in Processed Spectrum: 2048
>>>>>Begin Processed Spectral Data<<<<<
365.73	250.44
365.92	250.44
366.12	250.44
366.32	191.92
366.52	121.71
366.72	163.84
366.91	84.26
367.11	119.37
367.31	39.79
367.51	91.28
367.70	93.62
367.90	154.48
368.10	88.94
368.30	70.22
368.49	86.60
368.69	210.65
368.89	142.77
369.09	95.96
369.28	170.86
369.48	194.26
369.68	208.31
369.87	187.24
370.07	173.20
370.27	231.71
370.47	327.68
370.66	674.07
370.86	664.71
371.06	610.88
371.25	711.52
371.45	638.97
371.65	725.57
371.84	617.90
372.04	711.52
372.24	723.23
372.44	671.73
372.63	723.23
372.83	678.76
373.03	781.74
373.22	828.55
373.42	763.01
373.62	812.17
373.81	873.02
374.01	760.67
374.21	819.19
374.40	725.57
374.60	870.68
374.79	779.40
374.99	800.46
375.19	821.53
375.38	765.36
375.58	844.93
375.78	861.32
375.97	877.70
376.17	908.13
376.37	781.74
376.56	833.23
376.76	830.89
376.95	884.72
377.15	877.70
377.35	877.70
377.54	901.11
377.74	898.77
377.93	821.53
378.13	844.93
378.33	901.11
378.52	903.45
378.72	952.60
378.91	1036.86
379.11	994.73
379.31	940.90
379.50	891.74
379.70	1011.11
379.89	950.26
380.09	966.64
380.28	976.00
380.48	959.62
380.68	971.32
380.87	983.02
381.07	1022.81
381.26	966.64
381.46	933.87
381.65	1041.54
381.85	1076.65
382.04	1076.65
382.24	1060.26
382.43	1078.99
382.63	1074.31
382.83	1118.78
383.02	1043.88
383.22	1109.41
383.41	1165.59
383.61	1104.73
383.80	1111.75
384.00	1109.41
384.19	1153.88
384.39	1078.99
384.58	1149.20
384.78	1179.63
384.97	1160.91
385.17	1158.57
385.36	1144.52
385.56	1100.05
385.75	1144.52
385.95	1193.67
386.14	1118.78
386.34	1193.67
386.53	1165.59
386.72	1238.14
386.92	1235.80
387.11	1224.10
387.31	1242.82
387.50	1193.67
387.70	1214.74
387.89	1275.59
388.09	1184.31
388.28	1196.01
388.48	1205.38
388.67	1357.51
388.86	1390.28
389.06	1343.47
389.25	1413.68
389.45	1334.11
389.64	1310.70
389.84	1455.81
390.03	1441.77
390.22	1425.39
390.42	1448.79
390.61	1317.72
390.81	1366.87
391.00	1401.98
391.19	1472.20
391.39	1343.47
391.58	1497.94
391.78	1465.18
391.97	1509.65
392.16	1596.25
392.36	1544.75
392.55	1565.82
392.75	1551.78
392.94	1575.18
393.13	1624.33
393.33	1533.05
393.52	1633.69
393.71	1493.26
393.91	1556.46
394.10	1589.22
394.29	1685.19
394.49	1554.12
394.68	1664.12
394.88	1783.49
395.07	1614.97
395.26	1596.25
395.46	1739.02
395.65	1818.60
395.84	1666.46
396.04	1750.72
396.23	1753.06
396.42	1710.93
396.62	1804.55
396.81	1788.17
397.00	1839.66
397.19	1870.09
397.39	1846.68
397.58	1884.13
397.77	1820.94
397.97	1820.94
398.16	1806.89
398.35	1743.70
398.55	1870.09
398.74	1874.77
398.93	1937.96
399.12	1937.96
399.32	1888.81
399.51	1874.77
399.70	1856.04
399.90	1994.14
400.09	2115.84
400.28	1940.30
400.47	1954.35
400.67	2190.74
400.86	2031.58
401.05	2104.14
401.24	2223.51
401.44	2207.13
401.63	2111.16
401.82	2111.16
402.01	2179.04
402.21	2157.97
402.40	2150.95
402.59	2228.19
402.78	2129.89
402.97	2258.62
403.17	2333.51
403.36	2293.72
403.55	2221.17
403.74	2333.51
403.93	2361.60
404.13	2361.60
404.32	2408.41
404.51	2375.64
404.70	2373.30
404.89	2392.03
405.09	2506.71
405.28	2612.04
405.47	2478.63
405.66	2485.65
405.85	2478.63
406.05	2565.23
406.24	2628.42
406.43	2586.29
406.62	2574.59
406.81	2729.06
407.00	2644.81
407.20	2614.38
407.39	2644.81
407.58	2722.04
407.77	2722.04
407.96	2651.83
408.15	2778.22
408.34	2675.23
408.54	2836.73
408.73	2771.19
408.92	2733.75
409.11	2813.32
409.30	2860.13
409.49	2895.24
409.68	2820.35
409.87	2965.46
410.07	3061.42
410.26	2949.08
410.45	2935.03
410.64	2977.16
410.83	3056.74
411.02	3164.40
411.21	3108.23
411.40	3138.66
411.59	3335.26
411.78	3262.71
411.98	3169.09
412.17	3272.07
412.36	3342.28
412.55	3452.29
412.74	3414.84
412.93	3339.94
413.12	3283.77
413.31	3604.42
413.50	3412.50
413.69	3478.04
413.88	3585.70
414.07	3564.64
414.26	3571.66
414.45	3639.53
414.64	3681.66
414.83	3709.75
415.02	3782.31
415.22	3726.13
415.41	3868.91
415.60	3782.31
415.79	3896.99
415.98	3943.80
416.17	3918.06
416.36	4187.22
416.55	3978.91
416.74	4168.49
416.93	4189.56
417.12	4217.65
417.31	3999.98
417.50	4173.18
417.69	4365.10
417.88	4191.90
418.07	4297.22
418.26	4334.67
418.45	4351.06
418.64	4486.81
418.83	4468.08
419.02	4491.49
419.21	4477.44
419.39	4615.54
419.58	4557.02
419.77	4608.51
419.96	4608.51
420.15	4564.04
420.34	4657.67
420.53	4578.09
420.72	4674.05
420.91	4737.24
421.10	4587.45
421.29	4723.20
421.48	4695.11
421.67	4807.46
421.86	4821.50
422.05	4753.63
422.24	4858.95
422.43	4957.25
422.61	5069.60
422.80	4954.91
422.99	4858.95
423.18	4844.91
423.37	5074.28
423.56	4905.76
423.75	4933.85
423.94	4943.21
424.13	4674.05
424.32	4669.37
424.50	5011.09
424.69	5186.63
424.88	5132.79
425.07	4987.68
425.26	4943.21
425.45	5088.32
425.64	4929.17
425.83	5034.49
426.01	5006.41
426.20	5116.41
426.39	5050.88
426.58	5139.82
426.77	5160.88
426.96	5224.08
427.15	5224.08
427.33	5205.35
427.52	5093.01
427.71	5352.81
427.90	5210.03
428.09	5366.85
428.28	5303.65
428.46	5399.62
428.65	5334.08
428.84	5474.51
429.03	5427.70
429.22	5467.49
429.40	5643.03
429.59	5547.07
429.78	5242.80
429.97	5184.29
430.16	5631.33
430.34	5577.50
430.53	5682.82
430.72	5626.65
430.91	5603.24
431.10	5540.05
431.28	5888.79
431.47	5783.46
431.66	5891.13
431.85	5776.44
432.03	5867.72
432.22	6118.16
432.41	5893.47
432.60	5975.39
432.79	6136.88
432.97	6071.35
433.16	5912.19
433.35	6066.67
433.54	6061.99
433.72	6029.22
433.91	6153.27
434.10	6221.14
434.28	6207.10
434.47	6265.61
434.66	6298.38
434.85	6478.60
435.03	6410.73
435.22	6272.64
435.41	6619.04
435.59	6291.36
435.78	6394.34
435.97	6466.90
436.16	6406.05
436.34	6399.02
436.53	6537.12
436.72	6576.91
436.90	6363.92
437.09	6630.74
437.28	6483.28
437.46	6817.98
437.65	6654.14
437.84	6651.80
438.02	6782.87
438.21	6825.00
438.40	6729.04
438.58	6991.18
438.77	7241.62
438.96	7094.16
439.14	7028.63
439.33	7140.97
439.52	7440.56
439.70	7356.30
439.89	7492.05
440.08	7466.31
440.26	7332.90
440.45	7363.33
440.63	7485.03
440.82	7620.78
441.01	7644.19
441.19	7639.51
441.38	7866.54
441.57	7747.17
441.75	7854.84
441.94	8009.31
442.12	7939.10
442.31	7934.42
442.50	8135.70
442.68	8030.38
442.87	8042.08
443.05	7962.50
443.24	8194.22
443.43	8147.40
443.61	8145.06
443.80	8315.92
443.98	8016.33
444.17	7934.42
444.35	8411.89
444.54	8381.46
444.73	8402.52
444.91	8327.63
445.10	8439.97
445.28	8507.85
445.47	8266.77
445.65	8430.61
445.84	8538.27
446.02	8568.70
446.21	8561.68
446.39	8458.70
446.58	8573.38
446.77	8358.05
446.95	8533.59
447.14	8409.54
447.32	8629.56
447.51	8472.74
447.69	8503.17
447.88	8613.17
448.06	8519.55
448.25	8645.94
448.43	8615.51
448.62	8781.69
448.80	8622.53
448.99	8669.34
449.17	8772.33
449.36	8704.45
449.54	8748.92
449.73	8990.00
449.91	8947.87
450.10	9107.02
450.28	9083.62
450.46	9149.15
450.65	9191.28
450.83	8992.34
451.02	9181.92
451.20	9158.52
451.39	9193.62
451.57	9076.60
451.76	9097.66
451.94	9366.82
452.13	9249.80
452.31	9455.76
452.49	9186.60
452.68	9380.87
452.86	9467.47
453.05	9528.32
453.23	9509.60
453.42	9612.58
453.60	9287.25
453.78	9490.87
453.97	9263.84
454.15	9504.92
454.34	9518.96
454.52	9994.09
454.70	9767.06
454.89	9898.13
455.07	9769.40
455.26	9942.60
455.44	9858.34
455.62	9767.06
455.81	10036.22
455.99	9933.23
456.17	10078.35
456.36	10115.80
456.54	10024.51
456.73	10265.59
456.91	10572.20
457.09	10293.68
457.28	10588.58
457.46	10310.06
457.64	10537.09
457.83	10595.61
458.01	10661.14
458.19	10642.42
458.38	10668.16
458.56	10780.51
458.74	10693.91
458.93	10721.99
459.11	10778.17
459.29	10677.52
459.48	11047.33
459.66	10729.02
459.84	10782.85
460.03	11225.21
460.21	11344.58
460.39	11236.91
460.57	11049.67
460.76	11314.15
460.94	11389.05
461.12	10939.66
461.31	11283.72
461.49	11243.93
461.67	11328.19
461.85	11435.86
462.04	11456.92
462.22	11585.65
462.40	11559.91
462.59	11686.29
462.77	11552.88
462.95	11754.17
463.13	11587.99
463.32	11770.55
463.50	11733.11
463.68	11709.70
463.86	12039.72
464.05	11592.67
464.23	11992.90
464.41	12119.29
464.59	11800.98
464.78	12182.49
464.96	11866.52
465.14	11861.84
465.32	12156.74
465.50	12020.99
465.69	12203.55
465.87	12208.23
466.05	12177.81
466.23	12393.14
466.41	12262.07
466.60	12479.74
466.78	12461.01
466.96	12425.90
467.14	12285.47
467.32	12414.20
467.51	12858.90
467.69	12318.24
467.87	12334.62
468.05	12535.91
468.23	12505.48
468.41	12566.34
468.60	12634.21
468.78	12650.60
468.96	12650.60
469.14	12861.24
469.32	13092.96
469.50	12699.75
469.69	12842.52
469.87	13149.13
470.05	13181.90
470.23	13254.45
470.41	13221.69
470.59	13350.42
470.77	13366.80
470.95	13467.44
471.14	13811.50
471.32	13429.99
471.50	13696.82
471.68	13650.00
471.86	13853.63
472.04	13832.57
472.22	14183.65
472.40	13804.48
472.58	13928.53
472.77	14010.45
472.95	14260.88
473.13	14626.01
473.31	14232.80
473.49	13963.64
473.67	14347.48
473.85	14338.12
474.03	14906.87
474.21	14492.60
474.39	14808.57
474.57	14775.80
474.75	14998.15
474.93	15131.56
475.12	15063.69
475.30	15365.62
475.48	15229.87
475.66	15344.55
475.84	15243.91
476.02	15335.19
476.20	15255.61
476.38	15735.42
476.56	16182.46
476.74	16182.46
476.92	15798.62
477.10	15957.77
477.28	16280.77
477.46	16301.83
477.64	16365.03
477.82	16505.46
478.00	16924.41
478.18	16882.28
478.36	16964.20
478.54	17338.69
478.72	17263.79
478.90	17525.93
479.08	17776.37
479.26	17745.94
479.44	17874.67
479.62	17935.53
479.80	18132.13
479.98	18192.98
480.16	18824.93
480.34	18256.18
480.52	18583.85
480.70	18724.29
480.88	18548.75
481.06	18941.96
481.24	18792.16
481.41	19496.66
481.59	19381.98
481.77	19417.08
481.95	19611.35
482.13	19955.41
482.31	19943.70
482.49	20332.23
482.67	20198.82
482.85	20290.10
483.03	20561.61
483.21	21104.61
483.39	21125.68
483.57	20840.13
483.74	21387.82
483.92	21483.78
484.10	21270.79
484.28	21731.87
484.46	22141.47
484.64	22586.17
484.82	21928.48
485.00	22218.71
485.18	22698.52
485.35	22897.46
485.53	22815.54
485.71	22920.87
485.89	23480.25
486.07	23564.51
486.25	23489.62
486.43	23821.97
486.61	23534.09
486.78	24229.23
486.96	24285.40
487.14	24856.49
487.32	24702.01
487.50	25102.25
487.68	25298.85
487.85	25401.83
488.03	25706.10
488.21	25762.28
488.39	25883.98
488.57	26396.56
488.75	26494.86
488.92	26426.99
489.10	26843.60
489.28	26548.70
489.46	27482.57
489.64	26871.69
489.81	27852.38
489.99	27744.71
490.17	27885.14
490.35	28203.46
490.53	28154.30
490.70	28481.98
490.88	28526.45
491.06	29015.62
491.24	28701.99
491.41	29425.22
491.59	29432.24
491.77	29462.66
491.95	29998.65
492.13	29977.58
492.30	30087.59
492.48	30195.25
492.66	30609.53
492.84	30534.63
493.01	30590.80
493.19	30712.51
493.37	31304.67
493.54	31213.38
493.72	31861.71
493.90	31892.14
494.08	31676.81
494.25	32077.04
494.43	32287.69
494.61	32233.86
494.79	32540.47
494.96	32774.52
495.14	32851.76
495.32	33219.22
495.49	33390.08
495.67	33596.05
495.85	33605.41
496.02	33867.55
496.20	34120.33
496.38	34022.03
496.55	34099.26
496.73	35023.78
496.91	34731.21
497.09	34993.35
497.26	34916.11
497.44	34749.93
497.62	35903.82
497.79	35737.64
497.97	35421.67
498.14	36203.41
498.32	36065.31
498.50	36315.75
498.67	36943.02
498.85	36301.71
499.03	36877.48
499.20	36821.31
499.38	37010.89
499.56	37170.05
499.73	37471.98
499.91	37757.52
500.08	37441.55
500.26	37373.67
500.44	37668.58
500.61	38396.49
500.79	38115.62
500.97	38696.08
501.14	38946.51
501.32	38754.59
501.49	38705.44
501.67	39063.54
501.84	39538.67
502.02	39079.92
502.20	39402.92
502.37	39215.68
502.55	39229.72
502.72	39587.82
502.90	39943.58
503.07	39636.97
503.25	39971.67
503.43	40058.27
503.60	40474.88
503.78	40287.64
503.95	40289.98
504.13	40535.74
504.30	40793.20
504.48	40596.59
504.65	41141.94
504.83	41322.16
505.01	41614.72
505.18	41537.49
505.36	41399.40
505.53	41586.64
505.71	41773.88
505.88	41895.59
506.06	41813.67
506.23	42305.18
506.41	41897.93
506.58	42394.12
506.76	42354.33
506.93	42759.25
507.11	42609.45
507.28	42625.84
507.46	42845.85
507.63	42955.85
507.81	43328.00
507.98	43203.95
508.16	43430.98
508.33	43599.50
508.50	43789.08
508.68	43875.68
508.85	44322.72
509.03	44381.24
509.20	44437.41
509.38	44779.13
509.55	44676.15
509.73	44694.87
509.90	44891.48
510.08	44755.72
510.25	44559.12
510.42	44898.50
510.60	45235.53
510.77	45607.68
510.95	45783.22
511.12	45228.51
511.30	45469.59
511.47	45937.69
511.64	45652.15
511.82	46248.99
511.99	45343.20
512.17	46377.72
512.34	45668.53
512.51	47040.09
512.69	46354.31
512.86	46422.19
513.04	46597.73
513.21	47154.77
513.38	46363.67
513.56	47295.21
513.73	47023.70
513.90	47077.54
514.08	46944.12
514.25	47590.11
514.43	47760.97
514.60	47552.66
514.77	47749.27
514.95	48053.54
515.12	47882.68
515.29	47594.79
515.47	48151.84
515.64	48182.27
515.81	48123.75
515.99	48203.33
516.16	48423.34
516.33	48348.45
516.51	49071.67
516.68	48542.71
516.85	48619.95
517.03	49022.52
517.20	48683.14
517.37	48907.83
517.54	49127.84
517.72	49389.98
517.89	49127.84
518.06	49565.52
518.24	49542.12
518.41	49338.49
518.58	49399.35
518.75	49265.94
518.93	49776.17
519.10	49518.71
519.27	49848.73
519.45	50188.11
519.62	50024.27
519.79	49958.73
519.96	50033.63
520.14	50387.05
520.31	50426.84
520.48	50946.44
520.65	50539.19
520.83	50731.11
521.00	51056.45
521.17	50813.03
521.34	50817.71
521.52	51068.15
521.69	50934.74
521.86	51562.00
522.03	50813.03
522.20	51786.69
522.38	51447.32
522.55	51367.74
522.72	51313.90
522.89	51679.03
523.07	51873.29
523.24	51782.01
523.41	51655.62
523.58	51531.57
523.75	52041.81
523.92	51948.19
524.10	52243.10
524.27	52060.54
524.44	52411.62
524.61	52252.46
524.78	52678.44
524.96	52252.46
525.13	52650.35
525.30	52540.35
525.47	52772.06
525.64	52643.33
525.81	52533.32
525.98	52832.91
526.16	53010.79
526.33	52711.20
526.50	53212.08
526.67	52769.72
526.84	53031.86
527.01	52844.62
527.18	53275.27
527.36	53160.59
527.53	53137.18
527.70	53476.56
527.87	53469.54
528.04	53191.01
528.21	53797.21
528.38	53345.49
528.55	53689.55
528.72	53544.44
528.89	53624.01
529.07	53436.77
529.24	53661.46
529.41	53897.86
529.58	53965.73
529.75	53958.71
529.92	53900.20
530.09	53989.14
530.26	53972.75
530.43	54302.77
530.60	53951.69
530.77	53932.96
530.94	54117.87
531.11	54185.74
531.28	54183.40
531.46	54454.90
531.63	54520.44
531.80	54312.13
531.97	54653.85
532.14	54621.08
532.31	54614.06
532.48	54588.31
532.65	55018.97
532.82	54464.27
532.99	55058.76
533.16	54635.13
533.33	54827.05
533.50	55000.25
533.67	55079.83
533.84	55056.42
534.01	54993.23
534.18	55011.95
534.35	55393.46
534.52	55138.34
534.69	55547.93
534.86	55571.34
535.03	55117.28
535.20	55334.95
535.37	55721.13
535.54	55491.76
535.71	55505.80
535.88	55367.71
536.05	55348.99
536.22	55547.93
536.38	55772.63
536.55	55835.82
536.72	55695.39
536.89	55625.17
537.06	55627.51
537.23	56133.07
537.40	55650.92
537.57	55962.21
537.74	55941.14
537.91	55997.32
538.08	56095.62
538.25	55763.26
538.42	55852.20
538.59	56402.23
538.75	56006.68
538.92	55992.64
539.09	56254.78
539.26	56336.69
539.43	56217.33
539.60	56233.71
539.77	56495.85
539.94	56491.17
540.11	56610.54
540.28	56224.35
540.44	56460.74
540.61	56559.05
540.78	56598.83
540.95	56755.65
541.12	56575.43
541.29	56631.60
541.46	56636.28
541.62	56781.40
541.79	56849.27
541.96	56605.86
542.13	56715.86
542.30	56807.14
542.47	56905.44
542.63	57116.09
542.80	57092.69
542.97	57336.10
543.14	57322.06
543.31	57139.50
543.48	57406.32
543.64	57612.29
543.81	57654.42
543.98	57392.28
544.15	57256.53
544.32	57750.38
544.48	57785.49
544.65	57462.49
544.82	57705.91
544.99	57464.83
545.16	57621.65
545.32	57497.60
545.49	57539.73
545.66	57860.38
545.83	57635.69
546.00	58010.18
546.16	57710.59
546.33	57832.30
546.50	57602.92
546.67	57745.70
546.83	57542.07
547.00	58092.10
547.17	57909.53
547.34	57858.04
547.50	58124.86
547.67	58143.59
547.84	58141.25
548.00	58337.85
548.17	58262.96
548.34	58052.31
548.51	58398.71
548.67	58349.56
548.84	58124.86
549.01	58176.36
549.18	58038.26
549.34	58162.31
549.51	58185.72
549.68	58515.73
549.84	58632.76
550.01	58464.24
550.18	58281.68
550.34	58679.57
550.51	58557.86
550.68	58628.08
550.84	58347.21
551.01	58637.44
551.18	58433.81
551.34	58691.27
551.51	58670.21
551.68	58628.08
551.84	58651.48
552.01	58562.54
552.18	58822.34
552.34	58604.67
552.51	58979.16
552.68	58440.84
552.84	58578.93
553.01	59222.58
553.18	58974.48
553.34	59093.85
553.51	58958.09
553.67	58894.90
553.84	58787.24
554.01	59091.51
554.17	59243.64
554.34	59032.99
554.51	59178.10
554.67	59004.91
554.84	59042.35
555.00	59105.55
555.17	59185.13
555.33	59245.98
555.50	59084.48
555.67	59227.26
555.83	59292.79
556.00	59327.90
556.16	59667.28
556.33	59475.35
556.50	59465.99
556.66	59477.69
556.83	59269.39
556.99	59482.37
557.16	59601.74
557.32	59524.50
557.49	59739.83
557.65	59456.63
557.82	59442.59
557.98	59540.89
558.15	59487.06
558.32	59662.60
558.48	59423.86
558.65	59463.65
558.81	59833.46
558.98	59674.30
559.14	59835.80
559.31	59788.98
559.47	59735.15
559.64	59681.32
559.80	59714.09
559.97	59700.04
560.13	59800.69
560.30	59920.05
560.46	59898.99
560.63	59994.95
560.79	59990.27
560.96	60081.55
561.12	59817.07
561.29	59828.77
561.45	59896.65
561.61	60037.08
561.78	60004.31
561.94	59980.91
562.11	60069.85
562.27	59847.50
562.44	60102.62
562.60	60210.28
562.77	60119.00
562.93	59924.74
563.10	60158.79
563.26	59948.14
563.42	60212.62
563.59	60107.30
563.75	60182.19
563.92	60168.15
564.08	60212.62
564.24	60245.39
564.41	60179.85
564.57	60371.78
564.74	60331.99
564.90	60287.52
565.07	60196.24
565.23	60287.52
565.39	60355.39
565.56	60193.90
565.72	60233.69
565.88	60310.92
566.05	60285.18
566.21	60427.95
566.38	60226.66
566.54	60453.70
566.70	60388.16
566.87	60294.54
567.03	60198.58
567.19	60608.17
567.36	60601.15
567.52	60479.44
567.68	60683.07
567.85	60449.02
568.01	60467.74
568.17	60493.49
568.34	60540.30
568.50	60367.10
568.66	60561.36
568.83	60657.32
568.99	60523.91
569.15	60720.52
569.32	60636.26
569.48	60437.31
569.64	60638.60
569.81	60434.97
569.97	60575.40
570.13	60589.45
570.30	60521.57
570.46	60720.52
570.62	60669.03
570.78	60720.52
570.95	60706.47
571.11	60748.60
571.27	60669.03
571.43	60701.79
571.60	60996.70
571.76	60706.47
571.92	60704.13
572.09	60640.94
572.25	60580.09
572.41	60594.13
572.57	60704.13
572.74	61036.49
572.90	60626.90
573.06	60842.23
573.22	60814.14
573.38	60842.23
573.55	60788.39
573.71	60804.78
573.87	60921.80
574.03	60678.39
574.20	60582.43
574.36	60842.23
574.52	60722.86
574.68	60942.87
574.84	60907.76
575.01	60793.07
575.17	60896.06
575.33	60849.25
575.49	60757.97
575.65	60865.63
575.82	61001.38
575.98	60968.61
576.14	61188.63
576.30	61057.56
576.46	60987.34
576.62	60917.12
576.79	60828.18
576.95	60947.55
577.11	60949.89
577.27	61123.09
577.43	61066.92
577.59	60945.21
577.75	60713.50
577.92	60814.14
578.08	60961.59
578.24	61001.38
578.40	60928.83
578.56	61188.63
578.72	60816.48
578.88	60945.21
579.04	61172.24
579.21	60956.91
579.37	61048.19
579.53	61174.58
579.69	60858.61
579.85	60940.53
580.01	60973.30
580.17	60882.02
580.33	61165.22
580.49	60996.70
580.65	60954.57
580.82	61027.13
580.98	60954.57
581.14	60966.27
581.30	61235.44
581.46	60804.78
581.62	61169.90
581.78	61155.86
581.94	61202.67
582.10	60828.18
582.26	61352.46
582.42	60919.46
582.58	61181.60
582.74	61022.45
582.90	60942.87
583.06	61214.37
583.22	60867.97
583.38	61006.06
583.54	61186.28
583.70	61017.77
583.86	61209.69
584.02	60975.64
584.18	61284.59
584.34	61038.83
584.50	61022.45
584.66	61066.92
584.82	60863.29
584.98	61291.61
585.14	61193.31
585.30	61134.79
585.46	61090.32
585.62	61221.39
585.78	61120.75
585.94	60900.74
586.10	61106.71
586.26	61242.46
586.42	61172.24
586.58	61275.22
586.74	61228.41
586.90	61205.01
587.06	61151.18
587.22	61197.99
587.38	61027.13
587.54	61298.63
587.70	61284.59
587.86	61118.41
588.02	61197.99
588.18	61364.17
588.34	61078.62
588.49	61343.10
