SpectraSuite Data File
++++++++++++++++++++++++++++++++++++
Date: Fri Oct 25 11:25:06 EDT 2013
User: price-jones
Dark Spectrum Present: No
Reference Spectrum Present: No
Number of Sampled Component Spectra: 1
Spectrometers: USB2+H05261
Integration Time (usec): 100000 (USB2+H05261)
Spectra Averaged: 1 (USB2+H05261)
Boxcar Smoothing: 0 (USB2+H05261)
Correct for Electrical Dark: No (USB2+H05261)
Strobe/Lamp Enabled: No (USB2+H05261)
Correct for Detector Non-linearity: No (USB2+H05261)
Correct for Stray Light: No (USB2+H05261)
Number of Pixels in Processed Spectrum: 2048
>>>>>Begin Processed Spectral Data<<<<<
365.73	245.76
365.92	245.76
366.12	245.76
366.32	117.03
366.52	147.45
366.72	128.73
366.91	114.69
367.11	175.54
367.31	166.18
367.51	95.96
367.70	128.73
367.90	154.48
368.10	128.73
368.30	77.24
368.49	93.62
368.69	201.29
368.89	140.43
369.09	138.09
369.28	166.18
369.48	187.24
369.68	128.73
369.87	91.28
370.07	187.24
370.27	222.35
370.47	299.59
370.66	601.52
370.86	594.50
371.06	683.44
371.25	667.05
371.45	697.48
371.65	688.12
371.84	678.76
372.04	622.58
372.24	716.20
372.44	695.14
372.63	699.82
372.83	713.86
373.03	784.08
373.22	777.06
373.42	695.14
373.62	805.14
373.81	755.99
374.01	763.01
374.21	870.68
374.40	781.74
374.60	814.51
374.79	786.42
374.99	802.80
375.19	847.27
375.38	770.04
375.58	786.42
375.78	880.04
375.97	875.36
376.17	849.61
376.37	800.46
376.56	891.74
376.76	856.64
376.95	875.36
377.15	873.02
377.35	968.98
377.54	983.02
377.74	994.73
377.93	858.98
378.13	957.28
378.33	950.26
378.52	940.90
378.72	858.98
378.91	912.81
379.11	959.62
379.31	933.87
379.50	964.30
379.70	992.39
379.89	980.68
380.09	985.37
380.28	861.32
380.48	992.39
380.68	961.96
380.87	992.39
381.07	971.32
381.26	971.32
381.46	985.37
381.65	1109.41
381.85	999.41
382.04	1053.24
382.24	1004.09
382.43	1130.48
382.63	1015.79
382.83	940.90
383.02	1083.67
383.22	1135.16
383.41	1104.73
383.61	1118.78
383.80	1095.37
384.00	1093.03
384.19	1128.14
384.39	1046.22
384.58	1167.93
384.78	1174.95
384.97	1203.04
385.17	1153.88
385.36	1123.46
385.56	1200.69
385.75	1156.22
385.95	1259.21
386.14	1174.95
386.34	1196.01
386.53	1144.52
386.72	1153.88
386.92	1132.82
387.11	1214.74
387.31	1289.64
387.50	1329.42
387.70	1203.04
387.89	1331.76
388.09	1313.04
388.28	1221.76
388.48	1399.64
388.67	1315.38
388.86	1362.19
389.06	1317.72
389.25	1488.58
389.45	1425.39
389.64	1383.26
389.84	1327.08
390.03	1315.38
390.22	1350.49
390.42	1362.19
390.61	1308.36
390.81	1371.55
391.00	1376.24
391.19	1502.62
391.39	1418.36
391.58	1357.51
391.78	1416.02
391.97	1432.41
392.16	1474.54
392.36	1472.20
392.55	1458.15
392.75	1535.39
392.94	1605.61
393.13	1507.30
393.33	1561.14
393.52	1603.27
393.71	1617.31
393.91	1612.63
394.10	1575.18
394.29	1582.20
394.49	1528.37
394.68	1589.22
394.88	1629.01
395.07	1682.85
395.26	1659.44
395.46	1687.53
395.65	1710.93
395.84	1741.36
396.04	1685.19
396.23	1703.91
396.42	1715.61
396.62	1685.19
396.81	1778.81
397.00	1729.66
397.19	1867.75
397.39	1834.98
397.58	1792.85
397.77	1832.64
397.97	1830.30
398.16	1792.85
398.35	1902.86
398.55	1933.28
398.74	1933.28
398.93	1937.96
399.12	1954.35
399.32	1998.82
399.51	2017.54
399.70	2047.97
399.90	1959.03
400.09	2108.82
400.28	1975.41
400.47	2073.71
400.67	2094.78
400.86	2188.40
401.05	2005.84
401.24	2108.82
401.44	2066.69
401.63	2120.53
401.82	2221.17
402.01	2059.67
402.21	2221.17
402.40	2080.74
402.59	2120.53
402.78	2237.55
402.97	2296.07
403.17	2324.15
403.36	2317.13
403.55	2296.07
403.74	2420.11
403.93	2342.88
404.13	2389.69
404.32	2324.15
404.51	2352.24
404.70	2424.80
404.89	2319.47
405.09	2471.61
405.28	2399.05
405.47	2506.71
405.66	2654.17
405.85	2530.12
406.05	2590.97
406.24	2607.36
406.43	2588.63
406.62	2593.31
406.81	2712.68
407.00	2544.16
407.20	2654.17
407.39	2656.51
407.58	2670.55
407.77	2698.64
407.96	2822.69
408.15	2729.06
408.34	2750.13
408.54	2848.43
408.73	2841.41
408.92	2712.68
409.11	2686.94
409.30	2860.13
409.49	2785.24
409.68	2885.88
409.87	2920.99
410.07	2935.03
410.26	2932.69
410.45	2897.58
410.64	3059.08
410.83	3080.14
411.02	3082.49
411.21	3166.74
411.40	3098.87
411.59	3213.56
411.78	3185.47
411.98	3126.96
412.17	3258.03
412.36	3286.11
412.55	3265.05
412.74	3407.82
412.93	3407.82
413.12	3314.20
413.31	3653.58
413.50	3398.46
413.69	3513.14
413.88	3695.71
414.07	3531.87
414.26	3686.34
414.45	3637.19
414.64	3623.15
414.83	3824.44
415.02	3786.99
415.22	3779.97
415.41	3826.78
415.60	3936.78
415.79	3908.69
415.98	3845.50
416.17	4037.42
416.36	4023.38
416.55	3920.40
416.74	4152.11
416.93	4138.07
417.12	4163.81
417.31	4131.05
417.50	4152.11
417.69	4109.98
417.88	4374.46
418.07	4203.60
418.26	4325.31
418.45	4262.12
418.64	4304.25
418.83	4430.63
419.02	4519.57
419.21	4402.55
419.39	4470.42
419.58	4458.72
419.77	4486.81
419.96	4634.26
420.15	4571.07
420.34	4580.43
420.53	4657.67
420.72	4713.84
420.91	4655.33
421.10	4674.05
421.29	4774.69
421.48	4704.48
421.67	4901.08
421.86	4826.18
422.05	4615.54
422.24	4816.82
422.43	4851.93
422.61	4840.23
422.80	4840.23
422.99	4933.85
423.18	4917.47
423.37	4835.55
423.56	4940.87
423.75	4912.78
423.94	4821.50
424.13	4585.11
424.32	4716.18
424.50	4954.91
424.69	5041.51
424.88	5203.01
425.07	5118.75
425.26	4917.47
425.45	4901.08
425.64	4896.40
425.83	4922.15
426.01	5107.05
426.20	5102.37
426.39	5109.39
426.58	5149.18
426.77	4994.70
426.96	5078.96
427.15	5046.20
427.33	5198.33
427.52	5060.24
427.71	5329.40
427.90	5167.90
428.09	5226.42
428.28	5378.55
428.46	5298.97
428.65	5430.04
428.84	5504.94
429.03	5490.90
429.22	5338.76
429.40	5528.35
429.59	5598.56
429.78	5467.49
429.97	5252.16
430.16	5448.77
430.34	5495.58
430.53	5661.76
430.72	5584.52
430.91	5451.11
431.10	5563.45
431.28	5804.53
431.47	5743.67
431.66	5858.36
431.85	5682.82
432.03	5935.60
432.22	6036.24
432.41	5991.77
432.60	5912.19
432.79	5743.67
432.97	5942.62
433.16	6010.50
433.35	5940.28
433.54	5923.90
433.72	5968.37
433.91	6094.76
434.10	6171.99
434.28	6160.29
434.47	6195.40
434.66	6120.50
434.85	6413.07
435.03	6382.64
435.22	6230.51
435.41	6537.12
435.59	6328.81
435.78	6485.62
435.97	6415.41
436.16	6370.94
436.34	6310.08
436.53	6485.62
436.72	6743.08
436.90	6499.67
437.09	6675.21
437.28	6307.74
437.46	6619.04
437.65	6672.87
437.84	6693.93
438.02	6707.98
438.21	6750.10
438.40	6719.68
438.58	7056.72
438.77	7002.88
438.96	7056.72
439.14	7108.21
439.33	7241.62
439.52	7148.00
439.70	7129.27
439.89	7293.11
440.08	7241.62
440.26	7360.98
440.45	7206.51
440.63	7482.69
440.82	7527.16
441.01	7588.02
441.19	7543.55
441.38	7686.32
441.57	7801.01
441.75	7875.90
441.94	7878.24
442.12	7990.59
442.31	8025.70
442.50	8051.44
442.68	7906.33
442.87	7805.69
443.05	7946.12
443.24	8180.17
443.43	8058.46
443.61	8175.49
443.80	8496.14
443.98	8009.31
444.17	7857.18
444.35	8067.83
444.54	8423.59
444.73	8255.07
444.91	8297.20
445.10	8273.79
445.28	8341.67
445.47	8229.32
445.65	8456.36
445.84	8566.36
446.02	8360.39
446.21	8507.85
446.39	8411.89
446.58	8697.43
446.77	8414.23
446.95	8271.45
447.14	8173.15
447.32	8519.55
447.51	8416.57
447.69	8608.49
447.88	8454.02
448.06	8442.31
448.25	8662.32
448.43	8601.47
448.62	8486.78
448.80	8344.01
448.99	8627.21
449.17	8554.66
449.36	8449.33
449.54	8819.14
449.73	8725.52
449.91	9008.72
450.10	9004.04
450.28	9050.85
450.46	8910.42
450.65	9055.53
450.83	8952.55
451.02	8908.08
451.20	9301.29
451.39	9202.99
451.57	9177.24
451.76	9245.12
451.94	9291.93
452.13	9415.98
452.31	9198.31
452.49	8896.38
452.68	9280.22
452.86	9401.93
453.05	9359.80
453.23	9411.29
453.42	9315.33
453.60	9357.46
453.78	9502.58
453.97	9301.29
454.15	9577.47
454.34	9476.83
454.52	9741.31
454.70	9797.48
454.89	9788.12
455.07	9764.72
455.26	9724.93
455.44	10036.22
455.62	9872.38
455.81	9902.81
455.99	9912.17
456.17	9937.91
456.36	10001.11
456.54	10104.09
456.73	10319.42
456.91	10572.20
457.09	10511.35
457.28	10527.73
457.46	10281.97
457.64	10506.66
457.83	10431.77
458.01	10384.96
458.19	10635.39
458.38	10633.05
458.56	10640.08
458.74	10740.72
458.93	10560.50
459.11	10684.55
459.29	10537.09
459.48	10747.74
459.66	10700.93
459.84	11035.63
460.03	11185.42
460.21	11044.99
460.39	10977.11
460.57	10934.98
460.76	10998.18
460.94	11403.09
461.12	11084.78
461.31	11452.24
461.49	10970.09
461.67	11447.56
461.85	11222.87
462.04	11459.26
462.22	11899.28
462.40	11508.41
462.59	11520.12
462.77	11625.44
462.95	11538.84
463.13	11534.16
463.32	11499.05
463.50	11782.26
463.68	12009.29
463.86	11800.98
464.05	11576.29
464.23	11508.41
464.41	11866.52
464.59	11562.25
464.78	12091.21
464.96	12060.78
465.14	11805.66
465.32	11943.75
465.50	12245.68
465.69	12109.93
465.87	12126.32
466.05	12086.53
466.23	12168.45
466.41	12051.42
466.60	12559.31
466.78	12325.26
466.96	12248.02
467.14	12196.53
467.32	12430.59
467.51	12526.55
467.69	12226.96
467.87	12444.63
468.05	12477.40
468.23	12348.67
468.41	12231.64
468.60	12437.61
468.78	12610.81
468.96	12589.74
469.14	12858.90
469.32	12886.99
469.50	12629.53
469.69	12945.50
469.87	13111.68
470.05	12964.23
470.23	13289.56
470.41	13139.77
470.59	13060.19
470.77	13172.54
470.95	13181.90
471.14	13444.04
471.32	13090.62
471.50	13453.40
471.68	13507.23
471.86	13364.46
472.04	13659.37
472.22	14080.66
472.40	13621.92
472.58	14019.81
472.77	14061.94
472.95	14176.62
473.13	14691.54
473.31	13980.02
473.49	14157.90
473.67	13996.40
473.85	14345.14
474.03	14628.35
474.21	14604.94
474.39	14544.09
474.57	14836.66
474.75	14721.97
474.93	14979.43
475.12	14941.98
475.30	14808.57
475.48	15040.28
475.66	15171.35
475.84	14846.02
476.02	15161.99
476.20	15318.81
476.38	15712.02
476.56	15683.93
476.74	16095.86
476.92	16030.33
477.10	16149.70
477.28	16212.89
477.46	16404.81
477.64	16395.45
477.82	16517.16
478.00	16847.18
478.18	16723.13
478.36	17158.47
478.54	17357.41
478.72	17329.33
478.90	17200.60
479.08	17539.97
479.26	17673.39
479.44	17869.99
479.62	17699.13
479.80	18267.88
479.98	18150.85
480.16	18595.56
480.34	18139.15
480.52	18953.66
480.70	18595.56
480.88	18207.03
481.06	18799.18
481.24	18813.23
481.41	18782.80
481.59	19431.13
481.77	19634.75
481.95	19548.15
482.13	19510.71
482.31	19501.34
482.49	20187.12
482.67	20187.12
482.85	20400.11
483.03	20339.26
483.21	20428.20
483.39	20905.66
483.57	20596.71
483.74	20996.95
483.92	21364.41
484.10	21247.38
484.28	21741.24
484.46	21535.27
484.64	22239.77
484.82	21598.46
485.00	22366.16
485.18	22436.38
485.35	22834.27
485.53	22651.70
485.71	23016.83
485.89	23248.54
486.07	23349.18
486.25	23351.52
486.43	23676.86
486.61	24011.56
486.78	24107.52
486.96	24086.45
487.14	24266.67
487.32	24524.13
487.50	24952.45
487.68	24961.81
487.85	25181.82
488.03	25579.71
488.21	25954.20
488.39	25743.55
488.57	25788.02
488.75	26134.42
488.92	26759.34
489.10	26675.09
489.28	26703.17
489.46	27346.82
489.64	27185.32
489.81	27817.27
489.99	27395.97
490.17	27686.20
490.35	28170.69
490.53	28264.31
490.70	28156.64
490.88	28547.51
491.06	28758.16
491.24	28907.96
491.41	28767.52
491.59	29081.16
491.77	28716.03
491.95	29397.13
492.13	29881.62
492.30	30281.85
492.48	29757.57
492.66	29577.35
492.84	30508.88
493.01	30555.69
493.19	31068.27
493.37	31208.70
493.54	30976.99
493.72	31297.64
493.90	31386.58
494.08	31573.83
494.25	31875.76
494.43	32151.94
494.61	32023.21
494.79	32301.73
494.96	32287.69
495.14	32645.79
495.32	33118.58
495.49	33160.71
495.67	33034.32
495.85	33542.22
496.02	33418.17
496.20	34127.35
496.38	33958.83
496.55	33933.09
496.73	34742.91
496.91	34349.70
497.09	34890.37
497.26	34653.97
497.44	35030.80
497.62	35253.15
497.79	35416.99
497.97	35196.98
498.14	35672.10
498.32	36521.72
498.50	36210.43
498.67	36392.99
498.85	36109.78
499.03	36540.44
499.20	37017.91
499.38	36383.63
499.56	37085.79
499.73	37434.53
499.91	37404.10
500.08	38036.05
500.26	37228.56
500.44	37546.87
500.61	37645.18
500.79	37542.19
500.97	38197.54
501.14	38557.99
501.32	38689.06
501.49	38508.83
501.67	38452.66
501.84	38876.30
502.02	38852.89
502.20	38909.07
502.37	39138.44
502.55	38848.21
502.72	39393.56
502.90	39538.67
503.07	39353.77
503.25	39812.51
503.43	39962.31
503.60	39772.72
503.78	39856.98
503.95	40285.30
504.13	40430.41
504.30	40421.05
504.48	40238.49
504.65	40397.65
504.83	41127.89
505.01	41418.12
505.18	41270.67
505.36	41596.00
505.53	40952.35
505.71	41254.28
505.88	41998.57
506.06	41371.31
506.23	42129.64
506.41	41778.56
506.58	42054.75
506.76	41706.01
506.93	41937.72
507.11	42164.75
507.28	42333.27
507.46	42377.74
507.63	42967.55
507.81	43044.79
507.98	42469.02
508.16	42876.27
508.33	43452.05
508.50	43360.76
508.68	43791.42
508.85	44088.67
509.03	43613.54
509.20	43995.05
509.38	44135.48
509.55	44587.21
509.73	44575.50
509.90	44273.57
510.08	44619.97
510.25	44608.27
510.42	44664.44
510.60	45158.30
510.77	45205.11
510.95	45324.47
511.12	45212.13
511.30	45141.91
511.47	44994.46
511.64	45413.41
511.82	45713.00
511.99	45984.51
512.17	45734.07
512.34	45703.64
512.51	46160.05
512.69	46234.94
512.86	46391.76
513.04	46494.74
513.21	46431.55
513.38	46681.98
513.56	46813.05
513.73	46499.42
513.90	47117.32
514.08	46794.33
514.25	47180.52
514.43	47641.60
514.60	47470.75
514.77	47306.91
514.95	47316.27
515.12	47512.88
515.29	47360.74
515.47	47803.10
515.64	48161.20
515.81	47592.45
515.99	47805.44
516.16	48566.12
516.33	48353.13
516.51	48673.78
516.68	48142.48
516.85	48430.36
517.03	48753.36
517.20	48811.87
517.37	48603.56
517.54	48865.70
517.72	48554.41
517.89	48910.17
518.06	49287.00
518.24	49287.00
518.41	49350.20
518.58	49656.81
518.75	49326.79
518.93	49563.18
519.10	49591.27
519.27	49385.30
519.45	49759.79
519.62	50239.60
519.79	50185.77
519.96	49808.94
520.14	50127.25
520.31	49935.33
520.48	50312.16
520.65	50094.49
520.83	50377.69
521.00	50401.10
521.17	50604.72
521.34	50291.09
521.52	50532.17
521.69	51016.66
521.86	50726.43
522.03	51140.71
522.20	51290.50
522.38	51285.82
522.55	51704.77
522.72	51323.27
522.89	50953.46
523.07	51810.10
523.24	51606.47
523.41	51519.87
523.58	51278.80
523.75	51763.29
523.92	51587.75
524.10	51936.49
524.27	51976.28
524.44	51550.30
524.61	52172.88
524.78	52130.75
524.96	51978.62
525.13	51950.53
525.30	52212.67
525.47	52355.44
525.64	52633.97
525.81	52378.85
525.98	52638.65
526.16	52317.99
526.33	52498.22
526.50	52898.45
526.67	52570.77
526.84	52889.09
527.01	52662.05
527.18	52914.83
527.36	52926.53
527.53	52839.93
527.70	52987.39
527.87	53223.78
528.04	52935.90
528.21	53183.99
528.38	53404.00
528.55	53191.01
528.72	53268.25
528.89	53535.07
529.07	53169.95
529.24	53240.17
529.41	53694.23
529.58	53471.88
529.75	53595.93
529.92	53579.54
530.09	53829.98
530.26	53921.26
530.43	54082.76
530.60	53755.08
530.77	53680.19
530.94	53968.07
531.11	54028.93
531.28	53822.96
531.46	54239.57
531.63	54171.70
531.80	54295.75
531.97	54555.55
532.14	54131.91
532.31	54422.14
532.48	54358.94
532.65	54515.76
532.82	54457.24
532.99	54611.72
533.16	54534.48
533.33	54796.62
533.50	54941.74
533.67	54866.84
533.84	54719.38
534.01	54700.66
534.18	55018.97
534.35	55103.23
534.52	55068.12
534.69	55082.17
534.86	55077.49
535.03	55056.42
535.20	55377.08
535.37	55358.35
535.54	55248.35
535.71	54848.11
535.88	55508.14
536.05	55098.55
536.22	55552.62
536.38	55679.00
536.55	55306.86
536.72	55599.43
536.89	55224.94
537.06	55379.42
537.23	55735.18
537.40	55653.26
537.57	55835.82
537.74	55870.93
537.91	55812.41
538.08	56048.81
538.25	55845.18
538.42	55709.43
538.59	55948.17
538.75	55812.41
538.92	56055.83
539.09	56137.75
539.26	55957.53
539.43	55896.67
539.60	56126.05
539.77	56355.42
539.94	56317.97
540.11	56095.62
540.28	56364.78
540.44	56507.55
540.61	56566.07
540.78	56357.76
540.95	56151.79
541.12	56273.50
541.29	56465.42
541.46	56671.39
541.62	56671.39
541.79	56647.99
541.96	56266.48
542.13	56610.54
542.30	56395.21
542.47	56870.34
542.63	56809.48
542.80	56973.32
542.97	57258.87
543.14	56947.57
543.31	56963.96
543.48	57165.24
543.64	57418.02
543.81	57361.85
543.98	57048.22
544.15	57577.18
544.32	57373.55
544.48	57457.81
544.65	57308.02
544.82	57396.96
544.99	57301.00
545.16	57485.90
545.32	57336.10
545.49	57558.45
545.66	57687.18
545.83	57654.42
546.00	57623.99
546.16	57666.12
546.33	57216.74
546.50	57279.93
546.67	57738.68
546.83	57499.94
547.00	57895.49
547.17	57607.61
547.34	57780.81
547.50	58066.35
547.67	58155.29
547.84	57930.60
548.00	58078.05
548.17	58279.34
548.34	57977.41
548.51	58106.14
548.67	58192.74
548.84	58141.25
549.01	58017.20
549.18	58124.86
549.34	58220.83
549.51	58541.48
549.68	58307.43
549.84	58237.21
550.01	58323.81
550.18	58169.33
550.34	58501.69
550.51	58429.13
550.68	58045.29
550.84	58178.70
551.01	58707.66
551.18	58464.24
551.34	58452.54
551.51	58440.84
551.68	58508.71
551.84	58597.65
552.01	58529.78
552.18	58548.50
552.34	58354.24
552.51	58717.02
552.68	58527.44
552.84	58508.71
553.01	58871.49
553.18	58986.18
553.34	58815.32
553.51	58557.86
553.67	58939.37
553.84	58915.96
554.01	59056.40
554.17	58829.37
554.34	59025.97
554.51	58794.26
554.67	58838.73
554.84	58824.68
555.00	58871.49
555.17	59112.57
555.33	58915.96
555.50	58948.73
555.67	59154.70
555.83	58892.56
556.00	58878.52
556.16	59302.15
556.33	59217.89
556.50	59220.23
556.66	59185.13
556.83	59084.48
556.99	59475.35
557.16	59316.20
557.32	59456.63
557.49	59550.25
557.65	59210.87
557.82	59185.13
557.98	59379.39
558.15	59423.86
558.32	59552.59
558.48	59374.71
558.65	59505.78
558.81	59531.53
558.98	59402.80
559.14	59491.74
559.31	59470.67
559.47	59384.07
559.64	59573.66
559.80	59526.84
559.97	59718.77
560.13	59611.10
560.30	59723.45
560.46	59587.70
560.63	59772.60
560.79	59861.54
560.96	59924.74
561.12	59650.89
561.29	59796.01
561.45	59779.62
561.61	59573.66
561.78	59742.17
561.94	59770.26
562.11	59639.19
562.27	59781.96
562.44	59760.90
562.60	60182.19
562.77	59671.96
562.93	59613.44
563.10	59924.74
563.26	59875.58
563.42	59999.63
563.59	59994.95
563.75	59910.69
563.92	60013.68
564.08	59873.24
564.24	60182.19
564.41	60137.72
564.57	59849.84
564.74	59922.40
564.90	60205.60
565.07	60119.00
565.23	59969.21
565.39	60158.79
565.56	60324.97
565.72	60048.78
565.88	60205.60
566.05	60114.32
566.21	59938.78
566.38	60121.34
566.54	60156.45
566.70	60479.44
566.87	60259.43
567.03	60189.22
567.19	60245.39
567.36	60369.44
567.52	60224.32
567.68	60444.33
567.85	60191.56
568.01	60420.93
568.17	60182.19
568.34	60299.22
568.50	60406.89
568.66	60481.78
568.83	60205.60
568.99	60186.88
569.15	60296.88
569.32	60465.40
569.48	60184.54
569.64	60264.11
569.81	60516.89
569.97	60301.56
570.13	60444.33
570.30	60243.05
570.46	60273.48
570.62	60449.02
570.78	60498.17
570.95	60406.89
571.11	60554.34
571.27	60544.98
571.43	60495.83
571.60	60561.36
571.76	60470.08
571.92	60505.19
572.09	60516.89
572.25	60591.79
572.41	60500.51
572.57	60530.93
572.74	60666.69
572.90	60577.75
573.06	60327.31
573.22	60559.02
573.38	60645.62
573.55	60629.24
573.71	60872.65
573.87	60619.88
574.03	60505.19
574.20	60732.22
574.36	60598.81
574.52	60701.79
574.68	60767.33
574.84	60727.54
575.01	60680.73
575.17	60776.69
575.33	60573.06
575.49	60439.65
575.65	60624.56
575.82	60683.07
575.98	60673.71
576.14	60739.24
576.30	60781.37
576.46	60687.75
576.62	60837.54
576.79	60659.66
576.95	60701.79
577.11	60601.15
577.27	60694.77
577.43	60762.65
577.59	60793.07
577.75	60734.56
577.92	60505.19
578.08	60542.64
578.24	60725.20
578.40	60886.70
578.56	61083.30
578.72	60683.07
578.88	61078.62
579.04	60889.04
579.21	60743.92
579.37	60905.42
579.53	60753.29
579.69	60722.86
579.85	60657.32
580.01	60713.50
580.17	60713.50
580.33	60856.27
580.49	60858.61
580.65	60772.01
580.82	60809.46
580.98	60725.20
581.14	60830.52
581.30	60889.04
581.46	60781.37
581.62	60844.57
581.78	60945.21
581.94	61073.94
582.10	60893.72
582.26	60528.59
582.42	60917.12
582.58	60825.84
582.74	60701.79
582.90	60996.70
583.06	60720.52
583.22	60697.11
583.38	60739.24
583.54	60790.73
583.70	60795.42
583.86	61073.94
584.02	61048.19
584.18	61055.21
584.34	61001.38
584.50	60989.68
584.66	60959.25
584.82	60750.94
584.98	61038.83
585.14	61022.45
585.30	60804.78
585.46	61034.15
585.62	60985.00
585.78	61085.64
585.94	60919.46
586.10	61116.07
586.26	61022.45
586.42	61207.35
586.58	61020.11
586.74	60933.51
586.90	61059.90
587.06	61001.38
587.22	61034.15
587.38	61155.86
587.54	61132.45
587.70	61361.82
587.86	60989.68
588.02	60882.02
588.18	61052.87
588.34	61345.44
588.49	61193.31
