SpectraSuite Data File
++++++++++++++++++++++++++++++++++++
Date: Fri Oct 25 11:23:48 EDT 2013
User: price-jones
Dark Spectrum Present: No
Reference Spectrum Present: No
Number of Sampled Component Spectra: 1
Spectrometers: USB2+H05261
Integration Time (usec): 100000 (USB2+H05261)
Spectra Averaged: 1 (USB2+H05261)
Boxcar Smoothing: 0 (USB2+H05261)
Correct for Electrical Dark: No (USB2+H05261)
Strobe/Lamp Enabled: No (USB2+H05261)
Correct for Detector Non-linearity: No (USB2+H05261)
Correct for Stray Light: No (USB2+H05261)
Number of Pixels in Processed Spectrum: 2048
>>>>>Begin Processed Spectral Data<<<<<
365.73	194.26
365.92	194.26
366.12	194.26
366.32	142.77
366.52	117.03
366.72	147.45
366.91	170.86
367.11	124.05
367.31	102.98
367.51	124.05
367.70	145.11
367.90	135.75
368.10	77.24
368.30	42.13
368.49	128.73
368.69	159.16
368.89	105.32
369.09	72.56
369.28	121.71
369.48	107.66
369.68	229.37
369.87	196.60
370.07	173.20
370.27	187.24
370.47	287.89
370.66	631.94
370.86	599.18
371.06	671.73
371.25	660.03
371.45	603.86
371.65	681.10
371.84	767.70
372.04	704.50
372.24	727.91
372.44	711.52
372.63	739.61
372.83	681.10
373.03	746.63
373.22	730.25
373.42	732.59
373.62	823.87
373.81	830.89
374.01	791.10
374.21	800.46
374.40	833.23
374.60	805.14
374.79	854.30
374.99	784.08
375.19	851.96
375.38	856.64
375.58	894.08
375.78	788.76
375.97	882.38
376.17	875.36
376.37	863.66
376.56	924.51
376.76	863.66
376.95	908.13
377.15	884.72
377.35	866.00
377.54	950.26
377.74	915.15
377.93	961.96
378.13	936.21
378.33	978.34
378.52	847.27
378.72	854.30
378.91	952.60
379.11	957.28
379.31	919.83
379.50	945.58
379.70	971.32
379.89	894.08
380.09	922.17
380.28	959.62
380.48	968.98
380.68	978.34
380.87	931.53
381.07	1074.31
381.26	1004.09
381.46	1041.54
381.65	987.71
381.85	992.39
382.04	994.73
382.24	1076.65
382.43	1128.14
382.63	994.73
382.83	1076.65
383.02	1149.20
383.22	1121.12
383.41	1093.03
383.61	1116.44
383.80	1156.22
384.00	1191.33
384.19	1165.59
384.39	1146.86
384.58	1146.86
384.78	1163.25
384.97	1165.59
385.17	1165.59
385.36	1184.31
385.56	1235.80
385.75	1104.73
385.95	1142.18
386.14	1160.91
386.34	1233.46
386.53	1214.74
386.72	1196.01
386.92	1181.97
387.11	1263.89
387.31	1334.11
387.50	1219.42
387.70	1172.61
387.89	1329.42
388.09	1263.89
388.28	1275.59
388.48	1198.35
388.67	1299.00
388.86	1249.85
389.06	1259.21
389.25	1329.42
389.45	1423.05
389.64	1324.74
389.84	1259.21
390.03	1345.81
390.22	1490.92
390.42	1441.77
390.61	1315.38
390.81	1378.58
391.00	1387.94
391.19	1378.58
391.39	1430.07
391.58	1439.43
391.78	1453.47
391.97	1465.18
392.16	1444.11
392.36	1579.86
392.55	1497.94
392.75	1511.99
392.94	1675.82
393.13	1502.62
393.33	1544.75
393.52	1593.90
393.71	1636.03
393.91	1568.16
394.10	1497.94
394.29	1741.36
394.49	1636.03
394.68	1554.12
394.88	1666.46
395.07	1755.40
395.26	1633.69
395.46	1657.10
395.65	1785.83
395.84	1799.87
396.04	1708.59
396.23	1774.13
396.42	1685.19
396.62	1703.91
396.81	1792.85
397.00	1736.68
397.19	1799.87
397.39	1863.07
397.58	1781.15
397.77	1785.83
397.97	1891.15
398.16	1944.99
398.35	1788.17
398.55	1863.07
398.74	1856.04
398.93	2008.18
399.12	1870.09
399.32	1952.01
399.51	1919.24
399.70	2073.71
399.90	2047.97
400.09	2132.23
400.28	2080.74
400.47	1980.09
400.67	2099.46
400.86	2120.53
401.05	2186.06
401.24	2083.08
401.44	2134.57
401.63	2183.72
401.82	2134.57
402.01	2246.91
402.21	2258.62
402.40	2153.29
402.59	2197.76
402.78	2209.47
402.97	2209.47
403.17	2354.58
403.36	2242.23
403.55	2235.21
403.74	2349.90
403.93	2366.28
404.13	2466.92
404.32	2389.69
404.51	2349.90
404.70	2363.94
404.89	2443.52
405.09	2495.01
405.28	2452.88
405.47	2448.20
405.66	2424.80
405.85	2509.05
406.05	2445.86
406.24	2403.73
406.43	2590.97
406.62	2551.18
406.81	2600.34
407.00	2602.68
407.20	2628.42
407.39	2705.66
407.58	2705.66
407.77	2757.15
407.96	2775.88
408.15	2693.96
408.34	2752.47
408.54	2757.15
408.73	2712.68
408.92	2916.31
409.11	2944.39
409.30	2878.86
409.49	2925.67
409.68	2925.67
409.87	2998.23
410.07	2925.67
410.26	3002.91
410.45	2995.89
410.64	3075.46
410.83	3084.83
411.02	3145.68
411.21	3103.55
411.40	3293.13
411.59	3267.39
411.78	3295.47
411.98	3185.47
412.17	3220.58
412.36	3283.77
412.55	3311.86
412.74	3382.07
412.93	3513.14
413.12	3452.29
413.31	3564.64
413.50	3426.54
413.69	3478.04
413.88	3562.30
414.07	3658.26
414.26	3606.77
414.45	3688.68
414.64	3527.19
414.83	3784.65
415.02	3763.58
415.22	3854.86
415.41	3815.07
415.60	3927.42
415.79	3946.14
415.98	3981.25
416.17	3918.06
416.36	3929.76
416.55	3950.82
416.74	4093.60
416.93	4166.15
417.12	4241.05
417.31	4037.42
417.50	4126.36
417.69	4461.06
417.88	4337.01
418.07	4285.52
418.26	4329.99
418.45	4355.74
418.64	4505.53
418.83	4493.83
419.02	4456.38
419.21	4381.48
419.39	4561.70
419.58	4454.04
419.77	4381.48
419.96	4566.39
420.15	4575.75
420.34	4681.07
420.53	4641.28
420.72	4702.14
420.91	4791.08
421.10	4770.01
421.29	4725.54
421.48	4730.22
421.67	4809.80
421.86	4898.74
422.05	4903.42
422.24	4755.97
422.43	4887.04
422.61	4898.74
422.80	4992.36
422.99	4980.66
423.18	5029.81
423.37	5095.35
423.56	5006.41
423.75	4910.44
423.94	4898.74
424.13	4690.43
424.32	4793.42
424.50	5156.20
424.69	5238.12
424.88	5090.67
425.07	4978.32
425.26	4966.62
425.45	4975.98
425.64	5081.30
425.83	5083.64
426.01	5039.17
426.20	5006.41
426.39	5057.90
426.58	5142.16
426.77	5078.96
426.96	5078.96
427.15	5104.71
427.33	5313.02
427.52	5186.63
427.71	5212.37
427.90	5240.46
428.09	5233.44
428.28	5589.20
428.46	5420.68
428.65	5474.51
428.84	5586.86
429.03	5289.61
429.22	5284.93
429.40	5664.10
429.59	5596.22
429.78	5462.81
429.97	5270.89
430.16	5589.20
430.34	5528.35
430.53	5685.16
430.72	5591.54
430.91	5666.44
431.10	5748.36
431.28	5963.68
431.47	5872.40
431.66	5937.94
431.85	5748.36
432.03	5991.77
432.22	5991.77
432.41	6054.97
432.60	5849.00
432.79	5944.96
432.97	6033.90
433.16	6043.26
433.35	5949.64
433.54	6087.73
433.72	6223.48
433.91	6202.42
434.10	6139.23
434.28	5973.05
434.47	6251.57
434.66	6267.95
434.85	6338.17
435.03	6324.13
435.22	6256.25
435.41	6441.15
435.59	6354.55
435.78	6509.03
435.97	6469.24
436.16	6478.60
436.34	6377.96
436.53	6450.52
436.72	6860.11
436.90	6597.97
437.09	6586.27
437.28	6558.18
437.46	6471.58
437.65	6663.51
437.84	6766.49
438.02	6656.48
438.21	6700.95
438.40	6867.13
438.58	6857.77
438.77	6937.35
438.96	7030.97
439.14	7253.32
439.33	7164.38
439.52	7138.63
439.70	7332.90
439.89	7414.82
440.08	7562.27
440.26	7501.42
440.45	7426.52
440.63	7482.69
440.82	7627.81
441.01	7576.31
441.19	7644.19
441.38	7819.73
441.57	7686.32
441.75	7779.94
441.94	8091.23
442.12	8051.44
442.31	8105.28
442.50	8049.10
442.68	7960.16
442.87	8156.77
443.05	8037.40
443.24	8077.19
443.43	7967.18
443.61	8187.19
443.80	8578.06
443.98	8271.45
444.17	7854.84
444.35	8042.08
444.54	8484.44
444.73	8379.12
444.91	8196.56
445.10	8194.22
445.28	8334.65
445.47	8334.65
445.65	8439.97
445.84	8545.30
446.02	8575.72
446.21	8699.77
446.39	8727.86
446.58	8479.76
446.77	8437.63
446.95	8437.63
447.14	8491.46
447.32	8676.37
447.51	8496.14
447.69	8521.89
447.88	8477.42
448.06	8533.59
448.25	8617.85
448.43	8549.98
448.62	8699.77
448.80	8613.17
448.99	8741.90
449.17	8561.68
449.36	8709.13
449.54	8870.63
449.73	9062.55
449.91	8973.61
450.10	8812.12
450.28	9359.80
450.46	9085.96
450.65	9146.81
450.83	9254.48
451.02	9078.94
451.20	9423.00
451.39	8919.78
451.57	9018.08
451.76	9275.54
451.94	9336.40
452.13	9551.73
452.31	9465.13
452.49	9324.69
452.68	9383.21
452.86	9202.99
453.05	9689.82
453.23	9568.11
453.42	9563.43
453.60	9179.58
453.78	9631.30
453.97	9575.13
454.15	9509.60
454.34	9399.59
454.52	9671.09
454.70	9764.72
454.89	9469.81
455.07	9907.49
455.26	9802.16
455.44	9844.29
455.62	9919.19
455.81	9958.98
455.99	9930.89
456.17	9937.91
456.36	10017.49
456.54	10263.25
456.73	10167.29
456.91	10452.83
457.09	10492.62
457.28	10604.97
457.46	10396.66
457.64	10600.29
457.83	10546.45
458.01	10424.75
458.19	10808.59
458.38	10560.50
458.56	10846.04
458.74	10785.19
458.93	10717.31
459.11	10717.31
459.29	10768.80
459.48	10949.03
459.66	10824.98
459.84	11138.61
460.03	11342.24
460.21	11110.52
460.39	10988.82
460.57	11080.10
460.76	11070.73
460.94	11110.52
461.12	11077.76
461.31	11557.57
461.49	11248.61
461.67	11199.46
461.85	11609.06
462.04	11435.86
462.22	11396.07
462.40	11861.84
462.59	11660.55
462.77	11716.72
462.95	11492.03
463.13	11707.36
463.32	11639.48
463.50	11744.81
463.68	11775.24
463.86	11815.02
464.05	11719.06
464.23	11595.01
464.41	12114.61
464.59	11620.76
464.78	12119.29
464.96	11978.86
465.14	11915.67
465.32	12072.48
465.50	12187.17
465.69	12329.94
465.87	12121.63
466.05	12065.46
466.23	12053.76
466.41	12238.66
466.60	12435.27
466.78	12018.65
466.96	12400.16
467.14	12528.89
467.32	12437.61
467.51	12545.27
467.69	12243.34
467.87	12542.93
468.05	12627.19
468.23	12461.01
468.41	12442.29
468.60	12758.26
468.78	12685.70
468.96	12564.00
469.14	13043.81
469.32	13144.45
469.50	12776.98
469.69	13046.15
469.87	13067.21
470.05	13198.28
470.23	13207.64
470.41	13118.70
470.59	13486.17
470.77	13121.04
470.95	13401.91
471.14	13392.55
471.32	13256.79
471.50	13813.84
471.68	13610.22
471.86	13654.69
472.04	13680.43
472.22	14214.07
472.40	13851.29
472.58	13980.02
472.77	13961.30
472.95	14216.41
473.13	14682.18
473.31	14427.06
473.49	14155.56
473.67	14281.95
473.85	14288.97
474.03	14778.14
474.21	14682.18
474.39	14771.12
474.57	14930.28
474.75	14916.23
474.93	15297.74
475.12	14918.57
475.30	15302.42
475.48	14993.47
475.66	15431.15
475.84	15171.35
476.02	15658.18
476.20	15295.40
476.38	15763.51
476.56	16236.30
476.74	16149.70
476.92	16135.65
477.10	16189.49
477.28	16177.78
477.46	16498.44
477.64	16554.61
477.82	16491.41
478.00	16898.67
478.18	16858.88
478.36	16919.73
478.54	17263.79
478.72	17198.26
478.90	17755.30
479.08	17687.43
479.26	18047.87
479.44	17528.27
479.62	18274.90
479.80	18499.59
479.98	18291.29
480.16	18518.32
480.34	18260.86
480.52	18874.08
480.70	18953.66
480.88	18530.02
481.06	18604.92
481.24	18780.46
481.41	19353.89
481.59	19543.47
481.77	19714.33
481.95	19491.98
482.13	19880.51
482.31	19716.67
482.49	20173.08
482.67	20423.51
482.85	20561.61
483.03	20837.79
483.21	21018.01
483.39	21212.28
483.57	21067.16
483.74	21216.96
483.92	21617.19
484.10	21149.08
484.28	22143.81
484.46	21830.18
484.64	22111.04
484.82	21986.99
485.00	22799.16
485.18	22794.48
485.35	22869.37
485.53	23044.91
485.71	23316.42
485.89	23747.08
486.07	23463.87
486.25	23714.31
486.43	23763.46
486.61	24077.09
486.78	24285.40
486.96	23943.68
487.14	24360.30
487.32	24772.23
487.50	25020.33
487.68	24950.11
487.85	25385.45
488.03	25949.52
488.21	26225.70
488.39	26305.28
488.57	26127.40
488.75	26464.44
488.92	26593.17
489.10	26897.44
489.28	27150.21
489.46	27267.24
489.64	27030.85
489.81	27702.58
489.99	27873.44
490.17	28039.62
490.35	28407.08
490.53	28280.69
490.70	28582.62
490.88	28175.37
491.06	29062.43
491.24	29067.11
491.41	29532.88
491.59	29296.49
491.77	29656.93
491.95	29809.06
492.13	30071.20
492.30	30174.19
492.48	30384.83
492.66	30539.31
492.84	30380.15
493.01	30960.61
493.19	31026.14
493.37	31204.02
493.54	31461.48
493.72	31447.44
493.90	31583.19
494.08	31985.76
494.25	32154.28
494.43	32299.39
494.61	32638.77
494.79	32650.47
494.96	32678.56
495.14	33146.67
495.32	32982.83
495.49	33228.59
495.67	33336.25
495.85	33582.01
496.02	34045.43
496.20	33888.62
496.38	33951.81
496.55	34176.50
496.73	35229.74
496.91	34796.74
497.09	34813.13
497.26	35445.07
497.44	35175.91
497.62	35735.30
497.79	35910.84
497.97	35747.00
498.14	36128.51
498.32	36240.86
498.50	36575.55
498.67	36755.77
498.85	36636.41
499.03	36744.07
499.20	37242.60
499.38	37130.26
499.56	37188.77
499.73	37284.73
499.91	37888.59
500.08	37872.21
500.26	37509.43
500.44	38057.11
500.61	38291.16
500.79	38188.18
500.97	38499.47
501.14	38672.67
501.32	38724.16
501.49	39072.90
501.67	38958.22
501.84	39189.93
502.02	39103.33
502.20	39028.43
502.37	39243.76
502.55	39573.78
502.72	39974.01
502.90	39648.68
503.07	39812.51
503.25	39770.38
503.43	40121.46
503.60	40704.26
503.78	40453.82
503.95	40266.58
504.13	40882.14
504.30	40772.13
504.48	40692.55
504.65	41013.21
504.83	41467.27
505.01	41310.46
505.18	41368.97
505.36	41813.67
505.53	41455.57
505.71	41647.49
505.88	42157.73
506.06	41591.32
506.23	42106.24
506.41	42071.13
506.58	42466.68
506.76	42040.70
506.93	42974.58
507.11	42773.29
507.28	42714.78
507.46	43346.72
507.63	42836.48
507.81	43012.02
507.98	43021.39
508.16	43217.99
508.33	43660.35
508.50	43449.70
508.68	43835.89
508.85	44039.52
509.03	44636.36
509.20	43889.73
509.38	44641.04
509.55	44669.12
509.73	45240.21
509.90	45113.83
510.08	45036.59
510.25	45191.06
510.42	44978.07
510.60	45207.45
510.77	45432.14
510.95	45497.67
511.12	45375.97
511.30	45631.08
511.47	46017.27
511.64	45893.22
511.82	45818.33
511.99	45937.69
512.17	46124.94
512.34	45853.44
512.51	46646.88
512.69	46658.58
512.86	46347.29
513.04	46941.78
513.21	46752.20
513.38	46909.02
513.56	46960.51
513.73	46955.83
513.90	47014.34
514.08	47009.66
514.25	47559.69
514.43	47723.52
514.60	47828.85
514.77	47533.94
514.95	47805.44
515.12	47641.60
515.29	47730.54
515.47	48135.46
515.64	48018.43
515.81	48383.55
515.99	48636.33
516.16	48896.13
516.33	48683.14
516.51	49015.50
516.68	48816.55
516.85	48442.07
517.03	48889.11
517.20	49450.84
517.37	48692.50
517.54	48617.61
517.72	48912.52
517.89	49415.73
518.06	49352.54
518.24	49457.86
518.41	49422.75
518.58	49558.50
518.75	49289.34
518.93	49940.01
519.10	49909.58
519.27	50017.25
519.45	49925.97
519.62	50216.19
519.79	49932.99
519.96	50389.39
520.14	50211.51
520.31	50192.79
520.48	50740.47
520.65	50735.79
520.83	50586.00
521.00	51304.54
521.17	50602.38
521.34	50754.52
521.52	51086.87
521.69	51129.00
521.86	51349.01
522.03	51098.58
522.20	51737.54
522.38	51943.51
522.55	51910.74
522.72	51409.87
522.89	51620.52
523.07	51948.19
523.24	51777.33
523.41	52093.30
523.58	51683.71
523.75	52086.28
523.92	51969.26
524.10	52350.76
524.27	52119.05
524.44	52369.49
524.61	52402.25
524.78	52465.45
524.96	52325.02
525.13	52528.64
525.30	52704.18
525.47	52552.05
525.64	52776.74
525.81	52842.27
525.98	53029.52
526.16	52849.30
526.33	52685.46
526.50	53106.76
526.67	52685.46
526.84	53104.41
527.01	53134.84
527.18	53331.45
527.36	52917.17
527.53	53230.80
527.70	53432.09
527.87	53272.93
528.04	53488.26
528.21	53549.12
528.38	53378.26
528.55	53834.66
528.72	53464.86
528.89	53532.73
529.07	53385.28
529.24	53457.84
529.41	54141.27
529.58	53752.74
529.75	53673.16
529.92	53975.09
530.09	53996.16
530.26	53928.28
530.43	54045.31
530.60	53928.28
530.77	53745.72
530.94	54356.60
531.11	54248.94
531.28	54197.44
531.46	54218.51
531.63	54391.71
531.80	54520.44
531.97	54534.48
532.14	54829.39
532.31	54703.00
532.48	54904.29
532.65	54775.56
532.82	54618.74
532.99	54789.60
533.16	54803.64
533.33	55030.68
533.50	55119.62
533.67	55040.04
533.84	54951.10
534.01	55072.81
534.18	55054.08
534.35	55510.49
534.52	55180.47
534.69	55365.37
534.86	55456.65
535.03	55426.23
535.20	55334.95
535.37	55622.83
535.54	55693.05
535.71	55458.99
535.88	55470.70
536.05	55599.43
536.22	55590.06
536.38	55807.73
536.55	55700.07
536.72	55873.27
536.89	55711.77
537.06	55756.24
537.23	55831.14
537.40	55758.58
537.57	56009.02
537.74	55973.91
537.91	56142.43
538.08	56135.41
538.25	55842.84
538.42	55929.44
538.59	56212.65
538.75	56140.09
538.92	56367.12
539.09	56509.89
539.26	56479.47
539.43	56296.91
539.60	56608.20
539.77	56158.81
539.94	56449.04
540.11	56451.38
540.28	56477.13
540.44	56587.13
540.61	56624.58
540.78	56690.12
540.95	56556.70
541.12	56458.40
541.29	56619.90
541.46	56657.35
541.62	56622.24
541.79	56868.00
541.96	56514.58
542.13	56875.02
542.30	56694.80
542.47	56982.68
542.63	57041.20
542.80	57209.71
542.97	57389.94
543.14	57350.15
543.31	57249.50
543.48	57188.65
543.64	57446.11
543.81	57628.67
543.98	57216.74
544.15	57502.28
544.32	57509.30
544.48	57911.88
544.65	57413.34
544.82	57612.29
544.99	57415.68
545.16	57722.29
545.32	57343.12
545.49	57998.48
545.66	57822.93
545.83	57879.11
546.00	57815.91
546.16	57750.38
546.33	57778.46
546.50	57560.79
546.67	57776.12
546.83	57813.57
547.00	58024.22
547.17	57612.29
547.34	57851.02
547.50	58286.36
547.67	58274.66
547.84	58293.38
548.00	58323.81
548.17	58473.60
548.34	58108.48
548.51	58445.52
548.67	58291.04
548.84	58365.94
549.01	58305.09
549.18	58181.04
549.34	58438.50
549.51	58590.63
549.68	58576.59
549.84	58581.27
550.01	58665.53
550.18	58384.66
550.34	58452.54
550.51	58848.09
550.68	58426.79
550.84	58398.71
551.01	58688.93
551.18	58801.28
551.34	58637.44
551.51	58674.89
551.68	58862.13
551.84	58681.91
552.01	58557.86
552.18	58817.66
552.34	58604.67
552.51	58834.05
552.68	58628.08
552.84	58859.79
553.01	58946.39
553.18	59100.87
553.34	58927.67
553.51	59054.06
553.67	58887.88
553.84	59150.02
554.01	59262.36
554.17	59159.38
554.34	59159.38
554.51	59325.56
554.67	59056.40
554.84	59107.89
555.00	59260.02
555.17	58841.07
555.33	59192.15
555.50	59185.13
555.67	59091.51
555.83	59173.42
556.00	59337.26
556.16	59568.97
556.33	59428.54
556.50	59227.26
556.66	59618.13
556.83	59379.39
556.99	59517.48
557.16	59721.11
557.32	59468.33
557.49	59650.89
557.65	59435.56
557.82	59468.33
557.98	59648.55
558.15	59671.96
558.32	59533.87
558.48	59494.08
558.65	59531.53
558.81	59447.27
558.98	59657.91
559.14	59901.33
559.31	59763.24
559.47	59821.75
559.64	59849.84
559.80	59765.58
559.97	59868.56
560.13	59655.57
560.30	59662.60
560.46	59877.93
560.63	59976.23
560.79	59763.24
560.96	60151.77
561.12	59976.23
561.29	59906.01
561.45	59845.16
561.61	59941.12
561.78	60030.06
561.94	59990.27
562.11	59896.65
562.27	60240.71
562.44	59938.78
562.60	60233.69
562.77	60205.60
562.93	59997.29
563.10	60179.85
563.26	60074.53
563.42	60306.24
563.59	60133.04
563.75	59992.61
563.92	60027.72
564.08	60053.47
564.24	60404.55
564.41	60058.15
564.57	60411.57
564.74	60261.77
564.90	60268.79
565.07	60088.57
565.23	60299.22
565.39	60032.40
565.56	60488.80
565.72	60402.21
565.88	60425.61
566.05	60329.65
566.21	60264.11
566.38	60196.24
566.54	60507.53
566.70	60636.26
566.87	60619.88
567.03	60289.86
567.19	60542.64
567.36	60458.38
567.52	60381.14
567.68	60790.73
567.85	60449.02
568.01	60516.89
568.17	60348.37
568.34	60533.28
568.50	60500.51
568.66	60491.15
568.83	60460.72
568.99	60498.17
569.15	60640.94
569.32	60596.47
569.48	60552.00
569.64	60725.20
569.81	60432.63
569.97	60580.09
570.13	60610.51
570.30	60561.36
570.46	60713.50
570.62	60856.27
570.78	60631.58
570.95	60488.80
571.11	60507.53
571.27	60662.00
571.43	60570.72
571.60	60739.24
571.76	60736.90
571.92	60718.18
572.09	60809.46
572.25	60739.24
572.41	60594.13
572.57	60720.52
572.74	61071.60
572.90	60846.91
573.06	60884.36
573.22	60788.39
573.38	60896.06
573.55	60863.29
573.71	60865.63
573.87	60867.97
574.03	60603.49
574.20	60725.20
574.36	60914.78
574.52	60931.17
574.68	60879.67
574.84	60994.36
575.01	60933.51
575.17	60750.94
575.33	60776.69
575.49	60842.23
575.65	61148.84
575.82	60917.12
575.98	60905.42
576.14	60973.30
576.30	61010.74
576.46	61062.24
576.62	60910.10
576.79	60872.65
576.95	60893.72
577.11	60919.46
577.27	61144.16
577.43	60954.57
577.59	60853.93
577.75	60828.18
577.92	60807.12
578.08	60832.86
578.24	61031.81
578.40	61043.51
578.56	61298.63
578.72	60757.97
578.88	60898.40
579.04	61293.95
579.21	61130.11
579.37	61127.77
579.53	61279.91
579.69	60746.26
579.85	60835.20
580.01	60994.36
580.17	60659.66
580.33	60980.32
580.49	60977.98
580.65	61055.21
580.82	60865.63
580.98	60945.21
581.14	60928.83
581.30	61162.88
581.46	60942.87
581.62	61010.74
581.78	61017.77
581.94	61127.77
582.10	60914.78
582.26	60891.38
582.42	61137.13
582.58	61038.83
582.74	60940.53
582.90	61034.15
583.06	61048.19
583.22	60966.27
583.38	61109.05
583.54	61153.52
583.70	61113.73
583.86	61272.88
584.02	61055.21
584.18	61265.86
584.34	61034.15
584.50	61073.94
584.66	61090.32
584.82	61095.00
584.98	61265.86
585.14	61303.31
585.30	61162.88
585.46	61209.69
585.62	61174.58
585.78	60935.85
585.94	61050.53
586.10	61099.68
586.26	61151.18
586.42	61368.85
586.58	61174.58
586.74	61169.90
586.90	61055.21
587.06	61106.71
587.22	61214.37
587.38	61212.03
587.54	61415.66
587.70	61455.45
587.86	61179.26
588.02	61165.22
588.18	61214.37
588.34	61078.62
588.49	61153.52
