SpectraSuite Data File
++++++++++++++++++++++++++++++++++++
Date: Fri Oct 25 11:23:19 EDT 2013
User: price-jones
Dark Spectrum Present: No
Reference Spectrum Present: No
Number of Sampled Component Spectra: 1
Spectrometers: USB2+H05261
Integration Time (usec): 100000 (USB2+H05261)
Spectra Averaged: 1 (USB2+H05261)
Boxcar Smoothing: 0 (USB2+H05261)
Correct for Electrical Dark: No (USB2+H05261)
Strobe/Lamp Enabled: No (USB2+H05261)
Correct for Detector Non-linearity: No (USB2+H05261)
Correct for Stray Light: No (USB2+H05261)
Number of Pixels in Processed Spectrum: 2048
>>>>>Begin Processed Spectral Data<<<<<
365.73	227.03
365.92	227.03
366.12	227.03
366.32	154.48
366.52	198.95
366.72	203.63
366.91	84.26
367.11	117.03
367.31	53.83
367.51	126.39
367.70	124.05
367.90	91.28
368.10	161.50
368.30	128.73
368.49	98.30
368.69	184.90
368.89	201.29
369.09	166.18
369.28	140.43
369.48	187.24
369.68	234.05
369.87	177.88
370.07	222.35
370.27	224.69
370.47	346.40
370.66	559.39
370.86	566.41
371.06	678.76
371.25	641.31
371.45	624.92
371.65	685.78
371.84	650.67
372.04	664.71
372.24	690.46
372.44	744.29
372.63	730.25
372.83	709.18
373.03	697.48
373.22	709.18
373.42	800.46
373.62	791.10
373.81	727.91
374.01	828.55
374.21	833.23
374.40	786.42
374.60	851.96
374.79	748.97
374.99	821.53
375.19	868.34
375.38	821.53
375.58	856.64
375.78	915.15
375.97	880.04
376.17	908.13
376.37	784.08
376.56	889.40
376.76	896.43
376.95	861.32
377.15	917.49
377.35	819.19
377.54	856.64
377.74	908.13
377.93	863.66
378.13	875.36
378.33	947.92
378.52	936.21
378.72	1027.50
378.91	987.71
379.11	990.05
379.31	929.19
379.50	933.87
379.70	992.39
379.89	978.34
380.09	943.24
380.28	1008.77
380.48	964.30
380.68	976.00
380.87	1060.26
381.07	1032.18
381.26	1139.84
381.46	1057.92
381.65	1008.77
381.85	1006.43
382.04	1039.20
382.24	1043.88
382.43	1083.67
382.63	1055.58
382.83	985.37
383.02	1060.26
383.22	1057.92
383.41	1137.50
383.61	1146.86
383.80	1137.50
384.00	1076.65
384.19	1020.47
384.39	1132.82
384.58	1165.59
384.78	1142.18
384.97	1174.95
385.17	1193.67
385.36	1273.25
385.56	1144.52
385.75	1163.25
385.95	1116.44
386.14	1252.19
386.34	1214.74
386.53	1207.72
386.72	1170.27
386.92	1210.06
387.11	1240.48
387.31	1179.63
387.50	1153.88
387.70	1228.78
387.89	1226.44
388.09	1174.95
388.28	1291.98
388.48	1238.14
388.67	1193.67
388.86	1404.32
389.06	1338.79
389.25	1371.55
389.45	1348.15
389.64	1357.51
389.84	1404.32
390.03	1378.58
390.22	1448.79
390.42	1401.98
390.61	1390.28
390.81	1460.49
391.00	1409.00
391.19	1465.18
391.39	1584.54
391.58	1451.13
391.78	1483.90
391.97	1537.73
392.16	1488.58
392.36	1481.56
392.55	1458.15
392.75	1612.63
392.94	1488.58
393.13	1493.26
393.33	1551.78
393.52	1528.37
393.71	1521.35
393.91	1593.90
394.10	1596.25
394.29	1643.06
394.49	1516.67
394.68	1668.80
394.88	1657.10
395.07	1680.50
395.26	1708.59
395.46	1586.88
395.65	1727.32
395.84	1722.63
396.04	1785.83
396.23	1795.19
396.42	1743.70
396.62	1753.06
396.81	1767.10
397.00	1764.76
397.19	1802.21
397.39	1853.70
397.58	1790.51
397.77	1853.70
397.97	1788.17
398.16	1870.09
398.35	1921.58
398.55	1954.35
398.74	1846.68
398.93	1891.15
399.12	1956.69
399.32	1963.71
399.51	1942.64
399.70	1942.64
399.90	1984.77
400.09	1954.35
400.28	2038.61
400.47	2083.08
400.67	2092.44
400.86	2038.61
401.05	2008.18
401.24	2071.37
401.44	2162.66
401.63	2188.40
401.82	2085.42
402.01	2076.06
402.21	2214.15
402.40	2235.21
402.59	2207.13
402.78	2333.51
402.97	2186.06
403.17	2221.17
403.36	2275.00
403.55	2282.02
403.74	2277.34
403.93	2335.85
404.13	2370.96
404.32	2415.43
404.51	2289.04
404.70	2443.52
404.89	2499.69
405.09	2544.16
405.28	2476.29
405.47	2541.82
405.66	2401.39
405.85	2541.82
406.05	2525.44
406.24	2642.46
406.43	2595.65
406.62	2736.09
406.81	2651.83
407.00	2614.38
407.20	2551.18
407.39	2672.89
407.58	2813.32
407.77	2698.64
407.96	2773.53
408.15	2679.91
408.34	2698.64
408.54	2794.60
408.73	2853.11
408.92	2794.60
409.11	2953.76
409.30	2995.89
409.49	2949.08
409.68	2986.52
409.87	2956.10
410.07	2979.50
410.26	3009.93
410.45	3005.25
410.64	3112.91
410.83	3049.72
411.02	3033.33
411.21	3215.90
411.40	3129.30
411.59	3119.93
411.78	3236.96
411.98	3258.03
412.17	3384.41
412.36	3211.22
412.55	3431.23
412.74	3445.27
412.93	3426.54
413.12	3316.54
413.31	3541.23
413.50	3583.36
413.69	3541.23
413.88	3655.92
414.07	3681.66
414.26	3630.17
414.45	3688.68
414.64	3660.60
414.83	3681.66
415.02	3768.26
415.22	3906.35
415.41	3913.38
415.60	3829.12
415.79	4011.68
415.98	4091.26
416.17	4016.36
416.36	3962.53
416.55	4086.58
416.74	4138.07
416.93	3995.29
417.12	4180.20
417.31	4266.80
417.50	4222.33
417.69	4215.30
417.88	4255.09
418.07	4360.42
418.26	4479.79
418.45	4468.08
418.64	4493.83
418.83	4449.36
419.02	4437.66
419.21	4620.22
419.39	4493.83
419.58	4568.73
419.77	4355.74
419.96	4662.35
420.15	4699.80
420.34	4603.83
420.53	4683.41
420.72	4720.86
420.91	4739.58
421.10	4791.08
421.29	4821.50
421.48	4711.50
421.67	4781.71
421.86	4727.88
422.05	4760.65
422.24	5006.41
422.43	4966.62
422.61	4947.89
422.80	5116.41
422.99	4873.00
423.18	5050.88
423.37	5095.35
423.56	5013.43
423.75	4938.53
423.94	4908.10
424.13	4655.33
424.32	4966.62
424.50	5036.83
424.69	5240.46
424.88	5036.83
425.07	4990.02
425.26	4990.02
425.45	5085.98
425.64	4999.38
425.83	5013.43
426.01	5167.90
426.20	5081.30
426.39	5083.64
426.58	5081.30
426.77	5109.39
426.96	5273.23
427.15	5085.98
427.33	5298.97
427.52	5193.65
427.71	5289.61
427.90	5235.78
428.09	5392.59
428.28	5472.17
428.46	5537.71
428.65	5348.12
428.84	5397.28
429.03	5579.84
429.22	5373.87
429.40	5516.64
429.59	5563.45
429.78	5369.19
429.97	5277.91
430.16	5547.07
430.34	5804.53
430.53	5659.42
430.72	5678.14
430.91	5593.88
431.10	5729.63
431.28	5781.12
431.47	5909.85
431.66	5872.40
431.85	5715.59
432.03	6076.03
432.22	5973.05
432.41	5949.64
432.60	6047.94
432.79	5940.28
432.97	6064.33
433.16	5863.04
433.35	5982.41
433.54	6146.25
433.72	6274.98
433.91	6270.30
434.10	6134.54
434.28	6143.91
434.47	6104.12
434.66	6300.72
434.85	6392.00
435.03	6450.52
435.22	6274.98
435.41	6614.35
435.59	6384.98
435.78	6352.21
435.97	6356.90
436.16	6541.80
436.34	6417.75
436.53	6747.76
436.72	6757.13
436.90	6574.56
437.09	6759.47
437.28	6520.73
437.46	6651.80
437.65	6569.88
437.84	6853.09
438.02	6764.15
438.21	6876.49
438.40	6864.79
438.58	7035.65
438.77	7225.23
438.96	6822.66
439.14	7255.66
439.33	7089.48
439.52	7255.66
439.70	7211.19
439.89	7353.96
440.08	7461.63
440.26	7391.41
440.45	7449.93
440.63	7658.23
440.82	7660.57
441.01	7578.65
441.19	7784.62
441.38	7854.84
441.57	7840.79
441.75	7723.77
441.94	8131.02
442.12	8016.33
442.31	8147.40
442.50	8191.88
442.68	7985.91
442.87	7969.52
443.05	8252.73
443.24	8318.26
443.43	8140.38
443.61	8252.73
443.80	8561.68
443.98	8135.70
444.17	8013.99
444.35	8201.24
444.54	8346.35
444.73	8339.33
444.91	8484.44
445.10	8381.46
445.28	8463.38
445.47	8334.65
445.65	8388.48
445.84	8568.70
446.02	8596.79
446.21	8278.47
446.39	8542.96
446.58	8404.86
446.77	8451.67
446.95	8215.28
447.14	8634.24
447.32	8734.88
447.51	8624.87
447.69	8521.89
447.88	8599.13
448.06	8526.57
448.25	8601.47
448.43	8727.86
448.62	8791.05
448.80	8704.45
448.99	8917.44
449.17	8777.01
449.36	8697.43
449.54	9043.83
449.73	9050.85
449.91	9137.45
450.10	9004.04
450.28	9137.45
450.46	9071.92
450.65	9207.67
450.83	9107.02
451.02	9053.19
451.20	9177.24
451.39	9139.79
451.57	9312.99
451.76	9102.34
451.94	9287.25
452.13	9434.70
452.31	9350.44
452.49	9334.06
452.68	9383.21
452.86	9481.51
453.05	9380.87
453.23	9657.05
453.42	9350.44
453.60	9380.87
453.78	9554.07
453.97	9687.48
454.15	9645.35
454.34	9458.10
454.52	9724.93
454.70	9755.35
454.89	9823.23
455.07	9912.17
455.26	9797.48
455.44	10190.69
455.62	9935.57
455.81	9909.83
455.99	10026.86
456.17	10083.03
456.36	10183.67
456.54	10195.37
456.73	10541.77
456.91	10576.88
457.09	10665.82
457.28	10611.99
457.46	10436.45
457.64	10530.07
457.83	10796.89
458.01	10590.92
458.19	10846.04
458.38	10445.81
458.56	10942.00
458.74	10541.77
458.93	10778.17
459.11	10672.84
459.29	10813.28
459.48	11040.31
459.66	10750.08
459.84	10995.84
460.03	11129.25
460.21	10934.98
460.39	11019.24
460.57	10925.62
460.76	11265.00
460.94	11218.19
461.12	11279.04
461.31	11246.27
461.49	11485.01
461.67	11222.87
461.85	11576.29
462.04	11414.79
462.22	11712.04
462.40	11824.39
462.59	11604.38
462.77	11763.53
462.95	11946.09
463.13	11548.20
463.32	11751.83
463.50	11903.96
463.68	11803.32
463.86	11915.67
464.05	11826.73
464.23	11857.15
464.41	12032.69
464.59	11775.24
464.78	12049.08
464.96	11910.99
465.14	12037.38
465.32	12243.34
465.50	12060.78
465.69	12243.34
465.87	12308.88
466.05	12271.43
466.23	12315.90
466.41	12224.62
466.60	12638.89
466.78	12280.79
466.96	12290.15
467.14	12430.59
467.32	12367.39
467.51	12524.21
467.69	12512.50
467.87	12784.01
468.05	12762.94
468.23	12439.95
468.41	12599.10
468.60	12748.90
468.78	13186.58
468.96	12793.37
469.14	12987.63
469.32	12954.87
469.50	12706.77
469.69	13074.23
469.87	13214.66
470.05	13291.90
470.23	13214.66
470.41	13195.94
470.59	13308.29
470.77	13399.57
470.95	13149.13
471.14	13537.66
471.32	13186.58
471.50	13633.62
471.68	13774.05
471.86	13944.91
472.04	13902.78
472.22	14061.94
472.40	13867.67
472.58	13806.82
472.77	14401.32
472.95	14153.22
473.13	14897.51
473.31	14443.45
473.49	14424.72
473.67	14295.99
473.85	14422.38
474.03	14787.50
474.21	14815.59
474.39	14757.08
474.57	14714.95
474.75	14949.00
474.93	15152.63
475.12	15194.76
475.30	15538.82
475.48	15089.43
475.66	15403.07
475.84	15442.85
476.02	15403.07
476.20	15782.23
476.38	15690.95
476.56	16102.89
476.74	15915.64
476.92	16208.21
477.10	15868.83
477.28	16336.94
477.46	16386.09
477.64	16367.37
477.82	16720.79
478.00	16989.95
478.18	16903.35
478.36	16926.75
478.54	17188.89
478.72	17404.22
478.90	17734.24
479.08	17680.41
479.26	17589.13
479.44	18019.78
479.62	18038.51
479.80	18108.72
479.98	18237.45
480.16	18637.69
480.34	18572.15
480.52	18916.21
480.70	18794.50
480.88	18593.22
481.06	18803.86
481.24	18696.20
481.41	19311.76
481.59	19693.27
481.77	19887.53
481.95	19946.05
482.13	19967.11
482.31	20060.73
482.49	20353.30
482.67	20271.38
482.85	20580.33
483.03	20781.62
483.21	21046.10
483.39	21015.67
483.57	21036.74
483.74	21331.64
483.92	21504.84
484.10	21544.63
484.28	22061.89
484.46	21942.52
484.64	22544.04
484.82	22228.07
485.00	22487.87
485.18	22951.29
485.35	22885.76
485.53	23140.88
485.71	23311.74
485.89	23688.56
486.07	23578.56
486.25	23552.81
486.43	23943.68
486.61	23814.95
486.78	24163.69
486.96	24414.13
487.14	24964.15
487.32	24919.68
487.50	25064.80
487.68	25127.99
487.85	25277.79
488.03	25427.58
488.21	26139.10
488.39	25844.20
488.57	26347.41
488.75	26682.11
488.92	26785.09
489.10	27152.55
489.28	26991.06
489.46	27372.57
489.64	27536.40
489.81	27847.69
489.99	27852.38
490.17	28041.96
490.35	28458.57
490.53	28807.31
490.70	28683.27
490.88	28460.91
491.06	29209.89
491.24	29160.73
491.41	29078.82
491.59	29488.41
491.77	29596.07
491.95	30312.28
492.13	29949.50
492.30	30443.35
492.48	30459.73
492.66	30845.92
492.84	30520.59
493.01	31140.83
493.19	31063.59
493.37	31126.78
493.54	31400.63
493.72	31688.51
493.90	31899.16
494.08	31964.70
494.25	32584.94
494.43	32463.23
494.61	32793.25
494.79	32844.74
494.96	32851.76
495.14	33113.90
495.32	33156.03
495.49	33778.61
495.67	33832.44
495.85	33867.55
496.02	33584.35
496.20	34288.85
496.38	34436.30
496.55	34513.54
496.73	35278.89
496.91	34572.05
497.09	35178.25
497.26	34810.79
497.44	35271.87
497.62	35559.76
497.79	35929.56
497.97	35835.94
498.14	36208.09
498.32	36610.66
498.50	36123.83
498.67	36814.29
498.85	36711.30
499.03	37165.37
499.20	36774.50
499.38	37132.60
499.56	37235.58
499.73	37752.84
499.91	37509.43
500.08	37902.64
500.26	37783.27
500.44	38089.88
500.61	38209.25
500.79	38227.97
500.97	38265.42
501.14	38880.98
501.32	38876.30
501.49	38794.38
501.67	39150.14
501.84	39431.01
502.02	39028.43
502.20	39566.76
502.37	39325.68
502.55	39798.47
502.72	39414.62
502.90	40224.45
503.07	39880.39
503.25	40690.21
503.43	40168.27
503.60	40163.59
503.78	40390.62
503.95	40240.83
504.13	41202.79
504.30	41289.39
504.48	40774.47
504.65	41598.34
504.83	41280.03
505.01	41780.90
505.18	41504.72
505.36	41965.81
505.53	41434.50
505.71	42457.32
505.88	42504.13
506.06	41572.60
506.23	42611.79
506.41	42003.25
506.58	42375.40
506.76	43014.37
506.93	42855.21
507.11	42604.77
507.28	43058.84
507.46	43435.66
507.63	43466.09
507.81	43849.94
507.98	43295.23
508.16	43220.33
508.33	43889.73
508.50	43576.09
508.68	44179.95
508.85	44095.69
509.03	44395.28
509.20	44671.46
509.38	44727.64
509.55	44781.47
509.73	44884.45
509.90	44837.64
510.08	45008.50
510.25	44720.62
510.42	44947.65
510.60	45422.78
510.77	45982.16
510.95	46314.52
511.12	45659.17
511.30	45757.47
511.47	45867.48
511.64	45872.16
511.82	46033.66
511.99	46295.80
512.17	46293.46
512.34	46115.58
512.51	46581.34
512.69	46831.78
512.86	46522.83
513.04	47056.47
513.21	47138.39
513.38	46897.31
513.56	47194.56
513.73	47360.74
513.90	47793.74
514.08	47192.22
514.25	47683.73
514.43	47744.59
514.60	47810.12
514.77	47763.31
514.95	48109.71
515.12	48020.77
515.29	47927.15
515.47	48505.26
515.64	48594.20
515.81	48313.34
515.99	48229.08
516.16	48978.05
516.33	48673.78
516.51	49120.82
516.68	48842.30
516.85	49102.10
517.03	49052.95
517.20	49256.57
517.37	49137.21
517.54	49310.41
517.72	49336.15
517.89	49530.42
518.06	49593.61
518.24	49380.62
518.41	49806.60
518.58	49614.68
518.75	49432.11
518.93	50075.76
519.10	49741.06
519.27	50017.25
519.45	50199.81
519.62	50698.34
519.79	50251.30
519.96	50323.86
520.14	50501.74
520.31	50284.07
520.48	50674.94
520.65	50901.97
520.83	50925.38
521.00	51044.74
521.17	51171.13
521.34	51290.50
521.52	51262.41
521.69	51370.08
521.86	51482.42
522.03	51664.99
522.20	51770.31
522.38	51288.16
522.55	51636.90
522.72	51756.27
522.89	51805.42
523.07	51751.59
523.24	51938.83
523.41	51992.66
523.58	51910.74
523.75	52041.81
523.92	52165.86
524.10	52315.65
524.27	52130.75
524.44	52420.98
524.61	52317.99
524.78	52509.92
524.96	52135.43
525.13	52687.80
525.30	52753.33
525.47	52952.28
525.64	52807.17
525.81	53008.45
525.98	53081.01
526.16	53230.80
526.33	52931.22
526.50	53586.57
526.67	53015.47
526.84	52947.60
527.01	52734.61
527.18	53294.00
527.36	53478.90
527.53	53085.69
527.70	53661.46
527.87	53364.21
528.04	53284.64
528.21	54010.20
528.38	53773.81
528.55	54038.29
528.72	53668.48
528.89	53975.09
529.07	53886.15
529.24	53738.70
529.41	53991.48
529.58	53844.02
529.75	53677.85
529.92	53785.51
530.09	54401.07
530.26	54164.68
530.43	54227.87
530.60	54047.65
530.77	54375.33
530.94	54340.22
531.11	54244.26
531.28	54375.33
531.46	54557.89
531.63	54829.39
531.80	54499.37
531.97	54564.91
532.14	54756.83
532.31	54686.62
532.48	54911.31
532.65	54728.75
532.82	54616.40
532.99	54923.01
533.16	54885.56
533.33	54993.23
533.50	55306.86
533.67	54988.55
533.84	55136.00
534.01	55171.11
534.18	55419.20
534.35	55253.03
534.52	55356.01
534.69	55346.65
534.86	55437.93
535.03	55320.90
535.20	55587.72
535.37	55650.92
535.54	55683.69
535.71	55498.78
535.88	55585.38
536.05	55786.67
536.22	55721.13
536.38	55828.80
536.55	55980.93
536.72	55800.71
536.89	55908.38
537.06	55842.84
537.23	55903.70
537.40	55751.56
537.57	55955.19
537.74	56165.84
537.91	56226.69
538.08	56285.20
538.25	55931.78
538.42	56062.85
538.59	56484.15
538.75	56119.02
538.92	56460.74
539.09	56456.06
539.26	56435.00
539.43	56163.50
539.60	56619.90
539.77	56479.47
539.94	56690.12
540.11	56704.16
540.28	56666.71
540.44	56762.67
540.61	56486.49
540.78	56467.76
540.95	56577.77
541.12	56612.88
541.29	56732.25
541.46	56772.03
541.62	56617.56
541.79	56793.10
541.96	56809.48
542.13	56868.00
542.30	57003.75
542.47	57045.88
542.63	57148.86
542.80	57212.06
542.97	57336.10
543.14	57415.68
543.31	57254.18
543.48	57345.47
543.64	57654.42
543.81	57523.35
543.98	57623.99
544.15	57682.50
544.32	57853.36
544.48	57860.38
544.65	57593.56
544.82	57771.44
544.99	57701.23
545.16	57661.44
545.32	57649.74
545.49	58049.97
545.66	58038.26
545.83	57729.31
546.00	57844.00
546.16	58038.26
546.33	57724.63
546.50	57663.78
546.67	57944.64
546.83	57733.99
547.00	57986.77
547.17	58010.18
547.34	58080.39
547.50	58326.15
547.67	58379.98
547.84	58307.43
548.00	58269.98
548.17	58658.51
548.34	58176.36
548.51	58536.80
548.67	58300.40
548.84	58244.23
549.01	58379.98
549.18	58464.24
549.34	58518.07
549.51	58424.45
549.68	58497.01
549.84	58511.05
550.01	58445.52
550.18	58522.76
550.34	58773.19
550.51	58731.06
550.68	58754.47
550.84	58616.38
551.01	58695.95
551.18	58822.34
551.34	58529.78
551.51	58782.55
551.68	58885.54
551.84	58562.54
552.01	58621.06
552.18	58906.60
552.34	58829.37
552.51	58831.71
552.68	58859.79
552.84	58915.96
553.01	59028.31
553.18	59096.19
553.34	59040.01
553.51	59103.21
553.67	59159.38
553.84	59393.43
554.01	59231.94
554.17	59189.81
554.34	59269.39
554.51	59260.02
554.67	59302.15
554.84	59131.29
555.00	59442.59
555.17	59084.48
555.33	59395.77
555.50	59262.36
555.67	59227.26
555.83	59278.75
556.00	59180.45
556.16	59704.73
556.33	59491.74
556.50	59536.21
556.66	59625.15
556.83	59358.33
556.99	59700.04
557.16	59765.58
557.32	59763.24
557.49	59810.05
557.65	59632.17
557.82	59498.76
557.98	59700.04
558.15	59671.96
558.32	59758.56
558.48	59550.25
558.65	59749.20
558.81	59732.81
558.98	59730.47
559.14	59721.11
559.31	59859.20
559.47	59906.01
559.64	60058.15
559.80	59887.29
559.97	60044.10
560.13	59788.98
560.30	59814.73
560.46	60179.85
560.63	60065.17
560.79	60060.49
560.96	59882.61
561.12	60018.36
561.29	60236.03
561.45	60072.19
561.61	60097.94
561.78	59910.69
561.94	59927.08
562.11	60123.68
562.27	60093.25
562.44	59999.63
562.60	60275.82
562.77	60207.94
562.93	59997.29
563.10	60182.19
563.26	60126.02
563.42	60327.31
563.59	60041.76
563.75	60250.07
563.92	60205.60
564.08	60245.39
564.24	60434.97
564.41	60566.04
564.57	60512.21
564.74	60453.70
564.90	60402.21
565.07	60182.19
565.23	60177.51
565.39	60336.67
565.56	60364.76
565.72	60488.80
565.88	60479.44
566.05	60589.45
566.21	60383.48
566.38	60741.58
566.54	60514.55
566.70	60427.95
566.87	60533.28
567.03	60629.24
567.19	60816.48
567.36	60502.85
567.52	60509.87
567.68	60774.35
567.85	60636.26
568.01	60671.37
568.17	60563.70
568.34	60598.81
568.50	60587.11
568.66	60552.00
568.83	60526.25
568.99	60559.02
569.15	60554.34
569.32	60706.47
569.48	60640.94
569.64	60732.22
569.81	60743.92
569.97	60645.62
570.13	60626.90
570.30	60584.77
570.46	60743.92
570.62	60743.92
570.78	60769.67
570.95	60849.25
571.11	60874.99
571.27	60673.71
571.43	60793.07
571.60	60973.30
571.76	61022.45
571.92	60889.04
572.09	60825.84
572.25	60732.22
572.41	60846.91
572.57	61066.92
572.74	61034.15
572.90	60938.19
573.06	60931.17
573.22	60856.27
573.38	60844.57
573.55	60781.37
573.71	60987.34
573.87	60924.14
574.03	60697.11
574.20	60865.63
574.36	60872.65
574.52	60982.66
574.68	60870.31
574.84	60867.97
575.01	60959.25
575.17	60926.49
575.33	60907.76
575.49	60835.20
575.65	61261.18
575.82	60970.96
575.98	61118.41
576.14	61310.33
576.30	61219.05
576.46	60992.02
576.62	61104.37
576.79	60987.34
576.95	60977.98
577.11	60853.93
577.27	61092.66
577.43	61008.40
577.59	60977.98
577.75	61010.74
577.92	60949.89
578.08	61024.79
578.24	61120.75
578.40	61080.96
578.56	61230.75
578.72	60896.06
578.88	61207.35
579.04	61223.73
579.21	61167.56
579.37	61148.84
579.53	61099.68
579.69	60921.80
579.85	61069.26
580.01	60992.02
580.17	60921.80
580.33	61134.79
580.49	61048.19
580.65	61036.49
580.82	61172.24
580.98	61048.19
581.14	60963.93
581.30	61087.98
581.46	61141.81
581.62	61221.39
581.78	61329.06
581.94	61209.69
582.10	61006.06
582.26	61233.10
582.42	61153.52
582.58	61169.90
582.74	61057.56
582.90	61265.86
583.06	61268.20
583.22	61165.22
583.38	61195.65
583.54	61207.35
583.70	61200.33
583.86	61090.32
584.02	61043.51
584.18	61338.42
584.34	61340.76
584.50	61322.04
584.66	60987.34
584.82	61146.50
584.98	61303.31
585.14	61305.65
585.30	61027.13
585.46	61249.48
585.62	61361.82
585.78	61214.37
585.94	61027.13
586.10	61146.50
586.26	61127.77
586.42	61282.25
586.58	61256.50
586.74	61319.70
586.90	61055.21
587.06	61090.32
587.22	61429.70
587.38	61310.33
587.54	61300.97
587.70	61471.83
587.86	61385.23
588.02	61111.39
588.18	61499.92
588.34	61228.41
588.49	61216.71
