SpectraSuite Data File
++++++++++++++++++++++++++++++++++++
Date: Fri Oct 25 10:48:29 EDT 2013
User: price-jones
Dark Spectrum Present: No
Reference Spectrum Present: No
Number of Sampled Component Spectra: 1
Spectrometers: USB2+H05261
Integration Time (usec): 100000 (USB2+H05261)
Spectra Averaged: 1 (USB2+H05261)
Boxcar Smoothing: 0 (USB2+H05261)
Correct for Electrical Dark: No (USB2+H05261)
Strobe/Lamp Enabled: No (USB2+H05261)
Correct for Detector Non-linearity: No (USB2+H05261)
Correct for Stray Light: No (USB2+H05261)
Number of Pixels in Processed Spectrum: 2048
>>>>>Begin Processed Spectral Data<<<<<
365.73	224.69
365.92	224.69
366.12	224.69
366.32	70.22
366.52	35.11
366.72	58.51
366.91	0.00
367.11	46.81
367.31	0.00
367.51	35.11
367.70	72.56
367.90	46.81
368.10	51.49
368.30	14.04
368.49	35.11
368.69	77.24
368.89	18.72
369.09	0.00
369.28	72.56
369.48	56.17
369.68	105.32
369.87	145.11
370.07	88.94
370.27	208.31
370.47	238.73
370.66	451.72
370.86	465.77
371.06	423.64
371.25	510.24
371.45	465.77
371.65	500.87
371.84	498.53
372.04	484.49
372.24	550.03
372.44	645.99
372.63	507.90
372.83	564.07
373.03	528.96
373.22	547.69
373.42	500.87
373.62	587.47
373.81	636.63
374.01	547.69
374.21	559.39
374.40	575.77
374.60	521.94
374.79	571.09
374.99	547.69
375.19	554.71
375.38	634.29
375.58	535.98
375.78	683.44
375.97	585.13
376.17	648.33
376.37	608.54
376.56	641.31
376.76	629.60
376.95	634.29
377.15	690.46
377.35	608.54
377.54	688.12
377.74	697.48
377.93	755.99
378.13	744.29
378.33	739.61
378.52	676.41
378.72	716.20
378.91	690.46
379.11	732.59
379.31	706.84
379.50	699.82
379.70	697.48
379.89	709.18
380.09	690.46
380.28	653.01
380.48	763.01
380.68	671.73
380.87	631.94
381.07	688.12
381.26	678.76
381.46	774.72
381.65	641.31
381.85	709.18
382.04	664.71
382.24	713.86
382.43	746.63
382.63	697.48
382.83	737.27
383.02	772.38
383.22	725.57
383.41	847.27
383.61	706.84
383.80	772.38
384.00	837.91
384.19	770.04
384.39	781.74
384.58	809.83
384.78	812.17
384.97	908.13
385.17	805.14
385.36	854.30
385.56	772.38
385.75	791.10
385.95	905.79
386.14	926.85
386.34	830.89
386.53	784.08
386.72	882.38
386.92	947.92
387.11	924.51
387.31	912.81
387.50	901.11
387.70	926.85
387.89	957.28
388.09	905.79
388.28	856.64
388.48	966.64
388.67	924.51
388.86	854.30
389.06	929.19
389.25	987.71
389.45	992.39
389.64	964.30
389.84	1015.79
390.03	1015.79
390.22	917.49
390.42	1029.84
390.61	1001.75
390.81	1151.54
391.00	1029.84
391.19	1104.73
391.39	1128.14
391.58	1128.14
391.78	1139.84
391.97	1006.43
392.16	1107.07
392.36	1132.82
392.55	1015.79
392.75	1048.56
392.94	1055.58
393.13	929.19
393.33	1069.62
393.52	1076.65
393.71	1170.27
393.91	1146.86
394.10	1104.73
394.29	1214.74
394.49	1277.93
394.68	1184.31
394.88	1313.04
395.07	1249.85
395.26	1259.21
395.46	1299.00
395.65	1268.57
395.84	1196.01
396.04	1364.53
396.23	1226.44
396.42	1224.10
396.62	1203.04
396.81	1231.12
397.00	1212.40
397.19	1254.53
397.39	1430.07
397.58	1322.40
397.77	1376.24
397.97	1350.49
398.16	1565.82
398.35	1427.73
398.55	1519.01
398.74	1516.67
398.93	1481.56
399.12	1523.69
399.32	1511.99
399.51	1542.41
399.70	1614.97
399.90	1589.22
400.09	1568.16
400.28	1619.65
400.47	1586.88
400.67	1750.72
400.86	1694.55
401.05	1650.08
401.24	1715.61
401.44	1750.72
401.63	1626.67
401.82	1757.74
402.01	1668.80
402.21	1739.02
402.40	1732.00
402.59	1785.83
402.78	1762.42
402.97	1813.92
403.17	1753.06
403.36	1851.36
403.55	1762.42
403.74	1923.92
403.93	1865.41
404.13	1811.57
404.32	1853.70
404.51	1944.99
404.70	1877.11
404.89	1916.90
405.09	1921.58
405.28	1966.05
405.47	1975.41
405.66	2040.95
405.85	2054.99
406.05	1975.41
406.24	2101.80
406.43	2033.93
406.62	2153.29
406.81	2155.63
407.00	2073.71
407.20	2104.14
407.39	2043.29
407.58	2139.25
407.77	2174.36
407.96	2193.08
408.15	2289.04
408.34	2157.97
408.54	2314.79
408.73	2279.68
408.92	2359.26
409.11	2237.55
409.30	2282.02
409.49	2321.81
409.68	2305.43
409.87	2265.64
410.07	2333.51
410.26	2476.29
410.45	2396.71
410.64	2457.56
410.83	2532.46
411.02	2483.31
411.21	2572.25
411.40	2513.74
411.59	2527.78
411.78	2593.31
411.98	2675.23
412.17	2663.53
412.36	2675.23
412.55	2686.94
412.74	2829.71
412.93	2705.66
413.12	2794.60
413.31	2925.67
413.50	3005.25
413.69	2796.94
413.88	2979.50
414.07	2836.73
414.26	2946.73
414.45	3089.51
414.64	2792.26
414.83	3056.74
415.02	2993.55
415.22	3077.80
415.41	3183.13
415.60	3192.49
415.79	3314.20
415.98	3199.51
416.17	3276.75
416.36	3288.45
416.55	3307.18
416.74	3316.54
416.93	3279.09
417.12	3276.75
417.31	3300.16
417.50	3325.90
417.69	3471.01
417.88	3562.30
418.07	3487.40
418.26	3442.93
418.45	3557.61
418.64	3719.11
418.83	3646.55
419.02	3609.11
419.21	3672.30
419.39	3597.40
419.58	3639.53
419.77	3431.23
419.96	3667.62
420.15	3805.71
420.34	3833.80
420.53	3777.62
420.72	3864.22
420.91	3742.52
421.10	3864.22
421.29	3889.97
421.48	3698.05
421.67	3833.80
421.86	3805.71
422.05	3772.94
422.24	3889.97
422.43	3861.88
422.61	3927.42
422.80	3906.35
422.99	3922.74
423.18	3939.12
423.37	4100.62
423.56	3983.59
423.75	3985.93
423.94	3819.75
424.13	3896.99
424.32	3894.65
424.50	4023.38
424.69	4028.06
424.88	4098.28
425.07	4016.36
425.26	3974.23
425.45	3922.74
425.64	3990.61
425.83	4002.32
426.01	4257.43
426.20	4049.13
426.39	4187.22
426.58	3943.80
426.77	4035.08
426.96	3915.72
427.15	4030.40
427.33	4271.48
427.52	4156.79
427.71	4152.11
427.90	4241.05
428.09	4257.43
428.28	4112.32
428.46	4208.28
428.65	4177.86
428.84	4269.14
429.03	4187.22
429.22	4142.75
429.40	4222.33
429.59	4187.22
429.78	4007.00
429.97	3899.33
430.16	4177.86
430.34	4217.65
430.53	4147.43
430.72	4278.50
430.91	4224.67
431.10	4374.46
431.28	4617.88
431.47	4645.96
431.66	4629.58
431.85	4578.09
432.03	4645.96
432.22	4734.90
432.41	4624.90
432.60	4720.86
432.79	4777.03
432.97	4791.08
433.16	4748.95
433.35	4540.64
433.54	4629.58
433.72	4683.41
433.91	4669.37
434.10	4809.80
434.28	4887.04
434.47	4734.90
434.66	4952.57
434.85	4933.85
435.03	5128.11
435.22	4812.14
435.41	5167.90
435.59	5186.63
435.78	5118.75
435.97	5188.97
436.16	5135.14
436.34	5090.67
436.53	5050.88
436.72	5114.07
436.90	5095.35
437.09	5233.44
437.28	5090.67
437.46	5217.05
437.65	5167.90
437.84	5170.24
438.02	5172.58
438.21	5275.57
438.40	5022.79
438.58	5313.02
438.77	5420.68
438.96	5404.30
439.14	5689.84
439.33	5654.73
439.52	5600.90
439.70	5638.35
439.89	5556.43
440.08	5837.30
440.26	5790.49
440.45	5607.92
440.63	5879.43
440.82	6052.63
441.01	5977.73
441.19	6195.40
441.38	6012.84
441.57	6022.20
441.75	6347.53
441.94	6382.64
442.12	6438.81
442.31	6296.04
442.50	6314.77
442.68	6445.84
442.87	6403.71
443.05	6466.90
443.24	6506.69
443.43	6359.24
443.61	6469.24
443.80	6677.55
443.98	6403.71
444.17	6169.65
444.35	6530.09
444.54	6682.23
444.73	6523.07
444.91	6637.76
445.10	6415.41
445.28	6494.99
445.47	6399.02
445.65	6525.41
445.84	6586.27
446.02	6600.31
446.21	6576.91
446.39	6600.31
446.58	6640.10
446.77	6623.72
446.95	6705.63
447.14	6766.49
447.32	6874.15
447.51	6808.62
447.69	6707.98
447.88	6853.09
448.06	6778.19
448.25	6569.88
448.43	6743.08
448.62	6768.83
448.80	6658.82
448.99	6684.57
449.17	6761.81
449.36	6771.17
449.54	6970.12
449.73	6979.48
449.91	7133.95
450.10	7056.72
450.28	7199.49
450.46	7304.81
450.65	7211.19
450.83	7218.21
451.02	7288.43
451.20	7283.75
451.39	7309.49
451.57	7276.73
451.76	7356.30
451.94	7222.89
452.13	7517.80
452.31	7283.75
452.49	7140.97
452.68	7276.73
452.86	7124.59
453.05	7297.79
453.23	7321.20
453.42	7330.56
453.60	7330.56
453.78	7337.58
453.97	7302.47
454.15	7559.93
454.34	7456.95
454.52	7438.22
454.70	7382.05
454.89	7672.28
455.07	7641.85
455.26	7655.89
455.44	7721.43
455.62	7892.29
455.81	7648.87
455.99	7911.01
456.17	7719.09
456.36	7936.76
456.54	7925.05
456.73	7932.08
456.91	8248.05
457.09	8119.32
457.28	8241.03
457.46	8156.77
457.64	8217.62
457.83	8138.04
458.01	8044.42
458.19	8180.17
458.38	8154.43
458.56	8315.92
458.74	8245.71
458.93	8145.06
459.11	8552.32
459.29	8231.66
459.48	8292.52
459.66	8142.72
459.84	8655.30
460.03	8638.92
460.21	8526.57
460.39	8514.87
460.57	8381.46
460.76	8599.13
460.94	8758.28
461.12	8753.60
461.31	8667.00
461.49	8798.07
461.67	8901.06
461.85	8940.85
462.04	8891.70
462.22	9460.45
462.40	8994.68
462.59	8931.48
462.77	9020.42
462.95	8997.02
463.13	8912.76
463.32	8910.42
463.50	9069.58
463.68	9074.26
463.86	9015.74
464.05	8947.87
464.23	8964.25
464.41	9165.54
464.59	8849.57
464.78	9205.33
464.96	9202.99
465.14	9055.53
465.32	9280.22
465.50	9413.63
465.69	9413.63
465.87	9097.66
466.05	9280.22
466.23	9081.28
466.41	9453.42
466.60	9376.19
466.78	9298.95
466.96	9270.86
467.14	9479.17
467.32	9535.34
467.51	9444.06
467.69	9228.73
467.87	9383.21
468.05	9572.79
468.23	9401.93
468.41	9385.55
468.60	9373.85
468.78	9530.66
468.96	9635.99
469.14	9867.70
469.32	9933.23
469.50	9743.65
469.69	9738.97
469.87	9652.37
470.05	9731.95
470.23	9783.44
470.41	10001.11
470.59	10277.29
470.77	9947.28
470.95	10094.73
471.14	10024.51
471.32	10085.37
471.50	10427.09
471.68	10286.65
471.86	10251.55
472.04	10289.00
472.22	10775.83
472.40	10260.91
472.58	10462.19
472.77	10637.73
472.95	10766.46
473.13	10984.13
473.31	10656.46
473.49	10750.08
473.67	10562.84
473.85	10700.93
474.03	11077.76
474.21	11140.95
474.39	11033.29
474.57	11098.82
474.75	10993.50
474.93	11199.46
475.12	11154.99
475.30	11154.99
475.48	11222.87
475.66	11126.91
475.84	11440.54
476.02	11543.52
476.20	11496.71
476.38	11445.22
476.56	11988.22
476.74	12046.74
476.92	11838.43
477.10	11850.13
477.28	12203.55
477.46	12182.49
477.64	12203.55
477.82	12339.30
478.00	12898.69
478.18	12439.95
478.36	12652.94
478.54	12805.07
478.72	12812.09
478.90	13081.25
479.08	13205.30
479.26	13254.45
479.44	13341.05
479.62	13415.95
479.80	13612.56
479.98	13741.29
480.16	13748.31
480.34	13589.15
480.52	13640.64
480.70	13958.96
480.88	13958.96
481.06	14225.78
481.24	13930.87
481.41	14380.25
481.59	14382.59
481.77	14347.48
481.95	14445.79
482.13	14752.40
482.31	14707.93
482.49	14986.45
482.67	14934.96
482.85	15197.10
483.03	15122.20
483.21	15520.09
483.39	15494.35
483.57	15482.64
483.74	15704.99
483.92	15770.53
484.10	15667.55
484.28	16053.73
484.46	16119.27
484.64	16510.14
484.82	15976.50
485.00	16599.08
485.18	16585.04
485.35	16704.40
485.53	16142.67
485.71	16484.39
485.89	16844.84
486.07	16470.35
486.25	16940.80
486.43	16865.90
486.61	17619.55
486.78	17448.69
486.96	17661.68
487.14	17846.58
487.32	17980.00
487.50	17834.88
487.68	18307.67
487.85	18705.56
488.03	18838.97
488.21	18965.36
488.39	18565.13
488.57	18871.74
488.75	18906.85
488.92	19166.65
489.10	19363.25
489.28	19332.82
489.46	19772.85
489.64	19967.11
489.81	20357.98
489.99	20346.28
490.17	20343.94
490.35	20680.97
490.53	20549.90
490.70	20795.66
490.88	20903.32
491.06	21085.89
491.24	21022.69
491.41	20683.31
491.59	21228.66
491.77	21104.61
491.95	21427.60
492.13	21392.50
492.30	21806.77
492.48	21949.54
492.66	21954.22
492.84	21940.18
493.01	22431.69
493.19	21965.93
493.37	22679.79
493.54	22579.15
493.72	22677.45
493.90	22998.10
494.08	23105.77
494.25	23241.52
494.43	23627.71
494.61	23456.85
494.79	23709.63
494.96	23459.19
495.14	23730.69
495.32	23777.50
495.49	24098.16
495.67	23917.93
495.85	24379.02
496.02	24489.03
496.20	24610.73
496.38	24439.87
496.55	25078.84
496.73	25481.41
496.91	24973.52
497.09	25371.41
497.26	25364.39
497.44	25268.42
497.62	25441.62
497.79	25493.12
497.97	25479.07
498.14	25694.40
498.32	25895.69
498.50	25895.69
498.67	26274.85
498.85	26335.71
499.03	26387.20
499.20	26553.38
499.38	26899.78
499.56	26448.05
499.73	26696.15
499.91	26902.12
500.08	26649.34
500.26	26904.46
500.44	26845.94
500.61	27033.19
500.79	27103.40
500.97	27255.54
501.14	27733.01
501.32	27285.97
501.49	27456.82
501.67	27370.22
501.84	27644.07
502.02	27723.65
502.20	27793.86
502.37	27838.33
502.55	27824.29
502.72	28226.86
502.90	28400.06
503.07	28219.84
503.25	28348.57
503.43	28456.23
503.60	28687.95
503.78	28758.16
503.95	28435.17
504.13	29120.95
504.30	29326.91
504.48	29036.69
504.65	29184.14
504.83	28849.44
505.01	29369.04
505.18	29369.04
505.36	30085.25
505.53	29486.07
505.71	29839.49
505.88	30141.42
506.06	29766.93
506.23	29909.71
506.41	29879.28
506.58	29970.56
506.76	30071.20
506.93	30171.85
507.11	30611.87
507.28	30323.98
507.46	30260.79
507.63	30441.01
507.81	30443.35
507.98	30574.42
508.16	30551.01
508.33	30632.93
508.50	30866.98
508.68	31007.42
508.85	31772.77
509.03	31253.17
509.20	31449.78
509.38	31475.52
509.55	31714.26
509.73	31660.43
509.90	31842.99
510.08	31782.13
510.25	31583.19
510.42	31964.70
510.60	32430.46
510.77	32606.00
510.95	32559.19
511.12	32353.23
511.30	32266.63
511.47	32463.23
511.64	32755.80
511.82	33013.26
511.99	32383.65
512.17	32809.63
512.34	32472.59
512.51	33031.98
512.69	32982.83
512.86	33160.71
513.04	33242.63
513.21	33411.15
513.38	33404.13
513.56	33277.74
513.73	33275.40
513.90	33376.04
514.08	33188.80
514.25	33567.96
514.43	33937.77
514.60	33937.77
514.77	33778.61
514.95	33874.57
515.12	33837.12
515.29	34103.95
515.47	34354.38
515.64	34623.54
515.81	34300.55
515.99	34094.58
516.16	33699.03
516.33	34188.21
516.51	33755.21
516.68	33968.19
516.85	33654.56
517.03	34302.89
517.20	34338.00
517.37	34534.60
517.54	34768.66
517.72	34834.19
517.89	34581.42
518.06	34569.71
518.24	34274.80
518.41	34455.03
518.58	35002.71
518.75	35077.61
518.93	34967.60
519.10	35030.80
519.27	35321.02
519.45	35690.83
519.62	35786.79
519.79	36072.34
519.96	35777.43
520.14	36025.53
520.31	35969.35
520.48	36086.38
520.65	36325.11
520.83	36334.48
521.00	36271.28
521.17	36081.70
521.34	36488.95
521.52	36947.70
521.69	36376.61
521.86	36699.60
522.03	36680.88
522.20	36570.87
522.38	37074.09
522.55	37031.96
522.72	37415.80
522.89	36964.08
523.07	37242.60
523.24	36872.80
523.41	37048.34
523.58	37202.82
523.75	37556.24
523.92	37221.54
524.10	37532.83
524.27	37591.34
524.44	37785.61
524.61	37603.05
524.78	38007.96
524.96	37731.78
525.13	37912.00
525.30	38195.20
525.47	38253.72
525.64	38263.08
525.81	37977.53
525.98	38071.15
526.16	37343.25
526.33	37874.55
526.50	37996.26
526.67	37486.02
526.84	38045.41
527.01	38288.82
527.18	38347.34
527.36	38398.83
527.53	38913.75
527.70	39077.58
527.87	38618.84
528.04	38822.47
528.21	38986.30
528.38	38780.34
528.55	39262.49
528.72	39524.63
528.89	39655.70
529.07	39040.14
529.24	39037.80
529.41	39707.19
529.58	39126.74
529.75	39143.12
529.92	39674.42
530.09	39501.22
530.26	39281.21
530.43	39744.64
530.60	39543.35
530.77	39786.77
530.94	40107.42
531.11	39847.62
531.28	39861.66
531.46	40140.19
531.63	40280.62
531.80	39842.94
531.97	40086.36
532.14	39845.28
532.31	39920.18
532.48	40065.29
532.65	39768.04
532.82	40154.23
532.99	40453.82
533.16	39966.99
533.33	40933.63
533.50	40627.02
533.67	40147.21
533.84	40102.74
534.01	40643.40
534.18	40341.47
534.35	40781.49
534.52	40746.39
534.69	40481.91
534.86	41244.92
535.03	41148.96
535.20	41394.71
535.37	41532.81
535.54	41670.90
535.71	41027.25
535.88	41167.68
536.05	40950.01
536.22	41317.48
536.38	41151.30
536.55	41043.63
536.72	41113.85
536.89	40931.29
537.06	41308.11
537.23	41635.79
537.40	41633.45
537.57	41649.83
537.74	41631.11
537.91	41968.15
538.08	41937.72
538.25	41656.85
538.42	41626.43
538.59	42061.77
538.75	41298.75
538.92	41893.25
539.09	42029.00
539.26	41916.65
539.43	42270.08
539.60	42351.99
539.77	41926.02
539.94	41888.57
540.11	41387.69
540.28	41769.20
540.44	42036.02
540.61	41881.55
540.78	42354.33
540.95	42169.43
541.12	42050.06
541.29	42330.93
541.46	42258.37
541.62	42579.03
541.79	42476.04
541.96	42541.58
542.13	42429.23
542.30	42560.30
542.47	42721.80
542.63	42593.07
542.80	42897.34
542.97	42864.57
543.14	43395.87
543.31	43325.66
543.48	43217.99
543.64	43765.68
543.81	43416.94
543.98	43407.58
544.15	43337.36
544.32	43421.62
544.48	43669.72
544.65	43014.37
544.82	43538.65
544.99	43140.75
545.16	43445.02
545.32	43332.68
545.49	43295.23
545.66	43896.75
545.83	43695.46
546.00	43807.81
546.16	43842.92
546.33	43770.36
546.50	43365.45
546.67	43988.03
546.83	43655.67
547.00	43854.62
547.17	43669.72
547.34	43484.81
547.50	44086.33
547.67	44388.26
547.84	44058.24
548.00	44421.03
548.17	44484.22
548.34	44140.16
548.51	44769.77
548.67	44423.37
548.84	44109.74
549.01	44484.22
549.18	44287.62
549.34	44692.53
549.51	44694.87
549.68	44392.94
549.84	44275.91
550.01	44893.82
550.18	44186.97
550.34	44369.54
550.51	44594.23
550.68	44252.51
550.84	44032.50
551.01	44390.60
551.18	44879.77
551.34	44102.71
551.51	44594.23
551.68	44652.74
551.84	44783.81
552.01	44526.35
552.18	44921.90
552.34	44079.31
552.51	44690.19
552.68	45069.36
552.84	45338.52
553.01	45326.81
553.18	45062.33
553.34	45153.62
553.51	44744.02
553.67	45570.23
553.84	45249.58
554.01	45263.62
554.17	45148.93
554.34	45467.25
554.51	45778.54
554.67	45511.72
554.84	45441.50
555.00	45600.66
555.17	45146.59
555.33	45223.83
555.50	45216.81
555.67	45289.37
555.83	45144.25
556.00	45579.59
556.16	46047.70
556.33	45663.85
556.50	45523.42
556.66	45443.84
556.83	45649.81
556.99	45350.22
557.16	45951.74
557.32	45502.35
557.49	45631.08
557.65	45148.93
557.82	45785.56
557.98	45736.41
558.15	45811.31
558.32	45776.20
558.48	45432.14
558.65	45581.93
558.81	45439.16
558.98	45631.08
559.14	45553.85
559.31	45752.79
559.47	46113.23
559.64	46021.95
559.80	45801.94
559.97	46391.76
560.13	45666.19
560.30	46073.45
560.46	46281.75
560.63	46061.74
560.79	46237.28
560.96	46181.11
561.12	45940.04
561.29	46031.32
561.45	45930.67
561.61	45970.46
561.78	45741.09
561.94	45865.14
562.11	45869.82
562.27	46223.24
562.44	46026.63
562.60	46256.01
562.77	46677.30
562.93	45996.21
563.10	46309.84
563.26	45785.56
563.42	46586.02
563.59	46429.21
563.75	46143.66
563.92	46527.51
564.08	46326.22
564.24	46078.13
564.41	46436.23
564.57	46181.11
564.74	46504.10
564.90	46349.63
565.07	46157.70
565.23	46061.74
565.39	46487.72
565.56	46433.89
565.72	46169.41
565.88	46263.03
566.05	46281.75
566.21	46354.31
566.38	46117.92
566.54	46071.10
566.70	46810.71
566.87	46836.46
567.03	46349.63
567.19	47154.77
567.36	47072.85
567.52	46358.99
567.68	46328.56
567.85	46735.82
568.01	46241.96
568.17	46483.04
568.34	46473.68
568.50	46588.36
568.66	46426.87
568.83	46394.10
568.99	46557.94
569.15	46590.70
569.32	46466.66
569.48	46511.13
569.64	46511.13
569.81	46433.89
569.97	46616.45
570.13	46689.01
570.30	46183.45
570.46	46452.61
570.62	46183.45
570.78	46445.59
570.95	46438.57
571.11	46686.67
571.27	46602.41
571.43	46775.61
571.60	46733.48
571.76	46597.73
571.92	46686.67
572.09	46045.36
572.25	46597.73
572.41	46553.26
572.57	46593.04
572.74	47133.71
572.90	46487.72
573.06	46679.64
573.22	46630.49
573.38	46784.97
573.55	46681.98
573.71	47054.13
573.87	46789.65
574.03	46398.78
574.20	46728.80
574.36	46492.40
574.52	46698.37
574.68	46766.24
574.84	46761.56
575.01	46422.19
575.17	46511.13
575.33	46691.35
575.49	46485.38
575.65	47281.16
575.82	46878.59
575.98	46459.63
576.14	46972.21
576.30	46504.10
576.46	46714.75
576.62	46653.90
576.79	46515.81
576.95	46459.63
577.11	46354.31
577.27	46672.62
577.43	46848.16
577.59	46623.47
577.75	46197.49
577.92	46389.42
578.08	46028.98
578.24	46314.52
578.40	46747.52
578.56	46497.08
578.72	46351.97
578.88	46766.24
579.04	46745.18
579.21	46848.16
579.37	46829.44
579.53	46614.11
579.69	46948.81
579.85	46796.67
580.01	47388.83
580.17	47000.30
580.33	47203.92
580.49	46894.97
580.65	46934.76
580.82	46789.65
580.98	46618.79
581.14	46504.10
581.30	47143.07
581.46	46745.18
581.62	47416.91
581.78	47189.88
581.94	47309.25
582.10	47077.54
582.26	47033.07
582.42	46909.02
582.58	46904.34
582.74	46784.97
582.90	47096.26
583.06	47555.00
583.22	46646.88
583.38	47072.85
583.54	46777.95
583.70	46986.25
583.86	47107.96
584.02	46607.09
584.18	47236.69
584.34	46763.90
584.50	47271.80
584.66	46836.46
584.82	46686.67
584.98	46986.25
585.14	46974.55
585.30	46698.37
585.46	46632.83
585.62	46499.42
585.78	46761.56
585.94	46286.43
586.10	46700.71
586.26	46801.35
586.42	47126.69
586.58	47173.50
586.74	47206.26
586.90	47035.41
587.06	46447.93
587.22	47112.64
587.38	46827.10
587.54	46988.60
587.70	47056.47
587.86	46712.41
588.02	46712.41
588.18	47168.82
588.34	46761.56
588.49	46342.61
588.65	46335.59
588.81	46651.56
588.97	46616.45
589.13	46447.93
589.29	46880.93
589.45	46756.88
589.61	46780.29
589.77	46923.06
589.93	47000.30
