SpectraSuite Data File
++++++++++++++++++++++++++++++++++++
Date: Fri Oct 25 11:33:12 EDT 2013
User: price-jones
Dark Spectrum Present: No
Reference Spectrum Present: No
Number of Sampled Component Spectra: 1
Spectrometers: USB2+H05261
Integration Time (usec): 100000 (USB2+H05261)
Spectra Averaged: 1 (USB2+H05261)
Boxcar Smoothing: 0 (USB2+H05261)
Correct for Electrical Dark: No (USB2+H05261)
Strobe/Lamp Enabled: No (USB2+H05261)
Correct for Detector Non-linearity: No (USB2+H05261)
Correct for Stray Light: No (USB2+H05261)
Number of Pixels in Processed Spectrum: 2048
>>>>>Begin Processed Spectral Data<<<<<
365.73	337.04
365.92	337.04
366.12	337.04
366.32	238.73
366.52	145.11
366.72	205.97
366.91	140.43
367.11	191.92
367.31	222.35
367.51	234.05
367.70	259.80
367.90	131.07
368.10	88.94
368.30	210.65
368.49	194.26
368.69	177.88
368.89	222.35
369.09	187.24
369.28	264.48
369.48	205.97
369.68	220.01
369.87	243.42
370.07	159.16
370.27	255.12
370.47	322.99
370.66	442.36
370.86	519.60
371.06	498.53
371.25	550.03
371.45	545.34
371.65	543.00
371.84	559.39
372.04	526.62
372.24	561.73
372.44	634.29
372.63	543.00
372.83	634.29
373.03	589.82
373.22	617.90
373.42	657.69
373.62	608.54
373.81	676.41
374.01	624.92
374.21	662.37
374.40	641.31
374.60	706.84
374.79	692.80
374.99	643.65
375.19	737.27
375.38	741.95
375.58	622.58
375.78	744.29
375.97	683.44
376.17	692.80
376.37	699.82
376.56	657.69
376.76	645.99
376.95	664.71
377.15	751.31
377.35	650.67
377.54	690.46
377.74	704.50
377.93	638.97
378.13	765.36
378.33	765.36
378.52	788.76
378.72	720.88
378.91	744.29
379.11	739.61
379.31	727.91
379.50	678.76
379.70	760.67
379.89	683.44
380.09	730.25
380.28	741.95
380.48	657.69
380.68	753.65
380.87	760.67
381.07	704.50
381.26	816.85
381.46	863.66
381.65	781.74
381.85	784.08
382.04	784.08
382.24	720.88
382.43	748.97
382.63	800.46
382.83	833.23
383.02	795.78
383.22	777.06
383.41	847.27
383.61	730.25
383.80	884.72
384.00	788.76
384.19	788.76
384.39	760.67
384.58	868.34
384.78	851.96
384.97	793.44
385.17	842.59
385.36	833.23
385.56	866.00
385.75	842.59
385.95	896.43
386.14	903.45
386.34	763.01
386.53	816.85
386.72	833.23
386.92	950.26
387.11	816.85
387.31	884.72
387.50	880.04
387.70	917.49
387.89	856.64
388.09	847.27
388.28	966.64
388.48	851.96
388.67	910.47
388.86	898.77
389.06	1013.45
389.25	908.13
389.45	945.58
389.64	933.87
389.84	978.34
390.03	990.05
390.22	1046.22
390.42	926.85
390.61	1006.43
390.81	938.55
391.00	1032.18
391.19	1015.79
391.39	980.68
391.58	1118.78
391.78	1100.05
391.97	1053.24
392.16	1039.20
392.36	1041.54
392.55	1130.48
392.75	1067.28
392.94	961.96
393.13	1057.92
393.33	1114.10
393.52	1062.60
393.71	1090.69
393.91	1071.97
394.10	1078.99
394.29	1163.25
394.49	1074.31
394.68	1174.95
394.88	1121.12
395.07	1100.05
395.26	1153.88
395.46	1196.01
395.65	1238.14
395.84	1177.29
396.04	1167.93
396.23	1235.80
396.42	1181.97
396.62	1259.21
396.81	1214.74
397.00	1259.21
397.19	1170.27
397.39	1235.80
397.58	1235.80
397.77	1277.93
397.97	1338.79
398.16	1226.44
398.35	1188.99
398.55	1247.51
398.74	1315.38
398.93	1380.92
399.12	1320.06
399.32	1308.36
399.51	1345.81
399.70	1341.13
399.90	1350.49
400.09	1364.53
400.28	1352.83
400.47	1444.11
400.67	1406.66
400.86	1446.45
401.05	1385.60
401.24	1413.68
401.44	1327.08
401.63	1514.33
401.82	1430.07
402.01	1413.68
402.21	1441.77
402.40	1509.65
402.59	1453.47
402.78	1575.18
402.97	1657.10
403.17	1535.39
403.36	1584.54
403.55	1572.84
403.74	1607.95
403.93	1582.20
404.13	1598.59
404.32	1568.16
404.51	1554.12
404.70	1572.84
404.89	1701.57
405.09	1713.27
405.28	1687.53
405.47	1713.27
405.66	1657.10
405.85	1685.19
406.05	1614.97
406.24	1699.23
406.43	1771.79
406.62	1764.76
406.81	1830.30
407.00	1750.72
407.20	1694.55
407.39	1717.95
407.58	1832.64
407.77	1959.03
407.96	1891.15
408.15	1914.56
408.34	1937.96
408.54	1930.94
408.73	1973.07
408.92	1935.62
409.11	1977.75
409.30	1928.60
409.49	1952.01
409.68	1959.03
409.87	2045.63
410.07	1991.80
410.26	2087.76
410.45	2090.10
410.64	2092.44
410.83	2097.12
411.02	2134.57
411.21	2155.63
411.40	2195.42
411.59	2179.04
411.78	2218.83
411.98	2167.34
412.17	2324.15
412.36	2394.37
412.55	2338.20
412.74	2305.43
412.93	2333.51
413.12	2300.75
413.31	2504.37
413.50	2352.24
413.69	2406.07
413.88	2487.99
414.07	2506.71
414.26	2401.39
414.45	2595.65
414.64	2553.52
414.83	2574.59
415.02	2743.11
415.22	2696.30
415.41	2719.70
415.60	2654.17
415.79	2665.87
415.98	2766.51
416.17	2740.77
416.36	2787.58
416.55	2846.09
416.74	2899.92
416.93	2874.18
417.12	2839.07
417.31	2923.33
417.50	2846.09
417.69	3009.93
417.88	2928.01
418.07	2937.37
418.26	2937.37
418.45	3040.36
418.64	3045.04
418.83	2991.20
419.02	3103.55
419.21	3103.55
419.39	3096.53
419.58	3098.87
419.77	3054.40
419.96	3243.98
420.15	3185.47
420.34	3208.87
420.53	3274.41
420.72	3321.22
420.91	3281.43
421.10	3276.75
421.29	3307.18
421.48	3208.87
421.67	3346.97
421.86	3297.81
422.05	3276.75
422.24	3260.37
422.43	3197.17
422.61	3232.28
422.80	3318.88
422.99	3527.19
423.18	3485.06
423.37	3440.59
423.56	3447.61
423.75	3447.61
423.94	3314.20
424.13	3248.66
424.32	3370.37
424.50	3529.53
424.69	3449.95
424.88	3562.30
425.07	3433.57
425.26	3438.25
425.45	3400.80
425.64	3459.31
425.83	3419.52
426.01	3538.89
426.20	3527.19
426.39	3424.20
426.58	3496.76
426.77	3651.24
426.96	3496.76
427.15	3618.47
427.33	3623.15
427.52	3585.70
427.71	3669.96
427.90	3691.02
428.09	3672.30
428.28	3592.72
428.46	3819.75
428.65	3747.20
428.84	3819.75
429.03	3847.84
429.22	3831.46
429.40	3824.44
429.59	3810.39
429.78	3737.84
429.97	3730.81
430.16	3796.35
430.34	3882.95
430.53	3700.39
430.72	3768.26
430.91	3899.33
431.10	3953.16
431.28	3894.65
431.47	3941.46
431.66	3941.46
431.85	3957.85
432.03	4142.75
432.22	4032.74
432.41	4079.55
432.60	4117.00
432.79	4056.15
432.97	4175.52
433.16	4170.83
433.35	4093.60
433.54	4131.05
433.72	4271.48
433.91	4208.28
434.10	4290.20
434.28	4152.11
434.47	4117.00
434.66	4365.10
434.85	4264.46
435.03	4194.24
435.22	4322.97
435.41	4458.72
435.59	4416.59
435.78	4381.48
435.97	4414.25
436.16	4465.74
436.34	4308.93
436.53	4451.70
436.72	4517.23
436.90	4348.72
437.09	4650.64
437.28	4395.53
437.46	4491.49
437.65	4535.96
437.84	4723.20
438.02	4545.32
438.21	4805.12
438.40	4545.32
438.58	4692.77
438.77	4844.91
438.96	4805.12
439.14	5001.72
439.33	4912.78
439.52	4968.96
439.70	5027.47
439.89	4931.51
440.08	5083.64
440.26	4856.61
440.45	4957.25
440.63	5156.20
440.82	5200.67
441.01	5242.80
441.19	5282.59
441.38	5366.85
441.57	5298.97
441.75	5383.23
441.94	5451.11
442.12	5343.44
442.31	5540.05
442.50	5516.64
442.68	5385.57
442.87	5439.40
443.05	5530.69
443.24	5628.99
443.43	5549.41
443.61	5509.62
443.80	5909.85
443.98	5542.39
444.17	5277.91
444.35	5589.20
444.54	5507.28
444.73	5596.22
444.91	5614.95
445.10	5827.93
445.28	5724.95
445.47	5748.36
445.65	5650.05
445.84	5891.13
446.02	5753.04
446.21	5834.96
446.39	5928.58
446.58	5809.21
446.77	5877.09
446.95	5788.14
447.14	5680.48
447.32	5797.51
447.51	5853.68
447.69	5771.76
447.88	5834.96
448.06	5750.70
448.25	5858.36
448.43	5942.62
448.62	5921.56
448.80	5879.43
448.99	5804.53
449.17	5860.70
449.36	5940.28
449.54	5998.79
449.73	6106.46
449.91	6078.37
450.10	6066.67
450.28	6263.27
450.46	6111.14
450.65	6221.14
450.83	6228.17
451.02	6186.04
451.20	6129.86
451.39	6099.44
451.57	6326.47
451.76	6237.53
451.94	6282.00
452.13	6333.49
452.31	6396.68
452.49	6181.35
452.68	6384.98
452.86	6338.17
453.05	6363.92
453.23	6555.84
453.42	6424.77
453.60	6366.26
453.78	6424.77
453.97	6324.13
454.15	6431.79
454.34	6494.99
454.52	6434.13
454.70	6480.94
454.89	6532.44
455.07	6726.70
455.26	6712.66
455.44	6551.16
455.62	6609.67
455.81	6703.29
455.99	6597.97
456.17	6855.43
456.36	6834.36
456.54	6853.09
456.73	6974.80
456.91	7171.40
457.09	7063.74
457.28	7236.94
457.46	7035.65
457.64	7124.59
457.83	7122.25
458.01	7040.33
458.19	7080.12
458.38	7220.55
458.56	7337.58
458.74	7117.57
458.93	7288.43
459.11	7288.43
459.29	7391.41
459.48	7258.00
459.66	7265.02
459.84	7269.70
460.03	7604.40
460.21	7506.10
460.39	7281.41
460.57	7440.56
460.76	7618.44
460.94	7529.50
461.12	7522.48
461.31	7679.30
461.49	7463.97
461.67	7595.04
461.85	7819.73
462.04	7473.33
462.22	8095.91
462.40	7723.77
462.59	7751.85
462.77	7843.14
462.95	7815.05
463.13	7702.70
463.32	7793.98
463.50	8032.72
463.68	8065.49
463.86	7941.44
464.05	7960.16
464.23	7915.69
464.41	8051.44
464.59	7796.32
464.78	8025.70
464.96	8093.57
465.14	8086.55
465.32	8159.11
465.50	8245.71
465.69	8133.36
465.87	8196.56
466.05	8177.83
466.23	8306.56
466.41	8182.51
466.60	8383.80
466.78	8119.32
466.96	8126.34
467.14	8341.67
467.32	8402.52
467.51	8533.59
467.69	8243.37
467.87	8395.50
468.05	8538.27
468.23	8315.92
468.41	8376.78
468.60	8423.59
468.78	8692.75
468.96	8624.87
469.14	8734.88
469.32	8936.17
469.50	8547.64
469.69	8732.54
469.87	8676.37
470.05	8760.63
470.23	8959.57
470.41	8961.91
470.59	8966.59
470.77	8844.88
470.95	8856.59
471.14	9041.49
471.32	8872.97
471.50	9259.16
471.68	9146.81
471.86	9284.91
472.04	9114.05
472.22	9582.15
472.40	9226.39
472.58	9242.78
472.77	9188.94
472.95	9490.87
473.13	9582.15
473.31	9507.26
473.49	9547.05
473.67	9490.87
473.85	9750.67
474.03	9870.04
474.21	10033.88
474.39	9914.51
474.57	9954.30
474.75	10141.54
474.93	9895.78
475.12	10134.52
475.30	10118.14
475.48	10167.29
475.66	10068.98
475.84	10188.35
476.02	10527.73
476.20	10354.53
476.38	10438.79
476.56	10572.20
476.74	10611.99
476.92	10611.99
477.10	10443.47
477.28	10801.57
477.46	10726.68
477.64	11028.60
477.82	10979.45
478.00	11389.05
478.18	11213.51
478.36	11286.06
478.54	11466.28
478.72	11496.71
478.90	11548.20
479.08	11583.31
479.26	11686.29
479.44	12009.29
479.62	11995.25
479.80	11988.22
479.98	12131.00
480.16	12458.67
480.34	12301.86
480.52	12297.17
480.70	12545.27
480.88	12306.54
481.06	12386.12
481.24	12407.18
481.41	12837.84
481.59	12699.75
481.77	13238.07
481.95	12996.99
482.13	13310.63
482.31	13018.06
482.49	13479.15
482.67	13357.44
482.85	13832.57
483.03	13909.80
483.21	13699.16
483.39	14031.51
483.57	13884.06
483.74	14008.11
483.92	13994.06
484.10	14087.68
484.28	14443.45
484.46	14754.74
484.64	14579.20
484.82	14637.71
485.00	14860.06
485.18	15150.29
485.35	15346.89
485.53	14963.04
485.71	15407.75
485.89	15555.20
486.07	15503.71
486.25	15602.01
486.43	15630.10
486.61	15859.47
486.78	16184.80
486.96	15971.82
487.14	16297.15
487.32	16407.16
487.50	16521.84
487.68	16791.00
487.85	16568.65
488.03	16858.88
488.21	17018.04
488.39	17476.78
488.57	17249.75
488.75	17397.20
488.92	17706.15
489.10	17755.30
489.28	17715.51
489.46	18071.28
489.64	17972.97
489.81	18284.26
489.99	18494.91
490.17	18391.93
490.35	18677.48
490.53	18574.49
490.70	18909.19
490.88	18869.40
491.06	19229.84
491.24	19047.28
491.41	19206.44
491.59	19262.61
491.77	19234.52
491.95	19693.27
492.13	19536.45
492.30	19826.68
492.48	20065.41
492.66	19747.10
492.84	20444.58
493.01	20503.09
493.19	20615.44
493.37	20355.64
493.54	20556.93
493.72	21010.99
493.90	20762.89
494.08	20865.88
494.25	21240.36
494.43	21291.85
494.61	21413.56
494.79	21303.56
494.96	21458.03
495.14	21638.25
495.32	21951.88
495.49	21797.41
495.67	21919.12
495.85	22284.24
496.02	22155.51
496.20	22661.07
496.38	22380.20
496.55	22759.37
496.73	23183.01
496.91	22941.93
497.09	23019.17
497.26	22939.59
497.44	23243.86
497.62	23335.14
497.79	23819.63
497.97	23424.08
498.14	23639.41
498.32	23955.38
498.50	23456.85
498.67	24222.20
498.85	23913.25
499.03	24430.51
499.20	24261.99
499.38	24472.64
499.56	24503.07
499.73	24851.81
499.91	24599.03
500.08	24842.45
500.26	25015.65
500.44	24830.74
500.61	25202.89
500.79	25081.18
500.97	25401.83
501.14	25568.01
501.32	25809.09
501.49	25415.88
501.67	25678.02
501.84	26019.74
502.02	25661.63
502.20	25673.34
502.37	26024.42
502.55	25893.35
502.72	26511.25
502.90	26078.25
503.07	26302.94
503.25	26286.56
503.43	26195.28
503.60	26675.09
503.78	26511.25
503.95	26845.94
504.13	27187.66
504.30	26747.64
504.48	26878.71
504.65	26909.14
504.83	27089.36
505.01	27328.10
505.18	27501.29
505.36	27702.58
505.53	27405.33
505.71	27513.00
505.88	27601.94
506.06	27410.01
506.23	27957.70
506.41	27686.20
506.58	27665.13
506.76	28002.17
506.93	28308.78
507.11	28137.92
507.28	28292.40
507.46	28315.80
507.63	28603.69
507.81	28645.82
507.98	28800.29
508.16	28493.68
508.33	29027.32
508.50	28861.15
508.68	28844.76
508.85	29343.30
509.03	29296.49
509.20	29488.41
509.38	29504.79
509.55	29771.61
509.73	29804.38
509.90	29783.32
510.08	29511.81
510.25	30010.35
510.42	29933.11
510.60	30073.54
510.77	30106.31
510.95	30558.03
511.12	30246.74
511.30	30380.15
511.47	30419.94
511.64	30223.34
511.82	30672.72
511.99	30897.41
512.17	30745.28
512.34	30611.87
512.51	31115.08
512.69	30925.50
512.86	31075.29
513.04	31232.11
513.21	31419.35
513.38	31154.87
513.56	31178.28
513.73	31824.26
513.90	31433.39
514.08	31496.59
514.25	31555.10
514.43	31524.68
514.60	31779.79
514.77	32034.91
514.95	32229.18
515.12	31945.97
515.29	32151.94
515.47	32266.63
515.64	32112.15
515.81	32074.70
515.99	32449.19
516.16	32786.22
516.33	32591.96
516.51	32589.62
516.68	32879.85
516.85	32758.14
517.03	33057.73
517.20	33331.57
517.37	33076.45
517.54	33174.75
517.72	33181.77
517.89	33212.20
518.06	33273.06
518.24	33303.48
518.41	33371.36
518.58	33394.76
518.75	33156.03
518.93	33479.02
519.10	33965.85
519.27	33743.50
519.45	33940.11
519.62	34052.45
519.79	34277.15
519.96	33890.96
520.14	34312.25
520.31	33956.49
520.48	34209.27
520.65	34155.44
520.83	34590.78
521.00	34611.84
521.17	34162.46
521.34	34663.33
521.52	34927.81
521.69	35124.42
521.86	34719.51
522.03	35339.75
522.20	35122.08
522.38	35295.28
522.55	35316.34
522.72	35494.22
522.89	35379.54
523.07	35667.42
523.24	35552.74
523.41	35662.74
523.58	35440.39
523.75	35641.68
523.92	35360.81
524.10	35835.94
524.27	35747.00
524.44	35798.49
524.61	36205.75
524.78	36112.13
524.96	36182.34
525.13	36442.14
525.30	36727.69
525.47	36898.55
525.64	36517.04
525.81	36706.62
525.98	36919.61
526.16	36842.37
526.33	36648.11
526.50	36547.47
526.67	36837.69
526.84	36835.35
527.01	36699.60
527.18	36840.03
527.36	36877.48
527.53	37446.23
527.70	37111.53
527.87	37258.99
528.04	37591.34
528.21	37544.53
528.38	37310.48
528.55	38066.47
528.72	37701.35
528.89	37347.93
529.07	37614.75
529.24	37453.25
529.41	37968.17
529.58	37867.53
529.75	37713.05
529.92	37984.55
530.09	37762.20
530.26	37961.15
530.43	38234.99
530.60	37809.01
530.77	37635.81
530.94	38417.55
531.11	37989.24
531.28	38541.60
531.46	38824.81
531.63	38576.71
531.80	38340.32
531.97	38675.01
532.14	38855.23
532.31	38670.33
532.48	38581.39
532.65	39395.90
532.82	38824.81
532.99	38810.76
533.16	39084.61
533.33	39042.48
533.50	39028.43
533.67	39257.81
533.84	38712.46
534.01	39218.02
534.18	39358.45
534.35	39358.45
534.52	39388.88
534.69	39658.04
534.86	39826.56
535.03	39611.23
535.20	39632.29
535.37	39889.75
535.54	39833.58
535.71	39880.39
535.88	39962.31
536.05	40025.50
536.22	40205.72
536.38	39761.02
536.55	40100.40
536.72	40240.83
536.89	40037.20
537.06	39871.03
537.23	40570.85
537.40	40100.40
537.57	40856.39
537.74	40418.71
537.91	40612.98
538.08	39899.11
538.25	40584.89
538.42	40594.25
538.59	40659.79
538.75	40437.44
538.92	40793.20
539.09	40947.67
539.26	40641.06
539.43	40685.53
539.60	40863.41
539.77	40938.31
539.94	41507.06
540.11	40793.20
540.28	41221.52
540.44	41095.13
540.61	41251.94
540.78	40975.76
540.95	40999.16
541.12	40952.35
541.29	41212.15
541.46	41352.58
541.62	41319.82
541.79	41366.63
541.96	41336.20
542.13	41256.62
542.30	41666.22
542.47	41844.10
542.63	41832.39
542.80	41764.52
542.97	41546.85
543.14	42019.64
543.31	41986.87
543.48	42595.41
543.64	42321.57
543.81	42466.68
543.98	42508.81
544.15	42705.41
544.32	42291.14
544.48	43107.99
544.65	42684.35
544.82	42684.35
544.99	42335.61
545.16	42976.92
545.32	42431.57
545.49	42543.92
545.66	43187.56
545.83	42838.83
546.00	42906.70
546.16	43136.07
546.33	42707.76
546.50	42777.97
546.67	43295.23
546.83	43164.16
547.00	42955.85
547.17	43381.83
547.34	42974.58
547.50	43480.13
547.67	43662.69
547.84	43360.76
548.00	43744.61
548.17	43805.47
548.34	43587.80
548.51	44076.97
548.67	43515.24
548.84	43487.15
549.01	43325.66
549.18	43753.97
549.34	44004.41
549.51	44062.93
549.68	43398.21
549.84	43627.59
550.01	43849.94
550.18	44229.10
550.34	44191.65
550.51	43749.29
550.68	44191.65
550.84	43428.64
551.01	43894.41
551.18	43875.68
551.34	43950.58
551.51	44233.78
551.68	44442.09
551.84	43903.77
552.01	44119.10
552.18	44706.57
552.34	44296.98
552.51	44275.91
552.68	44231.44
552.84	44486.56
553.01	44547.42
553.18	44505.29
553.34	44830.62
553.51	44360.17
553.67	44727.64
553.84	44837.64
554.01	44575.50
554.17	44919.56
554.34	44926.58
554.51	44818.92
554.67	44954.67
554.84	44865.73
555.00	44907.86
555.17	44847.00
555.33	45076.38
555.50	44858.71
555.67	45249.58
555.83	44828.28
556.00	44975.73
556.16	45392.35
556.33	45338.52
556.50	45153.62
556.66	44886.79
556.83	45242.56
556.99	45476.61
557.16	45258.94
557.32	45666.19
557.49	45851.09
557.65	45450.86
557.82	45968.12
557.98	45488.31
558.15	45771.52
558.32	45343.20
558.48	45235.53
558.65	45565.55
558.81	46000.89
558.98	45525.76
559.14	45923.65
559.31	45797.26
559.47	45212.13
559.64	45670.87
559.80	45549.17
559.97	46038.34
560.13	45427.46
560.30	45422.78
560.46	46267.71
560.63	46148.34
560.79	46160.05
560.96	46354.31
561.12	46122.60
561.29	46012.59
561.45	46384.74
561.61	46113.23
561.78	46103.87
561.94	45647.47
562.11	46536.87
562.27	46141.32
562.44	46064.08
562.60	46679.64
562.77	46607.09
562.93	46195.15
563.10	46445.59
563.26	45921.31
563.42	46878.59
563.59	46096.85
563.75	45963.44
563.92	46419.84
564.08	46323.88
564.24	46644.54
564.41	46398.78
564.57	46438.57
564.74	46412.82
564.90	46108.55
565.07	46607.09
565.23	46476.02
565.39	46204.52
565.56	47042.43
565.72	46576.66
565.88	46358.99
566.05	46614.11
566.21	46700.71
566.38	46232.60
566.54	46703.05
566.70	46719.43
566.87	46387.08
567.03	46644.54
567.19	46621.13
567.36	46459.63
567.52	46447.93
567.68	47030.72
567.85	47100.94
568.01	47035.41
568.17	46972.21
568.34	46539.21
568.50	47098.60
568.66	46852.84
568.83	46630.49
568.99	46813.05
569.15	46691.35
569.32	46770.93
569.48	46340.27
569.64	46916.04
569.81	46738.16
569.97	47004.98
570.13	47302.23
570.30	46461.97
570.46	47084.56
570.62	47070.51
570.78	47042.43
570.95	46953.49
571.11	47124.35
571.27	47306.91
571.43	47107.96
571.60	47105.62
571.76	46983.91
571.92	47002.64
572.09	46871.57
572.25	46930.08
572.41	47117.32
572.57	47100.94
572.74	47592.45
572.90	47217.97
573.06	47220.31
573.22	47243.71
573.38	47306.91
573.55	47519.90
573.71	47756.29
573.87	47557.35
574.03	47164.14
574.20	47601.82
574.36	47320.95
574.52	47704.80
574.68	47620.54
574.84	47452.02
575.01	47515.22
575.17	47732.89
575.33	47145.41
575.49	47049.45
575.65	47800.76
575.82	47332.65
575.98	47253.08
576.14	47386.49
576.30	47075.19
576.46	47353.72
576.62	47484.79
576.79	47377.12
576.95	46784.97
577.11	47136.05
577.27	47594.79
577.43	47168.82
577.59	47447.34
577.75	47194.56
577.92	47311.59
578.08	47316.27
578.24	47489.47
578.40	47639.26
578.56	47398.19
578.72	47566.71
578.88	47442.66
579.04	47592.45
579.21	47185.20
579.37	47426.28
579.53	47686.07
579.69	47580.75
579.85	47374.78
580.01	47489.47
580.17	47775.02
580.33	47686.07
580.49	47938.85
580.65	47592.45
580.82	47636.92
580.98	47339.68
581.14	47402.87
581.30	47627.56
581.46	47641.60
581.62	47089.24
581.78	47283.50
581.94	47770.33
582.10	47562.03
582.26	48002.05
582.42	47487.13
582.58	47744.59
582.74	47587.77
582.90	47356.06
583.06	48102.69
583.22	47540.96
583.38	47693.10
583.54	47508.19
583.70	47503.51
583.86	47770.33
584.02	47414.57
584.18	48247.80
584.34	47807.78
584.50	48184.61
584.66	47880.34
584.82	47962.26
584.98	48416.32
585.14	48142.48
585.30	47730.54
585.46	47674.37
585.62	47461.38
585.78	47697.78
585.94	47311.59
586.10	47870.98
586.26	47250.74
586.42	47828.85
586.58	47674.37
586.74	47356.06
586.90	47952.90
587.06	47980.98
587.22	48002.05
587.38	47679.05
587.54	48203.33
587.70	48526.33
587.86	48126.10
588.02	47810.12
588.18	47620.54
588.34	47866.30
588.49	47936.51
588.65	47419.25
588.81	47562.03
588.97	48002.05
589.13	47959.92
589.29	48182.27
589.45	48076.94
589.61	48182.27
589.77	47878.00
589.93	47856.93
