SpectraSuite Data File
++++++++++++++++++++++++++++++++++++
Date: Fri Oct 25 10:46:54 EDT 2013
User: price-jones
Dark Spectrum Present: No
Reference Spectrum Present: No
Number of Sampled Component Spectra: 1
Spectrometers: USB2+H05261
Integration Time (usec): 100000 (USB2+H05261)
Spectra Averaged: 1 (USB2+H05261)
Boxcar Smoothing: 0 (USB2+H05261)
Correct for Electrical Dark: No (USB2+H05261)
Strobe/Lamp Enabled: No (USB2+H05261)
Correct for Detector Non-linearity: No (USB2+H05261)
Correct for Stray Light: No (USB2+H05261)
Number of Pixels in Processed Spectrum: 2048
>>>>>Begin Processed Spectral Data<<<<<
365.73	114.69
365.92	114.69
366.12	114.69
366.32	70.22
366.52	2.34
366.72	102.98
366.91	39.79
367.11	7.02
367.31	0.00
367.51	63.19
367.70	32.77
367.90	0.00
368.10	30.43
368.30	11.70
368.49	35.11
368.69	44.47
368.89	77.24
369.09	42.13
369.28	72.56
369.48	44.47
369.68	70.22
369.87	81.92
370.07	81.92
370.27	60.85
370.47	227.03
370.66	344.06
370.86	479.81
371.06	461.09
371.25	512.58
371.45	397.89
371.65	440.02
371.84	554.71
372.04	451.72
372.24	496.19
372.44	484.49
372.63	561.73
372.83	526.62
373.03	507.90
373.22	496.19
373.42	533.64
373.62	540.66
373.81	503.22
374.01	610.88
374.21	543.00
374.40	547.69
374.60	629.60
374.79	582.79
374.99	559.39
375.19	596.84
375.38	608.54
375.58	603.86
375.78	528.96
375.97	634.29
376.17	720.88
376.37	561.73
376.56	524.28
376.76	596.84
376.95	615.56
377.15	655.35
377.35	676.41
377.54	690.46
377.74	617.90
377.93	608.54
378.13	681.10
378.33	716.20
378.52	690.46
378.72	676.41
378.91	650.67
379.11	641.31
379.31	648.33
379.50	702.16
379.70	671.73
379.89	671.73
380.09	725.57
380.28	812.17
380.48	753.65
380.68	648.33
380.87	657.69
381.07	854.30
381.26	692.80
381.46	711.52
381.65	592.16
381.85	648.33
382.04	802.80
382.24	725.57
382.43	709.18
382.63	688.12
382.83	760.67
383.02	812.17
383.22	758.33
383.41	650.67
383.61	720.88
383.80	763.01
384.00	786.42
384.19	739.61
384.39	767.70
384.58	732.59
384.78	784.08
384.97	842.59
385.17	720.88
385.36	844.93
385.56	835.57
385.75	821.53
385.95	809.83
386.14	926.85
386.34	868.34
386.53	912.81
386.72	889.40
386.92	926.85
387.11	823.87
387.31	898.77
387.50	882.38
387.70	826.21
387.89	915.15
388.09	830.89
388.28	826.21
388.48	896.43
388.67	936.21
388.86	861.32
389.06	947.92
389.25	994.73
389.45	924.51
389.64	973.66
389.84	1032.18
390.03	1039.20
390.22	1027.50
390.42	1020.47
390.61	945.58
390.81	1043.88
391.00	1104.73
391.19	1109.41
391.39	954.94
391.58	1128.14
391.78	1071.97
391.97	1025.15
392.16	985.37
392.36	997.07
392.55	1006.43
392.75	1081.33
392.94	1064.94
393.13	952.60
393.33	980.68
393.52	1081.33
393.71	1088.35
393.91	1142.18
394.10	1069.62
394.29	1100.05
394.49	1111.75
394.68	1245.16
394.88	1266.23
395.07	1210.06
395.26	1231.12
395.46	1280.27
395.65	1214.74
395.84	1165.59
396.04	1336.45
396.23	1217.08
396.42	1221.76
396.62	1177.29
396.81	1158.57
397.00	1207.72
397.19	1359.85
397.39	1350.49
397.58	1385.60
397.77	1406.66
397.97	1387.94
398.16	1394.96
398.35	1451.13
398.55	1441.77
398.74	1383.26
398.93	1483.90
399.12	1490.92
399.32	1448.79
399.51	1390.28
399.70	1519.01
399.90	1549.43
400.09	1488.58
400.28	1629.01
400.47	1554.12
400.67	1526.03
400.86	1614.97
401.05	1600.93
401.24	1610.29
401.44	1687.53
401.63	1689.87
401.82	1689.87
402.01	1652.42
402.21	1797.53
402.40	1767.10
402.59	1755.40
402.78	1699.23
402.97	1823.28
403.17	1792.85
403.36	1757.74
403.55	1816.26
403.74	1776.47
403.93	1706.25
404.13	1912.22
404.32	1820.94
404.51	1776.47
404.70	1842.00
404.89	1874.77
405.09	2059.67
405.28	1865.41
405.47	1905.20
405.66	1914.56
405.85	1912.22
406.05	1959.03
406.24	2010.52
406.43	2005.84
406.62	2090.10
406.81	2136.91
407.00	2057.33
407.20	2010.52
407.39	2141.59
407.58	2174.36
407.77	2026.90
407.96	2179.04
408.15	2204.78
408.34	2078.40
408.54	2289.04
408.73	2181.38
408.92	2223.51
409.11	2263.30
409.30	2392.03
409.49	2242.23
409.68	2242.23
409.87	2270.32
410.07	2277.34
410.26	2326.49
410.45	2277.34
410.64	2380.32
410.83	2347.56
411.02	2457.56
411.21	2567.57
411.40	2429.48
411.59	2736.09
411.78	2443.52
411.98	2551.18
412.17	2630.76
412.36	2635.44
412.55	2539.48
412.74	2764.17
412.93	2679.91
413.12	2597.99
413.31	2956.10
413.50	2689.28
413.69	2794.60
413.88	2937.37
414.07	2881.20
414.26	2843.75
414.45	2923.33
414.64	2839.07
414.83	3002.91
415.02	3117.59
415.22	3007.59
415.41	3105.89
415.60	3103.55
415.79	3178.45
415.98	3173.77
416.17	3246.32
416.36	3049.72
416.55	3129.30
416.74	3323.56
416.93	3176.11
417.12	3279.09
417.31	3391.44
417.50	3218.24
417.69	3473.36
417.88	3302.50
418.07	3279.09
418.26	3272.07
418.45	3426.54
418.64	3466.33
418.83	3581.02
419.02	3555.27
419.21	3515.48
419.39	3527.19
419.58	3274.41
419.77	3459.31
419.96	3510.80
420.15	3733.15
420.34	3588.04
420.53	3630.17
420.72	3740.18
420.91	3786.99
421.10	3791.67
421.29	3875.93
421.48	3674.64
421.67	3831.46
421.86	3581.02
422.05	3662.94
422.24	3901.67
422.43	3630.17
422.61	3726.13
422.80	3843.16
422.99	3791.67
423.18	3861.88
423.37	3974.23
423.56	3861.88
423.75	3782.31
423.94	3782.31
424.13	3637.19
424.32	3786.99
424.50	3882.95
424.69	3927.42
424.88	4011.68
425.07	3878.27
425.26	4004.66
425.45	3756.56
425.64	3896.99
425.83	3885.29
426.01	3939.12
426.20	3880.61
426.39	4051.47
426.58	3840.82
426.77	3946.14
426.96	3861.88
427.15	3962.53
427.33	3896.99
427.52	3992.95
427.71	4145.09
427.90	3992.95
428.09	4248.07
428.28	4198.92
428.46	4161.47
428.65	4152.11
428.84	4173.18
429.03	4145.09
429.22	4079.55
429.40	4058.49
429.59	4189.56
429.78	3939.12
429.97	3801.03
430.16	4196.58
430.34	3960.19
430.53	4189.56
430.72	4102.96
430.91	4210.62
431.10	4229.35
431.28	4463.40
431.47	4592.13
431.66	4568.73
431.85	4442.34
432.03	4484.47
432.22	4585.11
432.41	4540.64
432.60	4622.56
432.79	4660.01
432.97	4615.54
433.16	4645.96
433.35	4559.36
433.54	4444.68
433.72	4624.90
433.91	4617.88
434.10	4821.50
434.28	4812.14
434.47	4826.18
434.66	4849.59
434.85	4758.31
435.03	4938.53
435.22	4753.63
435.41	5057.90
435.59	5174.92
435.78	4945.55
435.97	5123.43
436.16	5050.88
436.34	5034.49
436.53	5053.22
436.72	5305.99
436.90	4873.00
437.09	5170.24
437.28	4947.89
437.46	5118.75
437.65	5146.84
437.84	5186.63
438.02	5238.12
438.21	5121.09
438.40	4931.51
438.58	5043.85
438.77	5366.85
438.96	5146.84
439.14	5481.53
439.33	5413.66
439.52	5511.96
439.70	5511.96
439.89	5647.71
440.08	5640.69
440.26	5486.22
440.45	5722.61
440.63	5778.78
440.82	5996.45
441.01	5781.12
441.19	5919.21
441.38	5820.91
441.57	6019.86
441.75	6066.67
441.94	6181.35
442.12	6157.95
442.31	6267.95
442.50	6190.72
442.68	6076.03
442.87	6190.72
443.05	6251.57
443.24	6352.21
443.43	6258.59
443.61	6427.11
443.80	6499.67
443.98	6122.84
444.17	6139.23
444.35	6520.73
444.54	6445.84
444.73	6296.04
444.91	6317.11
445.10	6253.91
445.28	6256.25
445.47	6434.13
445.65	6314.77
445.84	6345.19
446.02	6420.09
446.21	6310.08
446.39	6441.15
446.58	6438.81
446.77	6635.42
446.95	6448.18
447.14	6637.76
447.32	6623.72
447.51	6438.81
447.69	6647.12
447.88	6459.88
448.06	6462.22
448.25	6555.84
448.43	6588.61
448.62	6719.68
448.80	6520.73
448.99	6684.57
449.17	6649.46
449.36	6675.21
449.54	6923.30
449.73	6829.68
449.91	7033.31
450.10	7056.72
450.28	7087.14
450.46	7136.29
450.65	7098.84
450.83	6991.18
451.02	7049.69
451.20	7274.38
451.39	7101.19
451.57	7087.14
451.76	7028.63
451.94	7080.12
452.13	7321.20
452.31	7148.00
452.49	6932.67
452.68	7030.97
452.86	7180.76
453.05	7290.77
453.23	7157.36
453.42	7232.26
453.60	7208.85
453.78	7218.21
453.97	7323.54
454.15	7360.98
454.34	7346.94
454.52	7440.56
454.70	7529.50
454.89	7368.01
455.07	7445.24
455.26	7548.23
455.44	7751.85
455.62	7674.62
455.81	7585.68
455.99	7700.36
456.17	7716.75
456.36	7688.66
456.54	7723.77
456.73	7925.05
456.91	7997.61
457.09	8156.77
457.28	8095.91
457.46	7929.74
457.64	8016.33
457.83	7932.08
458.01	7782.28
458.19	8168.47
458.38	8063.15
458.56	8170.81
458.74	8217.62
458.93	8121.66
459.11	8142.72
459.29	8184.85
459.48	8173.15
459.66	8308.90
459.84	8189.53
460.03	8299.54
460.21	8437.63
460.39	8493.80
460.57	8514.87
460.76	8131.02
460.94	8512.53
461.12	8500.83
461.31	8493.80
461.49	8430.61
461.67	8346.35
461.85	8704.45
462.04	8648.28
462.22	9207.67
462.40	8762.97
462.59	8667.00
462.77	8580.40
462.95	8821.48
463.13	8727.86
463.32	8919.78
463.50	8877.65
463.68	8718.50
463.86	8683.39
464.05	8601.47
464.23	8772.33
464.41	8788.71
464.59	8634.24
464.78	8901.06
464.96	8809.78
465.14	8863.61
465.32	9067.24
465.50	9226.39
465.69	9163.20
465.87	9067.24
466.05	9071.92
466.23	8964.25
466.41	9092.98
466.60	9202.99
466.78	9006.38
466.96	8903.40
467.14	9057.87
467.32	9165.54
467.51	9338.74
467.69	9048.51
467.87	9329.38
468.05	9357.46
468.23	9446.40
468.41	9540.02
468.60	9280.22
468.78	9387.89
468.96	9626.62
469.14	9523.64
469.32	9727.27
469.50	9341.08
469.69	9535.34
469.87	9525.98
470.05	9603.22
470.23	9909.83
470.41	9446.40
470.59	9797.48
470.77	9757.69
470.95	9837.27
471.14	9788.12
471.32	9877.06
471.50	10237.50
471.68	10256.23
471.86	10164.95
472.04	10083.03
472.22	10195.37
472.40	10122.82
472.58	10347.51
472.77	10127.50
472.95	10614.33
473.13	10686.89
473.31	10539.43
473.49	10218.78
473.67	10497.30
473.85	10394.32
474.03	10576.88
474.21	10654.12
474.39	10944.34
474.57	10888.17
474.75	10986.47
474.93	10949.03
475.12	10775.83
475.30	11166.70
475.48	10902.22
475.66	11171.38
475.84	11129.25
476.02	11290.74
476.20	11257.98
476.38	11417.13
476.56	11754.17
476.74	11695.66
476.92	11602.04
477.10	11669.91
477.28	11999.93
477.46	11754.17
477.64	12025.67
477.82	12049.08
478.00	12596.76
478.18	12049.08
478.36	12208.23
478.54	12416.54
478.72	12599.10
478.90	12762.94
479.08	13142.11
479.26	13078.91
479.44	12828.48
479.62	13191.26
479.80	13020.40
479.98	13125.72
480.16	13645.32
480.34	13383.18
480.52	13717.88
480.70	13614.90
480.88	13628.94
481.06	13404.25
481.24	13532.98
481.41	14043.21
481.59	14125.13
481.77	14118.11
481.95	14211.73
482.13	14197.69
482.31	14583.88
482.49	14810.91
482.67	14532.39
482.85	14754.74
483.03	14902.19
483.21	14759.42
483.39	15098.80
483.57	15187.74
483.74	15098.80
483.92	15428.81
484.10	15459.24
484.28	15702.65
484.46	15847.77
484.64	16226.93
484.82	15770.53
485.00	15847.77
485.18	16294.81
485.35	16318.22
485.53	15885.22
485.71	15981.18
485.89	16453.97
486.07	16248.00
486.25	16601.42
486.43	16655.25
486.61	16734.83
486.78	16889.31
486.96	17102.29
487.14	17329.33
487.32	17467.42
487.50	17678.07
487.68	17584.44
487.85	17853.61
488.03	18097.02
488.21	18347.46
488.39	18263.20
488.57	18668.11
488.75	18560.45
488.92	18569.81
489.10	19192.39
489.28	19431.13
489.46	19473.26
489.64	19396.02
489.81	19871.15
489.99	19721.35
490.17	19960.09
490.35	20247.97
490.53	20042.01
490.70	20365.00
490.88	20276.06
491.06	20624.80
491.24	20549.90
491.41	20510.11
491.59	20603.74
491.77	20252.66
491.95	20697.36
492.13	21212.28
492.30	21170.15
492.48	21563.36
492.66	21441.65
492.84	21495.48
493.01	21839.54
493.19	21769.32
493.37	22352.12
493.54	22199.98
493.72	22031.46
493.90	22293.60
494.08	22260.84
494.25	22527.66
494.43	23213.43
494.61	23349.18
494.79	23122.15
494.96	23274.29
495.14	23056.62
495.32	23328.12
495.49	23597.28
495.67	23522.38
495.85	23782.18
496.02	23988.15
496.20	24079.43
496.38	24170.71
496.55	24034.96
496.73	24814.36
496.91	24531.15
497.09	24465.62
497.26	24561.58
497.44	24863.51
497.62	24669.25
497.79	25062.46
497.97	24786.27
498.14	25593.76
498.32	25256.72
498.50	25336.30
498.67	25783.34
498.85	25724.83
499.03	25736.53
499.20	26206.98
499.38	26335.71
499.56	26160.17
499.73	26188.25
499.91	26202.30
500.08	26464.44
500.26	26092.29
500.44	26249.11
500.61	26436.35
500.79	26345.07
500.97	26536.99
501.14	26885.73
501.32	27508.32
501.49	26948.93
501.67	26953.61
501.84	27023.83
502.02	27157.24
502.20	27592.58
502.37	27527.04
502.55	27693.22
502.72	27566.83
502.90	27908.55
503.07	27379.59
503.25	27770.46
503.43	27882.80
503.60	27728.33
503.78	27817.27
503.95	28168.35
504.13	28271.33
504.30	28294.74
504.48	28306.44
504.65	28514.75
504.83	28620.07
505.01	28669.22
505.18	29198.18
505.36	29048.39
505.53	29109.24
505.71	29415.85
505.88	29467.34
506.06	29228.61
506.23	29511.81
506.41	29144.35
506.58	29762.25
506.76	29542.24
506.93	29647.57
507.11	29773.95
507.28	30096.95
507.46	29563.31
507.63	29565.65
507.81	30040.78
507.98	29600.76
508.16	30106.31
508.33	30359.09
508.50	30625.91
508.68	30749.96
508.85	30810.81
509.03	30614.21
509.20	31030.82
509.38	31096.36
509.55	31133.81
509.73	30984.01
509.90	31175.94
510.08	30995.71
510.25	31344.45
510.42	31290.62
510.60	31351.48
510.77	31433.39
510.95	31597.23
511.12	31571.49
511.30	31978.74
511.47	31995.12
511.64	31775.11
511.82	32266.63
511.99	31772.77
512.17	32201.09
512.34	32149.60
512.51	32603.66
512.69	32606.00
512.86	32407.06
513.04	32566.21
513.21	32458.55
513.38	32830.69
513.56	32884.53
513.73	32470.25
513.90	32652.81
514.08	32835.38
514.25	33261.35
514.43	32840.06
514.60	32919.63
514.77	32800.27
514.95	33158.37
515.12	33226.24
515.29	33259.01
515.47	33582.01
515.64	33708.40
515.81	33624.14
515.99	33273.06
516.16	33317.53
516.33	33528.17
516.51	33383.06
516.68	33090.49
516.85	33380.72
517.03	33376.04
517.20	33755.21
517.37	33942.45
517.54	34443.32
517.72	33902.66
517.89	33795.00
518.06	33912.02
518.24	34022.03
518.41	33902.66
518.58	33752.87
518.75	34590.78
518.93	34466.73
519.10	34506.52
519.27	34836.53
519.45	34778.02
519.62	34951.22
519.79	35501.25
519.96	34775.68
520.14	35000.37
520.31	35129.10
520.48	35557.42
520.65	35510.61
520.83	35917.86
521.00	35747.00
521.17	36016.16
521.34	35735.30
521.52	35833.60
521.69	36371.92
521.86	36540.44
522.03	36472.57
522.20	36217.45
522.38	36119.15
522.55	36095.74
522.72	35899.14
522.89	36282.98
523.07	36650.45
523.24	36582.57
523.41	36741.73
523.58	36814.29
523.75	37289.42
523.92	36842.37
524.10	36847.05
524.27	37081.11
524.44	37041.32
524.61	37167.71
524.78	37535.17
524.96	37596.03
525.13	37399.42
525.30	37855.82
525.47	37696.67
525.64	37493.04
525.81	37432.19
525.98	37736.46
526.16	36905.57
526.33	37046.00
526.50	37462.61
526.67	37331.54
526.84	37415.80
527.01	37106.85
527.18	37607.73
527.36	38073.49
527.53	38061.79
527.70	38396.49
527.87	37975.19
528.04	37638.15
528.21	38274.78
528.38	38342.66
528.55	38431.60
528.72	38595.43
528.89	39007.37
529.07	39028.43
529.24	38600.12
529.41	38754.59
529.58	38380.10
529.75	38471.39
529.92	38532.24
530.09	39002.69
530.26	39381.85
530.43	39171.21
530.60	38295.85
530.77	39147.80
530.94	39606.55
531.11	38948.85
531.28	39262.49
531.46	39407.60
531.63	39735.27
531.80	39271.85
531.97	39122.05
532.14	39119.71
532.31	39274.19
532.48	39402.92
532.65	39466.11
532.82	39672.08
532.99	39840.60
533.16	39346.75
533.33	40371.90
533.50	39908.47
533.67	40123.80
533.84	39763.36
534.01	39995.07
534.18	39882.73
534.35	40435.10
534.52	39824.22
534.69	40367.22
534.86	40154.23
535.03	39941.24
535.20	40275.94
535.37	40931.29
535.54	40624.68
535.71	40582.55
535.88	40322.75
536.05	40318.07
536.22	40804.90
536.38	40730.00
536.55	40540.42
536.72	40289.98
536.89	40175.30
537.06	41099.81
537.23	40935.97
537.40	41029.59
537.57	40957.03
537.74	41172.36
537.91	41134.92
538.08	41102.15
538.25	41123.21
538.42	40793.20
538.59	41530.47
538.75	41024.91
538.92	40872.78
539.09	41221.52
539.26	41909.63
539.43	41027.25
539.60	41268.33
539.77	40952.35
539.94	41523.44
540.11	41064.70
540.28	41397.06
540.44	41635.79
540.61	41476.63
540.78	41364.29
540.95	41574.94
541.12	41598.34
541.29	41486.00
541.46	41886.23
541.62	41734.09
541.79	41937.72
541.96	41675.58
542.13	41535.15
542.30	42136.66
542.47	41771.54
542.63	41869.84
542.80	42012.62
542.97	42452.64
543.14	42288.80
543.31	42464.34
543.48	42611.79
543.64	42878.61
543.81	43166.50
543.98	42670.31
544.15	42260.71
544.32	42887.98
544.48	42869.25
544.65	42726.48
544.82	42604.77
544.99	42574.34
545.16	42904.36
545.32	42763.93
545.49	42904.36
545.66	43208.63
545.83	43512.90
546.00	43178.20
546.16	43126.71
546.33	42993.30
546.50	42822.44
546.67	43531.62
546.83	42574.34
547.00	43550.35
547.17	42838.83
547.34	43281.19
547.50	42885.64
547.67	43459.07
547.84	43524.60
548.00	43496.52
548.17	43903.77
548.34	43585.46
548.51	43775.04
548.67	43674.40
548.84	44100.37
549.01	43667.37
549.18	43711.84
549.34	43643.97
549.51	44119.10
549.68	43796.10
549.84	43810.15
550.01	43903.77
550.18	44060.58
550.34	43817.17
550.51	44046.54
550.68	43477.79
550.84	43669.72
551.01	43693.12
551.18	44205.70
551.34	44079.31
551.51	44329.75
551.68	44224.42
551.84	44376.56
552.01	43892.07
552.18	44086.33
552.34	44217.40
552.51	44238.47
552.68	44055.90
552.84	44292.30
553.01	44535.71
553.18	44423.37
553.34	44247.83
553.51	44301.66
553.67	44807.22
553.84	45083.40
554.01	44648.06
554.17	44598.91
554.34	44428.05
554.51	44636.36
554.67	44449.11
554.84	44854.03
555.00	44591.89
555.17	44690.19
555.33	45209.79
555.50	44879.77
555.67	44884.45
555.83	44395.28
556.00	44765.09
556.16	45296.39
556.33	44821.26
556.50	44348.47
556.66	45268.30
556.83	44566.14
556.99	45530.44
557.16	45069.36
557.32	45223.83
557.49	45237.87
557.65	44949.99
557.82	45078.72
557.98	44964.03
558.15	44748.70
558.32	45111.49
558.48	44751.04
558.65	45118.51
558.81	44931.26
558.98	45120.85
559.14	45546.82
559.31	45219.15
559.47	45226.17
559.64	45460.23
559.80	45247.24
559.97	45497.67
560.13	45312.77
560.30	45289.37
560.46	45371.28
560.63	45780.88
560.79	45724.71
560.96	46115.58
561.12	45265.96
561.29	45752.79
561.45	45427.46
561.61	45661.51
561.78	45584.27
561.94	44978.07
562.11	45577.25
562.27	45120.85
562.44	45331.50
562.60	45766.84
562.77	45677.90
562.93	45968.12
563.10	45888.54
563.26	45474.27
563.42	46230.26
563.59	45720.02
563.75	45713.00
563.92	46024.29
564.08	45635.77
564.24	45907.27
564.41	45738.75
564.57	45663.85
564.74	45626.40
564.90	46075.79
565.07	45722.37
565.23	45588.95
565.39	45605.34
565.56	45865.14
565.72	45567.89
565.88	45631.08
566.05	45780.88
566.21	45354.90
566.38	45598.32
566.54	45958.76
566.70	46129.62
566.87	46181.11
567.03	46382.40
567.19	46330.90
567.36	45755.13
567.52	45970.46
567.68	46124.94
567.85	45588.95
568.01	45900.25
568.17	46028.98
568.34	45972.80
568.50	46087.49
568.66	46204.52
568.83	45471.93
568.99	45996.21
569.15	45832.37
569.32	46188.13
569.48	45705.98
569.64	46253.67
569.81	46424.53
569.97	45642.79
570.13	45799.60
570.30	45799.60
570.46	45628.74
570.62	45441.50
570.78	45820.67
570.95	45715.34
571.11	46117.92
571.27	45879.18
571.43	45900.25
571.60	46068.76
571.76	45787.90
571.92	46045.36
572.09	46073.45
572.25	46066.42
572.41	45420.44
572.57	45865.14
572.74	46431.55
572.90	46256.01
573.06	46094.51
573.22	46181.11
573.38	45818.33
573.55	46082.81
573.71	46157.70
573.87	46260.69
574.03	45860.46
574.20	46384.74
574.36	45813.65
574.52	46265.37
574.68	45998.55
574.84	46195.15
575.01	45965.78
575.17	45998.55
575.33	45617.04
575.49	45401.71
575.65	46616.45
575.82	46457.29
575.98	46007.91
576.14	46272.39
576.30	46370.69
576.46	46160.05
576.62	46108.55
576.79	46323.88
576.95	45677.90
577.11	46021.95
577.27	46244.30
577.43	45961.10
577.59	46038.34
577.75	46192.81
577.92	46127.28
578.08	46031.32
578.24	46384.74
578.40	46176.43
578.56	46195.15
578.72	46256.01
578.88	46810.71
579.04	45968.12
579.21	46227.92
579.37	46174.09
579.53	46115.58
579.69	46302.82
579.85	46717.09
580.01	46506.44
580.17	46803.69
580.33	46452.61
580.49	46567.30
580.65	46483.04
580.82	46080.47
580.98	46220.90
581.14	45972.80
581.30	46513.47
581.46	46452.61
581.62	46028.98
581.78	46419.84
581.94	46672.62
582.10	46370.69
582.26	46548.57
582.42	46466.66
582.58	45968.12
582.74	46192.81
582.90	46218.56
583.06	46405.80
583.22	46513.47
583.38	46555.60
583.54	46663.26
583.70	46038.34
583.86	46237.28
584.02	45911.95
584.18	46628.15
584.34	46426.87
584.50	46457.29
584.66	46485.38
584.82	46174.09
584.98	46272.39
585.14	46419.84
585.30	46188.13
585.46	46211.54
585.62	46326.22
585.78	45970.46
585.94	46206.86
586.10	46160.05
586.26	46541.55
586.42	46579.00
586.58	46469.00
586.74	46333.24
586.90	46237.28
587.06	46096.85
587.22	46298.14
587.38	45904.93
587.54	46583.68
587.70	46752.20
587.86	46281.75
588.02	46602.41
588.18	46625.81
588.34	45951.74
588.49	45954.08
588.65	45579.59
588.81	45918.97
588.97	46085.15
589.13	45799.60
589.29	46265.37
589.45	46206.86
589.61	46564.96
589.77	46995.62
589.93	46340.27
590.08	46429.21
