SpectraSuite Data File
++++++++++++++++++++++++++++++++++++
Date: Fri Oct 25 11:33:47 EDT 2013
User: price-jones
Dark Spectrum Present: No
Reference Spectrum Present: No
Number of Sampled Component Spectra: 1
Spectrometers: USB2+H05261
Integration Time (usec): 100000 (USB2+H05261)
Spectra Averaged: 1 (USB2+H05261)
Boxcar Smoothing: 0 (USB2+H05261)
Correct for Electrical Dark: No (USB2+H05261)
Strobe/Lamp Enabled: No (USB2+H05261)
Correct for Detector Non-linearity: No (USB2+H05261)
Correct for Stray Light: No (USB2+H05261)
Number of Pixels in Processed Spectrum: 2048
>>>>>Begin Processed Spectral Data<<<<<
365.73	252.78
365.92	252.78
366.12	252.78
366.32	227.03
366.52	156.82
366.72	177.88
366.91	177.88
367.11	159.16
367.31	67.88
367.51	133.41
367.70	210.65
367.90	177.88
368.10	152.13
368.30	238.73
368.49	194.26
368.69	238.73
368.89	149.79
369.09	231.71
369.28	224.69
369.48	187.24
369.68	250.44
369.87	189.58
370.07	208.31
370.27	320.65
370.47	374.49
370.66	491.51
370.86	510.24
371.06	543.00
371.25	533.64
371.45	554.71
371.65	599.18
371.84	580.45
372.04	552.37
372.24	557.05
372.44	594.50
372.63	575.77
372.83	683.44
373.03	643.65
373.22	653.01
373.42	653.01
373.62	603.86
373.81	608.54
374.01	603.86
374.21	610.88
374.40	606.20
374.60	676.41
374.79	627.26
374.99	613.22
375.19	711.52
375.38	599.18
375.58	641.31
375.78	704.50
375.97	667.05
376.17	763.01
376.37	615.56
376.56	739.61
376.76	699.82
376.95	585.13
377.15	606.20
377.35	650.67
377.54	692.80
377.74	706.84
377.93	784.08
378.13	645.99
378.33	706.84
378.52	739.61
378.72	777.06
378.91	683.44
379.11	739.61
379.31	704.50
379.50	734.93
379.70	734.93
379.89	767.70
380.09	798.12
380.28	744.29
380.48	744.29
380.68	720.88
380.87	667.05
381.07	744.29
381.26	826.21
381.46	753.65
381.65	793.44
381.85	741.95
382.04	828.55
382.24	720.88
382.43	763.01
382.63	751.31
382.83	737.27
383.02	819.19
383.22	821.53
383.41	709.18
383.61	828.55
383.80	861.32
384.00	828.55
384.19	800.46
384.39	807.48
384.58	828.55
384.78	816.85
384.97	880.04
385.17	809.83
385.36	807.48
385.56	915.15
385.75	805.14
385.95	840.25
386.14	866.00
386.34	842.59
386.53	812.17
386.72	763.01
386.92	866.00
387.11	835.57
387.31	908.13
387.50	875.36
387.70	835.57
387.89	898.77
388.09	814.51
388.28	868.34
388.48	912.81
388.67	1025.15
388.86	908.13
389.06	901.11
389.25	1004.09
389.45	938.55
389.64	926.85
389.84	945.58
390.03	894.08
390.22	947.92
390.42	954.94
390.61	1011.11
390.81	971.32
391.00	964.30
391.19	1029.84
391.39	929.19
391.58	933.87
391.78	945.58
391.97	1067.28
392.16	1064.94
392.36	1167.93
392.55	983.02
392.75	1027.50
392.94	1048.56
393.13	1088.35
393.33	1149.20
393.52	1156.22
393.71	1153.88
393.91	1130.48
394.10	1034.52
394.29	1165.59
394.49	1109.41
394.68	1074.31
394.88	1132.82
395.07	1123.46
395.26	1193.67
395.46	1064.94
395.65	1207.72
395.84	1188.99
396.04	1301.34
396.23	1132.82
396.42	1268.57
396.62	1200.69
396.81	1226.44
397.00	1266.23
397.19	1200.69
397.39	1186.65
397.58	1245.16
397.77	1200.69
397.97	1343.47
398.16	1308.36
398.35	1289.64
398.55	1254.53
398.74	1219.42
398.93	1306.02
399.12	1275.59
399.32	1224.10
399.51	1322.40
399.70	1352.83
399.90	1383.26
400.09	1406.66
400.28	1406.66
400.47	1397.30
400.67	1439.43
400.86	1427.73
401.05	1404.32
401.24	1530.71
401.44	1364.53
401.63	1530.71
401.82	1474.54
402.01	1355.17
402.21	1490.92
402.40	1537.73
402.59	1458.15
402.78	1535.39
402.97	1540.07
403.17	1572.84
403.36	1488.58
403.55	1584.54
403.74	1558.80
403.93	1612.63
404.13	1636.03
404.32	1645.40
404.51	1589.22
404.70	1638.38
404.89	1582.20
405.09	1701.57
405.28	1748.38
405.47	1598.59
405.66	1687.53
405.85	1769.44
406.05	1708.59
406.24	1804.55
406.43	1703.91
406.62	1753.06
406.81	1881.79
407.00	1755.40
407.20	1720.29
407.39	1827.96
407.58	1769.44
407.77	1774.13
407.96	1799.87
408.15	1739.02
408.34	1858.39
408.54	1984.77
408.73	1851.36
408.92	2015.20
409.11	1902.86
409.30	1970.73
409.49	2040.95
409.68	2008.18
409.87	1998.82
410.07	1921.58
410.26	1926.26
410.45	2106.48
410.64	2078.40
410.83	2125.21
411.02	2045.63
411.21	2106.48
411.40	2085.42
411.59	2242.23
411.78	2125.21
411.98	2104.14
412.17	2193.08
412.36	2200.10
412.55	2300.75
412.74	2291.38
412.93	2326.49
413.12	2284.36
413.31	2436.50
413.50	2305.43
413.69	2382.67
413.88	2513.74
414.07	2586.29
414.26	2525.44
414.45	2471.61
414.64	2506.71
414.83	2504.37
415.02	2607.36
415.22	2597.99
415.41	2663.53
415.60	2651.83
415.79	2693.96
415.98	2759.49
416.17	2649.49
416.36	2684.59
416.55	2724.38
416.74	2839.07
416.93	2724.38
417.12	2698.64
417.31	2839.07
417.50	2913.97
417.69	3038.02
417.88	3021.63
418.07	2888.22
418.26	2965.46
418.45	2935.03
418.64	3070.78
418.83	3040.36
419.02	3089.51
419.21	3129.30
419.39	3152.70
419.58	2949.08
419.77	2995.89
419.96	3185.47
420.15	3073.12
420.34	3155.04
420.53	3077.80
420.72	3206.53
420.91	3197.17
421.10	3279.09
421.29	3288.45
421.48	3304.84
421.67	3187.81
421.86	3323.56
422.05	3215.90
422.24	3304.84
422.43	3421.86
422.61	3304.84
422.80	3239.30
422.99	3286.11
423.18	3433.57
423.37	3421.86
423.56	3581.02
423.75	3353.99
423.94	3255.69
424.13	3108.23
424.32	3211.22
424.50	3428.88
424.69	3468.67
424.88	3466.33
425.07	3351.65
425.26	3473.36
425.45	3510.80
425.64	3428.88
425.83	3375.05
426.01	3440.59
426.20	3370.37
426.39	3499.10
426.58	3473.36
426.77	3569.32
426.96	3538.89
427.15	3620.81
427.33	3562.30
427.52	3581.02
427.71	3482.72
427.90	3590.38
428.09	3604.42
428.28	3698.05
428.46	3772.94
428.65	3693.37
428.84	3719.11
429.03	3794.01
429.22	3707.41
429.40	3695.71
429.59	3777.62
429.78	3686.34
429.97	3585.70
430.16	3808.05
430.34	3815.07
430.53	3768.26
430.72	3913.38
430.91	3885.29
431.10	3866.56
431.28	3955.51
431.47	3861.88
431.66	4138.07
431.85	3918.06
432.03	4105.30
432.22	3974.23
432.41	3939.12
432.60	4079.55
432.79	4088.92
432.97	4147.43
433.16	4133.39
433.35	4154.45
433.54	4166.15
433.72	4046.79
433.91	4222.33
434.10	4245.73
434.28	4070.19
434.47	4306.59
434.66	4290.20
434.85	4273.82
435.03	4196.58
435.22	4353.40
435.41	4423.61
435.59	4285.52
435.78	4280.84
435.97	4407.23
436.16	4351.06
436.34	4437.66
436.53	4348.72
436.72	4510.21
436.90	4425.95
437.09	4650.64
437.28	4409.57
437.46	4615.54
437.65	4571.07
437.84	4540.64
438.02	4585.11
438.21	4699.80
438.40	4690.43
438.58	4744.27
438.77	4795.76
438.96	4683.41
439.14	4856.61
439.33	4987.68
439.52	5006.41
439.70	4926.83
439.89	4940.87
440.08	5130.45
440.26	5032.15
440.45	4947.89
440.63	5036.83
440.82	5207.69
441.01	5135.14
441.19	5181.95
441.38	5273.23
441.57	5191.31
441.75	5247.48
441.94	5394.93
442.12	5490.90
442.31	5523.66
442.50	5413.66
442.68	5296.63
442.87	5511.96
443.05	5451.11
443.24	5504.94
443.43	5521.32
443.61	5423.02
443.80	5813.89
443.98	5437.06
444.17	5518.98
444.35	5565.79
444.54	5652.39
444.73	5636.01
444.91	5542.39
445.10	5631.33
445.28	5727.29
445.47	5523.66
445.65	5411.32
445.84	5790.49
446.02	5731.97
446.21	5776.44
446.39	5659.42
446.58	5881.77
446.77	5582.18
446.95	5678.14
447.14	5767.08
447.32	5727.29
447.51	5724.95
447.69	5603.24
447.88	5720.27
448.06	5851.34
448.25	5715.59
448.43	5905.17
448.62	5839.64
448.80	5788.14
448.99	5809.21
449.17	6024.54
449.36	5949.64
449.54	5898.15
449.73	5951.98
449.91	6132.20
450.10	6155.61
450.28	6092.41
450.46	6155.61
450.65	6186.04
450.83	6150.93
451.02	5996.45
451.20	6087.73
451.39	6361.58
451.57	6164.97
451.76	6193.06
451.94	6171.99
452.13	6307.74
452.31	6319.45
452.49	6314.77
452.68	6265.61
452.86	6303.06
453.05	6450.52
453.23	6328.81
453.42	6387.32
453.60	6291.36
453.78	6485.62
453.97	6452.86
454.15	6373.28
454.34	6279.66
454.52	6607.33
454.70	6614.35
454.89	6476.26
455.07	6553.50
455.26	6635.42
455.44	6747.76
455.62	6464.56
455.81	6642.44
455.99	6707.98
456.17	6822.66
456.36	6740.74
456.54	6832.02
456.73	6827.34
456.91	6867.13
457.09	7045.01
457.28	6986.50
457.46	6939.69
457.64	7033.31
457.83	7171.40
458.01	7061.40
458.19	7232.26
458.38	7042.67
458.56	7157.36
458.74	7295.45
458.93	7176.08
459.11	7122.25
459.29	7148.00
459.48	7229.91
459.66	7295.45
459.84	7204.17
460.03	7386.73
460.21	7363.33
460.39	7382.05
460.57	7517.80
460.76	7602.06
460.94	7590.36
461.12	7438.22
461.31	7428.86
461.49	7405.46
461.67	7611.42
461.85	7737.81
462.04	7744.83
462.22	7927.39
462.40	7712.07
462.59	7775.26
462.77	7786.96
462.95	7770.58
463.13	7714.41
463.32	7779.94
463.50	7948.46
463.68	7950.80
463.86	7810.37
464.05	7742.49
464.23	7915.69
464.41	7836.11
464.59	7793.98
464.78	8039.74
464.96	7918.03
465.14	7756.54
465.32	8093.57
465.50	8142.72
465.69	8128.68
465.87	7899.31
466.05	8163.79
466.23	8126.34
466.41	8292.52
466.60	8346.35
466.78	8215.28
466.96	8173.15
467.14	8121.66
467.32	8222.30
467.51	8432.95
467.69	8035.06
467.87	8362.73
468.05	8414.23
468.23	8154.43
468.41	8318.26
468.60	8451.67
468.78	8484.44
468.96	8458.70
469.14	8592.11
469.32	8503.17
469.50	8512.53
469.69	8711.47
469.87	8613.17
470.05	8652.96
470.23	8847.22
470.41	8767.65
470.59	8884.67
470.77	8870.63
470.95	8699.77
471.14	8980.64
471.32	8814.46
471.50	9053.19
471.68	9060.21
471.86	9214.69
472.04	9149.15
472.22	9338.74
472.40	8945.53
472.58	9102.34
472.77	9245.12
472.95	9331.72
473.13	9441.72
473.31	9102.34
473.49	9411.29
473.67	9401.93
473.85	9673.43
474.03	9596.20
474.21	9554.07
474.39	9722.59
474.57	9781.10
474.75	9523.64
474.93	9895.78
475.12	9720.24
475.30	9753.01
475.48	9956.64
475.66	10164.95
475.84	10125.16
476.02	10237.50
476.20	10265.59
476.38	10373.25
476.56	10501.98
476.74	10611.99
476.92	10551.14
477.10	10450.49
477.28	10626.03
477.46	10595.61
477.64	10932.64
477.82	11073.07
478.00	11248.61
478.18	10930.30
478.36	11218.19
478.54	11307.13
478.72	11370.32
478.90	11360.96
479.08	11513.10
479.26	11646.51
479.44	11690.98
479.62	11782.26
479.80	11808.00
479.98	12002.27
480.16	12322.92
480.34	12072.48
480.52	12114.61
480.70	12255.04
480.88	12327.60
481.06	12479.74
481.24	12336.96
481.41	12631.87
481.59	12617.83
481.77	12821.45
481.95	12910.40
482.13	12833.16
482.31	12961.89
482.49	13294.24
482.67	13261.48
482.85	13303.60
483.03	13516.59
483.21	13420.63
483.39	14003.43
483.57	13610.22
483.74	13902.78
483.92	14132.15
484.10	13984.70
484.28	14265.57
484.46	14516.00
484.64	14778.14
484.82	14356.85
485.00	14630.69
485.18	14972.41
485.35	15187.74
485.53	14963.04
485.71	14911.55
485.89	15353.91
486.07	15311.78
486.25	15379.66
486.43	15503.71
486.61	15672.23
486.78	15756.49
486.96	15903.94
487.14	15669.89
487.32	16116.93
487.50	16493.76
487.68	16666.95
487.85	16519.50
488.03	16627.17
488.21	17111.66
488.39	16870.58
488.57	16982.93
488.75	17214.64
488.92	17158.47
489.10	17432.31
489.28	17621.89
489.46	17589.13
489.64	17774.03
489.81	18120.43
489.99	18111.07
490.17	18185.96
490.35	18387.25
490.53	18663.43
490.70	18527.68
490.88	18560.45
491.06	18820.25
491.24	18752.37
491.41	19215.80
491.59	19077.71
491.77	19257.93
491.95	19353.89
492.13	19543.47
492.30	19594.96
492.48	19213.46
492.66	19875.83
492.84	19686.25
493.01	20381.38
493.19	20161.37
493.37	20311.17
493.54	20325.21
493.72	20673.95
493.90	20631.82
494.08	20783.96
494.25	21060.14
494.43	20856.51
494.61	21029.71
494.79	21350.37
494.96	21242.70
495.14	21465.05
495.32	21546.97
495.49	21247.38
495.67	21486.12
495.85	22113.38
496.02	22022.10
496.20	22522.98
496.38	22242.11
496.55	22434.03
496.73	23037.89
496.91	22663.41
497.09	22782.77
497.26	23073.00
497.44	22824.90
497.62	23281.31
497.79	23218.11
497.97	23012.15
498.14	23599.62
498.32	23730.69
498.50	23559.83
498.67	24009.22
498.85	23730.69
499.03	24130.92
499.20	23995.17
499.38	24460.94
499.56	24240.93
499.73	24577.97
499.91	24594.35
500.08	24510.09
500.26	24779.25
500.44	24676.27
500.61	24669.25
500.79	24718.40
500.97	25022.67
501.14	25348.00
501.32	25333.96
501.49	24868.19
501.67	25631.21
501.84	25472.05
502.02	25537.59
502.20	25874.62
502.37	25685.04
502.55	25638.23
502.72	26139.10
502.90	26118.04
503.07	25977.61
503.25	26155.49
503.43	26038.46
503.60	26190.59
503.78	26412.95
503.95	26455.08
504.13	26118.04
504.30	26951.27
504.48	26993.40
504.65	26623.59
504.83	26953.61
505.01	27026.17
505.18	26867.01
505.36	27218.09
505.53	27208.73
505.71	27545.76
505.88	27522.36
506.06	27133.83
506.23	27967.06
506.41	27424.06
506.58	27765.78
506.76	27667.47
506.93	28037.28
507.11	27838.33
507.28	28105.15
507.46	28449.21
507.63	28369.63
507.81	28439.85
507.98	28093.45
508.16	28472.62
508.33	28596.67
508.50	28409.42
508.68	28617.73
508.85	29006.26
509.03	28849.44
509.20	29020.30
509.38	29001.58
509.55	28903.28
509.73	29202.86
509.90	29207.55
510.08	29240.31
510.25	29457.98
510.42	29743.53
510.60	29530.54
510.77	29837.15
510.95	30281.85
511.12	29942.47
511.30	29717.78
511.47	29666.29
511.64	29996.31
511.82	30433.99
511.99	30139.08
512.17	30710.17
512.34	30443.35
512.51	30665.70
512.69	30984.01
512.86	30597.82
513.04	30965.29
513.21	31084.65
513.38	31356.16
513.56	31197.00
513.73	31274.24
513.90	31271.90
514.08	31288.28
514.25	31325.73
514.43	31433.39
514.60	31690.85
514.77	31505.95
514.95	31737.66
515.12	31501.27
515.29	31725.96
515.47	31910.86
515.64	32030.23
515.81	31854.69
515.99	32114.49
516.16	32100.45
516.33	32144.92
516.51	32385.99
516.68	32446.85
516.85	32594.30
517.03	32437.48
517.20	32449.19
517.37	32954.74
517.54	32554.51
517.72	32896.23
517.89	33149.01
518.06	33385.40
518.24	33029.64
518.41	32826.01
518.58	32826.01
518.75	33078.79
518.93	33319.87
519.10	33436.89
519.27	33200.50
519.45	33209.86
519.62	33626.48
519.79	33589.03
519.96	33797.34
520.14	33888.62
520.31	33483.70
520.48	34054.79
520.65	34022.03
520.83	34506.52
521.00	34438.64
521.17	34323.96
521.34	34120.33
521.52	34359.06
521.69	34569.71
521.86	34300.55
522.03	34597.80
522.20	34660.99
522.38	34782.70
522.55	35215.70
522.72	34888.03
522.89	34958.24
523.07	35435.71
523.24	34955.90
523.41	35218.04
523.58	34646.95
523.75	35639.34
523.92	35122.08
524.10	35536.35
524.27	35515.29
524.44	35543.38
524.61	35842.96
524.78	35831.26
524.96	35700.19
525.13	36046.59
525.30	36175.32
525.47	35995.10
525.64	36460.87
525.81	36385.97
525.98	36542.78
526.16	36079.36
526.33	36041.91
526.50	36613.00
526.67	36098.08
526.84	36715.98
527.01	36147.23
527.18	36669.17
527.36	36322.77
527.53	36809.61
527.70	37106.85
527.87	36971.10
528.04	36863.44
528.21	36849.39
528.38	37158.34
528.55	37308.14
528.72	37427.51
528.89	36720.66
529.07	37071.75
529.24	36851.73
529.41	38155.41
529.58	37422.83
529.75	37111.53
529.92	37486.02
530.09	37385.38
530.26	37371.33
530.43	38106.26
530.60	37486.02
530.77	37603.05
530.94	37794.97
531.11	37514.11
531.28	37457.93
531.46	38124.99
531.63	38012.64
531.80	38143.71
531.97	38501.81
532.14	38412.87
532.31	38010.30
532.48	38178.82
532.65	38572.03
532.82	38284.14
532.99	38508.83
533.16	38810.76
533.33	38934.81
533.50	38539.26
533.67	38747.57
533.84	38672.67
534.01	38859.91
534.18	38747.57
534.35	39161.84
534.52	39086.95
534.69	39435.69
534.86	39512.92
535.03	38740.55
535.20	39487.18
535.37	39311.64
535.54	39910.82
535.71	39597.18
535.88	39742.30
536.05	39416.96
536.22	39674.42
536.38	39428.66
536.55	39431.01
536.72	39442.71
536.89	39878.05
537.06	39751.66
537.23	39952.94
537.40	40203.38
537.57	39328.02
537.74	40051.25
537.91	40355.52
538.08	40306.37
538.25	39964.65
538.42	40238.49
538.59	40542.76
538.75	40194.02
538.92	40172.96
539.09	40825.96
539.26	40701.92
539.43	40374.24
539.60	40561.48
539.77	40107.42
539.94	40531.06
540.11	40507.65
540.28	40322.75
540.44	40708.94
540.61	40638.72
540.78	40432.75
540.95	40889.16
541.12	40802.56
541.29	40907.88
541.46	40755.75
541.62	40868.09
541.79	41226.20
541.96	40741.71
542.13	40788.52
542.30	41322.16
542.47	41092.79
542.63	41329.18
542.80	41706.01
542.97	41668.56
543.14	41773.88
543.31	41626.43
543.48	41722.39
543.64	41986.87
543.81	42082.83
543.98	42153.05
544.15	41780.90
544.32	42068.79
544.48	42871.59
544.65	42422.21
544.82	42017.30
544.99	41933.04
545.16	42101.56
545.32	42007.94
545.49	42422.21
545.66	42574.34
545.83	42649.24
546.00	42902.02
546.16	42583.71
546.33	41811.33
546.50	42361.36
546.67	42895.00
546.83	41902.61
547.00	42569.66
547.17	42646.90
547.34	43079.90
547.50	42897.34
547.67	42944.15
547.84	42848.19
548.00	43023.73
548.17	43232.04
548.34	43072.88
548.51	42883.30
548.67	43152.46
548.84	43122.03
549.01	43395.87
549.18	42843.51
549.34	43374.81
549.51	43391.19
549.68	43335.02
549.84	43679.08
550.01	43662.69
550.18	43023.73
550.34	43290.55
550.51	43601.84
550.68	43377.15
550.84	43274.16
551.01	43756.32
551.18	43782.06
551.34	43267.14
551.51	43782.06
551.68	43892.07
551.84	43662.69
552.01	43512.90
552.18	44135.48
552.34	43636.95
552.51	43824.19
552.68	44266.55
552.84	44165.91
553.01	44095.69
553.18	43805.47
553.34	44287.62
553.51	43894.41
553.67	44039.52
553.84	44439.75
554.01	44231.44
554.17	43929.51
554.34	44722.96
554.51	44526.35
554.67	44641.04
554.84	44257.19
555.00	44521.67
555.17	44526.35
555.33	44645.72
555.50	44598.91
555.67	44355.49
555.83	44886.79
556.00	44678.49
556.16	45397.03
556.33	44924.24
556.50	44608.27
556.66	45130.21
556.83	44626.99
556.99	45322.13
557.16	44992.12
557.32	45296.39
557.49	45380.65
557.65	44842.32
557.82	45272.98
557.98	45113.83
558.15	44996.80
558.32	45059.99
558.48	44919.56
558.65	45228.51
558.81	45347.88
558.98	44935.95
559.14	45228.51
559.31	45153.62
559.47	45165.32
559.64	45261.28
559.80	45469.59
559.97	45684.92
560.13	45155.96
560.30	45532.78
560.46	45441.50
560.63	45539.80
560.79	45815.99
560.96	45755.13
561.12	45586.61
561.29	45371.28
561.45	45275.32
561.61	45408.73
561.78	45471.93
561.94	45579.59
562.11	45406.39
562.27	45345.54
562.44	45507.04
562.60	45785.56
562.77	45595.98
562.93	45420.44
563.10	45741.09
563.26	45481.29
563.42	45982.16
563.59	45574.91
563.75	45523.42
563.92	45827.69
564.08	46036.00
564.24	46087.49
564.41	46101.53
564.57	45961.10
564.74	46094.51
564.90	45427.46
565.07	46181.11
565.23	45825.35
565.39	46265.37
565.56	46209.20
565.72	46183.45
565.88	46176.43
566.05	46085.15
566.21	46129.62
566.38	46134.30
566.54	46401.12
566.70	46333.24
566.87	46146.00
567.03	46225.58
567.19	46225.58
567.36	46412.82
567.52	46213.88
567.68	46635.17
567.85	46380.06
568.01	46536.87
568.17	46038.34
568.34	46689.01
568.50	46579.00
568.66	45998.55
568.83	46351.97
568.99	46600.07
569.15	46293.46
569.32	46728.80
569.48	46494.74
569.64	46609.43
569.81	46387.08
569.97	46471.34
570.13	46337.93
570.30	46134.30
570.46	46653.90
570.62	46611.77
570.78	46642.20
570.95	46663.26
571.11	46866.89
571.27	46529.85
571.43	46349.63
571.60	46541.55
571.76	46614.11
571.92	46454.95
572.09	46443.25
572.25	46401.12
572.41	46586.02
572.57	46457.29
572.74	46866.89
572.90	46822.42
573.06	46967.53
573.22	46810.71
573.38	46848.16
573.55	47002.64
573.71	46791.99
573.87	47107.96
574.03	46651.56
574.20	47269.46
574.36	46775.61
574.52	46890.29
574.68	46822.42
574.84	46672.62
575.01	47236.69
575.17	47189.88
575.33	47047.11
575.49	46557.94
575.65	46993.28
575.82	47040.09
575.98	46564.96
576.14	46628.15
576.30	47056.47
576.46	47164.14
576.62	47166.48
576.79	46784.97
576.95	46892.63
577.11	47012.00
577.27	47105.62
577.43	47072.85
577.59	47065.83
577.75	46742.84
577.92	46574.32
578.08	46855.18
578.24	46972.21
578.40	47119.66
578.56	46855.18
578.72	46862.21
578.88	47002.64
579.04	47278.82
579.21	46784.97
579.37	46979.23
579.53	47000.30
579.69	47114.98
579.85	46686.67
580.01	46815.40
580.17	47065.83
580.33	47262.44
580.49	46934.76
580.65	47103.28
580.82	46906.68
580.98	47356.06
581.14	46904.34
581.30	47487.13
581.46	47070.51
581.62	47012.00
581.78	47164.14
581.94	47250.74
582.10	46965.19
582.26	47290.52
582.42	46892.63
582.58	47445.00
582.74	47124.35
582.90	47391.17
583.06	47550.32
583.22	46941.78
583.38	47791.40
583.54	47154.77
583.70	47152.43
583.86	47295.21
584.02	47192.22
584.18	47356.06
584.34	47030.72
584.50	47299.89
584.66	47372.44
584.82	47618.20
584.98	47529.26
585.14	47704.80
585.30	47019.02
585.46	47419.25
585.62	47077.54
585.78	47192.22
585.94	46651.56
586.10	47437.98
586.26	47037.75
586.42	47093.92
586.58	47402.87
586.74	46997.96
586.90	46850.50
587.06	47229.67
587.22	47526.92
587.38	47508.19
587.54	47835.87
587.70	47683.73
587.86	47515.22
588.02	47110.30
588.18	47248.39
588.34	47246.05
588.49	47433.30
588.65	47194.56
588.81	47524.58
588.97	47393.51
589.13	47168.82
589.29	47459.04
589.45	47622.88
589.61	47342.02
589.77	47224.99
589.93	47484.79
590.08	47721.18
