SpectraSuite Data File
++++++++++++++++++++++++++++++++++++
Date: Fri Oct 25 11:26:22 EDT 2013
User: price-jones
Dark Spectrum Present: No
Reference Spectrum Present: No
Number of Sampled Component Spectra: 1
Spectrometers: USB2+H05261
Integration Time (usec): 100000 (USB2+H05261)
Spectra Averaged: 1 (USB2+H05261)
Boxcar Smoothing: 0 (USB2+H05261)
Correct for Electrical Dark: No (USB2+H05261)
Strobe/Lamp Enabled: No (USB2+H05261)
Correct for Detector Non-linearity: No (USB2+H05261)
Correct for Stray Light: No (USB2+H05261)
Number of Pixels in Processed Spectrum: 2048
>>>>>Begin Processed Spectral Data<<<<<
365.73	215.33
365.92	215.33
366.12	215.33
366.32	175.54
366.52	182.56
366.72	196.60
366.91	126.39
367.11	110.01
367.31	156.82
367.51	173.20
367.70	119.37
367.90	215.33
368.10	154.48
368.30	91.28
368.49	72.56
368.69	138.09
368.89	121.71
369.09	140.43
369.28	177.88
369.48	248.10
369.68	203.63
369.87	152.13
370.07	236.39
370.27	220.01
370.47	348.74
370.66	578.11
370.86	629.60
371.06	678.76
371.25	681.10
371.45	564.07
371.65	676.41
371.84	678.76
372.04	746.63
372.24	763.01
372.44	746.63
372.63	758.33
372.83	695.14
373.03	718.54
373.22	763.01
373.42	746.63
373.62	774.72
373.81	737.27
374.01	882.38
374.21	744.29
374.40	819.19
374.60	898.77
374.79	809.83
374.99	851.96
375.19	870.68
375.38	889.40
375.58	833.23
375.78	784.08
375.97	814.51
376.17	922.17
376.37	894.08
376.56	880.04
376.76	912.81
376.95	856.64
377.15	929.19
377.35	905.79
377.54	926.85
377.74	873.02
377.93	908.13
378.13	917.49
378.33	880.04
378.52	875.36
378.72	957.28
378.91	924.51
379.11	992.39
379.31	1015.79
379.50	933.87
379.70	1034.52
379.89	938.55
380.09	856.64
380.28	959.62
380.48	968.98
380.68	980.68
380.87	910.47
381.07	999.41
381.26	990.05
381.46	966.64
381.65	1015.79
381.85	1041.54
382.04	1083.67
382.24	1067.28
382.43	1053.24
382.63	1125.80
382.83	1128.14
383.02	1160.91
383.22	1088.35
383.41	1039.20
383.61	1095.37
383.80	1107.07
384.00	1123.46
384.19	1097.71
384.39	1179.63
384.58	1090.69
384.78	1153.88
384.97	1139.84
385.17	1053.24
385.36	1163.25
385.56	1207.72
385.75	1144.52
385.95	1097.71
386.14	1163.25
386.34	1188.99
386.53	1156.22
386.72	1172.61
386.92	1256.87
387.11	1203.04
387.31	1310.70
387.50	1151.54
387.70	1228.78
387.89	1268.57
388.09	1350.49
388.28	1217.08
388.48	1343.47
388.67	1343.47
388.86	1228.78
389.06	1275.59
389.25	1348.15
389.45	1378.58
389.64	1266.23
389.84	1369.21
390.03	1355.17
390.22	1320.06
390.42	1364.53
390.61	1362.19
390.81	1324.74
391.00	1488.58
391.19	1460.49
391.39	1474.54
391.58	1378.58
391.78	1434.75
391.97	1434.75
392.16	1530.71
392.36	1586.88
392.55	1380.92
392.75	1561.14
392.94	1516.67
393.13	1528.37
393.33	1593.90
393.52	1537.73
393.71	1547.09
393.91	1645.40
394.10	1614.97
394.29	1603.27
394.49	1605.61
394.68	1617.31
394.88	1607.95
395.07	1610.29
395.26	1659.44
395.46	1657.10
395.65	1703.91
395.84	1734.34
396.04	1755.40
396.23	1795.19
396.42	1830.30
396.62	1750.72
396.81	1722.63
397.00	1813.92
397.19	1748.38
397.39	1767.10
397.58	1802.21
397.77	1867.75
397.97	1799.87
398.16	1849.02
398.35	1858.39
398.55	1914.56
398.74	1865.41
398.93	1923.92
399.12	1893.49
399.32	1930.94
399.51	1940.30
399.70	1975.41
399.90	1944.99
400.09	2036.27
400.28	2097.12
400.47	2062.01
400.67	2036.27
400.86	1994.14
401.05	2024.56
401.24	2059.67
401.44	2073.71
401.63	2146.27
401.82	2043.29
402.01	2078.40
402.21	2204.78
402.40	2139.25
402.59	2155.63
402.78	2162.66
402.97	2214.15
403.17	2354.58
403.36	2338.20
403.55	2298.41
403.74	2310.11
403.93	2424.80
404.13	2392.03
404.32	2375.64
404.51	2310.11
404.70	2368.62
404.89	2462.24
405.09	2492.67
405.28	2480.97
405.47	2511.39
405.66	2497.35
405.85	2520.76
406.05	2495.01
406.24	2525.44
406.43	2539.48
406.62	2569.91
406.81	2642.46
407.00	2572.25
407.20	2551.18
407.39	2649.49
407.58	2555.86
407.77	2768.85
407.96	2705.66
408.15	2696.30
408.34	2722.04
408.54	2782.90
408.73	2757.15
408.92	2808.64
409.11	2761.83
409.30	2895.24
409.49	2829.71
409.68	2911.63
409.87	2939.71
410.07	3007.59
410.26	3012.27
410.45	2972.48
410.64	3105.89
410.83	3068.44
411.02	3159.72
411.21	3136.32
411.40	3145.68
411.59	3159.72
411.78	3206.53
411.98	3122.27
412.17	3255.69
412.36	3321.22
412.55	3293.13
412.74	3410.16
412.93	3478.04
413.12	3281.43
413.31	3435.91
413.50	3431.23
413.69	3290.79
413.88	3578.68
414.07	3473.36
414.26	3517.83
414.45	3562.30
414.64	3627.83
414.83	3705.07
415.02	3602.08
415.22	3861.88
415.41	3873.59
415.60	3885.29
415.79	3772.94
415.98	3885.29
416.17	3918.06
416.36	3911.04
416.55	3962.53
416.74	4007.00
416.93	4063.17
417.12	4131.05
417.31	4198.92
417.50	4166.15
417.69	4348.72
417.88	4182.54
418.07	4266.80
418.26	4138.07
418.45	4222.33
418.64	4454.04
418.83	4461.06
419.02	4517.23
419.21	4407.23
419.39	4353.40
419.58	4344.03
419.77	4500.85
419.96	4510.21
420.15	4578.09
420.34	4603.83
420.53	4528.94
420.72	4636.60
420.91	4491.49
421.10	4767.67
421.29	4854.27
421.48	4617.88
421.67	4926.83
421.86	4671.71
422.05	4730.22
422.24	4826.18
422.43	4882.36
422.61	4758.31
422.80	4973.64
422.99	4898.74
423.18	4931.51
423.37	5111.73
423.56	5060.24
423.75	4858.95
423.94	4678.73
424.13	4671.71
424.32	4809.80
424.50	4887.04
424.69	5057.90
424.88	4936.19
425.07	4835.55
425.26	4758.31
425.45	4915.12
425.64	4940.87
425.83	4865.97
426.01	5137.48
426.20	4994.70
426.39	4922.15
426.58	4952.57
426.77	4994.70
426.96	4933.85
427.15	5121.09
427.33	5179.61
427.52	4975.98
427.71	5184.29
427.90	5193.65
428.09	5287.27
428.28	5289.61
428.46	5261.52
428.65	5334.08
428.84	5401.96
429.03	5362.17
429.22	5317.70
429.40	5249.82
429.59	5495.58
429.78	5139.82
429.97	5256.84
430.16	5371.53
430.34	5481.53
430.53	5746.02
430.72	5535.37
430.91	5727.29
431.10	5565.79
431.28	5636.01
431.47	5785.80
431.66	5785.80
431.85	5799.85
432.03	5617.29
432.22	5961.34
432.41	5858.36
432.60	5956.66
432.79	5863.04
432.97	5870.06
433.16	6029.22
433.35	5797.51
433.54	6026.88
433.72	6026.88
433.91	6157.95
434.10	5996.45
434.28	6066.67
434.47	6094.76
434.66	6286.68
434.85	6235.19
435.03	6230.51
435.22	6211.78
435.41	6403.71
435.59	6267.95
435.78	6413.07
435.97	6289.02
436.16	6534.78
436.34	6305.40
436.53	6525.41
436.72	6527.75
436.90	6354.55
437.09	6595.63
437.28	6422.43
437.46	6642.44
437.65	6689.25
437.84	6555.84
438.02	6775.85
438.21	6604.99
438.40	6544.14
438.58	6993.52
438.77	7061.40
438.96	6977.14
439.14	7208.85
439.33	7068.42
439.52	7206.51
439.70	7087.14
439.89	7225.23
440.08	7255.66
440.26	7269.70
440.45	7253.32
440.63	7405.46
440.82	7595.04
441.01	7293.11
441.19	7508.44
441.38	7772.92
441.57	7768.24
441.75	7796.32
441.94	7906.33
442.12	7864.20
442.31	7939.10
442.50	7990.59
442.68	7815.05
442.87	7962.50
443.05	8004.63
443.24	8318.26
443.43	8131.02
443.61	8145.06
443.80	8458.70
443.98	7960.16
444.17	7868.88
444.35	8264.43
444.54	8285.50
444.73	8229.32
444.91	8226.98
445.10	8135.70
445.28	8262.09
445.47	8168.47
445.65	8250.39
445.84	8367.42
446.02	8430.61
446.21	8205.92
446.39	8231.66
446.58	8313.58
446.77	8348.69
446.95	8262.09
447.14	8528.91
447.32	8461.04
447.51	8329.97
447.69	8374.44
447.88	8458.70
448.06	8353.37
448.25	8315.92
448.43	8493.80
448.62	8383.80
448.80	8245.71
448.99	8636.58
449.17	8872.97
449.36	8437.63
449.54	8641.26
449.73	8765.31
449.91	9013.40
450.10	9022.77
450.28	8997.02
450.46	9025.11
450.65	8844.88
450.83	8933.82
451.02	8800.41
451.20	9249.80
451.39	9121.07
451.57	9156.18
451.76	9195.96
451.94	9348.10
452.13	9142.13
452.31	9268.52
452.49	9053.19
452.68	9394.91
452.86	9275.54
453.05	9607.90
453.23	9437.04
453.42	9282.56
453.60	9385.55
453.78	9535.34
453.97	9404.27
454.15	9392.57
454.34	9525.98
454.52	9628.96
454.70	9753.01
454.89	9745.99
455.07	9813.87
455.26	9760.03
455.44	9874.72
455.62	9921.53
455.81	9675.77
455.99	9921.53
456.17	9987.07
456.36	9839.61
456.54	10099.41
456.73	10235.16
456.91	10361.55
457.09	10076.01
457.28	10506.66
457.46	10178.99
457.64	10452.83
457.83	10513.69
458.01	10300.70
458.19	10600.29
458.38	10441.13
458.56	10668.16
458.74	10487.94
458.93	10602.63
459.11	10560.50
459.29	10569.86
459.48	10764.12
459.66	10663.48
459.84	10944.34
460.03	11000.52
460.21	11035.63
460.39	10876.47
460.57	10895.19
460.76	10942.00
460.94	11131.59
461.12	11154.99
461.31	10949.03
461.49	11133.93
461.67	11061.37
461.85	11522.46
462.04	11239.25
462.22	11789.28
462.40	11630.12
462.59	11351.60
462.77	11461.60
462.95	11698.00
463.13	11290.74
463.32	11559.91
463.50	11885.24
463.68	11520.12
463.86	11698.00
464.05	11536.50
464.23	11503.73
464.41	11772.89
464.59	11529.48
464.78	12046.74
464.96	11810.34
465.14	11604.38
465.32	12004.61
465.50	11948.43
465.69	11967.16
465.87	11901.62
466.05	12109.93
466.23	12154.40
466.41	11999.93
466.60	12549.95
466.78	11932.05
466.96	12070.14
467.14	11999.93
467.32	12271.43
467.51	12528.89
467.69	12299.52
467.87	12374.41
468.05	12608.47
468.23	12430.59
468.41	12564.00
468.60	12517.18
468.78	12631.87
468.96	12645.91
469.14	12566.34
469.32	12805.07
469.50	12620.17
469.69	13020.40
469.87	13118.70
470.05	13146.79
470.23	12971.25
470.41	13209.98
470.59	13207.64
470.77	13092.96
470.95	12996.99
471.14	13605.53
471.32	13156.15
471.50	13437.02
471.68	13659.37
471.86	13673.41
472.04	13511.91
472.22	13886.40
472.40	13642.98
472.58	13755.33
472.77	13769.37
472.95	14113.43
473.13	14434.08
473.31	13907.46
473.49	13832.57
473.67	14029.17
473.85	14106.41
474.03	14356.85
474.21	14462.17
474.39	14614.30
474.57	14684.52
474.75	14871.76
474.93	14862.40
475.12	14649.41
475.30	14953.68
475.48	15124.54
475.66	15281.36
475.84	15012.20
476.02	15506.05
476.20	15150.29
476.38	15557.54
476.56	15852.45
476.74	15737.76
476.92	15620.74
477.10	15674.57
477.28	16044.37
477.46	15913.30
477.64	16081.82
477.82	16498.44
478.00	16737.17
478.18	16510.14
478.36	16725.47
478.54	17153.79
478.72	17041.44
478.90	17436.99
479.08	17146.76
479.26	17603.17
479.44	17401.88
479.62	17579.76
479.80	17750.62
479.98	17954.25
480.16	18291.29
480.34	18260.86
480.52	18558.11
480.70	18455.12
480.88	18441.08
481.06	18614.28
481.24	18642.37
481.41	19016.85
481.59	19180.69
481.77	19171.33
481.95	19475.60
482.13	19609.01
482.31	19597.31
482.49	20109.88
482.67	20095.84
482.85	20159.03
483.03	20517.14
483.21	20671.61
483.39	20936.09
483.57	20683.31
483.74	21062.48
483.92	21376.11
484.10	20950.14
484.28	21242.70
484.46	21436.97
484.64	22251.47
484.82	21846.56
485.00	22148.49
485.18	22359.14
485.35	22738.30
485.53	22604.89
485.71	22700.86
485.89	23054.28
486.07	22932.57
486.25	23204.07
486.43	23005.13
486.61	23674.52
486.78	23892.19
486.96	23700.26
487.14	24091.13
487.32	24177.73
487.50	24652.86
487.68	24793.29
487.85	25055.43
488.03	25535.24
488.21	25326.94
488.39	25762.28
488.57	25539.93
488.75	25813.77
488.92	26176.55
489.10	26288.90
489.28	26597.85
489.46	26902.12
489.64	26506.57
489.81	27295.33
489.99	27136.17
490.17	27669.81
490.35	27737.69
490.53	28020.89
490.70	27985.79
490.88	27999.83
491.06	28718.37
491.24	28872.85
491.41	28795.61
491.59	28896.25
491.77	28989.88
491.95	29322.23
492.13	29610.12
492.30	29429.90
492.48	29872.26
492.66	29977.58
492.84	30008.01
493.01	30352.07
493.19	30368.45
493.37	30829.54
493.54	30593.14
493.72	30836.56
493.90	31608.93
494.08	31330.41
494.25	31934.27
494.43	31910.86
494.61	31833.63
494.79	32053.64
494.96	31807.88
495.14	32601.32
495.32	32751.12
495.49	32697.28
495.67	32678.56
495.85	33172.41
496.02	33380.72
496.20	33488.38
496.38	33624.14
496.55	33729.46
496.73	34501.84
496.91	34286.51
497.09	34253.74
497.26	34541.63
497.44	34672.70
497.62	35065.91
497.79	35175.91
497.97	34766.32
498.14	35814.88
498.32	35498.91
498.50	35899.14
498.67	36292.35
498.85	36297.03
499.03	36290.01
499.20	36091.06
499.38	36486.61
499.56	36882.16
499.73	36964.08
499.91	37198.13
500.08	37579.64
500.26	37198.13
500.44	37329.20
500.61	37694.33
500.79	37518.79
500.97	37951.79
501.14	38197.54
501.32	38115.62
501.49	38277.12
501.67	38061.79
501.84	38747.57
502.02	38749.91
502.20	38717.14
502.37	39117.37
502.55	38588.41
502.72	38960.56
502.90	39110.35
503.07	38862.26
503.25	39344.41
503.43	39477.82
503.60	39445.05
503.78	40046.57
503.95	39793.79
504.13	40435.10
504.30	40634.04
504.48	40149.55
504.65	40521.69
504.83	40540.42
505.01	40477.22
505.18	40732.34
505.36	41085.76
505.53	40854.05
505.71	41172.36
505.88	41361.95
506.06	40933.63
506.23	41574.94
506.41	41790.27
506.58	41858.14
506.76	41771.54
506.93	42270.08
507.11	41954.10
507.28	42080.49
507.46	42279.44
507.63	42815.42
507.81	42651.58
507.98	42483.06
508.16	42955.85
508.33	42590.73
508.50	43072.88
508.68	42829.46
508.85	43770.36
509.03	43655.67
509.20	43723.55
509.38	43934.20
509.55	44226.76
509.73	44285.28
509.90	44435.07
510.08	44194.00
510.25	44395.28
510.42	44098.03
510.60	44502.95
510.77	44650.40
510.95	45333.84
511.12	44800.19
511.30	44989.78
511.47	45322.13
511.64	45219.15
511.82	45591.30
511.99	44966.37
512.17	45380.65
512.34	45429.80
512.51	45724.71
512.69	46358.99
512.86	46078.13
513.04	46103.87
513.21	45928.33
513.38	46394.10
513.56	46766.24
513.73	46354.31
513.90	46710.07
514.08	46759.22
514.25	46965.19
514.43	47040.09
514.60	47433.30
514.77	46911.36
514.95	47564.37
515.12	47412.23
515.29	46878.59
515.47	47749.27
515.64	47906.08
515.81	47641.60
515.99	47945.87
516.16	47910.77
516.33	48048.86
516.51	48624.63
516.68	48072.26
516.85	48273.55
517.03	48512.28
517.20	48655.06
517.37	48514.62
517.54	48458.45
517.72	48804.85
517.89	48601.22
518.06	48748.68
518.24	48706.55
518.41	48648.03
518.58	48989.75
518.75	48956.99
518.93	49263.60
519.10	49137.21
519.27	49684.89
519.45	49467.22
519.62	49624.04
519.79	49418.07
519.96	49577.23
520.14	49565.52
520.31	49766.81
520.48	50270.03
520.65	49673.19
520.83	50099.17
521.00	50124.91
521.17	50061.72
521.34	50377.69
521.52	50642.17
521.69	50506.42
521.86	50717.07
522.03	50775.58
522.20	51131.34
522.38	51180.49
522.55	51309.22
522.72	50380.03
522.89	50897.29
523.07	51430.93
523.24	51384.12
523.41	51494.13
523.58	51117.30
523.75	51849.89
523.92	51281.14
524.10	52046.49
524.27	51721.16
524.44	51669.67
524.61	51899.04
524.78	51444.98
524.96	51873.29
525.13	51955.21
525.30	52123.73
525.47	52399.91
525.64	52203.31
525.81	52229.05
525.98	52224.37
526.16	52390.55
526.33	52177.56
526.50	52704.18
526.67	52418.64
526.84	52423.32
527.01	52587.16
527.18	52708.86
527.36	52502.90
527.53	52701.84
527.70	53389.96
527.87	52987.39
528.04	52912.49
528.21	53291.66
528.38	53223.78
528.55	53521.03
528.72	53169.95
528.89	53193.36
529.07	52849.30
529.24	53188.67
529.41	53265.91
529.58	53258.89
529.75	53078.67
529.92	53279.96
530.09	53286.98
530.26	53612.31
530.43	53799.55
530.60	53462.52
530.77	53624.01
530.94	53762.11
531.11	53556.14
531.28	53652.10
531.46	53855.73
531.63	53932.96
531.80	53888.49
531.97	54110.85
532.14	54216.17
532.31	54064.03
532.48	54204.47
532.65	54335.54
532.82	54101.48
532.99	54309.79
533.16	54164.68
533.33	54382.35
533.50	54787.26
533.67	54461.93
533.84	54588.31
534.01	54841.09
534.18	54738.11
534.35	54827.05
534.52	54887.90
534.69	55044.72
534.86	54932.37
535.03	54983.86
535.20	54714.70
535.37	54817.69
535.54	55110.25
535.71	54883.22
535.88	55147.70
536.05	55072.81
536.22	55320.90
536.38	55402.82
536.55	55227.28
536.72	55386.44
536.89	55288.13
537.06	55297.50
537.23	55524.53
537.40	55325.58
537.57	55283.45
537.74	55627.51
537.91	55819.44
538.08	55814.76
538.25	55524.53
538.42	55601.77
538.59	56079.24
538.75	55547.93
538.92	55735.18
539.09	55854.54
539.26	55906.04
539.43	56002.00
539.60	56004.34
539.77	56020.72
539.94	56097.96
540.11	56032.42
540.28	55997.32
540.44	56261.80
540.61	56254.78
540.78	56044.13
540.95	56137.75
541.12	56140.09
541.29	56076.90
541.46	56252.44
541.62	56287.54
541.79	56381.16
541.96	56341.38
542.13	56446.70
542.30	56694.80
542.47	56671.39
542.63	56732.25
542.80	56779.06
542.97	56912.47
543.14	57097.37
543.31	56694.80
543.48	57034.17
543.64	57223.76
543.81	57254.18
543.98	57041.20
544.15	57104.39
544.32	57375.89
544.48	57233.12
544.65	57233.12
544.82	57284.61
544.99	57165.24
545.16	57315.04
545.32	57113.75
545.49	57329.08
545.66	57513.98
545.83	57485.90
546.00	57551.43
546.16	57209.71
546.33	57439.09
546.50	57034.17
546.67	57502.28
546.83	57193.33
547.00	57591.22
547.17	57623.99
547.34	57518.67
547.50	57694.21
547.67	57804.21
547.84	57928.26
548.00	57832.30
548.17	57862.72
548.34	57752.72
548.51	57836.98
548.67	57907.19
548.84	57879.11
549.01	57759.74
549.18	58064.01
549.34	57986.77
549.51	58174.02
549.68	58122.52
549.84	58010.18
550.01	58143.59
550.18	58082.73
550.34	58127.20
550.51	58309.77
550.68	58358.92
550.84	58103.80
551.01	58288.70
551.18	58323.81
551.34	58155.29
551.51	58185.72
551.68	58340.19
551.84	58464.24
552.01	58363.60
552.18	58445.52
552.34	58307.43
552.51	58475.94
552.68	58354.24
552.84	58539.14
553.01	58674.89
553.18	58497.01
553.34	58581.27
553.51	58515.73
553.67	58635.10
553.84	58852.77
554.01	58759.15
554.17	58677.23
554.34	58717.02
554.51	58918.31
554.67	58581.27
554.84	58794.26
555.00	58791.92
555.17	58876.18
555.33	58827.02
555.50	58649.14
555.67	58801.28
555.83	58829.37
556.00	59245.98
556.16	59075.12
556.33	59159.38
556.50	58983.84
556.66	59112.57
556.83	58784.90
556.99	59168.74
557.16	59178.10
557.32	59229.60
557.49	59444.93
557.65	59363.01
557.82	59243.64
557.98	59271.73
558.15	59276.41
558.32	59447.27
558.48	59236.62
558.65	59281.09
558.81	59213.21
558.98	59355.99
559.14	59363.01
559.31	59234.28
559.47	59414.50
559.64	59255.34
559.80	59421.52
559.97	59456.63
560.13	59302.15
560.30	59491.74
560.46	59498.76
560.63	59676.64
560.79	59505.78
560.96	59632.17
561.12	59737.49
561.29	59613.44
561.45	59641.53
561.61	59641.53
561.78	59568.97
561.94	59437.90
562.11	59723.45
562.27	59674.30
562.44	59716.43
562.60	59868.56
562.77	59852.18
562.93	59746.86
563.10	59796.01
563.26	59873.24
563.42	60074.53
563.59	59920.05
563.75	59765.58
563.92	59971.55
564.08	59866.22
564.24	59952.82
564.41	59936.44
564.57	59994.95
564.74	59973.89
564.90	60013.68
565.07	59756.22
565.23	59943.46
565.39	59852.18
565.56	59973.89
565.72	59971.55
565.88	60172.83
566.05	59882.61
566.21	59704.73
566.38	60140.07
566.54	60053.47
566.70	60168.15
566.87	60217.30
567.03	60016.02
567.19	60233.69
567.36	60039.42
567.52	60025.38
567.68	60324.97
567.85	60135.38
568.01	60250.07
568.17	60137.72
568.34	60055.81
568.50	60257.09
568.66	60140.07
568.83	60317.95
568.99	60076.87
569.15	60261.77
569.32	60420.93
569.48	60182.19
569.64	60221.98
569.81	60271.14
569.97	60219.64
570.13	60245.39
570.30	60221.98
570.46	60130.70
570.62	60317.95
570.78	60179.85
570.95	60111.98
571.11	60526.25
571.27	60107.30
571.43	60341.35
571.60	60341.35
571.76	60320.29
571.92	60074.53
572.09	60308.58
572.25	60353.05
572.41	60346.03
572.57	60381.14
572.74	60507.53
572.90	60275.82
573.06	60364.76
573.22	60343.69
573.38	60640.94
573.55	60383.48
573.71	60589.45
573.87	60519.23
574.03	60315.61
574.20	60453.70
574.36	60477.10
574.52	60631.58
574.68	60575.40
574.84	60664.35
575.01	60530.93
575.17	60467.74
575.33	60458.38
575.49	60378.80
575.65	60449.02
575.82	60659.66
575.98	60552.00
576.14	60818.82
576.30	60582.43
576.46	60505.19
576.62	60601.15
576.79	60416.25
576.95	60495.83
577.11	60788.39
577.27	60701.79
577.43	60671.37
577.59	60488.80
577.75	60519.23
577.92	60521.57
578.08	60610.51
578.24	60568.38
578.40	60753.29
578.56	60788.39
578.72	60507.53
578.88	60886.70
579.04	60790.73
579.21	60664.35
579.37	60814.14
579.53	60788.39
579.69	60704.13
579.85	60474.76
580.01	60470.08
580.17	60589.45
580.33	60739.24
580.49	60687.75
580.65	60694.77
580.82	60554.34
580.98	60580.09
581.14	60692.43
581.30	60643.28
581.46	60879.67
581.62	60781.37
581.78	60619.88
581.94	60804.78
582.10	60537.96
582.26	60786.05
582.42	60893.72
582.58	60547.32
582.74	60802.44
582.90	60577.75
583.06	60725.20
583.22	60617.53
583.38	60484.12
583.54	60701.79
583.70	60659.66
583.86	60790.73
584.02	60657.32
584.18	60900.74
584.34	60823.50
584.50	60797.76
584.66	60580.09
584.82	60643.28
584.98	60893.72
585.14	60732.22
585.30	60725.20
585.46	60863.29
585.62	60774.35
585.78	60863.29
585.94	60629.24
586.10	60818.82
586.26	60741.58
586.42	60743.92
586.58	61048.19
586.74	61034.15
586.90	60882.02
587.06	60722.86
587.22	60963.93
587.38	60741.58
587.54	60999.04
587.70	60860.95
587.86	61038.83
588.02	61034.15
588.18	60903.08
588.34	60757.97
588.49	60938.19
