SpectraSuite Data File
++++++++++++++++++++++++++++++++++++
Date: Fri Oct 25 11:23:05 EDT 2013
User: price-jones
Dark Spectrum Present: No
Reference Spectrum Present: No
Number of Sampled Component Spectra: 1
Spectrometers: USB2+H05261
Integration Time (usec): 100000 (USB2+H05261)
Spectra Averaged: 1 (USB2+H05261)
Boxcar Smoothing: 0 (USB2+H05261)
Correct for Electrical Dark: No (USB2+H05261)
Strobe/Lamp Enabled: No (USB2+H05261)
Correct for Detector Non-linearity: No (USB2+H05261)
Correct for Stray Light: No (USB2+H05261)
Number of Pixels in Processed Spectrum: 2048
>>>>>Begin Processed Spectral Data<<<<<
365.73	234.05
365.92	234.05
366.12	234.05
366.32	149.79
366.52	154.48
366.72	135.75
366.91	126.39
367.11	133.41
367.31	70.22
367.51	91.28
367.70	152.13
367.90	177.88
368.10	135.75
368.30	138.09
368.49	107.66
368.69	131.07
368.89	105.32
369.09	84.26
369.28	145.11
369.48	131.07
369.68	161.50
369.87	222.35
370.07	210.65
370.27	271.50
370.47	339.38
370.66	629.60
370.86	648.33
371.06	620.24
371.25	678.76
371.45	585.13
371.65	713.86
371.84	697.48
372.04	655.35
372.24	716.20
372.44	706.84
372.63	681.10
372.83	744.29
373.03	688.12
373.22	741.95
373.42	723.23
373.62	767.70
373.81	741.95
374.01	833.23
374.21	870.68
374.40	791.10
374.60	858.98
374.79	744.29
374.99	851.96
375.19	816.85
375.38	781.74
375.58	891.74
375.78	931.53
375.97	901.11
376.17	830.89
376.37	884.72
376.56	866.00
376.76	870.68
376.95	884.72
377.15	915.15
377.35	901.11
377.54	880.04
377.74	809.83
377.93	891.74
378.13	933.87
378.33	917.49
378.52	905.79
378.72	1025.15
378.91	940.90
379.11	861.32
379.31	887.06
379.50	894.08
379.70	966.64
379.89	1053.24
380.09	978.34
380.28	985.37
380.48	938.55
380.68	891.74
380.87	1034.52
381.07	968.98
381.26	1043.88
381.46	1067.28
381.65	1081.33
381.85	987.71
382.04	1032.18
382.24	1142.18
382.43	1104.73
382.63	1022.81
382.83	1055.58
383.02	1100.05
383.22	1041.54
383.41	1088.35
383.61	1095.37
383.80	1114.10
384.00	1036.86
384.19	1116.44
384.39	1100.05
384.58	1167.93
384.78	1247.51
384.97	1174.95
385.17	1205.38
385.36	1158.57
385.56	1116.44
385.75	1114.10
385.95	1282.61
386.14	1144.52
386.34	1240.48
386.53	1083.67
386.72	1048.56
386.92	1181.97
387.11	1299.00
387.31	1186.65
387.50	1219.42
387.70	1191.33
387.89	1284.95
388.09	1329.42
388.28	1270.91
388.48	1289.64
388.67	1324.74
388.86	1315.38
389.06	1334.11
389.25	1329.42
389.45	1397.30
389.64	1357.51
389.84	1355.17
390.03	1345.81
390.22	1357.51
390.42	1416.02
390.61	1369.21
390.81	1362.19
391.00	1453.47
391.19	1448.79
391.39	1352.83
391.58	1430.07
391.78	1507.30
391.97	1409.00
392.16	1460.49
392.36	1549.43
392.55	1570.50
392.75	1507.30
392.94	1523.69
393.13	1584.54
393.33	1530.71
393.52	1577.52
393.71	1577.52
393.91	1617.31
394.10	1575.18
394.29	1748.38
394.49	1664.12
394.68	1572.84
394.88	1675.82
395.07	1696.89
395.26	1607.95
395.46	1692.21
395.65	1741.36
395.84	1715.61
396.04	1720.29
396.23	1750.72
396.42	1762.42
396.62	1834.98
396.81	1816.26
397.00	1755.40
397.19	1743.70
397.39	1760.08
397.58	1827.96
397.77	1849.02
397.97	1867.75
398.16	1884.13
398.35	2050.31
398.55	1902.86
398.74	1872.43
398.93	1942.64
399.12	1914.56
399.32	1930.94
399.51	2057.33
399.70	1987.11
399.90	1928.60
400.09	1944.99
400.28	2134.57
400.47	2080.74
400.67	2118.18
400.86	2209.47
401.05	2085.42
401.24	2059.67
401.44	2097.12
401.63	2097.12
401.82	2197.76
402.01	2165.00
402.21	2139.25
402.40	2230.53
402.59	2172.02
402.78	2190.74
402.97	2260.96
403.17	2230.53
403.36	2230.53
403.55	2228.19
403.74	2363.94
403.93	2438.84
404.13	2441.18
404.32	2375.64
404.51	2450.54
404.70	2399.05
404.89	2469.27
405.09	2607.36
405.28	2471.61
405.47	2438.84
405.66	2518.42
405.85	2670.55
406.05	2605.02
406.24	2654.17
406.43	2504.37
406.62	2626.08
406.81	2616.72
407.00	2595.65
407.20	2619.06
407.39	2626.08
407.58	2740.77
407.77	2649.49
407.96	2810.98
408.15	2825.03
408.34	2717.36
408.54	2906.95
408.73	2843.75
408.92	2754.81
409.11	3108.23
409.30	2862.48
409.49	2942.05
409.68	2869.50
409.87	2937.37
410.07	2993.55
410.26	3075.46
410.45	3096.53
410.64	3049.72
410.83	3023.97
411.02	3145.68
411.21	3150.36
411.40	3173.77
411.59	3279.09
411.78	3288.45
411.98	3194.83
412.17	3307.18
412.36	3288.45
412.55	3353.99
412.74	3445.27
412.93	3365.69
413.12	3400.80
413.31	3489.74
413.50	3382.07
413.69	3595.06
413.88	3585.70
414.07	3499.10
414.26	3655.92
414.45	3648.90
414.64	3726.13
414.83	3786.99
415.02	3756.56
415.22	3866.56
415.41	4018.70
415.60	3840.82
415.79	3997.64
415.98	4112.32
416.17	4070.19
416.36	4028.06
416.55	3946.14
416.74	4067.85
416.93	3957.85
417.12	4095.94
417.31	4119.34
417.50	4173.18
417.69	4372.12
417.88	4388.50
418.07	4337.01
418.26	4241.05
418.45	4430.63
418.64	4395.53
418.83	4468.08
419.02	4470.42
419.21	4440.00
419.39	4676.39
419.58	4496.17
419.77	4535.96
419.96	4610.86
420.15	4676.39
420.34	4629.58
420.53	4671.71
420.72	4702.14
420.91	4697.46
421.10	4692.77
421.29	4894.06
421.48	4674.05
421.67	4908.10
421.86	4954.91
422.05	4870.65
422.24	4786.40
422.43	4870.65
422.61	4842.57
422.80	4896.40
422.99	4805.12
423.18	4938.53
423.37	5081.30
423.56	5032.15
423.75	5055.56
423.94	4936.19
424.13	4674.05
424.32	4873.00
424.50	4954.91
424.69	5179.61
424.88	5069.60
425.07	4992.36
425.26	4868.31
425.45	5055.56
425.64	4865.97
425.83	5158.54
426.01	5228.76
426.20	5186.63
426.39	5107.05
426.58	5121.09
426.77	4992.36
426.96	5221.74
427.15	5224.08
427.33	5210.03
427.52	5240.46
427.71	5376.21
427.90	5214.71
428.09	5467.49
428.28	5376.21
428.46	5453.45
428.65	5434.72
428.84	5371.53
429.03	5626.65
429.22	5460.47
429.40	5514.30
429.59	5750.70
429.78	5298.97
429.97	5366.85
430.16	5577.50
430.34	5614.95
430.53	5696.86
430.72	5607.92
430.91	5720.27
431.10	5762.40
431.28	5724.95
431.47	5830.27
431.66	5785.80
431.85	5867.72
432.03	6019.86
432.22	6113.48
432.41	6047.94
432.60	6031.56
432.79	6087.73
432.97	6059.65
433.16	6195.40
433.35	6045.60
433.54	6108.80
433.72	6200.08
433.91	6162.63
434.10	6188.38
434.28	6078.37
434.47	6303.06
434.66	6331.15
434.85	6392.00
435.03	6258.59
435.22	6340.51
435.41	6574.56
435.59	6459.88
435.78	6588.61
435.97	6609.67
436.16	6483.28
436.34	6436.47
436.53	6630.74
436.72	6640.10
436.90	6471.58
437.09	6684.57
437.28	6445.84
437.46	6703.29
437.65	6815.64
437.84	6799.26
438.02	6864.79
438.21	6820.32
438.40	6897.56
438.58	7040.33
438.77	7012.24
438.96	6839.05
439.14	7274.38
439.33	7316.51
439.52	7255.66
439.70	7300.13
439.89	7302.47
440.08	7314.17
440.26	7485.03
440.45	7419.50
440.63	7644.19
440.82	7733.13
441.01	7417.16
441.19	7812.71
441.38	7644.19
441.57	7864.20
441.75	7822.07
441.94	7845.48
442.12	8191.88
442.31	8196.56
442.50	8084.21
442.68	8161.45
442.87	8276.13
443.05	8196.56
443.24	8383.80
443.43	8212.94
443.61	8252.73
443.80	8578.06
443.98	8147.40
444.17	7920.37
444.35	8390.82
444.54	8503.17
444.73	8276.13
444.91	8226.98
445.10	8191.88
445.28	8404.86
445.47	8329.97
445.65	8388.48
445.84	8528.91
446.02	8622.53
446.21	8449.33
446.39	8519.55
446.58	8512.53
446.77	8596.79
446.95	8283.16
447.14	8313.58
447.32	8615.51
447.51	8634.24
447.69	8688.07
447.88	8748.92
448.06	8599.13
448.25	8510.19
448.43	8879.99
448.62	8720.84
448.80	8809.78
448.99	8915.10
449.17	8798.07
449.36	8791.05
449.54	8931.48
449.73	9046.17
449.91	9078.94
450.10	9064.89
450.28	9188.94
450.46	9128.09
450.65	8940.85
450.83	9146.81
451.02	9165.54
451.20	9224.05
451.39	9320.01
451.57	9263.84
451.76	9177.24
451.94	9160.86
452.13	9415.98
452.31	9425.34
452.49	9256.82
452.68	9453.42
452.86	9329.38
453.05	9528.32
453.23	9657.05
453.42	9451.08
453.60	9514.28
453.78	9738.97
453.97	9373.85
454.15	9483.85
454.34	9579.81
454.52	9804.50
454.70	9736.63
454.89	9914.51
455.07	9825.57
455.26	9900.47
455.44	10256.23
455.62	10076.01
455.81	9991.75
455.99	10317.08
456.17	10071.33
456.36	10050.26
456.54	10202.40
456.73	10202.40
456.91	10513.69
457.09	10635.39
457.28	10637.73
457.46	10422.41
457.64	10597.95
457.83	10775.83
458.01	10551.14
458.19	10885.83
458.38	10569.86
458.56	10827.32
458.74	10787.53
458.93	10796.89
459.11	10740.72
459.29	10965.41
459.48	10972.43
459.66	10906.90
459.84	10932.64
460.03	11283.72
460.21	11234.57
460.39	10946.69
460.57	11119.89
460.76	10986.47
460.94	11232.23
461.12	11037.97
461.31	11199.46
461.49	11372.66
461.67	11286.06
461.85	11552.88
462.04	11360.96
462.22	11698.00
462.40	11520.12
462.59	11585.65
462.77	11517.78
462.95	11665.23
463.13	11648.85
463.32	11550.54
463.50	11948.43
463.68	11836.09
463.86	11936.73
464.05	11887.58
464.23	11992.90
464.41	12018.65
464.59	11896.94
464.78	12444.63
464.96	12243.34
465.14	12051.42
465.32	11983.54
465.50	12285.47
465.69	12229.30
465.87	12119.29
466.05	12002.27
466.23	12231.64
466.41	12390.80
466.60	12706.77
466.78	12283.13
466.96	12376.75
467.14	12500.80
467.32	12416.54
467.51	12531.23
467.69	12376.75
467.87	12587.40
468.05	12800.39
468.23	12596.76
468.41	12641.23
468.60	12692.73
468.78	12828.48
468.96	12657.62
469.14	13013.38
469.32	13200.62
469.50	12648.26
469.69	13088.28
469.87	13160.83
470.05	13174.88
470.23	13408.93
470.41	13327.01
470.59	13308.29
470.77	13282.54
470.95	13483.83
471.14	13703.84
471.32	13235.73
471.50	13631.28
471.68	13596.17
471.86	14066.62
472.04	13755.33
472.22	14115.77
472.40	13727.24
472.58	13916.83
472.77	14134.50
472.95	14216.41
473.13	14752.40
473.31	14288.97
473.49	14265.57
473.67	14242.16
473.85	14553.45
474.03	14934.96
474.21	14682.18
474.39	15047.30
474.57	14951.34
474.75	15180.71
474.93	15061.35
475.12	15094.11
475.30	15005.17
475.48	15206.46
475.66	15257.95
475.84	15070.71
476.02	15611.37
476.20	15440.51
476.38	15861.81
476.56	16013.95
476.74	16126.29
476.92	16159.06
477.10	15889.90
477.28	16453.97
477.46	16365.03
477.64	16210.55
477.82	16512.48
478.00	17308.26
478.18	16945.48
478.36	17081.23
478.54	17125.70
478.72	17432.31
478.90	17532.95
479.08	17809.14
479.26	18122.77
479.44	17921.48
479.62	18260.86
479.80	18090.00
479.98	18010.42
480.16	18745.35
480.34	18663.43
480.52	18754.71
480.70	18939.62
480.88	18724.29
481.06	18946.64
481.24	19091.75
481.41	19166.65
481.59	19370.27
481.77	19885.19
481.95	19704.97
482.13	20063.07
482.31	20025.62
482.49	20685.65
482.67	20388.41
482.85	20652.89
483.03	21027.37
483.21	20884.60
483.39	21099.93
483.57	21184.19
483.74	21261.43
483.92	21458.03
484.10	21656.98
484.28	22061.89
484.46	21921.46
484.64	22602.55
484.82	21869.97
485.00	22895.12
485.18	22883.42
485.35	23215.77
485.53	22717.24
485.71	23112.79
485.89	23571.54
486.07	23468.55
486.25	23906.23
486.43	23850.06
486.61	24025.60
486.78	24320.51
486.96	24446.90
487.14	24683.29
487.32	24692.65
487.50	24987.56
487.68	25144.38
487.85	25593.76
488.03	25699.08
488.21	26024.42
488.39	26094.63
488.57	26546.36
488.75	26548.70
488.92	26988.72
489.10	27145.53
489.28	27119.79
489.46	27360.86
489.64	27365.54
489.81	28133.24
489.99	28102.81
490.17	28004.51
490.35	28280.69
490.53	28407.08
490.70	28542.83
490.88	28432.83
491.06	28971.15
491.24	29017.96
491.41	29071.79
491.59	29776.30
491.77	29638.20
491.95	29968.22
492.13	30408.24
492.30	30089.93
492.48	30171.85
492.66	30192.91
492.84	30595.48
493.01	30862.30
493.19	31180.62
493.37	31307.01
493.54	31346.79
493.72	32025.55
493.90	31611.28
494.08	32084.06
494.25	32135.56
494.43	32442.17
494.61	32554.51
494.79	32802.61
494.96	32945.38
495.14	32973.47
495.32	33422.85
495.49	33495.41
495.67	33322.21
495.85	33912.02
496.02	34213.95
496.20	34740.57
496.38	34375.45
496.55	34263.10
496.73	35508.27
496.91	34885.68
497.09	34946.54
497.26	35276.55
497.44	35056.54
497.62	35840.62
497.79	36189.36
497.97	35700.19
498.14	36531.08
498.32	36481.93
498.50	36519.38
498.67	37071.75
498.85	36840.03
499.03	37397.08
499.20	37156.00
499.38	37474.32
499.56	37113.87
499.73	37617.09
499.91	38000.94
500.08	38022.00
500.26	37881.57
500.44	38218.61
500.61	38946.51
500.79	38377.76
500.97	38431.60
501.14	38829.49
501.32	38990.98
501.49	38614.16
501.67	38827.15
501.84	39721.23
502.02	39349.09
502.20	39995.07
502.37	40233.81
502.55	39714.21
502.72	39810.17
502.90	39814.85
503.07	40123.80
503.25	39854.64
503.43	39847.62
503.60	40304.02
503.78	40488.93
503.95	40594.25
504.13	41045.97
504.30	40917.25
504.48	40584.89
504.65	41029.59
504.83	41661.54
505.01	41574.94
505.18	41820.69
505.36	41762.18
505.53	41397.06
505.71	41853.46
505.88	42164.75
506.06	41640.47
506.23	42515.83
506.41	42050.06
506.58	42855.21
506.76	42820.10
506.93	42539.24
507.11	42597.75
507.28	42707.76
507.46	43480.13
507.63	43206.29
507.81	43887.39
507.98	43288.21
508.16	43622.90
508.33	43573.75
508.50	43894.41
508.68	43990.37
508.85	44151.87
509.03	44201.02
509.20	44641.04
509.38	44549.76
509.55	44662.10
509.73	44875.09
509.90	44669.12
510.08	44612.95
510.25	44992.12
510.42	45387.67
510.60	45497.67
510.77	45530.44
510.95	46192.81
511.12	45701.30
511.30	45612.36
511.47	45406.39
511.64	45818.33
511.82	46382.40
511.99	45965.78
512.17	46586.02
512.34	46241.96
512.51	46628.15
512.69	46602.41
512.86	46712.41
513.04	46787.31
513.21	47084.56
513.38	47002.64
513.56	47636.92
513.73	47093.92
513.90	47760.97
514.08	47255.42
514.25	47725.86
514.43	47672.03
514.60	47901.40
514.77	48083.97
514.95	48189.29
515.12	47569.05
515.29	48170.57
515.47	48388.24
515.64	48236.10
515.81	48587.18
515.99	48568.46
516.16	48793.15
516.33	48683.14
516.51	49310.41
516.68	49188.70
516.85	48868.05
517.03	48914.86
517.20	49518.71
517.37	49022.52
517.54	49301.04
517.72	49598.29
517.89	49347.86
518.06	49329.13
518.24	49947.03
518.41	49659.15
518.58	49720.00
518.75	49588.93
518.93	49717.66
519.10	50452.59
519.27	50340.24
519.45	50197.47
519.62	50506.42
519.79	50218.53
519.96	50541.53
520.14	50539.19
520.31	50628.13
520.48	50576.64
520.65	50798.99
520.83	51058.79
521.00	51138.36
521.17	50852.82
521.34	50965.17
521.52	51098.58
521.69	51454.34
521.86	51437.95
522.03	51875.63
522.20	51501.15
522.38	51889.68
522.55	51915.42
522.72	51566.68
522.89	51592.43
523.07	51845.21
523.24	51725.84
523.41	51901.38
523.58	51629.88
523.75	52439.70
523.92	52168.20
524.10	52521.62
524.27	52465.45
524.44	52261.82
524.61	52458.43
524.78	52535.66
524.96	52409.28
525.13	52479.49
525.30	52980.37
525.47	53024.84
525.64	52994.41
525.81	53013.13
525.98	52926.53
526.16	52921.85
526.33	53048.24
526.50	53242.51
526.67	53303.36
526.84	53151.23
527.01	53055.26
527.18	53132.50
527.36	53436.77
527.53	53408.68
527.70	53616.99
527.87	53621.67
528.04	53687.21
528.21	53619.33
528.38	53598.27
528.55	53865.09
528.72	53642.74
528.89	53942.33
529.07	53783.17
529.24	53825.30
529.41	54071.06
529.58	53907.22
529.75	54162.34
529.92	53956.37
530.09	53993.82
530.26	54031.27
530.43	54017.22
530.60	54082.76
530.77	54223.19
530.94	54616.40
531.11	54342.56
531.28	54417.46
531.46	54466.61
531.63	54630.44
531.80	54581.29
531.97	54794.28
532.14	54857.48
532.31	54801.30
532.48	54915.99
532.65	55114.94
532.82	54960.46
532.99	54967.48
533.16	54974.50
533.33	55140.68
533.50	54958.12
533.67	55140.68
533.84	55079.83
534.01	55426.23
534.18	55278.77
534.35	55580.70
534.52	55400.48
534.69	55440.27
534.86	55622.83
535.03	55267.07
535.20	55482.40
535.37	55585.38
535.54	55594.74
535.71	55547.93
535.88	55777.31
536.05	55847.52
536.22	55828.80
536.38	55863.91
536.55	55868.59
536.72	55899.01
536.89	55957.53
537.06	56170.52
537.23	55803.05
537.40	55908.38
537.57	56055.83
537.74	56062.85
537.91	56353.08
538.08	56313.29
538.25	55906.04
538.42	56121.37
538.59	56594.15
538.75	56332.01
538.92	56205.62
539.09	56626.92
539.26	56549.68
539.43	56383.51
539.60	56549.68
539.77	56608.20
539.94	56570.75
540.11	56835.23
540.28	56921.83
540.44	56680.75
540.61	56982.68
540.78	56629.26
540.95	56640.96
541.12	56793.10
541.29	56694.80
541.46	56814.16
541.62	56769.69
541.79	56928.85
541.96	56786.08
542.13	56765.01
542.30	56956.94
542.47	57062.26
542.63	57289.29
542.80	57066.94
542.97	57291.63
543.14	57322.06
543.31	57408.66
543.48	57425.04
543.64	57640.37
543.81	57687.18
543.98	57609.95
544.15	57403.98
544.32	57759.74
544.48	57799.53
544.65	57549.09
544.82	57846.34
544.99	57464.83
545.16	57836.98
545.32	57710.59
545.49	57916.56
545.66	58054.65
545.83	57921.24
546.00	58075.71
546.16	58056.99
546.33	57776.12
546.50	57804.21
546.67	58056.99
546.83	57839.32
547.00	58211.46
547.17	58075.71
547.34	58237.21
547.50	58150.61
547.67	58403.39
547.84	58230.19
548.00	58340.19
548.17	58225.51
548.34	58511.05
548.51	58784.90
548.67	58321.47
548.84	58234.87
549.01	58183.38
549.18	58482.97
549.34	58485.31
549.51	58457.22
549.68	58630.42
549.84	58529.78
550.01	58731.06
550.18	58508.71
550.34	58887.88
550.51	58607.01
550.68	58698.30
550.84	58464.24
551.01	58705.32
551.18	58972.14
551.34	58721.70
551.51	58733.40
551.68	58656.17
551.84	58738.08
552.01	58812.98
552.18	59192.15
552.34	58710.00
552.51	58932.35
552.68	59018.95
552.84	58740.42
553.01	59140.66
553.18	59199.17
553.34	59194.49
553.51	59124.27
553.67	59110.23
553.84	59196.83
554.01	59084.48
554.17	59236.62
554.34	59187.47
554.51	59171.08
554.67	59320.88
554.84	59119.59
555.00	59297.47
555.17	59070.44
555.33	59231.94
555.50	59222.58
555.67	59353.65
555.83	59320.88
556.00	59522.16
556.16	59583.02
556.33	59622.81
556.50	59395.77
556.66	59671.96
556.83	59253.00
556.99	59625.15
557.16	59564.29
557.32	59688.34
557.49	59863.88
557.65	59676.64
557.82	59601.74
557.98	59676.64
558.15	59669.62
558.32	59898.99
558.48	59671.96
558.65	59676.64
558.81	59707.07
558.98	59636.85
559.14	59910.69
559.31	59784.30
559.47	59833.46
559.64	59807.71
559.80	59980.91
559.97	60018.36
560.13	59929.42
560.30	59929.42
560.46	60170.49
560.63	59980.91
560.79	60030.06
560.96	60041.76
561.12	60041.76
561.29	60107.30
561.45	60245.39
561.61	60140.07
561.78	60048.78
561.94	60081.55
562.11	60161.13
562.27	60090.91
562.44	60086.23
562.60	60364.76
562.77	60067.51
562.93	60186.88
563.10	60217.30
563.26	60151.77
563.42	60355.39
563.59	60191.56
563.75	60273.48
563.92	60289.86
564.08	60196.24
564.24	60303.90
564.41	60329.65
564.57	60275.82
564.74	60350.71
564.90	60453.70
565.07	60390.50
565.23	60348.37
565.39	60306.24
565.56	60486.46
565.72	60200.92
565.88	60589.45
566.05	60486.46
566.21	60360.08
566.38	60589.45
566.54	60596.47
566.70	60463.06
566.87	60713.50
567.03	60416.25
567.19	60734.56
567.36	60608.17
567.52	60502.85
567.68	60666.69
567.85	60626.90
568.01	60725.20
568.17	60500.51
568.34	60683.07
568.50	60530.93
568.66	60598.81
568.83	60722.86
568.99	60528.59
569.15	60706.47
569.32	60633.92
569.48	60516.89
569.64	60961.59
569.81	60701.79
569.97	60577.75
570.13	60769.67
570.30	60456.04
570.46	60687.75
570.62	60872.65
570.78	60804.78
570.95	60743.92
571.11	60804.78
571.27	60811.80
571.43	60818.82
571.60	60898.40
571.76	60863.29
571.92	60809.46
572.09	60945.21
572.25	60776.69
572.41	60786.05
572.57	60931.17
572.74	60985.00
572.90	60842.23
573.06	60853.93
573.22	60842.23
573.38	60924.14
573.55	61080.96
573.71	61041.17
573.87	61066.92
574.03	60720.52
574.20	60743.92
574.36	60917.12
574.52	61001.38
574.68	61043.51
574.84	60907.76
575.01	61024.79
575.17	60961.59
575.33	60886.70
575.49	60889.04
575.65	60996.70
575.82	60928.83
575.98	61095.00
576.14	61043.51
576.30	61113.73
576.46	60985.00
576.62	61085.64
576.79	61041.17
576.95	60973.30
577.11	60912.44
577.27	61141.81
577.43	60966.27
577.59	60968.61
577.75	61083.30
577.92	60987.34
578.08	60865.63
578.24	60996.70
578.40	61324.38
578.56	61240.12
578.72	61057.56
578.88	61352.46
579.04	61387.57
579.21	61116.07
579.37	61221.39
579.53	61312.67
579.69	60935.85
579.85	61006.06
580.01	61076.28
580.17	61141.81
580.33	61139.47
580.49	61183.94
580.65	61216.71
580.82	61113.73
580.98	61006.06
581.14	61045.85
581.30	61151.18
581.46	61181.60
581.62	61272.88
581.78	61144.16
581.94	61179.26
582.10	61394.59
582.26	60996.70
582.42	61165.22
582.58	61181.60
582.74	61162.88
582.90	61282.25
583.06	61193.31
583.22	61062.24
583.38	61228.41
583.54	61242.46
583.70	61165.22
583.86	61165.22
584.02	61038.83
584.18	61286.93
584.34	61237.78
584.50	61237.78
584.66	61251.82
584.82	60992.02
584.98	61406.30
585.14	61347.78
585.30	60994.36
585.46	61190.97
585.62	61329.06
585.78	61460.13
585.94	61095.00
586.10	61322.04
586.26	61219.05
586.42	61265.86
586.58	61453.11
586.74	61169.90
586.90	61254.16
587.06	60914.78
587.22	61261.18
587.38	61125.43
587.54	61532.68
587.70	61408.64
587.86	61291.61
588.02	61275.22
588.18	61495.24
588.34	61399.27
588.49	61137.13
