SpectraSuite Data File
++++++++++++++++++++++++++++++++++++
Date: Fri Oct 25 11:34:30 EDT 2013
User: price-jones
Dark Spectrum Present: No
Reference Spectrum Present: No
Number of Sampled Component Spectra: 1
Spectrometers: USB2+H05261
Integration Time (usec): 100000 (USB2+H05261)
Spectra Averaged: 1 (USB2+H05261)
Boxcar Smoothing: 0 (USB2+H05261)
Correct for Electrical Dark: No (USB2+H05261)
Strobe/Lamp Enabled: No (USB2+H05261)
Correct for Detector Non-linearity: No (USB2+H05261)
Correct for Stray Light: No (USB2+H05261)
Number of Pixels in Processed Spectrum: 2048
>>>>>Begin Processed Spectral Data<<<<<
365.73	252.78
365.92	252.78
366.12	252.78
366.32	220.01
366.52	180.22
366.72	175.54
366.91	184.90
367.11	191.92
367.31	187.24
367.51	205.97
367.70	119.37
367.90	252.78
368.10	140.43
368.30	184.90
368.49	220.01
368.69	203.63
368.89	222.35
369.09	121.71
369.28	180.22
369.48	208.31
369.68	220.01
369.87	276.18
370.07	191.92
370.27	285.55
370.47	297.25
370.66	418.96
370.86	528.96
371.06	543.00
371.25	552.37
371.45	486.83
371.65	603.86
371.84	566.41
372.04	603.86
372.24	571.09
372.44	568.75
372.63	580.45
372.83	648.33
373.03	610.88
373.22	543.00
373.42	610.88
373.62	643.65
373.81	606.20
374.01	580.45
374.21	699.82
374.40	624.92
374.60	641.31
374.79	491.51
374.99	624.92
375.19	653.01
375.38	636.63
375.58	613.22
375.78	709.18
375.97	606.20
376.17	711.52
376.37	727.91
376.56	709.18
376.76	683.44
376.95	704.50
377.15	702.16
377.35	718.54
377.54	788.76
377.74	657.69
377.93	655.35
378.13	655.35
378.33	678.76
378.52	664.71
378.72	648.33
378.91	662.37
379.11	622.58
379.31	699.82
379.50	720.88
379.70	772.38
379.89	763.01
380.09	685.78
380.28	711.52
380.48	765.36
380.68	695.14
380.87	662.37
381.07	779.40
381.26	685.78
381.46	800.46
381.65	631.94
381.85	744.29
382.04	746.63
382.24	748.97
382.43	730.25
382.63	786.42
382.83	774.72
383.02	835.57
383.22	760.67
383.41	744.29
383.61	760.67
383.80	786.42
384.00	805.14
384.19	798.12
384.39	863.66
384.58	699.82
384.78	861.32
384.97	786.42
385.17	765.36
385.36	812.17
385.56	866.00
385.75	833.23
385.95	856.64
386.14	755.99
386.34	814.51
386.53	896.43
386.72	901.11
386.92	870.68
387.11	875.36
387.31	926.85
387.50	784.08
387.70	823.87
387.89	936.21
388.09	910.47
388.28	919.83
388.48	915.15
388.67	880.04
388.86	854.30
389.06	887.06
389.25	922.17
389.45	950.26
389.64	919.83
389.84	1050.90
390.03	903.45
390.22	976.00
390.42	971.32
390.61	968.98
390.81	887.06
391.00	950.26
391.19	957.28
391.39	1004.09
391.58	1004.09
391.78	983.02
391.97	1069.62
392.16	954.94
392.36	964.30
392.55	992.39
392.75	1011.11
392.94	1001.75
393.13	1046.22
393.33	990.05
393.52	1060.26
393.71	1048.56
393.91	1036.86
394.10	1050.90
394.29	1107.07
394.49	992.39
394.68	1076.65
394.88	1069.62
395.07	1111.75
395.26	1125.80
395.46	1165.59
395.65	1156.22
395.84	1046.22
396.04	1172.61
396.23	1198.35
396.42	1184.31
396.62	1165.59
396.81	1165.59
397.00	1170.27
397.19	1188.99
397.39	1240.48
397.58	1198.35
397.77	1081.33
397.97	1277.93
398.16	1188.99
398.35	1294.32
398.55	1179.63
398.74	1313.04
398.93	1188.99
399.12	1275.59
399.32	1282.61
399.51	1245.16
399.70	1315.38
399.90	1275.59
400.09	1345.81
400.28	1315.38
400.47	1327.08
400.67	1320.06
400.86	1483.90
401.05	1413.68
401.24	1392.62
401.44	1385.60
401.63	1441.77
401.82	1369.21
402.01	1392.62
402.21	1418.36
402.40	1451.13
402.59	1380.92
402.78	1420.71
402.97	1514.33
403.17	1460.49
403.36	1434.75
403.55	1544.75
403.74	1565.82
403.93	1469.86
404.13	1509.65
404.32	1584.54
404.51	1551.78
404.70	1643.06
404.89	1507.30
405.09	1579.86
405.28	1572.84
405.47	1633.69
405.66	1650.08
405.85	1664.12
406.05	1603.27
406.24	1614.97
406.43	1621.99
406.62	1732.00
406.81	1755.40
407.00	1710.93
407.20	1638.38
407.39	1708.59
407.58	1743.70
407.77	1788.17
407.96	1849.02
408.15	1764.76
408.34	1739.02
408.54	1937.96
408.73	1825.62
408.92	1872.43
409.11	1919.24
409.30	1877.11
409.49	1809.23
409.68	1916.90
409.87	1916.90
410.07	1970.73
410.26	1991.80
410.45	1961.37
410.64	2019.88
410.83	2050.31
411.02	2005.84
411.21	2050.31
411.40	2026.90
411.59	2230.53
411.78	2111.16
411.98	2118.18
412.17	2127.55
412.36	2071.37
412.55	2146.27
412.74	2277.34
412.93	2260.96
413.12	2356.92
413.31	2392.03
413.50	2270.32
413.69	2338.20
413.88	2361.60
414.07	2321.81
414.26	2375.64
414.45	2424.80
414.64	2403.73
414.83	2380.32
415.02	2464.58
415.22	2612.04
415.41	2593.31
415.60	2497.35
415.79	2495.01
415.98	2567.57
416.17	2597.99
416.36	2544.16
416.55	2672.89
416.74	2607.36
416.93	2743.11
417.12	2782.90
417.31	2708.00
417.50	2691.62
417.69	2920.99
417.88	2832.05
418.07	2675.23
418.26	2850.77
418.45	2825.03
418.64	2862.48
418.83	3002.91
419.02	2832.05
419.21	2958.44
419.39	3208.87
419.58	2988.86
419.77	3045.04
419.96	3063.76
420.15	2967.80
420.34	3016.95
420.53	2965.46
420.72	3105.89
420.91	3136.32
421.10	3178.45
421.29	3082.49
421.48	3077.80
421.67	3206.53
421.86	3126.96
422.05	3038.02
422.24	3208.87
422.43	3204.19
422.61	3204.19
422.80	3379.73
422.99	3068.44
423.18	3276.75
423.37	3330.58
423.56	3325.90
423.75	3178.45
423.94	3180.79
424.13	3049.72
424.32	3236.96
424.50	3370.37
424.69	3382.07
424.88	3286.11
425.07	3337.60
425.26	3276.75
425.45	3258.03
425.64	3274.41
425.83	3187.81
426.01	3379.73
426.20	3321.22
426.39	3372.71
426.58	3321.22
426.77	3311.86
426.96	3438.25
427.15	3471.01
427.33	3424.20
427.52	3412.50
427.71	3407.82
427.90	3468.67
428.09	3536.55
428.28	3499.10
428.46	3377.39
428.65	3543.57
428.84	3665.28
429.03	3648.90
429.22	3620.81
429.40	3604.42
429.59	3660.60
429.78	3590.38
429.97	3473.36
430.16	3616.13
430.34	3735.50
430.53	3798.69
430.72	3691.02
430.91	3707.41
431.10	3756.56
431.28	3782.31
431.47	3857.20
431.66	3950.82
431.85	3812.73
432.03	3936.78
432.22	4004.66
432.41	3915.72
432.60	4051.47
432.79	3889.97
432.97	3953.16
433.16	3943.80
433.35	4028.06
433.54	3992.95
433.72	3981.25
433.91	4014.02
434.10	4028.06
434.28	3946.14
434.47	4016.36
434.66	4119.34
434.85	4208.28
435.03	4133.39
435.22	4070.19
435.41	4348.72
435.59	4236.37
435.78	4234.03
435.97	4227.01
436.16	4231.69
436.34	4170.83
436.53	4173.18
436.72	4278.50
436.90	4156.79
437.09	4386.16
437.28	4393.19
437.46	4236.37
437.65	4388.50
437.84	4528.94
438.02	4397.87
438.21	4526.60
438.40	4372.12
438.58	4599.15
438.77	4631.92
438.96	4660.01
439.14	4575.75
439.33	4652.98
439.52	4882.36
439.70	4814.48
439.89	4837.89
440.08	4814.48
440.26	4861.29
440.45	4865.97
440.63	4919.81
440.82	5039.17
441.01	4961.94
441.19	4863.63
441.38	4940.87
441.57	5022.79
441.75	4980.66
441.94	5135.14
442.12	5263.86
442.31	5195.99
442.50	5170.24
442.68	5301.31
442.87	5032.15
443.05	5317.70
443.24	5364.51
443.43	5308.34
443.61	5254.50
443.80	5474.51
443.98	5303.65
444.17	5188.97
444.35	5397.28
444.54	5483.88
444.73	5373.87
444.91	5298.97
445.10	5528.35
445.28	5439.40
445.47	5516.64
445.65	5511.96
445.84	5502.60
446.02	5502.60
446.21	5416.00
446.39	5568.13
446.58	5624.31
446.77	5460.47
446.95	5296.63
447.14	5455.79
447.32	5526.00
447.51	5345.78
447.69	5334.08
447.88	5617.29
448.06	5526.00
448.25	5528.35
448.43	5474.51
448.62	5497.92
448.80	5490.90
448.99	5565.79
449.17	5596.22
449.36	5734.31
449.54	5643.03
449.73	5764.74
449.91	5851.34
450.10	5884.11
450.28	5909.85
450.46	5912.19
450.65	5731.97
450.83	5830.27
451.02	5940.28
451.20	6047.94
451.39	5973.05
451.57	5909.85
451.76	5851.34
451.94	5919.21
452.13	6073.69
452.31	5928.58
452.49	5959.00
452.68	6071.35
452.86	6047.94
453.05	6179.01
453.23	6026.88
453.42	6101.78
453.60	6017.52
453.78	6148.59
453.97	6005.81
454.15	6076.03
454.34	6094.76
454.52	6228.17
454.70	6307.74
454.89	6413.07
455.07	6342.85
455.26	6274.98
455.44	6567.54
455.62	6406.05
455.81	6431.79
455.99	6593.29
456.17	6539.46
456.36	6396.68
456.54	6462.22
456.73	6607.33
456.91	6757.13
457.09	6705.63
457.28	6668.19
457.46	6752.45
457.64	6771.17
457.83	6780.53
458.01	6843.73
458.19	7042.67
458.38	6885.86
458.56	6993.52
458.74	6977.14
458.93	6745.42
459.11	6757.13
459.29	6686.91
459.48	7023.95
459.66	6984.16
459.84	7026.29
460.03	7222.89
460.21	7112.89
460.39	7204.17
460.57	7084.80
460.76	7197.15
460.94	7258.00
461.12	7222.89
461.31	7293.11
461.49	7279.07
461.67	7201.83
461.85	7276.73
462.04	7206.51
462.22	7576.31
462.40	7543.55
462.59	7353.96
462.77	7475.67
462.95	7466.31
463.13	7297.79
463.32	7508.44
463.50	7468.65
463.68	7508.44
463.86	7576.31
464.05	7321.20
464.23	7405.46
464.41	7735.47
464.59	7543.55
464.78	7740.15
464.96	7644.19
465.14	7529.50
465.32	7749.51
465.50	7747.17
465.69	7817.39
465.87	7775.26
466.05	7573.97
466.23	7824.41
466.41	7754.19
466.60	8065.49
466.78	7761.22
466.96	7749.51
467.14	7810.37
467.32	7850.16
467.51	8079.53
467.69	7899.31
467.87	8035.06
468.05	7908.67
468.23	7960.16
468.41	7660.57
468.60	7779.94
468.78	8098.25
468.96	8116.98
469.14	8189.53
469.32	8262.09
469.50	7990.59
469.69	8231.66
469.87	8299.54
470.05	8395.50
470.23	8404.86
470.41	8526.57
470.59	8458.70
470.77	8259.75
470.95	8496.14
471.14	8821.48
471.32	8222.30
471.50	8816.80
471.68	8580.40
471.86	8727.86
472.04	8868.29
472.22	8887.01
472.40	8767.65
472.58	8671.68
472.77	8809.78
472.95	8964.25
473.13	9188.94
473.31	8980.64
473.49	8849.57
473.67	8847.22
473.85	8968.93
474.03	9242.78
474.21	9441.72
474.39	9256.82
474.57	9408.95
474.75	9533.00
474.93	9551.73
475.12	9465.13
475.30	9486.19
475.48	9556.41
475.66	9514.28
475.84	9643.01
476.02	9769.40
476.20	9696.84
476.38	10061.96
476.56	10038.56
476.74	10047.92
476.92	9912.17
477.10	9818.55
477.28	10242.18
477.46	10216.44
477.64	10328.78
477.82	10434.11
478.00	10834.34
478.18	10658.80
478.36	10953.71
478.54	10693.91
478.72	10878.81
478.90	10883.49
479.08	10927.96
479.26	11012.22
479.44	11232.23
479.62	11173.72
479.80	11454.58
479.98	11353.94
480.16	11592.67
480.34	11569.27
480.52	11688.64
480.70	11742.47
480.88	11660.55
481.06	11599.70
481.24	11868.86
481.41	11969.50
481.59	12191.85
481.77	12233.98
481.95	12315.90
482.13	12463.35
482.31	12325.26
482.49	12709.11
482.67	12381.43
482.85	12891.67
483.03	13064.87
483.21	13069.55
483.39	13114.02
483.57	12879.97
483.74	13287.22
483.92	13500.21
484.10	13551.70
484.28	13657.03
484.46	13724.90
484.64	14024.49
484.82	13577.45
485.00	13827.88
485.18	14087.68
485.35	14193.01
485.53	14321.74
485.71	14396.64
485.89	14733.67
486.07	14665.80
486.25	14719.63
486.43	14581.54
486.61	15112.84
486.78	15213.48
486.96	15386.68
487.14	15185.40
487.32	15370.30
487.50	15424.13
487.68	15707.34
487.85	15810.32
488.03	15819.68
488.21	16081.82
488.39	16039.69
488.57	16374.39
488.75	16301.83
488.92	16444.60
489.10	16702.06
489.28	16610.78
489.46	17149.11
489.64	17039.10
489.81	17298.90
489.99	17261.45
490.17	17184.21
490.35	17415.93
490.53	17743.60
490.70	17788.07
490.88	17853.61
491.06	17626.57
491.24	17947.23
491.41	18225.75
491.59	18249.16
491.77	18302.99
491.95	18382.57
492.13	18572.15
492.30	18843.65
492.48	18881.10
492.66	18810.89
492.84	18848.33
493.01	19126.86
493.19	19218.14
493.37	19557.52
493.54	19403.04
493.72	19796.25
493.90	19470.92
494.08	19896.89
494.25	20058.39
494.43	19992.86
494.61	19988.18
494.79	20219.89
494.96	20304.15
495.14	20177.76
495.32	20922.05
495.49	20638.84
495.67	20659.91
495.85	20819.07
496.02	21029.71
496.20	21589.10
496.38	21504.84
496.55	21209.93
496.73	21804.43
496.91	21401.86
497.09	21523.57
497.26	21830.18
497.44	21589.10
497.62	21979.97
497.79	22136.79
497.97	21975.29
498.14	22455.10
498.32	22656.39
498.50	22513.61
498.67	23166.62
498.85	22658.73
499.03	22860.01
499.20	23147.90
499.38	23009.81
499.56	23194.71
499.73	23218.11
499.91	23414.72
500.08	23503.66
500.26	23557.49
500.44	23747.08
500.61	23372.59
500.79	23344.50
500.97	23948.36
501.14	23943.68
501.32	24079.43
501.49	24044.32
501.67	23988.15
501.84	24313.48
502.02	24137.94
502.20	24573.28
502.37	24622.44
502.55	24341.57
502.72	24341.57
502.90	24732.44
503.07	24484.34
503.25	24891.60
503.43	24940.75
503.60	25399.49
503.78	24954.79
503.95	25039.05
504.13	25298.85
504.30	25352.68
504.48	25443.96
504.65	25565.67
504.83	25970.58
505.01	25626.53
505.18	25743.55
505.36	25874.62
505.53	25628.87
505.71	26293.58
505.88	26075.91
506.06	26214.00
506.23	26525.29
506.41	26185.91
506.58	26246.77
506.76	26321.66
506.93	26780.41
507.11	26562.74
507.28	26733.60
507.46	26895.10
507.63	26871.69
507.81	27337.46
507.98	26539.33
508.16	27194.68
508.33	27260.22
508.50	27229.79
508.68	27292.99
508.85	27417.04
509.03	27337.46
509.20	27569.17
509.38	28044.30
509.55	27927.27
509.73	27899.19
509.90	28100.47
510.08	27793.86
510.25	28088.77
510.42	27901.53
510.60	28489.00
510.77	28142.60
510.95	28730.08
511.12	28872.85
511.30	28477.30
511.47	28699.65
511.64	28692.63
511.82	29170.10
511.99	29034.35
512.17	29303.51
512.34	29090.52
512.51	29383.09
512.69	29523.52
512.86	28861.15
513.04	29544.58
513.21	29259.04
513.38	29631.18
513.56	29930.77
513.73	29523.52
513.90	29780.98
514.08	30057.16
514.25	29848.85
514.43	30211.64
514.60	30066.52
514.77	29741.19
514.95	30110.99
515.12	30244.40
515.29	30508.88
515.47	30403.56
515.64	30515.90
515.81	30237.38
515.99	30162.48
516.16	30843.58
516.33	30602.50
516.51	30906.77
516.68	30761.66
516.85	30834.22
517.03	31051.89
517.20	31180.62
517.37	31122.10
517.54	31033.16
517.72	31377.22
517.89	31269.56
518.06	31580.85
518.24	31625.32
518.41	31435.74
518.58	31866.39
518.75	31356.16
518.93	32032.57
519.10	31850.01
519.27	31819.58
519.45	32135.56
519.62	32341.52
519.79	32063.00
519.96	31903.84
520.14	31976.40
520.31	31910.86
520.48	32107.47
520.65	32484.30
520.83	32720.69
521.00	32711.33
521.17	32945.38
521.34	32954.74
521.52	33017.94
521.69	33207.52
521.86	33064.75
522.03	33385.40
522.20	33336.25
522.38	33282.42
522.55	33364.34
522.72	33263.69
522.89	33420.51
523.07	33624.14
523.24	33254.33
523.41	33544.56
523.58	32898.57
523.75	33680.31
523.92	33614.77
524.10	34188.21
524.27	33989.26
524.44	33961.17
524.61	34422.26
524.78	34185.86
524.96	34576.73
525.13	34272.46
525.30	34485.45
525.47	34211.61
525.64	34227.99
525.81	34941.86
525.98	34249.06
526.16	34555.67
526.33	34462.05
526.50	35196.98
526.67	34440.98
526.84	34679.72
527.01	34361.40
527.18	34817.81
527.36	35264.85
527.53	35143.14
527.70	35416.99
527.87	35548.06
528.04	35536.35
528.21	35117.40
528.38	35260.17
528.55	35562.10
528.72	35262.51
528.89	35590.19
529.07	35526.99
529.24	35618.27
529.41	35875.73
529.58	35435.71
529.75	35688.49
529.92	35763.39
530.09	35611.25
530.26	35943.61
530.43	36219.79
530.60	35957.65
530.77	35562.10
530.94	36030.21
531.11	36224.47
531.28	36037.23
531.46	36137.87
531.63	36238.51
531.80	36671.51
531.97	36627.04
532.14	36388.31
532.31	36577.89
532.48	36727.69
532.65	36638.75
532.82	36383.63
532.99	36905.57
533.16	36673.85
533.33	36748.75
533.50	36999.19
533.67	36943.02
533.84	36814.29
534.01	36851.73
534.18	36910.25
534.35	37376.01
534.52	37167.71
534.69	37371.33
534.86	37935.40
535.03	37228.56
535.20	37603.05
535.37	37558.58
535.54	37886.25
535.71	37172.39
535.88	37521.13
536.05	37729.44
536.22	37865.19
536.38	37748.16
536.55	38115.62
536.72	37734.12
536.89	37572.62
537.06	38050.09
537.23	38576.71
537.40	38017.32
537.57	37890.93
537.74	38068.81
537.91	38342.66
538.08	38375.42
538.25	37972.85
538.42	38129.67
538.59	38745.23
538.75	38536.92
538.92	39051.84
539.09	38916.09
539.26	38403.51
539.43	38728.84
539.60	38335.63
539.77	38820.13
539.94	38993.32
540.11	38721.82
540.28	38490.11
540.44	38859.91
540.61	38663.31
540.78	38649.27
540.95	39199.29
541.12	39023.75
541.29	39047.16
541.46	38953.54
541.62	39028.43
541.79	39313.98
541.96	38876.30
542.13	38946.51
542.30	39468.45
542.47	39454.41
542.63	39421.64
542.80	39770.38
542.97	39814.85
543.14	40011.46
543.31	39828.90
543.48	40009.12
543.64	40332.11
543.81	39943.58
543.98	40271.26
544.15	40212.74
544.32	40355.52
544.48	40514.67
544.65	40313.39
544.82	40252.53
544.99	40215.08
545.16	40170.61
545.32	40268.92
545.49	40589.57
545.66	40612.98
545.83	40645.74
546.00	40582.55
546.16	40402.33
546.33	40388.28
546.50	40133.17
546.67	41003.85
546.83	40341.47
547.00	40856.39
547.17	40683.19
547.34	40458.50
547.50	40856.39
547.67	41240.24
547.84	41141.94
548.00	41067.04
548.17	41305.77
548.34	40942.99
548.51	41324.50
548.67	41160.66
548.84	40933.63
549.01	41490.68
549.18	41024.91
549.34	41303.43
549.51	41481.31
549.68	41734.09
549.84	41270.67
550.01	41799.63
550.18	41390.03
550.34	41153.64
550.51	41537.49
550.68	41703.67
550.84	41380.67
551.01	41801.97
551.18	41645.15
551.34	41521.10
551.51	41816.01
551.68	41663.88
551.84	41855.80
552.01	41804.31
552.18	41968.15
552.34	41977.51
552.51	41879.21
552.68	41832.39
552.84	42153.05
553.01	42059.43
553.18	41860.48
553.34	42253.69
553.51	41930.70
553.67	42366.04
553.84	42408.17
554.01	42244.33
554.17	42286.46
554.34	42693.71
554.51	42272.42
554.67	42485.40
554.84	43026.07
555.00	42506.47
555.17	42445.62
555.33	42576.69
555.50	42590.73
555.67	42532.22
555.83	42756.91
556.00	42686.69
556.16	43276.51
556.33	42990.96
556.50	42859.89
556.66	43332.68
556.83	42637.54
556.99	42925.42
557.16	42986.28
557.32	43332.68
557.49	43620.56
557.65	42644.56
557.82	42801.38
557.98	43119.69
558.15	42686.69
558.32	43122.03
558.48	43002.66
558.65	43283.53
558.81	43255.44
558.98	43229.69
559.14	43461.41
559.31	42869.25
559.47	42822.44
559.64	43775.04
559.80	43339.70
559.97	43709.50
560.13	43129.05
560.30	43260.12
560.46	43407.58
560.63	43716.53
560.79	44149.53
560.96	43885.04
561.12	43810.15
561.29	43590.14
561.45	43681.42
561.61	43524.60
561.78	43374.81
561.94	43985.69
562.11	43505.88
562.27	43648.65
562.44	43248.42
562.60	44046.54
562.77	44004.41
562.93	43672.06
563.10	43868.66
563.26	43248.42
563.42	44074.63
563.59	43597.16
563.75	43487.15
563.92	44147.18
564.08	43681.42
564.24	43597.16
564.41	43899.09
564.57	43981.01
564.74	44575.50
564.90	43915.47
565.07	43723.55
565.23	43758.66
565.39	44327.41
565.56	44287.62
565.72	43831.21
565.88	44257.19
566.05	44095.69
566.21	43981.01
566.38	44245.49
566.54	44236.12
566.70	44795.51
566.87	44357.83
567.03	43959.94
567.19	44470.18
567.36	44088.67
567.52	44327.41
567.68	44683.17
567.85	44498.26
568.01	44399.96
568.17	44020.80
568.34	44673.81
568.50	44076.97
568.66	44233.78
568.83	44598.91
568.99	44720.62
569.15	44226.76
569.32	44800.19
569.48	44219.74
569.64	44678.49
569.81	44626.99
569.97	44776.79
570.13	44505.29
570.30	44280.60
570.46	44264.21
570.62	44554.44
570.78	44849.35
570.95	44135.48
571.11	44949.99
571.27	44079.31
571.43	44769.77
571.60	44414.01
571.76	44236.12
571.92	44669.12
572.09	44914.88
572.25	44470.18
572.41	44446.77
572.57	44540.39
572.74	45375.97
572.90	44671.46
573.06	44849.35
573.22	44854.03
573.38	45062.33
573.55	45202.77
573.71	44776.79
573.87	44692.53
574.03	44634.02
574.20	45462.57
574.36	44931.26
574.52	45481.29
574.68	44673.81
574.84	44926.58
575.01	45219.15
575.17	45216.81
575.33	44903.18
575.49	44765.09
575.65	44959.35
575.82	45193.40
575.98	45050.63
576.14	44966.37
576.30	45148.93
576.46	45329.16
576.62	44645.72
576.79	44957.01
576.95	44423.37
577.11	44893.82
577.27	44839.98
577.43	44964.03
577.59	44849.35
577.75	44554.44
577.92	44729.98
578.08	44851.69
578.24	45179.36
578.40	45338.52
578.56	45202.77
578.72	44737.00
578.88	44996.80
579.04	44942.97
579.21	45177.02
579.37	45017.86
579.53	45481.29
579.69	44582.52
579.85	44797.85
580.01	44978.07
580.17	45090.42
580.33	45198.09
580.49	45207.45
580.65	44928.92
580.82	45181.70
580.98	45116.17
581.14	44893.82
581.30	45287.03
581.46	45333.84
581.62	44741.68
581.78	45017.86
581.94	45010.84
582.10	45308.09
582.26	44786.15
582.42	45179.36
582.58	45649.81
582.74	45017.86
582.90	45104.46
583.06	45708.32
583.22	45191.06
583.38	45464.91
583.54	45270.64
583.70	45265.96
583.86	45436.82
584.02	45214.47
584.18	45261.28
584.34	45560.87
584.50	45621.72
584.66	45647.47
584.82	45500.01
584.98	45361.92
585.14	45455.54
585.30	45230.85
585.46	45474.27
585.62	44987.44
585.78	45488.31
585.94	45083.40
586.10	45085.74
586.26	45067.02
586.42	45294.05
586.58	45516.40
586.74	45261.28
586.90	45027.23
587.06	45382.99
587.22	45478.95
587.38	45177.02
587.54	45731.73
587.70	45642.79
587.86	45378.31
588.02	45326.81
588.18	45748.11
588.34	45558.53
588.49	45230.85
588.65	45242.56
588.81	45668.53
588.97	45408.73
589.13	45261.28
589.29	45567.89
589.45	45799.60
589.61	45689.60
589.77	45504.70
589.93	45619.38
590.08	45813.65
