SpectraSuite Data File
++++++++++++++++++++++++++++++++++++
Date: Fri Oct 25 11:25:52 EDT 2013
User: price-jones
Dark Spectrum Present: No
Reference Spectrum Present: No
Number of Sampled Component Spectra: 1
Spectrometers: USB2+H05261
Integration Time (usec): 100000 (USB2+H05261)
Spectra Averaged: 1 (USB2+H05261)
Boxcar Smoothing: 0 (USB2+H05261)
Correct for Electrical Dark: No (USB2+H05261)
Strobe/Lamp Enabled: No (USB2+H05261)
Correct for Detector Non-linearity: No (USB2+H05261)
Correct for Stray Light: No (USB2+H05261)
Number of Pixels in Processed Spectrum: 2048
>>>>>Begin Processed Spectral Data<<<<<
365.73	208.31
365.92	208.31
366.12	208.31
366.32	182.56
366.52	189.58
366.72	180.22
366.91	93.62
367.11	138.09
367.31	119.37
367.51	117.03
367.70	117.03
367.90	149.79
368.10	128.73
368.30	168.52
368.49	161.50
368.69	145.11
368.89	131.07
369.09	142.77
369.28	154.48
369.48	156.82
369.68	177.88
369.87	189.58
370.07	196.60
370.27	220.01
370.47	273.84
370.66	645.99
370.86	606.20
371.06	580.45
371.25	641.31
371.45	643.65
371.65	660.03
371.84	662.37
372.04	748.97
372.24	692.80
372.44	690.46
372.63	760.67
372.83	697.48
373.03	734.93
373.22	734.93
373.42	770.04
373.62	723.23
373.81	814.51
374.01	793.44
374.21	856.64
374.40	763.01
374.60	891.74
374.79	816.85
374.99	866.00
375.19	840.25
375.38	805.14
375.58	884.72
375.78	835.57
375.97	866.00
376.17	940.90
376.37	861.32
376.56	880.04
376.76	863.66
376.95	866.00
377.15	870.68
377.35	894.08
377.54	945.58
377.74	875.36
377.93	882.38
378.13	866.00
378.33	945.58
378.52	915.15
378.72	882.38
378.91	926.85
379.11	915.15
379.31	950.26
379.50	936.21
379.70	912.81
379.89	896.43
380.09	990.05
380.28	903.45
380.48	954.94
380.68	1004.09
380.87	954.94
381.07	1020.47
381.26	1095.37
381.46	985.37
381.65	1001.75
381.85	1053.24
382.04	1071.97
382.24	1055.58
382.43	978.34
382.63	1048.56
382.83	1102.39
383.02	1135.16
383.22	1172.61
383.41	1100.05
383.61	1004.09
383.80	1118.78
384.00	1090.69
384.19	1118.78
384.39	1095.37
384.58	1139.84
384.78	1064.94
384.97	1191.33
385.17	1191.33
385.36	1203.04
385.56	1200.69
385.75	1245.16
385.95	1228.78
386.14	1170.27
386.34	1270.91
386.53	1228.78
386.72	1165.59
386.92	1284.95
387.11	1268.57
387.31	1224.10
387.50	1259.21
387.70	1289.64
387.89	1275.59
388.09	1359.85
388.28	1193.67
388.48	1254.53
388.67	1343.47
388.86	1385.60
389.06	1254.53
389.25	1366.87
389.45	1235.80
389.64	1299.00
389.84	1439.43
390.03	1355.17
390.22	1413.68
390.42	1409.00
390.61	1366.87
390.81	1343.47
391.00	1341.13
391.19	1437.09
391.39	1488.58
391.58	1523.69
391.78	1486.24
391.97	1495.60
392.16	1294.32
392.36	1549.43
392.55	1521.35
392.75	1474.54
392.94	1416.02
393.13	1460.49
393.33	1603.27
393.52	1565.82
393.71	1549.43
393.91	1610.29
394.10	1596.25
394.29	1540.07
394.49	1603.27
394.68	1593.90
394.88	1584.54
395.07	1647.74
395.26	1734.34
395.46	1610.29
395.65	1694.55
395.84	1713.27
396.04	1778.81
396.23	1706.25
396.42	1842.00
396.62	1830.30
396.81	1760.08
397.00	1865.41
397.19	1699.23
397.39	1797.53
397.58	1853.70
397.77	1870.09
397.97	1881.79
398.16	1863.07
398.35	1980.09
398.55	1842.00
398.74	1849.02
398.93	1949.67
399.12	1886.47
399.32	1989.46
399.51	1916.90
399.70	2064.35
399.90	1991.80
400.09	1905.20
400.28	2059.67
400.47	2136.91
400.67	2167.34
400.86	2059.67
401.05	2073.71
401.24	2104.14
401.44	2052.65
401.63	1998.82
401.82	2127.55
402.01	2125.21
402.21	2155.63
402.40	2176.70
402.59	2186.06
402.78	2153.29
402.97	2148.61
403.17	2188.40
403.36	2160.31
403.55	2338.20
403.74	2373.30
403.93	2324.15
404.13	2359.26
404.32	2293.72
404.51	2338.20
404.70	2415.43
404.89	2516.08
405.09	2562.89
405.28	2319.47
405.47	2356.92
405.66	2513.74
405.85	2509.05
406.05	2473.95
406.24	2532.46
406.43	2553.52
406.62	2518.42
406.81	2691.62
407.00	2588.63
407.20	2656.51
407.39	2581.61
407.58	2527.78
407.77	2696.30
407.96	2619.06
408.15	2726.72
408.34	2820.35
408.54	2775.88
408.73	2869.50
408.92	2806.30
409.11	2892.90
409.30	2892.90
409.49	2874.18
409.68	2904.60
409.87	2937.37
410.07	2979.50
410.26	3019.29
410.45	2899.92
410.64	2965.46
410.83	2995.89
411.02	3070.78
411.21	3126.96
411.40	3084.83
411.59	3150.36
411.78	3251.00
411.98	3056.74
412.17	3316.54
412.36	3314.20
412.55	3337.60
412.74	3426.54
412.93	3330.58
413.12	3379.73
413.31	3646.55
413.50	3585.70
413.69	3499.10
413.88	3489.74
414.07	3550.59
414.26	3737.84
414.45	3691.02
414.64	3548.25
414.83	3779.97
415.02	3698.05
415.22	3845.50
415.41	3791.67
415.60	3889.97
415.79	3859.54
415.98	4056.15
416.17	4007.00
416.36	4079.55
416.55	3999.98
416.74	4093.60
416.93	3974.23
417.12	4046.79
417.31	4210.62
417.50	4245.73
417.69	4259.78
417.88	4252.75
418.07	4255.09
418.26	4231.69
418.45	4212.96
418.64	4337.01
418.83	4360.42
419.02	4566.39
419.21	4500.85
419.39	4454.04
419.58	4482.13
419.77	4344.03
419.96	4514.89
420.15	4559.36
420.34	4603.83
420.53	4657.67
420.72	4683.41
420.91	4634.26
421.10	4702.14
421.29	4734.90
421.48	4580.43
421.67	4755.97
421.86	4760.65
422.05	4830.87
422.24	4798.10
422.43	4851.93
422.61	4802.78
422.80	4945.55
422.99	4910.44
423.18	4887.04
423.37	4968.96
423.56	4837.89
423.75	4795.76
423.94	4870.65
424.13	4528.94
424.32	4678.73
424.50	4863.63
424.69	5032.15
424.88	5067.26
425.07	4898.74
425.26	4947.89
425.45	4975.98
425.64	4884.70
425.83	4992.36
426.01	5090.67
426.20	5083.64
426.39	5144.50
426.58	4926.83
426.77	4985.34
426.96	5144.50
427.15	5053.22
427.33	5160.88
427.52	5102.37
427.71	5097.69
427.90	5224.08
428.09	5462.81
428.28	5324.72
428.46	5418.34
428.65	5296.63
428.84	5334.08
429.03	5563.45
429.22	5315.36
429.40	5289.61
429.59	5561.11
429.78	5310.68
429.97	5362.17
430.16	5472.17
430.34	5586.86
430.53	5661.76
430.72	5579.84
430.91	5675.80
431.10	5563.45
431.28	5612.60
431.47	5837.30
431.66	5907.51
431.85	5966.03
432.03	5982.41
432.22	5874.74
432.41	5818.57
432.60	6003.47
432.79	5802.19
432.97	6012.84
433.16	6010.50
433.35	5895.81
433.54	5998.79
433.72	6005.81
433.91	6132.20
434.10	6148.59
434.28	5954.32
434.47	6279.66
434.66	6516.05
434.85	6347.53
435.03	6289.02
435.22	6209.44
435.41	6356.90
435.59	6256.25
435.78	6576.91
435.97	6436.47
436.16	6399.02
436.34	6382.64
436.53	6399.02
436.72	6565.20
436.90	6537.12
437.09	6757.13
437.28	6518.39
437.46	6595.63
437.65	6604.99
437.84	6771.17
438.02	6878.83
438.21	6707.98
438.40	6602.65
438.58	7082.46
438.77	7091.82
438.96	7063.74
439.14	7066.08
439.33	7110.55
439.52	7316.51
439.70	7206.51
439.89	7431.20
440.08	7260.34
440.26	7300.13
440.45	7344.60
440.63	7382.05
440.82	7578.65
441.01	7489.71
441.19	7583.34
441.38	7740.15
441.57	7667.60
441.75	7815.05
441.94	7896.97
442.12	8046.76
442.31	7988.25
442.50	7920.37
442.68	7896.97
442.87	8044.42
443.05	8098.25
443.24	8135.70
443.43	7906.33
443.61	8002.29
443.80	8425.93
443.98	8025.70
444.17	7873.56
444.35	7950.80
444.54	8243.37
444.73	8175.49
444.91	8294.86
445.10	8313.58
445.28	8341.67
445.47	8428.27
445.65	8376.78
445.84	8449.33
446.02	8484.44
446.21	8484.44
446.39	8219.96
446.58	8688.07
446.77	8402.52
446.95	8203.58
447.14	8468.06
447.32	8475.08
447.51	8402.52
447.69	8264.43
447.88	8489.12
448.06	8444.65
448.25	8491.46
448.43	8629.56
448.62	8617.85
448.80	8489.12
448.99	8655.30
449.17	8620.19
449.36	8552.32
449.54	8854.25
449.73	8980.64
449.91	9100.00
450.10	8884.67
450.28	8842.54
450.46	9090.64
450.65	9020.42
450.83	8961.91
451.02	9025.11
451.20	9221.71
451.39	9238.09
451.57	9135.11
451.76	9029.79
451.94	9057.87
452.13	9200.65
452.31	9247.46
452.49	9139.79
452.68	9345.76
452.86	9249.80
453.05	9430.02
453.23	9486.19
453.42	9242.78
453.60	9425.34
453.78	9329.38
453.97	9420.66
454.15	9535.34
454.34	9282.56
454.52	9523.64
454.70	9710.88
454.89	9647.69
455.07	9804.50
455.26	9680.46
455.44	9895.78
455.62	9907.49
455.81	9928.55
455.99	9830.25
456.17	9966.00
456.36	10256.23
456.54	10010.47
456.73	10279.63
456.91	10546.45
457.09	10349.85
457.28	10457.51
457.46	10509.01
457.64	10530.07
457.83	10565.18
458.01	10532.41
458.19	10619.01
458.38	10509.01
458.56	10504.32
458.74	10899.87
458.93	10569.86
459.11	10883.49
459.29	10644.76
459.48	10927.96
459.66	10668.16
459.84	10874.13
460.03	11056.69
460.21	10967.75
460.39	10918.60
460.57	10904.56
460.76	11143.29
460.94	10944.34
461.12	11288.40
461.31	11204.14
461.49	11192.44
461.67	11112.86
461.85	11398.41
462.04	11197.12
462.22	11817.36
462.40	11662.89
462.59	11435.86
462.77	11534.16
462.95	11548.20
463.13	11332.87
463.32	11587.99
463.50	11882.90
463.68	11623.10
463.86	11943.75
464.05	11555.22
464.23	11815.02
464.41	11838.43
464.59	11602.04
464.78	12194.19
464.96	11943.75
465.14	11880.56
465.32	12128.66
465.50	11988.22
465.69	12114.61
465.87	12210.57
466.05	12065.46
466.23	12259.73
466.41	12196.53
466.60	12313.56
466.78	12114.61
466.96	11901.62
467.14	12257.39
467.32	12468.03
467.51	12505.48
467.69	12049.08
467.87	12526.55
468.05	12720.81
468.23	12292.49
468.41	12451.65
468.60	12484.42
468.78	12596.76
468.96	12524.21
469.14	12594.42
469.32	13198.28
469.50	12538.25
469.69	12959.55
469.87	13048.49
470.05	13261.48
470.23	13107.00
470.41	13207.64
470.59	13050.83
470.77	12980.61
470.95	13355.10
471.14	13511.91
471.32	12994.65
471.50	13647.66
471.68	13439.36
471.86	13659.37
472.04	13867.67
472.22	13802.14
472.40	13886.40
472.58	13752.99
472.77	13916.83
472.95	14083.00
473.13	14436.42
473.31	14258.54
473.49	14043.21
473.67	14059.60
473.85	14352.16
474.03	14789.85
474.21	14363.87
474.39	14787.50
474.57	14464.51
474.75	14827.29
474.93	15105.82
475.12	14857.72
475.30	15051.99
475.48	15044.96
475.66	15051.99
475.84	14949.00
476.02	15215.82
476.20	15332.85
476.38	15580.95
476.56	15845.43
476.74	15829.04
476.92	15789.25
477.10	15653.50
477.28	16161.40
477.46	16056.08
477.64	16292.47
477.82	16451.63
478.00	16807.39
478.18	16601.42
478.36	16755.90
478.54	16954.84
478.72	17003.99
478.90	17181.87
479.08	17736.58
479.26	17385.50
479.44	17666.36
479.62	17965.95
479.80	17980.00
479.98	17912.12
480.16	18665.77
480.34	18038.51
480.52	18616.62
480.70	18700.88
480.88	18277.24
481.06	18555.77
481.24	18787.48
481.41	18883.44
481.59	19042.60
481.77	19241.54
481.95	19400.70
482.13	19742.42
482.31	19548.15
482.49	20194.14
482.67	19992.86
482.85	20416.49
483.03	20360.32
483.21	20802.68
483.39	20688.00
483.57	20592.03
483.74	21020.35
483.92	21376.11
484.10	21235.68
484.28	21380.79
484.46	21858.26
484.64	22120.40
484.82	22033.80
485.00	22132.11
485.18	22525.32
485.35	23049.60
485.53	22686.81
485.71	22750.01
485.89	23431.10
486.07	23023.85
486.25	23548.13
486.43	23534.09
486.61	23817.29
486.78	24257.31
486.96	24142.63
487.14	24243.27
487.32	24500.73
487.50	24435.19
487.68	25130.33
487.85	25266.08
488.03	25720.15
488.21	25930.80
488.39	25893.35
488.57	25968.24
488.75	26127.40
488.92	26157.83
489.10	26511.25
489.28	26588.49
489.46	26738.28
489.64	27197.02
489.81	27775.14
489.99	27325.75
490.17	27541.08
490.35	27938.97
490.53	27833.65
490.70	27889.82
490.88	28460.91
491.06	28599.01
491.24	28692.63
491.41	29212.23
491.59	29160.73
491.77	29237.97
491.95	29289.46
492.13	29422.87
492.30	29874.60
492.48	30246.74
492.66	30232.70
492.84	30155.46
493.01	30923.16
493.19	30443.35
493.37	30742.94
493.54	31026.14
493.72	31637.02
493.90	31330.41
494.08	31651.06
494.25	31625.32
494.43	31882.78
494.61	32044.27
494.79	32662.18
494.96	32573.24
495.14	32676.22
495.32	32734.73
495.49	33434.55
495.67	33017.94
495.85	33383.06
496.02	33666.27
496.20	34038.41
496.38	33825.42
496.55	33617.11
496.73	34579.07
496.91	34237.36
497.09	34817.81
497.26	34852.92
497.44	35014.41
497.62	35178.25
497.79	35463.80
497.97	35569.12
498.14	35967.01
498.32	35725.94
498.50	35749.34
498.67	36458.52
498.85	36488.95
499.03	37008.55
499.20	36961.74
499.38	36547.47
499.56	36833.01
499.73	36617.68
499.91	37289.42
500.08	37331.54
500.26	36896.20
500.44	37532.83
500.61	37546.87
500.79	38057.11
500.97	38136.69
501.14	38356.70
501.32	38206.90
501.49	38033.71
501.67	38541.60
501.84	38639.90
502.02	39171.21
502.20	38803.74
502.37	39187.59
502.55	39182.91
502.72	39117.37
502.90	39473.13
503.07	39711.87
503.25	39856.98
503.43	39620.59
503.60	39854.64
503.78	39737.62
503.95	39845.28
504.13	39974.01
504.30	40500.63
504.48	40313.39
504.65	40809.58
504.83	40706.60
505.01	41111.51
505.18	40587.23
505.36	41251.94
505.53	40620.00
505.71	41584.30
505.88	41792.61
506.06	41333.86
506.23	41895.59
506.41	41659.20
506.58	41797.29
506.76	42117.94
506.93	42237.31
507.11	42092.19
507.28	42412.85
507.46	42508.81
507.63	42745.20
507.81	43225.01
507.98	42885.64
508.16	42918.40
508.33	42983.94
508.50	43180.54
508.68	43594.82
508.85	43824.19
509.03	43480.13
509.20	43758.66
509.38	44219.74
509.55	44446.77
509.73	44505.29
509.90	44584.86
510.08	44161.23
510.25	44465.50
510.42	44692.53
510.60	44765.09
510.77	44891.48
510.95	45504.70
511.12	44814.24
511.30	45043.61
511.47	44683.17
511.64	45324.47
511.82	45720.02
511.99	45591.30
512.17	45766.84
512.34	45516.40
512.51	46646.88
512.69	46515.81
512.86	46436.23
513.04	46504.10
513.21	46525.17
513.38	46843.48
513.56	46525.17
513.73	46639.86
513.90	46504.10
514.08	46457.29
514.25	47152.43
514.43	47105.62
514.60	47370.10
514.77	47576.07
514.95	47840.55
515.12	47447.34
515.29	47971.62
515.47	47812.46
515.64	47746.93
515.81	47620.54
515.99	47990.34
516.16	48449.09
516.33	48633.99
516.51	48631.65
516.68	47976.30
516.85	47988.00
517.03	48603.56
517.20	48636.33
517.37	48568.46
517.54	48519.31
517.72	48498.24
517.89	48577.82
518.06	48947.62
518.24	48577.82
518.41	49378.28
518.58	49008.48
518.75	48947.62
518.93	49467.22
519.10	49415.73
519.27	49830.01
519.45	49408.71
519.62	49911.92
519.79	50312.16
519.96	49808.94
520.14	50227.90
520.31	50075.76
520.48	50232.58
520.65	50124.91
520.83	50426.84
521.00	50948.78
521.17	50515.78
521.34	50562.59
521.52	50461.95
521.69	50616.43
521.86	50967.51
522.03	51260.07
522.20	51082.19
522.38	50852.82
522.55	51384.12
522.72	51175.81
522.89	51152.41
523.07	51672.01
523.24	51267.09
523.41	51414.55
523.58	51285.82
523.75	51529.23
523.92	51737.54
524.10	51866.27
524.27	52062.88
524.44	51910.74
524.61	51955.21
524.78	52016.07
524.96	51978.62
525.13	52058.20
525.30	52154.16
525.47	52168.20
525.64	52353.10
525.81	52575.45
525.98	52376.51
526.16	52093.30
526.33	52493.54
526.50	53134.84
526.67	52650.35
526.84	52959.30
527.01	52797.80
527.18	52842.27
527.36	52917.17
527.53	52942.92
527.70	53331.45
527.87	53214.42
528.04	53137.18
528.21	53113.78
528.38	53209.74
528.55	53296.34
528.72	53324.43
528.89	53195.70
529.07	52935.90
529.24	53455.50
529.41	53478.90
529.58	53605.29
529.75	53492.94
529.92	53834.66
530.09	53844.02
530.26	53785.51
530.43	53715.29
530.60	53806.58
530.77	53975.09
530.94	53834.66
531.11	53872.11
531.28	54068.72
531.46	54019.56
531.63	54087.44
531.80	54115.53
531.97	54059.35
532.14	54375.33
532.31	54237.23
532.48	54450.22
532.65	54588.31
532.82	54499.37
532.99	54604.70
533.16	54548.53
533.33	54700.66
533.50	54625.76
533.67	54946.42
533.84	54520.44
534.01	54518.10
534.18	54983.86
534.35	55339.63
534.52	54892.58
534.69	55047.06
534.86	55138.34
535.03	55044.72
535.20	54894.92
535.37	55372.39
535.54	55253.03
535.71	55154.72
535.88	55098.55
536.05	55295.16
536.22	55339.63
536.38	55447.29
536.55	55491.76
536.72	55463.67
536.89	55412.18
537.06	55634.53
537.23	55657.94
537.40	55608.79
537.57	55751.56
537.74	55660.28
537.91	55955.19
538.08	55833.48
538.25	55592.40
538.42	55814.76
538.59	56104.98
538.75	55634.53
538.92	56025.40
539.09	56390.53
539.26	56032.42
539.43	55941.14
539.60	56097.96
539.77	56119.02
539.94	56250.09
540.11	55910.72
540.28	56315.63
540.44	56528.62
540.61	56427.98
540.78	56264.14
540.95	56411.59
541.12	56214.99
541.29	56250.09
541.46	56423.29
541.62	56622.24
541.79	56715.86
541.96	56175.20
542.13	56418.61
542.30	56619.90
542.47	56589.47
542.63	56650.33
542.80	56898.42
542.97	56956.94
543.14	57308.02
543.31	57134.82
543.48	56992.04
543.64	57530.37
543.81	57214.40
543.98	57408.66
544.15	57242.48
544.32	57162.90
544.48	57570.16
544.65	57406.32
544.82	57291.63
544.99	57153.54
545.16	57347.81
545.32	57289.29
545.49	57705.91
545.66	57745.70
545.83	57586.54
546.00	57729.31
546.16	57565.48
546.33	57506.96
546.50	57020.13
546.67	57513.98
546.83	57240.14
547.00	57638.03
547.17	57626.33
547.34	57436.75
547.50	57715.27
547.67	58038.26
547.84	57839.32
548.00	57890.81
548.17	58197.42
548.34	57925.92
548.51	58143.59
548.67	58108.48
548.84	57977.41
549.01	57865.06
549.18	58059.33
549.34	58085.07
549.51	58199.76
549.68	58408.07
549.84	58340.19
550.01	58255.93
550.18	57986.77
550.34	58223.17
550.51	58309.77
550.68	58424.45
550.84	58071.03
551.01	58489.99
551.18	58363.60
551.34	58298.06
551.51	58525.10
551.68	58457.22
551.84	58335.51
552.01	58410.41
552.18	58625.74
552.34	58384.66
552.51	58646.80
552.68	58525.10
552.84	58546.16
553.01	58883.20
553.18	58728.72
553.34	58749.79
553.51	58632.76
553.67	58656.17
553.84	58925.33
554.01	58831.71
554.17	58740.42
554.34	58815.32
554.51	58951.07
554.67	58880.86
554.84	58941.71
555.00	58906.60
555.17	58995.54
555.33	58906.60
555.50	58803.62
555.67	58948.73
555.83	58827.02
556.00	58958.09
556.16	59440.24
556.33	59201.51
556.50	59093.85
556.66	59402.80
556.83	59009.59
556.99	59166.40
557.16	59311.52
557.32	59206.19
557.49	59414.50
557.65	59292.79
557.82	59332.58
557.98	59550.25
558.15	59400.46
558.32	59681.32
558.48	59306.83
558.65	59414.50
558.81	59344.28
558.98	59465.99
559.14	59552.59
559.31	59505.78
559.47	59702.38
559.64	59517.48
559.80	59676.64
559.97	59758.56
560.13	59550.25
560.30	59751.54
560.46	59498.76
560.63	59845.16
560.79	59566.63
560.96	59807.71
561.12	59653.23
561.29	59674.30
561.45	59847.50
561.61	59824.09
561.78	59599.40
561.94	59854.52
562.11	59695.36
562.27	59753.88
562.44	59742.17
562.60	59800.69
562.77	59920.05
562.93	59700.04
563.10	59978.57
563.26	59737.49
563.42	60072.19
563.59	59863.88
563.75	59814.73
563.92	59898.99
564.08	59681.32
564.24	60083.89
564.41	60088.57
564.57	59976.23
564.74	60104.96
564.90	60065.17
565.07	60060.49
565.23	60027.72
565.39	60062.83
565.56	60023.04
565.72	60025.38
565.88	60121.34
566.05	60072.19
566.21	59948.14
566.38	60128.36
566.54	60207.94
566.70	60051.12
566.87	60229.01
567.03	59891.97
567.19	60264.11
567.36	60236.03
567.52	60280.50
567.68	60413.91
567.85	60257.09
568.01	60472.42
568.17	60214.96
568.34	60383.48
568.50	60243.05
568.66	60107.30
568.83	60348.37
568.99	60259.43
569.15	60315.61
569.32	60210.28
569.48	60111.98
569.64	60577.75
569.81	60226.66
569.97	60296.88
570.13	60360.08
570.30	60411.57
570.46	60264.11
570.62	60360.08
570.78	60310.92
570.95	60500.51
571.11	60575.40
571.27	60243.05
571.43	60371.78
571.60	60537.96
571.76	60608.17
571.92	60502.85
572.09	60666.69
572.25	60509.87
572.41	60406.89
572.57	60472.42
572.74	60654.98
572.90	60563.70
573.06	60678.39
573.22	60514.55
573.38	60339.01
573.55	60481.78
573.71	60821.16
573.87	60486.46
574.03	60395.18
574.20	60650.30
574.36	60542.64
574.52	60617.53
574.68	60872.65
574.84	60706.47
575.01	60846.91
575.17	60566.04
575.33	60657.32
575.49	60505.19
575.65	60846.91
575.82	60757.97
575.98	60783.71
576.14	60767.33
576.30	60692.43
576.46	60800.10
576.62	60715.84
576.79	60795.42
576.95	60678.39
577.11	60629.24
577.27	60814.14
577.43	60676.05
577.59	60605.83
577.75	60750.94
577.92	60706.47
578.08	60774.35
578.24	60713.50
578.40	60835.20
578.56	61034.15
578.72	60708.82
578.88	60837.54
579.04	60945.21
579.21	60982.66
579.37	60872.65
579.53	60867.97
579.69	60669.03
579.85	60779.03
580.01	60697.11
580.17	60795.42
580.33	60713.50
580.49	60865.63
580.65	60643.28
580.82	60757.97
580.98	60865.63
581.14	60659.66
581.30	60970.96
581.46	60809.46
581.62	60797.76
581.78	60650.30
581.94	61048.19
582.10	60788.39
582.26	60643.28
582.42	60774.35
582.58	60856.27
582.74	60657.32
582.90	60615.19
583.06	61001.38
583.22	60725.20
583.38	60839.89
583.54	60797.76
583.70	60755.63
583.86	60954.57
584.02	60856.27
584.18	61092.66
584.34	60973.30
584.50	60879.67
584.66	60755.63
584.82	60760.31
584.98	60914.78
585.14	61006.06
585.30	60802.44
585.46	60985.00
585.62	60757.97
585.78	60860.95
585.94	60678.39
586.10	60743.92
586.26	60877.33
586.42	60931.17
586.58	61162.88
586.74	60992.02
586.90	60853.93
587.06	60959.25
587.22	61144.16
587.38	60825.84
587.54	61137.13
587.70	61027.13
587.86	60985.00
588.02	61066.92
588.18	61076.28
588.34	60867.97
588.49	60994.36
