SpectraSuite Data File
++++++++++++++++++++++++++++++++++++
Date: Fri Oct 25 10:46:56 EDT 2013
User: price-jones
Dark Spectrum Present: No
Reference Spectrum Present: No
Number of Sampled Component Spectra: 1
Spectrometers: USB2+H05261
Integration Time (usec): 100000 (USB2+H05261)
Spectra Averaged: 1 (USB2+H05261)
Boxcar Smoothing: 0 (USB2+H05261)
Correct for Electrical Dark: No (USB2+H05261)
Strobe/Lamp Enabled: No (USB2+H05261)
Correct for Detector Non-linearity: No (USB2+H05261)
Correct for Stray Light: No (USB2+H05261)
Number of Pixels in Processed Spectrum: 2048
>>>>>Begin Processed Spectral Data<<<<<
365.73	124.05
365.92	124.05
366.12	124.05
366.32	39.79
366.52	35.11
366.72	100.64
366.91	0.00
367.11	60.85
367.31	105.32
367.51	58.51
367.70	51.49
367.90	39.79
368.10	7.02
368.30	124.05
368.49	32.77
368.69	42.13
368.89	16.38
369.09	0.00
369.28	39.79
369.48	42.13
369.68	119.37
369.87	126.39
370.07	77.24
370.27	107.66
370.47	208.31
370.66	428.32
370.86	400.23
371.06	521.94
371.25	538.32
371.45	498.53
371.65	421.30
371.84	512.58
372.04	442.36
372.24	454.06
372.44	547.69
372.63	533.64
372.83	559.39
373.03	606.20
373.22	526.62
373.42	566.41
373.62	568.75
373.81	561.73
374.01	601.52
374.21	575.77
374.40	550.03
374.60	533.64
374.79	533.64
374.99	690.46
375.19	589.82
375.38	636.63
375.58	606.20
375.78	674.07
375.97	671.73
376.17	706.84
376.37	645.99
376.56	622.58
376.76	585.13
376.95	660.03
377.15	690.46
377.35	650.67
377.54	631.94
377.74	657.69
377.93	587.47
378.13	697.48
378.33	674.07
378.52	681.10
378.72	638.97
378.91	734.93
379.11	615.56
379.31	678.76
379.50	606.20
379.70	718.54
379.89	711.52
380.09	720.88
380.28	709.18
380.48	634.29
380.68	730.25
380.87	615.56
381.07	678.76
381.26	793.44
381.46	758.33
381.65	774.72
381.85	667.05
382.04	692.80
382.24	760.67
382.43	741.95
382.63	634.29
382.83	681.10
383.02	723.23
383.22	744.29
383.41	798.12
383.61	751.31
383.80	767.70
384.00	751.31
384.19	802.80
384.39	725.57
384.58	826.21
384.78	723.23
384.97	870.68
385.17	851.96
385.36	868.34
385.56	837.91
385.75	898.77
385.95	828.55
386.14	830.89
386.34	887.06
386.53	770.04
386.72	828.55
386.92	849.61
387.11	847.27
387.31	933.87
387.50	844.93
387.70	854.30
387.89	819.19
388.09	882.38
388.28	861.32
388.48	891.74
388.67	926.85
388.86	901.11
389.06	961.96
389.25	1001.75
389.45	959.62
389.64	947.92
389.84	940.90
390.03	997.07
390.22	959.62
390.42	1013.45
390.61	931.53
390.81	1071.97
391.00	1006.43
391.19	1022.81
391.39	1146.86
391.58	1034.52
391.78	1078.99
391.97	1057.92
392.16	1020.47
392.36	1078.99
392.55	1043.88
392.75	983.02
392.94	1071.97
393.13	1034.52
393.33	1022.81
393.52	973.66
393.71	964.30
393.91	1055.58
394.10	1151.54
394.29	1172.61
394.49	1203.04
394.68	1245.16
394.88	1207.72
395.07	1247.51
395.26	1226.44
395.46	1203.04
395.65	1273.25
395.84	1254.53
396.04	1252.19
396.23	1146.86
396.42	1142.18
396.62	1135.16
396.81	1224.10
397.00	1184.31
397.19	1231.12
397.39	1343.47
397.58	1315.38
397.77	1334.11
397.97	1404.32
398.16	1348.15
398.35	1500.28
398.55	1385.60
398.74	1437.09
398.93	1469.86
399.12	1409.00
399.32	1465.18
399.51	1526.03
399.70	1565.82
399.90	1502.62
400.09	1556.46
400.28	1605.61
400.47	1603.27
400.67	1661.78
400.86	1607.95
401.05	1643.06
401.24	1706.25
401.44	1746.04
401.63	1739.02
401.82	1675.82
402.01	1643.06
402.21	1722.63
402.40	1720.29
402.59	1778.81
402.78	1640.72
402.97	1760.08
403.17	1664.12
403.36	1823.28
403.55	1732.00
403.74	1802.21
403.93	1804.55
404.13	1839.66
404.32	1858.39
404.51	1844.34
404.70	1919.24
404.89	1881.79
405.09	1961.37
405.28	1975.41
405.47	1849.02
405.66	1921.58
405.85	2160.31
406.05	1926.26
406.24	1912.22
406.43	1944.99
406.62	1916.90
406.81	2050.31
407.00	1973.07
407.20	1940.30
407.39	2104.14
407.58	2125.21
407.77	2179.04
407.96	2150.95
408.15	2202.44
408.34	2134.57
408.54	2317.13
408.73	2221.17
408.92	2275.00
409.11	2270.32
409.30	2267.98
409.49	2155.63
409.68	2200.10
409.87	2286.70
410.07	2349.90
410.26	2267.98
410.45	2305.43
410.64	2502.03
410.83	2389.69
411.02	2328.83
411.21	2530.12
411.40	2534.80
411.59	2504.37
411.78	2698.64
411.98	2544.16
412.17	2677.57
412.36	2565.23
412.55	2654.17
412.74	2736.09
412.93	2684.59
413.12	2523.10
413.31	2815.66
413.50	2750.13
413.69	2761.83
413.88	2977.16
414.07	2890.56
414.26	2736.09
414.45	2918.65
414.64	2899.92
414.83	2930.35
415.02	3033.33
415.22	2913.97
415.41	3126.96
415.60	3002.91
415.79	3059.08
415.98	3251.00
416.17	3222.92
416.36	3248.66
416.55	3260.37
416.74	3159.72
416.93	3199.51
417.12	3241.64
417.31	3403.14
417.50	3248.66
417.69	3403.14
417.88	3391.44
418.07	3424.20
418.26	3405.48
418.45	3304.84
418.64	3447.61
418.83	3412.50
419.02	3569.32
419.21	3602.08
419.39	3541.23
419.58	3475.70
419.77	3431.23
419.96	3534.21
420.15	3571.66
420.34	3588.04
420.53	3669.96
420.72	3606.77
420.91	3705.07
421.10	3660.60
421.29	3861.88
421.48	3571.66
421.67	3775.28
421.86	3756.56
422.05	3819.75
422.24	3756.56
422.43	3735.50
422.61	3836.14
422.80	3885.29
422.99	3838.48
423.18	3826.78
423.37	3812.73
423.56	3805.71
423.75	3852.52
423.94	3833.80
424.13	3688.68
424.32	3709.75
424.50	3843.16
424.69	3955.51
424.88	4095.94
425.07	3840.82
425.26	3681.66
425.45	3885.29
425.64	3784.65
425.83	3962.53
426.01	3960.19
426.20	3974.23
426.39	3829.12
426.58	3714.43
426.77	3871.25
426.96	3988.27
427.15	3878.27
427.33	4021.04
427.52	4007.00
427.71	4021.04
427.90	4014.02
428.09	4161.47
428.28	4081.89
428.46	3957.85
428.65	4051.47
428.84	4168.49
429.03	4217.65
429.22	4105.30
429.40	4067.85
429.59	4018.70
429.78	3880.61
429.97	3953.16
430.16	4025.72
430.34	4072.53
430.53	4133.39
430.72	4163.81
430.91	4147.43
431.10	4112.32
431.28	4484.47
431.47	4383.82
431.66	4498.51
431.85	4456.38
432.03	4535.96
432.22	4674.05
432.41	4526.60
432.60	4479.79
432.79	4603.83
432.97	4624.90
433.16	4793.42
433.35	4582.77
433.54	4582.77
433.72	4601.49
433.91	4636.60
434.10	4704.48
434.28	4662.35
434.47	4734.90
434.66	4856.61
434.85	4851.93
435.03	4784.06
435.22	4681.07
435.41	5013.43
435.59	4980.66
435.78	4882.36
435.97	4957.25
436.16	4929.17
436.34	5015.77
436.53	5123.43
436.72	5177.26
436.90	5032.15
437.09	5231.10
437.28	4985.34
437.46	5015.77
437.65	5085.98
437.84	5022.79
438.02	5277.91
438.21	5109.39
438.40	5067.26
438.58	5320.04
438.77	5163.22
438.96	5378.55
439.14	5413.66
439.33	5394.93
439.52	5530.69
439.70	5542.39
439.89	5575.16
440.08	5518.98
440.26	5628.99
440.45	5614.95
440.63	5837.30
440.82	5809.21
441.01	5874.74
441.19	5928.58
441.38	5776.44
441.57	6057.31
441.75	5879.43
441.94	6251.57
442.12	6043.26
442.31	6291.36
442.50	6069.01
442.68	6101.78
442.87	6108.80
443.05	6251.57
443.24	6485.62
443.43	6317.11
443.61	6340.51
443.80	6560.52
443.98	6221.14
444.17	5870.06
444.35	6415.41
444.54	6410.73
444.73	6476.26
444.91	6384.98
445.10	6160.29
445.28	6473.92
445.47	6242.21
445.65	6319.45
445.84	6410.73
446.02	6466.90
446.21	6464.56
446.39	6403.71
446.58	6569.88
446.77	6497.33
446.95	6392.00
447.14	6663.51
447.32	6551.16
447.51	6665.85
447.69	6590.95
447.88	6607.33
448.06	6656.48
448.25	6586.27
448.43	6689.25
448.62	6560.52
448.80	6637.76
448.99	6644.78
449.17	6871.81
449.36	6691.59
449.54	6836.70
449.73	7007.56
449.91	6956.07
450.10	6995.86
450.28	7229.91
450.46	7061.40
450.65	7152.68
450.83	6935.01
451.02	7073.10
451.20	7122.25
451.39	7082.46
451.57	7047.35
451.76	7211.19
451.94	7145.66
452.13	7164.38
452.31	7115.23
452.49	7028.63
452.68	7108.21
452.86	7145.66
453.05	7201.83
453.23	7318.86
453.42	7164.38
453.60	7208.85
453.78	7449.93
453.97	7337.58
454.15	7368.01
454.34	7211.19
454.52	7204.17
454.70	7325.88
454.89	7417.16
455.07	7309.49
455.26	7632.49
455.44	7613.76
455.62	7763.56
455.81	7569.29
455.99	7559.93
456.17	7681.64
456.36	7583.34
456.54	7765.90
456.73	7782.28
456.91	8058.46
457.09	8013.99
457.28	8091.23
457.46	8013.99
457.64	7999.95
457.83	7882.92
458.01	7744.83
458.19	8135.70
458.38	7978.89
458.56	8161.45
458.74	8135.70
458.93	8093.57
459.11	8032.72
459.29	8159.11
459.48	8145.06
459.66	8210.60
459.84	8112.30
460.03	8393.16
460.21	8238.69
460.39	8313.58
460.57	8531.25
460.76	8425.93
460.94	8519.55
461.12	8645.94
461.31	8444.65
461.49	8706.79
461.67	8435.29
461.85	8627.21
462.04	8629.56
462.22	9195.96
462.40	8952.55
462.59	8807.44
462.77	8571.04
462.95	8905.74
463.13	8751.26
463.32	8809.78
463.50	8788.71
463.68	8802.75
463.86	8940.85
464.05	8835.52
464.23	8912.76
464.41	8847.22
464.59	8683.39
464.78	8954.89
464.96	8863.61
465.14	8933.82
465.32	8975.95
465.50	9193.62
465.69	9341.08
465.87	9020.42
466.05	8894.04
466.23	8945.53
466.41	9207.67
466.60	9437.04
466.78	9006.38
466.96	9184.26
467.14	9268.52
467.32	9432.36
467.51	9320.01
467.69	8898.72
467.87	9284.91
468.05	9432.36
468.23	9336.40
468.41	9116.39
468.60	9160.86
468.78	9631.30
468.96	9432.36
469.14	9420.66
469.32	9755.35
469.50	9320.01
469.69	9614.92
469.87	9511.94
470.05	9724.93
470.23	9504.92
470.41	9432.36
470.59	9858.34
470.77	9776.42
470.95	9942.60
471.14	9994.09
471.32	9720.24
471.50	9958.98
471.68	10111.11
471.86	10181.33
472.04	10216.44
472.22	10399.00
472.40	10033.88
472.58	10204.74
472.77	10197.71
472.95	10394.32
473.13	10881.15
473.31	10480.92
473.49	10286.65
473.67	10567.52
473.85	10562.84
474.03	10820.30
474.21	10703.27
474.39	10780.51
474.57	10939.66
474.75	10904.56
474.93	10998.18
475.12	11063.71
475.30	10881.15
475.48	11351.60
475.66	11089.46
475.84	11089.46
476.02	11206.48
476.20	11222.87
476.38	11304.79
476.56	11672.25
476.74	11370.32
476.92	11721.40
477.10	11618.42
477.28	11875.88
477.46	11840.77
477.64	12107.59
477.82	12032.69
478.00	12308.88
478.18	12257.39
478.36	12325.26
478.54	12180.15
478.72	12512.50
478.90	12746.56
479.08	12809.75
479.26	12823.80
479.44	12999.34
479.62	13029.76
479.80	13135.09
479.98	13249.77
480.16	13486.17
480.34	13104.66
480.52	13549.36
480.70	13617.24
480.88	13528.30
481.06	13603.19
481.24	13715.54
481.41	13921.51
481.59	14195.35
481.77	14075.98
481.95	14232.80
482.13	14083.00
482.31	14389.61
482.49	14455.15
482.67	14649.41
482.85	14869.42
483.03	14916.23
483.21	15152.63
483.39	15330.51
483.57	15190.08
483.74	15059.01
483.92	15590.31
484.10	15075.39
484.28	15800.96
484.46	15927.35
484.64	16257.36
484.82	15873.51
485.00	16032.67
485.18	16442.26
485.35	16311.19
485.53	16327.58
485.71	16056.08
485.89	16411.84
486.07	16468.01
486.25	16369.71
486.43	16706.74
486.61	16926.75
486.78	16783.98
486.96	17238.05
487.14	17455.72
487.32	17493.16
487.50	17654.66
487.68	17661.68
487.85	18281.92
488.03	18090.00
488.21	18204.69
488.39	18185.96
488.57	18698.54
488.75	18389.59
488.92	19058.98
489.10	19264.95
489.28	19082.39
489.46	19274.31
489.64	19417.08
489.81	19964.77
489.99	19850.08
490.17	19899.23
490.35	20297.13
490.53	19992.86
490.70	20264.36
490.88	20273.72
491.06	20547.56
491.24	20418.83
491.41	20418.83
491.59	20627.14
491.77	20678.63
491.95	20793.32
492.13	20940.77
492.30	21448.67
492.48	21546.97
492.66	21884.01
492.84	21586.76
493.01	21912.10
493.19	21441.65
493.37	22408.29
493.54	22059.55
493.72	22281.90
493.90	22410.63
494.08	22672.77
494.25	23094.07
494.43	22979.38
494.61	23211.09
494.79	23171.30
494.96	22820.22
495.14	23065.98
495.32	23417.06
495.49	23433.44
495.67	23665.16
495.85	23831.33
496.02	23854.74
496.20	24077.09
496.38	24224.54
496.55	24226.89
496.73	24329.87
496.91	24781.59
497.09	24601.37
497.26	25142.03
497.44	24596.69
497.62	25022.67
497.79	25132.67
497.97	24589.67
498.14	25322.26
498.32	25415.88
498.50	25378.43
498.67	25778.66
498.85	26118.04
499.03	25979.95
499.20	26078.25
499.38	26029.10
499.56	26277.19
499.73	26375.50
499.91	26120.38
500.08	26206.98
500.26	26286.56
500.44	26298.26
500.61	26237.41
500.79	26366.13
500.97	26813.18
501.14	26874.03
501.32	26583.80
501.49	27304.69
501.67	27044.89
501.84	27267.24
502.02	27098.72
502.20	27377.25
502.37	27433.42
502.55	27583.21
502.72	27578.53
502.90	28156.64
503.07	27800.88
503.25	27962.38
503.43	27861.74
503.60	27559.81
503.78	28149.62
503.95	27625.34
504.13	28112.17
504.30	28421.13
504.48	28346.23
504.65	28453.89
504.83	28854.12
505.01	28851.78
505.18	28896.25
505.36	29106.90
505.53	29296.49
505.71	29427.56
505.88	29530.54
506.06	29064.77
506.23	29310.53
506.41	29497.77
506.58	29305.85
506.76	29277.76
506.93	30059.50
507.11	30202.27
507.28	29788.00
507.46	29661.61
507.63	29490.75
507.81	30038.44
507.98	30047.80
508.16	30368.45
508.33	30206.95
508.50	30199.93
508.68	30417.60
508.85	30752.30
509.03	30801.45
509.20	30726.55
509.38	31208.70
509.55	30792.09
509.73	31140.83
509.90	31145.51
510.08	31096.36
510.25	30969.97
510.42	31321.05
510.60	31690.85
510.77	31784.48
510.95	31665.11
511.12	31475.52
511.30	31538.72
511.47	31770.43
511.64	32032.57
511.82	32151.94
511.99	31995.12
512.17	32098.11
512.34	32189.39
512.51	32526.42
512.69	32477.27
512.86	32676.22
513.04	32727.71
513.21	32437.48
513.38	32669.20
513.56	32460.89
513.73	32039.59
513.90	32514.72
514.08	32655.15
514.25	32732.39
514.43	33160.71
514.60	33001.55
514.77	33069.43
514.95	33827.76
515.12	33170.07
515.29	33397.10
515.47	33724.78
515.64	33773.93
515.81	33689.67
515.99	33614.77
516.16	33324.55
516.33	33530.51
516.51	33284.76
516.68	33010.92
516.85	33207.52
517.03	33085.81
517.20	33553.92
517.37	33970.54
517.54	33813.72
517.72	33970.54
517.89	33848.83
518.06	33394.76
518.24	33881.60
518.41	33839.47
518.58	34300.55
518.75	34710.14
518.93	34515.88
519.10	34462.05
519.27	34873.98
519.45	34771.00
519.62	35208.68
519.79	35000.37
519.96	35208.68
520.14	35379.54
520.31	35339.75
520.48	35592.53
520.65	35243.79
520.83	35721.26
521.00	35505.93
521.17	35857.01
521.34	35555.08
521.52	35793.81
521.69	35707.21
521.86	36240.86
522.03	35892.12
522.20	36142.55
522.38	35915.52
522.55	36194.04
522.72	36067.66
522.89	36158.94
523.07	36205.75
523.24	36266.60
523.41	36615.34
523.58	36547.47
523.75	37357.29
523.92	36921.95
524.10	37165.37
524.27	37177.07
524.44	37165.37
524.61	37347.93
524.78	37521.13
524.96	37144.30
525.13	37256.65
525.30	37504.74
525.47	37408.78
525.64	37563.26
525.81	37268.35
525.98	37102.17
526.16	37170.05
526.33	36952.38
526.50	37448.57
526.67	36968.76
526.84	37146.64
527.01	37048.34
527.18	37757.52
527.36	38146.05
527.53	38146.05
527.70	38281.80
527.87	38038.39
528.04	38249.03
528.21	38359.04
528.38	38260.74
528.55	38679.69
528.72	38483.09
528.89	38637.56
529.07	39124.40
529.24	38274.78
529.41	38738.21
529.58	38216.27
529.75	38169.46
529.92	38878.64
530.09	39089.29
530.26	39061.20
530.43	38983.96
530.60	39171.21
530.77	38913.75
530.94	39194.61
531.11	39473.13
531.28	38918.43
531.46	39475.48
531.63	39276.53
531.80	39196.95
531.97	39559.73
532.14	39449.73
532.31	39063.54
532.48	39026.09
532.65	39531.65
532.82	39117.37
532.99	39770.38
533.16	39335.04
533.33	39976.35
533.50	40079.33
533.67	40004.44
533.84	40076.99
534.01	39938.90
534.18	39564.42
534.35	39896.77
534.52	39716.55
534.69	40430.41
534.86	40020.82
535.03	40172.96
535.20	40535.74
535.37	40769.79
535.54	40624.68
535.71	40392.97
535.88	40367.22
536.05	40404.67
536.22	40648.08
536.38	40790.86
536.55	40760.43
536.72	40392.97
536.89	40563.82
537.06	40842.35
537.23	41118.53
537.40	40390.62
537.57	40570.85
537.74	40765.11
537.91	41254.28
538.08	41092.79
538.25	41036.61
538.42	40849.37
538.59	40872.78
538.75	40690.21
538.92	41551.53
539.09	40978.10
539.26	41200.45
539.43	41581.96
539.60	40851.71
539.77	41343.22
539.94	41603.02
540.11	41111.51
540.28	41256.62
540.44	41226.20
540.61	41184.07
540.78	41514.08
540.95	41383.01
541.12	41137.26
541.29	41443.87
541.46	41347.90
541.62	41989.21
541.79	41977.51
541.96	41801.97
542.13	41546.85
542.30	41745.80
542.47	41668.56
542.63	41682.60
542.80	42143.69
542.97	42616.47
543.14	42813.08
543.31	42410.51
543.48	42387.10
543.64	43058.84
543.81	42946.49
543.98	42478.38
544.15	42335.61
544.32	42665.63
544.48	43239.06
544.65	42766.27
544.82	42616.47
544.99	42803.72
545.16	43051.81
545.32	42909.04
545.49	43030.75
545.66	42735.84
545.83	42885.64
546.00	43159.48
546.16	43040.11
546.33	42939.47
546.50	42593.07
546.67	43009.68
546.83	42052.41
547.00	43026.07
547.17	43515.24
547.34	42754.57
547.50	43426.30
547.67	43412.26
547.84	43196.93
548.00	43805.47
548.17	43784.40
548.34	44018.46
548.51	43573.75
548.67	43826.53
548.84	43793.76
549.01	43365.45
549.18	43494.18
549.34	43597.16
549.51	44189.31
549.68	43863.98
549.84	43803.13
550.01	43667.37
550.18	43969.30
550.34	44060.58
550.51	43512.90
550.68	44039.52
550.84	43847.60
551.01	44076.97
551.18	43913.13
551.34	43646.31
551.51	44186.97
551.68	44095.69
551.84	44112.08
552.01	44048.88
552.18	43903.77
552.34	43992.71
552.51	44315.70
552.68	43856.96
552.84	44259.53
553.01	44837.64
553.18	44624.65
553.34	44432.73
553.51	44105.06
553.67	44474.86
553.84	44456.14
554.01	44392.94
554.17	44664.44
554.34	44388.26
554.51	44704.23
554.67	44739.34
554.84	44931.26
555.00	44498.26
555.17	44577.84
555.33	44868.07
555.50	44584.86
555.67	44570.82
555.83	44821.26
556.00	45052.97
556.16	45315.11
556.33	45272.98
556.50	44781.47
556.66	45200.43
556.83	44479.54
556.99	44924.24
557.16	45170.00
557.32	44793.17
557.49	45104.46
557.65	44774.45
557.82	45083.40
557.98	44788.49
558.15	44996.80
558.32	44966.37
558.48	45205.11
558.65	44692.53
558.81	45256.60
558.98	44879.77
559.14	44751.04
559.31	45090.42
559.47	45207.45
559.64	45450.86
559.80	45558.53
559.97	45186.38
560.13	45301.07
560.30	44821.26
560.46	45443.84
560.63	45429.80
560.79	45312.77
560.96	45556.19
561.12	45694.28
561.29	45591.30
561.45	45581.93
561.61	44889.13
561.78	45380.65
561.94	45434.48
562.11	45212.13
562.27	45663.85
562.44	45776.20
562.60	45579.59
562.77	45345.54
562.93	45567.89
563.10	45361.92
563.26	45240.21
563.42	46024.29
563.59	45261.28
563.75	45577.25
563.92	45799.60
564.08	45584.27
564.24	45603.00
564.41	45614.70
564.57	45729.39
564.74	45645.13
564.90	45888.54
565.07	45703.64
565.23	45790.24
565.39	45209.79
565.56	46288.77
565.72	45038.93
565.88	45607.68
566.05	45780.88
566.21	46178.77
566.38	45654.49
566.54	45813.65
566.70	45823.01
566.87	45865.14
567.03	46227.92
567.19	46410.48
567.36	45645.13
567.52	45811.31
567.68	46150.68
567.85	45757.47
568.01	46071.10
568.17	45874.50
568.34	46223.24
568.50	46120.26
568.66	46012.59
568.83	46171.75
568.99	45790.24
569.15	45675.55
569.32	45453.20
569.48	45722.37
569.64	45680.24
569.81	45876.84
569.97	46059.40
570.13	45736.41
570.30	45958.76
570.46	45851.09
570.62	45455.54
570.78	45846.41
570.95	45701.30
571.11	46387.08
571.27	45588.95
571.43	46059.40
571.60	45832.37
571.76	45972.80
571.92	45904.93
572.09	46059.40
572.25	46061.74
572.41	46036.00
572.57	45928.33
572.74	46258.35
572.90	45986.85
573.06	45890.88
573.22	45830.03
573.38	46157.70
573.55	45729.39
573.71	46040.68
573.87	46178.77
574.03	46110.89
574.20	46036.00
574.36	45757.47
574.52	46045.36
574.68	45944.72
574.84	46405.80
575.01	45986.85
575.17	45844.07
575.33	46253.67
575.49	46094.51
575.65	46366.01
575.82	46195.15
575.98	46085.15
576.14	46412.82
576.30	46277.07
576.46	46326.22
576.62	45933.01
576.79	45984.51
576.95	45848.75
577.11	46445.59
577.27	46202.18
577.43	46176.43
577.59	46068.76
577.75	46581.34
577.92	45839.39
578.08	45698.96
578.24	46040.68
578.40	46068.76
578.56	46110.89
578.72	45734.07
578.88	46742.84
579.04	46286.43
579.21	45771.52
579.37	45979.82
579.53	45947.06
579.69	45668.53
579.85	46157.70
580.01	46344.95
580.17	46284.09
580.33	46391.76
580.49	46621.13
580.65	46356.65
580.82	46438.57
580.98	46419.84
581.14	46036.00
581.30	46080.47
581.46	46642.20
581.62	46450.27
581.78	45881.52
581.94	46665.60
582.10	46403.46
582.26	46288.77
582.42	46227.92
582.58	46483.04
582.74	46394.10
582.90	46178.77
583.06	46382.40
583.22	46864.55
583.38	46644.54
583.54	46499.42
583.70	46703.05
583.86	46408.14
584.02	46164.73
584.18	46251.33
584.34	46248.99
584.50	46192.81
584.66	46185.79
584.82	45853.44
584.98	46440.91
585.14	46167.07
585.30	46110.89
585.46	46890.29
585.62	46375.37
585.78	46120.26
585.94	46415.16
586.10	46298.14
586.26	46480.70
586.42	46691.35
586.58	46440.91
586.74	46550.91
586.90	46438.57
587.06	46450.27
587.22	46134.30
587.38	46270.05
587.54	46403.46
587.70	46532.19
587.86	46574.32
588.02	46085.15
588.18	46487.72
588.34	46131.96
588.49	46155.36
588.65	45874.50
588.81	45823.01
588.97	46099.19
589.13	46349.63
589.29	45930.67
589.45	46277.07
589.61	46146.00
589.77	46586.02
589.93	46539.21
