SpectraSuite Data File
++++++++++++++++++++++++++++++++++++
Date: Fri Oct 25 11:25:45 EDT 2013
User: price-jones
Dark Spectrum Present: No
Reference Spectrum Present: No
Number of Sampled Component Spectra: 1
Spectrometers: USB2+H05261
Integration Time (usec): 100000 (USB2+H05261)
Spectra Averaged: 1 (USB2+H05261)
Boxcar Smoothing: 0 (USB2+H05261)
Correct for Electrical Dark: No (USB2+H05261)
Strobe/Lamp Enabled: No (USB2+H05261)
Correct for Detector Non-linearity: No (USB2+H05261)
Correct for Stray Light: No (USB2+H05261)
Number of Pixels in Processed Spectrum: 2048
>>>>>Begin Processed Spectral Data<<<<<
365.73	255.12
365.92	255.12
366.12	255.12
366.32	126.39
366.52	189.58
366.72	98.30
366.91	131.07
367.11	81.92
367.31	124.05
367.51	135.75
367.70	140.43
367.90	145.11
368.10	133.41
368.30	124.05
368.49	138.09
368.69	142.77
368.89	95.96
369.09	166.18
369.28	124.05
369.48	201.29
369.68	173.20
369.87	154.48
370.07	278.52
370.27	227.03
370.47	294.91
370.66	606.20
370.86	674.07
371.06	671.73
371.25	709.18
371.45	627.26
371.65	667.05
371.84	699.82
372.04	603.86
372.24	763.01
372.44	643.65
372.63	725.57
372.83	781.74
373.03	795.78
373.22	723.23
373.42	807.48
373.62	835.57
373.81	746.63
374.01	767.70
374.21	844.93
374.40	847.27
374.60	901.11
374.79	805.14
374.99	866.00
375.19	755.99
375.38	847.27
375.58	971.32
375.78	840.25
375.97	889.40
376.17	922.17
376.37	882.38
376.56	870.68
376.76	854.30
376.95	936.21
377.15	854.30
377.35	929.19
377.54	976.00
377.74	931.53
377.93	830.89
378.13	889.40
378.33	1069.62
378.52	910.47
378.72	966.64
378.91	987.71
379.11	926.85
379.31	940.90
379.50	959.62
379.70	994.73
379.89	1006.43
380.09	926.85
380.28	1043.88
380.48	1034.52
380.68	950.26
380.87	1043.88
381.07	908.13
381.26	1095.37
381.46	1020.47
381.65	1018.13
381.85	1088.35
382.04	1018.13
382.24	1062.60
382.43	1076.65
382.63	1125.80
382.83	1083.67
383.02	1172.61
383.22	1174.95
383.41	1081.33
383.61	1081.33
383.80	1078.99
384.00	1111.75
384.19	1153.88
384.39	1076.65
384.58	1095.37
384.78	1125.80
384.97	1095.37
385.17	1104.73
385.36	1214.74
385.56	1163.25
385.75	1210.06
385.95	1289.64
386.14	1186.65
386.34	1121.12
386.53	1256.87
386.72	1214.74
386.92	1268.57
387.11	1245.16
387.31	1249.85
387.50	1231.12
387.70	1289.64
387.89	1322.40
388.09	1310.70
388.28	1315.38
388.48	1294.32
388.67	1240.48
388.86	1313.04
389.06	1345.81
389.25	1291.98
389.45	1376.24
389.64	1343.47
389.84	1341.13
390.03	1507.30
390.22	1390.28
390.42	1430.07
390.61	1418.36
390.81	1462.83
391.00	1409.00
391.19	1380.92
391.39	1472.20
391.58	1486.24
391.78	1516.67
391.97	1479.22
392.16	1490.92
392.36	1507.30
392.55	1441.77
392.75	1556.46
392.94	1556.46
393.13	1516.67
393.33	1563.48
393.52	1530.71
393.71	1596.25
393.91	1631.35
394.10	1533.05
394.29	1645.40
394.49	1530.71
394.68	1584.54
394.88	1645.40
395.07	1621.99
395.26	1675.82
395.46	1701.57
395.65	1575.18
395.84	1715.61
396.04	1823.28
396.23	1783.49
396.42	1724.97
396.62	1696.89
396.81	1706.25
397.00	1732.00
397.19	1837.32
397.39	1783.49
397.58	1825.62
397.77	1820.94
397.97	1797.53
398.16	1816.26
398.35	1872.43
398.55	1856.04
398.74	1839.66
398.93	1954.35
399.12	1844.34
399.32	1914.56
399.51	1977.75
399.70	1944.99
399.90	1933.28
400.09	1926.26
400.28	2024.56
400.47	2008.18
400.67	2099.46
400.86	2036.27
401.05	2097.12
401.24	2094.78
401.44	2078.40
401.63	2122.87
401.82	2010.52
402.01	2118.18
402.21	2193.08
402.40	2305.43
402.59	2071.37
402.78	2211.81
402.97	2207.13
403.17	2342.88
403.36	2356.92
403.55	2340.54
403.74	2347.56
403.93	2443.52
404.13	2331.17
404.32	2307.77
404.51	2333.51
404.70	2504.37
404.89	2284.36
405.09	2462.24
405.28	2438.84
405.47	2415.43
405.66	2443.52
405.85	2509.05
406.05	2583.95
406.24	2572.25
406.43	2523.10
406.62	2593.31
406.81	2511.39
407.00	2572.25
407.20	2619.06
407.39	2516.08
407.58	2700.98
407.77	2780.56
407.96	2813.32
408.15	2726.72
408.34	2672.89
408.54	2864.82
408.73	2853.11
408.92	2874.18
409.11	2806.30
409.30	2958.44
409.49	2998.23
409.68	2843.75
409.87	2951.42
410.07	2944.39
410.26	2960.78
410.45	2956.10
410.64	3009.93
410.83	3115.25
411.02	3103.55
411.21	3117.59
411.40	3122.27
411.59	3152.70
411.78	3215.90
411.98	3143.34
412.17	3227.60
412.36	3363.35
412.55	3438.25
412.74	3351.65
412.93	3421.86
413.12	3332.92
413.31	3480.38
413.50	3407.82
413.69	3492.08
413.88	3433.57
414.07	3459.31
414.26	3604.42
414.45	3529.53
414.64	3676.98
414.83	3648.90
415.02	3758.90
415.22	3765.92
415.41	3796.35
415.60	3796.35
415.79	3801.03
415.98	4018.70
416.17	3941.46
416.36	3955.51
416.55	3838.48
416.74	4149.77
416.93	4058.49
417.12	4023.38
417.31	4035.08
417.50	4196.58
417.69	4290.20
417.88	4355.74
418.07	4161.47
418.26	4376.80
418.45	4329.99
418.64	4346.37
418.83	4423.61
419.02	4283.18
419.21	4533.62
419.39	4533.62
419.58	4521.92
419.77	4313.61
419.96	4671.71
420.15	4610.86
420.34	4692.77
420.53	4526.60
420.72	4690.43
420.91	4692.77
421.10	4667.03
421.29	4704.48
421.48	4734.90
421.67	4662.35
421.86	4786.40
422.05	4936.19
422.24	4753.63
422.43	4957.25
422.61	4833.21
422.80	4861.29
422.99	4865.97
423.18	4898.74
423.37	5078.96
423.56	4959.60
423.75	4922.15
423.94	4837.89
424.13	4638.94
424.32	4823.84
424.50	5008.75
424.69	5095.35
424.88	5064.92
425.07	4957.25
425.26	4990.02
425.45	4903.42
425.64	4926.83
425.83	5041.51
426.01	5191.31
426.20	4985.34
426.39	5060.24
426.58	4858.95
426.77	5013.43
426.96	5329.40
427.15	5181.95
427.33	5217.05
427.52	5184.29
427.71	5284.93
427.90	5181.95
428.09	5247.48
428.28	5380.89
428.46	5336.42
428.65	5348.12
428.84	5408.98
429.03	5472.17
429.22	5308.34
429.40	5451.11
429.59	5465.15
429.78	5401.96
429.97	5195.99
430.16	5399.62
430.34	5736.65
430.53	5748.36
430.72	5715.59
430.91	5856.02
431.10	5603.24
431.28	5795.17
431.47	5851.34
431.66	5769.42
431.85	5563.45
432.03	5853.68
432.22	6008.16
432.41	5933.26
432.60	5902.83
432.79	5973.05
432.97	5916.87
433.16	5982.41
433.35	6003.47
433.54	6019.86
433.72	6054.97
433.91	6129.86
434.10	6073.69
434.28	5998.79
434.47	6101.78
434.66	6148.59
434.85	6270.30
435.03	6415.41
435.22	6415.41
435.41	6417.75
435.59	6314.77
435.78	6513.71
435.97	6296.04
436.16	6459.88
436.34	6396.68
436.53	6473.92
436.72	6548.82
436.90	6530.09
437.09	6642.44
437.28	6469.24
437.46	6595.63
437.65	6569.88
437.84	6665.85
438.02	6750.10
438.21	6729.04
438.40	6703.29
438.58	7129.27
438.77	7124.59
438.96	7119.91
439.14	7030.97
439.33	7007.56
439.52	7171.40
439.70	7318.86
439.89	7426.52
440.08	7267.36
440.26	7398.43
440.45	7555.25
440.63	7475.67
440.82	7819.73
441.01	7566.95
441.19	7489.71
441.38	7569.29
441.57	7576.31
441.75	7826.75
441.94	7768.24
442.12	7955.48
442.31	8018.68
442.50	8006.97
442.68	7929.74
442.87	7929.74
443.05	8142.72
443.24	8177.83
443.43	8149.75
443.61	8234.00
443.80	8278.47
443.98	7953.14
444.17	7805.69
444.35	8028.04
444.54	8327.63
444.73	8297.20
444.91	8278.47
445.10	8400.18
445.28	8294.86
445.47	8297.20
445.65	8189.53
445.84	8442.31
446.02	8564.02
446.21	8365.07
446.39	8449.33
446.58	8526.57
446.77	8482.10
446.95	8259.75
447.14	8372.10
447.32	8416.57
447.51	8381.46
447.69	8538.27
447.88	8393.16
448.06	8435.29
448.25	8397.84
448.43	8561.68
448.62	8596.79
448.80	8470.40
448.99	8332.31
449.17	8655.30
449.36	8599.13
449.54	8809.78
449.73	8819.14
449.91	8966.59
450.10	8865.95
450.28	9149.15
450.46	9095.32
450.65	8999.36
450.83	9092.98
451.02	9076.60
451.20	9181.92
451.39	9071.92
451.57	8971.27
451.76	8950.21
451.94	9210.01
452.13	9303.63
452.31	9301.29
452.49	9202.99
452.68	9373.85
452.86	9462.79
453.05	9373.85
453.23	9376.19
453.42	9308.31
453.60	9488.53
453.78	9537.68
453.97	9418.32
454.15	9586.83
454.34	9359.80
454.52	9619.60
454.70	9544.70
454.89	9603.22
455.07	9774.08
455.26	9841.95
455.44	9863.02
455.62	9994.09
455.81	9764.72
455.99	9909.83
456.17	9928.55
456.36	10068.98
456.54	10171.97
456.73	10221.12
456.91	10244.52
457.09	10331.12
457.28	10417.72
457.46	10169.63
457.64	10354.53
457.83	10619.01
458.01	10314.74
458.19	10810.93
458.38	10452.83
458.56	10656.46
458.74	10668.16
458.93	10670.50
459.11	10604.97
459.29	10672.84
459.48	10707.95
459.66	10647.10
459.84	10946.69
460.03	11016.90
460.21	11103.50
460.39	11012.22
460.57	10977.11
460.76	11035.63
460.94	11063.71
461.12	10967.75
461.31	11169.04
461.49	11028.60
461.67	11164.36
461.85	11548.20
462.04	11515.44
462.22	11889.92
462.40	11623.10
462.59	11389.05
462.77	11405.43
462.95	11438.20
463.13	11658.21
463.32	11407.77
463.50	11705.02
463.68	11634.80
463.86	11765.87
464.05	11515.44
464.23	11974.18
464.41	11929.71
464.59	11627.78
464.78	11939.07
464.96	12189.51
465.14	11868.86
465.32	12102.91
465.50	11974.18
465.69	12301.86
465.87	12250.36
466.05	12112.27
466.23	12098.23
466.41	12105.25
466.60	12322.92
466.78	12070.14
466.96	12173.13
467.14	12414.20
467.32	12184.83
467.51	12416.54
467.69	12006.95
467.87	12425.90
468.05	12496.12
468.23	12285.47
468.41	12147.38
468.60	12524.21
468.78	12704.43
468.96	12472.71
469.14	12650.60
469.32	13151.47
469.50	12671.66
469.69	12912.74
469.87	12954.87
470.05	13085.94
470.23	13193.60
470.41	13212.32
470.59	13226.37
470.77	13245.09
470.95	13343.39
471.14	13294.24
471.32	13287.22
471.50	13568.09
471.68	13385.52
471.86	13589.15
472.04	13612.56
472.22	13881.72
472.40	13558.72
472.58	13598.51
472.77	14040.87
472.95	14120.45
473.13	14389.61
473.31	14139.18
473.49	14155.56
473.67	14113.43
473.85	14202.37
474.03	14361.53
474.21	14387.27
474.39	14679.84
474.57	14427.06
474.75	14810.91
474.93	14960.70
475.12	14925.60
475.30	15030.92
475.48	14946.66
475.66	15112.84
475.84	15124.54
476.02	15227.53
476.20	15218.16
476.38	15660.52
476.56	15819.68
476.74	15880.53
476.92	16013.95
477.10	15761.17
477.28	15798.62
477.46	16056.08
477.64	16194.17
477.82	16472.69
478.00	17078.89
478.18	16650.57
478.36	16875.26
478.54	16950.16
478.72	17034.42
478.90	17336.35
479.08	17507.21
479.26	17586.79
479.44	17664.02
479.62	17841.90
479.80	17916.80
479.98	18157.88
480.16	18288.95
480.34	18113.41
480.52	18633.00
480.70	18740.67
480.88	18384.91
481.06	18984.09
481.24	18951.32
481.41	19115.16
481.59	19066.00
481.77	19367.93
481.95	19625.39
482.13	19630.07
482.31	19433.47
482.49	19878.17
482.67	20098.18
482.85	20332.23
483.03	20608.42
483.21	20547.56
483.39	20819.07
483.57	20699.70
483.74	21111.63
483.92	21282.49
484.10	21165.46
484.28	21422.92
484.46	21930.82
484.64	22228.07
484.82	22054.87
485.00	22541.70
485.18	22094.66
485.35	23058.96
485.53	22764.05
485.71	22955.97
485.89	23370.25
486.07	23227.48
486.25	22845.97
486.43	23735.37
486.61	23843.04
486.78	24041.98
486.96	24308.80
487.14	24381.36
487.32	24271.36
487.50	24797.98
487.68	24891.60
487.85	25200.55
488.03	25235.66
488.21	25769.30
488.39	25565.67
488.57	26155.49
488.75	25680.36
488.92	26314.64
489.10	26768.71
489.28	26635.30
489.46	27012.12
489.64	26665.72
489.81	27253.20
489.99	28009.19
490.17	27257.88
490.35	28453.89
490.53	27840.67
490.70	27946.00
490.88	27983.44
491.06	28758.16
491.24	28552.20
491.41	28929.02
491.59	29310.53
491.77	29282.44
491.95	29322.23
492.13	29804.38
492.30	30015.03
492.48	30181.21
492.66	30000.99
492.84	30436.33
493.01	31026.14
493.19	30122.69
493.37	31309.35
493.54	31168.91
493.72	31447.44
493.90	31152.53
494.08	31747.03
494.25	32044.27
494.43	32077.04
494.61	32098.11
494.79	32594.30
494.96	32863.46
495.14	32519.40
495.32	32781.54
495.49	33303.48
495.67	32765.16
495.85	33242.63
496.02	33813.72
496.20	33851.17
496.38	33780.95
496.55	33942.45
496.73	34824.83
496.91	34656.31
497.09	34792.06
497.26	34579.07
497.44	35077.61
497.62	34855.26
497.79	35772.75
497.97	35295.28
498.14	35875.73
498.32	36306.39
498.50	36175.32
498.67	36477.25
498.85	36505.34
499.03	36353.20
499.20	36334.48
499.38	36453.84
499.56	37170.05
499.73	36926.63
499.91	37235.58
500.08	37577.30
500.26	37532.83
500.44	37668.58
500.61	37663.90
500.79	37467.30
500.97	37727.10
501.14	38206.90
501.32	38412.87
501.49	38466.70
501.67	38543.94
501.84	39133.76
502.02	38906.73
502.20	38857.57
502.37	39192.27
502.55	39175.89
502.72	39440.37
502.90	39278.87
503.07	39452.07
503.25	39721.23
503.43	39302.28
503.60	40076.99
503.78	39964.65
503.95	39957.63
504.13	40175.30
504.30	40580.21
504.48	40238.49
504.65	40561.48
504.83	40868.09
505.01	41158.32
505.18	41088.10
505.36	41378.33
505.53	41106.83
505.71	41563.23
505.88	41558.55
506.06	41432.16
506.23	41830.05
506.41	41797.29
506.58	42043.04
506.76	42136.66
506.93	41984.53
507.11	42321.57
507.28	42377.74
507.46	42749.88
507.63	42607.11
507.81	42937.13
507.98	42274.76
508.16	42965.21
508.33	43344.38
508.50	43028.41
508.68	43344.38
508.85	43847.60
509.03	43442.68
509.20	43964.62
509.38	43927.17
509.55	43924.83
509.73	44444.43
509.90	44385.92
510.08	44598.91
510.25	44306.34
510.42	44170.59
510.60	45406.39
510.77	45148.93
510.95	45368.94
511.12	44821.26
511.30	44818.92
511.47	45083.40
511.64	45408.73
511.82	45710.66
511.99	45392.35
512.17	45958.76
512.34	45874.50
512.51	45869.82
512.69	46293.46
512.86	46335.59
513.04	46066.42
513.21	46550.91
513.38	46955.83
513.56	46962.85
513.73	46473.68
513.90	46745.18
514.08	46560.28
514.25	46997.96
514.43	47194.56
514.60	47210.95
514.77	46983.91
514.95	47318.61
515.12	47484.79
515.29	47533.94
515.47	47856.93
515.64	48184.61
515.81	48147.16
515.99	48107.37
516.16	48645.69
516.33	48425.68
516.51	48109.71
516.68	48161.20
516.85	48193.97
517.03	49001.46
517.20	48542.71
517.37	48470.15
517.54	48554.41
517.72	48289.93
517.89	48973.37
518.06	48900.81
518.24	48783.79
518.41	48884.43
518.58	49301.04
518.75	49336.15
518.93	49518.71
519.10	49165.29
519.27	49549.14
519.45	49640.42
519.62	49467.22
519.79	49659.15
519.96	49673.19
520.14	50033.63
520.31	50321.52
520.48	49750.43
520.65	49865.11
520.83	50485.36
521.00	50258.32
521.17	50185.77
521.34	50686.64
521.52	50646.85
521.69	50527.48
521.86	50920.70
522.03	50841.12
522.20	51051.76
522.38	51456.68
522.55	51419.23
522.72	51147.73
522.89	51283.48
523.07	51716.48
523.24	51428.59
523.41	51861.59
523.58	51339.65
523.75	51512.85
523.92	51601.79
524.10	51707.12
524.27	51632.22
524.44	51772.65
524.61	51934.15
524.78	52079.26
524.96	52191.61
525.13	52093.30
525.30	52156.50
525.47	52222.03
525.64	52069.90
525.81	52463.11
525.98	52697.16
526.16	52442.04
526.33	52498.22
526.50	52980.37
526.67	52566.09
526.84	52865.68
527.01	52858.66
527.18	52732.27
527.36	52898.45
527.53	52608.22
527.70	52942.92
527.87	53319.74
528.04	53226.12
528.21	53022.50
528.38	53207.40
528.55	53684.87
528.72	53361.87
528.89	53502.31
529.07	53488.26
529.24	53057.60
529.41	53488.26
529.58	53448.47
529.75	53492.94
529.92	53712.95
530.09	53469.54
530.26	53773.81
530.43	53867.43
530.60	53598.27
530.77	53642.74
530.94	53694.23
531.11	53542.10
531.28	53956.37
531.46	54244.26
531.63	54150.63
531.80	54124.89
531.97	54164.68
532.14	54377.67
532.31	54532.14
532.48	54581.29
532.65	54447.88
532.82	54185.74
532.99	54735.77
533.16	54253.62
533.33	54742.79
533.50	54522.78
533.67	54660.87
533.84	54492.35
534.01	54787.26
534.18	54787.26
534.35	55124.30
534.52	54948.76
534.69	55164.09
534.86	55154.72
535.03	54827.05
535.20	54953.44
535.37	55311.54
535.54	55351.33
535.71	55121.96
535.88	55386.44
536.05	55473.04
536.22	55594.74
536.38	55398.14
536.55	55344.31
536.72	55508.14
536.89	55367.71
537.06	55330.26
537.23	55536.23
537.40	55363.03
537.57	55547.93
537.74	55650.92
537.91	55707.09
538.08	55969.23
538.25	55620.49
538.42	55831.14
538.59	55812.41
538.75	55484.74
538.92	56144.77
539.09	56109.66
539.26	56210.31
539.43	55980.93
539.60	55987.95
539.77	56074.55
539.94	56088.60
540.11	56039.45
540.28	56189.24
540.44	56247.75
540.61	56205.62
540.78	56320.31
540.95	56430.32
541.12	56498.19
541.29	56369.46
541.46	56432.66
541.62	56591.81
541.79	56676.07
541.96	56135.41
542.13	56577.77
542.30	56683.09
542.47	56781.40
542.63	56692.46
542.80	56713.52
542.97	56973.32
543.14	56860.97
543.31	57134.82
543.48	57141.84
543.64	57312.70
543.81	57291.63
543.98	57333.76
544.15	57270.57
544.32	57474.20
544.48	57392.28
544.65	57413.34
544.82	57361.85
544.99	57165.24
545.16	57364.19
545.32	57214.40
545.49	57584.20
545.66	57822.93
545.83	57244.82
546.00	57638.03
546.16	57528.03
546.33	57216.74
546.50	57263.55
546.67	57792.51
546.83	57469.51
547.00	57612.29
547.17	57542.07
547.34	57602.92
547.50	57855.70
547.67	58066.35
547.84	57881.45
548.00	58045.29
548.17	58148.27
548.34	57865.06
548.51	58223.17
548.67	58190.40
548.84	57991.45
549.01	57970.39
549.18	58150.61
549.34	58131.89
549.51	58120.18
549.68	58197.42
549.84	58260.62
550.01	58391.68
550.18	58171.67
550.34	58372.96
550.51	58497.01
550.68	58223.17
550.84	58136.57
551.01	58162.31
551.18	58541.48
551.34	58379.98
551.51	58585.95
551.68	58508.71
551.84	58468.92
552.01	58464.24
552.18	58401.05
552.34	58241.89
552.51	58702.98
552.68	58412.75
552.84	58539.14
553.01	58810.64
553.18	58796.60
553.34	58934.69
553.51	58504.03
553.67	58922.99
553.84	58796.60
554.01	58976.82
554.17	59011.93
554.34	58939.37
554.51	58986.18
554.67	58979.16
554.84	58876.18
555.00	59040.01
555.17	58787.24
555.33	59065.76
555.50	58953.41
555.67	58955.75
555.83	58787.24
556.00	59049.38
556.16	59056.40
556.33	59241.30
556.50	59388.75
556.66	59199.17
556.83	59058.74
556.99	59112.57
557.16	59456.63
557.32	59419.18
557.49	59576.00
557.65	59370.03
557.82	59250.66
557.98	59178.10
558.15	59608.76
558.32	59407.48
558.48	59285.77
558.65	59199.17
558.81	59379.39
558.98	59437.90
559.14	59365.35
559.31	59587.70
559.47	59409.82
559.64	59463.65
559.80	59683.66
559.97	59709.41
560.13	59435.56
560.30	59456.63
560.46	59707.07
560.63	59767.92
560.79	59770.26
560.96	59814.73
561.12	59838.14
561.29	59669.62
561.45	59714.09
561.61	59601.74
561.78	59646.21
561.94	59770.26
562.11	59625.15
562.27	59594.72
562.44	59697.70
562.60	60020.70
562.77	59948.14
562.93	59894.31
563.10	59877.93
563.26	59547.91
563.42	60044.10
563.59	59849.84
563.75	59945.80
563.92	59990.27
564.08	59849.84
564.24	60107.30
564.41	59952.82
564.57	60004.31
564.74	59728.13
564.90	60067.51
565.07	59920.05
565.23	59948.14
565.39	60076.87
565.56	60140.07
565.72	60060.49
565.88	60032.40
566.05	60072.19
566.21	60104.96
566.38	60116.66
566.54	60245.39
566.70	60430.29
566.87	60271.14
567.03	59950.48
567.19	60331.99
567.36	60203.26
567.52	60095.60
567.68	60306.24
567.85	60271.14
568.01	60308.58
568.17	60182.19
568.34	60411.57
568.50	60362.42
568.66	60280.50
568.83	60287.52
568.99	60292.20
569.15	60360.08
569.32	60184.54
569.48	60151.77
569.64	60465.40
569.81	60280.50
569.97	60229.01
570.13	60444.33
570.30	60327.31
570.46	60294.54
570.62	60594.13
570.78	60474.76
570.95	60296.88
571.11	60470.08
571.27	60353.05
571.43	60498.17
571.60	60413.91
571.76	60336.67
571.92	60374.12
572.09	60486.46
572.25	60320.29
572.41	60317.95
572.57	60437.31
572.74	60729.88
572.90	60446.68
573.06	60360.08
573.22	60446.68
573.38	60638.60
573.55	60610.51
573.71	60795.42
573.87	60643.28
574.03	60395.18
574.20	60643.28
574.36	60376.46
574.52	60638.60
574.68	60795.42
574.84	60825.84
575.01	60498.17
575.17	60654.98
575.33	60416.25
575.49	60491.15
575.65	60706.47
575.82	60722.86
575.98	60605.83
576.14	60851.59
576.30	60896.06
576.46	60727.54
576.62	60582.43
576.79	60748.60
576.95	60619.88
577.11	60776.69
577.27	60643.28
577.43	60622.22
577.59	60547.32
577.75	60662.00
577.92	60537.96
578.08	60449.02
578.24	60849.25
578.40	60865.63
578.56	60727.54
578.72	60640.94
578.88	60898.40
579.04	60863.29
579.21	60807.12
579.37	61193.31
579.53	60893.72
579.69	60666.69
579.85	60736.90
580.01	60605.83
580.17	60697.11
580.33	60669.03
580.49	60839.89
580.65	60818.82
580.82	60823.50
580.98	60636.26
581.14	60743.92
581.30	60830.52
581.46	60748.60
581.62	60949.89
581.78	60762.65
581.94	60886.70
582.10	60851.59
582.26	60839.89
582.42	60694.77
582.58	60952.23
582.74	60931.17
582.90	60858.61
583.06	60896.06
583.22	60736.90
583.38	60884.36
583.54	60821.16
583.70	60959.25
583.86	60783.71
584.02	60652.64
584.18	61059.90
584.34	60910.10
584.50	60790.73
584.66	60725.20
584.82	60800.10
584.98	61080.96
585.14	61036.49
585.30	60985.00
585.46	60891.38
585.62	60814.14
585.78	61069.26
585.94	60762.65
586.10	61076.28
586.26	61052.87
586.42	61020.11
586.58	60961.59
586.74	61095.00
586.90	60743.92
587.06	60790.73
587.22	60825.84
587.38	61001.38
587.54	60985.00
587.70	61172.24
587.86	60704.13
588.02	60954.57
588.18	61043.51
588.34	60912.44
588.49	60816.48
