SpectraSuite Data File
++++++++++++++++++++++++++++++++++++
Date: Fri Oct 25 11:25:23 EDT 2013
User: price-jones
Dark Spectrum Present: No
Reference Spectrum Present: No
Number of Sampled Component Spectra: 1
Spectrometers: USB2+H05261
Integration Time (usec): 100000 (USB2+H05261)
Spectra Averaged: 1 (USB2+H05261)
Boxcar Smoothing: 0 (USB2+H05261)
Correct for Electrical Dark: No (USB2+H05261)
Strobe/Lamp Enabled: No (USB2+H05261)
Correct for Detector Non-linearity: No (USB2+H05261)
Correct for Stray Light: No (USB2+H05261)
Number of Pixels in Processed Spectrum: 2048
>>>>>Begin Processed Spectral Data<<<<<
365.73	227.03
365.92	227.03
366.12	227.03
366.32	159.16
366.52	154.48
366.72	177.88
366.91	182.56
367.11	191.92
367.31	110.01
367.51	154.48
367.70	95.96
367.90	128.73
368.10	128.73
368.30	152.13
368.49	131.07
368.69	140.43
368.89	124.05
369.09	110.01
369.28	154.48
369.48	110.01
369.68	191.92
369.87	180.22
370.07	234.05
370.27	212.99
370.47	344.06
370.66	528.96
370.86	660.03
371.06	688.12
371.25	669.39
371.45	617.90
371.65	648.33
371.84	669.39
372.04	582.79
372.24	690.46
372.44	786.42
372.63	753.65
372.83	692.80
373.03	760.67
373.22	734.93
373.42	826.21
373.62	774.72
373.81	772.38
374.01	795.78
374.21	856.64
374.40	791.10
374.60	844.93
374.79	774.72
374.99	814.51
375.19	777.06
375.38	800.46
375.58	833.23
375.78	814.51
375.97	821.53
376.17	943.24
376.37	851.96
376.56	863.66
376.76	802.80
376.95	770.04
377.15	868.34
377.35	894.08
377.54	929.19
377.74	866.00
377.93	887.06
378.13	903.45
378.33	997.07
378.52	929.19
378.72	990.05
378.91	901.11
379.11	945.58
379.31	952.60
379.50	898.77
379.70	931.53
379.89	1011.11
380.09	933.87
380.28	954.94
380.48	983.02
380.68	992.39
380.87	980.68
381.07	931.53
381.26	1036.86
381.46	1025.15
381.65	1043.88
381.85	1086.01
382.04	1008.77
382.24	1034.52
382.43	1130.48
382.63	1046.22
382.83	1100.05
383.02	1128.14
383.22	1118.78
383.41	1036.86
383.61	1034.52
383.80	1100.05
384.00	1043.88
384.19	1174.95
384.39	1205.38
384.58	1172.61
384.78	1167.93
384.97	1123.46
385.17	1174.95
385.36	1170.27
385.56	1224.10
385.75	1130.48
385.95	1261.55
386.14	1231.12
386.34	1235.80
386.53	1275.59
386.72	1184.31
386.92	1146.86
387.11	1240.48
387.31	1299.00
387.50	1179.63
387.70	1198.35
387.89	1240.48
388.09	1282.61
388.28	1193.67
388.48	1158.57
388.67	1362.19
388.86	1334.11
389.06	1329.42
389.25	1296.66
389.45	1291.98
389.64	1294.32
389.84	1399.64
390.03	1387.94
390.22	1437.09
390.42	1362.19
390.61	1357.51
390.81	1401.98
391.00	1397.30
391.19	1383.26
391.39	1465.18
391.58	1366.87
391.78	1453.47
391.97	1448.79
392.16	1427.73
392.36	1561.14
392.55	1425.39
392.75	1586.88
392.94	1533.05
393.13	1469.86
393.33	1565.82
393.52	1504.96
393.71	1593.90
393.91	1598.59
394.10	1481.56
394.29	1570.50
394.49	1652.42
394.68	1687.53
394.88	1600.93
395.07	1699.23
395.26	1678.16
395.46	1619.65
395.65	1764.76
395.84	1739.02
396.04	1734.34
396.23	1739.02
396.42	1687.53
396.62	1851.36
396.81	1837.32
397.00	1741.36
397.19	1717.95
397.39	1846.68
397.58	1879.45
397.77	1746.04
397.97	1785.83
398.16	1839.66
398.35	1851.36
398.55	1834.98
398.74	1856.04
398.93	1884.13
399.12	1874.77
399.32	1975.41
399.51	2022.22
399.70	1909.88
399.90	1949.67
400.09	2059.67
400.28	2087.76
400.47	2017.54
400.67	1998.82
400.86	2038.61
401.05	2078.40
401.24	2106.48
401.44	2172.02
401.63	2047.97
401.82	2104.14
402.01	2186.06
402.21	2064.35
402.40	2176.70
402.59	2120.53
402.78	2265.64
402.97	2223.51
403.17	2246.91
403.36	2312.45
403.55	2207.13
403.74	2349.90
403.93	2338.20
404.13	2242.23
404.32	2317.13
404.51	2333.51
404.70	2375.64
404.89	2298.41
405.09	2523.10
405.28	2413.09
405.47	2324.15
405.66	2478.63
405.85	2429.48
406.05	2473.95
406.24	2520.76
406.43	2469.27
406.62	2649.49
406.81	2700.98
407.00	2572.25
407.20	2551.18
407.39	2691.62
407.58	2773.53
407.77	2726.72
407.96	2738.43
408.15	2808.64
408.34	2717.36
408.54	2785.24
408.73	2822.69
408.92	2888.22
409.11	2832.05
409.30	2942.05
409.49	2883.54
409.68	2932.69
409.87	2920.99
410.07	2860.13
410.26	2981.84
410.45	2923.33
410.64	3054.40
410.83	3080.14
411.02	3070.78
411.21	3164.40
411.40	3112.91
411.59	3173.77
411.78	3276.75
411.98	3180.79
412.17	3304.84
412.36	3227.60
412.55	3316.54
412.74	3318.88
412.93	3356.33
413.12	3358.67
413.31	3562.30
413.50	3538.89
413.69	3428.88
413.88	3391.44
414.07	3454.63
414.26	3576.34
414.45	3639.53
414.64	3805.71
414.83	3679.32
415.02	3707.41
415.22	3740.18
415.41	3803.37
415.60	3737.84
415.79	3777.62
415.98	3913.38
416.17	3887.63
416.36	3775.28
416.55	4095.94
416.74	4051.47
416.93	4009.34
417.12	4131.05
417.31	4065.51
417.50	4168.49
417.69	4292.54
417.88	4308.93
418.07	4245.73
418.26	4285.52
418.45	4367.44
418.64	4397.87
418.83	4294.88
419.02	4365.10
419.21	4416.59
419.39	4573.41
419.58	4519.57
419.77	4395.53
419.96	4573.41
420.15	4657.67
420.34	4669.37
420.53	4692.77
420.72	4566.39
420.91	4524.26
421.10	4631.92
421.29	4788.74
421.48	4500.85
421.67	4734.90
421.86	4856.61
422.05	4837.89
422.24	4734.90
422.43	4877.68
422.61	4863.63
422.80	4966.62
422.99	4772.35
423.18	4760.65
423.37	5018.11
423.56	4997.04
423.75	4966.62
423.94	4837.89
424.13	4622.56
424.32	4564.04
424.50	4856.61
424.69	4999.38
424.88	5107.05
425.07	4917.47
425.26	5034.49
425.45	4898.74
425.64	4938.53
425.83	4884.70
426.01	5118.75
426.20	4978.32
426.39	4999.38
426.58	4994.70
426.77	5062.58
426.96	5081.30
427.15	5111.73
427.33	5144.50
427.52	5083.64
427.71	5210.03
427.90	5200.67
428.09	5249.82
428.28	5205.35
428.46	5336.42
428.65	5336.42
428.84	5460.47
429.03	5476.85
429.22	5226.42
429.40	5373.87
429.59	5603.24
429.78	5270.89
429.97	5205.35
430.16	5554.09
430.34	5605.58
430.53	5572.82
430.72	5689.84
430.91	5425.36
431.10	5465.15
431.28	5741.33
431.47	5760.06
431.66	5844.32
431.85	5643.03
432.03	5947.30
432.22	5877.09
432.41	6045.60
432.60	5776.44
432.79	6050.28
432.97	5872.40
433.16	6108.80
433.35	5987.09
433.54	6169.65
433.72	6179.01
433.91	6160.29
434.10	6017.52
434.28	6132.20
434.47	6139.23
434.66	6127.52
434.85	6560.52
435.03	6452.86
435.22	6164.97
435.41	6427.11
435.59	6504.35
435.78	6368.60
435.97	6335.83
436.16	6420.09
436.34	6200.08
436.53	6516.05
436.72	6555.84
436.90	6389.66
437.09	6642.44
437.28	6565.20
437.46	6509.03
437.65	6469.24
437.84	6691.59
438.02	6649.46
438.21	6801.60
438.40	6567.54
438.58	6717.34
438.77	6937.35
438.96	6764.15
439.14	6977.14
439.33	6981.82
439.52	7070.76
439.70	7136.29
439.89	7346.94
440.08	7295.45
440.26	7152.68
440.45	7300.13
440.63	7382.05
440.82	7438.22
441.01	7543.55
441.19	7552.91
441.38	7461.63
441.57	7590.36
441.75	7604.40
441.94	7932.08
442.12	7716.75
442.31	7887.61
442.50	7927.39
442.68	7887.61
442.87	7810.37
443.05	8016.33
443.24	8210.60
443.43	7962.50
443.61	8112.30
443.80	8262.09
443.98	7805.69
444.17	7831.43
444.35	8081.87
444.54	8121.66
444.73	8229.32
444.91	8126.34
445.10	8423.59
445.28	8229.32
445.47	8182.51
445.65	8322.94
445.84	8451.67
446.02	8554.66
446.21	8346.35
446.39	8393.16
446.58	8498.49
446.77	8472.74
446.95	7985.91
447.14	8592.11
447.32	8500.83
447.51	8395.50
447.69	8374.44
447.88	8517.21
448.06	8409.54
448.25	8320.60
448.43	8514.87
448.62	8379.12
448.80	8638.92
448.99	8608.49
449.17	8739.56
449.36	8683.39
449.54	8667.00
449.73	8936.17
449.91	8980.64
450.10	8723.18
450.28	9170.22
450.46	9071.92
450.65	9025.11
450.83	9069.58
451.02	8905.74
451.20	9160.86
451.39	8905.74
451.57	8952.55
451.76	8959.57
451.94	9102.34
452.13	9254.48
452.31	9057.87
452.49	9228.73
452.68	9041.49
452.86	9385.55
453.05	9320.01
453.23	9308.31
453.42	9277.88
453.60	9296.61
453.78	9530.66
453.97	9238.09
454.15	9603.22
454.34	9277.88
454.52	9598.54
454.70	9650.03
454.89	9535.34
455.07	9809.19
455.26	9731.95
455.44	9874.72
455.62	9818.55
455.81	9643.01
455.99	9928.55
456.17	10094.73
456.36	10097.07
456.54	10083.03
456.73	10335.81
456.91	10597.95
457.09	10373.25
457.28	10359.21
457.46	10324.10
457.64	10326.44
457.83	10438.79
458.01	10399.00
458.19	10555.82
458.38	10356.87
458.56	10452.83
458.74	10721.99
458.93	10544.11
459.11	10588.58
459.29	10459.85
459.48	10682.20
459.66	10883.49
459.84	11042.65
460.03	10934.98
460.21	10942.00
460.39	10986.47
460.57	10977.11
460.76	11000.52
460.94	11136.27
461.12	11255.64
461.31	11124.57
461.49	11157.33
461.67	11166.70
461.85	11194.78
462.04	10925.62
462.22	11651.19
462.40	11477.99
462.59	11501.39
462.77	11372.66
462.95	11662.89
463.13	11475.65
463.32	11466.28
463.50	11576.29
463.68	11641.82
463.86	11637.14
464.05	11721.40
464.23	11520.12
464.41	11712.04
464.59	11515.44
464.78	12131.00
464.96	11981.20
465.14	11894.60
465.32	11906.31
465.50	12159.08
465.69	12123.98
465.87	12065.46
466.05	12053.76
466.23	11950.78
466.41	11932.05
466.60	12365.05
466.78	12173.13
466.96	12023.33
467.14	12145.04
467.32	12201.21
467.51	12482.08
467.69	11934.39
467.87	12173.13
468.05	12280.79
468.23	12156.74
468.41	12365.05
468.60	12549.95
468.78	12655.28
468.96	12510.16
469.14	12606.13
469.32	12720.81
469.50	12592.08
469.69	12978.27
469.87	13132.75
470.05	13071.89
470.23	13123.38
470.41	12884.65
470.59	13301.26
470.77	12800.39
470.95	13160.83
471.14	13516.59
471.32	13144.45
471.50	13511.91
471.68	13448.72
471.86	13565.74
472.04	13540.00
472.22	13809.16
472.40	13607.87
472.58	13633.62
472.77	13806.82
472.95	13870.01
473.13	14487.92
473.31	13970.66
473.49	14209.39
473.67	13907.46
473.85	14396.64
474.03	14668.14
474.21	14518.34
474.39	14595.58
474.57	14452.81
474.75	14878.79
474.93	14977.09
475.12	14656.43
475.30	14843.68
475.48	14843.68
475.66	15339.87
475.84	14862.40
476.02	15398.38
476.20	15213.48
476.38	15442.85
476.56	15651.16
476.74	16013.95
476.92	15913.30
477.10	15803.30
477.28	16063.10
477.46	16133.31
477.64	16325.24
477.82	16393.11
478.00	16828.45
478.18	16540.57
478.36	16739.51
478.54	16840.15
478.72	16877.60
478.90	17163.15
479.08	17579.76
479.26	17657.00
479.44	17818.50
479.62	17710.83
479.80	17699.13
479.98	18092.34
480.16	18387.25
480.34	18368.52
480.52	18317.03
480.70	18438.74
480.88	18499.59
481.06	18515.98
481.24	18635.35
481.41	18986.43
481.59	19468.58
481.77	19007.49
481.95	19140.90
482.13	19637.09
482.31	19506.02
482.49	20177.76
482.67	20051.37
482.85	20477.35
483.03	20456.28
483.21	20746.51
483.39	20512.46
483.57	20631.82
483.74	21139.72
483.92	21333.98
484.10	21099.93
484.28	21649.96
484.46	21748.26
484.64	22174.24
484.82	21764.64
485.00	22036.14
485.18	22427.01
485.35	22738.30
485.53	22845.97
485.71	23021.51
485.89	23466.21
486.07	23016.83
486.25	23332.80
486.43	23477.91
486.61	23583.24
486.78	23616.01
486.96	23985.81
487.14	24418.81
487.32	24154.33
487.50	24744.14
487.68	24945.43
487.85	24975.86
488.03	25245.02
488.21	25521.20
488.39	25701.42
488.57	25858.24
488.75	25909.73
488.92	26417.63
489.10	26576.78
489.28	26541.68
489.46	26953.61
489.64	27190.00
489.81	27529.38
489.99	27402.99
490.17	27583.21
490.35	28086.43
490.53	27929.61
490.70	28016.21
490.88	27896.85
491.06	28716.03
491.24	28577.94
491.41	28659.86
491.59	29048.39
491.77	29017.96
491.95	29343.30
492.13	29570.33
492.30	29865.24
492.48	29788.00
492.66	29846.51
492.84	30125.04
493.01	30492.50
493.19	30675.06
493.37	30876.35
493.54	30611.87
493.72	31002.74
493.90	31683.83
494.08	31370.20
494.25	31704.90
494.43	31517.65
494.61	32091.09
494.79	32329.82
494.96	32046.62
495.14	32627.07
495.32	32744.09
495.49	32966.45
495.67	32692.60
495.85	33329.23
496.02	33642.86
496.20	33544.56
496.38	33713.08
496.55	33965.85
496.73	34740.57
496.91	34143.74
497.09	34787.38
497.26	34490.13
497.44	34677.38
497.62	35150.17
497.79	34960.58
497.97	35346.77
498.14	35594.87
498.32	35606.57
498.50	36275.96
498.67	36245.54
498.85	36189.36
499.03	36254.90
499.20	36378.95
499.38	36863.44
499.56	36758.11
499.73	36865.78
499.91	36891.52
500.08	37191.11
500.26	37198.13
500.44	37584.32
500.61	37610.07
500.79	37216.86
500.97	38075.84
501.14	38265.42
501.32	37979.87
501.49	38459.68
501.67	38185.84
501.84	38747.57
502.02	38724.16
502.20	38707.78
502.37	38710.12
502.55	38756.93
502.72	39269.51
502.90	39569.10
503.07	39189.93
503.25	39112.69
503.43	39232.06
503.60	39789.11
503.78	39824.22
503.95	39964.65
504.13	40512.33
504.30	40495.95
504.48	40196.36
504.65	40685.53
504.83	40786.18
505.01	41422.80
505.18	40851.71
505.36	41029.59
505.53	40594.25
505.71	41443.87
505.88	41450.89
506.06	41193.43
506.23	41471.95
506.41	41806.65
506.58	41923.68
506.76	42052.41
506.93	42581.37
507.11	41724.73
507.28	42026.66
507.46	42380.08
507.63	42625.84
507.81	42955.85
507.98	42684.35
508.16	42852.87
508.33	43379.49
508.50	42918.40
508.68	43449.70
508.85	43384.17
509.03	43342.04
509.20	43885.04
509.38	43922.49
509.55	44722.96
509.73	43920.15
509.90	44292.30
510.08	44165.91
510.25	44285.28
510.42	44406.98
510.60	44760.40
510.77	45162.98
510.95	44957.01
511.12	44715.93
511.30	45010.84
511.47	45254.26
511.64	45261.28
511.82	45476.61
511.99	44992.12
512.17	45261.28
512.34	45504.70
512.51	46057.06
512.69	45759.81
512.86	45797.26
513.04	46138.98
513.21	46005.57
513.38	46328.56
513.56	46487.72
513.73	46534.53
513.90	46639.86
514.08	46520.49
514.25	46693.69
514.43	47388.83
514.60	47330.31
514.77	46738.16
514.95	47470.75
515.12	47461.38
515.29	47325.63
515.47	47283.50
515.64	47894.38
515.81	47730.54
515.99	48006.73
516.16	48179.93
516.33	48261.85
516.51	48114.39
516.68	48107.37
516.85	47880.34
517.03	48381.21
517.20	48795.49
517.37	48451.43
517.54	48137.80
517.72	48535.69
517.89	48645.69
518.06	48694.85
518.24	48690.16
518.41	49038.90
518.58	48982.73
518.75	49008.48
518.93	49279.98
519.10	49064.65
519.27	49191.04
519.45	49385.30
519.62	49404.03
519.79	49645.10
519.96	49595.95
520.14	50167.04
520.31	49935.33
520.48	50141.30
520.65	50089.80
520.83	50384.71
521.00	50071.08
521.17	50185.77
521.34	50382.37
521.52	50518.12
521.69	50309.82
521.86	50602.38
522.03	50616.43
522.20	50859.84
522.38	51091.55
522.55	51192.20
522.72	50937.08
522.89	50787.28
523.07	51510.51
523.24	51381.78
523.41	51613.49
523.58	51325.61
523.75	51681.37
523.92	51374.76
524.10	51545.62
524.27	51789.03
524.44	51594.77
524.61	51664.99
524.78	51702.43
524.96	51966.91
525.13	51955.21
525.30	52107.35
525.47	52341.40
525.64	52350.76
525.81	52282.89
525.98	52371.83
526.16	52423.32
526.33	52474.81
526.50	52760.36
526.67	52416.30
526.84	52877.38
527.01	52631.63
527.18	52533.32
527.36	52563.75
527.53	52807.17
527.70	53223.78
527.87	53109.10
528.04	53132.50
528.21	53092.71
528.38	53272.93
528.55	53207.40
528.72	53359.53
528.89	53514.01
529.07	52938.24
529.24	53345.49
529.41	53598.27
529.58	53333.79
529.75	53595.93
529.92	53715.29
530.09	53616.99
530.26	53411.02
530.43	53635.72
530.60	53600.61
530.77	53488.26
530.94	53794.87
531.11	53724.66
531.28	53776.15
531.46	53900.20
531.63	54199.79
531.80	54021.90
531.97	54204.47
532.14	54143.61
532.31	54199.79
532.48	54422.14
532.65	54295.75
532.82	54412.77
532.99	54541.50
533.16	54279.36
533.33	54546.18
533.50	54639.81
533.67	54401.07
533.84	54555.55
534.01	54827.05
534.18	54670.23
534.35	55030.68
534.52	54740.45
534.69	55058.76
534.86	55028.34
535.03	54794.28
535.20	54824.71
535.37	55248.35
535.54	55215.58
535.71	55063.44
535.88	55143.02
536.05	55187.49
536.22	55187.49
536.38	55435.59
536.55	55222.60
536.72	55449.63
536.89	55187.49
537.06	55451.97
537.23	55510.49
537.40	55419.20
537.57	55664.96
537.74	55463.67
537.91	55531.55
538.08	55515.17
538.25	55473.04
538.42	55781.99
538.59	55817.10
538.75	55646.24
538.92	55707.09
539.09	56034.77
539.26	56072.21
539.43	55828.80
539.60	55746.88
539.77	56060.51
539.94	56229.03
540.11	56144.77
540.28	56027.74
540.44	56128.39
540.61	56004.34
540.78	56189.24
540.95	56306.27
541.12	56226.69
541.29	56144.77
541.46	56268.82
541.62	56399.89
541.79	56530.96
541.96	56364.78
542.13	56374.14
542.30	56498.19
542.47	56570.75
542.63	56680.75
542.80	56662.03
542.97	56837.57
543.14	57036.51
543.31	57240.14
543.48	57052.90
543.64	57090.35
543.81	57200.35
543.98	57144.18
544.15	57062.26
544.32	57162.90
544.48	57315.04
544.65	57207.37
544.82	57228.44
544.99	57310.36
545.16	57106.73
545.32	57031.83
545.49	57293.97
545.66	57453.13
545.83	57368.87
546.00	57214.40
546.16	57411.00
546.33	57357.17
546.50	56893.74
546.67	57336.10
546.83	57277.59
547.00	57553.77
547.17	57305.68
547.34	57441.43
547.50	57806.55
547.67	57792.51
547.84	57776.12
548.00	58014.86
548.17	58026.56
548.34	57907.19
548.51	58120.18
548.67	57977.41
548.84	58101.46
549.01	57794.85
549.18	57888.47
549.34	57909.53
549.51	58342.53
549.68	58052.31
549.84	58075.71
550.01	58136.57
550.18	58061.67
550.34	58347.21
550.51	58159.97
550.68	58370.62
550.84	58061.67
551.01	58494.67
551.18	58295.72
551.34	58223.17
551.51	58403.39
551.68	58279.34
551.84	58202.10
552.01	58262.96
552.18	58632.76
552.34	58391.68
552.51	58501.69
552.68	58246.57
552.84	58291.04
553.01	58733.40
553.18	58562.54
553.34	58841.07
553.51	58508.71
553.67	58665.53
553.84	58637.44
554.01	58848.09
554.17	58897.24
554.34	58993.20
554.51	58852.77
554.67	58908.94
554.84	58930.01
555.00	58810.64
555.17	58780.21
555.33	58944.05
555.50	58773.19
555.67	58974.48
555.83	58820.00
556.00	58937.03
556.16	59201.51
556.33	59042.35
556.50	59178.10
556.66	59061.08
556.83	59213.21
556.99	59260.02
557.16	59262.36
557.32	59236.62
557.49	59606.42
557.65	59182.79
557.82	59440.24
557.98	59089.16
558.15	59346.62
558.32	59360.67
558.48	59278.75
558.65	59494.08
558.81	59325.56
558.98	59171.08
559.14	59496.42
559.31	59271.73
559.47	59501.10
559.64	59803.03
559.80	59430.88
559.97	59711.75
560.13	59444.93
560.30	59458.97
560.46	59545.57
560.63	59627.49
560.79	59704.73
560.96	59653.23
561.12	59526.84
561.29	59585.36
561.45	59545.57
561.61	59627.49
561.78	59779.62
561.94	59470.67
562.11	59859.20
562.27	59793.67
562.44	59798.35
562.60	59983.25
562.77	59756.22
562.93	59473.01
563.10	59936.44
563.26	59718.77
563.42	59877.93
563.59	59884.95
563.75	59910.69
563.92	59791.33
564.08	60018.36
564.24	59709.41
564.41	59861.54
564.57	59770.26
564.74	60097.94
564.90	59915.37
565.07	60119.00
565.23	59978.57
565.39	59870.90
565.56	59978.57
565.72	59847.50
565.88	59903.67
566.05	60023.04
566.21	60009.00
566.38	60058.15
566.54	59945.80
566.70	60144.75
566.87	60191.56
567.03	59894.31
567.19	60231.35
567.36	60161.13
567.52	59997.29
567.68	60460.72
567.85	60374.12
568.01	60261.77
568.17	60011.34
568.34	60133.04
568.50	60067.51
568.66	60104.96
568.83	60198.58
568.99	59945.80
569.15	60374.12
569.32	60191.56
569.48	60207.94
569.64	60331.99
569.81	60315.61
569.97	60133.04
570.13	60280.50
570.30	60072.19
570.46	60350.71
570.62	60200.92
570.78	60336.67
570.95	60331.99
571.11	60437.31
571.27	60172.83
571.43	60477.10
571.60	60374.12
571.76	60343.69
571.92	60472.42
572.09	60451.36
572.25	60378.80
572.41	60441.99
572.57	60432.63
572.74	60481.78
572.90	60446.68
573.06	60355.39
573.22	60261.77
573.38	60537.96
573.55	60481.78
573.71	60596.47
573.87	60395.18
574.03	60575.40
574.20	60456.04
574.36	60528.59
574.52	60598.81
574.68	60563.70
574.84	60582.43
575.01	60720.52
575.17	60697.11
575.33	60451.36
575.49	60437.31
575.65	60598.81
575.82	60491.15
575.98	60772.01
576.14	60638.60
576.30	60598.81
576.46	60561.36
576.62	60669.03
576.79	60540.30
576.95	60444.33
577.11	60610.51
577.27	60547.32
577.43	60727.54
577.59	60411.57
577.75	60369.44
577.92	60547.32
578.08	60413.91
578.24	60629.24
578.40	60640.94
578.56	60711.16
578.72	60638.60
578.88	60617.53
579.04	60933.51
579.21	60573.06
579.37	60713.50
579.53	60935.85
579.69	60381.14
579.85	60692.43
580.01	60727.54
580.17	60481.78
580.33	60739.24
580.49	60708.82
580.65	60755.63
580.82	60715.84
580.98	60659.66
581.14	60612.85
581.30	61006.06
581.46	60493.49
581.62	60835.20
581.78	60575.40
581.94	60914.78
582.10	60739.24
582.26	60779.03
582.42	60739.24
582.58	60776.69
582.74	60664.35
582.90	60814.14
583.06	60795.42
583.22	60640.94
583.38	60615.19
583.54	60631.58
583.70	60741.58
583.86	60814.14
584.02	60699.45
584.18	60811.80
584.34	61041.17
584.50	60823.50
584.66	60650.30
584.82	60659.66
584.98	60975.64
585.14	60650.30
585.30	60851.59
585.46	60877.33
585.62	60764.99
585.78	61043.51
585.94	60706.47
586.10	60982.66
586.26	60973.30
586.42	60896.06
586.58	60947.55
586.74	60739.24
586.90	60865.63
587.06	60898.40
587.22	60748.60
587.38	60844.57
587.54	61130.11
587.70	61132.45
587.86	60889.04
588.02	60954.57
588.18	61024.79
588.34	60757.97
588.49	61017.77
