SpectraSuite Data File
++++++++++++++++++++++++++++++++++++
Date: Fri Oct 25 11:25:39 EDT 2013
User: price-jones
Dark Spectrum Present: No
Reference Spectrum Present: No
Number of Sampled Component Spectra: 1
Spectrometers: USB2+H05261
Integration Time (usec): 100000 (USB2+H05261)
Spectra Averaged: 1 (USB2+H05261)
Boxcar Smoothing: 0 (USB2+H05261)
Correct for Electrical Dark: No (USB2+H05261)
Strobe/Lamp Enabled: No (USB2+H05261)
Correct for Detector Non-linearity: No (USB2+H05261)
Correct for Stray Light: No (USB2+H05261)
Number of Pixels in Processed Spectrum: 2048
>>>>>Begin Processed Spectral Data<<<<<
365.73	191.92
365.92	191.92
366.12	191.92
366.32	170.86
366.52	86.60
366.72	156.82
366.91	173.20
367.11	107.66
367.31	147.45
367.51	154.48
367.70	112.35
367.90	91.28
368.10	175.54
368.30	159.16
368.49	74.90
368.69	170.86
368.89	152.13
369.09	187.24
369.28	180.22
369.48	184.90
369.68	203.63
369.87	217.67
370.07	138.09
370.27	191.92
370.47	248.10
370.66	528.96
370.86	550.03
371.06	671.73
371.25	760.67
371.45	695.14
371.65	660.03
371.84	657.69
372.04	571.09
372.24	753.65
372.44	702.16
372.63	791.10
372.83	772.38
373.03	795.78
373.22	779.40
373.42	781.74
373.62	777.06
373.81	788.76
374.01	739.61
374.21	767.70
374.40	807.48
374.60	896.43
374.79	854.30
374.99	858.98
375.19	833.23
375.38	849.61
375.58	898.77
375.78	842.59
375.97	861.32
376.17	877.70
376.37	858.98
376.56	842.59
376.76	814.51
376.95	849.61
377.15	842.59
377.35	858.98
377.54	880.04
377.74	901.11
377.93	908.13
378.13	908.13
378.33	908.13
378.52	978.34
378.72	903.45
378.91	1013.45
379.11	983.02
379.31	917.49
379.50	908.13
379.70	1011.11
379.89	994.73
380.09	1057.92
380.28	926.85
380.48	983.02
380.68	983.02
380.87	1013.45
381.07	1041.54
381.26	1071.97
381.46	1034.52
381.65	1013.45
381.85	1060.26
382.04	1013.45
382.24	1048.56
382.43	1027.50
382.63	1015.79
382.83	1088.35
383.02	1041.54
383.22	1163.25
383.41	1130.48
383.61	1081.33
383.80	1149.20
384.00	1163.25
384.19	1203.04
384.39	1090.69
384.58	1184.31
384.78	1165.59
384.97	1172.61
385.17	1114.10
385.36	1135.16
385.56	1261.55
385.75	1135.16
385.95	1172.61
386.14	1205.38
386.34	1125.80
386.53	1193.67
386.72	1217.08
386.92	1261.55
387.11	1294.32
387.31	1198.35
387.50	1334.11
387.70	1320.06
387.89	1317.72
388.09	1249.85
388.28	1247.51
388.48	1336.45
388.67	1343.47
388.86	1266.23
389.06	1357.51
389.25	1362.19
389.45	1308.36
389.64	1355.17
389.84	1289.64
390.03	1430.07
390.22	1322.40
390.42	1303.68
390.61	1294.32
390.81	1348.15
391.00	1383.26
391.19	1439.43
391.39	1451.13
391.58	1483.90
391.78	1446.45
391.97	1549.43
392.16	1462.83
392.36	1621.99
392.55	1593.90
392.75	1598.59
392.94	1540.07
393.13	1600.93
393.33	1568.16
393.52	1579.86
393.71	1598.59
393.91	1603.27
394.10	1521.35
394.29	1687.53
394.49	1516.67
394.68	1647.74
394.88	1526.03
395.07	1631.35
395.26	1685.19
395.46	1696.89
395.65	1706.25
395.84	1724.97
396.04	1797.53
396.23	1778.81
396.42	1760.08
396.62	1760.08
396.81	1797.53
397.00	1741.36
397.19	1755.40
397.39	1724.97
397.58	1734.34
397.77	1802.21
397.97	1837.32
398.16	1914.56
398.35	1937.96
398.55	1764.76
398.74	1916.90
398.93	1923.92
399.12	1970.73
399.32	1860.73
399.51	1867.75
399.70	1954.35
399.90	1926.26
400.09	2073.71
400.28	2080.74
400.47	1977.75
400.67	2160.31
400.86	1947.33
401.05	2127.55
401.24	1994.14
401.44	2040.95
401.63	2064.35
401.82	2071.37
402.01	2101.80
402.21	2087.76
402.40	2155.63
402.59	2186.06
402.78	2146.27
402.97	2221.17
403.17	2265.64
403.36	2204.78
403.55	2207.13
403.74	2445.86
403.93	2296.07
404.13	2406.07
404.32	2389.69
404.51	2338.20
404.70	2352.24
404.89	2385.01
405.09	2459.90
405.28	2436.50
405.47	2506.71
405.66	2417.77
405.85	2504.37
406.05	2377.98
406.24	2562.89
406.43	2656.51
406.62	2562.89
406.81	2684.59
407.00	2572.25
407.20	2642.46
407.39	2670.55
407.58	2614.38
407.77	2726.72
407.96	2670.55
408.15	2731.41
408.34	2621.40
408.54	2787.58
408.73	2710.34
408.92	2874.18
409.11	2888.22
409.30	2906.95
409.49	2920.99
409.68	2949.08
409.87	2928.01
410.07	2869.50
410.26	2963.12
410.45	2923.33
410.64	3117.59
410.83	3042.70
411.02	3096.53
411.21	3187.81
411.40	3164.40
411.59	3124.62
411.78	3155.04
411.98	3112.91
412.17	3192.49
412.36	3286.11
412.55	3389.10
412.74	3370.37
412.93	3372.71
413.12	3330.58
413.31	3550.59
413.50	3616.13
413.69	3524.85
413.88	3541.23
414.07	3583.36
414.26	3559.95
414.45	3578.68
414.64	3597.40
414.83	3541.23
415.02	3566.98
415.22	3765.92
415.41	3878.27
415.60	3871.25
415.79	3794.01
415.98	3836.14
416.17	4025.72
416.36	3950.82
416.55	4032.74
416.74	4011.68
416.93	3892.31
417.12	3978.91
417.31	4170.83
417.50	4271.48
417.69	4198.92
417.88	4201.26
418.07	4301.90
418.26	4243.39
418.45	4299.56
418.64	4496.17
418.83	4449.36
419.02	4409.57
419.21	4397.87
419.39	4458.72
419.58	4561.70
419.77	4496.17
419.96	4440.00
420.15	4557.02
420.34	4486.81
420.53	4671.71
420.72	4547.66
420.91	4770.01
421.10	4802.78
421.29	4716.18
421.48	4674.05
421.67	4706.82
421.86	4798.10
422.05	4734.90
422.24	4643.62
422.43	4990.02
422.61	4915.12
422.80	4964.28
422.99	4924.49
423.18	4994.70
423.37	5053.22
423.56	4908.10
423.75	4901.08
423.94	4889.38
424.13	4533.62
424.32	4847.25
424.50	4905.76
424.69	4971.30
424.88	5011.09
425.07	4978.32
425.26	4884.70
425.45	4868.31
425.64	4833.21
425.83	4919.81
426.01	5163.22
426.20	5184.29
426.39	4957.25
426.58	5011.09
426.77	5053.22
426.96	5018.11
427.15	5008.75
427.33	5146.84
427.52	5184.29
427.71	5177.26
427.90	5210.03
428.09	5259.18
428.28	5376.21
428.46	5280.25
428.65	5369.19
428.84	5488.56
429.03	5565.79
429.22	5224.08
429.40	5542.39
429.59	5455.79
429.78	5235.78
429.97	5174.92
430.16	5448.77
430.34	5528.35
430.53	5729.63
430.72	5654.73
430.91	5626.65
431.10	5530.69
431.28	5687.50
431.47	5867.72
431.66	5834.96
431.85	5628.99
432.03	5839.64
432.22	5874.74
432.41	5849.00
432.60	5757.72
432.79	5970.71
432.97	6019.86
433.16	6076.03
433.35	6118.16
433.54	5909.85
433.72	6092.41
433.91	6001.13
434.10	5998.79
434.28	6146.25
434.47	6193.06
434.66	6338.17
434.85	6265.61
435.03	6389.66
435.22	6310.08
435.41	6647.12
435.59	6415.41
435.78	6487.96
435.97	6450.52
436.16	6366.26
436.34	6317.11
436.53	6406.05
436.72	6593.29
436.90	6415.41
437.09	6661.16
437.28	6410.73
437.46	6698.61
437.65	6719.68
437.84	6867.13
438.02	6829.68
438.21	6759.47
438.40	6628.40
438.58	6871.81
438.77	7059.06
438.96	6911.60
439.14	7108.21
439.33	7229.91
439.52	7105.87
439.70	7250.98
439.89	7349.28
440.08	7281.41
440.26	7297.79
440.45	7389.07
440.63	7456.95
440.82	7564.61
441.01	7595.04
441.19	7478.01
441.38	7793.98
441.57	7637.17
441.75	7775.26
441.94	7873.56
442.12	7826.75
442.31	7864.20
442.50	8037.40
442.68	8035.06
442.87	8025.70
443.05	8152.09
443.24	8278.47
443.43	7988.25
443.61	8016.33
443.80	8404.86
443.98	8070.17
444.17	7896.97
444.35	8336.99
444.54	8308.90
444.73	8320.60
444.91	8215.28
445.10	8222.30
445.28	8084.21
445.47	8327.63
445.65	8367.42
445.84	8358.05
446.02	8336.99
446.21	8505.51
446.39	8334.65
446.58	8589.77
446.77	8376.78
446.95	8336.99
447.14	8294.86
447.32	8549.98
447.51	8376.78
447.69	8315.92
447.88	8547.64
448.06	8463.38
448.25	8264.43
448.43	8491.46
448.62	8676.37
448.80	8596.79
448.99	8702.11
449.17	8517.21
449.36	8725.52
449.54	8690.41
449.73	8596.79
449.91	8887.01
450.10	8681.05
450.28	8940.85
450.46	8936.17
450.65	8908.08
450.83	8987.66
451.02	8793.39
451.20	9331.72
451.39	9006.38
451.57	9104.68
451.76	8833.18
451.94	8985.32
452.13	9137.45
452.31	9153.84
452.49	9158.52
452.68	9249.80
452.86	9336.40
453.05	9488.53
453.23	9493.21
453.42	9174.90
453.60	9270.86
453.78	9582.15
453.97	9256.82
454.15	9540.02
454.34	9406.61
454.52	9514.28
454.70	9479.17
454.89	9533.00
455.07	9912.17
455.26	9753.01
455.44	9912.17
455.62	9757.69
455.81	9811.53
455.99	9989.41
456.17	10148.56
456.36	10253.89
456.54	10291.34
456.73	10061.96
456.91	10347.51
457.09	10146.22
457.28	10480.92
457.46	10457.51
457.64	10504.32
457.83	10476.24
458.01	10401.34
458.19	10846.04
458.38	10443.47
458.56	10551.14
458.74	10829.66
458.93	10593.26
459.11	10644.76
459.29	10679.86
459.48	10752.42
459.66	10733.70
459.84	10808.59
460.03	10883.49
460.21	10953.71
460.39	10956.05
460.57	10754.76
460.76	11056.69
460.94	11269.68
461.12	11239.25
461.31	11014.56
461.49	11054.35
461.67	11108.18
461.85	11475.65
462.04	11461.60
462.22	11770.55
462.40	11566.93
462.59	11325.85
462.77	11562.25
462.95	11541.18
463.13	11646.51
463.32	11651.19
463.50	11705.02
463.68	11754.17
463.86	11721.40
464.05	11461.60
464.23	11611.40
464.41	11892.26
464.59	11609.06
464.78	12224.62
464.96	11859.49
465.14	11808.00
465.32	12219.94
465.50	11913.33
465.69	12152.06
465.87	11927.37
466.05	12023.33
466.23	11925.03
466.41	12053.76
466.60	12587.40
466.78	11915.67
466.96	12217.60
467.14	12175.47
467.32	12439.95
467.51	12325.26
467.69	12238.66
467.87	12285.47
468.05	12556.97
468.23	12287.81
468.41	12444.63
468.60	12299.52
468.78	12507.82
468.96	12177.81
469.14	12769.96
469.32	13151.47
469.50	12493.78
469.69	12805.07
469.87	12776.98
470.05	13252.11
470.23	13224.03
470.41	13046.15
470.59	13322.33
470.77	13057.85
470.95	13146.79
471.14	13193.60
471.32	13057.85
471.50	13451.06
471.68	13240.41
471.86	13467.44
472.04	13584.47
472.22	13891.08
472.40	13556.38
472.58	13778.73
472.77	13888.74
472.95	14235.14
473.13	14537.07
473.31	14211.73
473.49	14134.50
473.67	14057.26
473.85	14202.37
474.03	14642.39
474.21	14668.14
474.39	14850.70
474.57	14583.88
474.75	14675.16
474.93	14623.67
475.12	14846.02
475.30	14789.85
475.48	14824.95
475.66	15236.89
475.84	15145.61
476.02	15314.13
476.20	15414.77
476.38	15800.96
476.56	16250.34
476.74	16112.25
476.92	15763.51
477.10	15688.61
477.28	16027.99
477.46	15950.75
477.64	16137.99
477.82	16533.54
478.00	16919.73
478.18	16865.90
478.36	17144.42
478.54	17153.79
478.72	17158.47
478.90	17228.68
479.08	17657.00
479.26	17270.81
479.44	17869.99
479.62	17614.87
479.80	17933.18
479.98	18120.43
480.16	18590.88
480.34	18352.14
480.52	18520.66
480.70	18429.38
480.88	18075.96
481.06	18743.01
481.24	18633.00
481.41	18941.96
481.59	19208.78
481.77	19124.52
481.95	19410.06
482.13	19243.88
482.31	19625.39
482.49	19981.15
482.67	19943.70
482.85	20184.78
483.03	20299.47
483.21	20390.75
483.39	20964.18
483.57	20592.03
483.74	20886.94
483.92	20912.69
484.10	21120.99
484.28	21743.58
484.46	21605.49
484.64	22272.54
484.82	21575.06
485.00	22209.34
485.18	22382.54
485.35	22764.05
485.53	22742.99
485.71	22855.33
485.89	23372.59
486.07	23131.51
486.25	23372.59
486.43	23494.30
486.61	23742.39
486.78	23927.30
486.96	24081.77
487.14	24510.09
487.32	24304.12
487.50	24819.04
487.68	24889.26
487.85	25006.28
488.03	25062.46
488.21	25621.84
488.39	25649.93
488.57	25790.36
488.75	26150.81
488.92	26469.12
489.10	26850.63
489.28	26525.29
489.46	26815.52
489.64	26749.98
489.81	27674.49
489.99	27229.79
490.17	27513.00
490.35	27889.82
490.53	27742.37
490.70	28350.91
490.88	28336.87
491.06	28797.95
491.24	28662.20
491.41	28891.57
491.59	28732.42
491.77	29572.67
491.95	29301.17
492.13	29898.00
492.30	29802.04
492.48	29773.95
492.66	30052.48
492.84	30059.50
493.01	30960.61
493.19	30473.78
493.37	31119.76
493.54	30649.32
493.72	31599.57
493.90	31447.44
494.08	31405.31
494.25	31763.41
494.43	31976.40
494.61	31934.27
494.79	32137.90
494.96	32514.72
495.14	32622.39
495.32	33172.41
495.49	33078.79
495.67	33078.79
495.85	33347.95
496.02	33912.02
496.20	33795.00
496.38	33666.27
496.55	34078.20
496.73	34679.72
496.91	34284.17
497.09	34714.83
497.26	34768.66
497.44	34391.83
497.62	34951.22
497.79	35316.34
497.97	35463.80
498.14	35735.30
498.32	35810.20
498.50	36151.91
498.67	36603.64
498.85	36196.38
499.03	36697.26
499.20	36610.66
499.38	36360.22
499.56	37020.25
499.73	37153.66
499.91	36912.59
500.08	37336.23
500.26	37331.54
500.44	37294.10
500.61	37448.57
500.79	38143.71
500.97	38307.55
501.14	38345.00
501.32	38436.28
501.49	38464.36
501.67	38345.00
501.84	38813.10
502.02	38438.62
502.20	39068.22
502.37	39299.94
502.55	38876.30
502.72	39253.12
502.90	39220.36
503.07	39103.33
503.25	39583.14
503.43	39473.13
503.60	39730.59
503.78	39636.97
503.95	39927.20
504.13	39875.71
504.30	40531.06
504.48	39981.03
504.65	40657.45
504.83	40964.06
505.01	41029.59
505.18	40477.22
505.36	40847.03
505.53	41127.89
505.71	41022.57
505.88	41420.46
506.06	41291.73
506.23	41549.19
506.41	41359.61
506.58	41970.49
506.76	41816.01
506.93	42646.90
507.11	42227.95
507.28	42351.99
507.46	42721.80
507.63	42183.48
507.81	43136.07
507.98	42845.85
508.16	42883.30
508.33	42878.61
508.50	42866.91
508.68	43356.08
508.85	43578.43
509.03	43562.05
509.20	43950.58
509.38	44657.42
509.55	44313.36
509.73	43880.36
509.90	44484.22
510.08	44196.34
510.25	43985.69
510.42	44861.05
510.60	44662.10
510.77	44882.11
510.95	45219.15
511.12	45474.27
511.30	44940.63
511.47	45076.38
511.64	45193.40
511.82	45698.96
511.99	45256.60
512.17	46033.66
512.34	45380.65
512.51	46197.49
512.69	46174.09
512.86	46302.82
513.04	46689.01
513.21	46183.45
513.38	46717.09
513.56	46742.84
513.73	47168.82
513.90	46962.85
514.08	46777.95
514.25	47086.90
514.43	47194.56
514.60	47185.20
514.77	47440.32
514.95	47604.16
515.12	47356.06
515.29	47515.22
515.47	47721.18
515.64	48016.09
515.81	47250.74
515.99	47934.17
516.16	48416.32
516.33	48191.63
516.51	48289.93
516.68	48156.52
516.85	48231.42
517.03	48783.79
517.20	48432.71
517.37	48736.98
517.54	48451.43
517.72	48924.22
517.89	48884.43
518.06	48910.17
518.24	49045.93
518.41	49350.20
518.58	49158.27
518.75	49102.10
518.93	49642.76
519.10	48961.67
519.27	49799.58
519.45	49165.29
519.62	50064.06
519.79	49844.05
519.96	49574.89
520.14	50014.91
520.31	49656.81
520.48	50670.26
520.65	49928.31
520.83	50604.72
521.00	50447.91
521.17	50571.96
521.34	50485.36
521.52	50457.27
521.69	50658.56
521.86	51030.70
522.03	51138.36
522.20	51033.04
522.38	51374.76
522.55	51388.80
522.72	51100.92
522.89	51405.19
523.07	51571.36
523.24	51634.56
523.41	51711.80
523.58	51236.67
523.75	51765.63
523.92	51494.13
524.10	51597.11
524.27	52009.04
524.44	52009.04
524.61	51627.54
524.78	51894.36
524.96	52135.43
525.13	52109.69
525.30	52383.53
525.47	52348.42
525.64	52367.15
525.81	52643.33
525.98	52664.39
526.16	52465.45
526.33	52552.05
526.50	52640.99
526.67	52573.11
526.84	52704.18
527.01	52741.63
527.18	52666.73
527.36	52795.46
527.53	52996.75
527.70	53389.96
527.87	53066.97
528.04	53137.18
528.21	53069.31
528.38	53233.14
528.55	53326.77
528.72	53151.23
528.89	53277.61
529.07	53158.25
529.24	53432.09
529.41	53855.73
529.58	53464.86
529.75	53598.27
529.92	53514.01
530.09	53645.08
530.26	53883.81
530.43	53841.68
530.60	53535.07
530.77	53586.57
530.94	54110.85
531.11	54129.57
531.28	54028.93
531.46	53818.28
531.63	54150.63
531.80	54038.29
531.97	54337.88
532.14	54501.71
532.31	54478.31
532.48	54478.31
532.65	54328.52
532.82	54145.95
532.99	54408.09
533.16	54557.89
533.33	54642.15
533.50	55079.83
533.67	54443.20
533.84	54707.68
534.01	54688.96
534.18	54719.38
534.35	54972.16
534.52	55117.28
534.69	55018.97
534.86	54962.80
535.03	54862.16
535.20	55178.13
535.37	55236.64
535.54	55089.19
535.71	55341.97
535.88	55093.87
536.05	55243.66
536.22	55463.67
536.38	55419.20
536.55	55442.61
536.72	55505.80
536.89	55519.85
537.06	55536.23
537.23	55461.33
537.40	55114.94
537.57	55416.86
537.74	55510.49
537.91	55639.22
538.08	55412.18
538.25	55599.43
538.42	55891.99
538.59	55814.76
538.75	55758.58
538.92	55971.57
539.09	55793.69
539.26	56058.17
539.43	55959.87
539.60	56175.20
539.77	56292.22
539.94	56369.46
540.11	56339.04
540.28	56329.67
540.44	56210.31
540.61	56341.38
540.78	56245.41
540.95	56435.00
541.12	56095.62
541.29	56402.23
541.46	56472.45
541.62	56369.46
541.79	56465.42
541.96	56353.08
542.13	56694.80
542.30	56392.87
542.47	56765.01
542.63	56741.61
542.80	56849.27
542.97	56933.53
543.14	56734.59
543.31	56924.17
543.48	57085.67
543.64	57319.72
543.81	57167.58
543.98	57134.82
544.15	56985.02
544.32	57462.49
544.48	57497.60
544.65	57141.84
544.82	57216.74
544.99	57235.46
545.16	57317.38
545.32	57221.42
545.49	57602.92
545.66	57771.44
545.83	57485.90
546.00	57574.84
546.16	57593.56
546.33	57513.98
546.50	57382.91
546.67	57682.50
546.83	57293.97
547.00	57429.72
547.17	57354.83
547.34	57509.30
547.50	57883.79
547.67	58012.52
547.84	57677.82
548.00	58045.29
548.17	58120.18
548.34	58049.97
548.51	58014.86
548.67	58066.35
548.84	57951.66
549.01	57881.45
549.18	57982.09
549.34	58019.54
549.51	57998.48
549.68	58202.10
549.84	58241.89
550.01	58258.27
550.18	58202.10
550.34	58171.67
550.51	58277.00
550.68	58309.77
550.84	58197.42
551.01	58333.17
551.18	58382.32
551.34	58539.14
551.51	58546.16
551.68	58511.05
551.84	58454.88
552.01	58398.71
552.18	58398.71
552.34	58269.98
552.51	58454.88
552.68	58394.03
552.84	58761.49
553.01	58848.09
553.18	58766.17
553.34	58759.15
553.51	58693.61
553.67	58937.03
553.84	59049.38
554.01	58817.66
554.17	58761.49
554.34	59007.25
554.51	58700.64
554.67	59061.08
554.84	58934.69
555.00	58848.09
555.17	58815.32
555.33	58815.32
555.50	58852.77
555.67	58901.92
555.83	58836.39
556.00	58939.37
556.16	59372.37
556.33	59199.17
556.50	59117.25
556.66	59112.57
556.83	59004.91
556.99	59428.54
557.16	59423.86
557.32	59112.57
557.49	59650.89
557.65	59231.94
557.82	59288.11
557.98	59274.07
558.15	59339.60
558.32	59442.59
558.48	59187.47
558.65	59526.84
558.81	59564.29
558.98	59344.28
559.14	59358.33
559.31	59470.67
559.47	59526.84
559.64	59723.45
559.80	59559.61
559.97	59543.23
560.13	59561.95
560.30	59547.91
560.46	59578.34
560.63	59477.69
560.79	59594.72
560.96	59793.67
561.12	59690.68
561.29	59522.16
561.45	59697.70
561.61	59590.04
561.78	59831.11
561.94	59966.87
562.11	59807.71
562.27	59756.22
562.44	59693.02
562.60	59693.02
562.77	59938.78
562.93	59515.14
563.10	59908.35
563.26	59896.65
563.42	60016.02
563.59	59805.37
563.75	59627.49
563.92	59826.43
564.08	59777.28
564.24	59945.80
564.41	59737.49
564.57	59936.44
564.74	59863.88
564.90	60116.66
565.07	59791.33
565.23	60011.34
565.39	60086.23
565.56	60193.90
565.72	59987.93
565.88	60088.57
566.05	59770.26
566.21	60011.34
566.38	60011.34
566.54	60168.15
566.70	60250.07
566.87	60135.38
567.03	59971.55
567.19	60355.39
567.36	60229.01
567.52	60221.98
567.68	60437.31
567.85	60261.77
568.01	60299.22
568.17	60123.68
568.34	60362.42
568.50	60090.91
568.66	60158.79
568.83	60212.62
568.99	60025.38
569.15	60266.45
569.32	60533.28
569.48	60032.40
569.64	60275.82
569.81	60477.10
569.97	59994.95
570.13	60512.21
570.30	60111.98
570.46	60432.63
570.62	60353.05
570.78	60250.07
570.95	60364.76
571.11	60547.32
571.27	60331.99
571.43	60420.93
571.60	60720.52
571.76	60374.12
571.92	60547.32
572.09	60530.93
572.25	60467.74
572.41	60273.48
572.57	60418.59
572.74	60683.07
572.90	60451.36
573.06	60533.28
573.22	60397.52
573.38	60430.29
573.55	60341.35
573.71	60533.28
573.87	60523.91
574.03	60425.61
574.20	60523.91
574.36	60547.32
574.52	60603.49
574.68	60743.92
574.84	60654.98
575.01	60741.58
575.17	60516.89
575.33	60573.06
575.49	60652.64
575.65	60610.51
575.82	60713.50
575.98	60685.41
576.14	60837.54
576.30	60807.12
576.46	60659.66
576.62	60694.77
576.79	60601.15
576.95	60486.46
577.11	60636.26
577.27	60505.19
577.43	60692.43
577.59	60554.34
577.75	60624.56
577.92	60434.97
578.08	60699.45
578.24	60774.35
578.40	61034.15
578.56	60830.52
578.72	60837.54
578.88	60860.95
579.04	60896.06
579.21	60977.98
579.37	60999.04
579.53	60814.14
579.69	60629.24
579.85	60797.76
580.01	60732.22
580.17	60626.90
580.33	60783.71
580.49	60842.23
580.65	60809.46
580.82	60657.32
580.98	60580.09
581.14	60683.07
581.30	60645.62
581.46	60718.18
581.62	60823.50
581.78	60828.18
581.94	60931.17
582.10	60900.74
582.26	60706.47
582.42	60795.42
582.58	60626.90
582.74	60610.51
582.90	60697.11
583.06	60673.71
583.22	60544.98
583.38	60839.89
583.54	60828.18
583.70	61022.45
583.86	60743.92
584.02	60739.24
584.18	61041.17
584.34	61057.56
584.50	60807.12
584.66	60893.72
584.82	60720.52
584.98	60947.55
585.14	60786.05
585.30	60645.62
585.46	60853.93
585.62	60933.51
585.78	60985.00
585.94	60818.82
586.10	60977.98
586.26	60839.89
586.42	60917.12
586.58	61050.53
586.74	60982.66
586.90	60949.89
587.06	60746.26
587.22	61141.81
587.38	61008.40
587.54	61076.28
587.70	61242.46
587.86	61261.18
588.02	60828.18
588.18	61062.24
588.34	61001.38
588.49	60977.98
