SpectraSuite Data File
++++++++++++++++++++++++++++++++++++
Date: Fri Oct 25 10:44:14 EDT 2013
User: price-jones
Dark Spectrum Present: No
Reference Spectrum Present: No
Number of Sampled Component Spectra: 1
Spectrometers: USB2+H05261
Integration Time (usec): 100000 (USB2+H05261)
Spectra Averaged: 1 (USB2+H05261)
Boxcar Smoothing: 0 (USB2+H05261)
Correct for Electrical Dark: No (USB2+H05261)
Strobe/Lamp Enabled: No (USB2+H05261)
Correct for Detector Non-linearity: No (USB2+H05261)
Correct for Stray Light: No (USB2+H05261)
Number of Pixels in Processed Spectrum: 2048
>>>>>Begin Processed Spectral Data<<<<<
365.73	159.16
365.92	159.16
366.12	159.16
366.32	58.51
366.52	51.49
366.72	42.13
366.91	0.00
367.11	0.00
367.31	60.85
367.51	32.77
367.70	0.00
367.90	51.49
368.10	0.00
368.30	44.47
368.49	58.51
368.69	121.71
368.89	7.02
369.09	32.77
369.28	11.70
369.48	58.51
369.68	100.64
369.87	86.60
370.07	42.13
370.27	102.98
370.47	203.63
370.66	304.27
370.86	435.34
371.06	454.06
371.25	526.62
371.45	416.62
371.65	458.74
371.84	510.24
372.04	421.30
372.24	498.53
372.44	484.49
372.63	528.96
372.83	557.05
373.03	526.62
373.22	606.20
373.42	559.39
373.62	561.73
373.81	592.16
374.01	557.05
374.21	540.66
374.40	564.07
374.60	545.34
374.79	596.84
374.99	620.24
375.19	550.03
375.38	587.47
375.58	599.18
375.78	631.94
375.97	641.31
376.17	643.65
376.37	603.86
376.56	589.82
376.76	528.96
376.95	650.67
377.15	678.76
377.35	718.54
377.54	730.25
377.74	587.47
377.93	641.31
378.13	655.35
378.33	720.88
378.52	643.65
378.72	615.56
378.91	737.27
379.11	601.52
379.31	645.99
379.50	613.22
379.70	629.60
379.89	674.07
380.09	681.10
380.28	585.13
380.48	692.80
380.68	678.76
380.87	699.82
381.07	688.12
381.26	648.33
381.46	676.41
381.65	765.36
381.85	718.54
382.04	709.18
382.24	699.82
382.43	730.25
382.63	683.44
382.83	814.51
383.02	725.57
383.22	702.16
383.41	723.23
383.61	763.01
383.80	844.93
384.00	751.31
384.19	723.23
384.39	830.89
384.58	791.10
384.78	847.27
384.97	896.43
385.17	758.33
385.36	840.25
385.56	786.42
385.75	798.12
385.95	781.74
386.14	849.61
386.34	816.85
386.53	835.57
386.72	823.87
386.92	802.80
387.11	931.53
387.31	873.02
387.50	908.13
387.70	877.70
387.89	882.38
388.09	887.06
388.28	870.68
388.48	896.43
388.67	917.49
388.86	870.68
389.06	1025.15
389.25	968.98
389.45	964.30
389.64	980.68
389.84	1048.56
390.03	1006.43
390.22	1011.11
390.42	971.32
390.61	1046.22
390.81	985.37
391.00	1043.88
391.19	1076.65
391.39	1090.69
391.58	1071.97
391.78	983.02
391.97	1114.10
392.16	1013.45
392.36	1125.80
392.55	1086.01
392.75	968.98
392.94	971.32
393.13	1029.84
393.33	1020.47
393.52	1025.15
393.71	1123.46
393.91	1027.50
394.10	1086.01
394.29	1090.69
394.49	1217.08
394.68	1196.01
394.88	1284.95
395.07	1277.93
395.26	1123.46
395.46	1214.74
395.65	1226.44
395.84	1149.20
396.04	1198.35
396.23	1200.69
396.42	1029.84
396.62	1132.82
396.81	1249.85
397.00	1146.86
397.19	1226.44
397.39	1231.12
397.58	1385.60
397.77	1406.66
397.97	1334.11
398.16	1394.96
398.35	1383.26
398.55	1462.83
398.74	1448.79
398.93	1591.56
399.12	1467.52
399.32	1528.37
399.51	1554.12
399.70	1675.82
399.90	1544.75
400.09	1577.52
400.28	1593.90
400.47	1682.85
400.67	1675.82
400.86	1612.63
401.05	1769.44
401.24	1689.87
401.44	1774.13
401.63	1774.13
401.82	1720.29
402.01	1678.16
402.21	1865.41
402.40	1776.47
402.59	1767.10
402.78	1743.70
402.97	1710.93
403.17	1762.42
403.36	1767.10
403.55	1783.49
403.74	1860.73
403.93	1865.41
404.13	1820.94
404.32	1830.30
404.51	1785.83
404.70	1907.54
404.89	1900.52
405.09	1959.03
405.28	2019.88
405.47	1935.62
405.66	1968.39
405.85	2033.93
406.05	1970.73
406.24	1991.80
406.43	2022.22
406.62	2099.46
406.81	2146.27
407.00	2069.03
407.20	2026.90
407.39	2050.31
407.58	2111.16
407.77	2167.34
407.96	2157.97
408.15	2270.32
408.34	2331.17
408.54	2310.11
408.73	2228.19
408.92	2319.47
409.11	2270.32
409.30	2401.39
409.49	2349.90
409.68	2377.98
409.87	2366.28
410.07	2396.71
410.26	2368.62
410.45	2387.35
410.64	2347.56
410.83	2473.95
411.02	2483.31
411.21	2523.10
411.40	2499.69
411.59	2693.96
411.78	2595.65
411.98	2593.31
412.17	2567.57
412.36	2607.36
412.55	2738.43
412.74	2715.02
412.93	2775.88
413.12	2539.48
413.31	2820.35
413.50	2747.79
413.69	2799.28
413.88	2998.23
414.07	2862.48
414.26	2897.58
414.45	2857.79
414.64	3009.93
414.83	3143.34
415.02	3112.91
415.22	3052.06
415.41	3080.14
415.60	3206.53
415.79	3260.37
415.98	3288.45
416.17	3262.71
416.36	3225.26
416.55	3192.49
416.74	3323.56
416.93	3192.49
417.12	3243.98
417.31	3332.92
417.50	3349.31
417.69	3412.50
417.88	3473.36
418.07	3515.48
418.26	3414.84
418.45	3414.84
418.64	3653.58
418.83	3602.08
419.02	3475.70
419.21	3475.70
419.39	3543.57
419.58	3623.15
419.77	3442.93
419.96	3625.49
420.15	3695.71
420.34	3644.21
420.53	3651.24
420.72	3679.32
420.91	3882.95
421.10	3770.60
421.29	3868.91
421.48	3740.18
421.67	3796.35
421.86	3658.26
422.05	3723.79
422.24	3684.00
422.43	3871.25
422.61	3833.80
422.80	3932.10
422.99	3822.09
423.18	3922.74
423.37	3932.10
423.56	4018.70
423.75	3880.61
423.94	3847.84
424.13	3777.62
424.32	3686.34
424.50	3978.91
424.69	3918.06
424.88	3950.82
425.07	3978.91
425.26	3899.33
425.45	3997.64
425.64	3840.82
425.83	3911.04
426.01	4077.21
426.20	4065.51
426.39	4067.85
426.58	3999.98
426.77	3882.95
426.96	4053.81
427.15	3852.52
427.33	4191.90
427.52	4112.32
427.71	4194.24
427.90	3976.57
428.09	4175.52
428.28	4121.68
428.46	4238.71
428.65	4009.34
428.84	4266.80
429.03	4379.14
429.22	4084.23
429.40	4140.41
429.59	3859.54
429.78	3955.51
429.97	4042.11
430.16	4156.79
430.34	4049.13
430.53	4109.98
430.72	4093.60
430.91	4191.90
431.10	4250.41
431.28	4519.57
431.47	4725.54
431.66	4603.83
431.85	4461.06
432.03	4601.49
432.22	4718.52
432.41	4601.49
432.60	4711.50
432.79	4702.14
432.97	4840.23
433.16	4772.35
433.35	4730.22
433.54	4685.75
433.72	4674.05
433.91	4573.41
434.10	4683.41
434.28	4823.84
434.47	4809.80
434.66	5032.15
434.85	5001.72
435.03	4809.80
435.22	4770.01
435.41	5156.20
435.59	5011.09
435.78	4936.19
435.97	5207.69
436.16	5130.45
436.34	5025.13
436.53	5308.34
436.72	5324.72
436.90	5128.11
437.09	5303.65
437.28	4957.25
437.46	4975.98
437.65	5219.39
437.84	5294.29
438.02	5156.20
438.21	5146.84
438.40	5085.98
438.58	5500.26
438.77	5418.34
438.96	5448.77
439.14	5458.13
439.33	5521.32
439.52	5586.86
439.70	5476.85
439.89	5738.99
440.08	5605.58
440.26	5640.69
440.45	5689.84
440.63	5944.96
440.82	5849.00
441.01	5900.49
441.19	5888.79
441.38	5970.71
441.57	6071.35
441.75	6244.55
441.94	6232.85
442.12	6324.13
442.31	6249.23
442.50	6338.17
442.68	6380.30
442.87	6272.64
443.05	6310.08
443.24	6434.13
443.43	6445.84
443.61	6455.20
443.80	6670.53
443.98	6305.40
444.17	6160.29
444.35	6392.00
444.54	6635.42
444.73	6487.96
444.91	6403.71
445.10	6483.28
445.28	6483.28
445.47	6377.96
445.65	6265.61
445.84	6485.62
446.02	6525.41
446.21	6408.39
446.39	6607.33
446.58	6553.50
446.77	6745.42
446.95	6707.98
447.14	6761.81
447.32	6656.48
447.51	6736.06
447.69	6668.19
447.88	6581.59
448.06	6761.81
448.25	6705.63
448.43	6764.15
448.62	6825.00
448.80	6761.81
448.99	6700.95
449.17	6998.20
449.36	6848.41
449.54	6890.54
449.73	7009.90
449.91	7052.03
450.10	7101.19
450.28	7276.73
450.46	7169.06
450.65	7286.09
450.83	7279.07
451.02	6944.37
451.20	7145.66
451.39	7201.83
451.57	7370.35
451.76	7173.74
451.94	7286.09
452.13	7297.79
452.31	7112.89
452.49	7068.42
452.68	7215.87
452.86	7122.25
453.05	7307.15
453.23	7297.79
453.42	7332.90
453.60	7272.04
453.78	7606.74
453.97	7279.07
454.15	7325.88
454.34	7241.62
454.52	7452.27
454.70	7473.33
454.89	7691.00
455.07	7602.06
455.26	7569.29
455.44	7763.56
455.62	7681.64
455.81	7679.30
455.99	7712.07
456.17	7822.07
456.36	7941.44
456.54	7777.60
456.73	7854.84
456.91	8269.11
457.09	7831.43
457.28	8114.64
457.46	8049.10
457.64	8121.66
457.83	8257.41
458.01	8079.53
458.19	8388.48
458.38	8112.30
458.56	8327.63
458.74	8084.21
458.93	8116.98
459.11	8390.82
459.29	8219.96
459.48	8411.89
459.66	8255.07
459.84	8381.46
460.03	8538.27
460.21	8353.37
460.39	8482.10
460.57	8552.32
460.76	8648.28
460.94	8353.37
461.12	8566.36
461.31	8676.37
461.49	8430.61
461.67	8631.90
461.85	9102.34
462.04	8762.97
462.22	9123.41
462.40	8863.61
462.59	8554.66
462.77	8821.48
462.95	8940.85
463.13	8980.64
463.32	8975.95
463.50	9085.96
463.68	8973.61
463.86	8978.30
464.05	8905.74
464.23	8903.40
464.41	9100.00
464.59	9011.06
464.78	9256.82
464.96	9043.83
465.14	8882.33
465.32	9210.01
465.50	9217.03
465.69	9165.54
465.87	9158.52
466.05	9172.56
466.23	9071.92
466.41	9275.54
466.60	9345.76
466.78	9128.09
466.96	9266.18
467.14	9322.35
467.32	9472.15
467.51	9380.87
467.69	9252.14
467.87	9469.81
468.05	9327.03
468.23	9378.53
468.41	9511.94
468.60	9455.76
468.78	9650.03
468.96	9593.86
469.14	9472.15
469.32	9720.24
469.50	9680.46
469.69	9853.66
469.87	9692.16
470.05	9863.02
470.23	9652.37
470.41	9867.70
470.59	9996.43
470.77	9764.72
470.95	10139.20
471.14	10113.45
471.32	9912.17
471.50	10310.06
471.68	10204.74
471.86	10487.94
472.04	10338.15
472.22	10448.15
472.40	10263.25
472.58	10331.12
472.77	10293.68
472.95	10588.58
473.13	10932.64
473.31	10621.35
473.49	10600.29
473.67	10616.67
473.85	10707.95
474.03	10984.13
474.21	10869.45
474.39	11035.63
474.57	11138.61
474.75	11199.46
474.93	11367.98
475.12	11059.03
475.30	11178.40
475.48	11426.50
475.66	11342.24
475.84	11459.26
476.02	11304.79
476.20	11211.17
476.38	11634.80
476.56	11763.53
476.74	11810.34
476.92	11770.55
477.10	11749.49
477.28	12116.95
477.46	11903.96
477.64	12051.42
477.82	12266.75
478.00	12629.53
478.18	12580.38
478.36	12383.77
478.54	12484.42
478.72	12624.85
478.90	12697.41
479.08	13008.70
479.26	13142.11
479.44	13118.70
479.62	13284.88
479.80	13266.16
479.98	13437.02
480.16	13729.58
480.34	13610.22
480.52	13720.22
480.70	13764.69
480.88	13799.80
481.06	13745.97
481.24	14075.98
481.41	14342.80
481.59	14246.84
481.77	14455.15
481.95	14487.92
482.13	14682.18
482.31	14415.36
482.49	14670.48
482.67	14927.94
482.85	14785.16
483.03	15150.29
483.21	15192.42
483.39	15384.34
483.57	15517.75
483.74	15424.13
483.92	15955.43
484.10	15688.61
484.28	15896.92
484.46	16159.06
484.64	16294.81
484.82	16049.05
485.00	16259.70
485.18	16442.26
485.35	16264.38
485.53	16175.44
485.71	15950.75
485.89	16631.85
486.07	16294.81
486.25	16711.42
486.43	17238.05
486.61	17025.06
486.78	17050.80
486.96	17345.71
487.14	17649.98
487.32	17841.90
487.50	17951.91
487.68	18003.40
487.85	18335.76
488.03	18359.16
488.21	18457.46
488.39	18478.53
488.57	18649.39
488.75	18801.52
488.92	19040.26
489.10	19660.50
489.28	19227.50
489.46	19613.69
489.64	19627.73
489.81	20287.76
489.99	20074.77
490.17	20247.97
490.35	20238.61
490.53	20205.84
490.70	20205.84
490.88	20496.07
491.06	20833.11
491.24	20805.02
491.41	20690.34
491.59	20741.83
491.77	20577.99
491.95	20919.71
492.13	21247.38
492.30	21546.97
492.48	21745.92
492.66	21266.11
492.84	21647.61
493.01	22092.32
493.19	21729.53
493.37	22120.40
493.54	22188.28
493.72	22363.82
493.90	22436.38
494.08	22913.84
494.25	23147.90
494.43	23161.94
494.61	23058.96
494.79	23496.64
494.96	23302.37
495.14	23498.98
495.32	23709.63
495.49	23503.66
495.67	23754.10
495.85	23941.34
496.02	24357.96
496.20	24390.72
496.38	24573.28
496.55	24706.70
496.73	24982.88
496.91	24685.63
497.09	25041.39
497.26	24809.68
497.44	24706.70
497.62	25399.49
497.79	25245.02
497.97	25116.29
498.14	25441.62
498.32	25652.27
498.50	25982.29
498.67	25848.88
498.85	25851.22
499.03	26190.59
499.20	26209.32
499.38	26141.44
499.56	26356.77
499.73	26595.51
499.91	26518.27
500.08	26555.72
500.26	26471.46
500.44	26534.65
500.61	26424.65
500.79	26356.77
500.97	26635.30
501.14	27171.28
501.32	27159.58
501.49	27159.58
501.67	27077.66
501.84	27428.74
502.02	27292.99
502.20	27606.62
502.37	27833.65
502.55	27744.71
502.72	27756.41
502.90	27793.86
503.07	27938.97
503.25	28374.31
503.43	27889.82
503.60	28254.95
503.78	28400.06
503.95	28423.47
504.13	28381.34
504.30	28301.76
504.48	28540.49
504.65	28744.12
504.83	28914.98
505.01	28835.40
505.18	29015.62
505.36	29493.09
505.53	29603.10
505.71	29680.33
505.88	29851.19
506.06	29443.94
506.23	29097.54
506.41	29635.86
506.58	29771.61
506.76	29811.40
506.93	29818.42
507.11	29640.54
507.28	30036.09
507.46	29937.79
507.63	30026.73
507.81	29944.81
507.98	29900.34
508.16	30562.72
508.33	30389.52
508.50	30459.73
508.68	30656.34
508.85	31246.15
509.03	30946.56
509.20	31084.65
509.38	31023.80
509.55	31304.67
509.73	31147.85
509.90	30962.95
510.08	31222.75
510.25	31173.60
510.42	31723.62
510.60	31681.49
510.77	31552.76
510.95	31866.39
511.12	31641.70
511.30	32229.18
511.47	32243.22
511.64	32095.77
511.82	32374.29
511.99	32180.03
512.17	32046.62
512.34	32254.92
512.51	32755.80
512.69	32481.95
512.86	32570.90
513.04	32804.95
513.21	32575.58
513.38	32641.11
513.56	32804.95
513.73	32624.73
513.90	32732.39
514.08	33055.39
514.25	32917.29
514.43	33195.82
514.60	33095.18
514.77	33153.69
514.95	33553.92
515.12	33357.32
515.29	33390.08
515.47	33926.07
515.64	34174.16
515.81	33848.83
515.99	33759.89
516.16	33809.04
516.33	33249.65
516.51	33792.65
516.68	33008.58
516.85	33338.59
517.03	33441.57
517.20	33780.95
517.37	34323.96
517.54	34499.50
517.72	34305.23
517.89	33912.02
518.06	34375.45
518.24	34239.70
518.41	34408.22
518.58	34565.03
518.75	34375.45
518.93	35007.39
519.10	35342.09
519.27	35007.39
519.45	35019.10
519.62	35215.70
519.79	35180.59
519.96	35269.53
520.14	35615.93
520.31	35255.49
520.48	35681.47
520.65	35515.29
520.83	35732.96
521.00	35941.27
521.17	36088.72
521.34	36135.53
521.52	35892.12
521.69	35931.90
521.86	35906.16
522.03	36058.29
522.20	36041.91
522.38	36315.75
522.55	36418.74
522.72	35959.99
522.89	36224.47
523.07	37109.19
523.24	36587.25
523.41	37064.72
523.58	36994.51
523.75	37397.08
523.92	37008.55
524.10	37268.35
524.27	37324.52
524.44	37481.34
524.61	37504.74
524.78	37736.46
524.96	37558.58
525.13	37642.84
525.30	37652.20
525.47	37759.86
525.64	37954.13
525.81	37610.07
525.98	37525.81
526.16	37366.65
526.33	37333.89
526.50	37521.13
526.67	36809.61
526.84	37347.93
527.01	37708.37
527.18	37790.29
527.36	38450.32
527.53	38284.14
527.70	38529.90
527.87	38433.94
528.04	38185.84
528.21	38337.98
528.38	38352.02
528.55	39077.58
528.72	38532.24
528.89	38899.70
529.07	38939.49
529.24	38513.52
529.41	38885.66
529.58	38785.02
529.75	38471.39
529.92	39009.71
530.09	39110.35
530.26	38717.14
530.43	39391.22
530.60	39077.58
530.77	39241.42
530.94	39468.45
531.11	39257.81
531.28	39215.68
531.46	39232.06
531.63	39512.92
531.80	39344.41
531.97	39838.26
532.14	39290.57
532.31	39140.78
532.48	39276.53
532.65	39370.15
532.82	39814.85
532.99	39868.69
533.16	39529.31
533.33	40069.97
533.50	40376.58
533.67	39880.39
533.84	40048.91
534.01	40088.70
534.18	40428.07
534.35	40315.73
534.52	40177.64
534.69	40254.87
534.86	40779.15
535.03	40458.50
535.20	40645.74
535.37	41083.42
535.54	41202.79
535.71	40629.36
535.88	40730.00
536.05	40538.08
536.22	40744.05
536.38	40615.32
536.55	40875.12
536.72	40701.92
536.89	40767.45
537.06	40807.24
537.23	41055.34
537.40	40964.06
537.57	40910.22
537.74	41163.00
537.91	41366.63
538.08	41179.39
538.25	41202.79
538.42	41268.33
538.59	41570.25
538.75	41254.28
538.92	41801.97
539.09	41551.53
539.26	41263.64
539.43	41392.37
539.60	41212.15
539.77	41392.37
539.94	41352.58
540.11	41523.44
540.28	41237.90
540.44	41645.15
540.61	41254.28
540.78	41074.06
540.95	41397.06
541.12	41542.17
541.29	42000.91
541.46	41537.49
541.62	41954.10
541.79	42202.20
541.96	42005.59
542.13	41954.10
542.30	42019.64
542.47	42316.89
542.63	41797.29
542.80	42267.73
542.97	42646.90
543.14	42548.60
543.31	42487.74
543.48	42511.15
543.64	43107.99
543.81	42728.82
543.98	42646.90
544.15	42625.84
544.32	42801.38
544.48	43292.89
544.65	42997.98
544.82	43166.50
544.99	42623.50
545.16	43306.93
545.32	43154.80
545.49	43438.00
545.66	43395.87
545.83	43491.83
546.00	43323.32
546.16	43297.57
546.33	43419.28
546.50	42920.74
546.67	43096.28
546.83	42660.94
547.00	43365.45
547.17	43283.53
547.34	43531.62
547.50	43730.57
547.67	43810.15
547.84	43807.81
548.00	43737.59
548.17	43962.28
548.34	43627.59
548.51	43952.92
548.67	44119.10
548.84	43751.63
549.01	43910.79
549.18	43674.40
549.34	43978.67
549.51	44587.21
549.68	43791.42
549.84	44399.96
550.01	44196.34
550.18	44116.76
550.34	43849.94
550.51	44397.62
550.68	43964.62
550.84	43566.73
551.01	44175.27
551.18	43952.92
551.34	44591.89
551.51	44149.53
551.68	44397.62
551.84	44390.60
552.01	44107.40
552.18	44364.85
552.34	44334.43
552.51	44828.28
552.68	44250.17
552.84	44701.89
553.01	44397.62
553.18	44451.45
553.34	44615.29
553.51	44201.02
553.67	44636.36
553.84	44814.24
554.01	44753.38
554.17	44982.76
554.34	45141.91
554.51	44617.63
554.67	44729.98
554.84	44610.61
555.00	44898.50
555.17	44776.79
555.33	44748.70
555.50	44737.00
555.67	44605.93
555.83	44996.80
556.00	44610.61
556.16	45434.48
556.33	44673.81
556.50	44830.62
556.66	44952.33
556.83	44601.25
556.99	44889.13
557.16	45471.93
557.32	45228.51
557.49	45390.01
557.65	44828.28
557.82	45148.93
557.98	45439.16
558.15	44926.58
558.32	45588.95
558.48	45123.19
558.65	44762.75
558.81	44903.18
558.98	45333.84
559.14	45392.35
559.31	45308.09
559.47	44858.71
559.64	45890.88
559.80	45408.73
559.97	45567.89
560.13	45347.88
560.30	45736.41
560.46	45038.93
560.63	45701.30
560.79	45666.19
560.96	45787.90
561.12	45394.69
561.29	45242.56
561.45	46003.23
561.61	45722.37
561.78	45364.26
561.94	45141.91
562.11	45099.78
562.27	45717.68
562.44	45443.84
562.60	45504.70
562.77	45808.96
562.93	45937.69
563.10	45614.70
563.26	45251.92
563.42	45481.29
563.59	45535.12
563.75	45991.53
563.92	45752.79
564.08	45911.95
564.24	46080.47
564.41	45340.86
564.57	45408.73
564.74	45752.79
564.90	45839.39
565.07	45818.33
565.23	45593.64
565.39	45441.50
565.56	45876.84
565.72	45462.57
565.88	45776.20
566.05	45390.01
566.21	45633.42
566.38	45881.52
566.54	45705.98
566.70	46185.79
566.87	46050.04
567.03	45668.53
567.19	46314.52
567.36	45991.53
567.52	45610.02
567.68	45851.09
567.85	46185.79
568.01	45935.35
568.17	45722.37
568.34	46162.39
568.50	45832.37
568.66	45858.12
568.83	45713.00
568.99	45628.74
569.15	45808.96
569.32	45729.39
569.48	45933.01
569.64	46230.26
569.81	45998.55
569.97	45820.67
570.13	45916.63
570.30	45773.86
570.46	45956.42
570.62	46120.26
570.78	45717.68
570.95	45989.19
571.11	45855.78
571.27	45801.94
571.43	45626.40
571.60	46026.63
571.76	45818.33
571.92	46054.72
572.09	46307.50
572.25	46234.94
572.41	45794.92
572.57	46391.76
572.74	46581.34
572.90	45970.46
573.06	46141.32
573.22	45956.42
573.38	45879.18
573.55	46270.05
573.71	46387.08
573.87	46284.09
574.03	46082.81
574.20	45928.33
574.36	45804.28
574.52	46021.95
574.68	46253.67
574.84	46146.00
575.01	46134.30
575.17	45963.44
575.33	46014.93
575.49	46043.02
575.65	46457.29
575.82	46129.62
575.98	46405.80
576.14	46504.10
576.30	45947.06
576.46	46211.54
576.62	45787.90
576.79	46167.07
576.95	45975.14
577.11	46162.39
577.27	46316.86
577.43	46087.49
577.59	46190.47
577.75	46260.69
577.92	45909.61
578.08	45808.96
578.24	45785.56
578.40	45918.97
578.56	45893.22
578.72	46153.02
578.88	46171.75
579.04	46110.89
579.21	45975.14
579.37	46274.73
579.53	46513.47
579.69	46101.53
579.85	46050.04
580.01	46588.36
580.17	46478.36
580.33	46256.01
580.49	46459.63
580.65	46429.21
580.82	45904.93
580.98	46157.70
581.14	45792.58
581.30	46260.69
581.46	46141.32
581.62	46473.68
581.78	46429.21
581.94	46174.09
582.10	46066.42
582.26	46288.77
582.42	46349.63
582.58	46616.45
582.74	46185.79
582.90	46710.07
583.06	46473.68
583.22	46609.43
583.38	46394.10
583.54	46340.27
583.70	46241.96
583.86	46326.22
584.02	45928.33
584.18	46494.74
584.34	46380.06
584.50	46305.16
584.66	45750.45
584.82	46141.32
584.98	46150.68
585.14	46291.12
585.30	45993.87
585.46	46251.33
585.62	46089.83
585.78	45923.65
585.94	45935.35
586.10	46396.44
586.26	45933.01
586.42	46328.56
586.58	46415.16
586.74	46557.94
586.90	46150.68
587.06	46241.96
587.22	46745.18
587.38	45750.45
587.54	46621.13
587.70	46368.35
587.86	46174.09
588.02	46506.44
588.18	46883.27
588.34	46618.79
588.49	46003.23
588.65	45282.34
588.81	45743.43
588.97	45570.23
589.13	45776.20
589.29	46227.92
589.45	45970.46
589.61	46354.31
589.77	46450.27
589.93	46539.21
