SpectraSuite Data File
++++++++++++++++++++++++++++++++++++
Date: Fri Oct 25 11:26:17 EDT 2013
User: price-jones
Dark Spectrum Present: No
Reference Spectrum Present: No
Number of Sampled Component Spectra: 1
Spectrometers: USB2+H05261
Integration Time (usec): 100000 (USB2+H05261)
Spectra Averaged: 1 (USB2+H05261)
Boxcar Smoothing: 0 (USB2+H05261)
Correct for Electrical Dark: No (USB2+H05261)
Strobe/Lamp Enabled: No (USB2+H05261)
Correct for Detector Non-linearity: No (USB2+H05261)
Correct for Stray Light: No (USB2+H05261)
Number of Pixels in Processed Spectrum: 2048
>>>>>Begin Processed Spectral Data<<<<<
365.73	308.95
365.92	308.95
366.12	308.95
366.32	138.09
366.52	131.07
366.72	114.69
366.91	177.88
367.11	79.58
367.31	133.41
367.51	149.79
367.70	77.24
367.90	149.79
368.10	198.95
368.30	152.13
368.49	184.90
368.69	140.43
368.89	154.48
369.09	191.92
369.28	182.56
369.48	119.37
369.68	208.31
369.87	266.82
370.07	208.31
370.27	255.12
370.47	299.59
370.66	587.47
370.86	629.60
371.06	674.07
371.25	678.76
371.45	641.31
371.65	760.67
371.84	667.05
372.04	739.61
372.24	784.08
372.44	709.18
372.63	779.40
372.83	805.14
373.03	760.67
373.22	681.10
373.42	781.74
373.62	835.57
373.81	751.31
374.01	774.72
374.21	833.23
374.40	786.42
374.60	861.32
374.79	844.93
374.99	770.04
375.19	765.36
375.38	882.38
375.58	854.30
375.78	833.23
375.97	847.27
376.17	910.47
376.37	812.17
376.56	887.06
376.76	823.87
376.95	905.79
377.15	957.28
377.35	868.34
377.54	929.19
377.74	884.72
377.93	915.15
378.13	851.96
378.33	898.77
378.52	896.43
378.72	938.55
378.91	1001.75
379.11	971.32
379.31	954.94
379.50	908.13
379.70	954.94
379.89	966.64
380.09	980.68
380.28	1078.99
380.48	983.02
380.68	973.66
380.87	950.26
381.07	1039.20
381.26	1062.60
381.46	1057.92
381.65	1050.90
381.85	1027.50
382.04	1020.47
382.24	1062.60
382.43	1004.09
382.63	1015.79
382.83	1074.31
383.02	1074.31
383.22	1086.01
383.41	1071.97
383.61	1055.58
383.80	1078.99
384.00	1123.46
384.19	1188.99
384.39	1111.75
384.58	1156.22
384.78	1132.82
384.97	1170.27
385.17	1256.87
385.36	1174.95
385.56	1231.12
385.75	1181.97
385.95	1179.63
386.14	1205.38
386.34	1217.08
386.53	1193.67
386.72	1226.44
386.92	1308.36
387.11	1320.06
387.31	1261.55
387.50	1259.21
387.70	1235.80
387.89	1331.76
388.09	1336.45
388.28	1315.38
388.48	1280.27
388.67	1373.89
388.86	1317.72
389.06	1324.74
389.25	1249.85
389.45	1294.32
389.64	1399.64
389.84	1432.41
390.03	1376.24
390.22	1373.89
390.42	1404.32
390.61	1423.05
390.81	1366.87
391.00	1467.52
391.19	1392.62
391.39	1486.24
391.58	1481.56
391.78	1474.54
391.97	1509.65
392.16	1423.05
392.36	1465.18
392.55	1507.30
392.75	1575.18
392.94	1521.35
393.13	1523.69
393.33	1490.92
393.52	1584.54
393.71	1540.07
393.91	1584.54
394.10	1483.90
394.29	1694.55
394.49	1591.56
394.68	1558.80
394.88	1612.63
395.07	1600.93
395.26	1624.33
395.46	1579.86
395.65	1706.25
395.84	1652.42
396.04	1717.95
396.23	1703.91
396.42	1701.57
396.62	1830.30
396.81	1708.59
397.00	1839.66
397.19	1818.60
397.39	1797.53
397.58	1881.79
397.77	1802.21
397.97	1806.89
398.16	1846.68
398.35	1933.28
398.55	1851.36
398.74	1870.09
398.93	1996.48
399.12	1902.86
399.32	1856.04
399.51	1898.17
399.70	1987.11
399.90	2062.01
400.09	1998.82
400.28	2015.20
400.47	1982.43
400.67	2101.80
400.86	2019.88
401.05	2022.22
401.24	2050.31
401.44	2221.17
401.63	2160.31
401.82	2111.16
402.01	2129.89
402.21	2099.46
402.40	2282.02
402.59	2167.34
402.78	2279.68
402.97	2253.94
403.17	2249.25
403.36	2314.79
403.55	2293.72
403.74	2321.81
403.93	2188.40
404.13	2317.13
404.32	2417.77
404.51	2298.41
404.70	2338.20
404.89	2478.63
405.09	2518.42
405.28	2300.75
405.47	2394.37
405.66	2532.46
405.85	2523.10
406.05	2502.03
406.24	2478.63
406.43	2471.61
406.62	2644.81
406.81	2630.76
407.00	2621.40
407.20	2654.17
407.39	2523.10
407.58	2560.55
407.77	2698.64
407.96	2654.17
408.15	2747.79
408.34	2665.87
408.54	2747.79
408.73	2836.73
408.92	2857.79
409.11	2764.17
409.30	2925.67
409.49	2897.58
409.68	2883.54
409.87	3009.93
410.07	2981.84
410.26	3026.31
410.45	3014.61
410.64	2963.12
410.83	3009.93
411.02	3164.40
411.21	3126.96
411.40	3089.51
411.59	3208.87
411.78	3152.70
411.98	3194.83
412.17	3393.78
412.36	3428.88
412.55	3201.85
412.74	3337.60
412.93	3382.07
413.12	3459.31
413.31	3522.51
413.50	3466.33
413.69	3463.99
413.88	3534.21
414.07	3637.19
414.26	3653.58
414.45	3660.60
414.64	3712.09
414.83	3637.19
415.02	3880.61
415.22	3812.73
415.41	3770.60
415.60	3871.25
415.79	3798.69
415.98	3894.65
416.17	4030.40
416.36	3974.23
416.55	4091.26
416.74	3978.91
416.93	4058.49
417.12	4208.28
417.31	4011.68
417.50	4131.05
417.69	4346.37
417.88	4238.71
418.07	4170.83
418.26	4227.01
418.45	4294.88
418.64	4383.82
418.83	4257.43
419.02	4404.89
419.21	4449.36
419.39	4472.76
419.58	4477.44
419.77	4531.28
419.96	4435.32
420.15	4650.64
420.34	4552.34
420.53	4702.14
420.72	4638.94
420.91	4519.57
421.10	4865.97
421.29	4613.20
421.48	4681.07
421.67	4795.76
421.86	4786.40
422.05	4830.87
422.24	4767.67
422.43	4863.63
422.61	4938.53
422.80	4896.40
422.99	4912.78
423.18	4812.14
423.37	4929.17
423.56	4795.76
423.75	4898.74
423.94	4755.97
424.13	4493.83
424.32	4641.28
424.50	4961.94
424.69	5130.45
424.88	5095.35
425.07	4912.78
425.26	5006.41
425.45	4882.36
425.64	4973.64
425.83	5032.15
426.01	5160.88
426.20	5041.51
426.39	4954.91
426.58	5029.81
426.77	5076.62
426.96	5128.11
427.15	5144.50
427.33	5212.37
427.52	5137.48
427.71	5434.72
427.90	5130.45
428.09	5144.50
428.28	5441.75
428.46	5277.91
428.65	5338.76
428.84	5533.03
429.03	5516.64
429.22	5207.69
429.40	5472.17
429.59	5416.00
429.78	5256.84
429.97	5247.48
430.16	5423.02
430.34	5394.93
430.53	5582.18
430.72	5703.89
430.91	5586.86
431.10	5617.29
431.28	5823.25
431.47	5874.74
431.66	5760.06
431.85	5757.72
432.03	5902.83
432.22	6010.50
432.41	5891.13
432.60	5839.64
432.79	5926.24
432.97	5959.00
433.16	6010.50
433.35	5844.32
433.54	6073.69
433.72	6066.67
433.91	5928.58
434.10	6038.58
434.28	6122.84
434.47	6078.37
434.66	6183.70
434.85	6277.32
435.03	6263.27
435.22	6125.18
435.41	6462.22
435.59	6368.60
435.78	6569.88
435.97	6562.86
436.16	6342.85
436.34	6291.36
436.53	6607.33
436.72	6600.31
436.90	6555.84
437.09	6483.28
437.28	6579.25
437.46	6544.14
437.65	6626.06
437.84	6579.25
438.02	6766.49
438.21	6747.76
438.40	6768.83
438.58	6902.24
438.77	6904.58
438.96	6832.02
439.14	7096.50
439.33	7140.97
439.52	7194.81
439.70	7232.26
439.89	7353.96
440.08	7253.32
440.26	7342.26
440.45	7279.07
440.63	7300.13
440.82	7730.79
441.01	7379.71
441.19	7639.51
441.38	7634.83
441.57	7740.15
441.75	7744.83
441.94	7978.89
442.12	8067.83
442.31	8079.53
442.50	8056.12
442.68	8058.46
442.87	7927.39
443.05	8063.15
443.24	8112.30
443.43	8079.53
443.61	8159.11
443.80	8402.52
443.98	7894.63
444.17	7789.30
444.35	8273.79
444.54	8365.07
444.73	8306.56
444.91	8177.83
445.10	8301.88
445.28	8259.75
445.47	8154.43
445.65	8121.66
445.84	8304.22
446.02	8346.35
446.21	8458.70
446.39	8306.56
446.58	8510.19
446.77	8498.49
446.95	8290.18
447.14	8367.42
447.32	8477.42
447.51	8402.52
447.69	8519.55
447.88	8517.21
448.06	8706.79
448.25	8519.55
448.43	8526.57
448.62	8608.49
448.80	8519.55
448.99	8571.04
449.17	8667.00
449.36	8575.72
449.54	8767.65
449.73	8924.46
449.91	8945.53
450.10	9006.38
450.28	8912.76
450.46	9158.52
450.65	8954.89
450.83	9114.05
451.02	8805.10
451.20	9081.28
451.39	9027.45
451.57	9116.39
451.76	9102.34
451.94	9128.09
452.13	9104.68
452.31	9195.96
452.49	9048.51
452.68	9387.89
452.86	9385.55
453.05	9359.80
453.23	9427.68
453.42	9310.65
453.60	9284.91
453.78	9617.26
453.97	9338.74
454.15	9645.35
454.34	9451.08
454.52	9710.88
454.70	9673.43
454.89	9444.06
455.07	9762.37
455.26	9837.27
455.44	9886.42
455.62	9619.60
455.81	9916.85
455.99	10092.39
456.17	9919.19
456.36	9998.77
456.54	10090.05
456.73	10169.63
456.91	10480.92
457.09	10286.65
457.28	10471.56
457.46	10235.16
457.64	10518.37
457.83	10410.70
458.01	10380.28
458.19	10665.82
458.38	10342.83
458.56	10640.08
458.74	10705.61
458.93	10626.03
459.11	10649.44
459.29	10649.44
459.48	10815.62
459.66	10602.63
459.84	10810.93
460.03	11007.54
460.21	10906.90
460.39	10867.11
460.57	11000.52
460.76	11164.36
460.94	11304.79
461.12	11035.63
461.31	11297.77
461.49	11063.71
461.67	11061.37
461.85	11449.90
462.04	11087.12
462.22	11740.13
462.40	11719.06
462.59	11447.56
462.77	11627.78
462.95	11440.54
463.13	11573.95
463.32	11433.52
463.50	11562.25
463.68	11742.47
463.86	11728.42
464.05	11562.25
464.23	11592.67
464.41	11770.55
464.59	11616.08
464.78	11992.90
464.96	11815.02
465.14	11903.96
465.32	11822.05
465.50	12039.72
465.69	12142.70
465.87	12098.23
466.05	12287.81
466.23	11964.82
466.41	12152.06
466.60	12629.53
466.78	12037.38
466.96	12196.53
467.14	12180.15
467.32	12168.45
467.51	12449.31
467.69	12009.29
467.87	12456.33
468.05	12465.69
468.23	12140.36
468.41	12334.62
468.60	12500.80
468.78	12669.32
468.96	12229.30
469.14	12901.03
469.32	12603.78
469.50	12575.70
469.69	12945.50
469.87	13184.24
470.05	13048.49
470.23	12971.25
470.41	13343.39
470.59	13186.58
470.77	13287.22
470.95	13060.19
471.14	13621.92
471.32	13062.53
471.50	13715.54
471.68	13469.78
471.86	13734.26
472.04	13628.94
472.22	13963.64
472.40	13575.11
472.58	13832.57
472.77	13919.17
472.95	14225.78
473.13	14483.24
473.31	13998.74
473.49	14162.58
473.67	14246.84
473.85	14352.16
474.03	14436.42
474.21	14628.35
474.39	14602.60
474.57	14672.82
474.75	14846.02
474.93	14963.04
475.12	14794.53
475.30	14850.70
475.48	15232.21
475.66	15197.10
475.84	15082.41
476.02	15232.21
476.20	15410.09
476.38	15772.87
476.56	16065.44
476.74	15922.66
476.92	15896.92
477.10	15779.89
477.28	16072.46
477.46	16322.90
477.64	16276.09
477.82	16271.40
478.00	16814.41
478.18	16690.36
478.36	17067.19
478.54	16999.31
478.72	17015.69
478.90	17518.91
479.08	17549.34
479.26	17743.60
479.44	17579.76
479.62	17879.35
479.80	17898.08
479.98	18111.07
480.16	18508.96
480.34	18209.37
480.52	18572.15
480.70	18260.86
480.88	18118.09
481.06	18766.42
481.24	18787.48
481.41	19066.00
481.59	19342.19
481.77	18974.72
481.95	19566.88
482.13	19438.15
482.31	19653.48
482.49	20093.50
482.67	20102.86
482.85	20428.20
483.03	20264.36
483.21	20582.67
483.39	20840.13
483.57	20870.56
483.74	21106.95
483.92	21090.57
484.10	20886.94
484.28	21766.98
484.46	22101.68
484.64	22169.55
484.82	21727.19
485.00	22171.89
485.18	22476.16
485.35	22902.14
485.53	22581.49
485.71	22750.01
485.89	23175.98
486.07	23047.26
486.25	22855.33
486.43	23138.54
486.61	23662.82
486.78	23908.57
486.96	23711.97
487.14	24528.81
487.32	24397.74
487.50	24573.28
487.68	25053.09
487.85	25209.91
488.03	25357.36
488.21	25638.23
488.39	25678.02
488.57	25631.21
488.75	26150.81
488.92	26597.85
489.10	26637.64
489.28	26459.76
489.46	26965.31
489.64	26859.99
489.81	27257.88
489.99	27395.97
490.17	27784.50
490.35	27803.22
490.53	27995.15
490.70	28343.89
490.88	27948.34
491.06	28676.24
491.24	28886.89
491.41	28959.45
491.59	29181.80
491.77	29006.26
491.95	29497.77
492.13	29467.34
492.30	29804.38
492.48	29663.95
492.66	30054.82
492.84	30302.92
493.01	30202.27
493.19	30480.80
493.37	30675.06
493.54	31101.04
493.72	31339.77
493.90	31309.35
494.08	31510.63
494.25	31960.02
494.43	32027.89
494.61	31978.74
494.79	32158.96
494.96	32421.10
495.14	32465.57
495.32	32884.53
495.49	32964.10
495.67	33338.59
495.85	33277.74
496.02	33502.43
496.20	33427.53
496.38	33797.34
496.55	33919.04
496.73	34424.60
496.91	34202.25
497.09	34726.53
497.26	34717.17
497.44	34710.14
497.62	35044.84
497.79	35632.32
497.97	35660.40
498.14	35309.32
498.32	36245.54
498.50	35573.80
498.67	36297.03
498.85	36924.29
499.03	36734.71
499.20	36444.48
499.38	36605.98
499.56	36755.77
499.73	36933.65
499.91	37294.10
500.08	37390.06
500.26	37422.83
500.44	37338.57
500.61	37649.86
500.79	37591.34
500.97	37909.66
501.14	38078.18
501.32	38064.13
501.49	38572.03
501.67	38480.75
501.84	38476.07
502.02	38581.39
502.20	38494.79
502.37	39573.78
502.55	38780.34
502.72	39145.46
502.90	39512.92
503.07	39365.47
503.25	39168.87
503.43	39695.49
503.60	39555.05
503.78	39906.13
503.95	40713.62
504.13	39948.26
504.30	40601.27
504.48	40463.18
504.65	40142.53
504.83	40650.42
505.01	41242.58
505.18	40832.99
505.36	41401.74
505.53	41268.33
505.71	41354.93
505.88	41235.56
506.06	41546.85
506.23	41904.95
506.41	41617.07
506.58	42237.31
506.76	41635.79
506.93	42700.73
507.11	41977.51
507.28	42258.37
507.46	42665.63
507.63	42986.28
507.81	43065.86
507.98	42817.76
508.16	42644.56
508.33	43182.88
508.50	43119.69
508.68	43026.07
508.85	43501.20
509.03	43688.44
509.20	43803.13
509.38	43873.34
509.55	43903.77
509.73	43983.35
509.90	43653.33
510.08	44699.55
510.25	44491.24
510.42	44343.79
510.60	44891.48
510.77	45165.32
510.95	45399.37
511.12	44830.62
511.30	44884.45
511.47	45022.54
511.64	45319.79
511.82	45705.98
511.99	46036.00
512.17	45748.11
512.34	45453.20
512.51	46089.83
512.69	45787.90
512.86	45848.75
513.04	46752.20
513.21	46176.43
513.38	46272.39
513.56	46232.60
513.73	46571.98
513.90	46541.55
514.08	46302.82
514.25	47075.19
514.43	47337.33
514.60	47159.45
514.77	47292.86
514.95	47372.44
515.12	47021.36
515.29	47318.61
515.47	47550.32
515.64	47887.36
515.81	47475.43
515.99	47988.00
516.16	48041.84
516.33	48184.61
516.51	48280.57
516.68	48341.42
516.85	48360.15
517.03	49212.10
517.20	48633.99
517.37	48421.00
517.54	48849.32
517.72	48676.12
517.89	49457.86
518.06	48418.66
518.24	49179.34
518.41	49113.80
518.58	49247.21
518.75	49055.29
518.93	49570.21
519.10	49397.01
519.27	49497.65
519.45	49518.71
519.62	49649.78
519.79	49846.39
519.96	49794.90
520.14	50183.43
520.31	49968.10
520.48	49932.99
520.65	50197.47
520.83	50291.09
521.00	50178.75
521.17	50312.16
521.34	50377.69
521.52	50761.54
521.69	50602.38
521.86	50454.93
522.03	51112.62
522.20	51084.53
522.38	51171.13
522.55	51215.60
522.72	50798.99
522.89	51239.01
523.07	51508.17
523.24	51222.62
523.41	51435.61
523.58	51182.84
523.75	51529.23
523.92	51770.31
524.10	51693.07
524.27	51908.40
524.44	51924.78
524.61	51789.03
524.78	51992.66
524.96	51711.80
525.13	51526.89
525.30	52212.67
525.47	52154.16
525.64	52432.68
525.81	52601.20
525.98	52196.29
526.16	52357.78
526.33	52439.70
526.50	52673.76
526.67	52566.09
526.84	52825.89
527.01	52629.29
527.18	52992.07
527.36	52746.31
527.53	52940.58
527.70	52891.43
527.87	52837.59
528.04	53097.39
528.21	53066.97
528.38	53076.33
528.55	53394.64
528.72	53183.99
528.89	53511.67
529.07	53059.94
529.24	53195.70
529.41	53523.37
529.58	53628.69
529.75	53396.98
529.92	53549.12
530.09	53638.06
530.26	53691.89
530.43	53893.18
530.60	53624.01
530.77	54003.18
530.94	53916.58
531.11	53694.23
531.28	53532.73
531.46	53970.41
531.63	54017.22
531.80	54049.99
531.97	54248.94
532.14	54164.68
532.31	54024.25
532.48	54096.80
532.65	54384.69
532.82	54394.05
532.99	54588.31
533.16	54361.28
533.33	54602.36
533.50	54908.97
533.67	54703.00
533.84	54550.87
534.01	54665.55
534.18	54777.90
534.35	55035.36
534.52	55192.17
534.69	54948.76
534.86	55061.10
535.03	54700.66
535.20	55044.72
535.37	55199.19
535.54	55058.76
535.71	55248.35
535.88	55271.75
536.05	55402.82
536.22	55388.78
536.38	55353.67
536.55	55346.65
536.72	55597.09
536.89	55119.62
537.06	55451.97
537.23	55393.46
537.40	55377.08
537.57	55664.96
537.74	55671.98
537.91	56074.55
538.08	55681.34
538.25	55664.96
538.42	55936.46
538.59	55976.25
538.75	55877.95
538.92	56069.87
539.09	55854.54
539.26	56025.40
539.43	56189.24
539.60	56048.81
539.77	56039.45
539.94	56266.48
540.11	56254.78
540.28	56233.71
540.44	56416.27
540.61	56339.04
540.78	56020.72
540.95	56378.82
541.12	56364.78
541.29	56292.22
541.46	56470.11
541.62	56762.67
541.79	56678.41
541.96	56261.80
542.13	56392.87
542.30	56701.82
542.47	56931.19
542.63	56563.73
542.80	56783.74
542.97	56996.73
543.14	57176.95
543.31	57190.99
543.48	56999.07
543.64	57296.31
543.81	57235.46
543.98	57001.41
544.15	57104.39
544.32	57301.00
544.48	57490.58
544.65	57233.12
544.82	57509.30
544.99	57125.46
545.16	57247.16
545.32	57347.81
545.49	57450.79
545.66	57628.67
545.83	57338.44
546.00	57820.59
546.16	57495.26
546.33	57584.20
546.50	57228.44
546.67	57670.80
546.83	57251.84
547.00	57542.07
547.17	57478.88
547.34	57640.37
547.50	57808.89
547.67	57881.45
547.84	57874.43
548.00	58073.37
548.17	58028.90
548.34	57911.88
548.51	58103.80
548.67	58045.29
548.84	58026.56
549.01	57834.64
549.18	57942.30
549.34	58096.78
549.51	58211.46
549.68	58202.10
549.84	58328.49
550.01	58403.39
550.18	58110.82
550.34	58211.46
550.51	58223.17
550.68	58199.76
550.84	58127.20
551.01	58288.70
551.18	58305.09
551.34	58433.81
551.51	58417.43
551.68	58351.90
551.84	58567.23
552.01	58497.01
552.18	58349.56
552.34	58171.67
552.51	58553.18
552.68	58375.30
552.84	58389.34
553.01	58864.47
553.18	58803.62
553.34	58913.62
553.51	58665.53
553.67	58747.45
553.84	58897.24
554.01	58770.85
554.17	58719.36
554.34	59110.23
554.51	58997.88
554.67	58848.09
554.84	58993.20
555.00	58915.96
555.17	58922.99
555.33	59054.06
555.50	58822.34
555.67	58890.22
555.83	58866.81
556.00	59051.72
556.16	59065.76
556.33	59140.66
556.50	59182.79
556.66	59199.17
556.83	58812.98
556.99	59271.73
557.16	59372.37
557.32	59363.01
557.49	59358.33
557.65	59126.61
557.82	59388.75
557.98	59192.15
558.15	59274.07
558.32	59334.92
558.48	59292.79
558.65	59365.35
558.81	59412.16
558.98	59199.17
559.14	59487.06
559.31	59503.44
559.47	59540.89
559.64	59316.20
559.80	59744.51
559.97	59622.81
560.13	59489.40
560.30	59634.51
560.46	59526.84
560.63	59718.77
560.79	59470.67
560.96	59938.78
561.12	59821.75
561.29	59681.32
561.45	59611.10
561.61	59571.32
561.78	59597.06
561.94	59714.09
562.11	59482.37
562.27	59831.11
562.44	59866.22
562.60	59868.56
562.77	59868.56
562.93	59716.43
563.10	60149.43
563.26	59657.91
563.42	59962.18
563.59	60055.81
563.75	59753.88
563.92	60072.19
564.08	59924.74
564.24	59959.84
564.41	59948.14
564.57	60032.40
564.74	59833.46
564.90	59873.24
565.07	59863.88
565.23	60212.62
565.39	59842.82
565.56	59969.21
565.72	60039.42
565.88	60179.85
566.05	59973.89
566.21	59973.89
566.38	60158.79
566.54	60144.75
566.70	60090.91
566.87	60451.36
567.03	60067.51
567.19	60381.14
567.36	60250.07
567.52	60011.34
567.68	60285.18
567.85	60336.67
568.01	60444.33
568.17	60104.96
568.34	60259.43
568.50	60294.54
568.66	60221.98
568.83	60313.26
568.99	60137.72
569.15	60329.65
569.32	60130.70
569.48	60371.78
569.64	60324.97
569.81	60259.43
569.97	60280.50
570.13	60409.23
570.30	60111.98
570.46	60308.58
570.62	60303.90
570.78	60458.38
570.95	60418.59
571.11	60528.59
571.27	60264.11
571.43	60360.08
571.60	60313.26
571.76	60317.95
571.92	60573.06
572.09	60629.24
572.25	60395.18
572.41	60200.92
572.57	60413.91
572.74	60622.22
572.90	60573.06
573.06	60554.34
573.22	60453.70
573.38	60416.25
573.55	60367.10
573.71	60654.98
573.87	60608.17
574.03	60378.80
574.20	60603.49
574.36	60704.13
574.52	60718.18
574.68	60701.79
574.84	60615.19
575.01	60907.76
575.17	60404.55
575.33	60367.10
575.49	60498.17
575.65	60704.13
575.82	60692.43
575.98	60734.56
576.14	60683.07
576.30	60729.88
576.46	60676.05
576.62	60608.17
576.79	60580.09
576.95	60437.31
577.11	60664.35
577.27	60659.66
577.43	60926.49
577.59	60650.30
577.75	60790.73
577.92	60884.36
578.08	60748.60
578.24	60521.57
578.40	60762.65
578.56	60687.75
578.72	60774.35
578.88	60753.29
579.04	60849.25
579.21	60664.35
579.37	60729.88
579.53	60657.32
579.69	60519.23
579.85	60603.49
580.01	60711.16
580.17	60678.39
580.33	60893.72
580.49	60800.10
580.65	60870.31
580.82	60645.62
580.98	60680.73
581.14	60654.98
581.30	61013.08
581.46	60811.80
581.62	60804.78
581.78	60654.98
581.94	60814.14
582.10	60633.92
582.26	60617.53
582.42	60701.79
582.58	60851.59
582.74	60800.10
582.90	60708.82
583.06	60647.96
583.22	60678.39
583.38	60949.89
583.54	60874.99
583.70	60935.85
583.86	60867.97
584.02	60760.31
584.18	61010.74
584.34	60750.94
584.50	60860.95
584.66	60727.54
584.82	60638.60
584.98	61029.47
585.14	60865.63
585.30	60610.51
585.46	60912.44
585.62	60839.89
585.78	61118.41
585.94	60680.73
586.10	60926.49
586.26	60884.36
586.42	60933.51
586.58	60856.27
586.74	61024.79
586.90	60650.30
587.06	60949.89
587.22	60994.36
587.38	61027.13
587.54	60896.06
587.70	61052.87
587.86	60818.82
588.02	60985.00
588.18	61036.49
588.34	60994.36
588.49	60896.06
