SpectraSuite Data File
++++++++++++++++++++++++++++++++++++
Date: Fri Oct 25 11:26:40 EDT 2013
User: price-jones
Dark Spectrum Present: No
Reference Spectrum Present: No
Number of Sampled Component Spectra: 1
Spectrometers: USB2+H05261
Integration Time (usec): 100000 (USB2+H05261)
Spectra Averaged: 1 (USB2+H05261)
Boxcar Smoothing: 0 (USB2+H05261)
Correct for Electrical Dark: No (USB2+H05261)
Strobe/Lamp Enabled: No (USB2+H05261)
Correct for Detector Non-linearity: No (USB2+H05261)
Correct for Stray Light: No (USB2+H05261)
Number of Pixels in Processed Spectrum: 2048
>>>>>Begin Processed Spectral Data<<<<<
365.73	238.73
365.92	238.73
366.12	238.73
366.32	187.24
366.52	121.71
366.72	217.67
366.91	152.13
367.11	149.79
367.31	140.43
367.51	91.28
367.70	149.79
367.90	163.84
368.10	100.64
368.30	121.71
368.49	142.77
368.69	128.73
368.89	149.79
369.09	145.11
369.28	194.26
369.48	184.90
369.68	159.16
369.87	224.69
370.07	224.69
370.27	215.33
370.47	332.36
370.66	585.13
370.86	636.63
371.06	636.63
371.25	699.82
371.45	655.35
371.65	723.23
371.84	755.99
372.04	748.97
372.24	767.70
372.44	753.65
372.63	765.36
372.83	770.04
373.03	802.80
373.22	770.04
373.42	842.59
373.62	800.46
373.81	814.51
374.01	866.00
374.21	795.78
374.40	784.08
374.60	870.68
374.79	823.87
374.99	889.40
375.19	823.87
375.38	898.77
375.58	819.19
375.78	938.55
375.97	880.04
376.17	924.51
376.37	868.34
376.56	957.28
376.76	887.06
376.95	915.15
377.15	903.45
377.35	1001.75
377.54	926.85
377.74	873.02
377.93	898.77
378.13	898.77
378.33	968.98
378.52	901.11
378.72	1039.20
378.91	947.92
379.11	873.02
379.31	903.45
379.50	952.60
379.70	889.40
379.89	994.73
380.09	1034.52
380.28	992.39
380.48	1039.20
380.68	1018.13
380.87	964.30
381.07	994.73
381.26	1100.05
381.46	1011.11
381.65	1036.86
381.85	1071.97
382.04	1057.92
382.24	1088.35
382.43	1149.20
382.63	1029.84
382.83	1121.12
383.02	1114.10
383.22	1039.20
383.41	1090.69
383.61	1102.39
383.80	1104.73
384.00	1125.80
384.19	1193.67
384.39	1235.80
384.58	1179.63
384.78	1130.48
384.97	1095.37
385.17	1151.54
385.36	1123.46
385.56	1174.95
385.75	1193.67
385.95	1259.21
386.14	1252.19
386.34	1268.57
386.53	1226.44
386.72	1238.14
386.92	1263.89
387.11	1322.40
387.31	1219.42
387.50	1270.91
387.70	1315.38
387.89	1327.08
388.09	1284.95
388.28	1287.29
388.48	1364.53
388.67	1343.47
388.86	1327.08
389.06	1352.83
389.25	1275.59
389.45	1357.51
389.64	1376.24
389.84	1369.21
390.03	1409.00
390.22	1462.83
390.42	1441.77
390.61	1327.08
390.81	1460.49
391.00	1481.56
391.19	1387.94
391.39	1397.30
391.58	1446.45
391.78	1465.18
391.97	1460.49
392.16	1493.26
392.36	1533.05
392.55	1537.73
392.75	1521.35
392.94	1570.50
393.13	1561.14
393.33	1671.14
393.52	1582.20
393.71	1687.53
393.91	1621.99
394.10	1465.18
394.29	1626.67
394.49	1657.10
394.68	1675.82
394.88	1589.22
395.07	1792.85
395.26	1645.40
395.46	1621.99
395.65	1694.55
395.84	1724.97
396.04	1806.89
396.23	1736.68
396.42	1736.68
396.62	1720.29
396.81	1820.94
397.00	1781.15
397.19	1816.26
397.39	1870.09
397.58	1912.22
397.77	1863.07
397.97	1930.94
398.16	1778.81
398.35	1830.30
398.55	1926.26
398.74	1954.35
398.93	2080.74
399.12	1998.82
399.32	1909.88
399.51	1905.20
399.70	1996.48
399.90	1982.43
400.09	2062.01
400.28	2054.99
400.47	1966.05
400.67	2106.48
400.86	2129.89
401.05	2108.82
401.24	2090.10
401.44	2045.63
401.63	2190.74
401.82	2087.76
402.01	2040.95
402.21	2258.62
402.40	2286.70
402.59	2225.85
402.78	2319.47
402.97	2207.13
403.17	2221.17
403.36	2275.00
403.55	2214.15
403.74	2413.09
403.93	2282.02
404.13	2380.32
404.32	2349.90
404.51	2443.52
404.70	2394.37
404.89	2427.14
405.09	2607.36
405.28	2492.67
405.47	2509.05
405.66	2457.56
405.85	2495.01
406.05	2562.89
406.24	2567.57
406.43	2567.57
406.62	2785.24
406.81	2717.36
407.00	2565.23
407.20	2588.63
407.39	2679.91
407.58	2665.87
407.77	2724.38
407.96	2768.85
408.15	2785.24
408.34	2759.49
408.54	2771.19
408.73	3014.61
408.92	2789.92
409.11	2930.35
409.30	3117.59
409.49	3030.99
409.68	2829.71
409.87	2778.22
410.07	2909.29
410.26	3021.63
410.45	2953.76
410.64	3040.36
410.83	3103.55
411.02	3084.83
411.21	3213.56
411.40	3197.17
411.59	3204.19
411.78	3206.53
411.98	3274.41
412.17	3290.79
412.36	3283.77
412.55	3204.19
412.74	3431.23
412.93	3492.08
413.12	3368.03
413.31	3534.21
413.50	3447.61
413.69	3543.57
413.88	3625.49
414.07	3639.53
414.26	3548.25
414.45	3655.92
414.64	3606.77
414.83	3768.26
415.02	3679.32
415.22	3887.63
415.41	3955.51
415.60	3840.82
415.79	3936.78
415.98	3988.27
416.17	4002.32
416.36	4007.00
416.55	4138.07
416.74	4051.47
416.93	3999.98
417.12	4074.87
417.31	4208.28
417.50	4250.41
417.69	4325.31
417.88	4327.65
418.07	4252.75
418.26	4339.35
418.45	4458.72
418.64	4423.61
418.83	4365.10
419.02	4388.50
419.21	4538.30
419.39	4606.17
419.58	4404.89
419.77	4425.95
419.96	4620.22
420.15	4765.33
420.34	4641.28
420.53	4631.92
420.72	4615.54
420.91	4641.28
421.10	4723.20
421.29	4873.00
421.48	4758.31
421.67	4821.50
421.86	4725.54
422.05	4802.78
422.24	4889.38
422.43	4915.12
422.61	4809.80
422.80	5067.26
422.99	4903.42
423.18	5074.28
423.37	4947.89
423.56	4968.96
423.75	4912.78
423.94	4844.91
424.13	4702.14
424.32	4795.76
424.50	5008.75
424.69	5170.24
424.88	4964.28
425.07	4950.23
425.26	4760.65
425.45	4990.02
425.64	4896.40
425.83	5132.79
426.01	5025.13
426.20	5186.63
426.39	5125.77
426.58	5004.07
426.77	5132.79
426.96	5142.16
427.15	5296.63
427.33	5219.39
427.52	5158.54
427.71	5324.72
427.90	5313.02
428.09	5324.72
428.28	5453.45
428.46	5268.55
428.65	5338.76
428.84	5605.58
429.03	5387.91
429.22	5289.61
429.40	5582.18
429.59	5636.01
429.78	5291.95
429.97	5268.55
430.16	5493.24
430.34	5703.89
430.53	5671.12
430.72	5568.13
430.91	5659.42
431.10	5610.26
431.28	5802.19
431.47	5860.70
431.66	5973.05
431.85	5916.87
432.03	5996.45
432.22	5926.24
432.41	5919.21
432.60	5881.77
432.79	6146.25
432.97	6120.50
433.16	6249.23
433.35	6125.18
433.54	6167.31
433.72	6188.38
433.91	6157.95
434.10	6150.93
434.28	6183.70
434.47	6253.91
434.66	6202.42
434.85	6352.21
435.03	6520.73
435.22	6455.20
435.41	6565.20
435.59	6448.18
435.78	6546.48
435.97	6593.29
436.16	6483.28
436.34	6445.84
436.53	6602.65
436.72	6827.34
436.90	6457.54
437.09	6689.25
437.28	6509.03
437.46	6808.62
437.65	6647.12
437.84	6780.53
438.02	6904.58
438.21	6925.65
438.40	6888.20
438.58	7061.40
438.77	6923.30
438.96	6963.09
439.14	7119.91
439.33	7262.68
439.52	7274.38
439.70	7300.13
439.89	7389.07
440.08	7513.12
440.26	7360.98
440.45	7342.26
440.63	7536.52
440.82	7733.13
441.01	7651.21
441.19	7747.17
441.38	7728.45
441.57	7936.76
441.75	7798.66
441.94	7985.91
442.12	8145.06
442.31	8135.70
442.50	8212.94
442.68	8079.53
442.87	8273.79
443.05	8131.02
443.24	8081.87
443.43	8292.52
443.61	8067.83
443.80	8533.59
443.98	8187.19
444.17	7967.18
444.35	8182.51
444.54	8456.36
444.73	8402.52
444.91	8215.28
445.10	8449.33
445.28	8416.57
445.47	8514.87
445.65	8393.16
445.84	8643.60
446.02	8461.04
446.21	8580.40
446.39	8545.30
446.58	8613.17
446.77	8613.17
446.95	8198.90
447.14	8400.18
447.32	8854.25
447.51	8540.61
447.69	8545.30
447.88	8585.08
448.06	8559.34
448.25	8585.08
448.43	8709.13
448.62	8564.02
448.80	8454.02
448.99	8814.46
449.17	8826.16
449.36	8606.15
449.54	9055.53
449.73	9043.83
449.91	9144.47
450.10	9036.81
450.28	9132.77
450.46	8994.68
450.65	9177.24
450.83	9097.66
451.02	8887.01
451.20	9177.24
451.39	9221.71
451.57	9254.48
451.76	9238.09
451.94	9312.99
452.13	9430.02
452.31	9432.36
452.49	9378.53
452.68	9406.61
452.86	9511.94
453.05	9490.87
453.23	9703.86
453.42	9486.19
453.60	9371.50
453.78	9568.11
453.97	9572.79
454.15	9486.19
454.34	9474.49
454.52	9736.63
454.70	9586.83
454.89	9783.44
455.07	9816.21
455.26	9816.21
455.44	10113.45
455.62	10040.90
455.81	9748.33
455.99	10036.22
456.17	10211.76
456.36	10019.83
456.54	10331.12
456.73	10260.91
456.91	10686.89
457.09	10406.02
457.28	10647.10
457.46	10382.62
457.64	10663.48
457.83	10562.84
458.01	10352.19
458.19	10848.38
458.38	10548.79
458.56	10754.76
458.74	10597.95
458.93	10883.49
459.11	10923.28
459.29	10731.36
459.48	10717.31
459.66	10609.65
459.84	11068.39
460.03	11166.70
460.21	11162.01
460.39	10834.34
460.57	10963.07
460.76	11126.91
460.94	11199.46
461.12	11243.93
461.31	11239.25
461.49	11166.70
461.67	11033.29
461.85	11709.70
462.04	11534.16
462.22	11545.86
462.40	11627.78
462.59	11662.89
462.77	11714.38
462.95	11740.13
463.13	11761.19
463.32	11665.23
463.50	12107.59
463.68	11707.36
463.86	11871.20
464.05	11997.59
464.23	11777.58
464.41	11988.22
464.59	11749.49
464.78	12372.07
464.96	12088.87
465.14	11997.59
465.32	12161.42
465.50	12236.32
465.69	12276.11
465.87	12170.79
466.05	12116.95
466.23	12126.32
466.41	12411.86
466.60	12585.06
466.78	12128.66
466.96	12524.21
467.14	12641.23
467.32	12493.78
467.51	12730.17
467.69	12346.33
467.87	12477.40
468.05	12561.66
468.23	12444.63
468.41	12512.50
468.60	12915.08
468.78	12620.17
468.96	12842.52
469.14	12720.81
469.32	13102.32
469.50	12566.34
469.69	13205.30
469.87	13214.66
470.05	13102.32
470.23	13500.21
470.41	13224.03
470.59	13460.42
470.77	13404.25
470.95	13549.36
471.14	13699.16
471.32	13294.24
471.50	13479.15
471.68	13497.87
471.86	13596.17
472.04	13879.38
472.22	13982.36
472.40	13657.03
472.58	13774.05
472.77	14150.88
472.95	14169.60
473.13	14743.03
473.31	14286.63
473.49	14532.39
473.67	14094.71
473.85	14544.09
474.03	14754.74
474.21	14712.61
474.39	14675.16
474.57	14927.94
474.75	15037.94
474.93	15068.37
475.12	15016.88
475.30	15344.55
475.48	15283.70
475.66	15199.44
475.84	15243.91
476.02	15379.66
476.20	15487.32
476.38	15749.46
476.56	16079.48
476.74	16163.74
476.92	15852.45
477.10	15925.00
477.28	16325.24
477.46	16056.08
477.64	16507.80
477.82	16664.61
478.00	16931.44
478.18	16924.41
478.36	16989.95
478.54	17139.74
478.72	17242.73
478.90	17376.14
479.08	17411.25
479.26	17715.51
479.44	17886.37
479.62	17909.78
479.80	18277.24
479.98	18202.35
480.16	18787.48
480.34	18326.39
480.52	18534.70
480.70	18902.17
480.88	18497.25
481.06	19243.88
481.24	18745.35
481.41	19138.56
481.59	19901.58
481.77	19367.93
481.95	19836.04
482.13	19676.88
482.31	19969.45
482.49	20610.76
482.67	20365.00
482.85	20617.78
483.03	20788.64
483.21	20943.11
483.39	20802.68
483.57	20966.52
483.74	21289.51
483.92	21427.60
484.10	21294.19
484.28	21727.19
484.46	22001.04
484.64	22520.63
484.82	22178.92
485.00	22515.95
485.18	22860.01
485.35	23206.41
485.53	23101.09
485.71	23325.78
485.89	23821.97
486.07	23506.00
486.25	23454.51
486.43	23796.23
486.61	24269.01
486.78	23910.91
486.96	24201.14
487.14	24821.38
487.32	24774.57
487.50	25034.37
487.68	25322.26
487.85	25355.02
488.03	25731.85
488.21	26162.51
488.39	25776.32
488.57	26052.50
488.75	26307.62
488.92	26684.45
489.10	26515.93
489.28	26773.39
489.46	27552.79
489.64	27152.55
489.81	27843.01
489.99	27555.13
490.17	27751.73
490.35	28311.12
490.53	28070.04
490.70	28709.01
490.88	28437.51
491.06	29102.22
491.24	29172.44
491.41	29322.23
491.59	29340.96
491.77	29069.45
491.95	29551.60
492.13	29940.13
492.30	30314.62
492.48	30031.41
492.66	30675.06
492.84	30017.37
493.01	30986.35
493.19	30775.70
493.37	31332.75
493.54	31386.58
493.72	31885.12
493.90	31484.89
494.08	32187.05
494.25	32133.21
494.43	31688.51
494.61	32425.78
494.79	32687.92
494.96	33006.23
495.14	32905.59
495.32	33387.74
495.49	33710.74
495.67	33046.02
495.85	33701.37
496.02	33771.59
496.20	34368.43
496.38	34323.96
496.55	34403.53
496.73	35372.52
496.91	34632.91
497.09	34864.62
497.26	35189.95
497.44	35070.59
497.62	35414.65
497.79	35849.99
497.97	35723.60
498.14	35985.74
498.32	36315.75
498.50	36257.24
498.67	36807.26
498.85	36861.10
499.03	36818.97
499.20	36680.88
499.38	36865.78
499.56	37209.84
499.73	37296.44
499.91	37879.23
500.08	38087.54
500.26	37844.12
500.44	38143.71
500.61	37942.42
500.79	37860.51
500.97	38284.14
501.14	38335.63
501.32	38504.15
501.49	39110.35
501.67	39047.16
501.84	38916.09
502.02	39199.29
502.20	39571.44
502.37	39510.58
502.55	39440.37
502.72	39526.97
502.90	39789.11
503.07	40147.21
503.25	40081.67
503.43	39639.31
503.60	40247.85
503.78	40142.53
503.95	40680.85
504.13	40552.12
504.30	41109.17
504.48	40456.16
504.65	41074.06
504.83	41258.96
505.01	41415.78
505.18	41621.75
505.36	41991.55
505.53	41209.81
505.71	42043.04
505.88	41989.21
506.06	41860.48
506.23	42185.82
506.41	42279.44
506.58	42377.74
506.76	42160.07
506.93	43299.91
507.11	42419.87
507.28	42777.97
507.46	42904.36
507.63	42976.92
507.81	43746.95
507.98	43150.12
508.16	43548.01
508.33	43529.28
508.50	43533.96
508.68	44009.09
508.85	44062.93
509.03	43700.14
509.20	44172.93
509.38	44376.56
509.55	44779.13
509.73	44765.09
509.90	44652.74
510.08	44697.21
510.25	45193.40
510.42	45174.68
510.60	45272.98
510.77	45525.76
510.95	45715.34
511.12	45380.65
511.30	45392.35
511.47	45698.96
511.64	45794.92
511.82	46246.65
511.99	46033.66
512.17	46256.01
512.34	46096.85
512.51	46560.28
512.69	46281.75
512.86	46768.58
513.04	47143.07
513.21	46967.53
513.38	46920.72
513.56	47255.42
513.73	47079.88
513.90	47114.98
514.08	47304.57
514.25	47470.75
514.43	47753.95
514.60	47578.41
514.77	47777.36
514.95	47990.34
515.12	47966.94
515.29	47753.95
515.47	48074.60
515.64	48577.82
515.81	47676.71
515.99	48619.95
516.16	48271.21
516.33	48657.40
516.51	48760.38
516.68	48758.04
516.85	48917.20
517.03	49279.98
517.20	49036.56
517.37	48744.00
517.54	49191.04
517.72	49282.32
517.89	49420.41
518.06	49717.66
518.24	48928.90
518.41	49439.14
518.58	49432.11
518.75	49605.31
518.93	49986.82
519.10	49588.93
519.27	49804.26
519.45	49818.30
519.62	50440.89
519.79	50143.64
519.96	50328.54
520.14	50611.74
520.31	50344.92
520.48	50426.84
520.65	50490.04
520.83	50801.33
521.00	50742.81
521.17	50848.14
521.34	50700.68
521.52	50845.80
521.69	51047.08
521.86	51028.36
522.03	51199.22
522.20	51873.29
522.38	51877.97
522.55	51674.35
522.72	51295.18
522.89	51674.35
523.07	51885.00
523.24	51517.53
523.41	51648.60
523.58	51414.55
523.75	51779.67
523.92	51931.81
524.10	52079.26
524.27	52079.26
524.44	51929.47
524.61	52308.63
524.78	52130.75
524.96	52411.62
525.13	52392.89
525.30	52659.71
525.47	52818.87
525.64	52671.42
525.81	52739.29
525.98	52963.98
526.16	52739.29
526.33	52928.87
526.50	53298.68
526.67	53071.65
526.84	53069.31
527.01	52949.94
527.18	53205.06
527.36	53183.99
527.53	52818.87
527.70	53930.62
527.87	53474.22
528.04	53354.85
528.21	53659.12
528.38	53708.27
528.55	53839.34
528.72	53785.51
528.89	53350.17
529.07	53652.10
529.24	53382.94
529.41	53785.51
529.58	53890.83
529.75	53858.07
529.92	53872.11
530.09	54078.08
530.26	54232.55
530.43	54181.06
530.60	54141.27
530.77	53876.79
530.94	54417.46
531.11	54171.70
531.28	54312.13
531.46	54312.13
531.63	54293.41
531.80	54607.04
531.97	54468.95
532.14	54927.69
532.31	54539.16
532.48	54703.00
532.65	54878.54
532.82	54761.51
532.99	54972.16
533.16	55021.31
533.33	55107.91
533.50	55215.58
533.67	55150.04
533.84	54894.92
534.01	54951.10
534.18	55035.36
534.35	55271.75
534.52	54918.33
534.69	55377.08
534.86	55332.60
535.03	55208.56
535.20	55327.92
535.37	55498.78
535.54	55585.38
535.71	55262.39
535.88	55622.83
536.05	55601.77
536.22	55833.48
536.38	55545.59
536.55	55845.18
536.72	55767.94
536.89	55543.25
537.06	55611.13
537.23	55781.99
537.40	55767.94
537.57	55831.14
537.74	55784.33
537.91	55863.91
538.08	56023.06
538.25	55828.80
538.42	56301.59
538.59	56268.82
538.75	55913.06
538.92	56243.07
539.09	56296.91
539.26	56226.69
539.43	56488.83
539.60	56477.13
539.77	56203.28
539.94	56645.65
540.11	56474.79
540.28	56568.41
540.44	56727.56
540.61	56348.40
540.78	56598.83
540.95	56830.55
541.12	56451.38
541.29	56500.53
541.46	56818.84
541.62	56713.52
541.79	56879.70
541.96	56507.55
542.13	56704.16
542.30	56720.54
542.47	57106.73
542.63	57097.37
542.80	56959.28
542.97	57134.82
543.14	57389.94
543.31	57443.77
543.48	57411.00
543.64	57715.27
543.81	57502.28
543.98	57563.14
544.15	57413.34
544.32	57628.67
544.48	57804.21
544.65	57455.47
544.82	57586.54
544.99	57457.81
545.16	57661.44
545.32	57619.31
545.49	57598.24
545.66	57799.53
545.83	57832.30
546.00	57794.85
546.16	57684.84
546.33	57696.55
546.50	57680.16
546.67	57932.94
546.83	57745.70
547.00	57818.25
547.17	57659.10
547.34	57797.19
547.50	58108.48
547.67	58122.52
547.84	58089.76
548.00	58230.19
548.17	58340.19
548.34	58499.35
548.51	58351.90
548.67	58429.13
548.84	58279.34
549.01	58188.06
549.18	58209.12
549.34	58443.18
549.51	58398.71
549.68	58499.35
549.84	58417.43
550.01	58684.25
550.18	58412.75
550.34	58412.75
550.51	58583.61
550.68	58539.14
550.84	58382.32
551.01	58754.47
551.18	58468.92
551.34	58536.80
551.51	58731.06
551.68	58513.39
551.84	58894.90
552.01	58672.55
552.18	58742.77
552.34	58623.40
552.51	58857.45
552.68	58555.52
552.84	58852.77
553.01	59140.66
553.18	58876.18
553.34	58990.86
553.51	59093.85
553.67	58883.20
553.84	58878.52
554.01	59054.06
554.17	58906.60
554.34	59260.02
554.51	59007.25
554.67	59311.52
554.84	59166.40
555.00	59030.65
555.17	59297.47
555.33	59302.15
555.50	59157.04
555.67	59316.20
555.83	59037.67
556.00	59175.76
556.16	59414.50
556.33	59444.93
556.50	59325.56
556.66	59522.16
556.83	59306.83
556.99	59334.92
557.16	59786.64
557.32	59564.29
557.49	59676.64
557.65	59360.67
557.82	59327.90
557.98	59620.47
558.15	59580.68
558.32	59814.73
558.48	59449.61
558.65	59543.23
558.81	59831.11
558.98	59501.10
559.14	59625.15
559.31	59723.45
559.47	59660.26
559.64	59917.71
559.80	60011.34
559.97	59943.46
560.13	59856.86
560.30	59763.24
560.46	60016.02
560.63	59845.16
560.79	59964.52
560.96	59805.37
561.12	59882.61
561.29	60016.02
561.45	59873.24
561.61	59959.84
561.78	60013.68
561.94	59952.82
562.11	59959.84
562.27	59774.94
562.44	60177.51
562.60	60135.38
562.77	60123.68
562.93	59826.43
563.10	60067.51
563.26	60116.66
563.42	60392.84
563.59	60151.77
563.75	60111.98
563.92	60032.40
564.08	60315.61
564.24	60315.61
564.41	60254.75
564.57	60229.01
564.74	60381.14
564.90	60219.64
565.07	60353.05
565.23	60360.08
565.39	60238.37
565.56	60331.99
565.72	60039.42
565.88	60339.01
566.05	60266.45
566.21	60364.76
566.38	60418.59
566.54	60474.76
566.70	60472.42
566.87	60519.23
567.03	60392.84
567.19	60626.90
567.36	60451.36
567.52	60420.93
567.68	60594.13
567.85	60559.02
568.01	60434.97
568.17	60542.64
568.34	60526.25
568.50	60350.71
568.66	60507.53
568.83	60491.15
568.99	60334.33
569.15	60846.91
569.32	60315.61
569.48	60210.28
569.64	60430.29
569.81	60650.30
569.97	60523.91
570.13	60554.34
570.30	60617.53
570.46	60526.25
570.62	60750.94
570.78	60596.47
570.95	60577.75
571.11	60739.24
571.27	60575.40
571.43	60549.66
571.60	60704.13
571.76	60736.90
571.92	60715.84
572.09	60580.09
572.25	60734.56
572.41	60573.06
572.57	60561.36
572.74	60945.21
572.90	60622.22
573.06	60662.00
573.22	60622.22
573.38	60800.10
573.55	60917.12
573.71	60914.78
573.87	60842.23
574.03	60626.90
574.20	60662.00
574.36	60638.60
574.52	60870.31
574.68	60739.24
574.84	60985.00
575.01	60874.99
575.17	60575.40
575.33	60769.67
575.49	60818.82
575.65	60917.12
575.82	60996.70
575.98	60917.12
576.14	61172.24
576.30	60823.50
576.46	60690.09
576.62	60786.05
576.79	60832.86
576.95	60697.11
577.11	61062.24
577.27	60992.02
577.43	60928.83
577.59	60746.26
577.75	60683.07
577.92	60591.79
578.08	60786.05
578.24	60959.25
578.40	61104.37
578.56	61006.06
578.72	61006.06
578.88	61111.39
579.04	60966.27
579.21	61158.20
579.37	61336.08
579.53	61134.79
579.69	60849.25
579.85	60921.80
580.01	60713.50
580.17	60722.86
580.33	61104.37
580.49	61071.60
580.65	61013.08
580.82	61099.68
580.98	61111.39
581.14	60870.31
581.30	60985.00
581.46	60977.98
581.62	60891.38
581.78	60830.52
581.94	61029.47
582.10	60987.34
582.26	61169.90
582.42	60790.73
582.58	60954.57
582.74	60830.52
582.90	60853.93
583.06	61116.07
583.22	60999.04
583.38	61193.31
583.54	60992.02
583.70	61221.39
583.86	61015.43
584.02	61031.81
584.18	61392.25
584.34	60935.85
584.50	61141.81
584.66	61197.99
584.82	60959.25
584.98	61481.19
585.14	61022.45
585.30	61092.66
585.46	61116.07
585.62	60919.46
585.78	61368.85
585.94	60940.53
586.10	61085.64
586.26	61116.07
586.42	61275.22
586.58	61256.50
586.74	61041.17
586.90	61174.58
587.06	61134.79
587.22	61130.11
587.38	61179.26
587.54	61151.18
587.70	61279.91
587.86	61080.96
588.02	61181.60
588.18	61439.06
588.34	61118.41
