SpectraSuite Data File
++++++++++++++++++++++++++++++++++++
Date: Fri Oct 25 11:24:02 EDT 2013
User: price-jones
Dark Spectrum Present: No
Reference Spectrum Present: No
Number of Sampled Component Spectra: 1
Spectrometers: USB2+H05261
Integration Time (usec): 100000 (USB2+H05261)
Spectra Averaged: 1 (USB2+H05261)
Boxcar Smoothing: 0 (USB2+H05261)
Correct for Electrical Dark: No (USB2+H05261)
Strobe/Lamp Enabled: No (USB2+H05261)
Correct for Detector Non-linearity: No (USB2+H05261)
Correct for Stray Light: No (USB2+H05261)
Number of Pixels in Processed Spectrum: 2048
>>>>>Begin Processed Spectral Data<<<<<
365.73	175.54
365.92	175.54
366.12	175.54
366.32	222.35
366.52	95.96
366.72	145.11
366.91	128.73
367.11	145.11
367.31	131.07
367.51	114.69
367.70	187.24
367.90	63.19
368.10	95.96
368.30	112.35
368.49	191.92
368.69	191.92
368.89	121.71
369.09	163.84
369.28	142.77
369.48	182.56
369.68	138.09
369.87	210.65
370.07	154.48
370.27	243.42
370.47	315.97
370.66	688.12
370.86	617.90
371.06	648.33
371.25	688.12
371.45	692.80
371.65	772.38
371.84	723.23
372.04	678.76
372.24	671.73
372.44	758.33
372.63	809.83
372.83	748.97
373.03	746.63
373.22	830.89
373.42	763.01
373.62	704.50
373.81	718.54
374.01	765.36
374.21	823.87
374.40	826.21
374.60	798.12
374.79	858.98
374.99	837.91
375.19	849.61
375.38	910.47
375.58	835.57
375.78	833.23
375.97	819.19
376.17	863.66
376.37	772.38
376.56	835.57
376.76	718.54
376.95	873.02
377.15	840.25
377.35	828.55
377.54	919.83
377.74	868.34
377.93	837.91
378.13	940.90
378.33	985.37
378.52	997.07
378.72	910.47
378.91	936.21
379.11	891.74
379.31	940.90
379.50	990.05
379.70	1025.15
379.89	964.30
380.09	985.37
380.28	936.21
380.48	1060.26
380.68	973.66
380.87	931.53
381.07	1034.52
381.26	1041.54
381.46	990.05
381.65	1050.90
381.85	961.96
382.04	1074.31
382.24	1107.07
382.43	1095.37
382.63	1102.39
382.83	1057.92
383.02	1057.92
383.22	1086.01
383.41	1053.24
383.61	1121.12
383.80	1130.48
384.00	1135.16
384.19	1071.97
384.39	1090.69
384.58	1167.93
384.78	1170.27
384.97	1233.46
385.17	1203.04
385.36	1130.48
385.56	1149.20
385.75	1093.03
385.95	1294.32
386.14	1217.08
386.34	1128.14
386.53	1210.06
386.72	1177.29
386.92	1186.65
387.11	1280.27
387.31	1242.82
387.50	1282.61
387.70	1357.51
387.89	1299.00
388.09	1256.87
388.28	1324.74
388.48	1270.91
388.67	1296.66
388.86	1172.61
389.06	1303.68
389.25	1390.28
389.45	1348.15
389.64	1378.58
389.84	1343.47
390.03	1275.59
390.22	1306.02
390.42	1350.49
390.61	1392.62
390.81	1497.94
391.00	1451.13
391.19	1411.34
391.39	1430.07
391.58	1413.68
391.78	1514.33
391.97	1549.43
392.16	1488.58
392.36	1554.12
392.55	1504.96
392.75	1556.46
392.94	1558.80
393.13	1519.01
393.33	1511.99
393.52	1556.46
393.71	1547.09
393.91	1577.52
394.10	1638.38
394.29	1640.72
394.49	1605.61
394.68	1596.25
394.88	1675.82
395.07	1703.91
395.26	1657.10
395.46	1710.93
395.65	1682.85
395.84	1710.93
396.04	1739.02
396.23	1795.19
396.42	1790.51
396.62	1823.28
396.81	1797.53
397.00	1760.08
397.19	1788.17
397.39	1827.96
397.58	1870.09
397.77	1818.60
397.97	1823.28
398.16	1797.53
398.35	1827.96
398.55	1949.67
398.74	1891.15
398.93	2001.16
399.12	1959.03
399.32	1849.02
399.51	1865.41
399.70	2085.42
399.90	1959.03
400.09	2052.65
400.28	2029.24
400.47	2012.86
400.67	2026.90
400.86	2094.78
401.05	2111.16
401.24	2078.40
401.44	2062.01
401.63	2122.87
401.82	2120.53
402.01	2150.95
402.21	2104.14
402.40	2200.10
402.59	2235.21
402.78	2314.79
402.97	2267.98
403.17	2293.72
403.36	2275.00
403.55	2235.21
403.74	2324.15
403.93	2300.75
404.13	2408.41
404.32	2242.23
404.51	2464.58
404.70	2485.65
404.89	2420.11
405.09	2403.73
405.28	2487.99
405.47	2490.33
405.66	2499.69
405.85	2511.39
406.05	2534.80
406.24	2686.94
406.43	2579.27
406.62	2621.40
406.81	2754.81
407.00	2693.96
407.20	2649.49
407.39	2553.52
407.58	2801.62
407.77	2796.94
407.96	2630.76
408.15	2693.96
408.34	2712.68
408.54	2829.71
408.73	2717.36
408.92	2782.90
409.11	2757.15
409.30	2972.48
409.49	2857.79
409.68	2972.48
409.87	2930.35
410.07	2944.39
410.26	3077.80
410.45	2974.82
410.64	3133.98
410.83	3157.38
411.02	3038.02
411.21	3206.53
411.40	3164.40
411.59	3045.04
411.78	3239.30
411.98	3176.11
412.17	3393.78
412.36	3314.20
412.55	3452.29
412.74	3349.31
412.93	3330.58
413.12	3232.28
413.31	3655.92
413.50	3421.86
413.69	3480.38
413.88	3693.37
414.07	3630.17
414.26	3676.98
414.45	3679.32
414.64	3634.85
414.83	3758.90
415.02	3723.79
415.22	3840.82
415.41	3705.07
415.60	3742.52
415.79	4098.28
415.98	3957.85
416.17	4014.02
416.36	3857.20
416.55	3995.29
416.74	4070.19
416.93	3990.61
417.12	3955.51
417.31	4219.99
417.50	4170.83
417.69	4337.01
417.88	4315.95
418.07	4184.88
418.26	4348.72
418.45	4325.31
418.64	4458.72
418.83	4517.23
419.02	4498.51
419.21	4435.32
419.39	4512.55
419.58	4510.21
419.77	4404.89
419.96	4512.55
420.15	4615.54
420.34	4702.14
420.53	4641.28
420.72	4732.56
420.91	4664.69
421.10	4730.22
421.29	4905.76
421.48	4638.94
421.67	4744.27
421.86	4887.04
422.05	4748.95
422.24	4828.53
422.43	4912.78
422.61	4770.01
422.80	4950.23
422.99	5102.37
423.18	4910.44
423.37	5015.77
423.56	4983.00
423.75	4880.02
423.94	4823.84
424.13	4528.94
424.32	4765.33
424.50	4966.62
424.69	5102.37
424.88	5198.33
425.07	4922.15
425.26	4833.21
425.45	5011.09
425.64	4978.32
425.83	5036.83
426.01	5078.96
426.20	5034.49
426.39	5118.75
426.58	5210.03
426.77	5074.28
426.96	5151.52
427.15	5203.01
427.33	5261.52
427.52	5153.86
427.71	5334.08
427.90	5268.55
428.09	5266.21
428.28	5399.62
428.46	5224.08
428.65	5242.80
428.84	5416.00
429.03	5493.24
429.22	5394.93
429.40	5530.69
429.59	5521.32
429.78	5266.21
429.97	5268.55
430.16	5558.77
430.34	5514.30
430.53	5540.05
430.72	5572.82
430.91	5661.76
431.10	5682.82
431.28	5792.83
431.47	5837.30
431.66	5888.79
431.85	5820.91
432.03	5905.17
432.22	6061.99
432.41	6064.33
432.60	6129.86
432.79	5949.64
432.97	5987.09
433.16	5989.43
433.35	5980.07
433.54	6033.90
433.72	6193.06
433.91	6300.72
434.10	6090.07
434.28	6073.69
434.47	6162.63
434.66	6394.34
434.85	6134.54
435.03	6389.66
435.22	6139.23
435.41	6558.18
435.59	6506.69
435.78	6518.39
435.97	6492.65
436.16	6466.90
436.34	6342.85
436.53	6665.85
436.72	6707.98
436.90	6455.20
437.09	6623.72
437.28	6410.73
437.46	6509.03
437.65	6558.18
437.84	6757.13
438.02	6672.87
438.21	6897.56
438.40	6675.21
438.58	7016.93
438.77	6932.67
438.96	7002.88
439.14	7105.87
439.33	7208.85
439.52	7290.77
439.70	7258.00
439.89	7562.27
440.08	7421.84
440.26	7489.71
440.45	7438.22
440.63	7414.82
440.82	7513.12
441.01	7499.08
441.19	7829.09
441.38	7730.79
441.57	7749.51
441.75	7606.74
441.94	7969.52
442.12	7957.82
442.31	8189.53
442.50	8053.78
442.68	8016.33
442.87	8002.29
443.05	8219.96
443.24	8381.46
443.43	8219.96
443.61	8163.79
443.80	8526.57
443.98	8402.52
444.17	7822.07
444.35	8252.73
444.54	8449.33
444.73	8255.07
444.91	8348.69
445.10	8301.88
445.28	8353.37
445.47	8182.51
445.65	8376.78
445.84	8334.65
446.02	8327.63
446.21	8524.23
446.39	8517.21
446.58	8627.21
446.77	8517.21
446.95	8273.79
447.14	8531.25
447.32	8519.55
447.51	8463.38
447.69	8587.43
447.88	8648.28
448.06	8437.63
448.25	8573.38
448.43	8706.79
448.62	8659.98
448.80	8587.43
448.99	8627.21
449.17	8823.82
449.36	8695.09
449.54	8823.82
449.73	8978.30
449.91	9029.79
450.10	9092.98
450.28	9043.83
450.46	9287.25
450.65	9100.00
450.83	9221.71
451.02	9078.94
451.20	9151.49
451.39	9320.01
451.57	8990.00
451.76	9338.74
451.94	9420.66
452.13	9107.02
452.31	9303.63
452.49	9170.22
452.68	9554.07
452.86	9516.62
453.05	9605.56
453.23	9565.77
453.42	9486.19
453.60	9415.98
453.78	9486.19
453.97	9502.58
454.15	9500.23
454.34	9331.72
454.52	9755.35
454.70	9874.72
454.89	9764.72
455.07	9708.54
455.26	9898.13
455.44	9816.21
455.62	9949.62
455.81	10097.07
455.99	10139.20
456.17	10321.76
456.36	10125.16
456.54	10289.00
456.73	10303.04
456.91	10464.54
457.09	10427.09
457.28	10546.45
457.46	10289.00
457.64	10633.05
457.83	10551.14
458.01	10340.49
458.19	10780.51
458.38	10792.21
458.56	10869.45
458.74	10817.96
458.93	10803.91
459.11	10778.17
459.29	10867.11
459.48	10878.81
459.66	10878.81
459.84	10960.73
460.03	11091.80
460.21	11089.46
460.39	11159.67
460.57	11190.10
460.76	11267.34
460.94	11309.47
461.12	11056.69
461.31	11386.71
461.49	10993.50
461.67	11274.36
461.85	11372.66
462.04	11620.76
462.22	11513.10
462.40	11587.99
462.59	11618.42
462.77	11569.27
462.95	11721.40
463.13	11709.70
463.32	11688.64
463.50	11815.02
463.68	11808.00
463.86	11829.07
464.05	11836.09
464.23	11779.92
464.41	11941.41
464.59	11791.62
464.78	12086.53
464.96	12086.53
465.14	11925.03
465.32	12002.27
465.50	12074.82
465.69	12407.18
465.87	12245.68
466.05	12187.17
466.23	12416.54
466.41	12327.60
466.60	12627.19
466.78	12285.47
466.96	12147.38
467.14	12393.14
467.32	12278.45
467.51	12685.70
467.69	12379.09
467.87	12475.06
468.05	12573.36
468.23	12620.17
468.41	12552.29
468.60	12641.23
468.78	12807.41
468.96	12596.76
469.14	12699.75
469.32	12823.80
469.50	12760.60
469.69	13107.00
469.87	13228.71
470.05	13032.10
470.23	13200.62
470.41	12975.93
470.59	13263.82
470.77	13172.54
470.95	13249.77
471.14	13561.06
471.32	13076.57
471.50	13792.78
471.68	13748.31
471.86	13862.99
472.04	13792.78
472.22	13874.70
472.40	13664.05
472.58	13802.14
472.77	14038.53
472.95	14307.69
473.13	14724.31
473.31	14164.92
473.49	14237.48
473.67	13994.06
473.85	14363.87
474.03	14698.56
474.21	14745.38
474.39	14703.25
474.57	14661.12
474.75	15264.97
474.93	15012.20
475.12	15194.76
475.30	15360.94
475.48	15089.43
475.66	15159.65
475.84	15229.87
476.02	15330.51
476.20	15316.47
476.38	15728.40
476.56	16121.61
476.74	16107.57
476.92	15927.35
477.10	15775.21
477.28	16086.50
477.46	16397.79
477.64	16617.80
477.82	16503.12
478.00	16910.37
478.18	16868.24
478.36	16924.41
478.54	17371.46
478.72	17362.09
478.90	17341.03
479.08	17853.61
479.26	17818.50
479.44	17996.38
479.62	17771.69
479.80	18104.04
479.98	18202.35
480.16	18604.92
480.34	18267.88
480.52	18436.40
480.70	18810.89
480.88	18546.40
481.06	18881.10
481.24	18710.24
481.41	19012.17
481.59	19634.75
481.77	19662.84
481.95	19564.54
482.13	19871.15
482.31	20142.65
482.49	20245.63
482.67	20126.27
482.85	20594.37
483.03	20489.05
483.21	20627.14
483.39	20926.73
483.57	20994.61
483.74	21280.15
483.92	21415.90
484.10	21460.37
484.28	21874.65
484.46	21766.98
484.64	22396.59
484.82	22335.73
485.00	22471.48
485.18	22958.31
485.35	23145.56
485.53	23168.96
485.71	23021.51
485.89	23484.94
486.07	23583.24
486.25	23410.04
486.43	23782.18
486.61	23805.59
486.78	24252.63
486.96	23875.80
487.14	24629.46
487.32	24554.56
487.50	24929.05
487.68	25130.33
487.85	25209.91
488.03	25603.12
488.21	26022.08
488.39	26139.10
488.57	26249.11
488.75	26164.85
488.92	26696.15
489.10	27161.92
489.28	26848.29
489.46	27201.71
489.64	27065.96
489.81	27459.16
489.99	27894.50
490.17	28231.54
490.35	28063.02
490.53	28425.81
490.70	28709.01
490.88	28664.54
491.06	28912.64
491.24	29275.42
491.41	29392.45
491.59	29472.03
491.77	29792.68
491.95	29701.40
492.13	29731.83
492.30	29982.26
492.48	30319.30
492.66	30394.20
492.84	30600.16
493.01	31033.16
493.19	30855.28
493.37	31002.74
493.54	31318.71
493.72	31765.75
493.90	31683.83
494.08	31669.79
494.25	32236.20
494.43	32245.56
494.61	32526.42
494.79	32950.06
494.96	32687.92
495.14	32875.16
495.32	33476.68
495.49	33408.81
495.67	32898.57
495.85	33830.10
496.02	33956.49
496.20	34354.38
496.38	33947.13
496.55	34330.98
496.73	35421.67
496.91	35054.20
497.09	34801.43
497.26	34969.94
497.44	34960.58
497.62	35281.24
497.79	36079.36
497.97	35793.81
498.14	36456.18
498.32	36371.92
498.50	36161.28
498.67	36659.81
498.85	36570.87
499.03	36837.69
499.20	36631.72
499.38	37177.07
499.56	37083.45
499.73	37191.11
499.91	37593.68
500.08	37937.74
500.26	37645.18
500.44	37642.84
500.61	38164.78
500.79	38106.26
500.97	38047.75
501.14	38752.25
501.32	38763.95
501.49	38677.35
501.67	39367.81
501.84	39311.64
502.02	39395.90
502.20	39388.88
502.37	39115.03
502.55	39505.90
502.72	39819.53
502.90	39541.01
503.07	39761.02
503.25	40189.34
503.43	39962.31
503.60	40046.57
503.78	40807.24
503.95	40648.08
504.13	40676.17
504.30	41090.44
504.48	40250.19
504.65	40772.13
504.83	41301.09
505.01	41542.17
505.18	41757.50
505.36	42031.34
505.53	41193.43
505.71	42045.38
505.88	42335.61
506.06	41598.34
506.23	42183.48
506.41	42464.34
506.58	42164.75
506.76	42557.96
506.93	42817.76
507.11	42415.19
507.28	42810.74
507.46	43246.08
507.63	42808.40
507.81	43325.66
507.98	42866.91
508.16	43203.95
508.33	43562.05
508.50	43473.11
508.68	43562.05
508.85	43969.30
509.03	44184.63
509.20	44208.04
509.38	44430.39
509.55	44605.93
509.73	44722.96
509.90	44404.64
510.08	44601.25
510.25	45078.72
510.42	45059.99
510.60	45539.80
510.77	45099.78
510.95	45624.06
511.12	45251.92
511.30	45256.60
511.47	45963.44
511.64	45921.31
511.82	46141.32
511.99	46066.42
512.17	46110.89
512.34	46101.53
512.51	46321.54
512.69	46401.12
512.86	46583.68
513.04	46567.30
513.21	46969.87
513.38	46902.00
513.56	47196.90
513.73	47058.81
513.90	47100.94
514.08	47119.66
514.25	47484.79
514.43	47449.68
514.60	47730.54
514.77	47445.00
514.95	47704.80
515.12	47693.10
515.29	47913.11
515.47	48399.94
515.64	48123.75
515.81	48079.28
515.99	48418.66
516.16	48409.30
516.33	48809.53
516.51	49074.01
516.68	48619.95
516.85	48835.28
517.03	49038.90
517.20	49095.08
517.37	48961.67
517.54	48854.00
517.72	48971.03
517.89	49184.02
518.06	49638.08
518.24	49539.78
518.41	49256.57
518.58	49787.88
518.75	49275.30
518.93	50309.82
519.10	49666.17
519.27	50050.02
519.45	50007.89
519.62	50042.99
519.79	49865.11
519.96	50358.97
520.14	50499.40
520.31	50302.79
520.48	50440.89
520.65	50866.86
520.83	50621.11
521.00	51065.81
521.17	51023.68
521.34	50911.33
521.52	51019.00
521.69	50843.46
521.86	51047.08
522.03	51327.95
522.20	51590.09
522.38	51587.75
522.55	51447.32
522.72	51269.43
522.89	51814.78
523.07	51845.21
523.24	51480.08
523.41	51931.81
523.58	51779.67
523.75	52009.04
523.92	52137.77
524.10	52238.42
524.27	52271.18
524.44	52193.95
524.61	52289.91
524.78	52587.16
524.96	52495.88
525.13	52566.09
525.30	52610.56
525.47	52598.86
525.64	52596.52
525.81	52793.12
525.98	52814.19
526.16	52886.74
526.33	52832.91
526.50	52978.03
526.67	53029.52
526.84	52837.59
527.01	52914.83
527.18	53160.59
527.36	53298.68
527.53	53263.57
527.70	53254.21
527.87	53567.84
528.04	53361.87
528.21	53635.72
528.38	53294.00
528.55	53818.28
528.72	53090.37
528.89	53698.91
529.07	53556.14
529.24	53694.23
529.41	53904.88
529.58	54031.27
529.75	53862.75
529.92	53691.89
530.09	53965.73
530.26	54141.27
530.43	54260.64
530.60	53755.08
530.77	54150.63
530.94	54391.71
531.11	54054.67
531.28	54071.06
531.46	54623.42
531.63	54513.42
531.80	54461.93
531.97	54328.52
532.14	54780.24
532.31	54527.46
532.48	54532.14
532.65	54752.15
532.82	54621.08
532.99	54953.44
533.16	54466.61
533.33	55007.27
533.50	54897.27
533.67	54787.26
533.84	55042.38
534.01	54838.75
534.18	55004.93
534.35	55323.24
534.52	55194.51
534.69	55171.11
534.86	55510.49
535.03	55023.65
535.20	55463.67
535.37	55489.42
535.54	55440.27
535.71	55421.55
535.88	55636.87
536.05	55601.77
536.22	55767.94
536.38	55674.32
536.55	55810.07
536.72	55779.65
536.89	55648.58
537.06	55657.94
537.23	56041.79
537.40	55751.56
537.57	56081.58
537.74	55931.78
537.91	56058.17
538.08	55920.08
538.25	55964.55
538.42	56116.68
538.59	56203.28
538.75	55781.99
538.92	56119.02
539.09	56516.92
539.26	56142.43
539.43	56587.13
539.60	56357.76
539.77	56233.71
539.94	56655.01
540.11	56479.47
540.28	56666.71
540.44	56765.01
540.61	56615.22
540.78	56727.56
540.95	56381.16
541.12	56470.11
541.29	56591.81
541.46	56598.83
541.62	56666.71
541.79	56879.70
541.96	56619.90
542.13	56767.35
542.30	56638.62
542.47	56956.94
542.63	57125.46
542.80	57130.14
542.97	57169.93
543.14	57396.96
543.31	57076.30
543.48	57609.95
543.64	57733.99
543.81	57396.96
543.98	57389.94
544.15	57640.37
544.32	57499.94
544.48	57694.21
544.65	57429.72
544.82	57645.05
544.99	57343.12
545.16	57645.05
545.32	57385.25
545.49	57776.12
545.66	57675.48
545.83	57806.55
546.00	58113.16
546.16	57876.77
546.33	57804.21
546.50	57865.06
546.67	57918.90
546.83	57668.46
547.00	57907.19
547.17	57897.83
547.34	57879.11
547.50	58148.27
547.67	58204.44
547.84	58176.36
548.00	58262.96
548.17	58192.74
548.34	58188.06
548.51	58431.47
548.67	58457.22
548.84	58262.96
549.01	58277.00
549.18	58340.19
549.34	58511.05
549.51	58277.00
549.68	58403.39
549.84	58440.84
550.01	58679.57
550.18	58216.14
550.34	58695.95
550.51	58742.77
550.68	58691.27
550.84	58164.65
551.01	58707.66
551.18	58585.95
551.34	58782.55
551.51	58798.94
551.68	58803.62
551.84	58702.98
552.01	58672.55
552.18	58890.22
552.34	58672.55
552.51	58796.60
552.68	58651.48
552.84	58869.15
553.01	58932.35
553.18	58766.17
553.34	58794.26
553.51	58906.60
553.67	59016.61
553.84	59147.68
554.01	59100.87
554.17	59114.91
554.34	59112.57
554.51	59199.17
554.67	59393.43
554.84	59358.33
555.00	59009.59
555.17	59187.47
555.33	59185.13
555.50	59042.35
555.67	59128.95
555.83	59166.40
556.00	59231.94
556.16	59639.19
556.33	59601.74
556.50	59360.67
556.66	59451.95
556.83	59405.14
556.99	59866.22
557.16	59693.02
557.32	59571.32
557.49	59686.00
557.65	59451.95
557.82	59526.84
557.98	59451.95
558.15	59381.73
558.32	59622.81
558.48	59465.99
558.65	59718.77
558.81	59671.96
558.98	59578.34
559.14	59557.27
559.31	59587.70
559.47	59742.17
559.64	59814.73
559.80	59868.56
559.97	59856.86
560.13	59693.02
560.30	59763.24
560.46	59838.14
560.63	59737.49
560.79	60109.64
560.96	60067.51
561.12	60013.68
561.29	59908.35
561.45	59906.01
561.61	59964.52
561.78	59852.18
561.94	59943.46
562.11	59884.95
562.27	59758.56
562.44	60083.89
562.60	60247.73
562.77	60097.94
562.93	59917.71
563.10	60154.11
563.26	60001.97
563.42	60327.31
563.59	60156.45
563.75	60317.95
563.92	60313.26
564.08	60282.84
564.24	60266.45
564.41	60303.90
564.57	60439.65
564.74	60343.69
564.90	60243.05
565.07	60200.92
565.23	60289.86
565.39	60346.03
565.56	60467.74
565.72	60238.37
565.88	60193.90
566.05	60069.85
566.21	60266.45
566.38	60416.25
566.54	60385.82
566.70	60334.33
566.87	60439.65
567.03	60343.69
567.19	60495.83
567.36	60612.85
567.52	60360.08
567.68	60526.25
567.85	60516.89
568.01	60533.28
568.17	60505.19
568.34	60631.58
568.50	60552.00
568.66	60547.32
568.83	60654.98
568.99	60528.59
569.15	60381.14
569.32	60507.53
569.48	60563.70
569.64	60657.32
569.81	60540.30
569.97	60491.15
570.13	60631.58
570.30	60481.78
570.46	60612.85
570.62	60584.77
570.78	60472.42
570.95	60622.22
571.11	60612.85
571.27	60451.36
571.43	60673.71
571.60	60776.69
571.76	60823.50
571.92	60755.63
572.09	60842.23
572.25	60690.09
572.41	60624.56
572.57	60673.71
572.74	60947.55
572.90	60685.41
573.06	60832.86
573.22	60844.57
573.38	60800.10
573.55	60680.73
573.71	60949.89
573.87	60786.05
574.03	60788.39
574.20	60849.25
574.36	60856.27
574.52	60753.29
574.68	61008.40
574.84	60860.95
575.01	60786.05
575.17	60893.72
575.33	60654.98
575.49	60589.45
575.65	60809.46
575.82	61029.47
575.98	60856.27
576.14	61050.53
576.30	60865.63
576.46	60786.05
576.62	60804.78
576.79	60811.80
576.95	60874.99
577.11	61097.34
577.27	60886.70
577.43	60849.25
577.59	60797.76
577.75	60809.46
577.92	60762.65
578.08	60985.00
578.24	60961.59
578.40	61233.10
578.56	61226.07
578.72	61102.03
578.88	61027.13
579.04	61403.95
579.21	60945.21
579.37	60940.53
579.53	61176.92
579.69	60830.52
579.85	60975.64
580.01	61036.49
580.17	60711.16
580.33	60905.42
580.49	61219.05
580.65	61003.72
580.82	61008.40
580.98	60851.59
581.14	60963.93
581.30	61087.98
581.46	60924.14
581.62	61284.59
581.78	61172.24
581.94	61160.54
582.10	61113.73
582.26	61027.13
582.42	61193.31
582.58	61013.08
582.74	61085.64
582.90	61155.86
583.06	61020.11
583.22	60891.38
583.38	61015.43
583.54	61132.45
583.70	61160.54
583.86	61172.24
584.02	61010.74
584.18	61153.52
584.34	61017.77
584.50	61125.43
584.66	60942.87
584.82	61111.39
584.98	61558.43
585.14	61169.90
585.30	61015.43
585.46	61258.84
585.62	61116.07
585.78	61359.48
585.94	60898.40
586.10	61183.94
586.26	61174.58
586.42	61226.07
586.58	61179.26
586.74	61132.45
586.90	60992.02
587.06	61127.77
587.22	61169.90
587.38	61109.05
587.54	61322.04
587.70	61394.59
587.86	61396.93
588.02	60912.44
588.18	61387.57
588.34	61254.16
588.49	61268.20
