SpectraSuite Data File
++++++++++++++++++++++++++++++++++++
Date: Fri Oct 25 11:23:44 EDT 2013
User: price-jones
Dark Spectrum Present: No
Reference Spectrum Present: No
Number of Sampled Component Spectra: 1
Spectrometers: USB2+H05261
Integration Time (usec): 100000 (USB2+H05261)
Spectra Averaged: 1 (USB2+H05261)
Boxcar Smoothing: 0 (USB2+H05261)
Correct for Electrical Dark: No (USB2+H05261)
Strobe/Lamp Enabled: No (USB2+H05261)
Correct for Detector Non-linearity: No (USB2+H05261)
Correct for Stray Light: No (USB2+H05261)
Number of Pixels in Processed Spectrum: 2048
>>>>>Begin Processed Spectral Data<<<<<
365.73	175.54
365.92	175.54
366.12	175.54
366.32	161.50
366.52	77.24
366.72	236.39
366.91	126.39
367.11	32.77
367.31	60.85
367.51	119.37
367.70	93.62
367.90	117.03
368.10	112.35
368.30	112.35
368.49	110.01
368.69	227.03
368.89	119.37
369.09	196.60
369.28	154.48
369.48	191.92
369.68	203.63
369.87	110.01
370.07	205.97
370.27	198.95
370.47	304.27
370.66	557.05
370.86	622.58
371.06	667.05
371.25	650.67
371.45	730.25
371.65	678.76
371.84	711.52
372.04	741.95
372.24	636.63
372.44	671.73
372.63	734.93
372.83	744.29
373.03	695.14
373.22	744.29
373.42	793.44
373.62	830.89
373.81	741.95
374.01	814.51
374.21	809.83
374.40	828.55
374.60	814.51
374.79	777.06
374.99	814.51
375.19	842.59
375.38	894.08
375.58	826.21
375.78	802.80
375.97	823.87
376.17	875.36
376.37	884.72
376.56	896.43
376.76	840.25
376.95	849.61
377.15	873.02
377.35	868.34
377.54	983.02
377.74	889.40
377.93	908.13
378.13	910.47
378.33	978.34
378.52	938.55
378.72	1018.13
378.91	877.70
379.11	985.37
379.31	854.30
379.50	884.72
379.70	987.71
379.89	1074.31
380.09	1004.09
380.28	999.41
380.48	936.21
380.68	1069.62
380.87	1036.86
381.07	1053.24
381.26	1053.24
381.46	1022.81
381.65	1041.54
381.85	1064.94
382.04	1090.69
382.24	950.26
382.43	966.64
382.63	1046.22
382.83	1100.05
383.02	1111.75
383.22	1064.94
383.41	1118.78
383.61	1083.67
383.80	1228.78
384.00	976.00
384.19	1207.72
384.39	1153.88
384.58	1090.69
384.78	1097.71
384.97	1139.84
385.17	1032.18
385.36	1181.97
385.56	1188.99
385.75	1132.82
385.95	1207.72
386.14	1167.93
386.34	1256.87
386.53	1212.40
386.72	1142.18
386.92	1238.14
387.11	1324.74
387.31	1320.06
387.50	1275.59
387.70	1203.04
387.89	1219.42
388.09	1277.93
388.28	1296.66
388.48	1357.51
388.67	1219.42
388.86	1249.85
389.06	1320.06
389.25	1383.26
389.45	1324.74
389.64	1404.32
389.84	1469.86
390.03	1444.11
390.22	1355.17
390.42	1425.39
390.61	1313.04
390.81	1364.53
391.00	1448.79
391.19	1497.94
391.39	1423.05
391.58	1476.88
391.78	1495.60
391.97	1439.43
392.16	1483.90
392.36	1481.56
392.55	1549.43
392.75	1530.71
392.94	1530.71
393.13	1511.99
393.33	1563.48
393.52	1516.67
393.71	1591.56
393.91	1596.25
394.10	1540.07
394.29	1558.80
394.49	1633.69
394.68	1586.88
394.88	1746.04
395.07	1708.59
395.26	1617.31
395.46	1621.99
395.65	1654.76
395.84	1715.61
396.04	1849.02
396.23	1689.87
396.42	1785.83
396.62	1736.68
396.81	1783.49
397.00	1624.33
397.19	1858.39
397.39	1872.43
397.58	1895.83
397.77	1844.34
397.97	1825.62
398.16	1781.15
398.35	1860.73
398.55	1900.52
398.74	1914.56
398.93	1980.09
399.12	1963.71
399.32	1923.92
399.51	1961.37
399.70	2005.84
399.90	1881.79
400.09	1984.77
400.28	2127.55
400.47	1949.67
400.67	2066.69
400.86	2066.69
401.05	2111.16
401.24	2099.46
401.44	2148.61
401.63	2106.48
401.82	2174.36
402.01	2230.53
402.21	2050.31
402.40	2143.93
402.59	2239.89
402.78	2200.10
402.97	2314.79
403.17	2286.70
403.36	2284.36
403.55	2230.53
403.74	2385.01
403.93	2333.51
404.13	2380.32
404.32	2359.26
404.51	2368.62
404.70	2373.30
404.89	2347.56
405.09	2497.35
405.28	2483.31
405.47	2478.63
405.66	2506.71
405.85	2665.87
406.05	2520.76
406.24	2576.93
406.43	2581.61
406.62	2635.44
406.81	2827.37
407.00	2579.27
407.20	2551.18
407.39	2722.04
407.58	2663.53
407.77	2665.87
407.96	2661.19
408.15	2719.70
408.34	2679.91
408.54	2754.81
408.73	2829.71
408.92	2813.32
409.11	2928.01
409.30	2878.86
409.49	2937.37
409.68	2951.42
409.87	2944.39
410.07	3073.12
410.26	2820.35
410.45	3014.61
410.64	3035.67
410.83	3059.08
411.02	3150.36
411.21	3096.53
411.40	3234.62
411.59	3176.11
411.78	3187.81
411.98	3129.30
412.17	3201.85
412.36	3351.65
412.55	3363.35
412.74	3478.04
412.93	3463.99
413.12	3463.99
413.31	3569.32
413.50	3300.16
413.69	3688.68
413.88	3709.75
414.07	3550.59
414.26	3653.58
414.45	3585.70
414.64	3590.38
414.83	3794.01
415.02	3843.16
415.22	3868.91
415.41	3843.16
415.60	3878.27
415.79	3831.46
415.98	3908.69
416.17	3988.27
416.36	3960.19
416.55	4032.74
416.74	4086.58
416.93	4100.62
417.12	4079.55
417.31	4194.24
417.50	4248.07
417.69	4297.22
417.88	4365.10
418.07	4266.80
418.26	4376.80
418.45	4332.33
418.64	4461.06
418.83	4468.08
419.02	4435.32
419.21	4404.89
419.39	4542.98
419.58	4463.40
419.77	4482.13
419.96	4554.68
420.15	4615.54
420.34	4779.37
420.53	4671.71
420.72	4746.61
420.91	4720.86
421.10	4730.22
421.29	4844.91
421.48	4793.42
421.67	4875.34
421.86	4781.71
422.05	4875.34
422.24	4718.52
422.43	4884.70
422.61	5013.43
422.80	4940.87
422.99	4973.64
423.18	4873.00
423.37	5078.96
423.56	5004.07
423.75	4961.94
423.94	4884.70
424.13	4652.98
424.32	4842.57
424.50	5008.75
424.69	5111.73
424.88	4964.28
425.07	5060.24
425.26	5013.43
425.45	4931.51
425.64	4889.38
425.83	4959.60
426.01	5062.58
426.20	4983.00
426.39	5004.07
426.58	5076.62
426.77	5032.15
426.96	5219.39
427.15	5198.33
427.33	5210.03
427.52	5170.24
427.71	5277.91
427.90	5329.40
428.09	5294.29
428.28	5373.87
428.46	5364.51
428.65	5371.53
428.84	5540.05
429.03	5631.33
429.22	5399.62
429.40	5404.30
429.59	5558.77
429.78	5364.51
429.97	5186.63
430.16	5537.71
430.34	5554.09
430.53	5703.89
430.72	5582.18
430.91	5654.73
431.10	5570.48
431.28	5823.25
431.47	5654.73
431.66	5856.02
431.85	5628.99
432.03	5909.85
432.22	6071.35
432.41	5954.32
432.60	5905.17
432.79	5989.43
432.97	5902.83
433.16	6019.86
433.35	6104.12
433.54	6125.18
433.72	6174.33
433.91	6169.65
434.10	6167.31
434.28	6099.44
434.47	6078.37
434.66	6176.67
434.85	6251.57
435.03	6368.60
435.22	6298.38
435.41	6476.26
435.59	6394.34
435.78	6459.88
435.97	6483.28
436.16	6382.64
436.34	6490.31
436.53	6544.14
436.72	6724.36
436.90	6626.06
437.09	6576.91
437.28	6354.55
437.46	6602.65
437.65	6616.69
437.84	6715.00
438.02	6759.47
438.21	6991.18
438.40	6583.93
438.58	6927.99
438.77	7098.84
438.96	7014.59
439.14	7140.97
439.33	7206.51
439.52	7339.92
439.70	7157.36
439.89	7513.12
440.08	7391.41
440.26	7204.17
440.45	7360.98
440.63	7590.36
440.82	7508.44
441.01	7676.96
441.19	7662.91
441.38	7742.49
441.57	7709.72
441.75	7826.75
441.94	8018.68
442.12	7911.01
442.31	8070.17
442.50	7976.55
442.68	8006.97
442.87	8086.55
443.05	8201.24
443.24	8262.09
443.43	8175.49
443.61	8257.41
443.80	8411.89
443.98	8023.36
444.17	7903.99
444.35	8128.68
444.54	8493.80
444.73	8245.71
444.91	8264.43
445.10	8372.10
445.28	8285.50
445.47	8346.35
445.65	8493.80
445.84	8498.49
446.02	8496.14
446.21	8542.96
446.39	8348.69
446.58	8425.93
446.77	8638.92
446.95	8428.27
447.14	8468.06
447.32	8718.50
447.51	8486.78
447.69	8482.10
447.88	8531.25
448.06	8697.43
448.25	8613.17
448.43	8589.77
448.62	8566.36
448.80	8554.66
448.99	8681.05
449.17	8608.49
449.36	8699.77
449.54	8971.27
449.73	8950.21
449.91	9217.03
450.10	8990.00
450.28	8931.48
450.46	9118.73
450.65	8959.57
450.83	8971.27
451.02	8791.05
451.20	9369.16
451.39	9163.20
451.57	9090.64
451.76	9202.99
451.94	9193.62
452.13	9551.73
452.31	9558.75
452.49	9207.67
452.68	9144.47
452.86	9425.34
453.05	9376.19
453.23	9399.59
453.42	9495.55
453.60	9509.60
453.78	9413.63
453.97	9483.85
454.15	9537.68
454.34	9385.55
454.52	9607.90
454.70	9841.95
454.89	9687.48
455.07	9799.82
455.26	9696.84
455.44	10031.54
455.62	9914.51
455.81	10005.79
455.99	10132.18
456.17	10195.37
456.36	10022.17
456.54	10071.33
456.73	10296.02
456.91	10289.00
457.09	10523.05
457.28	10553.48
457.46	10455.17
457.64	10661.14
457.83	10487.94
458.01	10342.83
458.19	10689.23
458.38	10626.03
458.56	10705.61
458.74	10677.52
458.93	10567.52
459.11	10890.51
459.29	10703.27
459.48	10827.32
459.66	10995.84
459.84	10850.72
460.03	11351.60
460.21	11019.24
460.39	10958.39
460.57	10899.87
460.76	11140.95
460.94	11250.96
461.12	11307.13
461.31	11218.19
461.49	11328.19
461.67	11300.11
461.85	11386.71
462.04	11571.61
462.22	11707.36
462.40	11580.97
462.59	11559.91
462.77	11410.11
462.95	11716.72
463.13	11501.39
463.32	11878.22
463.50	11763.53
463.68	12025.67
463.86	11826.73
464.05	11690.98
464.23	11592.67
464.41	11899.28
464.59	11599.70
464.78	12142.70
464.96	12322.92
465.14	11964.82
465.32	12086.53
465.50	12163.76
465.69	12215.26
465.87	12128.66
466.05	12173.13
466.23	12201.21
466.41	12177.81
466.60	12402.50
466.78	12388.46
466.96	12205.89
467.14	12334.62
467.32	12432.93
467.51	12372.07
467.69	12379.09
467.87	12322.92
468.05	12627.19
468.23	12521.87
468.41	12507.82
468.60	12772.30
468.78	12872.95
468.96	12659.96
469.14	12765.28
469.32	12926.78
469.50	12671.66
469.69	13146.79
469.87	13383.18
470.05	13193.60
470.23	12898.69
470.41	13217.01
470.59	13460.42
470.77	13121.04
470.95	13535.32
471.14	13570.43
471.32	13284.88
471.50	13689.79
471.68	13830.23
471.86	13874.70
472.04	13572.77
472.22	14033.85
472.40	13853.63
472.58	13958.96
472.77	14066.62
472.95	14317.06
473.13	14590.90
473.31	14106.41
473.49	14452.81
473.67	14019.81
473.85	14193.01
474.03	14714.95
474.21	14740.69
474.39	14754.74
474.57	15002.83
474.75	14897.51
474.93	14745.38
475.12	14714.95
475.30	15164.33
475.48	14920.92
475.66	14956.02
475.84	15253.27
476.02	15538.82
476.20	15594.99
476.38	15442.85
476.56	16137.99
476.74	16142.67
476.92	16077.14
477.10	16023.31
477.28	16355.66
477.46	16339.28
477.64	16388.43
477.82	16751.21
478.00	16957.18
478.18	16870.58
478.36	16915.05
478.54	17085.91
478.72	17453.37
478.90	17846.58
479.08	17673.39
479.26	17563.38
479.44	17907.44
479.62	17902.76
479.80	18504.28
479.98	18249.16
480.16	18483.21
480.34	18293.63
480.52	18616.62
480.70	18782.80
480.88	18712.58
481.06	18860.04
481.24	18946.64
481.41	19173.67
481.59	19639.44
481.77	19386.66
481.95	19573.90
482.13	19814.98
482.31	19910.94
482.49	20397.77
482.67	20442.24
482.85	20498.41
483.03	20404.79
483.21	21006.31
483.39	20985.24
483.57	20961.84
483.74	21586.76
483.92	21647.61
484.10	21266.11
484.28	22143.81
484.46	21989.33
484.64	22480.85
484.82	22176.58
485.00	22508.93
485.18	22724.26
485.35	22986.40
485.53	22808.52
485.71	23419.40
485.89	23875.80
486.07	23424.08
486.25	23606.64
486.43	23754.10
486.61	23957.72
486.78	24390.72
486.96	24411.79
487.14	24594.35
487.32	24943.09
487.50	25174.80
487.68	25319.92
487.85	25509.50
488.03	25750.57
488.21	25975.27
488.39	25895.69
488.57	26199.96
488.75	26106.34
488.92	26785.09
489.10	27145.53
489.28	26948.93
489.46	27182.98
489.64	27370.22
489.81	28023.23
489.99	27552.79
490.17	27718.96
490.35	28212.82
490.53	28020.89
490.70	28720.71
490.88	28306.44
491.06	28910.30
491.24	29247.33
491.41	29113.92
491.59	29446.28
491.77	29558.63
491.95	29663.95
492.13	29869.92
492.30	30176.53
492.48	30249.08
492.66	30188.23
492.84	30576.76
493.01	30869.33
493.19	30965.29
493.37	31157.21
493.54	31264.88
493.72	31424.03
493.90	31260.20
494.08	31807.88
494.25	31850.01
494.43	31934.27
494.61	32886.87
494.79	32774.52
494.96	32996.87
495.14	32886.87
495.32	33275.40
495.49	33530.51
495.67	33151.35
495.85	33467.32
496.02	33890.96
496.20	34141.39
496.38	34532.26
496.55	34579.07
496.73	35178.25
496.91	34536.94
497.09	34588.44
497.26	34892.71
497.44	34843.56
497.62	35438.05
497.79	36058.29
497.97	35725.94
498.14	36336.82
498.32	36804.92
498.50	36503.00
498.67	36821.31
498.85	36994.51
499.03	36685.56
499.20	36921.95
499.38	37043.66
499.56	37247.29
499.73	37436.87
499.91	37628.79
500.08	37708.37
500.26	37794.97
500.44	37729.44
500.61	37888.59
500.79	38244.35
500.97	38132.01
501.14	38707.78
501.32	39213.34
501.49	38646.93
501.67	38806.08
501.84	39274.19
502.02	39395.90
502.20	38969.92
502.37	39749.32
502.55	39592.50
502.72	39873.37
502.90	39739.96
503.07	39508.24
503.25	39941.24
503.43	40095.72
503.60	40297.00
503.78	40559.14
503.95	39920.18
504.13	40538.08
504.30	40615.32
504.48	40467.86
504.65	40718.30
504.83	41144.28
505.01	41443.87
505.18	41092.79
505.36	41577.28
505.53	41514.08
505.71	41883.89
505.88	42007.94
506.06	41511.74
506.23	42307.52
506.41	41596.00
506.58	42029.00
506.76	41979.85
506.93	42464.34
507.11	42567.32
507.28	42536.90
507.46	42738.18
507.63	42834.14
507.81	43477.79
507.98	43288.21
508.16	43070.54
508.33	43798.44
508.50	43667.37
508.68	43896.75
508.85	44287.62
509.03	43831.21
509.20	44467.84
509.38	44505.29
509.55	44364.85
509.73	44739.34
509.90	45162.98
510.08	44236.12
510.25	44722.96
510.42	45013.18
510.60	44942.97
510.77	45221.49
510.95	45830.03
511.12	45432.14
511.30	45406.39
511.47	45993.87
511.64	46031.32
511.82	46183.45
511.99	45752.79
512.17	46361.33
512.34	46010.25
512.51	46796.67
512.69	46670.28
512.86	46696.03
513.04	46541.55
513.21	46555.60
513.38	47058.81
513.56	46686.67
513.73	47203.92
513.90	47381.80
514.08	47100.94
514.25	47538.62
514.43	47847.57
514.60	47381.80
514.77	47826.51
514.95	47608.84
515.12	47477.77
515.29	47821.83
515.47	48257.17
515.64	48210.35
515.81	47948.21
515.99	48030.13
516.16	48652.72
516.33	48273.55
516.51	48865.70
516.68	49085.72
516.85	48547.39
517.03	49027.20
517.20	49186.36
517.37	48893.79
517.54	49113.80
517.72	49055.29
517.89	49577.23
518.06	48985.07
518.24	49359.56
518.41	49305.73
518.58	49748.09
518.75	49509.35
518.93	49801.92
519.10	49654.47
519.27	49991.50
519.45	49612.34
519.62	49860.43
519.79	50061.72
519.96	49886.18
520.14	50263.00
520.31	50047.68
520.48	50848.14
520.65	50227.90
520.83	50499.40
521.00	50904.31
521.17	50609.40
521.34	50712.39
521.52	50843.46
521.69	50993.25
521.86	50979.21
522.03	51466.04
522.20	51246.03
522.38	51519.87
522.55	51772.65
522.72	51690.73
522.89	51454.34
523.07	51889.68
523.24	51742.22
523.41	51941.17
523.58	51702.43
523.75	52165.86
523.92	51892.02
524.10	52273.52
524.27	52215.01
524.44	52261.82
524.61	52322.68
524.78	52196.29
524.96	52095.64
525.13	52486.51
525.30	52470.13
525.47	53106.76
525.64	52514.60
525.81	52781.42
525.98	52868.02
526.16	52729.93
526.33	52870.36
526.50	53289.32
526.67	52746.31
526.84	53071.65
527.01	53013.13
527.18	52938.24
527.36	53020.16
527.53	53366.55
527.70	53514.01
527.87	53577.20
528.04	53322.08
528.21	53242.51
528.38	53319.74
528.55	53741.04
528.72	53385.28
528.89	53364.21
529.07	53411.02
529.24	53624.01
529.41	53825.30
529.58	53631.04
529.75	53729.34
529.92	53776.15
530.09	53998.50
530.26	54103.82
530.43	54190.42
530.60	53956.37
530.77	53818.28
530.94	54335.54
531.11	54021.90
531.28	54326.17
531.46	54115.53
531.63	54532.14
531.80	54197.44
531.97	54665.55
532.14	54562.57
532.31	54265.32
532.48	54635.13
532.65	54625.76
532.82	54419.80
532.99	55175.79
533.16	54574.27
533.33	54897.27
533.50	55093.87
533.67	54857.48
533.84	54740.45
534.01	55171.11
534.18	55187.49
534.35	55299.84
534.52	55082.17
534.69	55351.33
534.86	55332.60
535.03	55131.32
535.20	55290.48
535.37	55648.58
535.54	55519.85
535.71	55473.04
535.88	55487.08
536.05	55627.51
536.22	55599.43
536.38	55749.22
536.55	55629.85
536.72	55791.35
536.89	55854.54
537.06	55915.40
537.23	55903.70
537.40	55468.36
537.57	56034.77
537.74	55737.52
537.91	56142.43
538.08	55941.14
538.25	55924.76
538.42	55917.74
538.59	56385.85
538.75	55882.63
538.92	56175.20
539.09	56210.31
539.26	56315.63
539.43	56493.51
539.60	56289.88
539.77	56308.61
539.94	56594.15
540.11	56432.66
540.28	56549.68
540.44	56547.34
540.61	56598.83
540.78	56678.41
540.95	56533.30
541.12	56725.22
541.29	56687.78
541.46	56694.80
541.62	56755.65
541.79	56870.34
541.96	56292.22
542.13	56694.80
542.30	56732.25
542.47	56865.66
542.63	56718.20
542.80	56975.66
542.97	57085.67
543.14	57378.23
543.31	57291.63
543.48	57354.83
543.64	57460.15
543.81	57513.98
543.98	57333.76
544.15	57338.44
544.32	57595.90
544.48	57733.99
544.65	57209.71
544.82	57645.05
544.99	57577.18
545.16	57616.97
545.32	57319.72
545.49	57745.70
545.66	57820.59
545.83	57691.86
546.00	57750.38
546.16	57799.53
546.33	57528.03
546.50	57769.10
546.67	57911.88
546.83	57631.01
547.00	57752.72
547.17	57874.43
547.34	57951.66
547.50	58316.79
547.67	58218.49
547.84	58127.20
548.00	58363.60
548.17	58361.26
548.34	58365.94
548.51	58508.71
548.67	58284.02
548.84	58410.41
549.01	58185.72
549.18	58225.51
549.34	58361.26
549.51	58457.22
549.68	58609.35
549.84	58504.03
550.01	58468.92
550.18	58513.39
550.34	58487.65
550.51	58546.16
550.68	58419.77
550.84	58457.22
551.01	58635.10
551.18	58686.59
551.34	58672.55
551.51	58611.70
551.68	58827.02
551.84	58482.97
552.01	58590.63
552.18	58822.34
552.34	58763.83
552.51	58740.42
552.68	58878.52
552.84	58899.58
553.01	59025.97
553.18	58951.07
553.34	58922.99
553.51	58873.84
553.67	58691.27
553.84	59107.89
554.01	59175.76
554.17	59309.18
554.34	59334.92
554.51	59245.98
554.67	59145.34
554.84	58960.44
555.00	59159.38
555.17	59105.55
555.33	59175.76
555.50	59171.08
555.67	59243.64
555.83	58955.75
556.00	59135.98
556.16	59393.43
556.33	59290.45
556.50	59461.31
556.66	59517.48
556.83	59309.18
556.99	59522.16
557.16	59510.46
557.32	59746.86
557.49	59739.83
557.65	59559.61
557.82	59477.69
557.98	59559.61
558.15	59552.59
558.32	59608.76
558.48	59512.80
558.65	59435.56
558.81	59571.32
558.98	59643.87
559.14	59547.91
559.31	59728.13
559.47	59889.63
559.64	59714.09
559.80	59723.45
559.97	59817.07
560.13	59643.87
560.30	59889.63
560.46	59793.67
560.63	59999.63
560.79	59877.93
560.96	59969.21
561.12	59976.23
561.29	59840.48
561.45	59681.32
561.61	59980.91
561.78	59891.97
561.94	59671.96
562.11	59938.78
562.27	59880.27
562.44	60123.68
562.60	59962.18
562.77	60226.66
562.93	59810.05
563.10	60170.49
563.26	59966.87
563.42	60341.35
563.59	60051.12
563.75	60179.85
563.92	60083.89
564.08	60032.40
564.24	60175.17
564.41	60062.83
564.57	60210.28
564.74	60196.24
564.90	60385.82
565.07	60299.22
565.23	60121.34
565.39	60327.31
565.56	60310.92
565.72	60177.51
565.88	60315.61
566.05	60418.59
566.21	60149.43
566.38	60383.48
566.54	60310.92
566.70	60371.78
566.87	60360.08
567.03	60243.05
567.19	60451.36
567.36	60463.06
567.52	60434.97
567.68	60701.79
567.85	60540.30
568.01	60446.68
568.17	60416.25
568.34	60605.83
568.50	60537.96
568.66	60388.16
568.83	60535.62
568.99	60596.47
569.15	60563.70
569.32	60526.25
569.48	60371.78
569.64	60537.96
569.81	60505.19
569.97	60369.44
570.13	60601.15
570.30	60329.65
570.46	60523.91
570.62	60615.19
570.78	60491.15
570.95	60671.37
571.11	60851.59
571.27	60633.92
571.43	60725.20
571.60	60980.32
571.76	60584.77
571.92	60774.35
572.09	60762.65
572.25	60666.69
572.41	60870.31
572.57	60685.41
572.74	60928.83
572.90	60837.54
573.06	60973.30
573.22	60662.00
573.38	60713.50
573.55	60692.43
573.71	61066.92
573.87	60853.93
574.03	60626.90
574.20	60647.96
574.36	60544.98
574.52	61073.94
574.68	60874.99
574.84	61055.21
575.01	60879.67
575.17	60830.52
575.33	60788.39
575.49	60736.90
575.65	60926.49
575.82	61097.34
575.98	60823.50
576.14	61116.07
576.30	60865.63
576.46	60713.50
576.62	60694.77
576.79	60956.91
576.95	60781.37
577.11	60935.85
577.27	60989.68
577.43	60940.53
577.59	60793.07
577.75	60851.59
577.92	60743.92
578.08	61024.79
578.24	60921.80
578.40	61057.56
578.56	61099.68
578.72	61062.24
578.88	61071.60
579.04	61120.75
579.21	61132.45
579.37	60863.29
579.53	61069.26
579.69	60729.88
579.85	60938.19
580.01	60903.08
580.17	60884.36
580.33	61015.43
580.49	61017.77
580.65	61041.17
580.82	60912.44
580.98	60945.21
581.14	60879.67
581.30	61183.94
581.46	61092.66
581.62	60966.27
581.78	60952.23
581.94	61207.35
582.10	61183.94
582.26	60942.87
582.42	61029.47
582.58	60996.70
582.74	60987.34
582.90	61059.90
583.06	61008.40
583.22	60652.64
583.38	61130.11
583.54	61127.77
583.70	61073.94
583.86	61144.16
584.02	60914.78
584.18	61155.86
584.34	61043.51
584.50	61055.21
584.66	60985.00
584.82	60919.46
584.98	61095.00
585.14	61190.97
585.30	61167.56
585.46	61258.84
585.62	61052.87
585.78	61300.97
585.94	60968.61
586.10	61153.52
586.26	61008.40
586.42	61228.41
586.58	61310.33
586.74	61183.94
586.90	61059.90
587.06	61109.05
587.22	61310.33
587.38	61144.16
587.54	61214.37
587.70	61303.31
587.86	61347.78
588.02	61144.16
588.18	61387.57
588.34	61043.51
588.49	61263.52
