SpectraSuite Data File
++++++++++++++++++++++++++++++++++++
Date: Fri Oct 25 11:25:23 EDT 2013
User: price-jones
Dark Spectrum Present: No
Reference Spectrum Present: No
Number of Sampled Component Spectra: 1
Spectrometers: USB2+H05261
Integration Time (usec): 100000 (USB2+H05261)
Spectra Averaged: 1 (USB2+H05261)
Boxcar Smoothing: 0 (USB2+H05261)
Correct for Electrical Dark: No (USB2+H05261)
Strobe/Lamp Enabled: No (USB2+H05261)
Correct for Detector Non-linearity: No (USB2+H05261)
Correct for Stray Light: No (USB2+H05261)
Number of Pixels in Processed Spectrum: 2048
>>>>>Begin Processed Spectral Data<<<<<
365.73	259.80
365.92	259.80
366.12	259.80
366.32	168.52
366.52	154.48
366.72	175.54
366.91	161.50
367.11	39.79
367.31	128.73
367.51	147.45
367.70	124.05
367.90	126.39
368.10	128.73
368.30	126.39
368.49	102.98
368.69	156.82
368.89	147.45
369.09	161.50
369.28	154.48
369.48	161.50
369.68	191.92
369.87	133.41
370.07	189.58
370.27	189.58
370.47	304.27
370.66	580.45
370.86	641.31
371.06	664.71
371.25	730.25
371.45	627.26
371.65	641.31
371.84	596.84
372.04	751.31
372.24	713.86
372.44	739.61
372.63	660.03
372.83	821.53
373.03	706.84
373.22	774.72
373.42	828.55
373.62	833.23
373.81	774.72
374.01	833.23
374.21	720.88
374.40	781.74
374.60	894.08
374.79	826.21
374.99	854.30
375.19	786.42
375.38	809.83
375.58	793.44
375.78	816.85
375.97	924.51
376.17	940.90
376.37	807.48
376.56	922.17
376.76	870.68
376.95	894.08
377.15	933.87
377.35	889.40
377.54	821.53
377.74	868.34
377.93	798.12
378.13	861.32
378.33	912.81
378.52	1004.09
378.72	959.62
378.91	915.15
379.11	957.28
379.31	936.21
379.50	943.24
379.70	954.94
379.89	1029.84
380.09	938.55
380.28	1057.92
380.48	954.94
380.68	983.02
380.87	945.58
381.07	1160.91
381.26	1055.58
381.46	1013.45
381.65	1018.13
381.85	1013.45
382.04	1043.88
382.24	1008.77
382.43	947.92
382.63	1022.81
382.83	1062.60
383.02	1071.97
383.22	1144.52
383.41	992.39
383.61	1067.28
383.80	1102.39
384.00	1123.46
384.19	1074.31
384.39	1093.03
384.58	1121.12
384.78	1064.94
384.97	1165.59
385.17	1170.27
385.36	1179.63
385.56	1170.27
385.75	1163.25
385.95	1135.16
386.14	1177.29
386.34	1151.54
386.53	1203.04
386.72	1238.14
386.92	1259.21
387.11	1193.67
387.31	1233.46
387.50	1163.25
387.70	1210.06
387.89	1277.93
388.09	1270.91
388.28	1235.80
388.48	1261.55
388.67	1334.11
388.86	1299.00
389.06	1287.29
389.25	1277.93
389.45	1275.59
389.64	1317.72
389.84	1404.32
390.03	1336.45
390.22	1376.24
390.42	1324.74
390.61	1336.45
390.81	1394.96
391.00	1420.71
391.19	1453.47
391.39	1322.40
391.58	1397.30
391.78	1467.52
391.97	1502.62
392.16	1500.28
392.36	1357.51
392.55	1458.15
392.75	1493.26
392.94	1446.45
393.13	1495.60
393.33	1504.96
393.52	1554.12
393.71	1430.07
393.91	1535.39
394.10	1600.93
394.29	1575.18
394.49	1551.78
394.68	1600.93
394.88	1687.53
395.07	1724.97
395.26	1732.00
395.46	1710.93
395.65	1682.85
395.84	1626.67
396.04	1781.15
396.23	1732.00
396.42	1755.40
396.62	1783.49
396.81	1764.76
397.00	1755.40
397.19	1743.70
397.39	1802.21
397.58	1849.02
397.77	1771.79
397.97	1783.49
398.16	1753.06
398.35	1858.39
398.55	1804.55
398.74	1961.37
398.93	1891.15
399.12	1877.11
399.32	1940.30
399.51	1874.77
399.70	1987.11
399.90	1935.62
400.09	1961.37
400.28	1968.39
400.47	1956.69
400.67	2090.10
400.86	2054.99
401.05	2087.76
401.24	2120.53
401.44	2094.78
401.63	2090.10
401.82	2094.78
402.01	2111.16
402.21	2118.18
402.40	2244.57
402.59	2246.91
402.78	2146.27
402.97	2190.74
403.17	2200.10
403.36	2246.91
403.55	2284.36
403.74	2249.25
403.93	2342.88
404.13	2415.43
404.32	2282.02
404.51	2380.32
404.70	2321.81
404.89	2408.41
405.09	2389.69
405.28	2368.62
405.47	2459.90
405.66	2516.08
405.85	2518.42
406.05	2478.63
406.24	2567.57
406.43	2562.89
406.62	2572.25
406.81	2644.81
407.00	2532.46
407.20	2572.25
407.39	2511.39
407.58	2656.51
407.77	2754.81
407.96	2672.89
408.15	2705.66
408.34	2733.75
408.54	2623.74
408.73	2792.26
408.92	2750.13
409.11	2808.64
409.30	2923.33
409.49	2946.73
409.68	2860.13
409.87	2832.05
410.07	2848.43
410.26	2972.48
410.45	2979.50
410.64	2897.58
410.83	3166.74
411.02	3178.45
411.21	3082.49
411.40	3176.11
411.59	3143.34
411.78	3094.19
411.98	3108.23
412.17	3286.11
412.36	3208.87
412.55	3253.34
412.74	3426.54
412.93	3424.20
413.12	3337.60
413.31	3421.86
413.50	3452.29
413.69	3440.59
413.88	3620.81
414.07	3604.42
414.26	3562.30
414.45	3676.98
414.64	3672.30
414.83	3829.12
415.02	3768.26
415.22	3791.67
415.41	3859.54
415.60	3948.48
415.79	3812.73
415.98	3925.08
416.17	3934.44
416.36	3882.95
416.55	4018.70
416.74	4114.66
416.93	4060.83
417.12	4002.32
417.31	4086.58
417.50	4149.77
417.69	4056.15
417.88	4248.07
418.07	4124.02
418.26	4205.94
418.45	4327.65
418.64	4463.40
418.83	4367.44
419.02	4257.43
419.21	4465.74
419.39	4461.06
419.58	4414.25
419.77	4327.65
419.96	4489.15
420.15	4692.77
420.34	4533.62
420.53	4554.68
420.72	4500.85
420.91	4594.47
421.10	4697.46
421.29	4709.16
421.48	4622.56
421.67	4615.54
421.86	4725.54
422.05	4887.04
422.24	4617.88
422.43	4791.08
422.61	4791.08
422.80	4926.83
422.99	4709.16
423.18	5013.43
423.37	4947.89
423.56	4828.53
423.75	4903.42
423.94	4762.99
424.13	4589.79
424.32	4615.54
424.50	4954.91
424.69	5203.01
424.88	4931.51
425.07	4880.02
425.26	4798.10
425.45	4952.57
425.64	4865.97
425.83	5048.54
426.01	4882.36
426.20	4865.97
426.39	5179.61
426.58	5057.90
426.77	4922.15
426.96	4999.38
427.15	5097.69
427.33	5259.18
427.52	5158.54
427.71	5242.80
427.90	5156.20
428.09	5144.50
428.28	5301.31
428.46	5212.37
428.65	5320.04
428.84	5626.65
429.03	5495.58
429.22	5270.89
429.40	5614.95
429.59	5406.64
429.78	5273.23
429.97	5142.16
430.16	5518.98
430.34	5617.29
430.53	5612.60
430.72	5788.14
430.91	5612.60
431.10	5462.81
431.28	5614.95
431.47	5628.99
431.66	5753.04
431.85	5841.98
432.03	5762.40
432.22	5916.87
432.41	5844.32
432.60	5891.13
432.79	5748.36
432.97	5809.21
433.16	5837.30
433.35	5912.19
433.54	5788.14
433.72	6069.01
433.91	6003.47
434.10	6099.44
434.28	5989.43
434.47	6230.51
434.66	6225.82
434.85	6204.76
435.03	6314.77
435.22	6118.16
435.41	6471.58
435.59	6291.36
435.78	6469.24
435.97	6363.92
436.16	6576.91
436.34	6469.24
436.53	6424.77
436.72	6511.37
436.90	6389.66
437.09	6408.39
437.28	6401.37
437.46	6665.85
437.65	6712.66
437.84	6663.51
438.02	6693.93
438.21	6476.26
438.40	6569.88
438.58	6857.77
438.77	6827.34
438.96	6904.58
439.14	7166.72
439.33	7145.66
439.52	7028.63
439.70	6991.18
439.89	7178.42
440.08	7332.90
440.26	7314.17
440.45	7431.20
440.63	7468.65
440.82	7459.29
441.01	7538.87
441.19	7403.11
441.38	7611.42
441.57	7740.15
441.75	7616.10
441.94	7822.07
442.12	7875.90
442.31	7913.35
442.50	7927.39
442.68	7838.45
442.87	7850.16
443.05	8053.78
443.24	8390.82
443.43	8100.59
443.61	8205.92
443.80	8329.97
443.98	7955.48
444.17	7826.75
444.35	8093.57
444.54	8250.39
444.73	8264.43
444.91	8166.13
445.10	8119.32
445.28	8248.05
445.47	8133.36
445.65	8198.90
445.84	8372.10
446.02	8446.99
446.21	8266.77
446.39	8196.56
446.58	8475.08
446.77	8428.27
446.95	8140.38
447.14	8397.84
447.32	8432.95
447.51	8592.11
447.69	8463.38
447.88	8437.63
448.06	8493.80
448.25	8390.82
448.43	8484.44
448.62	8669.34
448.80	8229.32
448.99	8636.58
449.17	8564.02
449.36	8549.98
449.54	8716.16
449.73	8992.34
449.91	8847.22
450.10	9036.81
450.28	8959.57
450.46	9060.21
450.65	9153.84
450.83	8938.51
451.02	8997.02
451.20	9130.43
451.39	9121.07
451.57	8833.18
451.76	8812.12
451.94	8903.40
452.13	9249.80
452.31	9142.13
452.49	9249.80
452.68	9310.65
452.86	9298.95
453.05	9408.95
453.23	9462.79
453.42	9235.75
453.60	9434.70
453.78	9408.95
453.97	9277.88
454.15	9446.40
454.34	9385.55
454.52	9547.05
454.70	9872.38
454.89	9439.38
455.07	9664.07
455.26	9788.12
455.44	9989.41
455.62	9895.78
455.81	9874.72
455.99	9825.57
456.17	9970.68
456.36	9900.47
456.54	9966.00
456.73	10216.44
456.91	10431.77
457.09	10253.89
457.28	10448.15
457.46	10186.01
457.64	10324.10
457.83	10422.41
458.01	10354.53
458.19	10682.20
458.38	10497.30
458.56	10619.01
458.74	10602.63
458.93	10567.52
459.11	10527.73
459.29	10422.41
459.48	10729.02
459.66	10796.89
459.84	10780.51
460.03	10803.91
460.21	10883.49
460.39	10827.32
460.57	10942.00
460.76	11159.67
460.94	11164.36
461.12	11131.59
461.31	11105.84
461.49	11166.70
461.67	10958.39
461.85	11276.70
462.04	11164.36
462.22	11758.85
462.40	11447.56
462.59	11496.71
462.77	11452.24
462.95	11482.67
463.13	11330.53
463.32	11545.86
463.50	11548.20
463.68	11955.46
463.86	11700.34
464.05	11513.10
464.23	11625.44
464.41	11665.23
464.59	11255.64
464.78	11960.14
464.96	12035.03
465.14	11679.27
465.32	11819.71
465.50	12020.99
465.69	12023.33
465.87	12065.46
466.05	11936.73
466.23	12084.19
466.41	12126.32
466.60	12374.41
466.78	11983.54
466.96	12053.76
467.14	12175.47
467.32	12262.07
467.51	12257.39
467.69	12037.38
467.87	12435.27
468.05	12444.63
468.23	12365.05
468.41	12636.55
468.60	12437.61
468.78	12622.51
468.96	12564.00
469.14	12423.56
469.32	12774.64
469.50	12458.67
469.69	12788.69
469.87	12908.05
470.05	13090.62
470.23	12992.31
470.41	12996.99
470.59	13107.00
470.77	12987.63
470.95	13343.39
471.14	13387.86
471.32	13277.86
471.50	13654.69
471.68	13301.26
471.86	13617.24
472.04	13511.91
472.22	13841.93
472.40	13472.12
472.58	13944.91
472.77	13657.03
472.95	14043.21
473.13	14473.87
473.31	13839.59
473.49	13914.48
473.67	14129.81
473.85	14207.05
474.03	14597.92
474.21	14525.36
474.39	14455.15
474.57	14618.99
474.75	14766.44
474.93	14998.15
475.12	14672.82
475.30	15260.29
475.48	14885.81
475.66	15035.60
475.84	14899.85
476.02	15133.90
476.20	15269.66
476.38	15552.86
476.56	15789.25
476.74	16170.76
476.92	15637.12
477.10	15597.33
477.28	16095.86
477.46	16044.37
477.64	16137.99
477.82	16573.33
478.00	16762.92
478.18	16594.40
478.36	16709.08
478.54	17032.08
478.72	17193.58
478.90	17088.25
479.08	17319.96
479.26	17596.15
479.44	17598.49
479.62	17701.47
479.80	17811.48
479.98	17991.70
480.16	18274.90
480.34	18134.47
480.52	18391.93
480.70	18429.38
480.88	18420.02
481.06	18628.32
481.24	18492.57
481.41	19033.24
481.59	19143.24
481.77	19250.91
481.95	19349.21
482.13	19585.60
482.31	19599.65
482.49	19854.76
482.67	19985.83
482.85	20308.83
483.03	20262.02
483.21	20561.61
483.39	20608.42
483.57	20435.22
483.74	20863.54
483.92	20802.68
484.10	21156.10
484.28	21570.38
484.46	21563.36
484.64	22008.06
484.82	21645.27
485.00	21928.48
485.18	22515.95
485.35	22731.28
485.53	22272.54
485.71	22948.95
485.89	23396.00
486.07	22984.06
486.25	23295.35
486.43	23398.34
486.61	23695.58
486.78	23817.29
486.96	23824.31
487.14	24350.93
487.32	24063.05
487.50	24622.44
487.68	24959.47
487.85	25228.63
488.03	25046.07
488.21	25579.71
488.39	25504.82
488.57	26064.21
488.75	25926.11
488.92	25996.33
489.10	26462.10
489.28	26403.58
489.46	26850.63
489.64	26518.27
489.81	27398.31
489.99	27278.94
490.17	27461.51
490.35	27576.19
490.53	28123.88
490.70	27953.02
490.88	28196.43
491.06	28676.24
491.24	28739.44
491.41	28877.53
491.59	29008.60
491.77	29050.73
491.95	29593.73
492.13	29600.76
492.30	29465.00
492.48	29572.67
492.66	30106.31
492.84	30190.57
493.01	30031.41
493.19	30359.09
493.37	30593.14
493.54	30553.35
493.72	31292.96
493.90	31295.30
494.08	31445.10
494.25	31695.53
494.43	31723.62
494.61	31878.10
494.79	32224.50
494.96	32348.54
495.14	32283.01
495.32	32849.42
495.49	32877.51
495.67	32868.14
495.85	33298.80
496.02	33504.77
496.20	33914.36
496.38	33734.14
496.55	33846.49
496.73	34656.31
496.91	34132.03
497.09	34511.20
497.26	34796.74
497.44	34852.92
497.62	34810.79
497.79	35274.21
497.97	35353.79
498.14	36210.43
498.32	36093.40
498.50	35747.00
498.67	36566.19
498.85	36004.46
499.03	36739.39
499.20	36446.82
499.38	36392.99
499.56	36961.74
499.73	36959.40
499.91	37083.45
500.08	37584.32
500.26	36921.95
500.44	37530.49
500.61	37277.71
500.79	37518.79
500.97	37603.05
501.14	38412.87
501.32	38312.23
501.49	38075.84
501.67	38272.44
501.84	38597.77
502.02	38408.19
502.20	38672.67
502.37	38852.89
502.55	39000.35
502.72	39079.92
502.90	39388.88
503.07	39037.80
503.25	39442.71
503.43	39601.86
503.60	39934.22
503.78	40088.70
503.95	39948.26
504.13	39803.15
504.30	40477.22
504.48	40388.28
504.65	40502.97
504.83	40622.34
505.01	40882.14
505.18	40690.21
505.36	40877.46
505.53	40821.28
505.71	41322.16
505.88	41195.77
506.06	41109.17
506.23	41907.29
506.41	41352.58
506.58	41350.24
506.76	42110.92
506.93	42300.50
507.11	41951.76
507.28	42103.90
507.46	42202.20
507.63	42469.02
507.81	42934.79
507.98	42506.47
508.16	43086.92
508.33	43061.18
508.50	43292.89
508.68	43416.94
508.85	43758.66
509.03	43423.96
509.20	43320.98
509.38	44135.48
509.55	44467.84
509.73	43775.04
509.90	44514.65
510.08	44339.11
510.25	44638.70
510.42	44554.44
510.60	44493.58
510.77	44854.03
510.95	45193.40
511.12	44622.31
511.30	44818.92
511.47	44903.18
511.64	45289.37
511.82	45701.30
511.99	45406.39
512.17	45485.97
512.34	45317.45
512.51	46227.92
512.69	45949.40
512.86	46073.45
513.04	46192.81
513.21	46429.21
513.38	46185.79
513.56	46869.23
513.73	46974.55
513.90	46700.71
514.08	46803.69
514.25	46796.67
514.43	47264.78
514.60	47021.36
514.77	47007.32
514.95	47524.58
515.12	47363.08
515.29	47430.96
515.47	47578.41
515.64	47725.86
515.81	47714.16
515.99	47892.04
516.16	48285.25
516.33	48067.58
516.51	48357.81
516.68	48102.69
516.85	47990.34
517.03	48608.25
517.20	48315.68
517.37	48449.09
517.54	48619.95
517.72	48648.03
517.89	48858.68
518.06	49102.10
518.24	49062.31
518.41	48872.73
518.58	48704.21
518.75	49001.46
518.93	49397.01
519.10	49177.00
519.27	49715.32
519.45	49507.01
519.62	49766.81
519.79	49586.59
519.96	49640.42
520.14	49759.79
520.31	50026.61
520.48	49893.20
520.65	49710.64
520.83	50480.67
521.00	50312.16
521.17	50461.95
521.34	49935.33
521.52	50667.92
521.69	50389.39
521.86	50696.00
522.03	50789.62
522.20	50780.26
522.38	50738.13
522.55	51121.98
522.72	51147.73
522.89	51309.22
523.07	51353.69
523.24	51253.05
523.41	51452.00
523.58	51246.03
523.75	51398.16
523.92	51370.08
524.10	51533.92
524.27	52062.88
524.44	51491.79
524.61	51625.20
524.78	52018.41
524.96	51800.74
525.13	52006.70
525.30	52313.31
525.47	52399.91
525.64	52205.65
525.81	52430.34
525.98	52486.51
526.16	52165.86
526.33	52205.65
526.50	52439.70
526.67	52336.72
526.84	52591.84
527.01	52512.26
527.18	52523.96
527.36	52671.42
527.53	53062.29
527.70	53020.16
527.87	53081.01
528.04	52898.45
528.21	53048.24
528.38	52912.49
528.55	53605.29
528.72	53034.20
528.89	53099.73
529.07	52996.75
529.24	53385.28
529.41	53380.60
529.58	53509.33
529.75	53352.51
529.92	53738.70
530.09	53469.54
530.26	53656.78
530.43	53682.53
530.60	53509.33
530.77	53745.72
530.94	53895.52
531.11	53581.88
531.28	54110.85
531.46	54099.14
531.63	54007.86
531.80	54082.76
531.97	54115.53
532.14	54277.02
532.31	54288.73
532.48	54092.12
532.65	54321.49
532.82	54447.88
532.99	54248.94
533.16	54424.48
533.33	54602.36
533.50	54653.85
533.67	54532.14
533.84	54473.63
534.01	54637.47
534.18	54695.98
534.35	55035.36
534.52	54857.48
534.69	55004.93
534.86	54944.08
535.03	54850.45
535.20	55367.71
535.37	55337.29
535.54	55079.83
535.71	54852.80
535.88	55236.64
536.05	55047.06
536.22	55540.91
536.38	55365.37
536.55	55234.30
536.72	55107.91
536.89	55327.92
537.06	55423.89
537.23	55356.01
537.40	55306.86
537.57	55468.36
537.74	55592.40
537.91	55732.84
538.08	55739.86
538.25	55517.51
538.42	55494.10
538.59	56027.74
538.75	55756.24
538.92	55943.48
539.09	55941.14
539.26	56090.94
539.43	56009.02
539.60	56158.81
539.77	56009.02
539.94	56268.82
540.11	56219.67
540.28	56219.67
540.44	56233.71
540.61	56205.62
540.78	56135.41
540.95	56165.84
541.12	56044.13
541.29	56332.01
541.46	56280.52
541.62	56526.28
541.79	56484.15
541.96	56027.74
542.13	56437.34
542.30	56467.76
542.47	56713.52
542.63	56694.80
542.80	56734.59
542.97	56905.44
543.14	56917.15
543.31	56914.81
543.48	56666.71
543.64	57050.56
543.81	57242.48
543.98	57277.59
544.15	57102.05
544.32	57209.71
544.48	57272.91
544.65	57212.06
544.82	57350.15
544.99	57174.61
545.16	57118.43
545.32	57144.18
545.49	57481.22
545.66	57542.07
545.83	57261.21
546.00	57511.64
546.16	57345.47
546.33	57396.96
546.50	57420.36
546.67	57427.38
546.83	57202.69
547.00	57439.09
547.17	57389.94
547.34	57434.41
547.50	57867.40
547.67	57904.85
547.84	57680.16
548.00	57815.91
548.17	57914.22
548.34	57745.70
548.51	58005.50
548.67	58113.16
548.84	57844.00
549.01	57916.56
549.18	57954.00
549.34	57932.94
549.51	57930.60
549.68	58108.48
549.84	58061.67
550.01	58272.32
550.18	57979.75
550.34	58176.36
550.51	58206.78
550.68	58024.22
550.84	58370.62
551.01	58609.35
551.18	58199.76
551.34	58391.68
551.51	58323.81
551.68	58342.53
551.84	58354.24
552.01	58227.85
552.18	58487.65
552.34	58188.06
552.51	58660.85
552.68	58288.70
552.84	58578.93
553.01	58695.95
553.18	58555.52
553.34	58719.36
553.51	58298.06
553.67	58557.86
553.84	58649.14
554.01	58567.23
554.17	58752.13
554.34	58855.11
554.51	58651.48
554.67	58803.62
554.84	58794.26
555.00	58681.91
555.17	58937.03
555.33	59058.74
555.50	58777.87
555.67	58712.34
555.83	58878.52
556.00	58986.18
556.16	59199.17
556.33	58946.39
556.50	58789.58
556.66	59229.60
556.83	58904.26
556.99	59143.00
557.16	59402.80
557.32	59262.36
557.49	59391.09
557.65	59236.62
557.82	59274.07
557.98	59199.17
558.15	59292.79
558.32	59325.56
558.48	58988.52
558.65	59185.13
558.81	59323.22
558.98	59166.40
559.14	59470.67
559.31	59386.41
559.47	59587.70
559.64	59363.01
559.80	59447.27
559.97	59494.08
560.13	59468.33
560.30	59639.19
560.46	59440.24
560.63	59709.41
560.79	59573.66
560.96	59737.49
561.12	59496.42
561.29	59646.21
561.45	59522.16
561.61	59662.60
561.78	59489.40
561.94	59498.76
562.11	59707.07
562.27	59470.67
562.44	59779.62
562.60	59812.39
562.77	59777.28
562.93	59657.91
563.10	59796.01
563.26	59742.17
563.42	59877.93
563.59	59695.36
563.75	59774.94
563.92	59716.43
564.08	59845.16
564.24	59962.18
564.41	59744.51
564.57	59852.18
564.74	59976.23
564.90	59842.82
565.07	59751.54
565.23	59793.67
565.39	59985.59
565.56	59969.21
565.72	60016.02
565.88	60111.98
566.05	59910.69
566.21	59884.95
566.38	60067.51
566.54	59887.29
566.70	59833.46
566.87	60205.60
567.03	59969.21
567.19	60177.51
567.36	59983.25
567.52	60034.74
567.68	60493.49
567.85	60240.71
568.01	60067.51
568.17	60200.92
568.34	60247.73
568.50	60093.25
568.66	60186.88
568.83	60116.66
568.99	60186.88
569.15	60303.90
569.32	60126.02
569.48	60236.03
569.64	60280.50
569.81	60198.58
569.97	59971.55
570.13	60191.56
570.30	60198.58
570.46	60441.99
570.62	60355.39
570.78	60327.31
570.95	60264.11
571.11	60434.97
571.27	60271.14
571.43	60306.24
571.60	60493.49
571.76	60378.80
571.92	60402.21
572.09	60376.46
572.25	60395.18
572.41	60381.14
572.57	60439.65
572.74	60552.00
572.90	60289.86
573.06	60355.39
573.22	60432.63
573.38	60664.35
573.55	60552.00
573.71	60729.88
573.87	60360.08
574.03	60495.83
574.20	60514.55
574.36	60231.35
574.52	60395.18
574.68	60528.59
574.84	60488.80
575.01	60701.79
575.17	60533.28
575.33	60390.50
575.49	60399.86
575.65	60530.93
575.82	60701.79
575.98	60533.28
576.14	60659.66
576.30	60610.51
576.46	60467.74
576.62	60631.58
576.79	60472.42
576.95	60451.36
577.11	60603.49
577.27	60582.43
577.43	60587.11
577.59	60683.07
577.75	60739.24
577.92	60594.13
578.08	60615.19
578.24	60657.32
578.40	60905.42
578.56	60856.27
578.72	60734.56
578.88	60856.27
579.04	60882.02
579.21	60603.49
579.37	60762.65
579.53	60907.76
579.69	60493.49
579.85	60626.90
580.01	60816.48
580.17	60640.94
580.33	60722.86
580.49	60891.38
580.65	60743.92
580.82	60786.05
580.98	60690.09
581.14	60526.25
581.30	60727.54
581.46	60727.54
581.62	60931.17
581.78	60741.58
581.94	60779.03
582.10	60676.05
582.26	60493.49
582.42	60772.01
582.58	60863.29
582.74	60640.94
582.90	60704.13
583.06	60800.10
583.22	60420.93
583.38	60788.39
583.54	60774.35
583.70	60790.73
583.86	60996.70
584.02	60811.80
584.18	60928.83
584.34	60701.79
584.50	60662.00
584.66	60701.79
584.82	60610.51
584.98	61013.08
585.14	60982.66
585.30	60598.81
585.46	60755.63
585.62	60956.91
585.78	61006.06
585.94	60746.26
586.10	60903.08
586.26	60704.13
586.42	61055.21
586.58	60947.55
586.74	60701.79
586.90	60699.45
587.06	60907.76
587.22	61022.45
587.38	60645.62
587.54	60884.36
587.70	61038.83
587.86	61083.30
588.02	60811.80
588.18	61036.49
588.34	60896.06
588.49	60800.10
