SpectraSuite Data File
++++++++++++++++++++++++++++++++++++
Date: Fri Oct 25 10:46:53 EDT 2013
User: price-jones
Dark Spectrum Present: No
Reference Spectrum Present: No
Number of Sampled Component Spectra: 1
Spectrometers: USB2+H05261
Integration Time (usec): 100000 (USB2+H05261)
Spectra Averaged: 1 (USB2+H05261)
Boxcar Smoothing: 0 (USB2+H05261)
Correct for Electrical Dark: No (USB2+H05261)
Strobe/Lamp Enabled: No (USB2+H05261)
Correct for Detector Non-linearity: No (USB2+H05261)
Correct for Stray Light: No (USB2+H05261)
Number of Pixels in Processed Spectrum: 2048
>>>>>Begin Processed Spectral Data<<<<<
365.73	173.20
365.92	173.20
366.12	173.20
366.32	23.41
366.52	60.85
366.72	49.15
366.91	14.04
367.11	46.81
367.31	9.36
367.51	32.77
367.70	53.83
367.90	67.88
368.10	60.85
368.30	51.49
368.49	79.58
368.69	42.13
368.89	70.22
369.09	86.60
369.28	60.85
369.48	46.81
369.68	60.85
369.87	39.79
370.07	168.52
370.27	128.73
370.47	212.99
370.66	458.74
370.86	404.91
371.06	465.77
371.25	493.85
371.45	435.34
371.65	493.85
371.84	465.77
372.04	500.87
372.24	454.06
372.44	510.24
372.63	517.26
372.83	486.83
373.03	468.11
373.22	456.40
373.42	472.79
373.62	554.71
373.81	543.00
374.01	589.82
374.21	442.36
374.40	559.39
374.60	566.41
374.79	531.30
374.99	603.86
375.19	638.97
375.38	594.50
375.58	585.13
375.78	690.46
375.97	624.92
376.17	610.88
376.37	557.05
376.56	620.24
376.76	634.29
376.95	592.16
377.15	650.67
377.35	634.29
377.54	620.24
377.74	678.76
377.93	589.82
378.13	692.80
378.33	702.16
378.52	697.48
378.72	638.97
378.91	657.69
379.11	592.16
379.31	730.25
379.50	615.56
379.70	653.01
379.89	727.91
380.09	716.20
380.28	674.07
380.48	704.50
380.68	671.73
380.87	606.20
381.07	685.78
381.26	678.76
381.46	643.65
381.65	662.37
381.85	688.12
382.04	683.44
382.24	730.25
382.43	671.73
382.63	716.20
382.83	711.52
383.02	718.54
383.22	655.35
383.41	737.27
383.61	716.20
383.80	664.71
384.00	777.06
384.19	795.78
384.39	704.50
384.58	765.36
384.78	784.08
384.97	828.55
385.17	753.65
385.36	739.61
385.56	854.30
385.75	812.17
385.95	821.53
386.14	844.93
386.34	866.00
386.53	755.99
386.72	819.19
386.92	866.00
387.11	875.36
387.31	854.30
387.50	812.17
387.70	884.72
387.89	849.61
388.09	903.45
388.28	905.79
388.48	887.06
388.67	929.19
388.86	901.11
389.06	887.06
389.25	887.06
389.45	922.17
389.64	966.64
389.84	1053.24
390.03	1046.22
390.22	1020.47
390.42	997.07
390.61	976.00
390.81	1020.47
391.00	1095.37
391.19	1018.13
391.39	1069.62
391.58	1086.01
391.78	1125.80
391.97	1060.26
392.16	987.71
392.36	1020.47
392.55	1041.54
392.75	990.05
392.94	1029.84
393.13	1064.94
393.33	1104.73
393.52	1060.26
393.71	1067.28
393.91	1179.63
394.10	1015.79
394.29	1069.62
394.49	1053.24
394.68	1184.31
394.88	1184.31
395.07	1261.55
395.26	1224.10
395.46	1137.50
395.65	1226.44
395.84	1146.86
396.04	1275.59
396.23	1130.48
396.42	1210.06
396.62	1252.19
396.81	1165.59
397.00	1139.84
397.19	1378.58
397.39	1170.27
397.58	1327.08
397.77	1320.06
397.97	1306.02
398.16	1413.68
398.35	1371.55
398.55	1427.73
398.74	1523.69
398.93	1558.80
399.12	1465.18
399.32	1439.43
399.51	1453.47
399.70	1488.58
399.90	1561.14
400.09	1547.09
400.28	1631.35
400.47	1528.37
400.67	1495.60
400.86	1565.82
401.05	1657.10
401.24	1722.63
401.44	1645.40
401.63	1696.89
401.82	1614.97
402.01	1682.85
402.21	1694.55
402.40	1722.63
402.59	1743.70
402.78	1762.42
402.97	1654.76
403.17	1795.19
403.36	1830.30
403.55	1832.64
403.74	1823.28
403.93	1799.87
404.13	1778.81
404.32	1750.72
404.51	1891.15
404.70	1954.35
404.89	1778.81
405.09	2029.24
405.28	1884.13
405.47	1858.39
405.66	1916.90
405.85	2003.50
406.05	1893.49
406.24	1989.46
406.43	1956.69
406.62	2038.61
406.81	2183.72
407.00	1994.14
407.20	1970.73
407.39	2026.90
407.58	2087.76
407.77	2059.67
407.96	2209.47
408.15	2188.40
408.34	2087.76
408.54	2204.78
408.73	2200.10
408.92	2244.57
409.11	2172.02
409.30	2296.07
409.49	2120.53
409.68	2225.85
409.87	2172.02
410.07	2235.21
410.26	2249.25
410.45	2396.71
410.64	2349.90
410.83	2399.05
411.02	2448.20
411.21	2413.09
411.40	2448.20
411.59	2614.38
411.78	2455.22
411.98	2478.63
412.17	2595.65
412.36	2544.16
412.55	2705.66
412.74	2635.44
412.93	2621.40
413.12	2605.02
413.31	2789.92
413.50	2672.89
413.69	2663.53
413.88	2747.79
414.07	2803.96
414.26	2726.72
414.45	2743.11
414.64	2860.13
414.83	2916.31
415.02	2939.71
415.22	2909.29
415.41	3117.59
415.60	2972.48
415.79	2942.05
415.98	3145.68
416.17	3164.40
416.36	3117.59
416.55	3112.91
416.74	3066.10
416.93	3110.57
417.12	3162.06
417.31	3314.20
417.50	3293.13
417.69	3442.93
417.88	3267.39
418.07	3276.75
418.26	3391.44
418.45	3428.88
418.64	3499.10
418.83	3522.51
419.02	3599.74
419.21	3438.25
419.39	3365.69
419.58	3379.73
419.77	3400.80
419.96	3438.25
420.15	3655.92
420.34	3545.91
420.53	3721.45
420.72	3576.34
420.91	3705.07
421.10	3688.68
421.29	3716.77
421.48	3726.13
421.67	3808.05
421.86	3707.41
422.05	3700.39
422.24	3758.90
422.43	3726.13
422.61	3861.88
422.80	3829.12
422.99	3805.71
423.18	3782.31
423.37	3838.48
423.56	3880.61
423.75	3768.26
423.94	3796.35
424.13	3653.58
424.32	3775.28
424.50	3754.22
424.69	3887.63
424.88	3934.44
425.07	3850.18
425.26	3660.60
425.45	3824.44
425.64	3854.86
425.83	3955.51
426.01	3859.54
426.20	3882.95
426.39	3873.59
426.58	3885.29
426.77	4077.21
426.96	3941.46
427.15	3915.72
427.33	4042.11
427.52	3854.86
427.71	4072.53
427.90	4102.96
428.09	4140.41
428.28	3932.10
428.46	4021.04
428.65	4093.60
428.84	4301.90
429.03	4227.01
429.22	3978.91
429.40	4100.62
429.59	3925.08
429.78	3911.04
429.97	3749.54
430.16	3960.19
430.34	4065.51
430.53	4156.79
430.72	4065.51
430.91	4252.75
431.10	4212.96
431.28	4210.62
431.47	4566.39
431.66	4557.02
431.85	4337.01
432.03	4463.40
432.22	4559.36
432.41	4617.88
432.60	4648.30
432.79	4638.94
432.97	4660.01
433.16	4461.06
433.35	4528.94
433.54	4521.92
433.72	4468.08
433.91	4561.70
434.10	4704.48
434.28	4720.86
434.47	4774.69
434.66	4844.91
434.85	4737.24
435.03	4816.82
435.22	4753.63
435.41	4791.08
435.59	4999.38
435.78	4980.66
435.97	4952.57
436.16	5085.98
436.34	4924.49
436.53	4987.68
436.72	5018.11
436.90	4880.02
437.09	5107.05
437.28	4917.47
437.46	5011.09
437.65	4938.53
437.84	5083.64
438.02	5097.69
438.21	5111.73
438.40	5064.92
438.58	5254.50
438.77	5305.99
438.96	5280.25
439.14	5352.81
439.33	5586.86
439.52	5481.53
439.70	5551.75
439.89	5423.02
440.08	5652.39
440.26	5645.37
440.45	5596.22
440.63	5612.60
440.82	5893.47
441.01	5785.80
441.19	5743.67
441.38	5928.58
441.57	6008.16
441.75	6031.56
441.94	5935.60
442.12	6239.87
442.31	6157.95
442.50	6010.50
442.68	6183.70
442.87	6195.40
443.05	6214.12
443.24	6270.30
443.43	6221.14
443.61	6289.02
443.80	6546.48
443.98	6127.52
444.17	5905.17
444.35	6328.81
444.54	6511.37
444.73	6359.24
444.91	6335.83
445.10	6310.08
445.28	6282.00
445.47	6164.97
445.65	6424.77
445.84	6239.87
446.02	6235.19
446.21	6352.21
446.39	6616.69
446.58	6382.64
446.77	6438.81
446.95	6342.85
447.14	6417.75
447.32	6612.01
447.51	6408.39
447.69	6499.67
447.88	6448.18
448.06	6335.83
448.25	6527.75
448.43	6642.44
448.62	6476.26
448.80	6494.99
448.99	6661.16
449.17	6604.99
449.36	6469.24
449.54	6607.33
449.73	6775.85
449.91	6843.73
450.10	6995.86
450.28	6944.37
450.46	7169.06
450.65	7028.63
450.83	7049.69
451.02	6974.80
451.20	7166.72
451.39	7035.65
451.57	7035.65
451.76	6895.22
451.94	7023.95
452.13	7005.22
452.31	6995.86
452.49	6895.22
452.68	7023.95
452.86	7005.22
453.05	7119.91
453.23	7077.78
453.42	7213.53
453.60	7073.10
453.78	7302.47
453.97	7140.97
454.15	7155.02
454.34	7145.66
454.52	7454.61
454.70	7162.04
454.89	7344.60
455.07	7316.51
455.26	7485.03
455.44	7559.93
455.62	7449.93
455.81	7555.25
455.99	7576.31
456.17	7461.63
456.36	7592.70
456.54	7733.13
456.73	7861.86
456.91	7674.62
457.09	7822.07
457.28	8046.76
457.46	7875.90
457.64	8219.96
457.83	7723.77
458.01	7866.54
458.19	7882.92
458.38	8107.62
458.56	7995.27
458.74	8217.62
458.93	8049.10
459.11	8226.98
459.29	8147.40
459.48	8126.34
459.66	8081.87
459.84	8283.16
460.03	8283.16
460.21	8329.97
460.39	8332.31
460.57	8315.92
460.76	8369.76
460.94	8449.33
461.12	8245.71
461.31	8503.17
461.49	8596.79
461.67	8517.21
461.85	8599.13
462.04	8718.50
462.22	8830.84
462.40	8769.99
462.59	8631.90
462.77	8692.75
462.95	8732.54
463.13	8561.68
463.32	8599.13
463.50	8704.45
463.68	8868.29
463.86	8720.84
464.05	8716.16
464.23	8594.45
464.41	8849.57
464.59	8622.53
464.78	8943.19
464.96	9011.06
465.14	8837.86
465.32	8966.59
465.50	9085.96
465.69	9305.97
465.87	9256.82
466.05	9202.99
466.23	8877.65
466.41	8982.98
466.60	9275.54
466.78	8812.12
466.96	9064.89
467.14	9078.94
467.32	9205.33
467.51	9259.16
467.69	8891.70
467.87	9132.77
468.05	9195.96
468.23	9167.88
468.41	9188.94
468.60	9336.40
468.78	9453.42
468.96	9193.62
469.14	9462.79
469.32	9462.79
469.50	9282.56
469.69	9544.70
469.87	9673.43
470.05	9628.96
470.23	9638.33
470.41	9654.71
470.59	9851.31
470.77	9640.67
470.95	9437.04
471.14	9851.31
471.32	9820.89
471.50	10136.86
471.68	10033.88
471.86	10022.17
472.04	9928.55
472.22	10317.08
472.40	9846.63
472.58	10277.29
472.77	9942.60
472.95	10228.14
473.13	10684.55
473.31	10223.46
473.49	10331.12
473.67	10377.94
473.85	10258.57
474.03	10757.10
474.21	10794.55
474.39	10736.04
474.57	10885.83
474.75	10906.90
474.93	10942.00
475.12	10972.43
475.30	10960.73
475.48	10953.71
475.66	11194.78
475.84	11042.65
476.02	11194.78
476.20	11302.45
476.38	11552.88
476.56	11573.95
476.74	11391.39
476.92	11730.76
477.10	11477.99
477.28	11829.07
477.46	11702.68
477.64	11871.20
477.82	12109.93
478.00	12147.38
478.18	12142.70
478.36	12351.01
478.54	12329.94
478.72	12278.45
478.90	12669.32
479.08	12835.50
479.26	12734.85
479.44	12849.54
479.62	12690.38
479.80	12968.91
479.98	13193.60
480.16	13397.23
480.34	13069.55
480.52	13195.94
480.70	13596.17
480.88	13336.37
481.06	13387.86
481.24	13851.29
481.41	13888.74
481.59	14047.90
481.77	14193.01
481.95	14396.64
482.13	14295.99
482.31	14106.41
482.49	14520.68
482.67	14583.88
482.85	14789.85
483.03	14953.68
483.21	14824.95
483.39	15051.99
483.57	15066.03
483.74	15431.15
483.92	15538.82
484.10	15328.17
484.28	15639.46
484.46	15971.82
484.64	15829.04
484.82	15822.02
485.00	15782.23
485.18	16210.55
485.35	16336.94
485.53	15950.75
485.71	15693.29
485.89	16196.51
486.07	16210.55
486.25	16580.36
486.43	16704.40
486.61	16786.32
486.78	16964.20
486.96	17109.32
487.14	17439.33
487.32	17446.35
487.50	17745.94
487.68	17762.33
487.85	18148.51
488.03	18328.74
488.21	18104.04
488.39	18141.49
488.57	18537.04
488.75	18670.45
488.92	18710.24
489.10	19094.09
489.28	19286.01
489.46	19335.17
489.64	19133.88
489.81	19662.84
489.99	19929.66
490.17	19840.72
490.35	20156.69
490.53	19695.61
490.70	20042.01
490.88	20362.66
491.06	20512.46
491.24	20393.09
491.41	20269.04
491.59	20262.02
491.77	20285.42
491.95	20917.37
492.13	20893.96
492.30	21247.38
492.48	21516.54
492.66	21106.95
492.84	21392.50
493.01	21649.96
493.19	21565.70
493.37	21813.79
493.54	22150.83
493.72	22260.84
493.90	22136.79
494.08	22375.52
494.25	22691.49
494.43	22616.60
494.61	23019.17
494.79	23119.81
494.96	23056.62
495.14	23159.60
495.32	23461.53
495.49	23449.83
495.67	23456.85
495.85	23896.87
496.02	24201.14
496.20	24041.98
496.38	24009.22
496.55	23955.38
496.73	24484.34
496.91	24210.50
497.09	24807.34
497.26	24397.74
497.44	24402.43
497.62	24814.36
497.79	24940.75
497.97	24617.75
498.14	24720.74
498.32	25242.68
498.50	25174.80
498.67	25549.29
498.85	25720.15
499.03	25724.83
499.20	25436.94
499.38	26054.84
499.56	26057.18
499.73	26001.01
499.91	26092.29
500.08	26136.76
500.26	26118.04
500.44	25963.56
500.61	25867.60
500.79	26209.32
500.97	26127.40
501.14	26923.18
501.32	26904.46
501.49	26829.56
501.67	27044.89
501.84	26974.67
502.02	27215.75
502.20	27297.67
502.37	27522.36
502.55	27417.04
502.72	27454.48
502.90	27927.27
503.07	27625.34
503.25	27941.32
503.43	27332.78
503.60	27885.14
503.78	28034.94
503.95	27765.78
504.13	27864.08
504.30	28404.74
504.48	28180.05
504.65	28432.83
504.83	28716.03
505.01	28524.11
505.18	28669.22
505.36	28610.71
505.53	29013.28
505.71	29242.65
505.88	29469.69
506.06	29134.99
506.23	29284.78
506.41	29249.67
506.58	29146.69
506.76	29413.51
506.93	29326.91
507.11	29448.62
507.28	29757.57
507.46	29621.82
507.63	29640.54
507.81	29692.04
507.98	29673.31
508.16	29834.81
508.33	30012.69
508.50	30300.58
508.68	30075.88
508.85	31199.34
509.03	30953.58
509.20	30637.61
509.38	30974.65
509.55	30799.11
509.73	30848.26
509.90	30806.13
510.08	30492.50
510.25	31311.69
510.42	31105.72
510.60	31314.03
510.77	31278.92
510.95	31519.99
511.12	31218.07
511.30	31377.22
511.47	31899.16
511.64	31503.61
511.82	31950.65
511.99	31304.67
512.17	31466.16
512.34	31960.02
512.51	32084.06
512.69	32240.88
512.86	32301.73
513.04	32631.75
513.21	32140.24
513.38	32535.79
513.56	32233.86
513.73	32591.96
513.90	32737.07
514.08	32519.40
514.25	32917.29
514.43	32821.33
514.60	32957.08
514.77	32648.13
514.95	33378.38
515.12	33001.55
515.29	33263.69
515.47	33684.99
515.64	33586.69
515.81	32957.08
515.99	33422.85
516.16	33546.90
516.33	32994.53
516.51	33434.55
516.68	32835.38
516.85	33186.46
517.03	33626.48
517.20	33539.88
517.37	33598.39
517.54	34129.69
517.72	34007.98
517.89	33743.50
518.06	33841.81
518.24	34129.69
518.41	33666.27
518.58	34003.30
518.75	34251.40
518.93	34342.68
519.10	34251.40
519.27	34469.07
519.45	34595.46
519.62	34897.39
519.79	34843.56
519.96	34857.60
520.14	35335.07
520.31	34789.72
520.48	35175.91
520.65	35204.00
520.83	35098.67
521.00	35522.31
521.17	35309.32
521.34	35711.89
521.52	35761.05
521.69	35658.06
521.86	35899.14
522.03	35669.76
522.20	35739.98
522.38	36060.63
522.55	36196.38
522.72	36315.75
522.89	35866.37
523.07	36437.46
523.24	36151.91
523.41	36177.66
523.58	36170.64
523.75	36666.83
523.92	36575.55
524.10	36723.01
524.27	36833.01
524.44	36957.06
524.61	37144.30
524.78	37088.13
524.96	37249.63
525.13	37310.48
525.30	37457.93
525.47	37687.31
525.64	37315.16
525.81	37076.43
525.98	36999.19
526.16	36992.17
526.33	37249.63
526.50	37387.72
526.67	37113.87
526.84	36753.43
527.01	37130.26
527.18	37481.34
527.36	37514.11
527.53	37720.07
527.70	38462.02
527.87	38363.72
528.04	37975.19
528.21	37970.51
528.38	38637.56
528.55	38649.27
528.72	38497.13
528.89	38445.64
529.07	38457.34
529.24	38419.89
529.41	38562.67
529.58	38190.52
529.75	38412.87
529.92	38515.86
530.09	38862.26
530.26	38782.68
530.43	38667.99
530.60	38778.00
530.77	38639.90
530.94	39143.12
531.11	39138.44
531.28	38820.13
531.46	38941.83
531.63	39126.74
531.80	39105.67
531.97	39047.16
532.14	39274.19
532.31	38866.94
532.48	38995.67
532.65	39405.26
532.82	39288.23
532.99	39503.56
533.16	39260.15
533.33	39885.07
533.50	39833.58
533.67	39440.37
533.84	39522.29
534.01	39800.81
534.18	39522.29
534.35	39793.79
534.52	39407.60
534.69	40229.13
534.86	40187.00
535.03	40165.93
535.20	39976.35
535.37	40318.07
535.54	40596.59
535.71	40261.90
535.88	40301.68
536.05	40053.59
536.22	39807.83
536.38	40676.17
536.55	40547.44
536.72	40460.84
536.89	40390.62
537.06	40194.02
537.23	40938.31
537.40	40760.43
537.57	40760.43
537.74	40629.36
537.91	41326.84
538.08	40973.42
538.25	40673.83
538.42	40367.22
538.59	40701.92
538.75	40603.61
538.92	40818.94
539.09	41713.03
539.26	40950.01
539.43	41179.39
539.60	41092.79
539.77	40825.96
539.94	41118.53
540.11	40968.74
540.28	41401.74
540.44	41111.51
540.61	41287.05
540.78	41256.62
540.95	41181.73
541.12	41612.38
541.29	41401.74
541.46	41710.69
541.62	41820.69
541.79	41476.63
541.96	41390.03
542.13	41350.24
542.30	41940.06
542.47	41631.11
542.63	41825.37
542.80	42249.01
542.97	42071.13
543.14	42307.52
543.31	41921.34
543.48	42323.91
543.64	42731.16
543.81	43002.66
543.98	42543.92
544.15	42396.46
544.32	42829.46
544.48	42787.33
544.65	42806.06
544.82	42543.92
544.99	42478.38
545.16	42670.31
545.32	42834.14
545.49	43192.25
545.66	43164.16
545.83	43042.45
546.00	43040.11
546.16	42705.41
546.33	42628.18
546.50	42417.53
546.67	43079.90
546.83	42284.12
547.00	43103.31
547.17	42925.42
547.34	43363.11
547.50	42981.60
547.67	43335.02
547.84	42902.02
548.00	43379.49
548.17	43421.62
548.34	43168.84
548.51	43856.96
548.67	43702.48
548.84	43782.06
549.01	43421.62
549.18	43618.22
549.34	43295.23
549.51	43721.21
549.68	43613.54
549.84	43641.63
550.01	44023.14
550.18	43679.08
550.34	44020.80
550.51	43899.09
550.68	43297.57
550.84	43704.82
551.01	43833.55
551.18	43728.23
551.34	43896.75
551.51	43688.44
551.68	44414.01
551.84	44194.00
552.01	43770.36
552.18	43814.83
552.34	43660.35
552.51	44198.68
552.68	43899.09
552.84	44325.07
553.01	44406.98
553.18	43981.01
553.34	44095.69
553.51	43887.39
553.67	44222.08
553.84	44580.18
554.01	44414.01
554.17	44112.08
554.34	44648.06
554.51	44423.37
554.67	44847.00
554.84	44395.28
555.00	44348.47
555.17	44463.16
555.33	44531.03
555.50	44568.48
555.67	44453.79
555.83	44573.16
556.00	44545.08
556.16	45277.66
556.33	44451.45
556.50	44458.48
556.66	44797.85
556.83	44500.61
556.99	45059.99
557.16	45233.19
557.32	44959.35
557.49	44861.05
557.65	44634.02
557.82	44514.65
557.98	44828.28
558.15	44605.93
558.32	45006.16
558.48	44617.63
558.65	44626.99
558.81	45020.20
558.98	44896.16
559.14	45200.43
559.31	44865.73
559.47	45092.76
559.64	45148.93
559.80	45177.02
559.97	45326.81
560.13	44905.52
560.30	44851.69
560.46	45427.46
560.63	45244.90
560.79	45237.87
560.96	45628.74
561.12	45343.20
561.29	45174.68
561.45	45441.50
561.61	45254.26
561.78	45237.87
561.94	45354.90
562.11	44842.32
562.27	45497.67
562.44	45139.57
562.60	45565.55
562.77	45642.79
562.93	45603.00
563.10	45464.91
563.26	45207.45
563.42	45689.60
563.59	45368.94
563.75	45661.51
563.92	45933.01
564.08	45221.49
564.24	45600.66
564.41	45668.53
564.57	45549.17
564.74	45221.49
564.90	45614.70
565.07	45705.98
565.23	45710.66
565.39	45118.51
565.56	45600.66
565.72	45326.81
565.88	45518.74
566.05	45598.32
566.21	45492.99
566.38	45467.25
566.54	45390.01
566.70	45577.25
566.87	45949.40
567.03	45322.13
567.19	45860.46
567.36	45731.73
567.52	45530.44
567.68	45759.81
567.85	45401.71
568.01	45605.34
568.17	45558.53
568.34	46148.34
568.50	45815.99
568.66	45628.74
568.83	45911.95
568.99	45584.27
569.15	45675.55
569.32	46103.87
569.48	45263.62
569.64	46057.06
569.81	45769.18
569.97	45776.20
570.13	46181.11
570.30	45752.79
570.46	45551.51
570.62	45549.17
570.78	45673.21
570.95	45586.61
571.11	45558.53
571.27	45553.85
571.43	45949.40
571.60	46148.34
571.76	45731.73
571.92	45928.33
572.09	45825.35
572.25	45724.71
572.41	45846.41
572.57	46080.47
572.74	46134.30
572.90	46005.57
573.06	45921.31
573.22	45738.75
573.38	45993.87
573.55	45970.46
573.71	46117.92
573.87	45869.82
574.03	45801.94
574.20	45766.84
574.36	45801.94
574.52	45677.90
574.68	46176.43
574.84	46483.04
575.01	46167.07
575.17	46092.17
575.33	45806.62
575.49	45467.25
575.65	46024.29
575.82	46347.29
575.98	45937.69
576.14	46553.26
576.30	46162.39
576.46	45961.10
576.62	45830.03
576.79	45961.10
576.95	45755.13
577.11	45881.52
577.27	45876.84
577.43	45858.12
577.59	46288.77
577.75	45923.65
577.92	45460.23
578.08	45858.12
578.24	45567.89
578.40	45815.99
578.56	46127.28
578.72	45834.71
578.88	46557.94
579.04	45710.66
579.21	46115.58
579.37	45986.85
579.53	46160.05
579.69	45961.10
579.85	45832.37
580.01	46202.18
580.17	46108.55
580.33	45895.56
580.49	45677.90
580.65	46274.73
580.82	46382.40
580.98	46323.88
581.14	46036.00
581.30	46258.35
581.46	46066.42
581.62	46087.49
581.78	45834.71
581.94	46429.21
582.10	46454.95
582.26	46354.31
582.42	46291.12
582.58	46256.01
582.74	46036.00
582.90	45930.67
583.06	46288.77
583.22	46667.94
583.38	46562.62
583.54	46642.20
583.70	46337.93
583.86	46611.77
584.02	46267.71
584.18	46094.51
584.34	46099.19
584.50	46518.15
584.66	45708.32
584.82	45841.73
584.98	46747.52
585.14	46256.01
585.30	46124.94
585.46	46129.62
585.62	46134.30
585.78	46157.70
585.94	45801.94
586.10	45989.19
586.26	45893.22
586.42	46302.82
586.58	46384.74
586.74	46183.45
586.90	46054.72
587.06	46181.11
587.22	46445.59
587.38	45975.14
587.54	46532.19
587.70	46672.62
587.86	46169.41
588.02	46143.66
588.18	46209.20
588.34	46181.11
588.49	45942.38
588.65	45895.56
588.81	46150.68
588.97	45642.79
589.13	45862.80
589.29	45661.51
589.45	45911.95
589.61	46382.40
589.77	46293.46
589.93	46284.09
