SpectraSuite Data File
++++++++++++++++++++++++++++++++++++
Date: Fri Oct 25 11:33:12 EDT 2013
User: price-jones
Dark Spectrum Present: No
Reference Spectrum Present: No
Number of Sampled Component Spectra: 1
Spectrometers: USB2+H05261
Integration Time (usec): 100000 (USB2+H05261)
Spectra Averaged: 1 (USB2+H05261)
Boxcar Smoothing: 0 (USB2+H05261)
Correct for Electrical Dark: No (USB2+H05261)
Strobe/Lamp Enabled: No (USB2+H05261)
Correct for Detector Non-linearity: No (USB2+H05261)
Correct for Stray Light: No (USB2+H05261)
Number of Pixels in Processed Spectrum: 2048
>>>>>Begin Processed Spectral Data<<<<<
365.73	262.14
365.92	262.14
366.12	262.14
366.32	168.52
366.52	273.84
366.72	243.42
366.91	175.54
367.11	189.58
367.31	187.24
367.51	212.99
367.70	177.88
367.90	215.33
368.10	194.26
368.30	194.26
368.49	203.63
368.69	194.26
368.89	217.67
369.09	205.97
369.28	177.88
369.48	173.20
369.68	177.88
369.87	264.48
370.07	315.97
370.27	280.86
370.47	245.76
370.66	383.85
370.86	575.77
371.06	514.92
371.25	589.82
371.45	575.77
371.65	587.47
371.84	550.03
372.04	573.43
372.24	528.96
372.44	645.99
372.63	620.24
372.83	535.98
373.03	547.69
373.22	564.07
373.42	599.18
373.62	578.11
373.81	615.56
374.01	589.82
374.21	615.56
374.40	594.50
374.60	723.23
374.79	676.41
374.99	692.80
375.19	610.88
375.38	655.35
375.58	660.03
375.78	711.52
375.97	636.63
376.17	676.41
376.37	664.71
376.56	723.23
376.76	587.47
376.95	685.78
377.15	655.35
377.35	634.29
377.54	777.06
377.74	653.01
377.93	702.16
378.13	732.59
378.33	739.61
378.52	641.31
378.72	683.44
378.91	720.88
379.11	730.25
379.31	662.37
379.50	753.65
379.70	692.80
379.89	730.25
380.09	720.88
380.28	709.18
380.48	645.99
380.68	830.89
380.87	690.46
381.07	781.74
381.26	802.80
381.46	760.67
381.65	734.93
381.85	748.97
382.04	791.10
382.24	788.76
382.43	858.98
382.63	755.99
382.83	800.46
383.02	828.55
383.22	784.08
383.41	788.76
383.61	772.38
383.80	952.60
384.00	826.21
384.19	802.80
384.39	816.85
384.58	812.17
384.78	840.25
384.97	828.55
385.17	802.80
385.36	720.88
385.56	828.55
385.75	882.38
385.95	807.48
386.14	887.06
386.34	854.30
386.53	842.59
386.72	861.32
386.92	880.04
387.11	891.74
387.31	854.30
387.50	875.36
387.70	788.76
387.89	929.19
388.09	863.66
388.28	908.13
388.48	910.47
388.67	938.55
388.86	898.77
389.06	873.02
389.25	973.66
389.45	1046.22
389.64	994.73
389.84	954.94
390.03	968.98
390.22	976.00
390.42	887.06
390.61	976.00
390.81	1020.47
391.00	1043.88
391.19	1036.86
391.39	1067.28
391.58	1029.84
391.78	1029.84
391.97	1064.94
392.16	1025.15
392.36	1025.15
392.55	1107.07
392.75	933.87
392.94	1203.04
393.13	1081.33
393.33	1041.54
393.52	1041.54
393.71	1062.60
393.91	1121.12
394.10	1095.37
394.29	1104.73
394.49	1093.03
394.68	1144.52
394.88	1093.03
395.07	1128.14
395.26	1130.48
395.46	1146.86
395.65	1151.54
395.84	1198.35
396.04	1179.63
396.23	1146.86
396.42	1172.61
396.62	1207.72
396.81	1254.53
397.00	1203.04
397.19	1259.21
397.39	1259.21
397.58	1273.25
397.77	1242.82
397.97	1289.64
398.16	1242.82
398.35	1373.89
398.55	1296.66
398.74	1287.29
398.93	1336.45
399.12	1322.40
399.32	1331.76
399.51	1306.02
399.70	1348.15
399.90	1350.49
400.09	1401.98
400.28	1497.94
400.47	1451.13
400.67	1401.98
400.86	1350.49
401.05	1392.62
401.24	1385.60
401.44	1507.30
401.63	1418.36
401.82	1542.41
402.01	1439.43
402.21	1584.54
402.40	1441.77
402.59	1565.82
402.78	1474.54
402.97	1509.65
403.17	1652.42
403.36	1483.90
403.55	1619.65
403.74	1624.33
403.93	1586.88
404.13	1556.46
404.32	1591.56
404.51	1624.33
404.70	1657.10
404.89	1682.85
405.09	1755.40
405.28	1701.57
405.47	1661.78
405.66	1638.38
405.85	1687.53
406.05	1629.01
406.24	1846.68
406.43	1816.26
406.62	1823.28
406.81	1874.77
407.00	1811.57
407.20	1699.23
407.39	1771.79
407.58	1830.30
407.77	1921.58
407.96	1947.33
408.15	1888.81
408.34	1930.94
408.54	1886.47
408.73	1877.11
408.92	1923.92
409.11	1998.82
409.30	2073.71
409.49	2026.90
409.68	2031.58
409.87	1959.03
410.07	2038.61
410.26	2097.12
410.45	2090.10
410.64	2080.74
410.83	2108.82
411.02	2015.20
411.21	2218.83
411.40	2176.70
411.59	2209.47
411.78	2242.23
411.98	2289.04
412.17	2270.32
412.36	2263.30
412.55	2279.68
412.74	2300.75
412.93	2436.50
413.12	2235.21
413.31	2366.28
413.50	2363.94
413.69	2499.69
413.88	2583.95
414.07	2483.31
414.26	2485.65
414.45	2621.40
414.64	2530.12
414.83	2487.99
415.02	2675.23
415.22	2757.15
415.41	2644.81
415.60	2712.68
415.79	2705.66
415.98	2803.96
416.17	2672.89
416.36	2677.57
416.55	2775.88
416.74	2794.60
416.93	2855.45
417.12	2843.75
417.31	2867.16
417.50	2801.62
417.69	3063.76
417.88	2974.82
418.07	2846.09
418.26	2970.14
418.45	3080.14
418.64	3089.51
418.83	3012.27
419.02	3183.13
419.21	3197.17
419.39	3038.02
419.58	3075.46
419.77	3077.80
419.96	3215.90
420.15	3311.86
420.34	3222.92
420.53	3194.83
420.72	3307.18
420.91	3248.66
421.10	3279.09
421.29	3311.86
421.48	3255.69
421.67	3363.35
421.86	3363.35
422.05	3148.02
422.24	3363.35
422.43	3344.63
422.61	3438.25
422.80	3485.06
422.99	3611.45
423.18	3428.88
423.37	3419.52
423.56	3258.03
423.75	3372.71
423.94	3286.11
424.13	3136.32
424.32	3351.65
424.50	3576.34
424.69	3475.70
424.88	3478.04
425.07	3564.64
425.26	3379.73
425.45	3475.70
425.64	3468.67
425.83	3543.57
426.01	3599.74
426.20	3468.67
426.39	3562.30
426.58	3618.47
426.77	3538.89
426.96	3583.36
427.15	3447.61
427.33	3662.94
427.52	3588.04
427.71	3822.09
427.90	3669.96
428.09	3684.00
428.28	3801.03
428.46	3772.94
428.65	3712.09
428.84	4011.68
429.03	3824.44
429.22	3730.81
429.40	3805.71
429.59	3857.20
429.78	3674.64
429.97	3646.55
430.16	3728.47
430.34	3864.22
430.53	3894.65
430.72	3969.55
430.91	3948.48
431.10	3913.38
431.28	3843.16
431.47	3957.85
431.66	4135.73
431.85	4086.58
432.03	4084.23
432.22	4184.88
432.41	4210.62
432.60	4280.84
432.79	4074.87
432.97	4194.24
433.16	4224.67
433.35	4250.41
433.54	4166.15
433.72	4215.30
433.91	4285.52
434.10	4135.73
434.28	4194.24
434.47	4308.93
434.66	4245.73
434.85	4402.55
435.03	4320.63
435.22	4325.31
435.41	4484.47
435.59	4472.76
435.78	4372.12
435.97	4418.93
436.16	4428.29
436.34	4524.26
436.53	4479.79
436.72	4678.73
436.90	4620.22
437.09	4505.53
437.28	4531.28
437.46	4594.47
437.65	4531.28
437.84	4671.71
438.02	4594.47
438.21	4692.77
438.40	4695.11
438.58	4856.61
438.77	4863.63
438.96	4767.67
439.14	4896.40
439.33	4968.96
439.52	5050.88
439.70	5018.11
439.89	5076.62
440.08	5093.01
440.26	4973.64
440.45	4943.21
440.63	5142.16
440.82	5174.92
441.01	5193.65
441.19	5123.43
441.38	5334.08
441.57	5259.18
441.75	5401.96
441.94	5453.45
442.12	5521.32
442.31	5481.53
442.50	5563.45
442.68	5451.11
442.87	5540.05
443.05	5528.35
443.24	5605.58
443.43	5724.95
443.61	5734.31
443.80	5771.76
443.98	5701.54
444.17	5266.21
444.35	5631.33
444.54	5760.06
444.73	5832.62
444.91	5755.38
445.10	5671.12
445.28	5647.71
445.47	5624.31
445.65	5628.99
445.84	5750.70
446.02	5755.38
446.21	5738.99
446.39	5872.40
446.58	5837.30
446.77	5832.62
446.95	5741.33
447.14	5839.64
447.32	5853.68
447.51	5790.49
447.69	5834.96
447.88	5900.49
448.06	5966.03
448.25	5825.59
448.43	5664.10
448.62	5870.06
448.80	5989.43
448.99	5877.09
449.17	5905.17
449.36	5870.06
449.54	6052.63
449.73	6230.51
449.91	6160.29
450.10	6132.20
450.28	6193.06
450.46	6120.50
450.65	6155.61
450.83	6080.71
451.02	6214.12
451.20	6183.70
451.39	6258.59
451.57	6139.23
451.76	6134.54
451.94	6216.46
452.13	6366.26
452.31	6296.04
452.49	6349.87
452.68	6363.92
452.86	6349.87
453.05	6469.24
453.23	6340.51
453.42	6462.22
453.60	6272.64
453.78	6401.37
453.97	6583.93
454.15	6490.31
454.34	6504.35
454.52	6558.18
454.70	6686.91
454.89	6621.38
455.07	6581.59
455.26	6752.45
455.44	6745.42
455.62	6630.74
455.81	6897.56
455.99	6867.13
456.17	6764.15
456.36	6920.96
456.54	6977.14
456.73	6951.39
456.91	7126.93
457.09	7145.66
457.28	7225.23
457.46	6897.56
457.64	7281.41
457.83	7171.40
458.01	6923.30
458.19	7400.77
458.38	7253.32
458.56	7248.64
458.74	7290.77
458.93	7129.27
459.11	7389.07
459.29	7323.54
459.48	7403.11
459.66	7368.01
459.84	7543.55
460.03	7353.96
460.21	7393.75
460.39	7499.08
460.57	7487.37
460.76	7606.74
460.94	7503.76
461.12	7494.40
461.31	7679.30
461.49	7641.85
461.67	7623.12
461.85	7709.72
462.04	7683.98
462.22	8119.32
462.40	7826.75
462.59	7845.48
462.77	7735.47
462.95	7918.03
463.13	7847.82
463.32	7950.80
463.50	7990.59
463.68	7906.33
463.86	8065.49
464.05	7915.69
464.23	7911.01
464.41	8215.28
464.59	8063.15
464.78	8112.30
464.96	8386.14
465.14	8028.04
465.32	7927.39
465.50	8205.92
465.69	8329.97
465.87	8215.28
466.05	8191.88
466.23	8332.31
466.41	8336.99
466.60	8484.44
466.78	8266.77
466.96	8411.89
467.14	8367.42
467.32	8430.61
467.51	8491.46
467.69	8301.88
467.87	8400.18
468.05	8517.21
468.23	8402.52
468.41	8259.75
468.60	8596.79
468.78	8767.65
468.96	8549.98
469.14	8671.68
469.32	8762.97
469.50	8421.25
469.69	8940.85
469.87	8971.27
470.05	8887.01
470.23	8952.55
470.41	8762.97
470.59	8936.17
470.77	8798.07
470.95	8978.30
471.14	9151.49
471.32	8919.78
471.50	9261.50
471.68	9195.96
471.86	9205.33
472.04	9320.01
472.22	9741.31
472.40	9186.60
472.58	9284.91
472.77	9336.40
472.95	9408.95
473.13	9713.22
473.31	9481.51
473.49	9640.67
473.67	9432.36
473.85	9621.94
474.03	9792.80
474.21	9795.14
474.39	9851.31
474.57	9891.10
474.75	10059.62
474.93	9961.32
475.12	9879.40
475.30	10150.90
475.48	10038.56
475.66	10317.08
475.84	10277.29
476.02	10387.30
476.20	10197.71
476.38	10260.91
476.56	10597.95
476.74	10448.15
476.92	10562.84
477.10	10523.05
477.28	10960.73
477.46	10626.03
477.64	10902.22
477.82	11068.39
478.00	11358.62
478.18	11185.42
478.36	11267.34
478.54	11690.98
478.72	11250.96
478.90	11520.12
479.08	11573.95
479.26	11761.19
479.44	11880.56
479.62	11985.88
479.80	12004.61
479.98	12154.40
480.16	12243.34
480.34	11999.93
480.52	12348.67
480.70	12594.42
480.88	12381.43
481.06	12372.07
481.24	12475.06
481.41	12622.51
481.59	12828.48
481.77	13242.75
481.95	13043.81
482.13	13256.79
482.31	13200.62
482.49	13401.91
482.67	13408.93
482.85	13673.41
483.03	13795.12
483.21	13942.57
483.39	14136.84
483.57	13809.16
483.74	13830.23
483.92	14143.86
484.10	14115.77
484.28	14303.01
484.46	14469.19
484.64	15007.52
484.82	14771.12
485.00	15131.56
485.18	15021.56
485.35	15239.23
485.53	15220.50
485.71	15346.89
485.89	15704.99
486.07	15428.81
486.25	15515.41
486.43	15630.10
486.61	15985.86
486.78	15786.91
486.96	15906.28
487.14	16208.21
487.32	16542.91
487.50	16669.30
487.68	16472.69
487.85	16779.30
488.03	16856.54
488.21	17146.76
488.39	16851.86
488.57	17259.11
488.75	17273.15
488.92	17776.37
489.10	17500.19
489.28	17874.67
489.46	17783.39
489.64	18033.83
489.81	18216.39
489.99	18237.45
490.17	18424.70
490.35	18941.96
490.53	18794.50
490.70	18796.84
490.88	18614.28
491.06	19400.70
491.24	19073.03
491.41	19241.54
491.59	19377.30
491.77	19646.46
491.95	19737.74
492.13	20072.43
492.30	19613.69
492.48	19772.85
492.66	20032.65
492.84	20196.48
493.01	20313.51
493.19	20037.33
493.37	20664.59
493.54	20835.45
493.72	20798.00
493.90	20854.17
494.08	20898.64
494.25	21223.98
494.43	21411.22
494.61	21546.97
494.79	21525.91
494.96	21546.97
495.14	21668.68
495.32	21736.56
495.49	21881.67
495.67	22185.94
495.85	22324.03
496.02	22431.69
496.20	22501.91
496.38	22754.69
496.55	22679.79
496.73	23227.48
496.91	23054.28
497.09	22867.03
497.26	23065.98
497.44	23461.53
497.62	23271.95
497.79	23871.12
497.97	23112.79
498.14	23637.07
498.32	23894.53
498.50	24039.64
498.67	24191.78
498.85	23917.93
499.03	24549.88
499.20	24161.35
499.38	24254.97
499.56	24547.54
499.73	24844.79
499.91	25139.69
500.08	24868.19
500.26	24814.36
500.44	24884.58
500.61	25062.46
500.79	24884.58
500.97	25355.02
501.14	25745.89
501.32	25610.14
501.49	25476.73
501.67	25750.57
501.84	25907.39
502.02	25736.53
502.20	26052.50
502.37	26078.25
502.55	26120.38
502.72	26347.41
502.90	26274.85
503.07	26324.01
503.25	26003.35
503.43	26792.11
503.60	26700.83
503.78	26679.77
503.95	26703.17
504.13	26780.41
504.30	26845.94
504.48	27087.02
504.65	27297.67
504.83	27442.78
505.01	27363.20
505.18	27520.02
505.36	27831.31
505.53	27309.37
505.71	27590.24
505.88	27850.03
506.06	27672.15
506.23	27611.30
506.41	28119.20
506.58	27828.97
506.76	28201.11
506.93	28175.37
507.11	27938.97
507.28	28465.60
507.46	28009.19
507.63	28561.56
507.81	28821.36
507.98	28264.31
508.16	28732.42
508.33	29104.56
508.50	29202.86
508.68	29273.08
508.85	29097.54
509.03	29237.97
509.20	29319.89
509.38	29762.25
509.55	29640.54
509.73	29771.61
509.90	30139.08
510.08	29675.65
510.25	29673.31
510.42	29937.79
510.60	30029.07
510.77	30328.66
510.95	30314.62
511.12	30375.47
511.30	30410.58
511.47	30176.53
511.64	30382.49
511.82	30637.61
511.99	29975.24
512.17	30948.90
512.34	30543.99
512.51	31016.78
512.69	30969.97
512.86	31318.71
513.04	31201.68
513.21	31204.02
513.38	31782.13
513.56	31732.98
513.73	31534.04
513.90	31393.61
514.08	31393.61
514.25	31777.45
514.43	31789.16
514.60	32009.17
514.77	32198.75
514.95	32203.43
515.12	32009.17
515.29	32287.69
515.47	32360.25
515.64	32301.73
515.81	32315.78
515.99	32840.06
516.16	32875.16
516.33	32973.47
516.51	32655.15
516.68	32589.62
516.85	32877.51
517.03	33240.29
517.20	33160.71
517.37	33074.11
517.54	33188.80
517.72	33216.88
517.89	33111.56
518.06	33282.42
518.24	33413.49
518.41	33631.16
518.58	33340.93
518.75	32936.02
518.93	33759.89
519.10	33879.25
519.27	33682.65
519.45	33638.18
519.62	33729.46
519.79	34354.38
519.96	34382.47
520.14	33979.90
520.31	34335.66
520.48	34075.86
520.65	34705.46
520.83	34913.77
521.00	34520.56
521.17	34380.13
521.34	34883.34
521.52	34906.75
521.69	34864.62
521.86	35077.61
522.03	35386.56
522.20	35239.11
522.38	35037.82
522.55	35498.91
522.72	35393.58
522.89	35342.09
523.07	35915.52
523.24	35655.72
523.41	35482.52
523.58	35473.16
523.75	35913.18
523.92	35711.89
524.10	36156.60
524.27	36121.49
524.44	35887.43
524.61	36144.89
524.78	35988.08
524.96	36287.67
525.13	36205.75
525.30	36348.52
525.47	36350.86
525.64	36769.82
525.81	36495.97
525.98	36772.16
526.16	36872.80
526.33	36723.01
526.50	37479.00
526.67	37109.19
526.84	37020.25
527.01	36694.92
527.18	37261.33
527.36	37174.73
527.53	37074.09
527.70	37596.03
527.87	37319.84
528.04	37249.63
528.21	37537.51
528.38	37628.79
528.55	37539.85
528.72	37628.79
528.89	37605.39
529.07	37560.92
529.24	37392.40
529.41	38033.71
529.58	37881.57
529.75	38417.55
529.92	37699.01
530.09	38373.08
530.26	38024.34
530.43	38487.77
530.60	38085.20
530.77	38157.75
530.94	38490.11
531.11	38195.20
531.28	38649.27
531.46	38937.15
531.63	38237.33
531.80	38237.33
531.97	38848.21
532.14	38691.40
532.31	38600.12
532.48	39009.71
532.65	39196.95
532.82	39063.54
532.99	38843.53
533.16	38550.96
533.33	39449.73
533.50	39206.31
533.67	39023.75
533.84	38792.04
534.01	39358.45
534.18	39323.34
534.35	39651.02
534.52	39473.13
534.69	39901.45
534.86	39634.63
535.03	39655.70
535.20	39636.97
535.37	39880.39
535.54	40016.14
535.71	39456.75
535.88	40013.80
536.05	40271.26
536.22	40151.89
536.38	39849.96
536.55	39959.97
536.72	40074.65
536.89	40161.25
537.06	40074.65
537.23	40371.90
537.40	40404.67
537.57	40121.46
537.74	40407.01
537.91	40615.32
538.08	40823.62
538.25	40418.71
538.42	40795.54
538.59	40594.25
538.75	40821.28
538.92	41076.40
539.09	41214.49
539.26	40992.14
539.43	40931.29
539.60	40926.61
539.77	41352.58
539.94	41546.85
540.11	41373.65
540.28	41605.36
540.44	41146.62
540.61	41303.43
540.78	41064.70
540.95	41275.35
541.12	41254.28
541.29	41340.88
541.46	41888.57
541.62	41951.76
541.79	41958.78
541.96	41375.99
542.13	41450.89
542.30	41413.44
542.47	41930.70
542.63	41708.35
542.80	42007.94
542.97	42305.18
543.14	42604.77
543.31	41933.04
543.48	42218.58
543.64	42625.84
543.81	42887.98
543.98	42597.75
544.15	42674.99
544.32	42665.63
544.48	42862.23
544.65	42398.80
544.82	42670.31
544.99	42450.30
545.16	42644.56
545.32	42628.18
545.49	43246.08
545.66	43283.53
545.83	43246.08
546.00	43232.04
546.16	42806.06
546.33	43077.56
546.50	43058.84
546.67	43323.32
546.83	42541.58
547.00	43056.50
547.17	43306.93
547.34	42946.49
547.50	43531.62
547.67	43662.69
547.84	43098.62
548.00	43646.31
548.17	43861.64
548.34	43789.08
548.51	43824.19
548.67	43892.07
548.84	43683.76
549.01	43620.56
549.18	43468.43
549.34	43943.56
549.51	43856.96
549.68	43625.25
549.84	43901.43
550.01	44247.83
550.18	43517.58
550.34	44170.59
550.51	43936.54
550.68	44301.66
550.84	43976.33
551.01	44196.34
551.18	43810.15
551.34	43995.05
551.51	44374.22
551.68	43924.83
551.84	44322.72
552.01	44495.92
552.18	44346.13
552.34	43936.54
552.51	44580.18
552.68	44526.35
552.84	44519.33
553.01	45036.59
553.18	44442.09
553.34	44863.39
553.51	44325.07
553.67	44486.56
553.84	44987.44
554.01	44966.37
554.17	45029.57
554.34	44884.45
554.51	44809.56
554.67	45167.66
554.84	45193.40
555.00	45223.83
555.17	44814.24
555.33	45324.47
555.50	45085.74
555.67	45111.49
555.83	45097.44
556.00	45233.19
556.16	45734.07
556.33	45287.03
556.50	44973.39
556.66	45179.36
556.83	44851.69
556.99	45504.70
557.16	45509.38
557.32	45748.11
557.49	45902.59
557.65	44996.80
557.82	45701.30
557.98	45556.19
558.15	45560.87
558.32	45170.00
558.48	45663.85
558.65	45652.15
558.81	45661.51
558.98	45645.13
559.14	45638.11
559.31	45436.82
559.47	46038.34
559.64	45642.79
559.80	46021.95
559.97	45942.38
560.13	45750.45
560.30	45595.98
560.46	46028.98
560.63	45975.14
560.79	46061.74
560.96	46012.59
561.12	46337.93
561.29	46780.29
561.45	46361.33
561.61	46218.56
561.78	45574.91
561.94	45982.16
562.11	46239.62
562.27	45958.76
562.44	46176.43
562.60	46450.27
562.77	46422.19
562.93	46450.27
563.10	46904.34
563.26	46466.66
563.42	46478.36
563.59	46717.09
563.75	46536.87
563.92	46258.35
564.08	46323.88
564.24	46344.95
564.41	46672.62
564.57	46656.24
564.74	46361.33
564.90	46674.96
565.07	46625.81
565.23	46101.53
565.39	47140.73
565.56	46801.35
565.72	46508.79
565.88	46550.91
566.05	46717.09
566.21	46721.77
566.38	46616.45
566.54	46710.07
566.70	46808.37
566.87	46571.98
567.03	46974.55
567.19	47110.30
567.36	46768.58
567.52	46684.33
567.68	47189.88
567.85	46731.14
568.01	47224.99
568.17	46618.79
568.34	47147.75
568.50	47035.41
568.66	46625.81
568.83	46644.54
568.99	46930.08
569.15	46480.70
569.32	47014.34
569.48	46789.65
569.64	47332.65
569.81	47033.07
569.97	46988.60
570.13	47136.05
570.30	47075.19
570.46	47173.50
570.62	46962.85
570.78	47262.44
570.95	47327.97
571.11	47363.08
571.27	47220.31
571.43	46937.10
571.60	46850.50
571.76	46955.83
571.92	47192.22
572.09	47105.62
572.25	46925.40
572.41	47180.52
572.57	47466.06
572.74	47964.60
572.90	46981.57
573.06	47428.62
573.22	47243.71
573.38	47489.47
573.55	46892.63
573.71	47611.18
573.87	47615.86
574.03	47339.68
574.20	47613.52
574.36	47592.45
574.52	47480.11
574.68	47456.70
574.84	47611.18
575.01	47487.13
575.17	47152.43
575.33	47545.64
575.49	47641.60
575.65	47524.58
575.82	47173.50
575.98	47026.04
576.14	47576.07
576.30	47295.21
576.46	47224.99
576.62	47283.50
576.79	47585.43
576.95	47117.32
577.11	46902.00
577.27	47842.89
577.43	47503.51
577.59	47215.63
577.75	47529.26
577.92	47119.66
578.08	47428.62
578.24	47208.61
578.40	47608.84
578.56	47320.95
578.72	47557.35
578.88	47657.99
579.04	48011.41
579.21	47419.25
579.37	47688.42
579.53	47531.60
579.69	47187.54
579.85	47349.04
580.01	47536.28
580.17	47386.49
580.33	47735.23
580.49	47709.48
580.65	47786.72
580.82	47421.59
580.98	47459.04
581.14	47440.32
581.30	47852.25
581.46	47693.10
581.62	47552.66
581.78	47433.30
581.94	47826.51
582.10	47517.56
582.26	47749.27
582.42	47381.80
582.58	47753.95
582.74	47400.53
582.90	47910.77
583.06	48027.79
583.22	47803.10
583.38	48011.41
583.54	47533.94
583.70	47665.01
583.86	47580.75
584.02	48044.18
584.18	47969.28
584.34	47880.34
584.50	47927.15
584.66	48179.93
584.82	47908.43
584.98	48273.55
585.14	47765.65
585.30	47847.57
585.46	48046.52
585.62	47716.50
585.78	48074.60
585.94	47540.96
586.10	47842.89
586.26	47913.11
586.42	47753.95
586.58	48128.44
586.74	47716.50
586.90	47665.01
587.06	48191.63
587.22	47945.87
587.38	47693.10
587.54	48196.31
587.70	47873.32
587.86	47824.17
588.02	47484.79
588.18	47903.74
588.34	47611.18
588.49	47812.46
588.65	47704.80
588.81	48156.52
588.97	48140.14
589.13	47868.64
589.29	47718.84
589.45	48254.82
589.61	48109.71
589.77	48378.87
589.93	48182.27
