SpectraSuite Data File
++++++++++++++++++++++++++++++++++++
Date: Fri Oct 25 11:24:05 EDT 2013
User: price-jones
Dark Spectrum Present: No
Reference Spectrum Present: No
Number of Sampled Component Spectra: 1
Spectrometers: USB2+H05261
Integration Time (usec): 100000 (USB2+H05261)
Spectra Averaged: 1 (USB2+H05261)
Boxcar Smoothing: 0 (USB2+H05261)
Correct for Electrical Dark: No (USB2+H05261)
Strobe/Lamp Enabled: No (USB2+H05261)
Correct for Detector Non-linearity: No (USB2+H05261)
Correct for Stray Light: No (USB2+H05261)
Number of Pixels in Processed Spectrum: 2048
>>>>>Begin Processed Spectral Data<<<<<
365.73	182.56
365.92	182.56
366.12	182.56
366.32	173.20
366.52	198.95
366.72	112.35
366.91	56.17
367.11	159.16
367.31	84.26
367.51	166.18
367.70	112.35
367.90	170.86
368.10	159.16
368.30	156.82
368.49	44.47
368.69	133.41
368.89	170.86
369.09	149.79
369.28	102.98
369.48	121.71
369.68	140.43
369.87	217.67
370.07	126.39
370.27	243.42
370.47	327.68
370.66	554.71
370.86	601.52
371.06	631.94
371.25	697.48
371.45	636.63
371.65	641.31
371.84	613.22
372.04	770.04
372.24	706.84
372.44	655.35
372.63	788.76
372.83	741.95
373.03	669.39
373.22	732.59
373.42	767.70
373.62	727.91
373.81	788.76
374.01	772.38
374.21	873.02
374.40	851.96
374.60	819.19
374.79	833.23
374.99	784.08
375.19	791.10
375.38	821.53
375.58	880.04
375.78	903.45
375.97	924.51
376.17	912.81
376.37	887.06
376.56	868.34
376.76	814.51
376.95	940.90
377.15	903.45
377.35	901.11
377.54	866.00
377.74	889.40
377.93	880.04
378.13	922.17
378.33	954.94
378.52	985.37
378.72	943.24
378.91	908.13
379.11	976.00
379.31	968.98
379.50	926.85
379.70	971.32
379.89	1039.20
380.09	980.68
380.28	1011.11
380.48	983.02
380.68	983.02
380.87	1029.84
381.07	1074.31
381.26	1060.26
381.46	1093.03
381.65	1048.56
381.85	1008.77
382.04	1046.22
382.24	1078.99
382.43	1067.28
382.63	983.02
382.83	1104.73
383.02	1181.97
383.22	1057.92
383.41	1062.60
383.61	1107.07
383.80	1170.27
384.00	1057.92
384.19	1114.10
384.39	1142.18
384.58	1165.59
384.78	1060.26
384.97	1090.69
385.17	1160.91
385.36	1139.84
385.56	1121.12
385.75	1137.50
385.95	1210.06
386.14	1320.06
386.34	1144.52
386.53	1242.82
386.72	1121.12
386.92	1256.87
387.11	1324.74
387.31	1341.13
387.50	1196.01
387.70	1263.89
387.89	1219.42
388.09	1289.64
388.28	1294.32
388.48	1270.91
388.67	1289.64
388.86	1322.40
389.06	1423.05
389.25	1369.21
389.45	1430.07
389.64	1348.15
389.84	1364.53
390.03	1474.54
390.22	1378.58
390.42	1313.04
390.61	1315.38
390.81	1387.94
391.00	1500.28
391.19	1432.41
391.39	1392.62
391.58	1444.11
391.78	1530.71
391.97	1589.22
392.16	1544.75
392.36	1469.86
392.55	1528.37
392.75	1523.69
392.94	1493.26
393.13	1605.61
393.33	1521.35
393.52	1509.65
393.71	1687.53
393.91	1661.78
394.10	1631.35
394.29	1561.14
394.49	1612.63
394.68	1724.97
394.88	1589.22
395.07	1673.48
395.26	1633.69
395.46	1568.16
395.65	1734.34
395.84	1703.91
396.04	1795.19
396.23	1760.08
396.42	1666.46
396.62	1764.76
396.81	1746.04
397.00	1746.04
397.19	1729.66
397.39	1753.06
397.58	1877.11
397.77	1825.62
397.97	1858.39
398.16	1818.60
398.35	1851.36
398.55	1853.70
398.74	1879.45
398.93	1963.71
399.12	1893.49
399.32	2019.88
399.51	1916.90
399.70	1954.35
399.90	1998.82
400.09	1998.82
400.28	1989.46
400.47	1994.14
400.67	2040.95
400.86	2094.78
401.05	2057.33
401.24	2115.84
401.44	2143.93
401.63	2214.15
401.82	2146.27
402.01	2157.97
402.21	2141.59
402.40	2218.83
402.59	2183.72
402.78	2153.29
402.97	2223.51
403.17	2260.96
403.36	2321.81
403.55	2363.94
403.74	2303.09
403.93	2377.98
404.13	2347.56
404.32	2394.37
404.51	2403.73
404.70	2434.16
404.89	2420.11
405.09	2464.58
405.28	2541.82
405.47	2492.67
405.66	2537.14
405.85	2567.57
406.05	2597.99
406.24	2682.25
406.43	2633.10
406.62	2738.43
406.81	2724.38
407.00	2600.34
407.20	2675.23
407.39	2668.21
407.58	2761.83
407.77	2689.28
407.96	2633.10
408.15	2799.28
408.34	2780.56
408.54	2813.32
408.73	2717.36
408.92	2874.18
409.11	2771.19
409.30	2860.13
409.49	2867.16
409.68	2897.58
409.87	2930.35
410.07	3038.02
410.26	3112.91
410.45	3028.65
410.64	3005.25
410.83	3133.98
411.02	3105.89
411.21	3192.49
411.40	3145.68
411.59	3262.71
411.78	3155.04
411.98	3208.87
412.17	3197.17
412.36	3239.30
412.55	3419.52
412.74	3461.65
412.93	3356.33
413.12	3478.04
413.31	3637.19
413.50	3616.13
413.69	3501.44
413.88	3534.21
414.07	3644.21
414.26	3646.55
414.45	3604.42
414.64	3758.90
414.83	3721.45
415.02	3831.46
415.22	3866.56
415.41	3889.97
415.60	3777.62
415.79	3960.19
415.98	3955.51
416.17	4021.04
416.36	3908.69
416.55	4112.32
416.74	4184.88
416.93	4042.11
417.12	4194.24
417.31	4318.29
417.50	4294.88
417.69	4358.08
417.88	4320.63
418.07	4229.35
418.26	4381.48
418.45	4313.61
418.64	4582.77
418.83	4524.26
419.02	4444.68
419.21	4496.17
419.39	4456.38
419.58	4524.26
419.77	4507.87
419.96	4568.73
420.15	4610.86
420.34	4683.41
420.53	4568.73
420.72	4652.98
420.91	4510.21
421.10	4631.92
421.29	4692.77
421.48	4643.62
421.67	4784.06
421.86	4755.97
422.05	4894.06
422.24	4887.04
422.43	4961.94
422.61	4905.76
422.80	4990.02
422.99	4903.42
423.18	4966.62
423.37	5142.16
423.56	5011.09
423.75	4875.34
423.94	4919.81
424.13	4751.29
424.32	4910.44
424.50	4978.32
424.69	5259.18
424.88	5100.03
425.07	4945.55
425.26	4975.98
425.45	5006.41
425.64	4915.12
425.83	4950.23
426.01	5006.41
426.20	5240.46
426.39	5078.96
426.58	4971.30
426.77	5069.60
426.96	5167.90
427.15	4938.53
427.33	5233.44
427.52	5200.67
427.71	5416.00
427.90	5205.35
428.09	5387.91
428.28	5448.77
428.46	5516.64
428.65	5341.10
428.84	5502.60
429.03	5533.03
429.22	5338.76
429.40	5479.19
429.59	5561.11
429.78	5476.85
429.97	5373.87
430.16	5582.18
430.34	5535.37
430.53	5654.73
430.72	5849.00
430.91	5755.38
431.10	5518.98
431.28	5661.76
431.47	5696.86
431.66	5891.13
431.85	5832.62
432.03	5750.70
432.22	6040.92
432.41	6024.54
432.60	5865.38
432.79	5966.03
432.97	5900.49
433.16	6272.64
433.35	6061.99
433.54	6101.78
433.72	6303.06
433.91	6242.21
434.10	6326.47
434.28	6260.93
434.47	6169.65
434.66	6244.55
434.85	6443.49
435.03	6408.39
435.22	6305.40
435.41	6471.58
435.59	6300.72
435.78	6539.46
435.97	6462.22
436.16	6445.84
436.34	6417.75
436.53	6494.99
436.72	6913.94
436.90	6492.65
437.09	6600.31
437.28	6590.95
437.46	6548.82
437.65	6743.08
437.84	6923.30
438.02	6808.62
438.21	6665.85
438.40	6752.45
438.58	7089.48
438.77	7019.27
438.96	6949.05
439.14	7066.08
439.33	7080.12
439.52	7222.89
439.70	7440.56
439.89	7351.62
440.08	7485.03
440.26	7370.35
440.45	7339.92
440.63	7552.91
440.82	7592.70
441.01	7660.57
441.19	7588.02
441.38	7749.51
441.57	7578.65
441.75	7925.05
441.94	8030.38
442.12	8084.21
442.31	8004.63
442.50	8196.56
442.68	8018.68
442.87	8011.65
443.05	8322.94
443.24	8351.03
443.43	8446.99
443.61	8259.75
443.80	8439.97
443.98	8177.83
444.17	7929.74
444.35	8182.51
444.54	8561.68
444.73	8407.20
444.91	8257.41
445.10	8386.14
445.28	8362.73
445.47	8255.07
445.65	8304.22
445.84	8552.32
446.02	8484.44
446.21	8475.08
446.39	8395.50
446.58	8578.06
446.77	8559.34
446.95	8514.87
447.14	8454.02
447.32	8561.68
447.51	8695.09
447.69	8442.31
447.88	8512.53
448.06	8344.01
448.25	8594.45
448.43	8631.90
448.62	8819.14
448.80	8603.81
448.99	8472.74
449.17	8683.39
449.36	8748.92
449.54	8840.20
449.73	8973.61
449.91	8931.48
450.10	9184.26
450.28	9139.79
450.46	9041.49
450.65	9132.77
450.83	9011.06
451.02	8980.64
451.20	9151.49
451.39	9118.73
451.57	9254.48
451.76	9057.87
451.94	8922.12
452.13	9430.02
452.31	9186.60
452.49	9280.22
452.68	9383.21
452.86	9437.04
453.05	9568.11
453.23	9551.73
453.42	9411.29
453.60	9256.82
453.78	9465.13
453.97	9516.62
454.15	9701.52
454.34	9600.88
454.52	9762.37
454.70	9537.68
454.89	9626.62
455.07	9760.03
455.26	10005.79
455.44	9893.44
455.62	9977.70
455.81	10047.92
455.99	10164.95
456.17	9973.02
456.36	10195.37
456.54	10249.21
456.73	10523.05
456.91	10450.49
457.09	10380.28
457.28	10394.32
457.46	10429.43
457.64	10443.47
457.83	10567.52
458.01	10523.05
458.19	10707.95
458.38	10707.95
458.56	10888.17
458.74	10820.30
458.93	10698.59
459.11	10647.10
459.29	10586.24
459.48	10558.16
459.66	10977.11
459.84	10998.18
460.03	10977.11
460.21	11073.07
460.39	11026.26
460.57	10974.77
460.76	11136.27
460.94	11246.27
461.12	11286.06
461.31	11136.27
461.49	11005.20
461.67	11442.88
461.85	11524.80
462.04	11407.77
462.22	11400.75
462.40	11861.84
462.59	11431.18
462.77	11386.71
462.95	11754.17
463.13	11529.48
463.32	11613.74
463.50	12009.29
463.68	11836.09
463.86	11934.39
464.05	11836.09
464.23	11761.19
464.41	12149.72
464.59	11932.05
464.78	12091.21
464.96	12058.44
465.14	12046.74
465.32	12245.68
465.50	11995.25
465.69	12088.87
465.87	12285.47
466.05	12088.87
466.23	12233.98
466.41	12283.13
466.60	12587.40
466.78	12215.26
466.96	12631.87
467.14	12489.10
467.32	12472.71
467.51	12695.07
467.69	12093.55
467.87	12451.65
468.05	12833.16
468.23	12521.87
468.41	12409.52
468.60	12580.38
468.78	12865.92
468.96	12823.80
469.14	12971.25
469.32	13149.13
469.50	12648.26
469.69	13074.23
469.87	13212.32
470.05	13149.13
470.23	13444.04
470.41	13181.90
470.59	13238.07
470.77	13415.95
470.95	13532.98
471.14	13523.62
471.32	13207.64
471.50	13607.87
471.68	13830.23
471.86	13598.51
472.04	14033.85
472.22	14068.96
472.40	13827.88
472.58	13965.98
472.77	14160.24
472.95	14326.42
473.13	14794.53
473.31	14136.84
473.49	14190.67
473.67	14230.46
473.85	14398.98
474.03	14913.89
474.21	14506.64
474.39	14827.29
474.57	14995.81
474.75	14853.04
474.93	15082.41
475.12	15030.92
475.30	14991.13
475.48	15059.01
475.66	15047.30
475.84	15094.11
476.02	15793.94
476.20	15360.94
476.38	15815.00
476.56	16217.57
476.74	16130.97
476.92	15990.54
477.10	15756.49
477.28	16414.18
477.46	16137.99
477.64	15995.22
477.82	16416.52
478.00	17198.26
478.18	16917.39
478.36	16893.99
478.54	17280.18
478.72	17135.06
478.90	17305.92
479.08	17558.70
479.26	17701.47
479.44	18040.85
479.62	18132.13
479.80	18377.89
479.98	18230.43
480.16	18590.88
480.34	18562.79
480.52	18593.22
480.70	18890.46
480.88	18642.37
481.06	18616.62
481.24	19150.26
481.41	19419.42
481.59	19454.53
481.77	19627.73
481.95	19403.04
482.13	20002.22
482.31	19822.00
482.49	20360.32
482.67	20353.30
482.85	20872.90
483.03	20725.44
483.21	21055.46
483.39	21064.82
483.57	20957.16
483.74	21216.96
483.92	21359.73
484.10	21294.19
484.28	21965.93
484.46	22164.87
484.64	22654.05
484.82	22319.35
485.00	22581.49
485.18	22710.22
485.35	23150.24
485.53	23150.24
485.71	23171.30
485.89	23571.54
486.07	23297.69
486.25	23449.83
486.43	23723.67
486.61	24187.10
486.78	24004.53
486.96	24350.93
487.14	25099.90
487.32	24608.39
487.50	25338.64
487.68	25076.50
487.85	25263.74
488.03	25788.02
488.21	25764.62
488.39	25956.54
488.57	26005.69
488.75	26403.58
488.92	26810.84
489.10	27140.85
489.28	26635.30
489.46	27520.02
489.64	27185.32
489.81	27407.67
489.99	27910.89
490.17	27953.02
490.35	27981.10
490.53	28297.08
490.70	28657.52
490.88	28865.83
491.06	28804.97
491.24	28872.85
491.41	29160.73
491.59	29340.96
491.77	29605.44
491.95	29743.53
492.13	29933.11
492.30	30148.44
492.48	29989.28
492.66	30323.98
492.84	30431.65
493.01	31257.85
493.19	30625.91
493.37	31576.17
493.54	31412.33
493.72	31700.22
493.90	31557.44
494.08	31793.84
494.25	31976.40
494.43	32053.64
494.61	32598.98
494.79	32547.49
494.96	32844.74
495.14	33085.81
495.32	33521.15
495.49	33706.05
495.67	33586.69
495.85	33752.87
496.02	33804.36
496.20	34581.42
496.38	34494.82
496.55	34536.94
496.73	34953.56
496.91	35051.86
497.09	34993.35
497.26	35318.68
497.44	35014.41
497.62	35541.03
497.79	35915.52
497.97	35484.86
498.14	36236.17
498.32	36062.97
498.50	36510.02
498.67	36783.86
498.85	36582.57
499.03	36662.15
499.20	37120.90
499.38	37184.09
499.56	37116.22
499.73	37116.22
499.91	37493.04
500.08	37912.00
500.26	37949.45
500.44	38078.18
500.61	38171.80
500.79	37965.83
500.97	38146.05
501.14	38548.62
501.32	38714.80
501.49	38380.10
501.67	38932.47
501.84	39363.13
502.02	39276.53
502.20	39173.55
502.37	39203.97
502.55	39758.68
502.72	39676.76
502.90	39971.67
503.07	39735.27
503.25	40018.48
503.43	40189.34
503.60	40128.48
503.78	40692.55
503.95	40610.64
504.13	40790.86
504.30	41104.49
504.48	40425.73
504.65	41137.26
504.83	41289.39
505.01	41745.80
505.18	41415.78
505.36	41663.88
505.53	41305.77
505.71	42141.35
505.88	42050.06
506.06	41890.91
506.23	41918.99
506.41	42389.44
506.58	42431.57
506.76	42738.18
506.93	42965.21
507.11	42562.64
507.28	42658.60
507.46	42871.59
507.63	43416.94
507.81	43089.26
507.98	43407.58
508.16	43367.79
508.33	43438.00
508.50	44018.46
508.68	44158.89
508.85	44006.75
509.03	43751.63
509.20	43831.21
509.38	44776.79
509.55	44725.30
509.73	44837.64
509.90	44491.24
510.08	44678.49
510.25	44505.29
510.42	45205.11
510.60	45483.63
510.77	45474.27
510.95	45900.25
511.12	45780.88
511.30	45593.64
511.47	45570.23
511.64	46007.91
511.82	46356.65
511.99	45897.91
512.17	46131.96
512.34	46368.35
512.51	46473.68
512.69	46953.49
512.86	46576.66
513.04	46763.90
513.21	46852.84
513.38	47030.72
513.56	46693.69
513.73	47379.46
513.90	46969.87
514.08	47384.15
514.25	47538.62
514.43	47936.51
514.60	47325.63
514.77	47559.69
514.95	47934.17
515.12	47838.21
515.29	47845.23
515.47	48332.06
515.64	48140.14
515.81	48371.85
515.99	48250.14
516.16	48921.88
516.33	48186.95
516.51	49020.18
516.68	48765.06
516.85	48570.80
517.03	48758.04
517.20	49460.20
517.37	48856.34
517.54	49017.84
517.72	49088.06
517.89	49055.29
518.06	49258.91
518.24	49516.37
518.41	49464.88
518.58	49869.79
518.75	49579.57
518.93	49748.09
519.10	49712.98
519.27	50078.10
519.45	49968.10
519.62	50368.33
519.79	50251.30
519.96	50216.19
520.14	50637.49
520.31	50609.40
520.48	50518.12
520.65	50873.88
520.83	50855.16
521.00	50880.91
521.17	51091.55
521.34	51171.13
521.52	51398.16
521.69	51133.68
521.86	50934.74
522.03	51683.71
522.20	51533.92
522.38	51707.12
522.55	51679.03
522.72	51693.07
522.89	51611.15
523.07	52013.73
523.24	51742.22
523.41	51845.21
523.58	51753.93
523.75	52058.20
523.92	52051.17
524.10	52149.48
524.27	52123.73
524.44	52315.65
524.61	52207.99
524.78	52666.73
524.96	52266.50
525.13	52390.55
525.30	52533.32
525.47	52369.49
525.64	52725.25
525.81	52837.59
525.98	52917.17
526.16	52882.06
526.33	52891.43
526.50	53265.91
526.67	53055.26
526.84	53317.40
527.01	53125.48
527.18	53036.54
527.36	53104.41
527.53	53179.31
527.70	53542.10
527.87	53352.51
528.04	53441.45
528.21	53614.65
528.38	53595.93
528.55	53542.10
528.72	53560.82
528.89	53591.25
529.07	53619.33
529.24	53584.22
529.41	53827.64
529.58	53956.37
529.75	53860.41
529.92	53993.82
530.09	54197.44
530.26	53972.75
530.43	54131.91
530.60	53790.19
530.77	54380.01
530.94	54234.89
531.11	53846.36
531.28	54333.20
531.46	54487.67
531.63	54583.63
531.80	54557.89
531.97	54768.54
532.14	54618.74
532.31	54714.70
532.48	54951.10
532.65	54969.82
532.82	54560.23
532.99	55009.61
533.16	54733.43
533.33	54979.18
533.50	55152.38
533.67	54866.84
533.84	55025.99
534.01	55353.67
534.18	55222.60
534.35	55405.16
534.52	55257.71
534.69	55323.24
534.86	55356.01
535.03	55337.29
535.20	55510.49
535.37	55402.82
535.54	55372.39
535.71	55440.27
535.88	55398.14
536.05	55807.73
536.22	55868.59
536.38	55749.22
536.55	56023.06
536.72	55882.63
536.89	55929.44
537.06	55723.47
537.23	55901.36
537.40	55636.87
537.57	56060.51
537.74	56060.51
537.91	56217.33
538.08	56041.79
538.25	55800.71
538.42	55997.32
538.59	56453.72
538.75	56076.90
538.92	56200.94
539.09	56259.46
539.26	56252.44
539.43	56315.63
539.60	56432.66
539.77	56577.77
539.94	56755.65
540.11	56589.47
540.28	56633.94
540.44	56727.56
540.61	56472.45
540.78	56795.44
540.95	56636.28
541.12	56699.48
541.29	56521.60
541.46	56877.36
541.62	56755.65
541.79	56729.90
541.96	56683.09
542.13	56687.78
542.30	56774.37
542.47	57062.26
542.63	56980.34
542.80	57125.46
542.97	57078.64
543.14	57347.81
543.31	57212.06
543.48	57411.00
543.64	57556.11
543.81	57425.04
543.98	57633.35
544.15	57469.51
544.32	57504.62
544.48	57886.13
544.65	57509.30
544.82	57635.69
544.99	57628.67
545.16	57703.57
545.32	57661.44
545.49	57928.26
545.66	57818.25
545.83	57549.09
546.00	57897.83
546.16	57867.40
546.33	57670.80
546.50	57673.14
546.67	57790.17
546.83	57708.25
547.00	57832.30
547.17	57851.02
547.34	58047.63
547.50	58185.72
547.67	58239.55
547.84	58113.16
548.00	58349.56
548.17	58258.27
548.34	58227.85
548.51	58309.77
548.67	58344.87
548.84	58356.58
549.01	58358.92
549.18	58155.29
549.34	58571.91
549.51	58422.11
549.68	58499.35
549.84	58707.66
550.01	58621.06
550.18	58508.71
550.34	58607.01
550.51	58667.87
550.68	58705.32
550.84	58321.47
551.01	58632.76
551.18	58803.62
551.34	58567.23
551.51	58773.19
551.68	58665.53
551.84	58735.74
552.01	58656.17
552.18	58759.15
552.34	58529.78
552.51	58780.21
552.68	58897.24
552.84	58838.73
553.01	59100.87
553.18	58869.15
553.34	58937.03
553.51	58913.62
553.67	59049.38
553.84	58937.03
554.01	59089.16
554.17	59084.48
554.34	59124.27
554.51	59208.53
554.67	59285.77
554.84	59100.87
555.00	59306.83
555.17	59086.82
555.33	59245.98
555.50	59128.95
555.67	59042.35
555.83	59164.06
556.00	59241.30
556.16	59625.15
556.33	59444.93
556.50	59302.15
556.66	59524.50
556.83	59334.92
556.99	59693.02
557.16	59568.97
557.32	59559.61
557.49	59852.18
557.65	59508.12
557.82	59625.15
557.98	59599.40
558.15	59828.77
558.32	59615.79
558.48	59613.44
558.65	59770.26
558.81	59781.96
558.98	59536.21
559.14	59763.24
559.31	59728.13
559.47	59678.98
559.64	59826.43
559.80	60032.40
559.97	59739.83
560.13	60088.57
560.30	59732.81
560.46	59903.67
560.63	59969.21
560.79	59781.96
560.96	60130.70
561.12	59922.40
561.29	60149.43
561.45	59803.03
561.61	59931.76
561.78	59980.91
561.94	60027.72
562.11	59985.59
562.27	60058.15
562.44	60170.49
562.60	60154.11
562.77	60177.51
562.93	59859.20
563.10	60095.60
563.26	59994.95
563.42	60339.01
563.59	60296.88
563.75	60322.63
563.92	60355.39
564.08	59777.28
564.24	60406.89
564.41	60289.86
564.57	60245.39
564.74	60179.85
564.90	60224.32
565.07	60205.60
565.23	60280.50
565.39	60397.52
565.56	60243.05
565.72	60383.48
565.88	60219.64
566.05	60210.28
566.21	60418.59
566.38	60397.52
566.54	60547.32
566.70	60640.94
566.87	60456.04
567.03	60355.39
567.19	60322.63
567.36	60537.96
567.52	60411.57
567.68	60566.04
567.85	60416.25
568.01	60516.89
568.17	60355.39
568.34	60657.32
568.50	60629.24
568.66	60493.49
568.83	60568.38
568.99	60411.57
569.15	60591.79
569.32	60427.95
569.48	60505.19
569.64	60654.98
569.81	60591.79
569.97	60561.36
570.13	60823.50
570.30	60563.70
570.46	60795.42
570.62	60671.37
570.78	60533.28
570.95	60608.17
571.11	60816.48
571.27	60694.77
571.43	60774.35
571.60	60828.18
571.76	60671.37
571.92	60795.42
572.09	60711.16
572.25	60732.22
572.41	60650.30
572.57	60882.02
572.74	61099.68
572.90	60727.54
573.06	60779.03
573.22	60790.73
573.38	60750.94
573.55	60788.39
573.71	61001.38
573.87	60905.42
574.03	60750.94
574.20	60874.99
574.36	60769.67
574.52	60900.74
574.68	61015.43
574.84	60961.59
575.01	60823.50
575.17	60954.57
575.33	60996.70
575.49	60900.74
575.65	61017.77
575.82	60945.21
575.98	60947.55
576.14	61183.94
576.30	60910.10
576.46	60992.02
576.62	60790.73
576.79	60917.12
576.95	60720.52
577.11	60870.31
577.27	60863.29
577.43	60797.76
577.59	60903.08
577.75	60975.64
577.92	60959.25
578.08	61020.11
578.24	60882.02
578.40	60996.70
578.56	61219.05
578.72	61055.21
578.88	60935.85
579.04	61172.24
579.21	61001.38
579.37	61226.07
579.53	61116.07
579.69	60718.18
579.85	60942.87
580.01	60905.42
580.17	60725.20
580.33	61132.45
580.49	61141.81
580.65	60963.93
580.82	60963.93
580.98	60821.16
581.14	60931.17
581.30	61116.07
581.46	61144.16
581.62	61085.64
581.78	60919.46
581.94	60996.70
582.10	60903.08
582.26	61116.07
582.42	61158.20
582.58	61111.39
582.74	60945.21
582.90	61207.35
583.06	61106.71
583.22	60884.36
583.38	61155.86
583.54	61230.75
583.70	61209.69
583.86	61090.32
584.02	60931.17
584.18	61258.84
584.34	61193.31
584.50	61008.40
584.66	61069.26
584.82	60846.91
584.98	61256.50
585.14	61181.60
585.30	60879.67
585.46	61340.76
585.62	61165.22
585.78	61345.44
585.94	61195.65
586.10	61125.43
586.26	61237.78
586.42	61146.50
586.58	61324.38
586.74	61350.12
586.90	61197.99
587.06	61087.98
587.22	61357.14
587.38	61258.84
587.54	61401.61
587.70	61354.80
587.86	61216.71
588.02	61188.63
588.18	61502.26
588.34	61153.52
588.49	61151.18
