SpectraSuite Data File
++++++++++++++++++++++++++++++++++++
Date: Fri Oct 25 10:43:32 EDT 2013
User: price-jones
Dark Spectrum Present: No
Reference Spectrum Present: No
Number of Sampled Component Spectra: 1
Spectrometers: USB2+H05261
Integration Time (usec): 100000 (USB2+H05261)
Spectra Averaged: 1 (USB2+H05261)
Boxcar Smoothing: 0 (USB2+H05261)
Correct for Electrical Dark: No (USB2+H05261)
Strobe/Lamp Enabled: No (USB2+H05261)
Correct for Detector Non-linearity: No (USB2+H05261)
Correct for Stray Light: No (USB2+H05261)
Number of Pixels in Processed Spectrum: 2048
>>>>>Begin Processed Spectral Data<<<<<
365.73	112.35
365.92	112.35
366.12	112.35
366.32	4.68
366.52	14.04
366.72	30.43
366.91	51.49
367.11	30.43
367.31	25.75
367.51	7.02
367.70	0.00
367.90	0.00
368.10	30.43
368.30	70.22
368.49	49.15
368.69	65.54
368.89	53.83
369.09	63.19
369.28	70.22
369.48	18.72
369.68	117.03
369.87	100.64
370.07	35.11
370.27	159.16
370.47	187.24
370.66	374.49
370.86	414.27
371.06	521.94
371.25	571.09
371.45	451.72
371.65	440.02
371.84	493.85
372.04	496.19
372.24	543.00
372.44	538.32
372.63	500.87
372.83	465.77
373.03	470.45
373.22	519.60
373.42	463.43
373.62	503.22
373.81	519.60
374.01	486.83
374.21	519.60
374.40	596.84
374.60	716.20
374.79	594.50
374.99	585.13
375.19	624.92
375.38	578.11
375.58	610.88
375.78	528.96
375.97	589.82
376.17	606.20
376.37	573.43
376.56	671.73
376.76	587.47
376.95	620.24
377.15	664.71
377.35	697.48
377.54	681.10
377.74	653.01
377.93	620.24
378.13	648.33
378.33	594.50
378.52	608.54
378.72	683.44
378.91	711.52
379.11	685.78
379.31	667.05
379.50	674.07
379.70	697.48
379.89	669.39
380.09	573.43
380.28	711.52
380.48	697.48
380.68	678.76
380.87	655.35
381.07	702.16
381.26	774.72
381.46	664.71
381.65	739.61
381.85	655.35
382.04	720.88
382.24	669.39
382.43	786.42
382.63	793.44
382.83	732.59
383.02	777.06
383.22	669.39
383.41	786.42
383.61	786.42
383.80	805.14
384.00	751.31
384.19	814.51
384.39	870.68
384.58	802.80
384.78	823.87
384.97	753.65
385.17	882.38
385.36	842.59
385.56	741.95
385.75	748.97
385.95	840.25
386.14	894.08
386.34	844.93
386.53	767.70
386.72	821.53
386.92	835.57
387.11	800.46
387.31	826.21
387.50	861.32
387.70	887.06
387.89	903.45
388.09	833.23
388.28	805.14
388.48	936.21
388.67	933.87
388.86	884.72
389.06	821.53
389.25	954.94
389.45	990.05
389.64	903.45
389.84	1039.20
390.03	1001.75
390.22	1006.43
390.42	945.58
390.61	1001.75
390.81	1020.47
391.00	1048.56
391.19	1057.92
391.39	1081.33
391.58	966.64
391.78	1086.01
391.97	1088.35
392.16	1055.58
392.36	1125.80
392.55	1062.60
392.75	992.39
392.94	985.37
393.13	968.98
393.33	1006.43
393.52	945.58
393.71	1060.26
393.91	1041.54
394.10	1081.33
394.29	1102.39
394.49	1097.71
394.68	1193.67
394.88	1188.99
395.07	1261.55
395.26	1179.63
395.46	1343.47
395.65	1219.42
395.84	1188.99
396.04	1256.87
396.23	1184.31
396.42	1200.69
396.62	1167.93
396.81	1174.95
397.00	1228.78
397.19	1268.57
397.39	1296.66
397.58	1352.83
397.77	1313.04
397.97	1411.34
398.16	1444.11
398.35	1476.88
398.55	1519.01
398.74	1423.05
398.93	1432.41
399.12	1500.28
399.32	1490.92
399.51	1549.43
399.70	1542.41
399.90	1605.61
400.09	1547.09
400.28	1589.22
400.47	1584.54
400.67	1708.59
400.86	1680.50
401.05	1675.82
401.24	1668.80
401.44	1760.08
401.63	1673.48
401.82	1757.74
402.01	1659.44
402.21	1762.42
402.40	1668.80
402.59	1689.87
402.78	1633.69
402.97	1795.19
403.17	1877.11
403.36	1846.68
403.55	1834.98
403.74	1860.73
403.93	1884.13
404.13	1870.09
404.32	1818.60
404.51	1879.45
404.70	1898.17
404.89	2015.20
405.09	2017.54
405.28	1947.33
405.47	1937.96
405.66	1989.46
405.85	2050.31
406.05	1874.77
406.24	2101.80
406.43	2019.88
406.62	2038.61
406.81	2113.50
407.00	2209.47
407.20	2012.86
407.39	2169.68
407.58	2036.27
407.77	2122.87
407.96	2200.10
408.15	2228.19
408.34	2286.70
408.54	2305.43
408.73	2310.11
408.92	2312.45
409.11	2312.45
409.30	2328.83
409.49	2319.47
409.68	2373.30
409.87	2244.57
410.07	2282.02
410.26	2373.30
410.45	2380.32
410.64	2436.50
410.83	2614.38
411.02	2469.27
411.21	2555.86
411.40	2499.69
411.59	2590.97
411.78	2555.86
411.98	2663.53
412.17	2700.98
412.36	2677.57
412.55	2656.51
412.74	2813.32
412.93	2813.32
413.12	2803.96
413.31	2848.43
413.50	2871.84
413.69	2923.33
413.88	2953.76
414.07	2953.76
414.26	2977.16
414.45	2902.26
414.64	3009.93
414.83	3070.78
415.02	3038.02
415.22	3047.38
415.41	3166.74
415.60	3112.91
415.79	3206.53
415.98	3218.24
416.17	3300.16
416.36	3297.81
416.55	3307.18
416.74	3222.92
416.93	3227.60
417.12	3332.92
417.31	3417.18
417.50	3297.81
417.69	3499.10
417.88	3421.86
418.07	3370.37
418.26	3318.88
418.45	3499.10
418.64	3576.34
418.83	3545.91
419.02	3468.67
419.21	3630.17
419.39	3524.85
419.58	3524.85
419.77	3480.38
419.96	3541.23
420.15	3751.88
420.34	3744.86
420.53	3669.96
420.72	3824.44
420.91	3864.22
421.10	3712.09
421.29	3730.81
421.48	3761.24
421.67	3843.16
421.86	3644.21
422.05	3796.35
422.24	3859.54
422.43	3763.58
422.61	3744.86
422.80	4058.49
422.99	3875.93
423.18	3880.61
423.37	4152.11
423.56	3948.48
423.75	3843.16
423.94	3796.35
424.13	3786.99
424.32	3899.33
424.50	4086.58
424.69	3990.61
424.88	3974.23
425.07	3873.59
425.26	3899.33
425.45	3906.35
425.64	4002.32
425.83	3887.63
426.01	4182.54
426.20	3990.61
426.39	3906.35
426.58	4067.85
426.77	3969.55
426.96	3978.91
427.15	3971.89
427.33	3964.87
427.52	4042.11
427.71	4198.92
427.90	4219.99
428.09	4166.15
428.28	4133.39
428.46	4290.20
428.65	4217.65
428.84	4189.56
429.03	4344.03
429.22	4191.90
429.40	4182.54
429.59	4002.32
429.78	3873.59
429.97	3789.33
430.16	3929.76
430.34	4187.22
430.53	4086.58
430.72	4121.68
430.91	4245.73
431.10	4114.66
431.28	4671.71
431.47	4493.83
431.66	4498.51
431.85	4587.45
432.03	4479.79
432.22	4594.47
432.41	4573.41
432.60	4676.39
432.79	4723.20
432.97	4704.48
433.16	4884.70
433.35	4643.62
433.54	4669.37
433.72	4573.41
433.91	4716.18
434.10	4865.97
434.28	4652.98
434.47	4894.06
434.66	4954.91
434.85	5032.15
435.03	4908.10
435.22	4992.36
435.41	5116.41
435.59	5036.83
435.78	5050.88
435.97	5067.26
436.16	5039.17
436.34	5231.10
436.53	4983.00
436.72	5228.76
436.90	5174.92
437.09	5125.77
437.28	5121.09
437.46	5242.80
437.65	5195.99
437.84	5186.63
438.02	5123.43
438.21	5118.75
438.40	5146.84
438.58	5259.18
438.77	5355.15
438.96	5432.38
439.14	5540.05
439.33	5628.99
439.52	5685.16
439.70	5516.64
439.89	5607.92
440.08	5762.40
440.26	5678.14
440.45	5607.92
440.63	5863.04
440.82	5919.21
441.01	5961.34
441.19	6024.54
441.38	6106.46
441.57	6083.05
441.75	6246.89
441.94	6448.18
442.12	6139.23
442.31	6429.45
442.50	6431.79
442.68	6179.01
442.87	6214.12
443.05	6462.22
443.24	6413.07
443.43	6511.37
443.61	6256.25
443.80	6609.67
443.98	6389.66
444.17	6211.78
444.35	6438.81
444.54	6626.06
444.73	6424.77
444.91	6590.95
445.10	6607.33
445.28	6352.21
445.47	6438.81
445.65	6415.41
445.84	6452.86
446.02	6581.59
446.21	6448.18
446.39	6581.59
446.58	6574.56
446.77	6619.04
446.95	6558.18
447.14	6651.80
447.32	6719.68
447.51	6703.29
447.69	6808.62
447.88	6789.89
448.06	6567.54
448.25	6729.04
448.43	6677.55
448.62	6665.85
448.80	6619.04
448.99	6750.10
449.17	6876.49
449.36	6789.89
449.54	6979.48
449.73	7056.72
449.91	7096.50
450.10	7192.47
450.28	7265.02
450.46	7293.11
450.65	7199.49
450.83	7173.74
451.02	7033.31
451.20	7353.96
451.39	7169.06
451.57	7215.87
451.76	7321.20
451.94	7332.90
452.13	7360.98
452.31	7290.77
452.49	7101.19
452.68	7220.55
452.86	7206.51
453.05	7145.66
453.23	7342.26
453.42	7335.24
453.60	7342.26
453.78	7452.27
453.97	7400.77
454.15	7440.56
454.34	7384.39
454.52	7368.01
454.70	7489.71
454.89	7527.16
455.07	7513.12
455.26	7466.31
455.44	7859.52
455.62	7566.95
455.81	7623.12
455.99	8021.02
456.17	7983.57
456.36	7911.01
456.54	7929.74
456.73	8002.29
456.91	8119.32
457.09	8004.63
457.28	8318.26
457.46	7985.91
457.64	8205.92
457.83	8065.49
458.01	7906.33
458.19	8367.42
458.38	8184.85
458.56	8381.46
458.74	8255.07
458.93	8234.00
459.11	8219.96
459.29	8131.02
459.48	8311.24
459.66	8322.94
459.84	8512.53
460.03	8477.42
460.21	8482.10
460.39	8528.91
460.57	8437.63
460.76	8760.63
460.94	8765.31
461.12	8594.45
461.31	8601.47
461.49	8451.67
461.67	8788.71
461.85	8879.99
462.04	8809.78
462.22	9282.56
462.40	8739.56
462.59	8943.19
462.77	8802.75
462.95	8837.86
463.13	9020.42
463.32	9076.60
463.50	8987.66
463.68	8971.27
463.86	9067.24
464.05	8987.66
464.23	8851.91
464.41	9137.45
464.59	8933.82
464.78	9167.88
464.96	9200.65
465.14	9085.96
465.32	9151.49
465.50	9280.22
465.69	9341.08
465.87	9252.14
466.05	9090.64
466.23	9074.26
466.41	9184.26
466.60	9324.69
466.78	9238.09
466.96	9296.61
467.14	9390.23
467.32	9434.70
467.51	9699.18
467.69	9254.48
467.87	9387.89
468.05	9584.49
468.23	9397.25
468.41	9455.76
468.60	9378.53
468.78	9816.21
468.96	9540.02
469.14	9589.17
469.32	9776.42
469.50	9366.82
469.69	9846.63
469.87	10005.79
470.05	9748.33
470.23	9830.25
470.41	9778.76
470.59	9848.97
470.77	9818.55
470.95	9738.97
471.14	9933.23
471.32	9970.68
471.50	10113.45
471.68	10281.97
471.86	10033.88
472.04	10466.88
472.22	10555.82
472.40	10225.80
472.58	10200.05
472.77	10216.44
472.95	10789.87
473.13	10817.96
473.31	10597.95
473.49	10700.93
473.67	10782.85
473.85	10740.72
474.03	10913.92
474.21	10754.76
474.39	11143.29
474.57	11105.84
474.75	11014.56
474.93	11180.74
475.12	11279.04
475.30	11248.61
475.48	11239.25
475.66	11314.15
475.84	11117.54
476.02	11283.72
476.20	11421.81
476.38	11868.86
476.56	11936.73
476.74	11726.08
476.92	11662.89
477.10	11719.06
477.28	12196.53
477.46	12067.80
477.64	12119.29
477.82	12491.44
478.00	12374.41
478.18	12521.87
478.36	12507.82
478.54	12788.69
478.72	12774.64
478.90	12870.61
479.08	12875.29
479.26	13193.60
479.44	12989.97
479.62	13259.13
479.80	13282.54
479.98	13479.15
480.16	13659.37
480.34	13626.60
480.52	13757.67
480.70	13802.14
480.88	13614.90
481.06	13973.00
481.24	13947.25
481.41	14094.71
481.59	14387.27
481.77	14368.55
481.95	14256.20
482.13	14597.92
482.31	14537.07
482.49	15147.95
482.67	14944.32
482.85	15066.03
483.03	15248.59
483.21	15061.35
483.39	15442.85
483.57	15494.35
483.74	15599.67
483.92	15913.30
484.10	15693.29
484.28	16044.37
484.46	16086.50
484.64	16407.16
484.82	16018.63
485.00	15962.45
485.18	16383.75
485.35	16681.00
485.53	16109.91
485.71	15943.73
485.89	16276.09
486.07	16098.20
486.25	16816.75
486.43	17039.10
486.61	17090.59
486.78	17308.26
486.96	17418.27
487.14	17547.00
487.32	17614.87
487.50	17792.75
487.68	18277.24
487.85	18366.18
488.03	18492.57
488.21	18647.05
488.39	18448.10
488.57	18396.61
488.75	18588.53
488.92	19110.47
489.10	19281.33
489.28	19166.65
489.46	19609.01
489.64	19775.19
489.81	20086.48
489.99	20336.91
490.17	20458.62
490.35	20039.67
490.53	20367.34
490.70	20545.22
490.88	20212.87
491.06	20599.05
491.24	20542.88
491.41	20751.19
491.59	20622.46
491.77	20568.63
491.95	20999.29
492.13	21212.28
492.30	21579.74
492.48	21509.52
492.66	21785.71
492.84	21825.50
493.01	22012.74
493.19	22010.40
493.37	22221.05
493.54	22251.47
493.72	22494.89
493.90	22398.93
494.08	22684.47
494.25	22991.08
494.43	23098.75
494.61	23531.75
494.79	23290.67
494.96	23470.89
495.14	23412.38
495.32	23793.89
495.49	23688.56
495.67	23641.75
495.85	23885.17
496.02	24224.54
496.20	24149.65
496.38	24245.61
496.55	24575.62
496.73	25287.15
496.91	24889.26
497.09	24751.17
497.26	25172.46
497.44	25301.19
497.62	25046.07
497.79	25385.45
497.97	25245.02
498.14	25394.81
498.32	25570.35
498.50	25537.59
498.67	26136.76
498.85	25921.43
499.03	26347.41
499.20	26237.41
499.38	26174.21
499.56	26361.45
499.73	25991.65
499.91	26672.74
500.08	26923.18
500.26	26256.13
500.44	26534.65
500.61	26590.83
500.79	26576.78
500.97	26977.01
501.14	27110.43
501.32	27016.80
501.49	27307.03
501.67	27119.79
501.84	27126.81
502.02	27077.66
502.20	27608.96
502.37	27697.90
502.55	27709.60
502.72	28107.49
502.90	28051.32
503.07	28016.21
503.25	27985.79
503.43	27910.89
503.60	28112.17
503.78	28257.29
503.95	28170.69
504.13	28261.97
504.30	28276.01
504.48	28680.92
504.65	28819.02
504.83	28966.47
505.01	28870.51
505.18	28741.78
505.36	29832.47
505.53	29392.45
505.71	29560.97
505.88	29635.86
506.06	29677.99
506.23	29984.60
506.41	29434.58
506.58	29490.75
506.76	29731.83
506.93	29879.28
507.11	29888.64
507.28	30012.69
507.46	30082.91
507.63	30118.01
507.81	30213.98
507.98	29846.51
508.16	30405.90
508.33	30464.41
508.50	30632.93
508.68	30316.96
508.85	31019.12
509.03	30869.33
509.20	30962.95
509.38	31295.30
509.55	31379.56
509.73	31421.69
509.90	31311.69
510.08	31634.68
510.25	31358.50
510.42	31660.43
510.60	31585.53
510.77	31786.82
510.95	32158.96
511.12	31810.22
511.30	31892.14
511.47	32332.16
511.64	32320.46
511.82	32332.16
511.99	31969.38
512.17	32350.88
512.34	32060.66
512.51	32940.70
512.69	32444.51
512.86	32409.40
513.04	32706.65
513.21	32566.21
513.38	33043.68
513.56	33046.02
513.73	32687.92
513.90	33237.95
514.08	32950.06
514.25	32797.93
514.43	33390.08
514.60	33125.60
514.77	33626.48
514.95	33308.16
515.12	33930.75
515.29	33820.74
515.47	33897.98
515.64	33919.04
515.81	33766.91
515.99	33626.48
516.16	33677.97
516.33	32957.08
516.51	33413.49
516.68	33221.56
516.85	33235.61
517.03	33144.33
517.20	33654.56
517.37	34410.56
517.54	34548.65
517.72	33923.72
517.89	34218.63
518.06	33881.60
518.24	34125.01
518.41	34286.51
518.58	34330.98
518.75	34546.31
518.93	34927.81
519.10	34586.10
519.27	35164.21
519.45	35449.75
519.62	35199.32
519.79	35295.28
519.96	35346.77
520.14	35473.16
520.31	35253.15
520.48	35381.88
520.65	35079.95
520.83	35573.80
521.00	35519.97
521.17	36095.74
521.34	35688.49
521.52	35831.26
521.69	35676.79
521.86	35992.76
522.03	36273.62
522.20	35927.22
522.38	36601.30
522.55	36390.65
522.72	36505.34
522.89	36231.49
523.07	36893.86
523.24	36746.41
523.41	36818.97
523.58	37038.98
523.75	37607.73
523.92	37198.13
524.10	37343.25
524.27	37401.76
524.44	37153.66
524.61	37495.38
524.78	37401.76
524.96	37127.92
525.13	37570.28
525.30	37326.86
525.47	37689.65
525.64	37457.93
525.81	37380.70
525.98	37223.88
526.16	37254.31
526.33	37024.93
526.50	37394.74
526.67	37366.65
526.84	37373.67
527.01	37577.30
527.18	37855.82
527.36	38171.80
527.53	38457.34
527.70	38667.99
527.87	38267.76
528.04	38164.78
528.21	38225.63
528.38	38597.77
528.55	38541.60
528.72	38450.32
528.89	38897.36
529.07	38752.25
529.24	38532.24
529.41	38810.76
529.58	38447.98
529.75	38944.17
529.92	39016.73
530.09	38855.23
530.26	38944.17
530.43	39117.37
530.60	38869.28
530.77	38593.09
530.94	39239.08
531.11	39522.29
531.28	39229.72
531.46	39604.20
531.63	39353.77
531.80	39566.76
531.97	39552.71
532.14	39730.59
532.31	38759.27
532.48	39697.83
532.65	39318.66
532.82	39203.97
532.99	39641.65
533.16	39721.23
533.33	40175.30
533.50	39454.41
533.67	40154.23
533.84	39536.33
534.01	39508.24
534.18	40135.51
534.35	40198.70
534.52	39882.73
534.69	40692.55
534.86	40722.98
535.03	40428.07
535.20	40994.48
535.37	41177.04
535.54	40790.86
535.71	40615.32
535.88	40905.54
536.05	40790.86
536.22	40842.35
536.38	40842.35
536.55	40657.45
536.72	40643.40
536.89	40353.18
537.06	40388.28
537.23	41352.58
537.40	41031.93
537.57	40978.10
537.74	40947.67
537.91	41146.62
538.08	41205.13
538.25	41071.72
538.42	41265.99
538.59	41336.20
538.75	41249.60
538.92	40856.39
539.09	41797.29
539.26	40868.09
539.43	41338.54
539.60	41633.45
539.77	41483.66
539.94	41457.91
540.11	41289.39
540.28	41205.13
540.44	41312.80
540.61	41741.11
540.78	41418.12
540.95	41354.93
541.12	41378.33
541.29	41214.49
541.46	42265.39
541.62	42075.81
541.79	42024.32
541.96	41223.86
542.13	42005.59
542.30	41539.83
542.47	42014.96
542.63	42071.13
542.80	42368.38
542.97	42122.62
543.14	42728.82
543.31	42536.90
543.48	42232.63
543.64	42937.13
543.81	42792.01
543.98	42752.23
544.15	42773.29
544.32	42864.57
544.48	43320.98
544.65	42773.29
544.82	42883.30
544.99	42333.27
545.16	42740.52
545.32	42588.39
545.49	42630.52
545.66	43517.58
545.83	42911.38
546.00	43180.54
546.16	42930.11
546.33	42817.76
546.50	43051.81
546.67	42960.53
546.83	42918.40
547.00	42705.41
547.17	43110.33
547.34	43143.09
547.50	43388.85
547.67	43732.91
547.84	43454.39
548.00	44023.14
548.17	43695.46
548.34	43372.47
548.51	44065.27
548.67	43842.92
548.84	43660.35
549.01	43639.29
549.18	43150.12
549.34	43955.26
549.51	43597.16
549.68	43229.69
549.84	43943.56
550.01	44116.76
550.18	43388.85
550.34	43470.77
550.51	44009.09
550.68	44060.58
550.84	43538.65
551.01	44226.76
551.18	43929.51
551.34	43931.86
551.51	44079.31
551.68	44245.49
551.84	43878.02
552.01	43854.62
552.18	43873.34
552.34	44004.41
552.51	44154.21
552.68	43777.38
552.84	44325.07
553.01	44418.69
553.18	44357.83
553.34	44121.44
553.51	44240.81
553.67	44634.02
553.84	44596.57
554.01	45059.99
554.17	44617.63
554.34	44659.76
554.51	44774.45
554.67	44727.64
554.84	44418.69
555.00	44435.07
555.17	44622.31
555.33	44619.97
555.50	44531.03
555.67	44978.07
555.83	44516.99
556.00	44744.02
556.16	44781.47
556.33	44741.68
556.50	44587.21
556.66	44795.51
556.83	44711.25
556.99	44563.80
557.16	44795.51
557.32	44744.02
557.49	44957.01
557.65	44886.79
557.82	44839.98
557.98	44811.90
558.15	44905.52
558.32	45214.47
558.48	44563.80
558.65	44870.41
558.81	44837.64
558.98	44816.58
559.14	45017.86
559.31	44879.77
559.47	45151.27
559.64	45434.48
559.80	45078.72
559.97	45109.14
560.13	44942.97
560.30	45127.87
560.46	45478.95
560.63	45511.72
560.79	45050.63
560.96	45528.10
561.12	45024.89
561.29	44996.80
561.45	45457.88
561.61	45434.48
561.78	45474.27
561.94	45167.66
562.11	44683.17
562.27	45090.42
562.44	45085.74
562.60	46047.70
562.77	45886.20
562.93	45237.87
563.10	45720.02
563.26	45338.52
563.42	45497.67
563.59	45467.25
563.75	45563.21
563.92	45621.72
564.08	45624.06
564.24	45605.34
564.41	45535.12
564.57	45949.40
564.74	45415.76
564.90	45514.06
565.07	45350.22
565.23	45528.10
565.39	45397.03
565.56	45521.08
565.72	45083.40
565.88	45553.85
566.05	45221.49
566.21	45469.59
566.38	45319.79
566.54	45509.38
566.70	45942.38
566.87	46080.47
567.03	45724.71
567.19	46085.15
567.36	45710.66
567.52	45890.88
567.68	45617.04
567.85	45375.97
568.01	46071.10
568.17	45439.16
568.34	45446.18
568.50	45446.18
568.66	45076.38
568.83	45853.44
568.99	45127.87
569.15	45593.64
569.32	45724.71
569.48	45684.92
569.64	46267.71
569.81	46078.13
569.97	45525.76
570.13	45787.90
570.30	45282.34
570.46	45647.47
570.62	45216.81
570.78	45158.30
570.95	45811.31
571.11	45703.64
571.27	45537.46
571.43	45694.28
571.60	45443.84
571.76	45928.33
571.92	45944.72
572.09	45832.37
572.25	46129.62
572.41	46174.09
572.57	45815.99
572.74	46265.37
572.90	46120.26
573.06	46005.57
573.22	45818.33
573.38	45584.27
573.55	45680.24
573.71	46190.47
573.87	45558.53
574.03	45408.73
574.20	45806.62
574.36	45738.75
574.52	45914.29
574.68	46054.72
574.84	46071.10
575.01	45614.70
575.17	46213.88
575.33	45614.70
575.49	45698.96
575.65	46227.92
575.82	46349.63
575.98	45787.90
576.14	45720.02
576.30	46277.07
576.46	46237.28
576.62	46017.27
576.79	45563.21
576.95	45497.67
577.11	46136.64
577.27	45827.69
577.43	45769.18
577.59	45663.85
577.75	45745.77
577.92	45698.96
578.08	45549.17
578.24	44896.16
578.40	45584.27
578.56	45900.25
578.72	45909.61
578.88	46415.16
579.04	45928.33
579.21	45755.13
579.37	45628.74
579.53	45640.45
579.69	45837.05
579.85	45794.92
580.01	45975.14
580.17	46010.25
580.33	45865.14
580.49	46094.51
580.65	46036.00
580.82	45862.80
580.98	46167.07
581.14	45820.67
581.30	46019.61
581.46	46021.95
581.62	46344.95
581.78	46026.63
581.94	46066.42
582.10	46066.42
582.26	46555.60
582.42	46234.94
582.58	45815.99
582.74	45811.31
582.90	46171.75
583.06	46277.07
583.22	46071.10
583.38	46377.72
583.54	46529.85
583.70	46220.90
583.86	45600.66
584.02	46131.96
584.18	46333.24
584.34	45705.98
584.50	46316.86
584.66	46026.63
584.82	45804.28
584.98	46026.63
585.14	45925.99
585.30	45961.10
585.46	46239.62
585.62	45579.59
585.78	46036.00
585.94	45404.05
586.10	45738.75
586.26	45642.79
586.42	46412.82
586.58	45940.04
586.74	45942.38
586.90	46033.66
587.06	46057.06
587.22	46045.36
587.38	46089.83
587.54	46181.11
587.70	46546.23
587.86	46302.82
588.02	45858.12
588.18	46197.49
588.34	45560.87
588.49	45750.45
588.65	45605.34
588.81	45827.69
588.97	45638.11
589.13	45441.50
589.29	45172.34
589.45	45668.53
589.61	46293.46
589.77	46150.68
589.93	46181.11
