SpectraSuite Data File
++++++++++++++++++++++++++++++++++++
Date: Fri Oct 25 11:25:03 EDT 2013
User: price-jones
Dark Spectrum Present: No
Reference Spectrum Present: No
Number of Sampled Component Spectra: 1
Spectrometers: USB2+H05261
Integration Time (usec): 100000 (USB2+H05261)
Spectra Averaged: 1 (USB2+H05261)
Boxcar Smoothing: 0 (USB2+H05261)
Correct for Electrical Dark: No (USB2+H05261)
Strobe/Lamp Enabled: No (USB2+H05261)
Correct for Detector Non-linearity: No (USB2+H05261)
Correct for Stray Light: No (USB2+H05261)
Number of Pixels in Processed Spectrum: 2048
>>>>>Begin Processed Spectral Data<<<<<
365.73	259.80
365.92	259.80
366.12	259.80
366.32	142.77
366.52	182.56
366.72	126.39
366.91	140.43
367.11	95.96
367.31	79.58
367.51	147.45
367.70	102.98
367.90	159.16
368.10	161.50
368.30	198.95
368.49	114.69
368.69	133.41
368.89	133.41
369.09	159.16
369.28	184.90
369.48	156.82
369.68	133.41
369.87	229.37
370.07	220.01
370.27	241.08
370.47	367.46
370.66	559.39
370.86	601.52
371.06	657.69
371.25	697.48
371.45	641.31
371.65	723.23
371.84	653.01
372.04	653.01
372.24	702.16
372.44	697.48
372.63	704.50
372.83	704.50
373.03	748.97
373.22	737.27
373.42	802.80
373.62	753.65
373.81	741.95
374.01	793.44
374.21	777.06
374.40	812.17
374.60	837.91
374.79	805.14
374.99	819.19
375.19	805.14
375.38	854.30
375.58	807.48
375.78	947.92
375.97	873.02
376.17	943.24
376.37	826.21
376.56	807.48
376.76	842.59
376.95	840.25
377.15	945.58
377.35	894.08
377.54	910.47
377.74	917.49
377.93	905.79
378.13	950.26
378.33	896.43
378.52	926.85
378.72	973.66
378.91	1006.43
379.11	950.26
379.31	945.58
379.50	896.43
379.70	992.39
379.89	985.37
380.09	978.34
380.28	990.05
380.48	1018.13
380.68	1011.11
380.87	1022.81
381.07	1013.45
381.26	1006.43
381.46	957.28
381.65	997.07
381.85	1107.07
382.04	1095.37
382.24	1111.75
382.43	1109.41
382.63	1062.60
382.83	1076.65
383.02	1064.94
383.22	1062.60
383.41	983.02
383.61	1064.94
383.80	1123.46
384.00	1114.10
384.19	1102.39
384.39	1174.95
384.58	997.07
384.78	1121.12
384.97	1221.76
385.17	1259.21
385.36	1125.80
385.56	1165.59
385.75	1238.14
385.95	1174.95
386.14	1125.80
386.34	1156.22
386.53	1170.27
386.72	1160.91
386.92	1233.46
387.11	1228.78
387.31	1282.61
387.50	1259.21
387.70	1259.21
387.89	1284.95
388.09	1261.55
388.28	1350.49
388.48	1256.87
388.67	1287.29
388.86	1284.95
389.06	1275.59
389.25	1366.87
389.45	1280.27
389.64	1345.81
389.84	1324.74
390.03	1413.68
390.22	1455.81
390.42	1331.76
390.61	1359.85
390.81	1336.45
391.00	1483.90
391.19	1383.26
391.39	1476.88
391.58	1416.02
391.78	1490.92
391.97	1444.11
392.16	1418.36
392.36	1530.71
392.55	1530.71
392.75	1640.72
392.94	1507.30
393.13	1490.92
393.33	1521.35
393.52	1537.73
393.71	1533.05
393.91	1577.52
394.10	1502.62
394.29	1647.74
394.49	1575.18
394.68	1647.74
394.88	1652.42
395.07	1710.93
395.26	1668.80
395.46	1661.78
395.65	1687.53
395.84	1872.43
396.04	1753.06
396.23	1722.63
396.42	1699.23
396.62	1790.51
396.81	1825.62
397.00	1743.70
397.19	1865.41
397.39	1753.06
397.58	1783.49
397.77	1834.98
397.97	1804.55
398.16	1830.30
398.35	1874.77
398.55	1846.68
398.74	1867.75
398.93	1895.83
399.12	1863.07
399.32	1923.92
399.51	1959.03
399.70	2026.90
399.90	1926.26
400.09	2047.97
400.28	2050.31
400.47	2085.42
400.67	1994.14
400.86	2040.95
401.05	1987.11
401.24	2139.25
401.44	2059.67
401.63	2200.10
401.82	2146.27
402.01	2015.20
402.21	2059.67
402.40	2237.55
402.59	2242.23
402.78	2122.87
402.97	2211.81
403.17	2193.08
403.36	2209.47
403.55	2303.09
403.74	2256.28
403.93	2349.90
404.13	2441.18
404.32	2363.94
404.51	2347.56
404.70	2370.96
404.89	2312.45
405.09	2338.20
405.28	2511.39
405.47	2499.69
405.66	2478.63
405.85	2546.50
406.05	2539.48
406.24	2560.55
406.43	2569.91
406.62	2665.87
406.81	2647.15
407.00	2438.84
407.20	2621.40
407.39	2576.93
407.58	2733.75
407.77	2647.15
407.96	2703.32
408.15	2738.43
408.34	2726.72
408.54	2848.43
408.73	2782.90
408.92	2841.41
409.11	2967.80
409.30	2913.97
409.49	2864.82
409.68	2935.03
409.87	3000.57
410.07	3016.95
410.26	3082.49
410.45	2895.24
410.64	2897.58
410.83	3112.91
411.02	2981.84
411.21	3115.25
411.40	3194.83
411.59	3194.83
411.78	3145.68
411.98	3166.74
412.17	3379.73
412.36	3314.20
412.55	3276.75
412.74	3419.52
412.93	3452.29
413.12	3346.97
413.31	3550.59
413.50	3536.55
413.69	3403.14
413.88	3536.55
414.07	3548.25
414.26	3545.91
414.45	3625.49
414.64	3730.81
414.83	3740.18
415.02	3676.98
415.22	3751.88
415.41	3873.59
415.60	3845.50
415.79	3808.05
415.98	3801.03
416.17	3946.14
416.36	3892.31
416.55	3971.89
416.74	4117.00
416.93	3988.27
417.12	4070.19
417.31	4217.65
417.50	4177.86
417.69	4177.86
417.88	4224.67
418.07	4187.22
418.26	4404.89
418.45	4374.46
418.64	4528.94
418.83	4372.12
419.02	4538.30
419.21	4559.36
419.39	4465.74
419.58	4482.13
419.77	4470.42
419.96	4645.96
420.15	4643.62
420.34	4730.22
420.53	4578.09
420.72	4620.22
420.91	4645.96
421.10	4748.95
421.29	4760.65
421.48	4697.46
421.67	4676.39
421.86	4795.76
422.05	4643.62
422.24	4774.69
422.43	4823.84
422.61	4826.18
422.80	4877.68
422.99	4856.61
423.18	4973.64
423.37	4957.25
423.56	4908.10
423.75	4950.23
423.94	4884.70
424.13	4535.96
424.32	4767.67
424.50	4816.82
424.69	5004.07
424.88	5181.95
425.07	4959.60
425.26	4807.46
425.45	4978.32
425.64	4971.30
425.83	4830.87
426.01	5057.90
426.20	5078.96
426.39	5071.94
426.58	5151.52
426.77	5081.30
426.96	5252.16
427.15	5193.65
427.33	5231.10
427.52	5090.67
427.71	5313.02
427.90	5186.63
428.09	5128.11
428.28	5280.25
428.46	5376.21
428.65	5401.96
428.84	5355.15
429.03	5556.43
429.22	5277.91
429.40	5448.77
429.59	5458.13
429.78	5238.12
429.97	5228.76
430.16	5439.40
430.34	5523.66
430.53	5612.60
430.72	5540.05
430.91	5596.22
431.10	5617.29
431.28	5652.39
431.47	5727.29
431.66	5860.70
431.85	5652.39
432.03	5877.09
432.22	5930.92
432.41	5813.89
432.60	5982.41
432.79	5837.30
432.97	5879.43
433.16	5909.85
433.35	5893.47
433.54	6050.28
433.72	6033.90
433.91	6024.54
434.10	6183.70
434.28	6120.50
434.47	6176.67
434.66	6069.01
434.85	6218.80
435.03	6373.28
435.22	6321.79
435.41	6600.31
435.59	6282.00
435.78	6497.33
435.97	6457.54
436.16	6345.19
436.34	6464.56
436.53	6406.05
436.72	6637.76
436.90	6375.62
437.09	6569.88
437.28	6417.75
437.46	6476.26
437.65	6682.23
437.84	6696.27
438.02	6829.68
438.21	6670.53
438.40	6640.10
438.58	6927.99
438.77	7070.76
438.96	6902.24
439.14	6988.84
439.33	7042.67
439.52	7180.76
439.70	7129.27
439.89	7339.92
440.08	7384.39
440.26	7339.92
440.45	7272.04
440.63	7353.96
440.82	7634.83
441.01	7447.58
441.19	7454.61
441.38	7751.85
441.57	7569.29
441.75	7845.48
441.94	7829.09
442.12	7847.82
442.31	7943.78
442.50	8147.40
442.68	8037.40
442.87	7786.96
443.05	8098.25
443.24	8191.88
443.43	8107.62
443.61	8088.89
443.80	8348.69
443.98	7985.91
444.17	7815.05
444.35	8170.81
444.54	8489.12
444.73	8241.03
444.91	8336.99
445.10	8411.89
445.28	8379.12
445.47	8133.36
445.65	8318.26
445.84	8334.65
446.02	8486.78
446.21	8404.86
446.39	8168.47
446.58	8650.62
446.77	8381.46
446.95	8046.76
447.14	8320.60
447.32	8599.13
447.51	8353.37
447.69	8486.78
447.88	8386.14
448.06	8631.90
448.25	8444.65
448.43	8477.42
448.62	8589.77
448.80	8496.14
448.99	8713.81
449.17	8718.50
449.36	8496.14
449.54	8709.13
449.73	8837.86
449.91	8938.51
450.10	8950.21
450.28	8975.95
450.46	9202.99
450.65	8915.10
450.83	8971.27
451.02	9205.33
451.20	9139.79
451.39	9191.28
451.57	9029.79
451.76	8912.76
451.94	9090.64
452.13	9191.28
452.31	9123.41
452.49	9284.91
452.68	9275.54
452.86	9467.47
453.05	9432.36
453.23	9511.94
453.42	9312.99
453.60	9317.67
453.78	9600.88
453.97	9371.50
454.15	9287.25
454.34	9320.01
454.52	9579.81
454.70	9671.09
454.89	9792.80
455.07	9832.59
455.26	9771.74
455.44	10045.58
455.62	9755.35
455.81	9980.04
455.99	10148.56
456.17	10108.77
456.36	10001.11
456.54	10162.61
456.73	10249.21
456.91	10382.62
457.09	10373.25
457.28	10509.01
457.46	10305.38
457.64	10459.85
457.83	10511.35
458.01	10335.81
458.19	10607.31
458.38	10457.51
458.56	10764.12
458.74	10590.92
458.93	10747.74
459.11	10869.45
459.29	10876.47
459.48	10874.13
459.66	10691.57
459.84	10850.72
460.03	11082.44
460.21	10899.87
460.39	10949.03
460.57	10743.06
460.76	10883.49
460.94	10956.05
461.12	11255.64
461.31	11049.67
461.49	11295.43
461.67	11056.69
461.85	11424.15
462.04	11150.31
462.22	11716.72
462.40	11494.37
462.59	11452.24
462.77	11229.89
462.95	11623.10
463.13	11426.50
463.32	11653.53
463.50	11782.26
463.68	11618.42
463.86	11583.31
464.05	11566.93
464.23	11651.19
464.41	11552.88
464.59	11566.93
464.78	12222.28
464.96	11810.34
465.14	11733.11
465.32	12013.97
465.50	11943.75
465.69	11920.35
465.87	12077.16
466.05	12063.12
466.23	12100.57
466.41	12276.11
466.60	12641.23
466.78	12091.21
466.96	12248.02
467.14	12257.39
467.32	12283.13
467.51	12491.44
467.69	12088.87
467.87	12421.22
468.05	12580.38
468.23	12210.57
468.41	12428.24
468.60	12418.88
468.78	12730.17
468.96	12519.53
469.14	12784.01
469.32	13242.75
469.50	12650.60
469.69	13057.85
469.87	13118.70
470.05	13198.28
470.23	13025.08
470.41	13181.90
470.59	13298.92
470.77	13064.87
470.95	13048.49
471.14	13502.55
471.32	13043.81
471.50	13575.11
471.68	13523.62
471.86	13965.98
472.04	13575.11
472.22	13879.38
472.40	13654.69
472.58	13996.40
472.77	13973.00
472.95	14036.19
473.13	14558.13
473.31	14139.18
473.49	14106.41
473.67	14134.50
473.85	14181.31
474.03	14750.06
474.21	14303.01
474.39	14604.94
474.57	14595.58
474.75	14677.50
474.93	14764.10
475.12	14743.03
475.30	15023.90
475.48	15009.86
475.66	14981.77
475.84	15094.11
476.02	15431.15
476.20	15318.81
476.38	15452.22
476.56	16105.23
476.74	15913.30
476.92	15878.19
477.10	15917.98
477.28	16175.44
477.46	16175.44
477.64	16248.00
477.82	16479.71
478.00	16737.17
478.18	16545.25
478.36	16971.22
478.54	16987.61
478.72	16872.92
478.90	17020.38
479.08	17694.45
479.26	17575.08
479.44	17575.08
479.62	17696.79
479.80	17862.97
479.98	17994.04
480.16	18366.18
480.34	18185.96
480.52	18555.77
480.70	18443.42
480.88	18200.01
481.06	18513.64
481.24	18750.03
481.41	19103.45
481.59	19131.54
481.77	19398.36
481.95	19393.68
482.13	19843.06
482.31	19658.16
482.49	19917.96
482.67	20084.14
482.85	20049.03
483.03	20161.37
483.21	20594.37
483.39	20896.30
483.57	20828.43
483.74	20999.29
483.92	21317.60
484.10	20868.22
484.28	21797.41
484.46	21839.54
484.64	22347.44
484.82	21944.86
485.00	22178.92
485.18	22878.74
485.35	22703.20
485.53	22930.23
485.71	22970.02
485.89	23335.14
486.07	23489.62
486.25	23206.41
486.43	23655.79
486.61	23765.80
486.78	23988.15
486.96	23644.09
487.14	24566.26
487.32	24339.23
487.50	24566.26
487.68	24954.79
487.85	25238.00
488.03	25399.49
488.21	25607.80
488.39	25469.71
488.57	25809.09
488.75	25879.30
488.92	26726.58
489.10	26508.91
489.28	26787.43
489.46	27037.87
489.64	26536.99
489.81	27292.99
489.99	27538.74
490.17	27410.01
490.35	28074.73
490.53	28212.82
490.70	28191.75
490.88	27882.80
491.06	28751.14
491.24	28271.33
491.41	28694.97
491.59	29317.55
491.77	29635.86
491.95	29214.57
492.13	29865.24
492.30	29942.47
492.48	30176.53
492.66	30005.67
492.84	30031.41
493.01	30511.22
493.19	30625.91
493.37	30756.98
493.54	30820.17
493.72	31833.63
493.90	31211.04
494.08	31805.54
494.25	32025.55
494.43	32037.25
494.61	32123.85
494.79	32467.91
494.96	32149.60
495.14	32435.14
495.32	33008.58
495.49	32652.81
495.67	33291.78
495.85	33333.91
496.02	33586.69
496.20	33989.26
496.38	34022.03
496.55	33942.45
496.73	34190.55
496.91	34609.50
497.09	34302.89
497.26	34969.94
497.44	34761.64
497.62	34948.88
497.79	35517.63
497.97	35751.68
498.14	35889.77
498.32	36175.32
498.50	35817.22
498.67	37001.53
498.85	36533.42
499.03	36423.42
499.20	36795.56
499.38	36786.20
499.56	36800.24
499.73	37172.39
499.91	37525.81
500.08	37383.04
500.26	37457.93
500.44	37479.00
500.61	37759.86
500.79	37670.92
500.97	38003.28
501.14	38436.28
501.32	38127.33
501.49	38185.84
501.67	38347.34
501.84	38803.74
502.02	38555.64
502.20	38815.44
502.37	39091.63
502.55	38546.28
502.72	39131.42
502.90	39613.57
503.07	39126.74
503.25	39351.43
503.43	39442.71
503.60	39756.34
503.78	40046.57
503.95	40584.89
504.13	40353.18
504.30	40872.78
504.48	40636.38
504.65	40533.40
504.83	40528.72
505.01	41216.83
505.18	40924.27
505.36	41670.90
505.53	40832.99
505.71	41148.96
505.88	41366.63
506.06	41041.29
506.23	41340.88
506.41	41748.14
506.58	41542.17
506.76	41954.10
506.93	42344.97
507.11	42380.08
507.28	42326.25
507.46	42366.04
507.63	42941.81
507.81	42983.94
507.98	42855.21
508.16	42920.74
508.33	43147.78
508.50	43636.95
508.68	43892.07
508.85	43978.67
509.03	43606.52
509.20	43770.36
509.38	44184.63
509.55	44486.56
509.73	44832.96
509.90	44493.58
510.08	44100.37
510.25	44444.43
510.42	44772.11
510.60	44566.14
510.77	45106.80
510.95	45280.00
511.12	44776.79
511.30	44893.82
511.47	45249.58
511.64	45090.42
511.82	45766.84
511.99	45462.57
512.17	45911.95
512.34	45801.94
512.51	46007.91
512.69	45991.53
512.86	46302.82
513.04	46515.81
513.21	46721.77
513.38	46691.35
513.56	46876.25
513.73	46630.49
513.90	46590.70
514.08	46916.04
514.25	47297.55
514.43	47070.51
514.60	46803.69
514.77	47304.57
514.95	47459.04
515.12	47292.86
515.29	47686.07
515.47	47786.72
515.64	48121.41
515.81	48135.46
515.99	47917.79
516.16	47934.17
516.33	48233.76
516.51	48465.47
516.68	48137.80
516.85	48596.54
517.03	48919.54
517.20	48942.94
517.37	48495.90
517.54	49017.84
517.72	48868.05
517.89	48931.24
518.06	49088.06
518.24	48980.39
518.41	49097.42
518.58	49066.99
518.75	48846.98
518.93	49574.89
519.10	49488.29
519.27	49258.91
519.45	49219.13
519.62	49591.27
519.79	49731.70
519.96	49893.20
520.14	49818.30
520.31	49862.77
520.48	50373.01
520.65	49925.97
520.83	50513.44
521.00	50560.25
521.17	50361.31
521.34	50321.52
521.52	50555.57
521.69	50770.90
521.86	50939.42
522.03	50948.78
522.20	50707.71
522.38	51494.13
522.55	51180.49
522.72	51110.28
522.89	51271.78
523.07	51440.29
523.24	51480.08
523.41	51501.15
523.58	51327.95
523.75	51721.16
523.92	51746.90
524.10	52006.70
524.27	51910.74
524.44	51934.15
524.61	51852.23
524.78	51929.47
524.96	52147.14
525.13	52039.47
525.30	52231.40
525.47	52371.83
525.64	52584.82
525.81	52615.24
525.98	52589.50
526.16	52364.81
526.33	52465.45
526.50	52706.52
526.67	52530.98
526.84	52938.24
527.01	52842.27
527.18	52900.79
527.36	53022.50
527.53	52928.87
527.70	53329.11
527.87	52907.81
528.04	52971.00
528.21	53511.67
528.38	53340.81
528.55	53322.08
528.72	53237.83
528.89	53354.85
529.07	53439.11
529.24	53443.79
529.41	53773.81
529.58	53607.63
529.75	53680.19
529.92	53708.27
530.09	53825.30
530.26	53689.55
530.43	53607.63
530.60	53822.96
530.77	53750.40
530.94	53951.69
531.11	53815.94
531.28	54064.03
531.46	54045.31
531.63	54197.44
531.80	54040.63
531.97	54358.94
532.14	54471.29
532.31	54468.95
532.48	54410.43
532.65	54733.43
532.82	54307.45
532.99	54370.64
533.16	54471.29
533.33	54782.58
533.50	54674.91
533.67	54396.39
533.84	54415.11
534.01	54553.21
534.18	54560.23
534.35	55121.96
534.52	55220.26
534.69	55114.94
534.86	55227.28
535.03	54955.78
535.20	55033.02
535.37	55253.03
535.54	55201.53
535.71	55143.02
535.88	55414.52
536.05	55414.52
536.22	55466.02
536.38	55547.93
536.55	55466.02
536.72	55547.93
536.89	55388.78
537.06	55533.89
537.23	55664.96
537.40	55594.74
537.57	55749.22
537.74	55828.80
537.91	55765.60
538.08	55849.86
538.25	55510.49
538.42	55774.97
538.59	56151.79
538.75	55870.93
538.92	55821.78
539.09	56144.77
539.26	56044.13
539.43	56271.16
539.60	56072.21
539.77	56067.53
539.94	56198.60
540.11	56334.35
540.28	56261.80
540.44	56317.97
540.61	56203.28
540.78	56189.24
540.95	56371.80
541.12	56498.19
541.29	56147.11
541.46	56416.27
541.62	56512.23
541.79	56451.38
541.96	56388.19
542.13	56739.27
542.30	56615.22
542.47	57015.45
542.63	56825.87
542.80	56776.72
542.97	56795.44
543.14	57062.26
543.31	56978.00
543.48	57183.97
543.64	57244.82
543.81	57359.51
543.98	57347.81
544.15	57193.33
544.32	57474.20
544.48	57413.34
544.65	57303.34
544.82	57242.48
544.99	57296.31
545.16	57504.62
545.32	57418.02
545.49	57572.50
545.66	57794.85
545.83	57659.10
546.00	57588.88
546.16	57815.91
546.33	57476.54
546.50	57301.00
546.67	57556.11
546.83	57385.25
547.00	57820.59
547.17	57717.61
547.34	57654.42
547.50	58045.29
547.67	58019.54
547.84	57855.70
548.00	57923.58
548.17	58033.58
548.34	57944.64
548.51	58237.21
548.67	58113.16
548.84	58110.82
549.01	57989.11
549.18	58300.40
549.34	58047.63
549.51	58248.91
549.68	58120.18
549.84	58335.51
550.01	58447.86
550.18	58211.46
550.34	58279.34
550.51	58258.27
550.68	58277.00
550.84	58110.82
551.01	58653.82
551.18	58382.32
551.34	58497.01
551.51	58501.69
551.68	58347.21
551.84	58642.12
552.01	58403.39
552.18	58710.00
552.34	58457.22
552.51	58539.14
552.68	58621.06
552.84	58710.00
553.01	58759.15
553.18	58536.80
553.34	58873.84
553.51	58550.84
553.67	58623.40
553.84	59037.67
554.01	59021.29
554.17	58763.83
554.34	58794.26
554.51	59023.63
554.67	59171.08
554.84	58890.22
555.00	58761.49
555.17	58981.50
555.33	58841.07
555.50	58986.18
555.67	58894.90
555.83	58768.51
556.00	59072.78
556.16	59348.96
556.33	59140.66
556.50	58897.24
556.66	59360.67
556.83	59140.66
556.99	59299.81
557.16	59477.69
557.32	59442.59
557.49	59587.70
557.65	59407.48
557.82	59257.68
557.98	59344.28
558.15	59344.28
558.32	59304.49
558.48	59267.05
558.65	59477.69
558.81	59295.13
558.98	59414.50
559.14	59327.90
559.31	59576.00
559.47	59660.26
559.64	59671.96
559.80	59559.61
559.97	59749.20
560.13	59604.08
560.30	59552.59
560.46	59660.26
560.63	59758.56
560.79	59636.85
560.96	59714.09
561.12	59711.75
561.29	59875.58
561.45	59725.79
561.61	59765.58
561.78	59875.58
561.94	59540.89
562.11	59793.67
562.27	59718.77
562.44	59852.18
562.60	59896.65
562.77	59852.18
562.93	59716.43
563.10	59927.08
563.26	59447.27
563.42	60060.49
563.59	59948.14
563.75	59922.40
563.92	60114.32
564.08	59842.82
564.24	60020.70
564.41	59971.55
564.57	60053.47
564.74	59980.91
564.90	60116.66
565.07	59920.05
565.23	59990.27
565.39	60240.71
565.56	60144.75
565.72	60217.30
565.88	60165.81
566.05	60046.44
566.21	59915.37
566.38	60198.58
566.54	60032.40
566.70	60308.58
566.87	60479.44
567.03	60083.89
567.19	60376.46
567.36	60102.62
567.52	60133.04
567.68	60474.76
567.85	60186.88
568.01	60179.85
568.17	60271.14
568.34	60404.55
568.50	60170.49
568.66	60254.75
568.83	60441.99
568.99	60044.10
569.15	60303.90
569.32	60364.76
569.48	60247.73
569.64	60364.76
569.81	60275.82
569.97	60350.71
570.13	60477.10
570.30	60189.22
570.46	60390.50
570.62	60395.18
570.78	60327.31
570.95	60479.44
571.11	60460.72
571.27	60432.63
571.43	60282.84
571.60	60357.74
571.76	60285.18
571.92	60603.49
572.09	60580.09
572.25	60271.14
572.41	60339.01
572.57	60589.45
572.74	60573.06
572.90	60626.90
573.06	60526.25
573.22	60594.13
573.38	60715.84
573.55	60575.40
573.71	60715.84
573.87	60718.18
574.03	60507.53
574.20	60507.53
574.36	60477.10
574.52	60746.26
574.68	60537.96
574.84	60786.05
575.01	60521.57
575.17	60434.97
575.33	60519.23
575.49	60741.58
575.65	60720.52
575.82	60570.72
575.98	60739.24
576.14	60821.16
576.30	60898.40
576.46	60636.26
576.62	60465.40
576.79	60533.28
576.95	60694.77
577.11	60732.22
577.27	60797.76
577.43	60729.88
577.59	60823.50
577.75	60643.28
577.92	60404.55
578.08	60743.92
578.24	60743.92
578.40	60856.27
578.56	60921.80
578.72	60779.03
578.88	60989.68
579.04	60996.70
579.21	61097.34
579.37	60846.91
579.53	60959.25
579.69	60647.96
579.85	60727.54
580.01	60591.79
580.17	60575.40
580.33	60795.42
580.49	60837.54
580.65	60816.48
580.82	60781.37
580.98	60802.44
581.14	60804.78
581.30	60977.98
581.46	60715.84
581.62	60849.25
581.78	60725.20
581.94	60741.58
582.10	60797.76
582.26	60837.54
582.42	60828.18
582.58	60912.44
582.74	60814.14
582.90	60907.76
583.06	60835.20
583.22	60729.88
583.38	60561.36
583.54	60935.85
583.70	60837.54
583.86	61052.87
584.02	60790.73
584.18	61092.66
584.34	60849.25
584.50	60769.67
584.66	60537.96
584.82	60734.56
584.98	61041.17
585.14	61057.56
585.30	60874.99
585.46	60896.06
585.62	60907.76
585.78	61118.41
585.94	60645.62
586.10	60860.95
586.26	60882.02
586.42	61038.83
586.58	60921.80
586.74	60966.27
586.90	60959.25
587.06	60924.14
587.22	60891.38
587.38	60994.36
587.54	60968.61
587.70	61146.50
587.86	61022.45
588.02	60846.91
588.18	61139.47
588.34	60858.61
588.49	60919.46
