SpectraSuite Data File
++++++++++++++++++++++++++++++++++++
Date: Fri Oct 25 11:23:55 EDT 2013
User: price-jones
Dark Spectrum Present: No
Reference Spectrum Present: No
Number of Sampled Component Spectra: 1
Spectrometers: USB2+H05261
Integration Time (usec): 100000 (USB2+H05261)
Spectra Averaged: 1 (USB2+H05261)
Boxcar Smoothing: 0 (USB2+H05261)
Correct for Electrical Dark: No (USB2+H05261)
Strobe/Lamp Enabled: No (USB2+H05261)
Correct for Detector Non-linearity: No (USB2+H05261)
Correct for Stray Light: No (USB2+H05261)
Number of Pixels in Processed Spectrum: 2048
>>>>>Begin Processed Spectral Data<<<<<
365.73	332.36
365.92	332.36
366.12	332.36
366.32	156.82
366.52	128.73
366.72	156.82
366.91	49.15
367.11	189.58
367.31	152.13
367.51	177.88
367.70	140.43
367.90	86.60
368.10	166.18
368.30	140.43
368.49	147.45
368.69	170.86
368.89	114.69
369.09	128.73
369.28	168.52
369.48	142.77
369.68	229.37
369.87	222.35
370.07	184.90
370.27	227.03
370.47	437.68
370.66	580.45
370.86	568.75
371.06	650.67
371.25	685.78
371.45	690.46
371.65	678.76
371.84	627.26
372.04	667.05
372.24	688.12
372.44	793.44
372.63	772.38
372.83	744.29
373.03	718.54
373.22	723.23
373.42	741.95
373.62	795.78
373.81	828.55
374.01	746.63
374.21	873.02
374.40	812.17
374.60	908.13
374.79	713.86
374.99	812.17
375.19	849.61
375.38	889.40
375.58	767.70
375.78	929.19
375.97	823.87
376.17	898.77
376.37	894.08
376.56	849.61
376.76	891.74
376.95	887.06
377.15	952.60
377.35	896.43
377.54	952.60
377.74	814.51
377.93	908.13
378.13	961.96
378.33	882.38
378.52	896.43
378.72	959.62
378.91	938.55
379.11	905.79
379.31	954.94
379.50	884.72
379.70	964.30
379.89	983.02
380.09	992.39
380.28	905.79
380.48	924.51
380.68	971.32
380.87	959.62
381.07	1029.84
381.26	1032.18
381.46	1022.81
381.65	1015.79
381.85	1057.92
382.04	1100.05
382.24	1088.35
382.43	1069.62
382.63	1130.48
382.83	1100.05
383.02	1151.54
383.22	1109.41
383.41	1083.67
383.61	1144.52
383.80	1137.50
384.00	1123.46
384.19	1163.25
384.39	1036.86
384.58	1109.41
384.78	1076.65
384.97	1100.05
385.17	1116.44
385.36	1055.58
385.56	1107.07
385.75	1107.07
385.95	1074.31
386.14	1193.67
386.34	1203.04
386.53	1270.91
386.72	1184.31
386.92	1217.08
387.11	1212.40
387.31	1207.72
387.50	1193.67
387.70	1235.80
387.89	1238.14
388.09	1322.40
388.28	1214.74
388.48	1308.36
388.67	1245.16
388.86	1242.82
389.06	1341.13
389.25	1320.06
389.45	1336.45
389.64	1338.79
389.84	1376.24
390.03	1390.28
390.22	1411.34
390.42	1362.19
390.61	1385.60
390.81	1357.51
391.00	1385.60
391.19	1394.96
391.39	1427.73
391.58	1420.71
391.78	1420.71
391.97	1523.69
392.16	1500.28
392.36	1591.56
392.55	1535.39
392.75	1523.69
392.94	1509.65
393.13	1460.49
393.33	1472.20
393.52	1486.24
393.71	1579.86
393.91	1629.01
394.10	1572.84
394.29	1598.59
394.49	1636.03
394.68	1650.08
394.88	1626.67
395.07	1717.95
395.26	1586.88
395.46	1645.40
395.65	1748.38
395.84	1724.97
396.04	1741.36
396.23	1654.76
396.42	1746.04
396.62	1837.32
396.81	1678.16
397.00	1750.72
397.19	1797.53
397.39	1797.53
397.58	1898.17
397.77	1797.53
397.97	1930.94
398.16	1781.15
398.35	1874.77
398.55	1881.79
398.74	1923.92
398.93	1893.49
399.12	1912.22
399.32	1933.28
399.51	1888.81
399.70	1973.07
399.90	1905.20
400.09	2015.20
400.28	1949.67
400.47	1975.41
400.67	2150.95
400.86	2015.20
401.05	2008.18
401.24	2108.82
401.44	2085.42
401.63	2139.25
401.82	2214.15
402.01	2120.53
402.21	2221.17
402.40	2172.02
402.59	2076.06
402.78	2193.08
402.97	2223.51
403.17	2172.02
403.36	2195.42
403.55	2317.13
403.74	2354.58
403.93	2396.71
404.13	2253.94
404.32	2359.26
404.51	2363.94
404.70	2438.84
404.89	2389.69
405.09	2523.10
405.28	2359.26
405.47	2462.24
405.66	2581.61
405.85	2436.50
406.05	2476.29
406.24	2455.22
406.43	2576.93
406.62	2616.72
406.81	2703.32
407.00	2574.59
407.20	2572.25
407.39	2565.23
407.58	2679.91
407.77	2740.77
407.96	2801.62
408.15	2778.22
408.34	2684.59
408.54	2705.66
408.73	2876.52
408.92	2808.64
409.11	2850.77
409.30	2869.50
409.49	2871.84
409.68	2775.88
409.87	2883.54
410.07	2970.14
410.26	3045.04
410.45	2956.10
410.64	3023.97
410.83	3000.57
411.02	3208.87
411.21	3112.91
411.40	3173.77
411.59	3370.37
411.78	3208.87
411.98	3286.11
412.17	3176.11
412.36	3379.73
412.55	3314.20
412.74	3363.35
412.93	3426.54
413.12	3304.84
413.31	3524.85
413.50	3562.30
413.69	3393.78
413.88	3403.14
414.07	3578.68
414.26	3756.56
414.45	3641.87
414.64	3777.62
414.83	3723.79
415.02	3756.56
415.22	3749.54
415.41	3805.71
415.60	3693.37
415.79	3880.61
415.98	3976.57
416.17	3812.73
416.36	4074.87
416.55	3913.38
416.74	4117.00
416.93	4121.68
417.12	4170.83
417.31	4091.26
417.50	4121.68
417.69	4435.32
417.88	4292.54
418.07	4117.00
418.26	4259.78
418.45	4355.74
418.64	4440.00
418.83	4393.19
419.02	4414.25
419.21	4334.67
419.39	4599.15
419.58	4423.61
419.77	4526.60
419.96	4430.63
420.15	4561.70
420.34	4528.94
420.53	4547.66
420.72	4781.71
420.91	4737.24
421.10	4868.31
421.29	4781.71
421.48	4610.86
421.67	4873.00
421.86	4919.81
422.05	4819.16
422.24	4755.97
422.43	4786.40
422.61	4926.83
422.80	5205.35
422.99	4983.00
423.18	4889.38
423.37	5188.97
423.56	4915.12
423.75	4884.70
423.94	4753.63
424.13	4582.77
424.32	4744.27
424.50	5069.60
424.69	5013.43
424.88	5135.14
425.07	4905.76
425.26	4971.30
425.45	5022.79
425.64	4924.49
425.83	5001.72
426.01	5057.90
426.20	5128.11
426.39	5114.07
426.58	5011.09
426.77	5128.11
426.96	5207.69
427.15	5146.84
427.33	5186.63
427.52	5055.56
427.71	5198.33
427.90	5242.80
428.09	5383.23
428.28	5401.96
428.46	5334.08
428.65	5294.29
428.84	5565.79
429.03	5584.52
429.22	5343.44
429.40	5476.85
429.59	5570.48
429.78	5259.18
429.97	5334.08
430.16	5493.24
430.34	5577.50
430.53	5664.10
430.72	5687.50
430.91	5624.31
431.10	5591.54
431.28	5760.06
431.47	5734.31
431.66	5820.91
431.85	5738.99
432.03	5860.70
432.22	5893.47
432.41	5966.03
432.60	5963.68
432.79	5987.09
432.97	5996.45
433.16	5886.45
433.35	6057.31
433.54	6052.63
433.72	6148.59
433.91	5963.68
434.10	6097.10
434.28	6244.55
434.47	6286.68
434.66	6333.49
434.85	6279.66
435.03	6310.08
435.22	6328.81
435.41	6380.30
435.59	6466.90
435.78	6347.53
435.97	6462.22
436.16	6544.14
436.34	6389.66
436.53	6340.51
436.72	6612.01
436.90	6516.05
437.09	6502.01
437.28	6392.00
437.46	6401.37
437.65	6745.42
437.84	6600.31
438.02	6682.23
438.21	6738.40
438.40	6696.27
438.58	6970.12
438.77	7040.33
438.96	7016.93
439.14	7014.59
439.33	7047.35
439.52	7258.00
439.70	7094.16
439.89	7435.88
440.08	7393.75
440.26	7412.48
440.45	7360.98
440.63	7241.62
440.82	7588.02
441.01	7513.12
441.19	7524.82
441.38	7550.57
441.57	7843.14
441.75	8032.72
441.94	7922.71
442.12	7943.78
442.31	7882.92
442.50	7913.35
442.68	8065.49
442.87	8133.36
443.05	8152.09
443.24	8196.56
443.43	8107.62
443.61	8154.43
443.80	8411.89
443.98	8259.75
444.17	7885.26
444.35	8248.05
444.54	8365.07
444.73	8493.80
444.91	8126.34
445.10	8278.47
445.28	8280.82
445.47	8320.60
445.65	8166.13
445.84	8503.17
446.02	8589.77
446.21	8404.86
446.39	8451.67
446.58	8446.99
446.77	8313.58
446.95	8205.92
447.14	8409.54
447.32	8582.74
447.51	8645.94
447.69	8463.38
447.88	8379.12
448.06	8587.43
448.25	8683.39
448.43	8688.07
448.62	8610.83
448.80	8767.65
448.99	8662.32
449.17	8659.98
449.36	8741.90
449.54	8798.07
449.73	8917.44
449.91	9039.15
450.10	8964.25
450.28	9291.93
450.46	9130.43
450.65	9041.49
450.83	9205.33
451.02	8844.88
451.20	9254.48
451.39	9085.96
451.57	9107.02
451.76	9207.67
451.94	9252.14
452.13	9390.23
452.31	9158.52
452.49	9275.54
452.68	9432.36
452.86	9364.48
453.05	9371.50
453.23	9659.39
453.42	9441.72
453.60	9362.14
453.78	9706.20
453.97	9177.24
454.15	9472.15
454.34	9453.42
454.52	9589.17
454.70	9666.41
454.89	9596.20
455.07	9682.80
455.26	9760.03
455.44	9926.21
455.62	9949.62
455.81	9944.94
455.99	10005.79
456.17	10209.42
456.36	10017.49
456.54	10087.71
456.73	10420.06
456.91	10462.19
457.09	10537.09
457.28	10721.99
457.46	10408.36
457.64	10588.58
457.83	10600.29
458.01	10553.48
458.19	10696.25
458.38	10532.41
458.56	10736.04
458.74	10523.05
458.93	10677.52
459.11	10698.59
459.29	10761.78
459.48	10911.58
459.66	10686.89
459.84	10813.28
460.03	11183.08
460.21	10714.97
460.39	11124.57
460.57	11047.33
460.76	11159.67
460.94	11218.19
461.12	11187.76
461.31	11075.42
461.49	11204.14
461.67	11122.23
461.85	11473.31
462.04	11307.13
462.22	11513.10
462.40	11611.40
462.59	11370.32
462.77	11522.46
462.95	11356.28
463.13	11676.93
463.32	11885.24
463.50	11861.84
463.68	11826.73
463.86	11960.14
464.05	11859.49
464.23	11768.21
464.41	11894.60
464.59	11653.53
464.78	11950.78
464.96	11922.69
465.14	11906.31
465.32	11960.14
465.50	11964.82
465.69	12219.94
465.87	12297.17
466.05	11918.01
466.23	12161.42
466.41	12184.83
466.60	12446.97
466.78	12198.87
466.96	12037.38
467.14	12276.11
467.32	12095.89
467.51	12521.87
467.69	12238.66
467.87	12339.30
468.05	12638.89
468.23	12643.57
468.41	12348.67
468.60	12753.58
468.78	12655.28
468.96	12468.03
469.14	12629.53
469.32	12781.67
469.50	12587.40
469.69	12924.44
469.87	12872.95
470.05	13179.56
470.23	13380.84
470.41	13268.50
470.59	13184.24
470.77	13324.67
470.95	13006.36
471.14	13479.15
471.32	13334.03
471.50	13511.91
471.68	13532.98
471.86	13628.94
472.04	13621.92
472.22	13837.25
472.40	13809.16
472.58	13652.34
472.77	13692.13
472.95	14169.60
473.13	14668.14
473.31	14075.98
473.49	13949.59
473.67	14026.83
473.85	14394.29
474.03	14663.46
474.21	14501.96
474.39	14841.34
474.57	14806.23
474.75	14923.26
474.93	15019.22
475.12	15260.29
475.30	15119.86
475.48	14827.29
475.66	14920.92
475.84	15206.46
476.02	15206.46
476.20	15548.18
476.38	15789.25
476.56	16123.95
476.74	15939.05
476.92	15756.49
477.10	15707.34
477.28	16201.19
477.46	16086.50
477.64	16376.73
477.82	16549.93
478.00	17067.19
478.18	16791.00
478.36	16856.54
478.54	17118.68
478.72	17401.88
478.90	17696.79
479.08	17568.06
479.26	17970.63
479.44	17614.87
479.62	17523.59
479.80	18073.62
479.98	18022.12
480.16	18782.80
480.34	18200.01
480.52	18462.15
480.70	18553.43
480.88	18485.55
481.06	18867.06
481.24	19234.52
481.41	19154.94
481.59	19370.27
481.77	19393.68
481.95	19536.45
482.13	19796.25
482.31	19658.16
482.49	19981.15
482.67	20301.81
482.85	20428.20
483.03	20301.81
483.21	21076.52
483.39	20835.45
483.57	20891.62
483.74	21165.46
483.92	21553.99
484.10	20910.35
484.28	21645.27
484.46	21919.12
484.64	22253.81
484.82	22153.17
485.00	22274.88
485.18	22810.86
485.35	23115.13
485.53	22815.54
485.71	23356.21
485.89	23548.13
486.07	23180.67
486.25	23466.21
486.43	23695.58
486.61	23997.51
486.78	23880.49
486.96	24259.65
487.14	24606.05
487.32	24439.87
487.50	24629.46
487.68	25153.74
487.85	25390.13
488.03	25450.99
488.21	25701.42
488.39	25839.51
488.57	26298.26
488.75	26052.50
488.92	26539.33
489.10	26862.33
489.28	26579.12
489.46	27323.41
489.64	26808.50
489.81	27861.74
489.99	27665.13
490.17	27552.79
490.35	28416.44
490.53	28299.42
490.70	28231.54
490.88	28292.40
491.06	29027.32
491.24	29179.46
491.41	29216.91
491.59	28996.90
491.77	29069.45
491.95	29692.04
492.13	29713.10
492.30	29804.38
492.48	30029.07
492.66	29827.79
492.84	30649.32
493.01	30508.88
493.19	30508.88
493.37	30815.49
493.54	31166.57
493.72	31564.46
493.90	31314.03
494.08	31510.63
494.25	32098.11
494.43	31999.80
494.61	32229.18
494.79	32353.23
494.96	32187.05
495.14	32992.19
495.32	32931.34
495.49	33071.77
495.67	33146.67
495.85	33846.49
496.02	34110.97
496.20	34157.78
496.38	34043.09
496.55	34408.22
496.73	34850.58
496.91	34663.33
497.09	34588.44
497.26	35021.44
497.44	34630.57
497.62	35276.55
497.79	35508.27
497.97	35204.00
498.14	35814.88
498.32	36151.91
498.50	36212.77
498.67	36395.33
498.85	36264.26
499.03	36924.29
499.20	36765.14
499.38	36914.93
499.56	37301.12
499.73	37109.19
499.91	37177.07
500.08	37570.28
500.26	37827.74
500.44	37991.58
500.61	38024.34
500.79	37614.75
500.97	38721.82
501.14	38927.79
501.32	38511.17
501.49	39154.82
501.67	39143.12
501.84	39030.77
502.02	39030.77
502.20	38763.95
502.37	39597.18
502.55	39414.62
502.72	39592.50
502.90	39484.84
503.07	39484.84
503.25	39723.57
503.43	39466.11
503.60	40154.23
503.78	40140.19
503.95	40294.66
504.13	40718.30
504.30	40591.91
504.48	40488.93
504.65	40655.11
504.83	40947.67
505.01	41102.15
505.18	41069.38
505.36	41591.32
505.53	41462.59
505.71	41429.82
505.88	42185.82
506.06	41574.94
506.23	42029.00
506.41	41853.46
506.58	41982.19
506.76	42253.69
506.93	42366.04
507.11	42169.43
507.28	42890.32
507.46	42270.08
507.63	43103.31
507.81	43103.31
507.98	42787.33
508.16	43210.97
508.33	43632.27
508.50	43416.94
508.68	43569.07
508.85	44051.22
509.03	43746.95
509.20	43941.22
509.38	44421.03
509.55	44182.29
509.73	44828.28
509.90	44535.71
510.08	44589.55
510.25	44755.72
510.42	44886.79
510.60	45361.92
510.77	45312.77
510.95	45322.13
511.12	44629.34
511.30	45368.94
511.47	45081.06
511.64	45387.67
511.82	45698.96
511.99	45425.12
512.17	45928.33
512.34	45581.93
512.51	46232.60
512.69	46422.19
512.86	46756.88
513.04	46433.89
513.21	46644.54
513.38	46227.92
513.56	47143.07
513.73	46663.26
513.90	46822.42
514.08	46560.28
514.25	47253.08
514.43	46866.89
514.60	46866.89
514.77	47337.33
514.95	47569.05
515.12	47498.83
515.29	47831.19
515.47	47775.02
515.64	47704.80
515.81	48023.11
515.99	48428.02
516.16	48292.27
516.33	48769.74
516.51	48467.81
516.68	48364.83
516.85	48556.75
517.03	48736.98
517.20	49216.78
517.37	48641.01
517.54	48886.77
517.72	48767.40
517.89	49043.59
518.06	49354.88
518.24	49380.62
518.41	49120.82
518.58	49567.87
518.75	49158.27
518.93	49696.59
519.10	49860.43
519.27	49600.63
519.45	49811.28
519.62	50047.68
519.79	49684.89
519.96	50169.38
520.14	50307.47
520.31	50337.90
520.48	50426.84
520.65	50337.90
520.83	50398.76
521.00	50747.50
521.17	50162.36
521.34	50473.65
521.52	50710.05
521.69	50696.00
521.86	51037.72
522.03	51213.26
522.20	51222.62
522.38	51573.70
522.55	51480.08
522.72	51552.64
522.89	51316.25
523.07	51873.29
523.24	51468.38
523.41	51894.36
523.58	51608.81
523.75	51760.95
523.92	51826.48
524.10	51824.14
524.27	51962.23
524.44	52009.04
524.61	52257.14
524.78	52002.02
524.96	52259.48
525.13	52758.02
525.30	52353.10
525.47	52502.90
525.64	52540.35
525.81	52474.81
525.98	52816.53
526.16	52523.96
526.33	52566.09
526.50	52978.03
526.67	52786.10
526.84	52596.52
527.01	52729.93
527.18	52865.68
527.36	52942.92
527.53	53001.43
527.70	53488.26
527.87	53394.64
528.04	52980.37
528.21	53415.71
528.38	53432.09
528.55	53570.18
528.72	53303.36
528.89	53544.44
529.07	53336.13
529.24	53317.40
529.41	53687.21
529.58	53605.29
529.75	53404.00
529.92	53612.31
530.09	53633.38
530.26	53893.18
530.43	54094.46
530.60	54003.18
530.77	53935.30
530.94	53970.41
531.11	54174.04
531.28	54141.27
531.46	54494.69
531.63	54262.98
531.80	53998.50
531.97	54429.16
532.14	54487.67
532.31	54497.03
532.48	54604.70
532.65	54604.70
532.82	54471.29
532.99	54761.51
533.16	54387.03
533.33	54990.89
533.50	54674.91
533.67	54822.37
533.84	54885.56
534.01	54773.22
534.18	54897.27
534.35	55178.13
534.52	55009.61
534.69	55271.75
534.86	55388.78
535.03	55327.92
535.20	55229.62
535.37	55025.99
535.54	55590.06
535.71	55334.95
535.88	55540.91
536.05	55220.26
536.22	55470.70
536.38	55688.37
536.55	55852.20
536.72	55702.41
536.89	55304.52
537.06	55573.68
537.23	55948.17
537.40	55744.54
537.57	55583.04
537.74	55868.59
537.91	56076.90
538.08	55833.48
538.25	55391.12
538.42	55859.23
538.59	56104.98
538.75	55964.55
538.92	56034.77
539.09	56287.54
539.26	56245.41
539.43	56095.62
539.60	56313.29
539.77	56268.82
539.94	56458.40
540.11	56142.43
540.28	56435.00
540.44	56315.63
540.61	56573.09
540.78	56498.19
540.95	56493.51
541.12	56376.48
541.29	56186.90
541.46	56479.47
541.62	56535.64
541.79	56729.90
541.96	56493.51
542.13	56547.34
542.30	56718.20
542.47	56870.34
542.63	56760.33
542.80	56940.55
542.97	57319.72
543.14	57123.11
543.31	57144.18
543.48	57186.31
543.64	57518.67
543.81	57450.79
543.98	57406.32
544.15	57457.81
544.32	57387.60
544.48	57443.77
544.65	57326.74
544.82	57270.57
544.99	57432.07
545.16	57771.44
545.32	57448.45
545.49	57827.62
545.66	57783.15
545.83	57741.02
546.00	57801.87
546.16	57687.18
546.33	57399.30
546.50	57387.60
546.67	57818.25
546.83	57485.90
547.00	57736.34
547.17	57682.50
547.34	57879.11
547.50	58045.29
547.67	58042.95
547.84	58026.56
548.00	58279.34
548.17	58258.27
548.34	58066.35
548.51	58181.04
548.67	58241.89
548.84	58075.71
549.01	58059.33
549.18	58237.21
549.34	58054.65
549.51	58417.43
549.68	58365.94
549.84	58429.13
550.01	58534.46
550.18	58433.81
550.34	58513.39
550.51	58527.44
550.68	58291.04
550.84	58293.38
551.01	58714.68
551.18	58429.13
551.34	58291.04
551.51	58590.63
551.68	58674.89
551.84	58588.29
552.01	58335.51
552.18	58738.08
552.34	58548.50
552.51	58693.61
552.68	58447.86
552.84	58747.45
553.01	59100.87
553.18	58927.67
553.34	59047.04
553.51	58749.79
553.67	58939.37
553.84	59028.31
554.01	58866.81
554.17	58979.16
554.34	58885.54
554.51	59182.79
554.67	58876.18
554.84	59096.19
555.00	58883.20
555.17	59189.81
555.33	59004.91
555.50	58946.39
555.67	58997.88
555.83	59164.06
556.00	58904.26
556.16	59327.90
556.33	59311.52
556.50	59224.92
556.66	59285.77
556.83	58953.41
556.99	59496.42
557.16	59554.93
557.32	59320.88
557.49	59489.40
557.65	59320.88
557.82	59421.52
557.98	59576.00
558.15	59402.80
558.32	59557.27
558.48	59236.62
558.65	59351.30
558.81	59402.80
558.98	59812.39
559.14	59695.36
559.31	59412.16
559.47	59611.10
559.64	59690.68
559.80	60027.72
559.97	59686.00
560.13	59552.59
560.30	59814.73
560.46	59821.75
560.63	59948.14
560.79	59695.36
560.96	59861.54
561.12	59791.33
561.29	59634.51
561.45	59852.18
561.61	59788.98
561.78	59718.77
561.94	59639.19
562.11	59756.22
562.27	59917.71
562.44	60135.38
562.60	59868.56
562.77	59948.14
562.93	59756.22
563.10	60088.57
563.26	59971.55
563.42	60212.62
563.59	60006.65
563.75	59980.91
563.92	59983.25
564.08	60140.07
564.24	60203.26
564.41	60210.28
564.57	60254.75
564.74	60224.32
564.90	60060.49
565.07	60123.68
565.23	60317.95
565.39	60189.22
565.56	60292.20
565.72	60322.63
565.88	60240.71
566.05	60306.24
566.21	60177.51
566.38	60217.30
566.54	60189.22
566.70	60547.32
566.87	60346.03
567.03	60224.32
567.19	60530.93
567.36	60446.68
567.52	60135.38
567.68	60434.97
567.85	60463.06
568.01	60423.27
568.17	60236.03
568.34	60463.06
568.50	60388.16
568.66	60348.37
568.83	60580.09
568.99	60371.78
569.15	60537.96
569.32	60399.86
569.48	60280.50
569.64	60615.19
569.81	60411.57
569.97	60334.33
570.13	60465.40
570.30	60451.36
570.46	60467.74
570.62	60631.58
570.78	60512.21
570.95	60542.64
571.11	60509.87
571.27	60381.14
571.43	60622.22
571.60	60554.34
571.76	60486.46
571.92	60474.76
572.09	60364.76
572.25	60589.45
572.41	60566.04
572.57	60781.37
572.74	60835.20
572.90	60811.80
573.06	60537.96
573.22	60704.13
573.38	60638.60
573.55	60582.43
573.71	60797.76
573.87	60830.52
574.03	60474.76
574.20	60694.77
574.36	60706.47
574.52	60692.43
574.68	60685.41
574.84	60640.94
575.01	61008.40
575.17	60622.22
575.33	60645.62
575.49	60512.21
575.65	60921.80
575.82	60835.20
575.98	61027.13
576.14	61045.85
576.30	60671.37
576.46	60757.97
576.62	60718.18
576.79	60694.77
576.95	60683.07
577.11	60732.22
577.27	60832.86
577.43	60879.67
577.59	60647.96
577.75	60790.73
577.92	60802.44
578.08	60807.12
578.24	60652.64
578.40	60940.53
578.56	60914.78
578.72	60842.23
578.88	61008.40
579.04	61099.68
579.21	60867.97
579.37	60933.51
579.53	61207.35
579.69	60598.81
579.85	60879.67
580.01	60797.76
580.17	60643.28
580.33	60884.36
580.49	60942.87
580.65	60952.23
580.82	60905.42
580.98	60706.47
581.14	60800.10
581.30	61036.49
581.46	60931.17
581.62	60980.32
581.78	60790.73
581.94	61083.30
582.10	60757.97
582.26	61055.21
582.42	61031.81
582.58	60832.86
582.74	60954.57
582.90	60982.66
583.06	60968.61
583.22	60832.86
583.38	60919.46
583.54	60898.40
583.70	60970.96
583.86	61055.21
584.02	60863.29
584.18	61078.62
584.34	60874.99
584.50	61020.11
584.66	60938.19
584.82	60779.03
584.98	61289.27
585.14	61125.43
585.30	60938.19
585.46	60996.70
585.62	61200.33
585.78	61219.05
585.94	60938.19
586.10	61083.30
586.26	60914.78
586.42	60996.70
586.58	61233.10
586.74	60992.02
586.90	61015.43
587.06	61069.26
587.22	61069.26
587.38	60992.02
587.54	61155.86
587.70	61151.18
587.86	60961.59
588.02	60912.44
588.18	61265.86
588.34	60954.57
588.49	61165.22
