SpectraSuite Data File
++++++++++++++++++++++++++++++++++++
Date: Fri Oct 25 11:34:36 EDT 2013
User: price-jones
Dark Spectrum Present: No
Reference Spectrum Present: No
Number of Sampled Component Spectra: 1
Spectrometers: USB2+H05261
Integration Time (usec): 100000 (USB2+H05261)
Spectra Averaged: 1 (USB2+H05261)
Boxcar Smoothing: 0 (USB2+H05261)
Correct for Electrical Dark: No (USB2+H05261)
Strobe/Lamp Enabled: No (USB2+H05261)
Correct for Detector Non-linearity: No (USB2+H05261)
Correct for Stray Light: No (USB2+H05261)
Number of Pixels in Processed Spectrum: 2048
>>>>>Begin Processed Spectral Data<<<<<
365.73	278.52
365.92	278.52
366.12	278.52
366.32	220.01
366.52	184.90
366.72	203.63
366.91	175.54
367.11	215.33
367.31	191.92
367.51	245.76
367.70	234.05
367.90	168.52
368.10	212.99
368.30	173.20
368.49	215.33
368.69	205.97
368.89	184.90
369.09	236.39
369.28	224.69
369.48	236.39
369.68	259.80
369.87	166.18
370.07	266.82
370.27	280.86
370.47	386.19
370.66	491.51
370.86	528.96
371.06	517.26
371.25	547.69
371.45	582.79
371.65	594.50
371.84	547.69
372.04	608.54
372.24	580.45
372.44	582.79
372.63	552.37
372.83	575.77
373.03	587.47
373.22	610.88
373.42	571.09
373.62	589.82
373.81	622.58
374.01	615.56
374.21	667.05
374.40	587.47
374.60	702.16
374.79	629.60
374.99	643.65
375.19	629.60
375.38	685.78
375.58	645.99
375.78	608.54
375.97	704.50
376.17	695.14
376.37	676.41
376.56	622.58
376.76	596.84
376.95	638.97
377.15	669.39
377.35	617.90
377.54	725.57
377.74	702.16
377.93	599.18
378.13	695.14
378.33	676.41
378.52	692.80
378.72	716.20
378.91	681.10
379.11	615.56
379.31	711.52
379.50	702.16
379.70	723.23
379.89	716.20
380.09	678.76
380.28	718.54
380.48	746.63
380.68	758.33
380.87	779.40
381.07	737.27
381.26	704.50
381.46	746.63
381.65	772.38
381.85	727.91
382.04	727.91
382.24	791.10
382.43	713.86
382.63	725.57
382.83	767.70
383.02	781.74
383.22	744.29
383.41	702.16
383.61	777.06
383.80	795.78
384.00	765.36
384.19	734.93
384.39	837.91
384.58	786.42
384.78	835.57
384.97	788.76
385.17	779.40
385.36	821.53
385.56	863.66
385.75	868.34
385.95	784.08
386.14	791.10
386.34	788.76
386.53	779.40
386.72	910.47
386.92	800.46
387.11	854.30
387.31	903.45
387.50	887.06
387.70	812.17
387.89	917.49
388.09	840.25
388.28	884.72
388.48	858.98
388.67	940.90
388.86	884.72
389.06	861.32
389.25	933.87
389.45	830.89
389.64	931.53
389.84	940.90
390.03	922.17
390.22	889.40
390.42	915.15
390.61	931.53
390.81	1001.75
391.00	931.53
391.19	992.39
391.39	1004.09
391.58	1041.54
391.78	936.21
391.97	976.00
392.16	1050.90
392.36	1095.37
392.55	1046.22
392.75	978.34
392.94	966.64
393.13	1034.52
393.33	1046.22
393.52	1090.69
393.71	1046.22
393.91	1121.12
394.10	1088.35
394.29	1114.10
394.49	947.92
394.68	1067.28
394.88	1130.48
395.07	1088.35
395.26	1057.92
395.46	1151.54
395.65	1088.35
395.84	1261.55
396.04	1123.46
396.23	1139.84
396.42	1102.39
396.62	1252.19
396.81	1188.99
397.00	1177.29
397.19	1207.72
397.39	1118.78
397.58	1188.99
397.77	1193.67
397.97	1205.38
398.16	1327.08
398.35	1198.35
398.55	1158.57
398.74	1277.93
398.93	1306.02
399.12	1364.53
399.32	1263.89
399.51	1299.00
399.70	1291.98
399.90	1287.29
400.09	1233.46
400.28	1303.68
400.47	1313.04
400.67	1362.19
400.86	1254.53
401.05	1352.83
401.24	1383.26
401.44	1362.19
401.63	1441.77
401.82	1401.98
402.01	1294.32
402.21	1451.13
402.40	1469.86
402.59	1425.39
402.78	1432.41
402.97	1418.36
403.17	1493.26
403.36	1460.49
403.55	1544.75
403.74	1603.27
403.93	1514.33
404.13	1483.90
404.32	1551.78
404.51	1537.73
404.70	1500.28
404.89	1551.78
405.09	1614.97
405.28	1507.30
405.47	1680.50
405.66	1638.38
405.85	1713.27
406.05	1584.54
406.24	1582.20
406.43	1671.14
406.62	1727.32
406.81	1778.81
407.00	1626.67
407.20	1596.25
407.39	1708.59
407.58	1699.23
407.77	1771.79
407.96	1788.17
408.15	1820.94
408.34	1781.15
408.54	1675.82
408.73	1795.19
408.92	1734.34
409.11	1900.52
409.30	1881.79
409.49	1959.03
409.68	1994.14
409.87	1973.07
410.07	1919.24
410.26	1980.09
410.45	1940.30
410.64	2038.61
410.83	2005.84
411.02	1959.03
411.21	1919.24
411.40	1966.05
411.59	2157.97
411.78	2040.95
411.98	2108.82
412.17	2169.68
412.36	2080.74
412.55	2188.40
412.74	2256.28
412.93	2150.95
413.12	2134.57
413.31	2305.43
413.50	2377.98
413.69	2319.47
413.88	2251.60
414.07	2298.41
414.26	2326.49
414.45	2408.41
414.64	2296.07
414.83	2427.14
415.02	2495.01
415.22	2452.88
415.41	2422.45
415.60	2534.80
415.79	2502.03
415.98	2583.95
416.17	2569.91
416.36	2546.50
416.55	2630.76
416.74	2614.38
416.93	2696.30
417.12	2708.00
417.31	2733.75
417.50	2864.82
417.69	2801.62
417.88	2848.43
418.07	2822.69
418.26	2672.89
418.45	2881.20
418.64	2958.44
418.83	2813.32
419.02	2911.63
419.21	2909.29
419.39	2984.18
419.58	2883.54
419.77	2822.69
419.96	2958.44
420.15	3035.67
420.34	3075.46
420.53	3047.38
420.72	3061.42
420.91	3089.51
421.10	3042.70
421.29	3211.22
421.48	3028.65
421.67	3157.38
421.86	3169.09
422.05	3129.30
422.24	3143.34
422.43	3138.66
422.61	3218.24
422.80	3283.77
422.99	3220.58
423.18	3337.60
423.37	3351.65
423.56	3232.28
423.75	3218.24
423.94	3176.11
424.13	3087.17
424.32	3246.32
424.50	3309.52
424.69	3346.97
424.88	3361.01
425.07	3236.96
425.26	3293.13
425.45	3162.06
425.64	3227.60
425.83	3375.05
426.01	3302.50
426.20	3428.88
426.39	3330.58
426.58	3190.15
426.77	3318.88
426.96	3197.17
427.15	3307.18
427.33	3337.60
427.52	3375.05
427.71	3440.59
427.90	3379.73
428.09	3428.88
428.28	3562.30
428.46	3590.38
428.65	3449.95
428.84	3602.08
429.03	3660.60
429.22	3522.51
429.40	3482.72
429.59	3681.66
429.78	3571.66
429.97	3545.91
430.16	3508.46
430.34	3719.11
430.53	3737.84
430.72	3747.20
430.91	3646.55
431.10	3618.47
431.28	3688.68
431.47	3852.52
431.66	3772.94
431.85	3662.94
432.03	3798.69
432.22	3847.84
432.41	3840.82
432.60	3810.39
432.79	3831.46
432.97	3941.46
433.16	3805.71
433.35	3859.54
433.54	3971.89
433.72	3927.42
433.91	3950.82
434.10	3955.51
434.28	3885.29
434.47	3964.87
434.66	4149.77
434.85	4149.77
435.03	4140.41
435.22	4077.21
435.41	4142.75
435.59	4210.62
435.78	4145.09
435.97	4208.28
436.16	4156.79
436.34	4102.96
436.53	4170.83
436.72	4297.22
436.90	4212.96
437.09	4381.48
437.28	4252.75
437.46	4098.28
437.65	4325.31
437.84	4423.61
438.02	4367.44
438.21	4407.23
438.40	4430.63
438.58	4512.55
438.77	4601.49
438.96	4475.10
439.14	4564.04
439.33	4741.93
439.52	4676.39
439.70	4554.68
439.89	4791.08
440.08	4762.99
440.26	4854.27
440.45	4760.65
440.63	4741.93
440.82	4830.87
441.01	4781.71
441.19	5001.72
441.38	4968.96
441.57	4901.08
441.75	5118.75
441.94	5224.08
442.12	4968.96
442.31	5167.90
442.50	5221.74
442.68	5186.63
442.87	5207.69
443.05	5322.38
443.24	5249.82
443.43	5219.39
443.61	5212.37
443.80	5451.11
443.98	5291.95
444.17	5050.88
444.35	5238.12
444.54	5362.17
444.73	5238.12
444.91	5287.27
445.10	5233.44
445.28	5444.09
445.47	5563.45
445.65	5352.81
445.84	5547.07
446.02	5460.47
446.21	5416.00
446.39	5497.92
446.58	5423.02
446.77	5558.77
446.95	5137.48
447.14	5502.60
447.32	5439.40
447.51	5465.15
447.69	5334.08
447.88	5413.66
448.06	5626.65
448.25	5500.26
448.43	5518.98
448.62	5598.56
448.80	5497.92
448.99	5481.53
449.17	5678.14
449.36	5528.35
449.54	5781.12
449.73	5907.51
449.91	5837.30
450.10	5722.61
450.28	5874.74
450.46	5830.27
450.65	5734.31
450.83	5678.14
451.02	5944.96
451.20	5818.57
451.39	5825.59
451.57	5755.38
451.76	5678.14
451.94	5940.28
452.13	6047.94
452.31	5987.09
452.49	5881.77
452.68	6017.52
452.86	5954.32
453.05	5994.11
453.23	6099.44
453.42	6045.60
453.60	5919.21
453.78	6061.99
453.97	6097.10
454.15	6005.81
454.34	6059.65
454.52	6188.38
454.70	6176.67
454.89	6296.04
455.07	6225.82
455.26	6368.60
455.44	6347.53
455.62	6228.17
455.81	6413.07
455.99	6356.90
456.17	6476.26
456.36	6448.18
456.54	6485.62
456.73	6588.61
456.91	6686.91
457.09	6759.47
457.28	6757.13
457.46	6567.54
457.64	6885.86
457.83	6698.61
458.01	6436.47
458.19	6836.70
458.38	6647.12
458.56	7033.31
458.74	6981.82
458.93	6771.17
459.11	6787.55
459.29	6871.81
459.48	7005.22
459.66	6857.77
459.84	6935.01
460.03	7049.69
460.21	7171.40
460.39	7098.84
460.57	6953.73
460.76	7187.79
460.94	7148.00
461.12	6923.30
461.31	7185.44
461.49	6918.62
461.67	7213.53
461.85	7323.54
462.04	7126.93
462.22	7667.60
462.40	7365.67
462.59	7304.81
462.77	7309.49
462.95	7569.29
463.13	7218.21
463.32	7148.00
463.50	7735.47
463.68	7555.25
463.86	7669.94
464.05	7468.65
464.23	7513.12
464.41	7421.84
464.59	7382.05
464.78	7709.72
464.96	7473.33
465.14	7527.16
465.32	7653.55
465.50	7882.92
465.69	7691.00
465.87	7662.91
466.05	7721.43
466.23	7716.75
466.41	7662.91
466.60	7929.74
466.78	7660.57
466.96	7798.66
467.14	7873.56
467.32	7889.95
467.51	7903.99
467.69	7749.51
467.87	7824.41
468.05	7997.61
468.23	8025.70
468.41	7971.86
468.60	8112.30
468.78	8175.49
468.96	8063.15
469.14	8114.64
469.32	8107.62
469.50	7920.37
469.69	8119.32
469.87	8297.20
470.05	8285.50
470.23	8306.56
470.41	8423.59
470.59	8360.39
470.77	8161.45
470.95	8215.28
471.14	8599.13
471.32	8336.99
471.50	8725.52
471.68	8631.90
471.86	8652.96
472.04	8711.47
472.22	8908.08
472.40	8667.00
472.58	8791.05
472.77	8875.31
472.95	8755.94
473.13	9153.84
473.31	8952.55
473.49	9114.05
473.67	9088.30
473.85	9022.77
474.03	9212.35
474.21	9132.77
474.39	9284.91
474.57	9221.71
474.75	9242.78
474.93	9427.68
475.12	9308.31
475.30	9469.81
475.48	9392.57
475.66	9540.02
475.84	9549.39
476.02	9710.88
476.20	9783.44
476.38	9991.75
476.56	10040.90
476.74	10003.45
476.92	10099.41
477.10	10043.24
477.28	10281.97
477.46	10211.76
477.64	10005.79
477.82	10321.76
478.00	10684.55
478.18	10408.36
478.36	10633.05
478.54	10764.12
478.72	10682.20
478.90	10855.40
479.08	11042.65
479.26	11049.67
479.44	11091.80
479.62	11157.33
479.80	11185.42
479.98	11101.16
480.16	11536.50
480.34	11513.10
480.52	11679.27
480.70	11400.75
480.88	11496.71
481.06	11676.93
481.24	11786.94
481.41	12126.32
481.59	12126.32
481.77	12013.97
481.95	12306.54
482.13	12135.68
482.31	12212.92
482.49	12666.98
482.67	12400.16
482.85	12606.13
483.03	12959.55
483.21	12940.82
483.39	13006.36
483.57	13099.98
483.74	13167.85
483.92	13387.86
484.10	12882.31
484.28	13626.60
484.46	13699.16
484.64	13930.87
484.82	13755.33
485.00	13886.40
485.18	14127.47
485.35	14209.39
485.53	14246.84
485.71	14321.74
485.89	14485.58
486.07	14391.95
486.25	14721.97
486.43	14544.09
486.61	15009.86
486.78	14855.38
486.96	14993.47
487.14	14892.83
487.32	15627.76
487.50	15084.75
487.68	15461.58
487.85	15686.27
488.03	15859.47
488.21	15950.75
488.39	16053.73
488.57	16393.11
488.75	16336.94
488.92	16496.10
489.10	16554.61
489.28	16404.81
489.46	16596.74
489.64	16774.62
489.81	16980.59
489.99	17132.72
490.17	17095.27
490.35	17502.53
490.53	17434.65
490.70	17638.28
490.88	17605.51
491.06	17495.50
491.24	18043.19
491.41	17984.68
491.59	18352.14
491.77	18080.64
491.95	18256.18
492.13	18310.01
492.30	18735.99
492.48	18427.04
492.66	18586.19
492.84	18735.99
493.01	18930.25
493.19	19066.00
493.37	19091.75
493.54	19037.92
493.72	19655.82
493.90	19445.17
494.08	19620.71
494.25	19836.04
494.43	19688.59
494.61	19983.49
494.79	19920.30
494.96	19929.66
495.14	20091.16
495.32	20552.24
495.49	20556.93
495.67	20531.18
495.85	20746.51
496.02	20828.43
496.20	21467.39
496.38	21095.25
496.55	21179.51
496.73	21561.02
496.91	21214.62
497.09	21680.38
497.26	21656.98
497.44	21448.67
497.62	21977.63
497.79	22001.04
497.97	22211.68
498.14	22258.49
498.32	22298.28
498.50	22588.51
498.67	22246.79
498.85	22492.55
499.03	22920.87
499.20	22827.24
499.38	22803.84
499.56	22958.31
499.73	22881.08
499.91	22955.97
500.08	23393.65
500.26	23300.03
500.44	23325.78
500.61	23248.54
500.79	23426.42
500.97	23496.64
501.14	23601.96
501.32	23840.70
501.49	23754.10
501.67	23915.59
501.84	24154.33
502.02	24149.65
502.20	24140.29
502.37	24416.47
502.55	24470.30
502.72	24582.65
502.90	24374.34
503.07	24409.45
503.25	24657.54
503.43	24638.82
503.60	24980.54
503.78	25095.22
503.95	25085.86
504.13	24982.88
504.30	25324.60
504.48	25041.39
504.65	25448.64
504.83	25429.92
505.01	25558.65
505.18	25675.68
505.36	25947.18
505.53	25603.12
505.71	25551.63
505.88	25956.54
506.06	25549.29
506.23	26162.51
506.41	25956.54
506.58	26029.10
506.76	26211.66
506.93	26211.66
507.11	26443.37
507.28	26696.15
507.46	26572.10
507.63	26691.47
507.81	26895.10
507.98	26581.46
508.16	26803.82
508.33	26955.95
508.50	27110.43
508.68	26991.06
508.85	27192.34
509.03	27402.99
509.20	27274.26
509.38	27845.35
509.55	27826.63
509.73	27571.51
509.90	27733.01
510.08	27606.62
510.25	27714.28
510.42	28041.96
510.60	27988.13
510.77	28011.53
510.95	28229.20
511.12	28156.64
511.30	28149.62
511.47	28655.18
511.64	28383.68
511.82	28730.08
511.99	28875.19
512.17	28947.75
512.34	28514.75
512.51	29315.21
512.69	29158.39
512.86	29013.28
513.04	29324.57
513.21	29198.18
513.38	29387.77
513.56	29575.01
513.73	29436.92
513.90	29439.26
514.08	29369.04
514.25	29886.30
514.43	29991.62
514.60	29813.74
514.77	29626.50
514.95	30153.12
515.12	29928.43
515.29	29923.75
515.47	30110.99
515.64	30293.55
515.81	30171.85
515.99	30319.30
516.16	30436.33
516.33	30361.43
516.51	30586.12
516.68	30693.79
516.85	30478.46
517.03	31021.46
517.20	30822.51
517.37	30672.72
517.54	30909.11
517.72	31014.44
517.89	30948.90
518.06	31318.71
518.24	30953.58
518.41	31063.59
518.58	31126.78
518.75	31351.48
518.93	31285.94
519.10	31611.28
519.27	31747.03
519.45	31243.81
519.62	31859.37
519.79	31999.80
519.96	31592.55
520.14	32233.86
520.31	31672.13
520.48	32329.82
520.65	32353.23
520.83	32266.63
521.00	32657.49
521.17	32231.52
521.34	32568.55
521.52	32486.64
521.69	32767.50
521.86	32975.81
522.03	32914.95
522.20	32952.40
522.38	33242.63
522.55	32879.85
522.72	33163.05
522.89	33479.02
523.07	33228.59
523.24	33350.29
523.41	33422.85
523.58	33186.46
523.75	33322.21
523.92	33266.03
524.10	33598.39
524.27	33748.18
524.44	33958.83
524.61	33514.13
524.78	33855.85
524.96	34113.31
525.13	34031.39
525.30	34309.91
525.47	34274.80
525.64	34256.08
525.81	34398.85
525.98	34181.18
526.16	34218.63
526.33	34600.14
526.50	34515.88
526.67	34394.17
526.84	34436.30
527.01	34550.99
527.18	34586.10
527.36	34714.83
527.53	34845.90
527.70	35150.17
527.87	35002.71
528.04	34878.66
528.21	34979.31
528.38	34845.90
528.55	34951.22
528.72	34958.24
528.89	35435.71
529.07	35400.60
529.24	34937.18
529.41	35424.01
529.58	35784.45
529.75	35393.58
529.92	35545.72
530.09	35651.04
530.26	35433.37
530.43	35552.74
530.60	35592.53
530.77	35606.57
530.94	35784.45
531.11	35552.74
531.28	35842.96
531.46	35688.49
531.63	35878.07
531.80	36081.70
531.97	36297.03
532.14	36467.89
532.31	35981.06
532.48	36313.41
532.65	36701.94
532.82	36325.11
532.99	36751.09
533.16	36252.56
533.33	36275.96
533.50	36715.98
533.67	36636.41
533.84	36449.16
534.01	36914.93
534.18	36734.71
534.35	36802.58
534.52	37088.13
534.69	37046.00
534.86	37371.33
535.03	36989.83
535.20	36907.91
535.37	37317.50
535.54	37549.21
535.71	36968.76
535.88	37780.93
536.05	37434.53
536.22	37621.77
536.38	37347.93
536.55	37366.65
536.72	37493.04
536.89	37645.18
537.06	37612.41
537.23	37841.78
537.40	37778.59
537.57	37872.21
537.74	37837.10
537.91	38033.71
538.08	37949.45
538.25	38176.48
538.42	37872.21
538.59	38490.11
538.75	37839.44
538.92	38499.47
539.09	38614.16
539.26	38321.59
539.43	38246.69
539.60	38506.49
539.77	38064.13
539.94	38686.71
540.11	38506.49
540.28	38473.73
540.44	38059.45
540.61	38518.20
540.78	38644.59
540.95	38707.78
541.12	38618.84
541.29	38794.38
541.46	38923.11
541.62	38696.08
541.79	38932.47
541.96	39098.65
542.13	38817.78
542.30	39021.41
542.47	39337.38
542.63	39166.52
542.80	39491.86
542.97	40002.10
543.14	39297.59
543.31	38969.92
543.48	39543.35
543.64	40025.50
543.81	39859.32
543.98	39667.40
544.15	39533.99
544.32	39828.90
544.48	40561.48
544.65	39976.35
544.82	39864.00
544.99	39679.10
545.16	40187.00
545.32	39770.38
545.49	40362.54
545.66	40273.60
545.83	40385.94
546.00	40217.43
546.16	40289.98
546.33	40030.18
546.50	40376.58
546.67	40425.73
546.83	39784.43
547.00	40053.59
547.17	40074.65
547.34	40212.74
547.50	40786.18
547.67	40868.09
547.84	40432.75
548.00	41146.62
548.17	40891.50
548.34	40559.14
548.51	41160.66
548.67	40802.56
548.84	40971.08
549.01	40612.98
549.18	40713.62
549.34	41294.07
549.51	41228.54
549.68	40825.96
549.84	41310.46
550.01	41558.55
550.18	41195.77
550.34	41432.16
550.51	41448.55
550.68	41560.89
550.84	41074.06
551.01	41710.69
551.18	41099.81
551.34	41310.46
551.51	41846.44
551.68	41308.11
551.84	41453.23
552.01	41338.54
552.18	41839.42
552.34	41869.84
552.51	42199.86
552.68	41956.44
552.84	41743.45
553.01	42092.19
553.18	41911.97
553.34	41876.86
553.51	41731.75
553.67	41813.67
553.84	42021.98
554.01	41986.87
554.17	42019.64
554.34	42452.64
554.51	42127.30
554.67	42176.45
554.84	42342.63
555.00	42188.16
555.17	42340.29
555.33	41841.76
555.50	42302.84
555.67	42033.68
555.83	42494.77
556.00	42293.48
556.16	42841.17
556.33	42518.17
556.50	42351.99
556.66	42646.90
556.83	42265.39
556.99	42553.28
557.16	43086.92
557.32	43210.97
557.49	42347.31
557.65	42483.06
557.82	42511.15
557.98	42614.13
558.15	43049.47
558.32	42897.34
558.48	42855.21
558.65	42859.89
558.81	42834.14
558.98	42440.93
559.14	42710.10
559.31	42831.80
559.47	42534.56
559.64	43356.08
559.80	42880.95
559.97	43100.97
560.13	42747.54
560.30	42902.02
560.46	43297.57
560.63	43391.19
560.79	43302.25
560.96	44046.54
561.12	43227.35
561.29	43264.80
561.45	43328.00
561.61	43215.65
561.78	43225.01
561.94	43227.35
562.11	43243.74
562.27	43194.59
562.44	43447.36
562.60	43555.03
562.77	43187.56
562.93	43440.34
563.10	43182.88
563.26	43501.20
563.42	43686.10
563.59	42967.55
563.75	43166.50
563.92	43952.92
564.08	43452.05
564.24	44037.18
564.41	43292.89
564.57	43826.53
564.74	43632.27
564.90	43632.27
565.07	43714.19
565.23	43367.79
565.39	43611.20
565.56	43859.30
565.72	43686.10
565.88	43672.06
566.05	43924.83
566.21	43978.67
566.38	43578.43
566.54	44055.90
566.70	44114.42
566.87	44055.90
567.03	43709.50
567.19	44149.53
567.36	43826.53
567.52	44154.21
567.68	44067.61
567.85	43959.94
568.01	44055.90
568.17	43854.62
568.34	44020.80
568.50	44060.58
568.66	43761.00
568.83	43819.51
568.99	43959.94
569.15	43988.03
569.32	43838.23
569.48	44210.38
569.64	44240.81
569.81	44367.20
569.97	44105.06
570.13	44507.63
570.30	44189.31
570.46	44456.14
570.62	44388.26
570.78	44868.07
570.95	44041.86
571.11	44847.00
571.27	44325.07
571.43	43922.49
571.60	44037.18
571.76	44102.71
571.92	44179.95
572.09	44402.30
572.25	44306.34
572.41	44236.12
572.57	44563.80
572.74	45036.59
572.90	44383.58
573.06	44402.30
573.22	44732.32
573.38	44854.03
573.55	44678.49
573.71	44891.48
573.87	44500.61
574.03	44495.92
574.20	44336.77
574.36	44397.62
574.52	44514.65
574.68	44938.29
574.84	44835.30
575.01	44542.74
575.17	45123.19
575.33	44512.31
575.49	44612.95
575.65	44704.23
575.82	44706.57
575.98	44119.10
576.14	45045.95
576.30	44999.14
576.46	44634.02
576.62	44645.72
576.79	44910.20
576.95	44245.49
577.11	44449.11
577.27	44788.49
577.43	44580.18
577.59	44889.13
577.75	44811.90
577.92	44575.50
578.08	44313.36
578.24	44516.99
578.40	44896.16
578.56	45315.11
578.72	45221.49
578.88	45020.20
579.04	44549.76
579.21	44687.85
579.37	44868.07
579.53	44610.61
579.69	44538.05
579.85	44308.68
580.01	44697.21
580.17	44252.51
580.33	44542.74
580.49	44472.52
580.65	44748.70
580.82	44549.76
580.98	44673.81
581.14	44151.87
581.30	45083.40
581.46	44610.61
581.62	44669.12
581.78	44332.09
581.94	44914.88
582.10	44711.25
582.26	45104.46
582.42	45289.37
582.58	44837.64
582.74	45230.85
582.90	44823.60
583.06	44844.66
583.22	44624.65
583.38	45092.76
583.54	44748.70
583.70	45207.45
583.86	44994.46
584.02	44596.57
584.18	44978.07
584.34	45017.86
584.50	45090.42
584.66	45172.34
584.82	44655.08
584.98	45202.77
585.14	45174.68
585.30	44531.03
585.46	44781.47
585.62	44748.70
585.78	45186.38
585.94	44734.66
586.10	45191.06
586.26	44957.01
586.42	45059.99
586.58	45244.90
586.74	44914.88
586.90	44877.43
587.06	45191.06
587.22	45205.11
587.38	44678.49
587.54	45373.63
587.70	44917.22
587.86	45127.87
588.02	44900.84
588.18	45038.93
588.34	44992.12
588.49	44924.24
588.65	44755.72
588.81	44758.06
588.97	44980.42
589.13	45371.28
589.29	45116.17
589.45	45345.54
589.61	44678.49
589.77	45371.28
589.93	45450.86
590.08	45394.69
