SpectraSuite Data File
++++++++++++++++++++++++++++++++++++
Date: Fri Oct 25 10:43:39 EDT 2013
User: price-jones
Dark Spectrum Present: No
Reference Spectrum Present: No
Number of Sampled Component Spectra: 1
Spectrometers: USB2+H05261
Integration Time (usec): 100000 (USB2+H05261)
Spectra Averaged: 1 (USB2+H05261)
Boxcar Smoothing: 0 (USB2+H05261)
Correct for Electrical Dark: No (USB2+H05261)
Strobe/Lamp Enabled: No (USB2+H05261)
Correct for Detector Non-linearity: No (USB2+H05261)
Correct for Stray Light: No (USB2+H05261)
Number of Pixels in Processed Spectrum: 2048
>>>>>Begin Processed Spectral Data<<<<<
365.73	114.69
365.92	114.69
366.12	114.69
366.32	65.54
366.52	98.30
366.72	14.04
366.91	0.00
367.11	0.00
367.31	0.00
367.51	4.68
367.70	0.00
367.90	39.79
368.10	0.00
368.30	79.58
368.49	35.11
368.69	2.34
368.89	51.49
369.09	0.00
369.28	39.79
369.48	37.45
369.68	44.47
369.87	32.77
370.07	124.05
370.27	154.48
370.47	152.13
370.66	425.98
370.86	437.68
371.06	369.80
371.25	440.02
371.45	388.53
371.65	484.49
371.84	472.79
372.04	507.90
372.24	458.74
372.44	472.79
372.63	491.51
372.83	521.94
373.03	550.03
373.22	538.32
373.42	564.07
373.62	535.98
373.81	503.22
374.01	589.82
374.21	538.32
374.40	601.52
374.60	601.52
374.79	514.92
374.99	638.97
375.19	559.39
375.38	580.45
375.58	545.34
375.78	592.16
375.97	641.31
376.17	594.50
376.37	599.18
376.56	653.01
376.76	606.20
376.95	601.52
377.15	702.16
377.35	643.65
377.54	720.88
377.74	645.99
377.93	608.54
378.13	655.35
378.33	638.97
378.52	634.29
378.72	690.46
378.91	718.54
379.11	674.07
379.31	650.67
379.50	589.82
379.70	671.73
379.89	690.46
380.09	695.14
380.28	653.01
380.48	622.58
380.68	657.69
380.87	716.20
381.07	709.18
381.26	744.29
381.46	765.36
381.65	746.63
381.85	720.88
382.04	613.22
382.24	692.80
382.43	746.63
382.63	669.39
382.83	699.82
383.02	685.78
383.22	725.57
383.41	657.69
383.61	767.70
383.80	802.80
384.00	760.67
384.19	856.64
384.39	781.74
384.58	809.83
384.78	880.04
384.97	765.36
385.17	657.69
385.36	807.48
385.56	816.85
385.75	793.44
385.95	819.19
386.14	882.38
386.34	840.25
386.53	922.17
386.72	903.45
386.92	933.87
387.11	795.78
387.31	884.72
387.50	856.64
387.70	961.96
387.89	894.08
388.09	891.74
388.28	873.02
388.48	875.36
388.67	943.24
388.86	943.24
389.06	903.45
389.25	1011.11
389.45	915.15
389.64	882.38
389.84	1008.77
390.03	1039.20
390.22	1039.20
390.42	1071.97
390.61	898.77
390.81	1090.69
391.00	1109.41
391.19	1156.22
391.39	1114.10
391.58	1114.10
391.78	1081.33
391.97	1107.07
392.16	1050.90
392.36	1048.56
392.55	1053.24
392.75	1055.58
392.94	929.19
393.13	1076.65
393.33	1032.18
393.52	983.02
393.71	1093.03
393.91	1093.03
394.10	1151.54
394.29	1179.63
394.49	1118.78
394.68	1268.57
394.88	1294.32
395.07	1313.04
395.26	1219.42
395.46	1217.08
395.65	1224.10
395.84	1116.44
396.04	1221.76
396.23	1200.69
396.42	1095.37
396.62	1226.44
396.81	1261.55
397.00	1165.59
397.19	1196.01
397.39	1296.66
397.58	1369.21
397.77	1451.13
397.97	1406.66
398.16	1483.90
398.35	1425.39
398.55	1497.94
398.74	1530.71
398.93	1657.10
399.12	1458.15
399.32	1481.56
399.51	1561.14
399.70	1607.95
399.90	1643.06
400.09	1675.82
400.28	1565.82
400.47	1579.86
400.67	1671.14
400.86	1633.69
401.05	1715.61
401.24	1755.40
401.44	1638.38
401.63	1741.36
401.82	1781.15
402.01	1739.02
402.21	1806.89
402.40	1809.23
402.59	1729.66
402.78	1769.44
402.97	1867.75
403.17	1732.00
403.36	1858.39
403.55	1886.47
403.74	1874.77
403.93	1919.24
404.13	1881.79
404.32	1820.94
404.51	1975.41
404.70	2036.27
404.89	1891.15
405.09	1949.67
405.28	1935.62
405.47	2045.63
405.66	2054.99
405.85	2043.29
406.05	1970.73
406.24	1994.14
406.43	2092.44
406.62	2118.18
406.81	2232.87
407.00	2071.37
407.20	2108.82
407.39	2183.72
407.58	2223.51
407.77	2298.41
407.96	2296.07
408.15	2277.34
408.34	2286.70
408.54	2256.28
408.73	2148.61
408.92	2209.47
409.11	2382.67
409.30	2335.85
409.49	2342.88
409.68	2396.71
409.87	2363.94
410.07	2317.13
410.26	2396.71
410.45	2413.09
410.64	2495.01
410.83	2434.16
411.02	2537.14
411.21	2637.78
411.40	2616.72
411.59	2689.28
411.78	2637.78
411.98	2698.64
412.17	2712.68
412.36	2689.28
412.55	2871.84
412.74	2717.36
412.93	2789.92
413.12	2803.96
413.31	2867.16
413.50	2883.54
413.69	2829.71
413.88	2853.11
414.07	2984.18
414.26	2979.50
414.45	3061.42
414.64	2984.18
414.83	3038.02
415.02	3105.89
415.22	2993.55
415.41	3122.27
415.60	3316.54
415.79	3262.71
415.98	3382.07
416.17	3309.52
416.36	3323.56
416.55	3201.85
416.74	3314.20
416.93	3314.20
417.12	3349.31
417.31	3349.31
417.50	3461.65
417.69	3529.53
417.88	3489.74
418.07	3407.82
418.26	3471.01
418.45	3400.80
418.64	3618.47
418.83	3569.32
419.02	3634.85
419.21	3667.62
419.39	3669.96
419.58	3625.49
419.77	3510.80
419.96	3630.17
420.15	3845.50
420.34	3744.86
420.53	3728.47
420.72	3768.26
420.91	3777.62
421.10	3913.38
421.29	3887.63
421.48	3789.33
421.67	3836.14
421.86	3824.44
422.05	3857.20
422.24	3854.86
422.43	3955.51
422.61	3824.44
422.80	3904.01
422.99	3927.42
423.18	4051.47
423.37	4067.85
423.56	3999.98
423.75	3892.31
423.94	3868.91
424.13	3775.28
424.32	3932.10
424.50	3960.19
424.69	4077.21
424.88	3960.19
425.07	4035.08
425.26	4025.72
425.45	3953.16
425.64	3990.61
425.83	4032.74
426.01	4138.07
426.20	4053.81
426.39	4056.15
426.58	4037.42
426.77	4107.64
426.96	3985.93
427.15	3948.48
427.33	4147.43
427.52	4091.26
427.71	4128.70
427.90	4147.43
428.09	4138.07
428.28	4212.96
428.46	4163.81
428.65	4177.86
428.84	4280.84
429.03	4311.27
429.22	4102.96
429.40	4278.50
429.59	4060.83
429.78	3962.53
429.97	3894.65
430.16	4088.92
430.34	4166.15
430.53	4271.48
430.72	4168.49
430.91	4248.07
431.10	4369.78
431.28	4449.36
431.47	4650.64
431.66	4671.71
431.85	4620.22
432.03	4676.39
432.22	4741.93
432.41	4582.77
432.60	4858.95
432.79	4725.54
432.97	4882.36
433.16	4821.50
433.35	4580.43
433.54	4664.69
433.72	4760.65
433.91	4786.40
434.10	4844.91
434.28	4685.75
434.47	4870.65
434.66	4877.68
434.85	4983.00
435.03	4912.78
435.22	5015.77
435.41	5102.37
435.59	5200.67
435.78	5207.69
435.97	5132.79
436.16	5205.35
436.34	5135.14
436.53	5331.74
436.72	5284.93
436.90	5034.49
437.09	5284.93
437.28	5186.63
437.46	5233.44
437.65	5158.54
437.84	5132.79
438.02	5231.10
438.21	5191.31
438.40	5308.34
438.58	5446.43
438.77	5556.43
438.96	5483.88
439.14	5638.35
439.33	5544.73
439.52	5645.37
439.70	5804.53
439.89	5603.24
440.08	5547.07
440.26	5830.27
440.45	5856.02
440.63	5788.14
440.82	6076.03
441.01	5839.64
441.19	6066.67
441.38	6106.46
441.57	6181.35
441.75	6289.02
441.94	6494.99
442.12	6197.74
442.31	6497.33
442.50	6263.27
442.68	6417.75
442.87	6455.20
443.05	6286.68
443.24	6513.71
443.43	6516.05
443.61	6534.78
443.80	6747.76
443.98	6523.07
444.17	6305.40
444.35	6520.73
444.54	6576.91
444.73	6761.81
444.91	6499.67
445.10	6541.80
445.28	6602.65
445.47	6413.07
445.65	6443.49
445.84	6609.67
446.02	6628.40
446.21	6623.72
446.39	6544.14
446.58	6595.63
446.77	6904.58
446.95	6679.89
447.14	6825.00
447.32	6843.73
447.51	6494.99
447.69	6499.67
447.88	6586.27
448.06	6686.91
448.25	6892.88
448.43	6787.55
448.62	6761.81
448.80	6841.39
448.99	6986.50
449.17	6834.36
449.36	6829.68
449.54	7037.99
449.73	7204.17
449.91	6937.35
450.10	7087.14
450.28	7253.32
450.46	7337.58
450.65	7433.54
450.83	7351.62
451.02	7339.92
451.20	7288.43
451.39	7405.46
451.57	7194.81
451.76	7314.17
451.94	7330.56
452.13	7241.62
452.31	7213.53
452.49	7143.32
452.68	7309.49
452.86	7288.43
453.05	7253.32
453.23	7492.05
453.42	7435.88
453.60	7536.52
453.78	7592.70
453.97	7557.59
454.15	7398.43
454.34	7379.71
454.52	7662.91
454.70	7648.87
454.89	7534.18
455.07	7468.65
455.26	7716.75
455.44	7758.88
455.62	7822.07
455.81	7922.71
455.99	8032.72
456.17	7981.23
456.36	7971.86
456.54	7875.90
456.73	8086.55
456.91	8238.69
457.09	8210.60
457.28	8344.01
457.46	7948.46
457.64	8194.22
457.83	8276.13
458.01	8236.35
458.19	8500.83
458.38	8156.77
458.56	8414.23
458.74	8329.97
458.93	8285.50
459.11	8219.96
459.29	8493.80
459.48	8292.52
459.66	8238.69
459.84	8430.61
460.03	8608.49
460.21	8634.24
460.39	8566.36
460.57	8636.58
460.76	8690.41
460.94	8751.26
461.12	8877.65
461.31	8767.65
461.49	8725.52
461.67	8674.03
461.85	9029.79
462.04	8992.34
462.22	9324.69
462.40	9060.21
462.59	8870.63
462.77	9083.62
462.95	9036.81
463.13	8924.46
463.32	8915.10
463.50	9268.52
463.68	9060.21
463.86	9240.44
464.05	8940.85
464.23	9053.19
464.41	9170.22
464.59	8809.78
464.78	9050.85
464.96	9268.52
465.14	9100.00
465.32	9301.29
465.50	9514.28
465.69	9357.46
465.87	9247.46
466.05	9458.10
466.23	9352.78
466.41	9336.40
466.60	9460.45
466.78	9245.12
466.96	9341.08
467.14	9305.97
467.32	9444.06
467.51	9441.72
467.69	9238.09
467.87	9404.27
468.05	9495.55
468.23	9600.88
468.41	9605.56
468.60	9600.88
468.78	9858.34
468.96	9750.67
469.14	9884.08
469.32	9727.27
469.50	9638.33
469.69	9921.53
469.87	9928.55
470.05	10045.58
470.23	9912.17
470.41	10026.86
470.59	9926.21
470.77	9951.96
470.95	10188.35
471.14	10373.25
471.32	9994.09
471.50	10296.02
471.68	10438.79
471.86	10452.83
472.04	10373.25
472.22	10670.50
472.40	10394.32
472.58	10455.17
472.77	10721.99
472.95	10764.12
473.13	10827.32
473.31	10523.05
473.49	10703.27
473.67	10661.14
473.85	10806.25
474.03	11112.86
474.21	10874.13
474.39	11314.15
474.57	11150.31
474.75	11335.21
474.93	11307.13
475.12	11468.62
475.30	11489.69
475.48	11157.33
475.66	11417.13
475.84	11470.97
476.02	11573.95
476.20	11407.77
476.38	11840.77
476.56	11871.20
476.74	12042.06
476.92	11655.87
477.10	12013.97
477.28	12072.48
477.46	12156.74
477.64	12292.49
477.82	12477.40
478.00	12655.28
478.18	12669.32
478.36	12671.66
478.54	12774.64
478.72	12936.14
478.90	13069.55
479.08	13542.34
479.26	13310.63
479.44	13259.13
479.62	13568.09
479.80	13451.06
479.98	13547.02
480.16	13708.52
480.34	13666.39
480.52	13839.59
480.70	13757.67
480.88	13748.31
481.06	13968.32
481.24	14188.33
481.41	14413.02
481.59	14597.92
481.77	14384.93
481.95	14462.17
482.13	14579.20
482.31	14548.77
482.49	15117.52
482.67	14984.11
482.85	15061.35
483.03	15178.37
483.21	15384.34
483.39	15449.88
483.57	15658.18
483.74	15475.62
483.92	15728.40
484.10	15623.08
484.28	16084.16
484.46	16360.34
484.64	16425.88
484.82	16168.42
485.00	16177.78
485.18	16606.10
485.35	16643.55
485.53	16526.52
485.71	16320.56
485.89	16617.80
486.07	16484.39
486.25	16933.78
486.43	16938.46
486.61	17385.50
486.78	17563.38
486.96	17610.19
487.14	17862.97
487.32	17823.18
487.50	17930.84
487.68	18361.50
487.85	18623.64
488.03	18422.36
488.21	18616.62
488.39	18675.13
488.57	18633.00
488.75	18916.21
488.92	19264.95
489.10	19496.66
489.28	19513.05
489.46	20002.22
489.64	20004.56
489.81	19999.88
489.99	20496.07
490.17	20439.90
490.35	20535.86
490.53	20964.18
490.70	20779.28
490.88	20706.72
491.06	20877.58
491.24	20978.22
491.41	21205.25
491.59	20903.32
491.77	20982.90
491.95	21081.21
492.13	21905.07
492.30	21551.65
492.48	21846.56
492.66	22141.47
492.84	22092.32
493.01	22293.60
493.19	21940.18
493.37	22546.38
493.54	22710.22
493.72	22937.25
493.90	22995.76
494.08	23323.44
494.25	23199.39
494.43	23461.53
494.61	23236.84
494.79	23819.63
494.96	23555.15
495.14	23562.17
495.32	23924.96
495.49	23852.40
495.67	24053.69
495.85	24367.32
496.02	24353.27
496.20	24463.28
496.38	24294.76
496.55	24711.38
496.73	25373.75
496.91	25303.53
497.09	25270.76
497.26	25551.63
497.44	24877.55
497.62	25703.76
497.79	25799.73
497.97	25046.07
498.14	25666.31
498.32	25876.96
498.50	25785.68
498.67	26190.59
498.85	26061.87
499.03	26455.08
499.20	26391.88
499.38	26721.90
499.56	26370.82
499.73	26511.25
499.91	26827.22
500.08	26925.52
500.26	26801.47
500.44	26712.53
500.61	26899.78
500.79	26792.11
500.97	27110.43
501.14	27466.19
501.32	27309.37
501.49	27461.51
501.67	27346.82
501.84	27606.62
502.02	27782.16
502.20	27866.42
502.37	28114.52
502.55	27901.53
502.72	28077.07
502.90	28208.14
503.07	28002.17
503.25	28493.68
503.43	27924.93
503.60	28306.44
503.78	28233.88
503.95	28479.64
504.13	28503.04
504.30	28704.33
504.48	28940.72
504.65	29418.19
504.83	29055.41
505.01	29457.98
505.18	29603.10
505.36	29710.76
505.53	29572.67
505.71	29813.74
505.88	30026.73
506.06	29380.74
506.23	30052.48
506.41	30080.56
506.58	30019.71
506.76	29935.45
506.93	30146.10
507.11	29900.34
507.28	30384.83
507.46	30473.78
507.63	30326.32
507.81	30153.12
507.98	30270.15
508.16	30876.35
508.33	30775.70
508.50	31019.12
508.68	30782.73
508.85	31197.00
509.03	31133.81
509.20	31475.52
509.38	31606.59
509.55	31517.65
509.73	31524.68
509.90	31793.84
510.08	31578.51
510.25	31665.11
510.42	31938.95
510.60	32093.43
510.77	31948.31
510.95	32767.50
511.12	32212.79
511.30	32664.52
511.47	32306.41
511.64	32615.37
511.82	32840.06
511.99	32407.06
512.17	32631.75
512.34	32341.52
512.51	32699.62
512.69	32945.38
512.86	32943.04
513.04	33069.43
513.21	33081.13
513.38	33474.34
513.56	33436.89
513.73	33336.25
513.90	33481.36
514.08	33408.81
514.25	33317.53
514.43	33202.84
514.60	33443.91
514.77	33661.58
514.95	33914.36
515.12	33467.32
515.29	33600.73
515.47	33670.95
515.64	34139.05
515.81	33991.60
515.99	33841.81
516.16	33956.49
516.33	33897.98
516.51	33757.55
516.68	33357.32
516.85	33380.72
517.03	33497.75
517.20	33944.79
517.37	34265.44
517.54	34700.78
517.72	34630.57
517.89	34188.21
518.06	34213.95
518.24	34202.25
518.41	34525.24
518.58	34745.25
518.75	34983.99
518.93	35473.16
519.10	35154.85
519.27	35426.35
519.45	35206.34
519.62	35536.35
519.79	35908.50
519.96	35580.82
520.14	35480.18
520.31	35637.00
520.48	35651.04
520.65	35852.33
520.83	36390.65
521.00	36044.25
521.17	35906.16
521.34	36032.55
521.52	36266.60
521.69	36622.36
521.86	36680.88
522.03	37198.13
522.20	36282.98
522.38	36421.08
522.55	36510.02
522.72	36217.45
522.89	36687.90
523.07	36694.92
523.24	36718.32
523.41	37401.76
523.58	37219.20
523.75	37221.54
523.92	37560.92
524.10	37572.62
524.27	37450.91
524.44	37666.24
524.61	37345.59
524.78	37443.89
524.96	37673.26
525.13	37476.66
525.30	38010.30
525.47	38059.45
525.64	38080.52
525.81	38003.28
525.98	37787.95
526.16	37354.95
526.33	37434.53
526.50	37797.31
526.67	37263.67
526.84	37607.73
527.01	37514.11
527.18	37708.37
527.36	38242.01
527.53	38412.87
527.70	38948.85
527.87	38557.99
528.04	38335.63
528.21	38532.24
528.38	38801.40
528.55	39009.71
528.72	38574.37
528.89	39360.79
529.07	38958.22
529.24	38916.09
529.41	39358.45
529.58	39337.38
529.75	38953.54
529.92	39335.04
530.09	39077.58
530.26	39325.68
530.43	39550.37
530.60	39660.38
530.77	39276.53
530.94	39899.11
531.11	39515.26
531.28	40072.31
531.46	40069.97
531.63	39983.37
531.80	39438.03
531.97	39442.71
532.14	39442.71
532.31	39283.55
532.48	39751.66
532.65	39873.37
532.82	39873.37
532.99	40076.99
533.16	39885.07
533.33	40243.17
533.50	40250.19
533.67	39957.63
533.84	39929.54
534.01	40004.44
534.18	40076.99
534.35	40774.47
534.52	40507.65
534.69	40254.87
534.86	40982.78
535.03	40910.22
535.20	41172.36
535.37	40854.05
535.54	41261.30
535.71	40821.28
535.88	41015.55
536.05	40650.42
536.22	40627.02
536.38	40896.18
536.55	40776.81
536.72	41088.10
536.89	40629.36
537.06	40851.71
537.23	41572.60
537.40	41474.29
537.57	41640.47
537.74	41390.03
537.91	41666.22
538.08	41549.19
538.25	41177.04
538.42	41411.10
538.59	41799.63
538.75	41008.53
538.92	41436.84
539.09	41773.88
539.26	41514.08
539.43	41832.39
539.60	41053.00
539.77	41687.28
539.94	41577.28
540.11	41322.16
540.28	42087.51
540.44	41996.23
540.61	41801.97
540.78	41226.20
540.95	41794.95
541.12	41921.34
541.29	41603.02
541.46	42195.18
541.62	42192.84
541.79	42340.29
541.96	41572.60
542.13	41867.50
542.30	42082.83
542.47	42274.76
542.63	42230.29
542.80	42192.84
542.97	42513.49
543.14	42328.59
543.31	42843.51
543.48	42361.36
543.64	43138.41
543.81	43187.56
543.98	42883.30
544.15	42773.29
544.32	42820.10
544.48	43360.76
544.65	42997.98
544.82	43447.36
544.99	42679.67
545.16	42883.30
545.32	43236.72
545.49	43597.16
545.66	43526.94
545.83	43498.86
546.00	43480.13
546.16	43576.09
546.33	43941.22
546.50	43136.07
546.67	43665.03
546.83	42756.91
547.00	43459.07
547.17	43344.38
547.34	43182.88
547.50	43377.15
547.67	43688.44
547.84	43927.17
548.00	44208.04
548.17	43789.08
548.34	43952.92
548.51	44156.55
548.67	44055.90
548.84	44023.14
549.01	44210.38
549.18	43627.59
549.34	43871.00
549.51	43749.29
549.68	44098.03
549.84	44020.80
550.01	44591.89
550.18	44088.67
550.34	44076.97
550.51	44624.65
550.68	44378.90
550.84	43543.33
551.01	44528.69
551.18	44289.96
551.34	44030.16
551.51	44245.49
551.68	44516.99
551.84	44399.96
552.01	44327.41
552.18	44439.75
552.34	44369.54
552.51	44680.83
552.68	44521.67
552.84	44816.58
553.01	44802.53
553.18	44947.65
553.34	44800.19
553.51	44573.16
553.67	44369.54
553.84	44935.95
554.01	45038.93
554.17	44973.39
554.34	44608.27
554.51	45085.74
554.67	44634.02
554.84	45186.38
555.00	45095.10
555.17	45151.27
555.33	44547.42
555.50	44582.52
555.67	45027.23
555.83	45277.66
556.00	45174.68
556.16	45153.62
556.33	44882.11
556.50	45125.53
556.66	44818.92
556.83	44886.79
556.99	45652.15
557.16	45214.47
557.32	45628.74
557.49	45261.28
557.65	45408.73
557.82	45371.28
557.98	45394.69
558.15	45450.86
558.32	45345.54
558.48	45062.33
558.65	45106.80
558.81	45387.67
558.98	44762.75
559.14	45200.43
559.31	45104.46
559.47	45214.47
559.64	45392.35
559.80	45457.88
559.97	45652.15
560.13	44861.05
560.30	45191.06
560.46	45595.98
560.63	46169.41
560.79	45797.26
560.96	45935.35
561.12	45507.04
561.29	45600.66
561.45	45404.05
561.61	45223.83
561.78	45518.74
561.94	45291.71
562.11	45497.67
562.27	45600.66
562.44	45731.73
562.60	45977.48
562.77	45998.55
562.93	45867.48
563.10	45872.16
563.26	45544.48
563.42	46181.11
563.59	45553.85
563.75	45818.33
563.92	46251.33
564.08	45900.25
564.24	46323.88
564.41	45485.97
564.57	45680.24
564.74	45801.94
564.90	46485.38
565.07	45776.20
565.23	46043.02
565.39	45631.08
565.56	45586.61
565.72	45261.28
565.88	45680.24
566.05	45773.86
566.21	45794.92
566.38	45663.85
566.54	45879.18
566.70	46099.19
566.87	46492.40
567.03	46157.70
567.19	46571.98
567.36	46143.66
567.52	45734.07
567.68	46232.60
567.85	46113.23
568.01	45633.42
568.17	45698.96
568.34	46085.15
568.50	45930.67
568.66	46033.66
568.83	45750.45
568.99	45731.73
569.15	45996.21
569.32	46043.02
569.48	46082.81
569.64	46246.65
569.81	46478.36
569.97	46057.06
570.13	45731.73
570.30	45848.75
570.46	45549.17
570.62	45713.00
570.78	45677.90
570.95	45495.33
571.11	45628.74
571.27	45790.24
571.43	46174.09
571.60	46461.97
571.76	45806.62
571.92	46115.58
572.09	46340.27
572.25	46433.89
572.41	46223.24
572.57	46356.65
572.74	46539.21
572.90	46040.68
573.06	46153.02
573.22	46443.25
573.38	46043.02
573.55	45869.82
573.71	46667.94
573.87	46054.72
574.03	46003.23
574.20	46499.42
574.36	45972.80
574.52	46195.15
574.68	46284.09
574.84	46075.79
575.01	45858.12
575.17	45977.48
575.33	46146.00
575.49	46246.65
575.65	46110.89
575.82	46195.15
575.98	45853.44
576.14	46532.19
576.30	46181.11
576.46	46010.25
576.62	46288.77
576.79	46005.57
576.95	46209.20
577.11	46113.23
577.27	46246.65
577.43	46358.99
577.59	45844.07
577.75	45989.19
577.92	45778.54
578.08	45832.37
578.24	45979.82
578.40	45867.48
578.56	46183.45
578.72	46162.39
578.88	46190.47
579.04	46543.89
579.21	46087.49
579.37	45890.88
579.53	46452.61
579.69	45886.20
579.85	46045.36
580.01	46216.22
580.17	46358.99
580.33	46078.13
580.49	46246.65
580.65	46281.75
580.82	46539.21
580.98	45872.16
581.14	46181.11
581.30	46506.44
581.46	46195.15
581.62	46398.78
581.78	46789.65
581.94	46408.14
582.10	46508.79
582.26	46312.18
582.42	46532.19
582.58	46454.95
582.74	46476.02
582.90	46466.66
583.06	46595.38
583.22	46405.80
583.38	46728.80
583.54	46358.99
583.70	46712.41
583.86	46651.56
584.02	46103.87
584.18	46459.63
584.34	46302.82
584.50	46230.26
584.66	46553.26
584.82	46342.61
584.98	46153.02
585.14	46340.27
585.30	45893.22
585.46	46073.45
585.62	46068.76
585.78	46256.01
585.94	45834.71
586.10	45823.01
586.26	45883.86
586.42	46279.41
586.58	46686.67
586.74	46117.92
586.90	46426.87
587.06	46628.15
587.22	46658.58
587.38	46185.79
587.54	46733.48
587.70	46775.61
587.86	46321.54
588.02	46146.00
588.18	46651.56
588.34	45916.63
588.49	45860.46
588.65	45991.53
588.81	45722.37
588.97	45832.37
589.13	45804.28
589.29	45841.73
589.45	46164.73
589.61	46522.83
589.77	46487.72
589.93	46742.84
