SpectraSuite Data File
++++++++++++++++++++++++++++++++++++
Date: Fri Oct 25 11:23:13 EDT 2013
User: price-jones
Dark Spectrum Present: No
Reference Spectrum Present: No
Number of Sampled Component Spectra: 1
Spectrometers: USB2+H05261
Integration Time (usec): 100000 (USB2+H05261)
Spectra Averaged: 1 (USB2+H05261)
Boxcar Smoothing: 0 (USB2+H05261)
Correct for Electrical Dark: No (USB2+H05261)
Strobe/Lamp Enabled: No (USB2+H05261)
Correct for Detector Non-linearity: No (USB2+H05261)
Correct for Stray Light: No (USB2+H05261)
Number of Pixels in Processed Spectrum: 2048
>>>>>Begin Processed Spectral Data<<<<<
365.73	243.42
365.92	243.42
366.12	243.42
366.32	189.58
366.52	126.39
366.72	88.94
366.91	121.71
367.11	180.22
367.31	135.75
367.51	102.98
367.70	28.09
367.90	152.13
368.10	98.30
368.30	107.66
368.49	95.96
368.69	194.26
368.89	131.07
369.09	135.75
369.28	138.09
369.48	142.77
369.68	149.79
369.87	238.73
370.07	187.24
370.27	257.46
370.47	292.57
370.66	528.96
370.86	706.84
371.06	643.65
371.25	699.82
371.45	657.69
371.65	664.71
371.84	699.82
372.04	716.20
372.24	786.42
372.44	662.37
372.63	718.54
372.83	760.67
373.03	685.78
373.22	784.08
373.42	695.14
373.62	758.33
373.81	751.31
374.01	809.83
374.21	767.70
374.40	798.12
374.60	777.06
374.79	840.25
374.99	809.83
375.19	863.66
375.38	847.27
375.58	779.40
375.78	814.51
375.97	835.57
376.17	896.43
376.37	840.25
376.56	917.49
376.76	823.87
376.95	882.38
377.15	870.68
377.35	961.96
377.54	968.98
377.74	891.74
377.93	866.00
378.13	807.48
378.33	940.90
378.52	1001.75
378.72	908.13
378.91	999.41
379.11	990.05
379.31	922.17
379.50	926.85
379.70	976.00
379.89	1004.09
380.09	1078.99
380.28	983.02
380.48	952.60
380.68	997.07
380.87	973.66
381.07	1053.24
381.26	1008.77
381.46	1027.50
381.65	992.39
381.85	994.73
382.04	985.37
382.24	1022.81
382.43	1055.58
382.63	1078.99
382.83	1109.41
383.02	1125.80
383.22	1125.80
383.41	1086.01
383.61	1109.41
383.80	1081.33
384.00	1107.07
384.19	1071.97
384.39	1130.48
384.58	1074.31
384.78	1132.82
384.97	1149.20
385.17	1177.29
385.36	1107.07
385.56	1205.38
385.75	1149.20
385.95	1142.18
386.14	1308.36
386.34	1200.69
386.53	1256.87
386.72	1184.31
386.92	1200.69
387.11	1252.19
387.31	1158.57
387.50	1270.91
387.70	1212.40
387.89	1245.16
388.09	1277.93
388.28	1324.74
388.48	1191.33
388.67	1256.87
388.86	1373.89
389.06	1331.76
389.25	1301.34
389.45	1465.18
389.64	1380.92
389.84	1448.79
390.03	1343.47
390.22	1341.13
390.42	1320.06
390.61	1406.66
390.81	1345.81
391.00	1383.26
391.19	1448.79
391.39	1380.92
391.58	1437.09
391.78	1453.47
391.97	1465.18
392.16	1432.41
392.36	1523.69
392.55	1565.82
392.75	1516.67
392.94	1504.96
393.13	1502.62
393.33	1577.52
393.52	1542.41
393.71	1607.95
393.91	1643.06
394.10	1598.59
394.29	1584.54
394.49	1526.03
394.68	1682.85
394.88	1584.54
395.07	1659.44
395.26	1652.42
395.46	1706.25
395.65	1710.93
395.84	1729.66
396.04	1743.70
396.23	1717.95
396.42	1750.72
396.62	1837.32
396.81	1898.17
397.00	1788.17
397.19	1811.57
397.39	1898.17
397.58	1811.57
397.77	1790.51
397.97	1830.30
398.16	1795.19
398.35	1895.83
398.55	1834.98
398.74	1879.45
398.93	2031.58
399.12	2017.54
399.32	2001.16
399.51	1837.32
399.70	1998.82
399.90	2010.52
400.09	1928.60
400.28	2008.18
400.47	2038.61
400.67	2106.48
400.86	2104.14
401.05	2111.16
401.24	2183.72
401.44	2183.72
401.63	2200.10
401.82	2214.15
402.01	2111.16
402.21	2190.74
402.40	2286.70
402.59	2146.27
402.78	2125.21
402.97	2253.94
403.17	2246.91
403.36	2277.34
403.55	2321.81
403.74	2256.28
403.93	2389.69
404.13	2377.98
404.32	2427.14
404.51	2345.22
404.70	2377.98
404.89	2401.39
405.09	2495.01
405.28	2462.24
405.47	2436.50
405.66	2565.23
405.85	2527.78
406.05	2546.50
406.24	2504.37
406.43	2574.59
406.62	2492.67
406.81	2705.66
407.00	2597.99
407.20	2583.95
407.39	2719.70
407.58	2775.88
407.77	2663.53
407.96	2731.41
408.15	2834.39
408.34	2806.30
408.54	2789.92
408.73	2733.75
408.92	2827.37
409.11	2813.32
409.30	2951.42
409.49	2951.42
409.68	3070.78
409.87	2939.71
410.07	2965.46
410.26	2979.50
410.45	3019.29
410.64	3047.38
410.83	3187.81
411.02	3215.90
411.21	3248.66
411.40	3138.66
411.59	3194.83
411.78	3258.03
411.98	3187.81
412.17	3297.81
412.36	3335.26
412.55	3480.38
412.74	3433.57
412.93	3368.03
413.12	3412.50
413.31	3482.72
413.50	3599.74
413.69	3524.85
413.88	3571.66
414.07	3550.59
414.26	3632.51
414.45	3627.83
414.64	3700.39
414.83	3920.40
415.02	3805.71
415.22	3796.35
415.41	3913.38
415.60	3796.35
415.79	3941.46
415.98	4058.49
416.17	4035.08
416.36	3934.44
416.55	4014.02
416.74	4163.81
416.93	4112.32
417.12	4128.70
417.31	4175.52
417.50	4215.30
417.69	4456.38
417.88	4311.27
418.07	4351.06
418.26	4320.63
418.45	4306.59
418.64	4510.21
418.83	4409.57
419.02	4362.76
419.21	4601.49
419.39	4554.68
419.58	4550.00
419.77	4578.09
419.96	4580.43
420.15	4709.16
420.34	4582.77
420.53	4545.32
420.72	4613.20
420.91	4702.14
421.10	4807.46
421.29	4760.65
421.48	4697.46
421.67	4777.03
421.86	4739.58
422.05	4954.91
422.24	4922.15
422.43	4828.53
422.61	4959.60
422.80	5011.09
422.99	4800.44
423.18	5001.72
423.37	5064.92
423.56	4983.00
423.75	5074.28
423.94	4898.74
424.13	4683.41
424.32	4788.74
424.50	5006.41
424.69	5125.77
424.88	5235.78
425.07	5020.45
425.26	4821.50
425.45	5151.52
425.64	5029.81
425.83	4957.25
426.01	5055.56
426.20	4997.04
426.39	5093.01
426.58	5018.11
426.77	5142.16
426.96	5193.65
427.15	5214.71
427.33	5301.31
427.52	5109.39
427.71	5397.28
427.90	5252.16
428.09	5207.69
428.28	5420.68
428.46	5460.47
428.65	5341.10
428.84	5675.80
429.03	5472.17
429.22	5392.59
429.40	5479.19
429.59	5542.39
429.78	5423.02
429.97	5226.42
430.16	5490.90
430.34	5610.26
430.53	5790.49
430.72	5818.57
430.91	5577.50
431.10	5706.23
431.28	5689.84
431.47	5755.38
431.66	5928.58
431.85	5802.19
432.03	5935.60
432.22	6012.84
432.41	6001.13
432.60	5727.29
432.79	5989.43
432.97	5907.51
433.16	6085.39
433.35	6057.31
433.54	6267.95
433.72	6160.29
433.91	6101.78
434.10	6221.14
434.28	6141.57
434.47	6054.97
434.66	6183.70
434.85	6394.34
435.03	6427.11
435.22	6370.94
435.41	6518.39
435.59	6431.79
435.78	6572.22
435.97	6520.73
436.16	6494.99
436.34	6300.72
436.53	6567.54
436.72	6565.20
436.90	6539.46
437.09	6621.38
437.28	6558.18
437.46	6717.34
437.65	6719.68
437.84	6843.73
438.02	6939.69
438.21	6829.68
438.40	6672.87
438.58	6981.82
438.77	7101.19
438.96	7094.16
439.14	7236.94
439.33	7246.30
439.52	7300.13
439.70	7241.62
439.89	7389.07
440.08	7283.75
440.26	7356.30
440.45	7267.36
440.63	7515.46
440.82	7695.68
441.01	7585.68
441.19	7819.73
441.38	7808.03
441.57	7838.45
441.75	8079.53
441.94	7967.18
442.12	8182.51
442.31	8021.02
442.50	8131.02
442.68	7925.05
442.87	8168.47
443.05	8109.96
443.24	8231.66
443.43	8278.47
443.61	8290.18
443.80	8566.36
443.98	8250.39
444.17	7988.25
444.35	8285.50
444.54	8355.71
444.73	8468.06
444.91	8430.61
445.10	8283.16
445.28	8418.91
445.47	8484.44
445.65	8365.07
445.84	8575.72
446.02	8376.78
446.21	8369.76
446.39	8538.27
446.58	8655.30
446.77	8383.80
446.95	8318.26
447.14	8430.61
447.32	8793.39
447.51	8636.58
447.69	8507.85
447.88	8559.34
448.06	8645.94
448.25	8575.72
448.43	8650.62
448.62	8772.33
448.80	8758.28
448.99	8732.54
449.17	8814.46
449.36	8493.80
449.54	8854.25
449.73	9085.96
449.91	9078.94
450.10	8938.51
450.28	9146.81
450.46	9275.54
450.65	9135.11
450.83	8957.23
451.02	9085.96
451.20	9188.94
451.39	9341.08
451.57	9053.19
451.76	9146.81
451.94	9128.09
452.13	9336.40
452.31	9317.67
452.49	9032.13
452.68	9329.38
452.86	9603.22
453.05	9516.62
453.23	9479.17
453.42	9537.68
453.60	9467.47
453.78	9785.78
453.97	9425.34
454.15	9589.17
454.34	9563.43
454.52	9753.01
454.70	9689.82
454.89	9802.16
455.07	9891.10
455.26	10033.88
455.44	10167.29
455.62	9919.19
455.81	10139.20
455.99	9881.74
456.17	10033.88
456.36	10019.83
456.54	10216.44
456.73	10200.05
456.91	10586.24
457.09	10422.41
457.28	10501.98
457.46	10298.36
457.64	10724.33
457.83	10778.17
458.01	10492.62
458.19	11026.26
458.38	10789.87
458.56	10736.04
458.74	10607.31
458.93	10918.60
459.11	10813.28
459.29	10878.81
459.48	10867.11
459.66	10979.45
459.84	11012.22
460.03	11096.48
460.21	11190.10
460.39	11206.48
460.57	11199.46
460.76	11342.24
460.94	11183.08
461.12	11255.64
461.31	11405.43
461.49	11367.98
461.67	11225.21
461.85	11637.14
462.04	11449.90
462.22	11763.53
462.40	11639.48
462.59	11632.46
462.77	11623.10
462.95	11847.79
463.13	11583.31
463.32	11716.72
463.50	11789.28
463.68	12028.01
463.86	11896.94
464.05	11690.98
464.23	11800.98
464.41	12088.87
464.59	11702.68
464.78	12262.07
464.96	11955.46
465.14	11894.60
465.32	12088.87
465.50	12138.02
465.69	12189.51
465.87	12170.79
466.05	12255.04
466.23	12360.37
466.41	12308.88
466.60	12453.99
466.78	11922.69
466.96	12226.96
467.14	12594.42
467.32	12465.69
467.51	12641.23
467.69	12273.77
467.87	12446.97
468.05	12814.43
468.23	12697.41
468.41	12479.74
468.60	12650.60
468.78	12889.33
468.96	12704.43
469.14	12784.01
469.32	13186.58
469.50	12638.89
469.69	13324.67
469.87	13303.60
470.05	13097.64
470.23	13207.64
470.41	13294.24
470.59	13228.71
470.77	13415.95
470.95	13149.13
471.14	13762.35
471.32	13312.97
471.50	13745.97
471.68	13900.44
471.86	13582.13
472.04	13797.46
472.22	14317.06
472.40	13860.65
472.58	14015.13
472.77	13977.68
472.95	14211.73
473.13	14602.60
473.31	14305.35
473.49	14310.04
473.67	14164.92
473.85	14455.15
474.03	14647.07
474.21	14628.35
474.39	14803.89
474.57	14878.79
474.75	14977.09
474.93	15293.06
475.12	15002.83
475.30	15454.56
475.48	15197.10
475.66	15566.90
475.84	15344.55
476.02	15358.60
476.20	15438.17
476.38	15662.86
476.56	16020.97
476.74	16250.34
476.92	16030.33
477.10	16093.52
477.28	16517.16
477.46	16201.19
477.64	16645.89
477.82	16613.12
478.00	17095.27
478.18	17067.19
478.36	17205.28
478.54	17221.66
478.72	17083.57
478.90	17453.37
479.08	17682.75
479.26	17804.46
479.44	17900.42
479.62	18090.00
479.80	18370.86
479.98	18410.65
480.16	18609.60
480.34	18450.44
480.52	18654.07
480.70	18981.74
480.88	18530.02
481.06	18974.72
481.24	19243.88
481.41	19618.37
481.59	19571.56
481.77	19688.59
481.95	19639.44
482.13	20142.65
482.31	19749.44
482.49	20168.40
482.67	20339.26
482.85	20577.99
483.03	20737.15
483.21	21029.71
483.39	21324.62
483.57	20896.30
483.74	21223.98
483.92	21900.39
484.10	21481.44
484.28	21869.97
484.46	22092.32
484.64	22600.21
484.82	22429.35
485.00	22611.92
485.18	22761.71
485.35	23084.70
485.53	23023.85
485.71	23044.91
485.89	23510.68
486.07	23517.70
486.25	23756.44
486.43	24037.30
486.61	24273.70
486.78	24191.78
486.96	24442.21
487.14	24807.34
487.32	24751.17
487.50	24886.92
487.68	25376.09
487.85	25521.20
488.03	25947.18
488.21	26015.05
488.39	26181.23
488.57	26625.93
488.75	26532.31
488.92	26651.68
489.10	26962.97
489.28	26848.29
489.46	27316.39
489.64	27367.88
489.81	27615.98
489.99	27606.62
490.17	28013.87
490.35	28107.49
490.53	28325.16
490.70	28823.70
490.88	28804.97
491.06	29308.19
491.24	29116.26
491.41	28844.76
491.59	29567.99
491.77	29661.61
491.95	29795.02
492.13	29991.62
492.30	30127.38
492.48	30185.89
492.66	30389.52
492.84	30675.06
493.01	31063.59
493.19	30979.33
493.37	31381.90
493.54	31402.97
493.72	31873.42
493.90	31864.05
494.08	32065.34
494.25	32341.52
494.43	32229.18
494.61	32781.54
494.79	32790.91
494.96	32893.89
495.14	33013.26
495.32	33354.97
495.49	33380.72
495.67	33479.02
495.85	34178.84
496.02	34312.25
496.20	34459.71
496.38	34312.25
496.55	34235.02
496.73	35086.97
496.91	34925.47
497.09	35026.12
497.26	35629.98
497.44	35578.48
497.62	35211.02
497.79	36130.85
497.97	35627.63
498.14	36100.42
498.32	36701.94
498.50	36428.10
498.67	36947.70
498.85	36346.18
499.03	36870.46
499.20	36985.15
499.38	37071.75
499.56	37490.70
499.73	37294.10
499.91	37703.69
500.08	37883.91
500.26	37755.18
500.44	38017.32
500.61	38342.66
500.79	38309.89
500.97	38293.50
501.14	38944.17
501.32	39264.83
501.49	39070.56
501.67	38888.00
501.84	39412.28
502.02	39058.86
502.20	39491.86
502.37	39316.32
502.55	39779.74
502.72	40098.06
502.90	39634.63
503.07	39777.40
503.25	40416.37
503.43	40837.67
503.60	40243.17
503.78	40917.25
503.95	40430.41
504.13	41041.29
504.30	40837.67
504.48	40863.41
504.65	41013.21
504.83	41806.65
505.01	42146.03
505.18	41294.07
505.36	42047.72
505.53	41977.51
505.71	41897.93
505.88	42050.06
506.06	42026.66
506.23	41923.68
506.41	42490.09
506.58	42672.65
506.76	42642.22
506.93	42714.78
507.11	42808.40
507.28	42719.46
507.46	43660.35
507.63	43339.70
507.81	43576.09
507.98	43407.58
508.16	43456.73
508.33	44161.23
508.50	43746.95
508.68	44081.65
508.85	44179.95
509.03	44039.52
509.20	44332.09
509.38	44701.89
509.55	44683.17
509.73	44999.14
509.90	45495.33
510.08	45003.82
510.25	44694.87
510.42	44811.90
510.60	45448.52
510.77	45621.72
510.95	45823.01
511.12	45511.72
511.30	45579.59
511.47	46021.95
511.64	45958.76
511.82	45694.28
511.99	46103.87
512.17	46443.25
512.34	46803.69
512.51	46887.95
512.69	46625.81
512.86	46939.44
513.04	47028.38
513.21	46689.01
513.38	47302.23
513.56	47098.60
513.73	47271.80
513.90	47594.79
514.08	47096.26
514.25	47627.56
514.43	47690.76
514.60	47721.18
514.77	47311.59
514.95	48390.58
515.12	47917.79
515.29	48186.95
515.47	48196.31
515.64	48596.54
515.81	48254.82
515.99	48484.20
516.16	48797.83
516.33	48861.02
516.51	49338.49
516.68	48952.30
516.85	48727.61
517.03	49247.21
517.20	49422.75
517.37	49127.84
517.54	49397.01
517.72	49123.16
517.89	49242.53
518.06	49715.32
518.24	49544.46
518.41	49682.55
518.58	49848.73
518.75	49521.05
518.93	49827.66
519.10	49745.75
519.27	50277.05
519.45	50265.34
519.62	50363.65
519.79	50328.54
519.96	50225.56
520.14	50576.64
520.31	50461.95
520.48	50820.05
520.65	50827.07
520.83	50855.16
521.00	50990.91
521.17	50824.73
521.34	50892.61
521.52	51049.42
521.69	51136.02
521.86	51510.51
522.03	51611.15
522.20	51650.94
522.38	51870.95
522.55	51798.40
522.72	51955.21
522.89	51824.14
523.07	52093.30
523.24	51854.57
523.41	52039.47
523.58	51873.29
523.75	52425.66
523.92	52053.51
524.10	52481.83
524.27	52334.38
524.44	52252.46
524.61	52362.46
524.78	52949.94
524.96	52093.30
525.13	52584.82
525.30	53020.16
525.47	52786.10
525.64	52449.06
525.81	52779.08
525.98	53242.51
526.16	53102.07
526.33	52919.51
526.50	53389.96
526.67	53078.67
526.84	53041.22
527.01	53413.37
527.18	53392.30
527.36	53471.88
527.53	53420.39
527.70	53624.01
527.87	53434.43
528.04	53017.82
528.21	53675.51
528.38	53757.42
528.55	53785.51
528.72	53586.57
528.89	53911.90
529.07	54066.38
529.24	53553.80
529.41	53902.54
529.58	53759.76
529.75	54122.55
529.92	54099.14
530.09	54452.56
530.26	54216.17
530.43	54026.59
530.60	53708.27
530.77	54012.54
530.94	54419.80
531.11	54321.49
531.28	54349.58
531.46	54548.53
531.63	54468.95
531.80	54649.17
531.97	54609.38
532.14	54738.11
532.31	54635.13
532.48	54906.63
532.65	54983.86
532.82	54693.64
532.99	55072.81
533.16	54880.88
533.33	54869.18
533.50	55238.98
533.67	55009.61
533.84	55159.41
534.01	54981.52
534.18	55316.22
534.35	55702.41
534.52	55416.86
534.69	55274.09
534.86	55416.86
535.03	55042.38
535.20	55243.66
535.37	55767.94
535.54	55526.87
535.71	55442.61
535.88	55810.07
536.05	55430.91
536.22	55772.63
536.38	56065.19
536.55	55936.46
536.72	56058.17
536.89	55674.32
537.06	56039.45
537.23	56126.05
537.40	55896.67
537.57	55868.59
537.74	55915.40
537.91	56261.80
538.08	56184.56
538.25	56055.83
538.42	56083.92
538.59	56320.31
538.75	56303.93
538.92	56004.34
539.09	56533.30
539.26	56430.32
539.43	56617.56
539.60	56222.01
539.77	56507.55
539.94	56479.47
540.11	56526.28
540.28	56584.79
540.44	56617.56
540.61	56669.05
540.78	56692.46
540.95	56685.43
541.12	56711.18
541.29	56633.94
541.46	56828.21
541.62	56996.73
541.79	56875.02
541.96	56779.06
542.13	56910.13
542.30	57008.43
542.47	57125.46
542.63	57322.06
542.80	56999.07
542.97	57322.06
543.14	57282.27
543.31	57478.88
543.48	57698.89
543.64	57598.24
543.81	57607.61
543.98	57696.55
544.15	57490.58
544.32	57827.62
544.48	57930.60
544.65	57757.40
544.82	57736.34
544.99	57544.41
545.16	57631.01
545.32	57769.10
545.49	58164.65
545.66	57865.06
545.83	57930.60
546.00	58087.42
546.16	57970.39
546.33	57935.28
546.50	57921.24
546.67	57939.96
546.83	57794.85
547.00	58127.20
547.17	58024.22
547.34	57993.79
547.50	58239.55
547.67	58372.96
547.84	58117.84
548.00	58330.83
548.17	58581.27
548.34	58527.44
548.51	58581.27
548.67	58351.90
548.84	58443.18
549.01	58319.13
549.18	58571.91
549.34	58475.94
549.51	58653.82
549.68	58693.61
549.84	58621.06
550.01	58642.12
550.18	58480.63
550.34	59000.22
550.51	58721.70
550.68	58508.71
550.84	58499.35
551.01	58803.62
551.18	58756.81
551.34	58728.72
551.51	58862.13
551.68	58702.98
551.84	58717.02
552.01	58834.05
552.18	58915.96
552.34	58960.44
552.51	58962.78
552.68	58684.25
552.84	58791.92
553.01	59194.49
553.18	59269.39
553.34	58915.96
553.51	58981.50
553.67	59150.02
553.84	59103.21
554.01	59281.09
554.17	59306.83
554.34	59299.81
554.51	59288.11
554.67	59400.46
554.84	59133.63
555.00	59302.15
555.17	59194.49
555.33	59363.01
555.50	59096.19
555.67	59253.00
555.83	59208.53
556.00	59536.21
556.16	59606.42
556.33	59508.12
556.50	59578.34
556.66	59819.41
556.83	59323.22
556.99	59568.97
557.16	59650.89
557.32	59798.35
557.49	59592.38
557.65	59730.47
557.82	59599.40
557.98	59393.43
558.15	59592.38
558.32	59639.19
558.48	59561.95
558.65	59791.33
558.81	59725.79
558.98	59760.90
559.14	59861.54
559.31	60034.74
559.47	60013.68
559.64	59990.27
559.80	59894.31
559.97	60200.92
560.13	59721.11
560.30	59936.44
560.46	59906.01
560.63	60069.85
560.79	59976.23
560.96	59913.03
561.12	60168.15
561.29	59861.54
561.45	59957.50
561.61	60020.70
561.78	60116.66
561.94	60095.60
562.11	60044.10
562.27	60107.30
562.44	60280.50
562.60	60346.03
562.77	60268.79
562.93	59955.16
563.10	60214.96
563.26	60172.83
563.42	60317.95
563.59	60268.79
563.75	60331.99
563.92	60104.96
564.08	60229.01
564.24	60413.91
564.41	60418.59
564.57	60591.79
564.74	60420.93
564.90	60381.14
565.07	60294.54
565.23	60418.59
565.39	60430.29
565.56	60650.30
565.72	60413.91
565.88	60449.02
566.05	60350.71
566.21	60392.84
566.38	60640.94
566.54	60591.79
566.70	60383.48
566.87	60823.50
567.03	60451.36
567.19	60715.84
567.36	60533.28
567.52	60371.78
567.68	60790.73
567.85	60608.17
568.01	60793.07
568.17	60540.30
568.34	60753.29
568.50	60669.03
568.66	60659.66
568.83	60669.03
568.99	60397.52
569.15	60657.32
569.32	60467.74
569.48	60580.09
569.64	60837.54
569.81	60633.92
569.97	60662.00
570.13	60823.50
570.30	60685.41
570.46	60729.88
570.62	60676.05
570.78	60837.54
570.95	60725.20
571.11	60732.22
571.27	60657.32
571.43	60629.24
571.60	60816.48
571.76	60769.67
571.92	60963.93
572.09	60907.76
572.25	60837.54
572.41	60664.35
572.57	60996.70
572.74	60947.55
572.90	60807.12
573.06	60856.27
573.22	60940.53
573.38	60860.95
573.55	60797.76
573.71	61036.49
573.87	60856.27
574.03	60872.65
574.20	60884.36
574.36	60846.91
574.52	60743.92
574.68	60949.89
574.84	61076.28
575.01	60921.80
575.17	60924.14
575.33	60891.38
575.49	60879.67
575.65	61008.40
575.82	60949.89
575.98	60938.19
576.14	61282.25
576.30	61153.52
576.46	61073.94
576.62	61041.17
576.79	61048.19
576.95	60949.89
577.11	61097.34
577.27	60966.27
577.43	61153.52
577.59	60788.39
577.75	60891.38
577.92	60886.70
578.08	61071.60
578.24	61069.26
578.40	61249.48
578.56	61291.61
578.72	60994.36
578.88	61155.86
579.04	61092.66
579.21	61230.75
579.37	61418.00
579.53	61324.38
579.69	60886.70
579.85	60940.53
580.01	61240.12
580.17	60912.44
580.33	61141.81
580.49	61226.07
580.65	61284.59
580.82	61041.17
580.98	61076.28
581.14	60959.25
581.30	61338.42
581.46	61169.90
581.62	61200.33
581.78	61055.21
581.94	61120.75
582.10	61158.20
582.26	61219.05
582.42	61034.15
582.58	61247.14
582.74	61167.56
582.90	61190.97
583.06	61125.43
583.22	60905.42
583.38	61242.46
583.54	61249.48
583.70	61286.93
583.86	61221.39
584.02	60933.51
584.18	61106.71
584.34	60968.61
584.50	61380.55
584.66	61069.26
584.82	60949.89
584.98	61282.25
585.14	61258.84
585.30	61153.52
585.46	60989.68
585.62	61240.12
585.78	61343.10
585.94	61132.45
586.10	61188.63
586.26	61315.01
586.42	61432.04
586.58	61160.54
586.74	61471.83
586.90	61226.07
587.06	61059.90
587.22	61633.33
587.38	61160.54
587.54	61528.00
587.70	61333.74
587.86	61333.74
588.02	61347.78
588.18	61434.38
588.34	61261.18
588.49	61331.40
