SpectraSuite Data File
++++++++++++++++++++++++++++++++++++
Date: Fri Oct 25 11:23:21 EDT 2013
User: price-jones
Dark Spectrum Present: No
Reference Spectrum Present: No
Number of Sampled Component Spectra: 1
Spectrometers: USB2+H05261
Integration Time (usec): 100000 (USB2+H05261)
Spectra Averaged: 1 (USB2+H05261)
Boxcar Smoothing: 0 (USB2+H05261)
Correct for Electrical Dark: No (USB2+H05261)
Strobe/Lamp Enabled: No (USB2+H05261)
Correct for Detector Non-linearity: No (USB2+H05261)
Correct for Stray Light: No (USB2+H05261)
Number of Pixels in Processed Spectrum: 2048
>>>>>Begin Processed Spectral Data<<<<<
365.73	257.46
365.92	257.46
366.12	257.46
366.32	175.54
366.52	72.56
366.72	152.13
366.91	182.56
367.11	121.71
367.31	46.81
367.51	126.39
367.70	95.96
367.90	159.16
368.10	102.98
368.30	112.35
368.49	147.45
368.69	126.39
368.89	95.96
369.09	124.05
369.28	159.16
369.48	182.56
369.68	138.09
369.87	163.84
370.07	229.37
370.27	222.35
370.47	287.89
370.66	582.79
370.86	739.61
371.06	645.99
371.25	624.92
371.45	709.18
371.65	636.63
371.84	620.24
372.04	645.99
372.24	674.07
372.44	706.84
372.63	753.65
372.83	695.14
373.03	763.01
373.22	702.16
373.42	755.99
373.62	767.70
373.81	760.67
374.01	816.85
374.21	720.88
374.40	784.08
374.60	922.17
374.79	802.80
374.99	908.13
375.19	849.61
375.38	798.12
375.58	821.53
375.78	870.68
375.97	863.66
376.17	870.68
376.37	826.21
376.56	849.61
376.76	849.61
376.95	880.04
377.15	950.26
377.35	961.96
377.54	840.25
377.74	947.92
377.93	837.91
378.13	959.62
378.33	847.27
378.52	954.94
378.72	891.74
378.91	1013.45
379.11	896.43
379.31	912.81
379.50	1032.18
379.70	971.32
379.89	973.66
380.09	999.41
380.28	994.73
380.48	999.41
380.68	884.72
380.87	1046.22
381.07	1008.77
381.26	957.28
381.46	936.21
381.65	971.32
381.85	999.41
382.04	1104.73
382.24	973.66
382.43	1032.18
382.63	1048.56
382.83	1020.47
383.02	1114.10
383.22	1130.48
383.41	1022.81
383.61	1083.67
383.80	1158.57
384.00	1125.80
384.19	1081.33
384.39	1137.50
384.58	1193.67
384.78	1050.90
384.97	1203.04
385.17	1100.05
385.36	1193.67
385.56	1184.31
385.75	1165.59
385.95	1107.07
386.14	1221.76
386.34	1193.67
386.53	1184.31
386.72	1291.98
386.92	1289.64
387.11	1245.16
387.31	1235.80
387.50	1303.68
387.70	1107.07
387.89	1196.01
388.09	1210.06
388.28	1231.12
388.48	1226.44
388.67	1362.19
388.86	1291.98
389.06	1329.42
389.25	1366.87
389.45	1373.89
389.64	1287.29
389.84	1432.41
390.03	1287.29
390.22	1425.39
390.42	1373.89
390.61	1462.83
390.81	1448.79
391.00	1350.49
391.19	1369.21
391.39	1432.41
391.58	1425.39
391.78	1411.34
391.97	1427.73
392.16	1425.39
392.36	1497.94
392.55	1526.03
392.75	1486.24
392.94	1509.65
393.13	1465.18
393.33	1437.09
393.52	1519.01
393.71	1666.46
393.91	1589.22
394.10	1570.50
394.29	1565.82
394.49	1547.09
394.68	1636.03
394.88	1619.65
395.07	1565.82
395.26	1621.99
395.46	1673.48
395.65	1769.44
395.84	1659.44
396.04	1720.29
396.23	1797.53
396.42	1748.38
396.62	1788.17
396.81	1818.60
397.00	1790.51
397.19	1689.87
397.39	1732.00
397.58	1916.90
397.77	1844.34
397.97	1916.90
398.16	1898.17
398.35	1914.56
398.55	2050.31
398.74	1837.32
398.93	1987.11
399.12	1947.33
399.32	1914.56
399.51	1944.99
399.70	1947.33
399.90	1888.81
400.09	2062.01
400.28	1956.69
400.47	1966.05
400.67	2139.25
400.86	2064.35
401.05	2139.25
401.24	2230.53
401.44	2153.29
401.63	2073.71
401.82	2139.25
402.01	2059.67
402.21	2150.95
402.40	2153.29
402.59	2207.13
402.78	2127.55
402.97	2277.34
403.17	2246.91
403.36	2333.51
403.55	2232.87
403.74	2349.90
403.93	2296.07
404.13	2392.03
404.32	2328.83
404.51	2310.11
404.70	2431.82
404.89	2420.11
405.09	2469.27
405.28	2495.01
405.47	2544.16
405.66	2560.55
405.85	2513.74
406.05	2553.52
406.24	2612.04
406.43	2558.21
406.62	2675.23
406.81	2654.17
407.00	2595.65
407.20	2567.57
407.39	2553.52
407.58	2789.92
407.77	2640.12
407.96	2841.41
408.15	2724.38
408.34	2670.55
408.54	2839.07
408.73	2752.47
408.92	2729.06
409.11	2874.18
409.30	2909.29
409.49	2965.46
409.68	2904.60
409.87	2972.48
410.07	2925.67
410.26	3047.38
410.45	2963.12
410.64	3038.02
410.83	3124.62
411.02	3145.68
411.21	3215.90
411.40	2963.12
411.59	3108.23
411.78	3155.04
411.98	3232.28
412.17	3339.94
412.36	3220.58
412.55	3410.16
412.74	3431.23
412.93	3293.13
413.12	3375.05
413.31	3445.27
413.50	3485.06
413.69	3501.44
413.88	3723.79
414.07	3599.74
414.26	3611.45
414.45	3576.34
414.64	3747.20
414.83	3770.60
415.02	3667.62
415.22	3826.78
415.41	3847.84
415.60	3885.29
415.79	3906.35
415.98	3927.42
416.17	3911.04
416.36	3843.16
416.55	3983.59
416.74	4159.13
416.93	3955.51
417.12	4004.66
417.31	4320.63
417.50	4259.78
417.69	4269.14
417.88	4252.75
418.07	4259.78
418.26	4311.27
418.45	4184.88
418.64	4447.02
418.83	4351.06
419.02	4411.91
419.21	4407.23
419.39	4559.36
419.58	4610.86
419.77	4416.59
419.96	4629.58
420.15	4664.69
420.34	4559.36
420.53	4617.88
420.72	4716.18
420.91	4741.93
421.10	4823.84
421.29	4610.86
421.48	4610.86
421.67	4821.50
421.86	4627.24
422.05	4718.52
422.24	4847.25
422.43	4929.17
422.61	4868.31
422.80	4936.19
422.99	4936.19
423.18	4938.53
423.37	5060.24
423.56	4858.95
423.75	4997.04
423.94	4933.85
424.13	4531.28
424.32	4849.59
424.50	5116.41
424.69	5006.41
424.88	5174.92
425.07	4849.59
425.26	4990.02
425.45	5041.51
425.64	5135.14
425.83	4882.36
426.01	5018.11
426.20	5093.01
426.39	5050.88
426.58	5055.56
426.77	5029.81
426.96	5142.16
427.15	5039.17
427.33	5125.77
427.52	5151.52
427.71	5198.33
427.90	5261.52
428.09	5179.61
428.28	5511.96
428.46	5343.44
428.65	5369.19
428.84	5521.32
429.03	5523.66
429.22	5380.89
429.40	5467.49
429.59	5509.62
429.78	5294.29
429.97	5350.46
430.16	5453.45
430.34	5533.03
430.53	5717.93
430.72	5554.09
430.91	5579.84
431.10	5451.11
431.28	5921.56
431.47	5771.76
431.66	5734.31
431.85	5771.76
432.03	6010.50
432.22	5956.66
432.41	5989.43
432.60	5900.49
432.79	5970.71
432.97	5893.47
433.16	5856.02
433.35	5930.92
433.54	5959.00
433.72	6113.48
433.91	5966.03
434.10	6218.80
434.28	6148.59
434.47	6143.91
434.66	6242.21
434.85	6272.64
435.03	6256.25
435.22	6193.06
435.41	6464.56
435.59	6335.83
435.78	6321.79
435.97	6567.54
436.16	6214.12
436.34	6654.14
436.53	6509.03
436.72	6604.99
436.90	6359.24
437.09	6621.38
437.28	6523.07
437.46	6509.03
437.65	6597.97
437.84	6764.15
438.02	6829.68
438.21	6829.68
438.40	6614.35
438.58	6932.67
438.77	7131.61
438.96	6937.35
439.14	7089.48
439.33	7234.60
439.52	7143.32
439.70	7019.27
439.89	7260.34
440.08	7269.70
440.26	7311.83
440.45	7295.45
440.63	7410.14
440.82	7616.10
441.01	7515.46
441.19	7576.31
441.38	7887.61
441.57	7737.81
441.75	7620.78
441.94	8056.12
442.12	7854.84
442.31	8086.55
442.50	7985.91
442.68	8044.42
442.87	8065.49
443.05	8400.18
443.24	8074.85
443.43	8177.83
443.61	8074.85
443.80	8451.67
443.98	7943.78
444.17	7922.71
444.35	8084.21
444.54	8381.46
444.73	8346.35
444.91	8215.28
445.10	8320.60
445.28	8016.33
445.47	8238.69
445.65	8180.17
445.84	8545.30
446.02	8336.99
446.21	8472.74
446.39	8292.52
446.58	8535.93
446.77	8496.14
446.95	8280.82
447.14	8517.21
447.32	8514.87
447.51	8432.95
447.69	8400.18
447.88	8622.53
448.06	8514.87
448.25	8512.53
448.43	8603.81
448.62	8608.49
448.80	8418.91
448.99	8748.92
449.17	8549.98
449.36	8706.79
449.54	8863.61
449.73	8875.31
449.91	8978.30
450.10	8903.40
450.28	8882.33
450.46	8758.28
450.65	8954.89
450.83	8936.17
451.02	9100.00
451.20	9156.18
451.39	9151.49
451.57	8908.08
451.76	8863.61
451.94	9202.99
452.13	9224.05
452.31	9125.75
452.49	9170.22
452.68	9303.63
452.86	9317.67
453.05	9380.87
453.23	9352.78
453.42	9343.42
453.60	9465.13
453.78	9514.28
453.97	9373.85
454.15	9565.77
454.34	9327.03
454.52	9575.13
454.70	9699.18
454.89	9748.33
455.07	9729.61
455.26	9748.33
455.44	9858.34
455.62	9954.30
455.81	9816.21
455.99	9898.13
456.17	10054.94
456.36	10143.88
456.54	10129.84
456.73	10129.84
456.91	10431.77
457.09	10406.02
457.28	10619.01
457.46	10396.66
457.64	10520.71
457.83	10513.69
458.01	10373.25
458.19	10616.67
458.38	10696.25
458.56	10778.17
458.74	10689.23
458.93	10459.85
459.11	10913.92
459.29	10710.29
459.48	10934.98
459.66	10736.04
459.84	10937.32
460.03	10967.75
460.21	10895.19
460.39	11063.71
460.57	11030.94
460.76	11215.85
460.94	11325.85
461.12	10995.84
461.31	11257.98
461.49	11030.94
461.67	11108.18
461.85	11482.67
462.04	11360.96
462.22	11602.04
462.40	11595.01
462.59	11688.64
462.77	11499.05
462.95	11681.61
463.13	11538.84
463.32	11531.82
463.50	11489.69
463.68	11712.04
463.86	11798.64
464.05	11702.68
464.23	11882.90
464.41	11737.79
464.59	11566.93
464.78	12013.97
464.96	12056.10
465.14	11880.56
465.32	11765.87
465.50	11997.59
465.69	12020.99
465.87	12266.75
466.05	12154.40
466.23	12037.38
466.41	12156.74
466.60	12346.33
466.78	12173.13
466.96	12411.86
467.14	12292.49
467.32	12596.76
467.51	12615.49
467.69	11960.14
467.87	12423.56
468.05	12355.69
468.23	12685.70
468.41	12641.23
468.60	12491.44
468.78	12915.08
468.96	12676.34
469.14	12734.85
469.32	13027.42
469.50	12379.09
469.69	12816.77
469.87	12994.65
470.05	13011.04
470.23	13249.77
470.41	13268.50
470.59	13366.80
470.77	12973.59
470.95	13142.11
471.14	13420.63
471.32	13088.28
471.50	13420.63
471.68	13614.90
471.86	13507.23
472.04	13823.20
472.22	13874.70
472.40	13696.82
472.58	13851.29
472.77	13973.00
472.95	14185.99
473.13	14361.53
473.31	14111.09
473.49	14204.71
473.67	14012.79
473.85	14548.77
474.03	14672.82
474.21	14490.26
474.39	14815.59
474.57	14679.84
474.75	14801.55
474.93	14764.10
475.12	14686.86
475.30	15040.28
475.48	15030.92
475.66	15236.89
475.84	15286.04
476.02	15346.89
476.20	15426.47
476.38	15527.11
476.56	15857.13
476.74	16058.42
476.92	15857.13
477.10	15896.92
477.28	15922.66
477.46	16414.18
477.64	16142.67
477.82	16290.13
478.00	17006.33
478.18	16905.69
478.36	17011.01
478.54	17132.72
478.72	17097.61
478.90	17212.30
479.08	17469.76
479.26	17547.00
479.44	17694.45
479.62	18160.22
479.80	17806.80
479.98	18136.81
480.16	18679.82
480.34	18218.73
480.52	18853.02
480.70	18794.50
480.88	18221.07
481.06	18625.98
481.24	18487.89
481.41	18986.43
481.59	19269.63
481.77	19707.31
481.95	19690.93
482.13	19906.26
482.31	19719.01
482.49	20219.89
482.67	20051.37
482.85	20381.38
483.03	20168.40
483.21	21001.63
483.39	21301.22
483.57	20886.94
483.74	21179.51
483.92	21425.26
484.10	21348.03
484.28	21759.96
484.46	21886.35
484.64	22057.21
484.82	22059.55
485.00	22356.80
485.18	22742.99
485.35	22750.01
485.53	23073.00
485.71	23337.48
485.89	23428.76
486.07	23239.18
486.25	23468.55
486.43	23686.22
486.61	24025.60
486.78	23814.95
486.96	24173.05
487.14	24496.05
487.32	24669.25
487.50	24575.62
487.68	25048.41
487.85	25186.50
488.03	25500.14
488.21	26045.48
488.39	26204.64
488.57	26089.95
488.75	26061.87
488.92	26169.53
489.10	26771.05
489.28	26478.48
489.46	26946.59
489.64	26752.32
489.81	27812.59
489.99	27718.96
490.17	27625.34
490.35	27990.47
490.53	28114.52
490.70	28458.57
490.88	27793.86
491.06	28809.65
491.24	28725.39
491.41	28891.57
491.59	29488.41
491.77	29675.65
491.95	29378.40
492.13	29921.41
492.30	30288.87
492.48	29876.94
492.66	29933.11
492.84	30321.64
493.01	30595.48
493.19	30543.99
493.37	30773.36
493.54	31257.85
493.72	31445.10
493.90	31192.32
494.08	31569.15
494.25	32201.09
494.43	31653.40
494.61	32095.77
494.79	32215.13
494.96	32421.10
495.14	33273.06
495.32	33001.55
495.49	33130.28
495.67	33266.03
495.85	33282.42
496.02	33762.23
496.20	33921.38
496.38	34295.87
496.55	34038.41
496.73	34693.76
496.91	34513.54
497.09	34878.66
497.26	35101.01
497.44	35496.56
497.62	35056.54
497.79	35695.51
497.97	35267.19
498.14	35971.69
498.32	36177.66
498.50	36294.69
498.67	36172.98
498.85	36407.03
499.03	36662.15
499.20	36739.39
499.38	36811.95
499.56	36598.96
499.73	36987.49
499.91	37298.78
500.08	37713.05
500.26	36966.42
500.44	37324.52
500.61	37972.85
500.79	37991.58
500.97	38040.73
501.14	38705.44
501.32	38738.21
501.49	38445.64
501.67	38476.07
501.84	38855.23
502.02	38824.81
502.20	38953.54
502.37	39306.96
502.55	39246.10
502.72	39206.31
502.90	39426.32
503.07	39391.22
503.25	39688.46
503.43	39896.77
503.60	39655.70
503.78	40034.86
503.95	40294.66
504.13	40582.55
504.30	40725.32
504.48	40261.90
504.65	40818.94
504.83	40938.31
505.01	41408.76
505.18	41329.18
505.36	41748.14
505.53	42099.22
505.71	41977.51
505.88	41963.46
506.06	41645.15
506.23	41790.27
506.41	41841.76
506.58	42071.13
506.76	41834.74
506.93	42824.78
507.11	42017.30
507.28	42672.65
507.46	42572.00
507.63	42728.82
507.81	43175.86
507.98	43042.45
508.16	43152.46
508.33	43122.03
508.50	43433.32
508.68	43597.16
508.85	44044.20
509.03	43714.19
509.20	44156.55
509.38	44156.55
509.55	44107.40
509.73	44603.59
509.90	44629.34
510.08	44322.72
510.25	44734.66
510.42	44722.96
510.60	45116.17
510.77	44781.47
510.95	45268.30
511.12	45158.30
511.30	44807.22
511.47	45223.83
511.64	45422.78
511.82	46082.81
511.99	45577.25
512.17	46169.41
512.34	45673.21
512.51	46862.21
512.69	46595.38
512.86	46354.31
513.04	46646.88
513.21	46539.21
513.38	47004.98
513.56	46965.19
513.73	46995.62
513.90	47068.17
514.08	46815.40
514.25	47349.04
514.43	47030.72
514.60	47498.83
514.77	47295.21
514.95	47599.47
515.12	47817.14
515.29	47772.67
515.47	47931.83
515.64	47992.68
515.81	47807.78
515.99	47934.17
516.16	48315.68
516.33	48271.21
516.51	48823.58
516.68	48893.79
516.85	48615.27
517.03	48982.73
517.20	49146.57
517.37	48505.26
517.54	48774.42
517.72	48982.73
517.89	49043.59
518.06	48947.62
518.24	49162.95
518.41	49394.67
518.58	49195.72
518.75	49263.60
518.93	49469.56
519.10	49525.74
519.27	49787.88
519.45	49811.28
519.62	50134.28
519.79	49928.31
519.96	50265.34
520.14	50157.68
520.31	50305.13
520.48	50438.54
520.65	50312.16
520.83	50815.37
521.00	50766.22
521.17	50831.75
521.34	50483.01
521.52	50550.89
521.69	50808.35
521.86	50981.55
522.03	51171.13
522.20	51079.85
522.38	51433.27
522.55	51578.39
522.72	51444.98
522.89	51381.78
523.07	51564.34
523.24	51337.31
523.41	51765.63
523.58	51477.74
523.75	51718.82
523.92	51800.74
524.10	51952.87
524.27	52207.99
524.44	51882.66
524.61	51856.91
524.78	52179.90
524.96	52296.93
525.13	52259.48
525.30	52505.24
525.47	52835.25
525.64	52161.18
525.81	52493.54
525.98	52608.22
526.16	52631.63
526.33	52559.07
526.50	52882.06
526.67	52961.64
526.84	52910.15
527.01	52547.37
527.18	52746.31
527.36	52905.47
527.53	52795.46
527.70	53506.99
527.87	53104.41
528.04	53221.44
528.21	53495.28
528.38	53371.24
528.55	53539.75
528.72	53254.21
528.89	53240.17
529.07	53490.60
529.24	53514.01
529.41	53811.26
529.58	53689.55
529.75	53804.24
529.92	53897.86
530.09	54024.25
530.26	54101.48
530.43	54176.38
530.60	53773.81
530.77	54054.67
530.94	54035.95
531.11	54073.40
531.28	53970.41
531.46	53996.16
531.63	54190.42
531.80	54319.15
531.97	54281.70
532.14	54382.35
532.31	54534.48
532.48	54424.48
532.65	54747.47
532.82	54478.31
532.99	54595.34
533.16	54581.29
533.33	54649.17
533.50	54906.63
533.67	55042.38
533.84	54525.12
534.01	54635.13
534.18	55138.34
534.35	55257.71
534.52	55077.49
534.69	55161.75
534.86	55412.18
535.03	55143.02
535.20	55100.89
535.37	55344.31
535.54	55393.46
535.71	55164.09
535.88	55243.66
536.05	55650.92
536.22	55576.02
536.38	55664.96
536.55	55557.30
536.72	55540.91
536.89	55477.72
537.06	55611.13
537.23	55711.77
537.40	55561.98
537.57	55849.86
537.74	55805.39
537.91	56009.02
538.08	55791.35
538.25	55765.60
538.42	56067.53
538.59	56055.83
538.75	55611.13
538.92	55962.21
539.09	56114.34
539.26	56299.25
539.43	56144.77
539.60	56350.74
539.77	56250.09
539.94	56334.35
540.11	56147.11
540.28	56360.10
540.44	56268.82
540.61	56322.65
540.78	56530.96
540.95	56289.88
541.12	56294.56
541.29	56570.75
541.46	56392.87
541.62	56498.19
541.79	56697.14
541.96	56324.99
542.13	56526.28
542.30	56734.59
542.47	56893.74
542.63	57097.37
542.80	56699.48
542.97	57230.78
543.14	57254.18
543.31	56928.85
543.48	57148.86
543.64	57542.07
543.81	57345.47
543.98	57305.68
544.15	57364.19
544.32	57368.87
544.48	57621.65
544.65	57261.21
544.82	57394.62
544.99	57202.69
545.16	57436.75
545.32	57284.61
545.49	57579.52
545.66	57654.42
545.83	57647.39
546.00	57813.57
546.16	57645.05
546.33	57584.20
546.50	57406.32
546.67	57939.96
546.83	57347.81
547.00	57694.21
547.17	57584.20
547.34	57628.67
547.50	57750.38
547.67	58092.10
547.84	57759.74
548.00	58106.14
548.17	58232.53
548.34	57951.66
548.51	58148.27
548.67	58176.36
548.84	57883.79
549.01	57949.32
549.18	58166.99
549.34	58138.91
549.51	58391.68
549.68	58223.17
549.84	58520.41
550.01	58431.47
550.18	58197.42
550.34	58489.99
550.51	58663.19
550.68	58192.74
550.84	58251.25
551.01	58520.41
551.18	58433.81
551.34	58489.99
551.51	58391.68
551.68	58468.92
551.84	58684.25
552.01	58461.90
552.18	58714.68
552.34	58539.14
552.51	58822.34
552.68	58660.85
552.84	58681.91
553.01	59037.67
553.18	58904.26
553.34	58988.52
553.51	58698.30
553.67	58700.64
553.84	58990.86
554.01	59126.61
554.17	58965.12
554.34	59054.06
554.51	58890.22
554.67	59206.19
554.84	59164.06
555.00	59065.76
555.17	58869.15
555.33	58988.52
555.50	58871.49
555.67	58995.54
555.83	59126.61
556.00	59023.63
556.16	59353.65
556.33	59260.02
556.50	59276.41
556.66	59283.43
556.83	59222.58
556.99	59515.14
557.16	59531.53
557.32	59285.77
557.49	59512.80
557.65	59353.65
557.82	59332.58
557.98	59337.26
558.15	59334.92
558.32	59461.31
558.48	59353.65
558.65	59540.89
558.81	59498.76
558.98	59587.70
559.14	59744.51
559.31	59716.43
559.47	59522.16
559.64	59742.17
559.80	59709.41
559.97	59817.07
560.13	59529.19
560.30	59643.87
560.46	59777.28
560.63	59824.09
560.79	59859.20
560.96	59749.20
561.12	59744.51
561.29	59840.48
561.45	59852.18
561.61	59723.45
561.78	59831.11
561.94	59770.26
562.11	59838.14
562.27	59711.75
562.44	60079.21
562.60	60055.81
562.77	59877.93
562.93	59723.45
563.10	60154.11
563.26	59739.83
563.42	60203.26
563.59	59891.97
563.75	59898.99
563.92	60179.85
564.08	59992.61
564.24	60158.79
564.41	59957.50
564.57	60236.03
564.74	60072.19
564.90	60133.04
565.07	60168.15
565.23	60140.07
565.39	60186.88
565.56	60357.74
565.72	60224.32
565.88	60266.45
566.05	59999.63
566.21	60186.88
566.38	60170.49
566.54	60294.54
566.70	60514.55
566.87	60362.42
567.03	60266.45
567.19	60638.60
567.36	60172.83
567.52	60348.37
567.68	60395.18
567.85	60439.65
568.01	60500.51
568.17	60121.34
568.34	60460.72
568.50	60299.22
568.66	60275.82
568.83	60416.25
568.99	60346.03
569.15	60313.26
569.32	60498.17
569.48	60402.21
569.64	60449.02
569.81	60535.62
569.97	60350.71
570.13	60498.17
570.30	60367.10
570.46	60521.57
570.62	60561.36
570.78	60502.85
570.95	60425.61
571.11	60530.93
571.27	60470.08
571.43	60638.60
571.60	60729.88
571.76	60615.19
571.92	60727.54
572.09	60573.06
572.25	60711.16
572.41	60493.49
572.57	60416.25
572.74	60725.20
572.90	60509.87
573.06	60605.83
573.22	60542.64
573.38	60793.07
573.55	60636.26
573.71	60938.19
573.87	60598.81
574.03	60528.59
574.20	60842.23
574.36	60612.85
574.52	60809.46
574.68	60889.04
574.84	60830.52
575.01	60844.57
575.17	60683.07
575.33	60788.39
575.49	60673.71
575.65	60879.67
575.82	60858.61
575.98	60907.76
576.14	61045.85
576.30	60776.69
576.46	61036.49
576.62	60718.18
576.79	60844.57
576.95	60713.50
577.11	60762.65
577.27	60912.44
577.43	60935.85
577.59	60591.79
577.75	60699.45
577.92	60736.90
578.08	60694.77
578.24	60739.24
578.40	61041.17
578.56	61010.74
578.72	60795.42
578.88	61071.60
579.04	61057.56
579.21	61062.24
579.37	61106.71
579.53	60982.66
579.69	60779.03
579.85	60956.91
580.01	60973.30
580.17	60968.61
580.33	60947.55
580.49	60994.36
580.65	60949.89
580.82	60860.95
580.98	60889.04
581.14	60797.76
581.30	60921.80
581.46	60867.97
581.62	61148.84
581.78	61048.19
581.94	60996.70
582.10	60877.33
582.26	60858.61
582.42	60917.12
582.58	60977.98
582.74	60963.93
582.90	61055.21
583.06	61038.83
583.22	60774.35
583.38	61195.65
583.54	61059.90
583.70	61106.71
583.86	61038.83
584.02	60865.63
584.18	60896.06
584.34	61015.43
584.50	60919.46
584.66	60727.54
584.82	60907.76
584.98	61190.97
585.14	61223.73
585.30	60973.30
585.46	61043.51
585.62	60846.91
585.78	61223.73
585.94	60870.31
586.10	61059.90
586.26	60931.17
586.42	61102.03
586.58	61130.11
586.74	61160.54
586.90	60921.80
587.06	61006.06
587.22	61083.30
587.38	60947.55
587.54	61146.50
587.70	61209.69
587.86	61095.00
588.02	60949.89
588.18	61169.90
588.34	61045.85
588.49	61153.52
