SpectraSuite Data File
++++++++++++++++++++++++++++++++++++
Date: Fri Oct 25 10:43:29 EDT 2013
User: price-jones
Dark Spectrum Present: No
Reference Spectrum Present: No
Number of Sampled Component Spectra: 1
Spectrometers: USB2+H05261
Integration Time (usec): 100000 (USB2+H05261)
Spectra Averaged: 1 (USB2+H05261)
Boxcar Smoothing: 0 (USB2+H05261)
Correct for Electrical Dark: No (USB2+H05261)
Strobe/Lamp Enabled: No (USB2+H05261)
Correct for Detector Non-linearity: No (USB2+H05261)
Correct for Stray Light: No (USB2+H05261)
Number of Pixels in Processed Spectrum: 2048
>>>>>Begin Processed Spectral Data<<<<<
365.73	93.62
365.92	93.62
366.12	93.62
366.32	28.09
366.52	58.51
366.72	28.09
366.91	77.24
367.11	49.15
367.31	58.51
367.51	4.68
367.70	79.58
367.90	25.75
368.10	67.88
368.30	60.85
368.49	0.00
368.69	35.11
368.89	70.22
369.09	58.51
369.28	0.00
369.48	0.00
369.68	53.83
369.87	74.90
370.07	70.22
370.27	46.81
370.47	187.24
370.66	386.19
370.86	409.59
371.06	416.62
371.25	465.77
371.45	442.36
371.65	407.25
371.84	393.21
372.04	528.96
372.24	486.83
372.44	470.45
372.63	533.64
372.83	489.17
373.03	512.58
373.22	519.60
373.42	465.77
373.62	571.09
373.81	578.11
374.01	514.92
374.21	535.98
374.40	463.43
374.60	533.64
374.79	528.96
374.99	528.96
375.19	601.52
375.38	606.20
375.58	667.05
375.78	599.18
375.97	662.37
376.17	613.22
376.37	521.94
376.56	606.20
376.76	573.43
376.95	617.90
377.15	596.84
377.35	589.82
377.54	596.84
377.74	683.44
377.93	580.45
378.13	655.35
378.33	688.12
378.52	674.07
378.72	671.73
378.91	587.47
379.11	601.52
379.31	653.01
379.50	657.69
379.70	709.18
379.89	660.03
380.09	629.60
380.28	744.29
380.48	704.50
380.68	685.78
380.87	692.80
381.07	627.26
381.26	744.29
381.46	688.12
381.65	697.48
381.85	657.69
382.04	641.31
382.24	653.01
382.43	685.78
382.63	788.76
382.83	671.73
383.02	744.29
383.22	751.31
383.41	692.80
383.61	770.04
383.80	851.96
384.00	805.14
384.19	772.38
384.39	854.30
384.58	807.48
384.78	863.66
384.97	774.72
385.17	713.86
385.36	770.04
385.56	858.98
385.75	807.48
385.95	828.55
386.14	854.30
386.34	854.30
386.53	847.27
386.72	856.64
386.92	894.08
387.11	812.17
387.31	910.47
387.50	753.65
387.70	823.87
387.89	870.68
388.09	870.68
388.28	866.00
388.48	856.64
388.67	919.83
388.86	968.98
389.06	919.83
389.25	1015.79
389.45	931.53
389.64	933.87
389.84	1053.24
390.03	952.60
390.22	959.62
390.42	943.24
390.61	990.05
390.81	1043.88
391.00	1032.18
391.19	1081.33
391.39	1114.10
391.58	1071.97
391.78	1067.28
391.97	1081.33
392.16	990.05
392.36	1046.22
392.55	1029.84
392.75	997.07
392.94	971.32
393.13	947.92
393.33	966.64
393.52	1050.90
393.71	1022.81
393.91	1078.99
394.10	1139.84
394.29	1062.60
394.49	1151.54
394.68	1116.44
394.88	1261.55
395.07	1341.13
395.26	1205.38
395.46	1179.63
395.65	1219.42
395.84	1226.44
396.04	1219.42
396.23	1217.08
396.42	1132.82
396.62	1071.97
396.81	1224.10
397.00	1179.63
397.19	1256.87
397.39	1331.76
397.58	1357.51
397.77	1301.34
397.97	1472.20
398.16	1371.55
398.35	1437.09
398.55	1329.42
398.74	1380.92
398.93	1607.95
399.12	1528.37
399.32	1376.24
399.51	1448.79
399.70	1589.22
399.90	1472.20
400.09	1556.46
400.28	1556.46
400.47	1488.58
400.67	1680.50
400.86	1650.08
401.05	1582.20
401.24	1753.06
401.44	1638.38
401.63	1682.85
401.82	1668.80
402.01	1769.44
402.21	1781.15
402.40	1696.89
402.59	1764.76
402.78	1748.38
402.97	1734.34
403.17	1774.13
403.36	1750.72
403.55	1884.13
403.74	1853.70
403.93	1879.45
404.13	1930.94
404.32	1802.21
404.51	1851.36
404.70	1898.17
404.89	1839.66
405.09	1966.05
405.28	1937.96
405.47	1933.28
405.66	1923.92
405.85	1888.81
406.05	2005.84
406.24	1909.88
406.43	2012.86
406.62	2139.25
406.81	2136.91
407.00	1963.71
407.20	2085.42
407.39	2073.71
407.58	2143.93
407.77	2209.47
407.96	2186.06
408.15	2167.34
408.34	2251.60
408.54	2223.51
408.73	2267.98
408.92	2305.43
409.11	2312.45
409.30	2300.75
409.49	2338.20
409.68	2263.30
409.87	2303.09
410.07	2356.92
410.26	2349.90
410.45	2396.71
410.64	2328.83
410.83	2431.82
411.02	2509.05
411.21	2602.68
411.40	2448.20
411.59	2658.85
411.78	2483.31
411.98	2534.80
412.17	2708.00
412.36	2626.08
412.55	2696.30
412.74	2726.72
412.93	2745.45
413.12	2679.91
413.31	2855.45
413.50	2775.88
413.69	2785.24
413.88	2913.97
414.07	2881.20
414.26	2801.62
414.45	2888.22
414.64	3049.72
414.83	3028.65
415.02	2967.80
415.22	3098.87
415.41	3171.43
415.60	3150.36
415.79	3166.74
415.98	3194.83
416.17	3267.39
416.36	3190.15
416.55	3141.00
416.74	3187.81
416.93	3314.20
417.12	3342.28
417.31	3314.20
417.50	3246.32
417.69	3361.01
417.88	3435.91
418.07	3405.48
418.26	3440.59
418.45	3412.50
418.64	3644.21
418.83	3562.30
419.02	3461.65
419.21	3606.77
419.39	3480.38
419.58	3569.32
419.77	3478.04
419.96	3723.79
420.15	3531.87
420.34	3571.66
420.53	3630.17
420.72	3763.58
420.91	3758.90
421.10	3674.64
421.29	3843.16
421.48	3695.71
421.67	3786.99
421.86	3791.67
422.05	3686.34
422.24	3658.26
422.43	3777.62
422.61	3887.63
422.80	3889.97
422.99	3868.91
423.18	3751.88
423.37	4056.15
423.56	3955.51
423.75	3887.63
423.94	3819.75
424.13	3709.75
424.32	3747.20
424.50	3889.97
424.69	4100.62
424.88	4009.34
425.07	3859.54
425.26	3861.88
425.45	3852.52
425.64	3978.91
425.83	3836.14
426.01	4067.85
426.20	3983.59
426.39	3941.46
426.58	3971.89
426.77	3836.14
426.96	3882.95
427.15	3950.82
427.33	4135.73
427.52	4004.66
427.71	4161.47
427.90	4184.88
428.09	4145.09
428.28	4205.94
428.46	4142.75
428.65	4060.83
428.84	4159.13
429.03	4238.71
429.22	4032.74
429.40	4250.41
429.59	4060.83
429.78	3967.21
429.97	3899.33
430.16	4114.66
430.34	4074.87
430.53	4236.37
430.72	4147.43
430.91	4245.73
431.10	4315.95
431.28	4435.32
431.47	4542.98
431.66	4599.15
431.85	4468.08
432.03	4566.39
432.22	4697.46
432.41	4669.37
432.60	4615.54
432.79	4676.39
432.97	4765.33
433.16	4755.97
433.35	4622.56
433.54	4634.26
433.72	4643.62
433.91	4545.32
434.10	4765.33
434.28	4748.95
434.47	4847.25
434.66	4945.55
434.85	5078.96
435.03	4931.51
435.22	4819.16
435.41	5036.83
435.59	5153.86
435.78	4926.83
435.97	5193.65
436.16	4997.04
436.34	5135.14
436.53	5085.98
436.72	5224.08
436.90	4945.55
437.09	5102.37
437.28	5090.67
437.46	5273.23
437.65	5156.20
437.84	5088.32
438.02	4994.70
438.21	5156.20
438.40	5032.15
438.58	5315.36
438.77	5373.87
438.96	5451.11
439.14	5458.13
439.33	5343.44
439.52	5540.05
439.70	5537.71
439.89	5586.86
440.08	5577.50
440.26	5619.63
440.45	5678.14
440.63	5753.04
440.82	5825.59
441.01	5987.09
441.19	5926.24
441.38	5933.26
441.57	6087.73
441.75	6080.71
441.94	6162.63
442.12	6174.33
442.31	6270.30
442.50	6445.84
442.68	6218.80
442.87	6356.90
443.05	6370.94
443.24	6448.18
443.43	6375.62
443.61	6424.77
443.80	6626.06
443.98	6338.17
444.17	6366.26
444.35	6518.39
444.54	6604.99
444.73	6644.78
444.91	6384.98
445.10	6705.63
445.28	6476.26
445.47	6284.34
445.65	6317.11
445.84	6384.98
446.02	6441.15
446.21	6511.37
446.39	6537.12
446.58	6530.09
446.77	6654.14
446.95	6298.38
447.14	6483.28
447.32	6731.38
447.51	6478.60
447.69	6544.14
447.88	6553.50
448.06	6574.56
448.25	6654.14
448.43	6707.98
448.62	6595.63
448.80	6649.46
448.99	6778.19
449.17	6771.17
449.36	6679.89
449.54	6834.36
449.73	6878.83
449.91	6874.15
450.10	7049.69
450.28	7241.62
450.46	7094.16
450.65	7218.21
450.83	7353.96
451.02	7119.91
451.20	7012.24
451.39	7178.42
451.57	7185.44
451.76	7105.87
451.94	7192.47
452.13	7229.91
452.31	7152.68
452.49	7087.14
452.68	7232.26
452.86	7150.34
453.05	7302.47
453.23	7155.02
453.42	7262.68
453.60	7115.23
453.78	7300.13
453.97	7501.42
454.15	7304.81
454.34	7211.19
454.52	7426.52
454.70	7543.55
454.89	7466.31
455.07	7494.40
455.26	7707.38
455.44	7620.78
455.62	7623.12
455.81	7662.91
455.99	7779.94
456.17	7695.68
456.36	7719.09
456.54	7922.71
456.73	7906.33
456.91	8053.78
457.09	7906.33
457.28	8285.50
457.46	7878.24
457.64	8039.74
457.83	8119.32
458.01	8079.53
458.19	8297.20
458.38	8100.59
458.56	8088.89
458.74	8177.83
458.93	8177.83
459.11	8236.35
459.29	8177.83
459.48	8212.94
459.66	8091.23
459.84	8458.70
460.03	8409.54
460.21	8482.10
460.39	8336.99
460.57	8348.69
460.76	8676.37
460.94	8446.99
461.12	8437.63
461.31	8451.67
461.49	8589.77
461.67	8514.87
461.85	8854.25
462.04	8695.09
462.22	9144.47
462.40	8847.22
462.59	8748.92
462.77	8842.54
462.95	8926.80
463.13	8765.31
463.32	8968.93
463.50	8812.12
463.68	8908.08
463.86	8870.63
464.05	8912.76
464.23	8819.14
464.41	9055.53
464.59	8744.24
464.78	9200.65
464.96	9060.21
465.14	9083.62
465.32	9097.66
465.50	9298.95
465.69	9322.35
465.87	9193.62
466.05	9057.87
466.23	9142.13
466.41	9324.69
466.60	9329.38
466.78	8894.04
466.96	8943.19
467.14	9172.56
467.32	9362.14
467.51	9401.93
467.69	9006.38
467.87	9329.38
468.05	9490.87
468.23	9327.03
468.41	9224.05
468.60	9600.88
468.78	9785.78
468.96	9514.28
469.14	9404.27
469.32	9640.67
469.50	9446.40
469.69	9647.69
469.87	9624.28
470.05	9706.20
470.23	9638.33
470.41	9764.72
470.59	9940.26
470.77	9680.46
470.95	9907.49
471.14	10094.73
471.32	9874.72
471.50	10188.35
471.68	10361.55
471.86	10279.63
472.04	10183.67
472.22	10523.05
472.40	10274.95
472.58	10354.53
472.77	10441.13
472.95	10490.28
473.13	10932.64
473.31	10186.01
473.49	10714.97
473.67	10345.17
473.85	10546.45
474.03	10946.69
474.21	10991.16
474.39	11159.67
474.57	10944.34
474.75	11157.33
474.93	11014.56
475.12	10846.04
475.30	11091.80
475.48	11183.08
475.66	11372.66
475.84	11410.11
476.02	11229.89
476.20	11487.35
476.38	11641.82
476.56	11756.51
476.74	11644.17
476.92	11637.14
477.10	11925.03
477.28	12060.78
477.46	11896.94
477.64	12088.87
477.82	12332.28
478.00	12498.46
478.18	12318.24
478.36	12442.29
478.54	12493.78
478.72	12519.53
478.90	12849.54
479.08	12875.29
479.26	12922.10
479.44	12851.88
479.62	12989.97
479.80	12952.52
479.98	13174.88
480.16	13607.87
480.34	13486.17
480.52	13544.68
480.70	13673.41
480.88	13462.76
481.06	13666.39
481.24	14099.39
481.41	14195.35
481.59	13984.70
481.77	14244.50
481.95	14295.99
482.13	14696.22
482.31	14618.99
482.49	14766.44
482.67	14766.44
482.85	14686.86
483.03	15103.48
483.21	15260.29
483.39	15272.00
483.57	15276.68
483.74	15374.98
483.92	15803.30
484.10	15489.67
484.28	15765.85
484.46	15901.60
484.64	16271.40
484.82	16027.99
485.00	15941.39
485.18	16264.38
485.35	16409.50
485.53	15707.34
485.71	15997.56
485.89	16332.26
486.07	16393.11
486.25	16732.49
486.43	16840.15
486.61	17006.33
486.78	16975.91
486.96	17181.87
487.14	17453.37
487.32	17530.61
487.50	17947.23
487.68	17884.03
487.85	18148.51
488.03	18324.05
488.21	18576.83
488.39	18450.44
488.57	18661.09
488.75	18785.14
488.92	19204.10
489.10	19208.78
489.28	19365.59
489.46	19386.66
489.64	19644.12
489.81	20149.67
489.99	19971.79
490.17	20245.63
490.35	20222.23
490.53	20074.77
490.70	20748.85
490.88	20357.98
491.06	20657.57
491.24	20423.51
491.41	20622.46
491.59	20758.21
491.77	20577.99
491.95	21174.83
492.13	21074.18
492.30	21589.10
492.48	21568.04
492.66	21612.51
492.84	21687.40
493.01	22094.66
493.19	21816.13
493.37	22136.79
493.54	22192.96
493.72	22616.60
493.90	22522.98
494.08	22899.80
494.25	23145.56
494.43	23096.41
494.61	23480.25
494.79	23524.72
494.96	23381.95
495.14	23321.10
495.32	23484.94
495.49	23414.72
495.67	23817.29
495.85	23967.09
496.02	23995.17
496.20	24147.31
496.38	24018.58
496.55	24484.34
496.73	24893.94
496.91	24547.54
497.09	24943.09
497.26	25050.75
497.44	24727.76
497.62	24919.68
497.79	25034.37
497.97	25296.51
498.14	25181.82
498.32	25458.01
498.50	25769.30
498.67	25837.17
498.85	25991.65
499.03	26326.35
499.20	25752.91
499.38	26132.08
499.56	26113.36
499.73	26279.54
499.91	26064.21
500.08	26298.26
500.26	26258.47
500.44	26462.10
500.61	26228.04
500.79	26560.40
500.97	26539.33
501.14	27204.05
501.32	26712.53
501.49	26855.31
501.67	26710.19
501.84	27157.24
502.02	27129.15
502.20	27489.59
502.37	27735.35
502.55	27655.77
502.72	27737.69
502.90	27697.90
503.07	28203.46
503.25	27941.32
503.43	27440.44
503.60	28077.07
503.78	27644.07
503.95	28048.98
504.13	28180.05
504.30	28425.81
504.48	28348.57
504.65	28643.48
504.83	28690.29
505.01	28744.12
505.18	28907.96
505.36	29390.11
505.53	29064.77
505.71	29834.81
505.88	29647.57
506.06	29216.91
506.23	29240.31
506.41	29619.48
506.58	29174.78
506.76	29783.32
506.93	29926.09
507.11	29633.52
507.28	29462.66
507.46	29682.67
507.63	29509.47
507.81	29771.61
507.98	29898.00
508.16	30665.70
508.33	30333.34
508.50	30560.37
508.68	30579.10
508.85	30740.60
509.03	30520.59
509.20	30487.82
509.38	30965.29
509.55	31108.06
509.73	30976.99
509.90	31122.10
510.08	31133.81
510.25	31115.08
510.42	31365.52
510.60	31597.23
510.77	31395.95
510.95	31578.51
511.12	31782.13
511.30	31622.98
511.47	32144.92
511.64	32020.87
511.82	31967.04
511.99	32065.34
512.17	32020.87
512.34	32350.88
512.51	32065.34
512.69	32219.81
512.86	32552.17
513.04	32809.63
513.21	32481.95
513.38	32793.25
513.56	32615.37
513.73	32444.51
513.90	32863.46
514.08	32762.82
514.25	32657.49
514.43	33235.61
514.60	33310.50
514.77	32912.61
514.95	33523.49
515.12	33369.02
515.29	33418.17
515.47	33897.98
515.64	33605.41
515.81	33399.44
515.99	33954.15
516.16	33268.37
516.33	33343.27
516.51	33294.12
516.68	33076.45
516.85	32907.93
517.03	33177.09
517.20	33640.52
517.37	34068.84
517.54	34440.98
517.72	34106.29
517.89	33787.97
518.06	33724.78
518.24	33415.83
518.41	34064.16
518.58	34291.19
518.75	34501.84
518.93	34478.43
519.10	34670.36
519.27	34946.54
519.45	34890.37
519.62	34820.15
519.79	35365.49
519.96	35262.51
520.14	35002.71
520.31	34960.58
520.48	35079.95
520.65	34845.90
520.83	35639.34
521.00	35503.59
521.17	35604.23
521.34	35840.62
521.52	35658.06
521.69	35756.36
521.86	36210.43
522.03	36479.59
522.20	35845.30
522.38	36161.28
522.55	36161.28
522.72	35882.75
522.89	36318.09
523.07	36147.23
523.24	36369.58
523.41	36584.91
523.58	36858.76
523.75	37071.75
523.92	37095.15
524.10	36898.55
524.27	36931.31
524.44	36889.18
524.61	37184.09
524.78	37359.63
524.96	37319.84
525.13	37251.97
525.30	37188.77
525.47	37572.62
525.64	37062.38
525.81	37277.71
525.98	37158.34
526.16	37509.43
526.33	36884.50
526.50	37291.76
526.67	36907.91
526.84	36940.68
527.01	37111.53
527.18	37273.03
527.36	37680.28
527.53	38361.38
527.70	38202.22
527.87	38017.32
528.04	38326.27
528.21	38026.68
528.38	38319.25
528.55	38579.05
528.72	38639.90
528.89	38745.23
529.07	38405.85
529.24	38464.36
529.41	38632.88
529.58	38522.88
529.75	38316.91
529.92	39051.84
530.09	39175.89
530.26	38653.95
530.43	39093.97
530.60	38934.81
530.77	38799.06
530.94	38976.94
531.11	38979.28
531.28	39229.72
531.46	38988.64
531.63	39285.89
531.80	39431.01
531.97	39150.14
532.14	39147.80
532.31	38595.43
532.48	39147.80
532.65	39119.71
532.82	39342.06
532.99	39681.44
533.16	39271.85
533.33	39566.76
533.50	39915.50
533.67	39653.36
533.84	39688.46
534.01	39824.22
534.18	39606.55
534.35	40182.32
534.52	39969.33
534.69	40444.46
534.86	40301.68
535.03	40210.40
535.20	40287.64
535.37	40783.83
535.54	40666.81
535.71	40182.32
535.88	40301.68
536.05	40767.45
536.22	40601.27
536.38	40568.51
536.55	40371.90
536.72	40147.21
536.89	40058.27
537.06	40423.39
537.23	40687.87
537.40	40608.29
537.57	40524.04
537.74	41006.19
537.91	41083.42
538.08	40713.62
538.25	41036.61
538.42	41099.81
538.59	41092.79
538.75	40488.93
538.92	41034.27
539.09	40947.67
539.26	41104.49
539.43	41125.55
539.60	41013.21
539.77	41141.94
539.94	41256.62
540.11	41076.40
540.28	41345.56
540.44	41521.10
540.61	41411.10
540.78	41450.89
540.95	41294.07
541.12	41439.18
541.29	41130.23
541.46	41563.23
541.62	41120.87
541.79	41783.24
541.96	41495.36
542.13	41642.81
542.30	41581.96
542.47	42021.98
542.63	41794.95
542.80	41874.52
542.97	42253.69
543.14	42483.06
543.31	42120.28
543.48	42029.00
543.64	42759.25
543.81	42373.06
543.98	42344.97
544.15	42464.34
544.32	42417.53
544.48	42843.51
544.65	42593.07
544.82	42672.65
544.99	41979.85
545.16	42501.79
545.32	42562.64
545.49	43271.82
545.66	42368.38
545.83	42328.59
546.00	42958.19
546.16	42564.98
546.33	43077.56
546.50	42581.37
546.67	42906.70
546.83	42635.20
547.00	43124.37
547.17	43206.29
547.34	42667.97
547.50	42674.99
547.67	43239.06
547.84	43007.34
548.00	43115.01
548.17	43379.49
548.34	43695.46
548.51	43835.89
548.67	43601.84
548.84	43423.96
549.01	43475.45
549.18	43381.83
549.34	43629.93
549.51	43442.68
549.68	43536.30
549.84	43725.89
550.01	43962.28
550.18	43482.47
550.34	43938.88
550.51	43789.08
550.68	43739.93
550.84	43124.37
551.01	43964.62
551.18	43660.35
551.34	44098.03
551.51	43702.48
551.68	43892.07
551.84	43695.46
552.01	43351.40
552.18	44165.91
552.34	43571.41
552.51	43854.62
552.68	43718.87
552.84	44215.06
553.01	44446.77
553.18	43824.19
553.34	44364.85
553.51	43784.40
553.67	44582.52
553.84	44814.24
554.01	44765.09
554.17	44371.88
554.34	44327.41
554.51	44650.40
554.67	44392.94
554.84	44346.13
555.00	44161.23
555.17	44411.67
555.33	44531.03
555.50	44383.58
555.67	44287.62
555.83	44608.27
556.00	44758.06
556.16	44753.38
556.33	44671.46
556.50	44737.00
556.66	44570.82
556.83	44322.72
556.99	44879.77
557.16	44406.98
557.32	44727.64
557.49	44769.77
557.65	44744.02
557.82	44751.04
557.98	45015.52
558.15	44603.59
558.32	45106.80
558.48	44498.26
558.65	44671.46
558.81	44591.89
558.98	44720.62
559.14	44531.03
559.31	44516.99
559.47	44825.94
559.64	45024.89
559.80	44594.23
559.97	44971.05
560.13	44498.26
560.30	44797.85
560.46	45102.12
560.63	45116.17
560.79	45067.02
560.96	45202.77
561.12	45233.19
561.29	44933.60
561.45	45308.09
561.61	45205.11
561.78	45258.94
561.94	44547.42
562.11	44985.10
562.27	44868.07
562.44	45305.75
562.60	45572.57
562.77	44982.76
562.93	45696.62
563.10	45132.55
563.26	44769.77
563.42	45432.14
563.59	44989.78
563.75	45553.85
563.92	45027.23
564.08	45263.62
564.24	45287.03
564.41	45450.86
564.57	45303.41
564.74	45523.42
564.90	45350.22
565.07	45570.23
565.23	45406.39
565.39	45214.47
565.56	45081.06
565.72	44947.65
565.88	45359.58
566.05	45184.04
566.21	45694.28
566.38	45481.29
566.54	45244.90
566.70	45160.64
566.87	46160.05
567.03	45219.15
567.19	46012.59
567.36	45895.56
567.52	45528.10
567.68	45858.12
567.85	44910.20
568.01	45773.86
568.17	45717.68
568.34	45638.11
568.50	45785.56
568.66	45298.73
568.83	45610.02
568.99	45345.54
569.15	45741.09
569.32	45436.82
569.48	45586.61
569.64	45738.75
569.81	45647.47
569.97	45595.98
570.13	45598.32
570.30	45478.95
570.46	45045.95
570.62	45404.05
570.78	44938.29
570.95	45436.82
571.11	45661.51
571.27	45584.27
571.43	45294.05
571.60	45853.44
571.76	45713.00
571.92	45713.00
572.09	45560.87
572.25	45888.54
572.41	45937.69
572.57	45638.11
572.74	46607.09
572.90	45869.82
573.06	45801.94
573.22	46267.71
573.38	45832.37
573.55	45628.74
573.71	45811.31
573.87	45979.82
574.03	45698.96
574.20	45876.84
574.36	45551.51
574.52	45886.20
574.68	45614.70
574.84	45886.20
575.01	45287.03
575.17	45806.62
575.33	45006.16
575.49	45352.56
575.65	46157.70
575.82	46117.92
575.98	45488.31
576.14	46043.02
576.30	45785.56
576.46	45570.23
576.62	45755.13
576.79	45614.70
576.95	45799.60
577.11	45991.53
577.27	45696.62
577.43	45661.51
577.59	45212.13
577.75	45584.27
577.92	45483.63
578.08	45429.80
578.24	45333.84
578.40	45361.92
578.56	45350.22
578.72	45420.44
578.88	46052.38
579.04	45375.97
579.21	45059.99
579.37	45595.98
579.53	45567.89
579.69	45415.76
579.85	45551.51
580.01	45654.49
580.17	45614.70
580.33	46206.86
580.49	46003.23
580.65	45872.16
580.82	46038.34
580.98	45731.73
581.14	45624.06
581.30	45738.75
581.46	45867.48
581.62	45897.91
581.78	45420.44
581.94	46445.59
582.10	45338.52
582.26	45682.58
582.42	45893.22
582.58	45759.81
582.74	45996.21
582.90	46387.08
583.06	46146.00
583.22	46057.06
583.38	45832.37
583.54	45918.97
583.70	45563.21
583.86	46155.36
584.02	45867.48
584.18	45647.47
584.34	45949.40
584.50	45715.34
584.66	46167.07
584.82	45539.80
584.98	45933.01
585.14	45956.42
585.30	45495.33
585.46	45794.92
585.62	45673.21
585.78	45595.98
585.94	45516.40
586.10	46129.62
586.26	45661.51
586.42	45862.80
586.58	46263.03
586.74	46323.88
586.90	45551.51
587.06	45731.73
587.22	45834.71
587.38	45764.49
587.54	46176.43
587.70	45977.48
587.86	45422.78
588.02	45336.18
588.18	46078.13
588.34	45450.86
588.49	45710.66
588.65	45214.47
588.81	45766.84
588.97	45495.33
589.13	45127.87
589.29	45296.39
589.45	45312.77
589.61	45991.53
589.77	46277.07
589.93	45785.56
590.08	45771.52
