SpectraSuite Data File
++++++++++++++++++++++++++++++++++++
Date: Fri Oct 25 11:26:21 EDT 2013
User: price-jones
Dark Spectrum Present: No
Reference Spectrum Present: No
Number of Sampled Component Spectra: 1
Spectrometers: USB2+H05261
Integration Time (usec): 100000 (USB2+H05261)
Spectra Averaged: 1 (USB2+H05261)
Boxcar Smoothing: 0 (USB2+H05261)
Correct for Electrical Dark: No (USB2+H05261)
Strobe/Lamp Enabled: No (USB2+H05261)
Correct for Detector Non-linearity: No (USB2+H05261)
Correct for Stray Light: No (USB2+H05261)
Number of Pixels in Processed Spectrum: 2048
>>>>>Begin Processed Spectral Data<<<<<
365.73	278.52
365.92	278.52
366.12	278.52
366.32	203.63
366.52	119.37
366.72	177.88
366.91	133.41
367.11	84.26
367.31	138.09
367.51	114.69
367.70	131.07
367.90	182.56
368.10	152.13
368.30	124.05
368.49	229.37
368.69	196.60
368.89	145.11
369.09	72.56
369.28	128.73
369.48	102.98
369.68	205.97
369.87	227.03
370.07	173.20
370.27	236.39
370.47	322.99
370.66	638.97
370.86	690.46
371.06	653.01
371.25	730.25
371.45	709.18
371.65	734.93
371.84	690.46
372.04	657.69
372.24	753.65
372.44	723.23
372.63	730.25
372.83	725.57
373.03	800.46
373.22	823.87
373.42	692.80
373.62	786.42
373.81	784.08
374.01	786.42
374.21	830.89
374.40	842.59
374.60	840.25
374.79	840.25
374.99	791.10
375.19	884.72
375.38	802.80
375.58	767.70
375.78	823.87
375.97	812.17
376.17	933.87
376.37	828.55
376.56	945.58
376.76	894.08
376.95	828.55
377.15	896.43
377.35	917.49
377.54	880.04
377.74	887.06
377.93	828.55
378.13	1001.75
378.33	985.37
378.52	947.92
378.72	940.90
378.91	943.24
379.11	950.26
379.31	990.05
379.50	1001.75
379.70	1001.75
379.89	952.60
380.09	1020.47
380.28	905.79
380.48	1004.09
380.68	957.28
380.87	905.79
381.07	1078.99
381.26	973.66
381.46	1025.15
381.65	1057.92
381.85	1011.11
382.04	983.02
382.24	1116.44
382.43	1046.22
382.63	1020.47
382.83	1029.84
383.02	1128.14
383.22	1163.25
383.41	1095.37
383.61	1090.69
383.80	1284.95
384.00	1174.95
384.19	1078.99
384.39	1100.05
384.58	1097.71
384.78	1088.35
384.97	1179.63
385.17	1114.10
385.36	1153.88
385.56	1165.59
385.75	1123.46
385.95	1242.82
386.14	1153.88
386.34	1109.41
386.53	1172.61
386.72	1186.65
386.92	1254.53
387.11	1252.19
387.31	1303.68
387.50	1207.72
387.70	1256.87
387.89	1181.97
388.09	1315.38
388.28	1313.04
388.48	1289.64
388.67	1214.74
388.86	1357.51
389.06	1334.11
389.25	1334.11
389.45	1352.83
389.64	1327.08
389.84	1385.60
390.03	1418.36
390.22	1418.36
390.42	1324.74
390.61	1322.40
390.81	1418.36
391.00	1369.21
391.19	1420.71
391.39	1376.24
391.58	1502.62
391.78	1469.86
391.97	1504.96
392.16	1455.81
392.36	1469.86
392.55	1479.22
392.75	1544.75
392.94	1579.86
393.13	1497.94
393.33	1509.65
393.52	1481.56
393.71	1652.42
393.91	1589.22
394.10	1579.86
394.29	1556.46
394.49	1582.20
394.68	1619.65
394.88	1638.38
395.07	1654.76
395.26	1638.38
395.46	1619.65
395.65	1694.55
395.84	1703.91
396.04	1790.51
396.23	1652.42
396.42	1659.44
396.62	1771.79
396.81	1729.66
397.00	1750.72
397.19	1720.29
397.39	1769.44
397.58	1797.53
397.77	1830.30
397.97	1816.26
398.16	1785.83
398.35	1902.86
398.55	1933.28
398.74	1863.07
398.93	1959.03
399.12	1860.73
399.32	1895.83
399.51	1905.20
399.70	2153.29
399.90	1930.94
400.09	1980.09
400.28	2047.97
400.47	2017.54
400.67	2050.31
400.86	2052.65
401.05	2092.44
401.24	2003.50
401.44	2111.16
401.63	2157.97
401.82	2111.16
402.01	2167.34
402.21	2106.48
402.40	2232.87
402.59	2237.55
402.78	2211.81
402.97	2106.48
403.17	2253.94
403.36	2195.42
403.55	2209.47
403.74	2291.38
403.93	2321.81
404.13	2342.88
404.32	2450.54
404.51	2279.68
404.70	2448.20
404.89	2448.20
405.09	2605.02
405.28	2478.63
405.47	2520.76
405.66	2448.20
405.85	2572.25
406.05	2483.31
406.24	2548.84
406.43	2640.12
406.62	2649.49
406.81	2651.83
407.00	2649.49
407.20	2567.57
407.39	2705.66
407.58	2771.19
407.77	2729.06
407.96	2785.24
408.15	2689.28
408.34	2635.44
408.54	2738.43
408.73	2778.22
408.92	2806.30
409.11	2785.24
409.30	2747.79
409.49	2949.08
409.68	2888.22
409.87	2967.80
410.07	2846.09
410.26	3026.31
410.45	3054.40
410.64	3087.17
410.83	3138.66
411.02	3136.32
411.21	3171.43
411.40	3112.91
411.59	3159.72
411.78	3133.98
411.98	3101.21
412.17	3222.92
412.36	3258.03
412.55	3426.54
412.74	3398.46
412.93	3412.50
413.12	3337.60
413.31	3534.21
413.50	3346.97
413.69	3463.99
413.88	3536.55
414.07	3527.19
414.26	3606.77
414.45	3583.36
414.64	3700.39
414.83	3669.96
415.02	3709.75
415.22	3976.57
415.41	3875.93
415.60	3775.28
415.79	3868.91
415.98	3864.22
416.17	3981.25
416.36	3929.76
416.55	3920.40
416.74	4074.87
416.93	3950.82
417.12	4051.47
417.31	4138.07
417.50	4126.36
417.69	4273.82
417.88	4353.40
418.07	4135.73
418.26	4271.48
418.45	4341.69
418.64	4442.34
418.83	4379.14
419.02	4334.67
419.21	4447.02
419.39	4608.51
419.58	4486.81
419.77	4430.63
419.96	4580.43
420.15	4526.60
420.34	4510.21
420.53	4472.76
420.72	4734.90
420.91	4692.77
421.10	4704.48
421.29	4800.44
421.48	4711.50
421.67	4816.82
421.86	4720.86
422.05	4779.37
422.24	4847.25
422.43	4854.27
422.61	4758.31
422.80	4940.87
422.99	4830.87
423.18	4842.57
423.37	5034.49
423.56	4807.46
423.75	4896.40
423.94	4751.29
424.13	4617.88
424.32	4856.61
424.50	5020.45
424.69	4975.98
424.88	4933.85
425.07	5004.07
425.26	4795.76
425.45	4847.25
425.64	4940.87
425.83	4954.91
426.01	4997.04
426.20	5057.90
426.39	5018.11
426.58	5123.43
426.77	5074.28
426.96	5228.76
427.15	5097.69
427.33	5158.54
427.52	5053.22
427.71	5132.79
427.90	5224.08
428.09	5191.31
428.28	5355.15
428.46	5315.36
428.65	5315.36
428.84	5263.86
429.03	5465.15
429.22	5448.77
429.40	5399.62
429.59	5418.34
429.78	5364.51
429.97	5235.78
430.16	5268.55
430.34	5542.39
430.53	5640.69
430.72	5626.65
430.91	5575.16
431.10	5624.31
431.28	5757.72
431.47	5776.44
431.66	5781.12
431.85	5715.59
432.03	5870.06
432.22	5959.00
432.41	5834.96
432.60	5963.68
432.79	5844.32
432.97	5930.92
433.16	5942.62
433.35	5884.11
433.54	5930.92
433.72	6003.47
433.91	6076.03
434.10	6125.18
434.28	6197.74
434.47	6139.23
434.66	6244.55
434.85	6314.77
435.03	6291.36
435.22	6150.93
435.41	6443.49
435.59	6429.45
435.78	6548.82
435.97	6384.98
436.16	6249.23
436.34	6253.91
436.53	6511.37
436.72	6677.55
436.90	6420.09
437.09	6654.14
437.28	6382.64
437.46	6471.58
437.65	6621.38
437.84	6752.45
438.02	6600.31
438.21	6635.42
438.40	6623.72
438.58	6979.48
438.77	6981.82
438.96	7047.35
439.14	7040.33
439.33	7077.78
439.52	6846.07
439.70	7286.09
439.89	7227.57
440.08	7307.15
440.26	7262.68
440.45	7274.38
440.63	7421.84
440.82	7417.16
441.01	7417.16
441.19	7585.68
441.38	7564.61
441.57	7454.61
441.75	7742.49
441.94	7744.83
442.12	7798.66
442.31	7861.86
442.50	8032.72
442.68	7911.01
442.87	7920.37
443.05	8077.19
443.24	8025.70
443.43	8044.42
443.61	8081.87
443.80	8290.18
443.98	8077.19
444.17	7826.75
444.35	8149.75
444.54	8407.20
444.73	8381.46
444.91	8154.43
445.10	8358.05
445.28	8367.42
445.47	8231.66
445.65	8374.44
445.84	8367.42
446.02	8376.78
446.21	8327.63
446.39	8294.86
446.58	8446.99
446.77	8372.10
446.95	8056.12
447.14	8461.04
447.32	8299.54
447.51	8411.89
447.69	8271.45
447.88	8561.68
448.06	8561.68
448.25	8505.51
448.43	8568.70
448.62	8575.72
448.80	8498.49
448.99	8549.98
449.17	8631.90
449.36	8578.06
449.54	8758.28
449.73	8875.31
449.91	9050.85
450.10	8737.22
450.28	8975.95
450.46	9156.18
450.65	9046.17
450.83	9205.33
451.02	8961.91
451.20	9149.15
451.39	8994.68
451.57	9165.54
451.76	9167.88
451.94	9132.77
452.13	9226.39
452.31	9378.53
452.49	9231.07
452.68	9289.59
452.86	9263.84
453.05	9427.68
453.23	9406.61
453.42	9371.50
453.60	9212.35
453.78	9465.13
453.97	9336.40
454.15	9404.27
454.34	9525.98
454.52	9530.66
454.70	9687.48
454.89	9694.50
455.07	9708.54
455.26	9731.95
455.44	9764.72
455.62	9764.72
455.81	9565.77
455.99	9961.32
456.17	9816.21
456.36	9909.83
456.54	10218.78
456.73	10157.92
456.91	10303.04
457.09	10422.41
457.28	10352.19
457.46	10270.27
457.64	10391.98
457.83	10380.28
458.01	10401.34
458.19	10752.42
458.38	10686.89
458.56	10733.70
458.74	10642.42
458.93	10637.73
459.11	10595.61
459.29	10469.22
459.48	10789.87
459.66	10780.51
459.84	10834.34
460.03	10937.32
460.21	10869.45
460.39	10766.46
460.57	11021.58
460.76	11178.40
460.94	10979.45
461.12	11044.99
461.31	11047.33
461.49	11028.60
461.67	11108.18
461.85	11393.73
462.04	11063.71
462.22	11492.03
462.40	11468.62
462.59	11206.48
462.77	11328.19
462.95	11555.22
463.13	11536.50
463.32	11646.51
463.50	11573.95
463.68	11665.23
463.86	11777.58
464.05	11461.60
464.23	11606.72
464.41	11683.95
464.59	11503.73
464.78	11948.43
464.96	11871.20
465.14	11887.58
465.32	11925.03
465.50	11978.86
465.69	11875.88
465.87	12212.92
466.05	12053.76
466.23	12198.87
466.41	12044.40
466.60	12355.69
466.78	11967.16
466.96	12166.10
467.14	12475.06
467.32	12280.79
467.51	12938.48
467.69	12081.85
467.87	12332.28
468.05	12517.18
468.23	12283.13
468.41	12418.88
468.60	12613.15
468.78	12823.80
468.96	12589.74
469.14	12571.02
469.32	13118.70
469.50	12802.73
469.69	12875.29
469.87	12989.97
470.05	13139.77
470.23	13193.60
470.41	13209.98
470.59	13165.51
470.77	13193.60
470.95	13186.58
471.14	13654.69
471.32	13102.32
471.50	13366.80
471.68	13486.17
471.86	13748.31
472.04	13635.96
472.22	13991.72
472.40	13392.55
472.58	13598.51
472.77	13802.14
472.95	14211.73
473.13	14576.86
473.31	13844.27
473.49	13834.91
473.67	14120.45
473.85	14181.31
474.03	14478.55
474.21	14537.07
474.39	14614.30
474.57	14501.96
474.75	14642.39
474.93	14916.23
475.12	14780.48
475.30	14925.60
475.48	14689.20
475.66	14991.13
475.84	15054.33
476.02	15234.55
476.20	15358.60
476.38	15587.97
476.56	15562.22
476.74	15899.26
476.92	15997.56
477.10	15840.75
477.28	16037.35
477.46	15988.20
477.64	16100.55
477.82	16570.99
478.00	16985.27
478.18	16570.99
478.36	16404.81
478.54	16929.09
478.72	16905.69
478.90	16959.52
479.08	17455.72
479.26	17348.05
479.44	17692.11
479.62	17666.36
479.80	17895.74
479.98	17930.84
480.16	18450.44
480.34	18284.26
480.52	18513.64
480.70	18520.66
480.88	18300.65
481.06	18693.86
481.24	18607.26
481.41	18806.20
481.59	19227.50
481.77	19419.42
481.95	19300.06
482.13	19468.58
482.31	19339.85
482.49	19950.73
482.67	20217.55
482.85	20215.21
483.03	20376.70
483.21	20697.36
483.39	20947.79
483.57	20730.12
483.74	21184.19
483.92	20959.50
484.10	21053.12
484.28	21294.19
484.46	21963.59
484.64	22089.98
484.82	21921.46
485.00	22412.97
485.18	22761.71
485.35	22834.27
485.53	22558.08
485.71	22590.85
485.89	23403.02
486.07	23157.26
486.25	23208.75
486.43	23482.59
486.61	23557.49
486.78	23814.95
486.96	24009.22
487.14	24308.80
487.32	24425.83
487.50	24680.95
487.68	25043.73
487.85	24985.22
488.03	25226.29
488.21	25750.57
488.39	25575.03
488.57	25825.47
488.75	25965.90
488.92	26146.12
489.10	26661.04
489.28	26401.24
489.46	27115.11
489.64	26948.93
489.81	27494.27
489.99	27412.35
490.17	27440.44
490.35	27997.49
490.53	28444.53
490.70	28224.52
490.88	28161.33
491.06	28687.95
491.24	28753.48
491.41	28687.95
491.59	28924.34
491.77	28896.25
491.95	29755.23
492.13	29745.87
492.30	29675.65
492.48	29837.15
492.66	29919.07
492.84	30157.80
493.01	30249.08
493.19	30450.37
493.37	30618.89
493.54	30976.99
493.72	31489.57
493.90	31503.61
494.08	31232.11
494.25	31351.48
494.43	31597.23
494.61	32051.30
494.79	32203.43
494.96	32573.24
495.14	32676.22
495.32	32910.27
495.49	32734.73
495.67	32823.67
495.85	33170.07
496.02	33582.01
496.20	33752.87
496.38	33706.05
496.55	34017.35
496.73	34309.91
496.91	34251.40
497.09	34675.04
497.26	34541.63
497.44	34672.70
497.62	35178.25
497.79	35321.02
497.97	35051.86
498.14	35908.50
498.32	35723.60
498.50	36062.97
498.67	36510.02
498.85	36348.52
499.03	36643.43
499.20	36222.13
499.38	36540.44
499.56	36460.87
499.73	37076.43
499.91	36973.44
500.08	37565.60
500.26	37071.75
500.44	37343.25
500.61	37654.54
500.79	37544.53
500.97	37516.45
501.14	38455.00
501.32	38234.99
501.49	38197.54
501.67	38630.54
501.84	38586.07
502.02	38859.91
502.20	38986.30
502.37	39058.86
502.55	39330.36
502.72	39051.84
502.90	39154.82
503.07	39180.57
503.25	39555.05
503.43	39295.25
503.60	40027.84
503.78	40084.01
503.95	39999.76
504.13	39896.77
504.30	40491.27
504.48	40156.57
504.65	40404.67
504.83	40807.24
505.01	40816.60
505.18	40952.35
505.36	41041.29
505.53	41048.32
505.71	41441.53
505.88	41818.35
506.06	41301.09
506.23	41698.98
506.41	42033.68
506.58	41638.13
506.76	41537.49
506.93	41846.44
507.11	42019.64
507.28	42082.83
507.46	42377.74
507.63	42340.29
507.81	42923.08
507.98	42906.70
508.16	43122.03
508.33	43091.60
508.50	43297.57
508.68	43220.33
508.85	43618.22
509.03	43363.11
509.20	44058.24
509.38	43636.95
509.55	43976.33
509.73	44484.22
509.90	44538.05
510.08	44205.70
510.25	44137.82
510.42	44439.75
510.60	44905.52
510.77	44926.58
510.95	45308.09
511.12	44893.82
511.30	44863.39
511.47	44910.20
511.64	44863.39
511.82	45235.53
511.99	45294.05
512.17	45783.22
512.34	45420.44
512.51	45858.12
512.69	45975.14
512.86	46155.36
513.04	46415.16
513.21	46017.27
513.38	46590.70
513.56	46604.75
513.73	46504.10
513.90	46789.65
514.08	46864.55
514.25	47136.05
514.43	47185.20
514.60	46974.55
514.77	47540.96
514.95	47405.21
515.12	47114.98
515.29	47402.87
515.47	47995.03
515.64	47681.39
515.81	47526.92
515.99	47723.52
516.16	48065.24
516.33	47896.72
516.51	48591.86
516.68	47962.26
516.85	48296.95
517.03	48573.14
517.20	48521.65
517.37	48474.84
517.54	48736.98
517.72	48587.18
517.89	48811.87
518.06	48685.48
518.24	49027.20
518.41	49015.50
518.58	49052.95
518.75	49153.59
518.93	49312.75
519.10	49139.55
519.27	49689.57
519.45	49537.44
519.62	49841.71
519.79	49712.98
519.96	49682.55
520.14	49769.15
520.31	49752.77
520.48	50014.91
520.65	50160.02
520.83	50504.08
521.00	50546.21
521.17	49813.62
521.34	50272.37
521.52	50740.47
521.69	50548.55
521.86	50707.71
522.03	50724.09
522.20	51147.73
522.38	51185.18
522.55	51199.22
522.72	50944.10
522.89	50887.93
523.07	51356.03
523.24	51084.53
523.41	51480.08
523.58	51416.89
523.75	51463.70
523.92	51276.46
524.10	51889.68
524.27	51725.84
524.44	51571.36
524.61	52020.75
524.78	51847.55
524.96	51756.27
525.13	52191.61
525.30	51976.28
525.47	52123.73
525.64	52210.33
525.81	52676.10
525.98	52299.27
526.16	52360.12
526.33	52640.99
526.50	52596.52
526.67	52711.20
526.84	52680.78
527.01	52720.57
527.18	52858.66
527.36	52753.33
527.53	52982.71
527.70	53312.72
527.87	53097.39
528.04	52692.48
528.21	52924.19
528.38	52961.64
528.55	53511.67
528.72	53172.29
528.89	53249.53
529.07	53223.78
529.24	53207.40
529.41	53609.97
529.58	53172.29
529.75	53460.18
529.92	53434.43
530.09	53631.04
530.26	53612.31
530.43	53741.04
530.60	53609.97
530.77	53647.42
530.94	53886.15
531.11	53668.48
531.28	53860.41
531.46	53834.66
531.63	53846.36
531.80	53982.12
531.97	53794.87
532.14	54401.07
532.31	54190.42
532.48	54291.07
532.65	54211.49
532.82	54260.64
532.99	54513.42
533.16	54401.07
533.33	54419.80
533.50	54852.80
533.67	54763.85
533.84	54237.23
534.01	54705.34
534.18	54616.40
534.35	54918.33
534.52	54768.54
534.69	54841.09
534.86	55025.99
535.03	54686.62
535.20	54878.54
535.37	55093.87
535.54	55194.51
535.71	54850.45
535.88	55173.45
536.05	55407.50
536.22	55622.83
536.38	55421.55
536.55	55264.73
536.72	55292.82
536.89	55231.96
537.06	55290.48
537.23	55491.76
537.40	55384.10
537.57	55632.19
537.74	55526.87
537.91	55735.18
538.08	55679.00
538.25	55683.69
538.42	55632.19
538.59	55765.60
538.75	55566.66
538.92	55725.81
539.09	55955.19
539.26	56074.55
539.43	55758.58
539.60	55929.44
539.77	56126.05
539.94	56102.64
540.11	56126.05
540.28	56397.55
540.44	56196.26
540.61	56385.85
540.78	56165.84
540.95	56224.35
541.12	56107.32
541.29	56364.78
541.46	56339.04
541.62	56065.19
541.79	56460.74
541.96	56264.14
542.13	56519.26
542.30	56556.70
542.47	56413.93
542.63	56931.19
542.80	56748.63
542.97	56952.26
543.14	56992.04
543.31	57015.45
543.48	57139.50
543.64	57411.00
543.81	57272.91
543.98	57134.82
544.15	57181.63
544.32	57296.31
544.48	57275.25
544.65	57034.17
544.82	57303.34
544.99	56999.07
545.16	57387.60
545.32	57085.67
545.49	57394.62
545.66	57495.26
545.83	57385.25
546.00	57513.98
546.16	57406.32
546.33	57457.81
546.50	57102.05
546.67	57677.82
546.83	57080.98
547.00	57652.08
547.17	57546.75
547.34	57623.99
547.50	57544.41
547.67	58012.52
547.84	58028.90
548.00	57921.24
548.17	57946.98
548.34	57876.77
548.51	57909.53
548.67	58143.59
548.84	57806.55
549.01	57811.23
549.18	57930.60
549.34	58005.50
549.51	58033.58
549.68	58101.46
549.84	58078.05
550.01	58152.95
550.18	58206.78
550.34	58445.52
550.51	58274.66
550.68	58190.40
550.84	57996.13
551.01	58169.33
551.18	58010.18
551.34	58459.56
551.51	58305.09
551.68	58494.67
551.84	58209.12
552.01	58248.91
552.18	58286.36
552.34	58300.40
552.51	58440.84
552.68	58539.14
552.84	58625.74
553.01	58630.42
553.18	58721.70
553.34	58663.19
553.51	58457.22
553.67	58564.88
553.84	58787.24
554.01	58885.54
554.17	59138.32
554.34	58904.26
554.51	59023.63
554.67	58808.30
554.84	58979.16
555.00	58946.39
555.17	58962.78
555.33	58674.89
555.50	58609.35
555.67	58953.41
555.83	58871.49
556.00	58934.69
556.16	59276.41
556.33	58941.71
556.50	58850.43
556.66	59192.15
556.83	58901.92
556.99	59278.75
557.16	59243.64
557.32	59159.38
557.49	59381.73
557.65	59084.48
557.82	59215.55
557.98	59236.62
558.15	59224.92
558.32	59538.55
558.48	59316.20
558.65	59454.29
558.81	59442.59
558.98	59274.07
559.14	59414.50
559.31	59419.18
559.47	59433.22
559.64	59618.13
559.80	59517.48
559.97	59423.86
560.13	59475.35
560.30	59208.53
560.46	59627.49
560.63	59798.35
560.79	59437.90
560.96	59753.88
561.12	59416.84
561.29	59444.93
561.45	59536.21
561.61	59503.44
561.78	59566.63
561.94	59625.15
562.11	59695.36
562.27	59824.09
562.44	60001.97
562.60	59889.63
562.77	59884.95
562.93	59852.18
563.10	59882.61
563.26	59704.73
563.42	59983.25
563.59	59660.26
563.75	59788.98
563.92	59901.33
564.08	59810.05
564.24	59938.78
564.41	60081.55
564.57	59964.52
564.74	59861.54
564.90	60044.10
565.07	60006.65
565.23	59826.43
565.39	59936.44
565.56	60062.83
565.72	59929.42
565.88	59856.86
566.05	59948.14
566.21	59891.97
566.38	60250.07
566.54	59938.78
566.70	60196.24
566.87	60299.22
567.03	59950.48
567.19	60250.07
567.36	60149.43
567.52	60009.00
567.68	60329.65
567.85	60355.39
568.01	60240.71
568.17	60135.38
568.34	60247.73
568.50	60111.98
568.66	60154.11
568.83	60437.31
568.99	60163.47
569.15	60163.47
569.32	60193.90
569.48	60149.43
569.64	60512.21
569.81	60217.30
569.97	60205.60
570.13	60381.14
570.30	60006.65
570.46	60257.09
570.62	60299.22
570.78	60236.03
570.95	60409.23
571.11	60411.57
571.27	60432.63
571.43	60425.61
571.60	60266.45
571.76	60388.16
571.92	60388.16
572.09	60596.47
572.25	60341.35
572.41	60420.93
572.57	60280.50
572.74	60615.19
572.90	60362.42
573.06	60549.66
573.22	60575.40
573.38	60467.74
573.55	60509.87
573.71	60521.57
573.87	60369.44
574.03	60416.25
574.20	60488.80
574.36	60470.08
574.52	60542.64
574.68	60673.71
574.84	60516.89
575.01	60720.52
575.17	60385.82
575.33	60547.32
575.49	60484.12
575.65	60587.11
575.82	60722.86
575.98	60652.64
576.14	60708.82
576.30	60631.58
576.46	60477.10
576.62	60425.61
576.79	60533.28
576.95	60619.88
577.11	60711.16
577.27	60566.04
577.43	60739.24
577.59	60568.38
577.75	60493.49
577.92	60528.59
578.08	60470.08
578.24	60659.66
578.40	60811.80
578.56	60879.67
578.72	60725.20
578.88	60870.31
579.04	60919.46
579.21	60760.31
579.37	60963.93
579.53	60666.69
579.69	60472.42
579.85	60657.32
580.01	60694.77
580.17	60570.72
580.33	60842.23
580.49	60706.47
580.65	60687.75
580.82	60757.97
580.98	60594.13
581.14	60577.75
581.30	60907.76
581.46	60659.66
581.62	60654.98
581.78	60711.16
581.94	60769.67
582.10	60699.45
582.26	60676.05
582.42	60561.36
582.58	60807.12
582.74	60825.84
582.90	60825.84
583.06	60872.65
583.22	60573.06
583.38	60828.18
583.54	60767.33
583.70	60718.18
583.86	60860.95
584.02	60727.54
584.18	60692.43
584.34	60680.73
584.50	60837.54
584.66	60832.86
584.82	60657.32
584.98	60959.25
585.14	60877.33
585.30	60823.50
585.46	60975.64
585.62	60753.29
585.78	60893.72
585.94	60598.81
586.10	60842.23
586.26	60647.96
586.42	61151.18
586.58	60992.02
586.74	60959.25
586.90	60769.67
587.06	60811.80
587.22	61055.21
587.38	60788.39
587.54	61064.58
587.70	61008.40
587.86	60966.27
588.02	61029.47
588.18	60947.55
588.34	60886.70
588.49	60832.86
