SpectraSuite Data File
++++++++++++++++++++++++++++++++++++
Date: Fri Oct 25 11:26:42 EDT 2013
User: price-jones
Dark Spectrum Present: No
Reference Spectrum Present: No
Number of Sampled Component Spectra: 1
Spectrometers: USB2+H05261
Integration Time (usec): 100000 (USB2+H05261)
Spectra Averaged: 1 (USB2+H05261)
Boxcar Smoothing: 0 (USB2+H05261)
Correct for Electrical Dark: No (USB2+H05261)
Strobe/Lamp Enabled: No (USB2+H05261)
Correct for Detector Non-linearity: No (USB2+H05261)
Correct for Stray Light: No (USB2+H05261)
Number of Pixels in Processed Spectrum: 2048
>>>>>Begin Processed Spectral Data<<<<<
365.73	196.60
365.92	196.60
366.12	196.60
366.32	161.50
366.52	149.79
366.72	189.58
366.91	140.43
367.11	135.75
367.31	173.20
367.51	131.07
367.70	110.01
367.90	203.63
368.10	117.03
368.30	133.41
368.49	142.77
368.69	184.90
368.89	140.43
369.09	91.28
369.28	243.42
369.48	182.56
369.68	212.99
369.87	315.97
370.07	229.37
370.27	220.01
370.47	386.19
370.66	524.28
370.86	615.56
371.06	683.44
371.25	758.33
371.45	671.73
371.65	739.61
371.84	676.41
372.04	718.54
372.24	685.78
372.44	711.52
372.63	716.20
372.83	702.16
373.03	645.99
373.22	760.67
373.42	758.33
373.62	791.10
373.81	800.46
374.01	844.93
374.21	851.96
374.40	798.12
374.60	809.83
374.79	767.70
374.99	828.55
375.19	856.64
375.38	821.53
375.58	922.17
375.78	840.25
375.97	912.81
376.17	936.21
376.37	854.30
376.56	882.38
376.76	905.79
376.95	896.43
377.15	931.53
377.35	931.53
377.54	851.96
377.74	873.02
377.93	866.00
378.13	973.66
378.33	940.90
378.52	983.02
378.72	990.05
378.91	856.64
379.11	898.77
379.31	966.64
379.50	943.24
379.70	1062.60
379.89	1001.75
380.09	933.87
380.28	990.05
380.48	1020.47
380.68	1048.56
380.87	952.60
381.07	1111.75
381.26	1076.65
381.46	1041.54
381.65	1060.26
381.85	1083.67
382.04	1018.13
382.24	1090.69
382.43	1083.67
382.63	1074.31
382.83	1083.67
383.02	1107.07
383.22	1193.67
383.41	1149.20
383.61	1121.12
383.80	1186.65
384.00	1128.14
384.19	1139.84
384.39	1109.41
384.58	1076.65
384.78	1226.44
384.97	1217.08
385.17	1210.06
385.36	1205.38
385.56	1210.06
385.75	1191.33
385.95	1240.48
386.14	1191.33
386.34	1184.31
386.53	1245.16
386.72	1217.08
386.92	1313.04
387.11	1259.21
387.31	1242.82
387.50	1240.48
387.70	1277.93
387.89	1376.24
388.09	1284.95
388.28	1357.51
388.48	1249.85
388.67	1345.81
388.86	1336.45
389.06	1315.38
389.25	1369.21
389.45	1299.00
389.64	1401.98
389.84	1345.81
390.03	1355.17
390.22	1397.30
390.42	1434.75
390.61	1369.21
390.81	1423.05
391.00	1383.26
391.19	1409.00
391.39	1418.36
391.58	1455.81
391.78	1404.32
391.97	1577.52
392.16	1497.94
392.36	1675.82
392.55	1540.07
392.75	1558.80
392.94	1533.05
393.13	1568.16
393.33	1533.05
393.52	1563.48
393.71	1598.59
393.91	1633.69
394.10	1554.12
394.29	1535.39
394.49	1593.90
394.68	1703.91
394.88	1643.06
395.07	1666.46
395.26	1633.69
395.46	1710.93
395.65	1668.80
395.84	1715.61
396.04	1734.34
396.23	1783.49
396.42	1853.70
396.62	1846.68
396.81	1795.19
397.00	1811.57
397.19	1856.04
397.39	1638.38
397.58	1827.96
397.77	1741.36
397.97	1909.88
398.16	1975.41
398.35	1860.73
398.55	1830.30
398.74	1865.41
398.93	1991.80
399.12	2092.44
399.32	1905.20
399.51	1940.30
399.70	2047.97
399.90	1994.14
400.09	1949.67
400.28	2019.88
400.47	2073.71
400.67	2057.33
400.86	2094.78
401.05	2099.46
401.24	2237.55
401.44	2172.02
401.63	2211.81
401.82	2235.21
402.01	2139.25
402.21	2216.49
402.40	2172.02
402.59	2153.29
402.78	2251.60
402.97	2188.40
403.17	2317.13
403.36	2310.11
403.55	2307.77
403.74	2408.41
403.93	2394.37
404.13	2448.20
404.32	2389.69
404.51	2368.62
404.70	2485.65
404.89	2401.39
405.09	2583.95
405.28	2583.95
405.47	2464.58
405.66	2628.42
405.85	2548.84
406.05	2464.58
406.24	2595.65
406.43	2562.89
406.62	2499.69
406.81	2705.66
407.00	2665.87
407.20	2565.23
407.39	2663.53
407.58	2729.06
407.77	2754.81
407.96	2820.35
408.15	2787.58
408.34	2686.94
408.54	2834.39
408.73	2876.52
408.92	2834.39
409.11	2897.58
409.30	2967.80
409.49	2928.01
409.68	2946.73
409.87	2932.69
410.07	3054.40
410.26	2991.20
410.45	2970.14
410.64	3066.10
410.83	3035.67
411.02	3052.06
411.21	3262.71
411.40	3206.53
411.59	3162.06
411.78	3297.81
411.98	3187.81
412.17	3449.95
412.36	3403.14
412.55	3330.58
412.74	3414.84
412.93	3316.54
413.12	3543.57
413.31	3538.89
413.50	3459.31
413.69	3473.36
413.88	3588.04
414.07	3728.47
414.26	3707.41
414.45	3658.26
414.64	3728.47
414.83	3845.50
415.02	3672.30
415.22	3812.73
415.41	3873.59
415.60	3896.99
415.79	3957.85
415.98	4007.00
416.17	4014.02
416.36	3960.19
416.55	3997.64
416.74	4140.41
416.93	4154.45
417.12	4159.13
417.31	4095.94
417.50	4269.14
417.69	4372.12
417.88	4304.25
418.07	4278.50
418.26	4252.75
418.45	4372.12
418.64	4503.19
418.83	4470.42
419.02	4386.16
419.21	4587.45
419.39	4479.79
419.58	4531.28
419.77	4411.91
419.96	4545.32
420.15	4578.09
420.34	4699.80
420.53	4683.41
420.72	4851.93
420.91	4718.52
421.10	4753.63
421.29	4767.67
421.48	4772.35
421.67	4992.36
421.86	4786.40
422.05	4760.65
422.24	4880.02
422.43	4858.95
422.61	5036.83
422.80	5097.69
422.99	4994.70
423.18	5029.81
423.37	5001.72
423.56	5043.85
423.75	4980.66
423.94	4861.29
424.13	4760.65
424.32	4877.68
424.50	4943.21
424.69	5097.69
424.88	4994.70
425.07	5214.71
425.26	4919.81
425.45	4961.94
425.64	5020.45
425.83	5013.43
426.01	4933.85
426.20	5090.67
426.39	5191.31
426.58	5181.95
426.77	5055.56
426.96	5242.80
427.15	5167.90
427.33	5399.62
427.52	5317.70
427.71	5425.36
427.90	5416.00
428.09	5399.62
428.28	5490.90
428.46	5406.64
428.65	5268.55
428.84	5434.72
429.03	5495.58
429.22	5385.57
429.40	5394.93
429.59	5568.13
429.78	5345.78
429.97	5322.38
430.16	5579.84
430.34	5514.30
430.53	5624.31
430.72	5792.83
430.91	5549.41
431.10	5832.62
431.28	5823.25
431.47	5797.51
431.66	5893.47
431.85	5982.41
432.03	5888.79
432.22	6029.22
432.41	6061.99
432.60	5947.30
432.79	5942.62
432.97	6127.52
433.16	6174.33
433.35	6010.50
433.54	6146.25
433.72	6253.91
433.91	6218.80
434.10	6230.51
434.28	6235.19
434.47	6267.95
434.66	6333.49
434.85	6303.06
435.03	6331.15
435.22	6310.08
435.41	6478.60
435.59	6471.58
435.78	6534.78
435.97	6509.03
436.16	6478.60
436.34	6335.83
436.53	6593.29
436.72	6663.51
436.90	6410.73
437.09	6644.78
437.28	6579.25
437.46	6633.08
437.65	6813.30
437.84	6733.72
438.02	6850.75
438.21	6874.15
438.40	6864.79
438.58	7124.59
438.77	7042.67
438.96	6885.86
439.14	7248.64
439.33	7215.87
439.52	7286.09
439.70	7368.01
439.89	7382.05
440.08	7365.67
440.26	7456.95
440.45	7438.22
440.63	7482.69
440.82	7646.53
441.01	7644.19
441.19	7630.15
441.38	7714.41
441.57	7784.62
441.75	7838.45
441.94	7981.23
442.12	8016.33
442.31	7978.89
442.50	7859.52
442.68	8023.36
442.87	8023.36
443.05	8098.25
443.24	8369.76
443.43	8124.00
443.61	8116.98
443.80	8435.29
443.98	8030.38
444.17	8030.38
444.35	8257.41
444.54	8524.23
444.73	8091.23
444.91	8418.91
445.10	8418.91
445.28	8435.29
445.47	8404.86
445.65	8390.82
445.84	8732.54
446.02	8755.94
446.21	8524.23
446.39	8367.42
446.58	8622.53
446.77	8510.19
446.95	8322.94
447.14	8620.19
447.32	8573.38
447.51	8730.20
447.69	8643.60
447.88	8531.25
448.06	8697.43
448.25	8446.99
448.43	8521.89
448.62	8669.34
448.80	8559.34
448.99	8655.30
449.17	8830.84
449.36	8667.00
449.54	8975.95
449.73	9018.08
449.91	9008.72
450.10	8894.04
450.28	9198.31
450.46	9205.33
450.65	9114.05
450.83	9186.60
451.02	9158.52
451.20	9104.68
451.39	9191.28
451.57	9322.35
451.76	9247.46
451.94	9273.20
452.13	9476.83
452.31	9320.01
452.49	9085.96
452.68	9631.30
452.86	9448.74
453.05	9291.93
453.23	9549.39
453.42	9418.32
453.60	9387.89
453.78	9607.90
453.97	9617.26
454.15	9577.47
454.34	9511.94
454.52	9900.47
454.70	9818.55
454.89	9844.29
455.07	9893.44
455.26	10080.69
455.44	10038.56
455.62	9928.55
455.81	10026.86
455.99	10085.37
456.17	10104.09
456.36	10249.21
456.54	10221.12
456.73	10389.64
456.91	10537.09
457.09	10396.66
457.28	10581.56
457.46	10459.85
457.64	10714.97
457.83	10328.78
458.01	10471.56
458.19	10675.18
458.38	10633.05
458.56	10801.57
458.74	10871.79
458.93	10630.71
459.11	10906.90
459.29	11037.97
459.48	10733.70
459.66	10719.65
459.84	11023.92
460.03	11239.25
460.21	11126.91
460.39	11077.76
460.57	11318.83
460.76	11454.58
460.94	11133.93
461.12	11435.86
461.31	11389.05
461.49	11272.02
461.67	11300.11
461.85	11485.01
462.04	11328.19
462.22	11606.72
462.40	11693.32
462.59	11770.55
462.77	11590.33
462.95	11847.79
463.13	11557.57
463.32	11597.35
463.50	11545.86
463.68	11948.43
463.86	12238.66
464.05	11749.49
464.23	11676.93
464.41	11964.82
464.59	11749.49
464.78	12283.13
464.96	11932.05
465.14	11948.43
465.32	12159.08
465.50	12196.53
465.69	12131.00
465.87	12248.02
466.05	12259.73
466.23	12271.43
466.41	12138.02
466.60	12559.31
466.78	12269.09
466.96	12372.07
467.14	12456.33
467.32	12664.64
467.51	12608.47
467.69	12264.41
467.87	12486.76
468.05	12725.49
468.23	12421.22
468.41	12760.60
468.60	12657.62
468.78	12870.61
468.96	12826.14
469.14	12877.63
469.32	13039.12
469.50	12795.71
469.69	13055.51
469.87	13261.48
470.05	13226.37
470.23	13385.52
470.41	13369.14
470.59	13502.55
470.77	13350.42
470.95	13434.68
471.14	13710.86
471.32	13341.05
471.50	13696.82
471.68	13593.83
471.86	13666.39
472.04	13748.31
472.22	14167.26
472.40	13851.29
472.58	13898.10
472.77	13980.02
472.95	14101.73
473.13	14757.08
473.31	14174.28
473.49	14185.99
473.67	14305.35
473.85	14377.91
474.03	14920.92
474.21	14689.20
474.39	14820.27
474.57	14551.11
474.75	15159.65
474.93	14956.02
475.12	15000.49
475.30	15073.05
475.48	15201.78
475.66	15269.66
475.84	15398.38
476.02	15501.37
476.20	15454.56
476.38	15957.77
476.56	16156.72
476.74	16095.86
476.92	16091.18
477.10	15950.75
477.28	16350.98
477.46	16463.33
477.64	16350.98
477.82	16505.46
478.00	16908.03
478.18	16793.34
478.36	17165.49
478.54	17523.59
478.72	17413.59
478.90	17717.86
479.08	17867.65
479.26	17914.46
479.44	17951.91
479.62	18146.17
479.80	18314.69
479.98	18328.74
480.16	18663.43
480.34	18530.02
480.52	18544.06
480.70	18806.20
480.88	18623.64
481.06	18651.73
481.24	19016.85
481.41	19084.73
481.59	19351.55
481.77	19606.67
481.95	19906.26
482.13	19796.25
482.31	19875.83
482.49	20126.27
482.67	20318.19
482.85	20610.76
483.03	20446.92
483.21	20924.39
483.39	21137.38
483.57	21071.84
483.74	21116.31
483.92	21413.56
484.10	21687.40
484.28	21724.85
484.46	22059.55
484.64	22689.15
484.82	22361.48
485.00	22326.37
485.18	22951.29
485.35	23089.38
485.53	22801.50
485.71	23316.42
485.89	23913.25
486.07	23410.04
486.25	23508.34
486.43	23920.28
486.61	23796.23
486.78	24503.07
486.96	24294.76
487.14	24526.47
487.32	24680.95
487.50	25184.16
487.68	25312.89
487.85	25469.71
488.03	25530.56
488.21	26150.81
488.39	26094.63
488.57	26244.43
488.75	26457.42
488.92	26246.77
489.10	27197.02
489.28	27040.21
489.46	27482.57
489.64	27152.55
489.81	27917.91
489.99	28105.15
490.17	27756.41
490.35	28437.51
490.53	28446.87
490.70	28737.10
490.88	28570.92
491.06	28889.23
491.24	28863.49
491.41	29448.62
491.59	29373.72
491.77	29586.71
491.95	30115.67
492.13	29886.30
492.30	30024.39
492.48	29916.73
492.66	30543.99
492.84	30499.52
493.01	30745.28
493.19	31140.83
493.37	30946.56
493.54	31201.68
493.72	31702.56
493.90	31534.04
494.08	32187.05
494.25	32449.19
494.43	32142.58
494.61	32472.59
494.79	32992.19
494.96	33090.49
495.14	33017.94
495.32	33151.35
495.49	33216.88
495.67	33579.67
495.85	34529.92
496.02	33961.17
496.20	34064.16
496.38	34162.46
496.55	34085.22
496.73	35023.78
496.91	34642.27
497.09	35129.10
497.26	35211.02
497.44	35225.06
497.62	35632.32
497.79	35978.72
497.97	35833.60
498.14	36460.87
498.32	36533.42
498.50	36266.60
498.67	36664.49
498.85	36582.57
499.03	37090.47
499.20	36917.27
499.38	37315.16
499.56	37118.56
499.73	37474.32
499.91	37710.71
500.08	37869.87
500.26	37551.56
500.44	37729.44
500.61	38005.62
500.79	38143.71
500.97	37872.21
501.14	38843.53
501.32	38911.41
501.49	39124.40
501.67	39086.95
501.84	39194.61
502.02	38981.62
502.20	38925.45
502.37	38890.34
502.55	39541.01
502.72	39800.81
502.90	39665.06
503.07	39604.20
503.25	40238.49
503.43	39864.00
503.60	40184.66
503.78	40751.07
503.95	40779.15
504.13	41045.97
504.30	41053.00
504.48	40730.00
504.65	40783.83
504.83	41731.75
505.01	41287.05
505.18	41448.55
505.36	41574.94
505.53	41642.81
505.71	42045.38
505.88	42239.65
506.06	41640.47
506.23	42202.20
506.41	41806.65
506.58	42314.55
506.76	42623.50
506.93	43157.14
507.11	42291.14
507.28	42838.83
507.46	43234.38
507.63	43438.00
507.81	43718.87
507.98	43423.96
508.16	43896.75
508.33	43292.89
508.50	43646.31
508.68	43906.11
508.85	44067.61
509.03	43700.14
509.20	44542.74
509.38	44692.53
509.55	44657.42
509.73	44769.77
509.90	45010.84
510.08	44858.71
510.25	44751.04
510.42	45109.14
510.60	45284.68
510.77	45673.21
510.95	45895.56
511.12	45572.57
511.30	45560.87
511.47	45762.15
511.64	45727.05
511.82	46171.75
511.99	45911.95
512.17	46604.75
512.34	46370.69
512.51	46684.33
512.69	46473.68
512.86	46686.67
513.04	46817.74
513.21	46841.14
513.38	46756.88
513.56	46787.31
513.73	47012.00
513.90	47398.19
514.08	46869.23
514.25	47512.88
514.43	47641.60
514.60	47491.81
514.77	47887.36
514.95	48020.77
515.12	47515.22
515.29	48076.94
515.47	48353.13
515.64	48334.40
515.81	47980.98
515.99	48538.03
516.16	48673.78
516.33	48289.93
516.51	48411.64
516.68	48196.31
516.85	48933.58
517.03	48900.81
517.20	49184.02
517.37	48748.68
517.54	49277.64
517.72	48851.66
517.89	49439.14
518.06	49724.68
518.24	49471.90
518.41	49275.30
518.58	49497.65
518.75	49312.75
518.93	49883.84
519.10	49661.49
519.27	50155.34
519.45	50258.32
519.62	50024.27
519.79	50326.20
519.96	50443.23
520.14	50515.78
520.31	50050.02
520.48	50731.11
520.65	50719.41
520.83	50660.90
521.00	50927.72
521.17	50602.38
521.34	50663.24
521.52	51243.69
521.69	51234.33
521.86	51058.79
522.03	51379.44
522.20	51606.47
522.38	51849.89
522.55	51688.39
522.72	51370.08
522.89	51524.55
523.07	51721.16
523.24	51311.56
523.41	51980.96
523.58	51686.05
523.75	52179.90
523.92	51910.74
524.10	52112.03
524.27	52186.92
524.44	52509.92
524.61	52189.27
524.78	52369.49
524.96	52453.75
525.13	52097.98
525.30	52748.65
525.47	52905.47
525.64	52664.39
525.81	52832.91
525.98	52863.34
526.16	52640.99
526.33	52928.87
526.50	53373.58
526.67	53027.18
526.84	52952.28
527.01	53076.33
527.18	53050.58
527.36	53029.52
527.53	53319.74
527.70	53483.58
527.87	53492.94
528.04	53528.05
528.21	53551.46
528.38	53558.48
528.55	53829.98
528.72	53668.48
528.89	53570.18
529.07	53593.59
529.24	53825.30
529.41	53822.96
529.58	53928.28
529.75	53680.19
529.92	54075.74
530.09	54061.69
530.26	54255.96
530.43	54129.57
530.60	53986.80
530.77	54099.14
530.94	54384.69
531.11	54344.90
531.28	54124.89
531.46	54160.00
531.63	54445.54
531.80	54518.10
531.97	54632.78
532.14	54707.68
532.31	54593.00
532.48	54632.78
532.65	54724.07
532.82	54742.79
532.99	54738.11
533.16	54789.60
533.33	55079.83
533.50	54972.16
533.67	54962.80
533.84	54883.22
534.01	55412.18
534.18	55070.46
534.35	55283.45
534.52	55229.62
534.69	55351.33
534.86	55206.22
535.03	55353.67
535.20	55299.84
535.37	55463.67
535.54	55590.06
535.71	55543.25
535.88	55753.90
536.05	55543.25
536.22	55877.95
536.38	55688.37
536.55	55931.78
536.72	55597.09
536.89	55667.30
537.06	55681.34
537.23	56135.41
537.40	55721.13
537.57	56011.36
537.74	55753.90
537.91	56177.54
538.08	55943.48
538.25	55866.25
538.42	56165.84
538.59	56505.21
538.75	56006.68
538.92	56273.50
539.09	56355.42
539.26	56488.83
539.43	56402.23
539.60	56545.00
539.77	56474.79
539.94	56542.66
540.11	56507.55
540.28	56296.91
540.44	56566.07
540.61	56746.29
540.78	56610.54
540.95	56523.94
541.12	56825.87
541.29	56739.27
541.46	56877.36
541.62	56732.25
541.79	56804.80
541.96	56500.53
542.13	56580.11
542.30	56919.49
542.47	57069.28
542.63	57055.24
542.80	57190.99
542.97	57357.17
543.14	57256.53
543.31	57453.13
543.48	57237.80
543.64	57457.81
543.81	57579.52
543.98	57361.85
544.15	57584.20
544.32	57708.25
544.48	57656.76
544.65	57427.38
544.82	57387.60
544.99	57588.88
545.16	57794.85
545.32	57595.90
545.49	58045.29
545.66	58014.86
545.83	58035.92
546.00	57914.22
546.16	57825.28
546.33	57736.34
546.50	57523.35
546.67	57975.07
546.83	57649.74
547.00	58078.05
547.17	57757.40
547.34	57968.05
547.50	58078.05
547.67	58152.95
547.84	58234.87
548.00	58237.21
548.17	58185.72
548.34	58113.16
548.51	58424.45
548.67	58223.17
548.84	58131.89
549.01	58321.47
549.18	58209.12
549.34	58206.78
549.51	58333.17
549.68	58436.16
549.84	58363.60
550.01	58780.21
550.18	58410.41
550.34	58562.54
550.51	58714.68
550.68	58459.56
550.84	58220.83
551.01	58773.19
551.18	58679.57
551.34	58644.46
551.51	58763.83
551.68	58749.79
551.84	58780.21
552.01	58719.36
552.18	58714.68
552.34	58717.02
552.51	58976.82
552.68	58892.56
552.84	58787.24
553.01	59264.70
553.18	58941.71
553.34	59135.98
553.51	58876.18
553.67	59002.56
553.84	58997.88
554.01	58857.45
554.17	59215.55
554.34	59068.10
554.51	59107.89
554.67	59128.95
554.84	59007.25
555.00	59079.80
555.17	59124.27
555.33	59131.29
555.50	59061.08
555.67	59100.87
555.83	59030.65
556.00	59480.03
556.16	59480.03
556.33	59568.97
556.50	59330.24
556.66	59480.03
556.83	59353.65
556.99	59470.67
557.16	59414.50
557.32	59788.98
557.49	59817.07
557.65	59730.47
557.82	59498.76
557.98	59557.27
558.15	59788.98
558.32	59625.15
558.48	59531.53
558.65	59531.53
558.81	59615.79
558.98	59721.11
559.14	59608.76
559.31	59913.03
559.47	59674.30
559.64	59693.02
559.80	59810.05
559.97	59898.99
560.13	59489.40
560.30	59676.64
560.46	59934.10
560.63	59978.57
560.79	59817.07
560.96	60172.83
561.12	59983.25
561.29	59983.25
561.45	59896.65
561.61	59901.33
561.78	60004.31
561.94	60175.17
562.11	60053.47
562.27	60111.98
562.44	60264.11
562.60	60081.55
562.77	60086.23
562.93	59920.05
563.10	60303.90
563.26	60081.55
563.42	60271.14
563.59	60205.60
563.75	60315.61
563.92	60193.90
564.08	60170.49
564.24	60493.49
564.41	60116.66
564.57	60285.18
564.74	60224.32
564.90	60179.85
565.07	60053.47
565.23	60306.24
565.39	60203.26
565.56	60530.93
565.72	60231.35
565.88	60243.05
566.05	60273.48
566.21	60231.35
566.38	60346.03
566.54	60467.74
566.70	60509.87
566.87	60493.49
567.03	60341.35
567.19	60594.13
567.36	60254.75
567.52	60406.89
567.68	60706.47
567.85	60537.96
568.01	60535.62
568.17	60493.49
568.34	60535.62
568.50	60530.93
568.66	60535.62
568.83	60575.40
568.99	60430.29
569.15	60776.69
569.32	60575.40
569.48	60556.68
569.64	60676.05
569.81	60617.53
569.97	60458.38
570.13	60416.25
570.30	60317.95
570.46	60589.45
570.62	60739.24
570.78	60509.87
570.95	60528.59
571.11	60708.82
571.27	60643.28
571.43	60741.58
571.60	60743.92
571.76	60825.84
571.92	60657.32
572.09	60671.37
572.25	60729.88
572.41	60741.58
572.57	60673.71
572.74	60989.68
572.90	60786.05
573.06	60732.22
573.22	60870.31
573.38	60977.98
573.55	60863.29
573.71	60992.02
573.87	60849.25
574.03	60694.77
574.20	60931.17
574.36	60809.46
574.52	60949.89
574.68	60811.80
574.84	60917.12
575.01	60970.96
575.17	60764.99
575.33	60914.78
575.49	60687.75
575.65	61080.96
575.82	61057.56
575.98	60987.34
576.14	61219.05
576.30	60921.80
576.46	60863.29
576.62	60853.93
576.79	60821.16
576.95	60725.20
577.11	60987.34
577.27	61073.94
577.43	61034.15
577.59	61052.87
577.75	61041.17
577.92	60832.86
578.08	61062.24
578.24	60935.85
578.40	61099.68
578.56	61038.83
578.72	60963.93
578.88	60973.30
579.04	61160.54
579.21	61139.47
579.37	61190.97
579.53	61223.73
579.69	60764.99
579.85	60910.10
580.01	60949.89
580.17	60807.12
580.33	60996.70
580.49	61139.47
580.65	61013.08
580.82	61190.97
580.98	61069.26
581.14	61050.53
581.30	61062.24
581.46	61048.19
581.62	60940.53
581.78	60823.50
581.94	61137.13
582.10	60999.04
582.26	60977.98
582.42	61092.66
582.58	60959.25
582.74	60877.33
582.90	61095.00
583.06	60977.98
583.22	60865.63
583.38	61020.11
583.54	61095.00
583.70	61066.92
583.86	60952.23
584.02	61188.63
584.18	61099.68
584.34	61137.13
584.50	61216.71
584.66	61148.84
584.82	60912.44
584.98	61197.99
585.14	61296.29
585.30	61024.79
585.46	61090.32
585.62	61158.20
585.78	61109.05
585.94	61017.77
586.10	61205.01
586.26	61167.56
586.42	61237.78
586.58	61237.78
586.74	61277.57
586.90	61148.84
587.06	61113.73
587.22	61399.27
587.38	61116.07
587.54	61310.33
587.70	61305.65
587.86	61076.28
588.02	61113.73
588.18	61158.20
588.34	61165.22
