SpectraSuite Data File
++++++++++++++++++++++++++++++++++++
Date: Fri Oct 25 11:25:50 EDT 2013
User: price-jones
Dark Spectrum Present: No
Reference Spectrum Present: No
Number of Sampled Component Spectra: 1
Spectrometers: USB2+H05261
Integration Time (usec): 100000 (USB2+H05261)
Spectra Averaged: 1 (USB2+H05261)
Boxcar Smoothing: 0 (USB2+H05261)
Correct for Electrical Dark: No (USB2+H05261)
Strobe/Lamp Enabled: No (USB2+H05261)
Correct for Detector Non-linearity: No (USB2+H05261)
Correct for Stray Light: No (USB2+H05261)
Number of Pixels in Processed Spectrum: 2048
>>>>>Begin Processed Spectral Data<<<<<
365.73	236.39
365.92	236.39
366.12	236.39
366.32	100.64
366.52	81.92
366.72	79.58
366.91	124.05
367.11	161.50
367.31	86.60
367.51	140.43
367.70	163.84
367.90	173.20
368.10	49.15
368.30	145.11
368.49	156.82
368.69	175.54
368.89	147.45
369.09	161.50
369.28	227.03
369.48	126.39
369.68	145.11
369.87	257.46
370.07	187.24
370.27	245.76
370.47	353.42
370.66	573.43
370.86	622.58
371.06	678.76
371.25	653.01
371.45	730.25
371.65	737.27
371.84	674.07
372.04	739.61
372.24	704.50
372.44	718.54
372.63	741.95
372.83	763.01
373.03	812.17
373.22	723.23
373.42	748.97
373.62	903.45
373.81	809.83
374.01	826.21
374.21	812.17
374.40	851.96
374.60	826.21
374.79	868.34
374.99	814.51
375.19	791.10
375.38	858.98
375.58	896.43
375.78	851.96
375.97	882.38
376.17	866.00
376.37	870.68
376.56	863.66
376.76	858.98
376.95	917.49
377.15	873.02
377.35	901.11
377.54	1004.09
377.74	812.17
377.93	938.55
378.13	990.05
378.33	931.53
378.52	1027.50
378.72	992.39
378.91	1004.09
379.11	933.87
379.31	933.87
379.50	961.96
379.70	957.28
379.89	1013.45
380.09	952.60
380.28	947.92
380.48	943.24
380.68	980.68
380.87	994.73
381.07	1018.13
381.26	1078.99
381.46	973.66
381.65	980.68
381.85	1074.31
382.04	1057.92
382.24	1064.94
382.43	978.34
382.63	978.34
382.83	1074.31
383.02	1121.12
383.22	1090.69
383.41	1074.31
383.61	1111.75
383.80	1104.73
384.00	1132.82
384.19	1153.88
384.39	1142.18
384.58	1158.57
384.78	1111.75
384.97	1172.61
385.17	1219.42
385.36	1174.95
385.56	1156.22
385.75	1153.88
385.95	1039.20
386.14	1233.46
386.34	1235.80
386.53	1160.91
386.72	1184.31
386.92	1224.10
387.11	1301.34
387.31	1214.74
387.50	1315.38
387.70	1263.89
387.89	1226.44
388.09	1277.93
388.28	1217.08
388.48	1240.48
388.67	1317.72
388.86	1350.49
389.06	1334.11
389.25	1327.08
389.45	1362.19
389.64	1338.79
389.84	1390.28
390.03	1411.34
390.22	1427.73
390.42	1427.73
390.61	1357.51
390.81	1341.13
391.00	1411.34
391.19	1493.26
391.39	1455.81
391.58	1423.05
391.78	1467.52
391.97	1495.60
392.16	1399.64
392.36	1467.52
392.55	1469.86
392.75	1519.01
392.94	1533.05
393.13	1504.96
393.33	1535.39
393.52	1533.05
393.71	1572.84
393.91	1652.42
394.10	1586.88
394.29	1586.88
394.49	1605.61
394.68	1647.74
394.88	1680.50
395.07	1603.27
395.26	1619.65
395.46	1657.10
395.65	1713.27
395.84	1769.44
396.04	1816.26
396.23	1753.06
396.42	1816.26
396.62	1783.49
396.81	1771.79
397.00	1699.23
397.19	1795.19
397.39	1757.74
397.58	1858.39
397.77	1891.15
397.97	1865.41
398.16	1837.32
398.35	1949.67
398.55	1839.66
398.74	1944.99
398.93	1905.20
399.12	2008.18
399.32	1898.17
399.51	2043.29
399.70	1947.33
399.90	2024.56
400.09	2050.31
400.28	2022.22
400.47	1994.14
400.67	2104.14
400.86	2085.42
401.05	1959.03
401.24	2087.76
401.44	2120.53
401.63	2197.76
401.82	2305.43
402.01	2143.93
402.21	2183.72
402.40	2143.93
402.59	2204.78
402.78	2270.32
402.97	2204.78
403.17	2209.47
403.36	2331.17
403.55	2429.48
403.74	2422.45
403.93	2452.88
404.13	2321.81
404.32	2356.92
404.51	2317.13
404.70	2396.71
404.89	2331.17
405.09	2469.27
405.28	2422.45
405.47	2532.46
405.66	2520.76
405.85	2581.61
406.05	2553.52
406.24	2565.23
406.43	2574.59
406.62	2640.12
406.81	2731.41
407.00	2548.84
407.20	2733.75
407.39	2743.11
407.58	2675.23
407.77	2581.61
407.96	2761.83
408.15	2902.26
408.34	2740.77
408.54	2848.43
408.73	2752.47
408.92	2855.45
409.11	2827.37
409.30	2885.88
409.49	2801.62
409.68	2820.35
409.87	2916.31
410.07	3007.59
410.26	3061.42
410.45	3080.14
410.64	2939.71
410.83	3023.97
411.02	3150.36
411.21	3218.24
411.40	3150.36
411.59	3190.15
411.78	3199.51
411.98	3206.53
412.17	3208.87
412.36	3213.56
412.55	3386.76
412.74	3403.14
412.93	3403.14
413.12	3405.48
413.31	3592.72
413.50	3538.89
413.69	3468.67
413.88	3578.68
414.07	3585.70
414.26	3625.49
414.45	3627.83
414.64	3566.98
414.83	3737.84
415.02	3840.82
415.22	3850.18
415.41	3985.93
415.60	3911.04
415.79	4002.32
415.98	3896.99
416.17	4037.42
416.36	3864.22
416.55	3934.44
416.74	4021.04
416.93	3868.91
417.12	4290.20
417.31	4198.92
417.50	4315.95
417.69	4229.35
417.88	4166.15
418.07	4128.70
418.26	4269.14
418.45	4191.90
418.64	4369.78
418.83	4365.10
419.02	4435.32
419.21	4631.92
419.39	4550.00
419.58	4461.06
419.77	4507.87
419.96	4645.96
420.15	4519.57
420.34	4500.85
420.53	4547.66
420.72	4751.29
420.91	4660.01
421.10	4610.86
421.29	4697.46
421.48	4702.14
421.67	4861.29
421.86	4753.63
422.05	4865.97
422.24	4898.74
422.43	4898.74
422.61	5034.49
422.80	4919.81
422.99	4844.91
423.18	4971.30
423.37	4896.40
423.56	4933.85
423.75	4922.15
423.94	4781.71
424.13	4624.90
424.32	4800.44
424.50	5123.43
424.69	4908.10
424.88	5130.45
425.07	5041.51
425.26	4880.02
425.45	4957.25
425.64	4814.48
425.83	5018.11
426.01	5043.85
426.20	4933.85
426.39	5100.03
426.58	4755.97
426.77	5050.88
426.96	5132.79
427.15	4983.00
427.33	5095.35
427.52	5245.14
427.71	5327.06
427.90	5238.12
428.09	5245.14
428.28	5373.87
428.46	5289.61
428.65	5259.18
428.84	5507.28
429.03	5507.28
429.22	5359.83
429.40	5547.07
429.59	5589.20
429.78	5224.08
429.97	5313.02
430.16	5474.51
430.34	5540.05
430.53	5689.84
430.72	5509.62
430.91	5659.42
431.10	5547.07
431.28	5753.04
431.47	5680.48
431.66	5846.66
431.85	5720.27
432.03	6061.99
432.22	6008.16
432.41	5806.87
432.60	5797.51
432.79	5783.46
432.97	6045.60
433.16	5935.60
433.35	5963.68
433.54	6005.81
433.72	6036.24
433.91	6092.41
434.10	6003.47
434.28	6019.86
434.47	6223.48
434.66	6237.53
434.85	6363.92
435.03	6408.39
435.22	6223.48
435.41	6478.60
435.59	6420.09
435.78	6300.72
435.97	6394.34
436.16	6272.64
436.34	6377.96
436.53	6466.90
436.72	6693.93
436.90	6417.75
437.09	6619.04
437.28	6509.03
437.46	6602.65
437.65	6693.93
437.84	6843.73
438.02	6771.17
438.21	6773.51
438.40	6855.43
438.58	6991.18
438.77	7126.93
438.96	6942.03
439.14	7262.68
439.33	7213.53
439.52	7063.74
439.70	7098.84
439.89	7452.27
440.08	7431.20
440.26	7445.24
440.45	7297.79
440.63	7368.01
440.82	7658.23
441.01	7538.87
441.19	7562.27
441.38	7681.64
441.57	7733.13
441.75	7686.32
441.94	7833.77
442.12	7999.95
442.31	8032.72
442.50	8131.02
442.68	7880.58
442.87	7927.39
443.05	8002.29
443.24	8196.56
443.43	8234.00
443.61	8194.22
443.80	8322.94
443.98	7992.93
444.17	7775.26
444.35	8339.33
444.54	8243.37
444.73	8269.11
444.91	8196.56
445.10	8276.13
445.28	8329.97
445.47	8402.52
445.65	8278.47
445.84	8205.92
446.02	8720.84
446.21	8617.85
446.39	8423.59
446.58	8603.81
446.77	8491.46
446.95	8407.20
447.14	8299.54
447.32	8369.76
447.51	8517.21
447.69	8599.13
447.88	8514.87
448.06	8463.38
448.25	8557.00
448.43	8769.99
448.62	8760.63
448.80	8472.74
448.99	8695.09
449.17	8816.80
449.36	8723.18
449.54	8945.53
449.73	9041.49
449.91	8812.12
450.10	8901.06
450.28	9130.43
450.46	9158.52
450.65	9261.50
450.83	9062.55
451.02	8959.57
451.20	9252.14
451.39	9144.47
451.57	9132.77
451.76	9179.58
451.94	9270.86
452.13	9179.58
452.31	9324.69
452.49	9149.15
452.68	9437.04
452.86	9472.15
453.05	9418.32
453.23	9446.40
453.42	9371.50
453.60	9394.91
453.78	9460.45
453.97	9582.15
454.15	9563.43
454.34	9469.81
454.52	9818.55
454.70	9568.11
454.89	9727.27
455.07	9624.28
455.26	9720.24
455.44	9846.63
455.62	9884.08
455.81	9844.29
455.99	9949.62
456.17	10080.69
456.36	10024.51
456.54	10045.58
456.73	10590.92
456.91	10408.36
457.09	10408.36
457.28	10555.82
457.46	10317.08
457.64	10410.70
457.83	10455.17
458.01	10300.70
458.19	10750.08
458.38	10834.34
458.56	10815.62
458.74	10841.36
458.93	10534.75
459.11	10710.29
459.29	10712.63
459.48	10806.25
459.66	10953.71
459.84	10876.47
460.03	11115.20
460.21	11056.69
460.39	10841.36
460.57	10934.98
460.76	11105.84
460.94	11236.91
461.12	11204.14
461.31	11201.80
461.49	11208.83
461.67	11117.54
461.85	11447.56
462.04	11379.68
462.22	11882.90
462.40	11449.90
462.59	11524.80
462.77	11456.92
462.95	11454.58
463.13	11587.99
463.32	11672.25
463.50	11838.43
463.68	11889.92
463.86	11576.29
464.05	11646.51
464.23	11641.82
464.41	11810.34
464.59	11749.49
464.78	12276.11
464.96	11838.43
465.14	11960.14
465.32	12133.34
465.50	12159.08
465.69	12180.15
465.87	12025.67
466.05	12079.50
466.23	12102.91
466.41	12465.69
466.60	12421.22
466.78	12180.15
466.96	11974.18
467.14	12486.76
467.32	12367.39
467.51	12386.12
467.69	12334.62
467.87	12456.33
468.05	12784.01
468.23	12381.43
468.41	12292.49
468.60	12397.82
468.78	12788.69
468.96	12727.83
469.14	12882.31
469.32	13043.81
469.50	12578.04
469.69	13212.32
469.87	12891.67
470.05	12978.27
470.23	13310.63
470.41	13139.77
470.59	13294.24
470.77	13078.91
470.95	13158.49
471.14	13364.46
471.32	13004.02
471.50	13631.28
471.68	13568.09
471.86	13635.96
472.04	13614.90
472.22	14340.46
472.40	13631.28
472.58	13940.23
472.77	13926.19
472.95	13872.36
473.13	14565.15
473.31	14183.65
473.49	14155.56
473.67	13975.34
473.85	14384.93
474.03	14677.50
474.21	14766.44
474.39	14949.00
474.57	14677.50
474.75	14909.21
474.93	14808.57
475.12	14885.81
475.30	14892.83
475.48	15220.50
475.66	15185.40
475.84	15150.29
476.02	15585.63
476.20	15236.89
476.38	15365.62
476.56	15882.88
476.74	16116.93
476.92	16056.08
477.10	15719.04
477.28	16196.51
477.46	15920.32
477.64	16486.73
477.82	16592.06
478.00	17137.40
478.18	16741.85
478.36	16966.54
478.54	17172.51
478.72	17062.51
478.90	17277.83
479.08	17621.89
479.26	17455.72
479.44	17521.25
479.62	17970.63
479.80	18075.96
479.98	18127.45
480.16	18583.85
480.34	18553.43
480.52	18352.14
480.70	18387.25
480.88	18808.54
481.06	18745.35
481.24	18871.74
481.41	18794.50
481.59	19241.54
481.77	19714.33
481.95	19758.80
482.13	19545.81
482.31	19709.65
482.49	20538.20
482.67	20276.06
482.85	20285.42
483.03	20805.02
483.21	20580.33
483.39	20638.84
483.57	20673.95
483.74	21111.63
483.92	21443.99
484.10	21341.00
484.28	21685.06
484.46	21551.65
484.64	22209.34
484.82	21692.08
485.00	22434.03
485.18	22789.80
485.35	22836.61
485.53	22890.44
485.71	22808.52
485.89	23604.30
486.07	23417.06
486.25	23332.80
486.43	23398.34
486.61	24081.77
486.78	24182.42
486.96	24355.61
487.14	24760.53
487.32	24725.42
487.50	24535.84
487.68	24856.49
487.85	25305.87
488.03	25228.63
488.21	25834.83
488.39	25544.61
488.57	26115.70
488.75	26424.65
488.92	26560.40
489.10	26656.36
489.28	26483.16
489.46	26892.76
489.64	26958.29
489.81	27309.37
489.99	27630.02
490.17	27590.24
490.35	28109.83
490.53	28320.48
490.70	28283.03
490.88	28311.12
491.06	28959.45
491.24	28687.95
491.41	29219.25
491.59	28737.10
491.77	29043.71
491.95	29488.41
492.13	29682.67
492.30	29984.60
492.48	30284.19
492.66	29900.34
492.84	30630.59
493.01	30965.29
493.19	30258.45
493.37	31126.78
493.54	31353.82
493.72	31424.03
493.90	31372.54
494.08	31990.44
494.25	32107.47
494.43	32063.00
494.61	32053.64
494.79	32055.98
494.96	32563.87
495.14	32952.40
495.32	32989.85
495.49	33127.94
495.67	32833.04
495.85	33296.46
496.02	33855.85
496.20	33902.66
496.38	34169.48
496.55	33872.23
496.73	34930.16
496.91	34319.28
497.09	34885.68
497.26	35065.91
497.44	34927.81
497.62	35173.57
497.79	35622.95
497.97	35440.39
498.14	35828.92
498.32	36264.26
498.50	36016.16
498.67	36701.94
498.85	36294.69
499.03	36446.82
499.20	36793.22
499.38	36928.97
499.56	37008.55
499.73	37111.53
499.91	37654.54
500.08	37394.74
500.26	37453.25
500.44	37926.04
500.61	37844.12
500.79	37544.53
500.97	37954.13
501.14	38220.95
501.32	38298.19
501.49	38153.07
501.67	38361.38
501.84	38927.79
502.02	38855.23
502.20	39360.79
502.37	39203.97
502.55	38728.84
502.72	39903.79
502.90	39381.85
503.07	39447.39
503.25	39571.44
503.43	39557.39
503.60	39880.39
503.78	40367.22
503.95	40233.81
504.13	40067.63
504.30	40612.98
504.48	40631.70
504.65	40561.48
504.83	40856.39
505.01	41291.73
505.18	40861.07
505.36	41837.08
505.53	40982.78
505.71	41549.19
505.88	41722.39
506.06	41558.55
506.23	42073.47
506.41	41677.92
506.58	42359.02
506.76	42096.88
506.93	42459.66
507.11	42604.77
507.28	42447.96
507.46	42806.06
507.63	42560.30
507.81	42784.99
507.98	42871.59
508.16	43269.48
508.33	43136.07
508.50	43398.21
508.68	43615.88
508.85	43845.26
509.03	44289.96
509.20	44233.78
509.38	44327.41
509.55	44154.21
509.73	44594.23
509.90	44233.78
510.08	44917.22
510.25	44636.36
510.42	44863.39
510.60	45116.17
510.77	45212.13
510.95	45401.71
511.12	45132.55
511.30	45221.49
511.47	45532.78
511.64	45001.48
511.82	45958.76
511.99	45614.70
512.17	45841.73
512.34	45893.22
512.51	46206.86
512.69	46230.26
512.86	46342.61
513.04	46761.56
513.21	46637.51
513.38	46581.34
513.56	46946.47
513.73	46574.32
513.90	46817.74
514.08	46763.90
514.25	47070.51
514.43	47070.51
514.60	47388.83
514.77	47374.78
514.95	47648.63
515.12	47405.21
515.29	47304.57
515.47	47945.87
515.64	48144.82
515.81	47489.47
515.99	48423.34
516.16	48423.34
516.33	48505.26
516.51	48456.11
516.68	48261.85
516.85	48935.92
517.03	48938.26
517.20	48935.92
517.37	48633.99
517.54	49092.74
517.72	48858.68
517.89	48900.81
518.06	48823.58
518.24	49214.44
518.41	49392.33
518.58	49399.35
518.75	49303.38
518.93	49460.20
519.10	49329.13
519.27	49279.98
519.45	49900.22
519.62	50057.04
519.79	49935.33
519.96	49979.80
520.14	50110.87
520.31	49897.88
520.48	50494.72
520.65	50113.21
520.83	50843.46
521.00	50555.57
521.17	50204.49
521.34	50560.25
521.52	50745.15
521.69	50979.21
521.86	50588.34
522.03	51030.70
522.20	51086.87
522.38	51505.83
522.55	51213.26
522.72	51398.16
522.89	51145.39
523.07	51503.49
523.24	51367.74
523.41	51676.69
523.58	51473.06
523.75	51927.13
523.92	51639.24
524.10	52116.71
524.27	51938.83
524.44	51952.87
524.61	51807.76
524.78	52086.28
524.96	52397.57
525.13	52189.27
525.30	52530.98
525.47	52428.00
525.64	52360.12
525.81	52465.45
525.98	52505.24
526.16	52371.83
526.33	52481.83
526.50	52835.25
526.67	52758.02
526.84	53008.45
527.01	52692.48
527.18	52989.73
527.36	52779.08
527.53	52917.17
527.70	53120.80
527.87	53123.14
528.04	53139.52
528.21	52933.56
528.38	53570.18
528.55	53387.62
528.72	53570.18
528.89	53263.57
529.07	53034.20
529.24	53361.87
529.41	53619.33
529.58	53514.01
529.75	53315.06
529.92	53769.13
530.09	53771.47
530.26	53965.73
530.43	54188.08
530.60	53673.16
530.77	53694.23
530.94	53918.92
531.11	54075.74
531.28	54274.68
531.46	54167.02
531.63	54127.23
531.80	54452.56
531.97	54150.63
532.14	54550.87
532.31	54358.94
532.48	54520.44
532.65	54574.27
532.82	54361.28
532.99	54752.15
533.16	54735.77
533.33	54611.72
533.50	54787.26
533.67	54791.94
533.84	54763.85
534.01	54710.02
534.18	54784.92
534.35	55018.97
534.52	55051.74
534.69	55231.96
534.86	55236.64
535.03	54930.03
535.20	55168.77
535.37	55114.94
535.54	55444.95
535.71	55114.94
535.88	55257.71
536.05	55648.58
536.22	55356.01
536.38	55751.56
536.55	55735.18
536.72	55671.98
536.89	55604.11
537.06	55585.38
537.23	55604.11
537.40	55407.50
537.57	55686.03
537.74	55632.19
537.91	56046.47
538.08	55824.12
538.25	55779.65
538.42	56009.02
538.59	56116.68
538.75	55894.33
538.92	56100.30
539.09	56229.03
539.26	56006.68
539.43	56086.26
539.60	56472.45
539.77	56128.39
539.94	56484.15
540.11	56437.34
540.28	56446.70
540.44	56327.33
540.61	56420.95
540.78	56332.01
540.95	56332.01
541.12	56343.72
541.29	56467.76
541.46	56378.82
541.62	56783.74
541.79	56615.22
541.96	56467.76
542.13	56617.56
542.30	56713.52
542.47	56905.44
542.63	56556.70
542.80	57066.94
542.97	57022.47
543.14	57354.83
543.31	57080.98
543.48	57181.63
543.64	57457.81
543.81	57160.56
543.98	57396.96
544.15	57134.82
544.32	57396.96
544.48	57340.78
544.65	57277.59
544.82	57406.32
544.99	57120.77
545.16	57504.62
545.32	57453.13
545.49	57724.63
545.66	57710.59
545.83	57621.65
546.00	57820.59
546.16	57481.22
546.33	57516.32
546.50	57420.36
546.67	57645.05
546.83	57368.87
547.00	57469.51
547.17	57567.82
547.34	57762.08
547.50	58049.97
547.67	57820.59
547.84	58075.71
548.00	58003.16
548.17	58169.33
548.34	57794.85
548.51	58255.93
548.67	58049.97
548.84	58085.07
549.01	58085.07
549.18	58129.54
549.34	58225.51
549.51	58178.70
549.68	58262.96
549.84	58307.43
550.01	58482.97
550.18	58010.18
550.34	58412.75
550.51	58396.37
550.68	58298.06
550.84	58188.06
551.01	58632.76
551.18	58422.11
551.34	58323.81
551.51	58522.76
551.68	58733.40
551.84	58511.05
552.01	58312.11
552.18	58602.33
552.34	58567.23
552.51	58766.17
552.68	58637.44
552.84	58459.56
553.01	58803.62
553.18	58841.07
553.34	58852.77
553.51	58611.70
553.67	58890.22
553.84	58920.65
554.01	58955.75
554.17	59082.14
554.34	58951.07
554.51	58866.81
554.67	59007.25
554.84	58983.84
555.00	59040.01
555.17	59042.35
555.33	58749.79
555.50	58941.71
555.67	58967.46
555.83	58962.78
556.00	58913.62
556.16	59292.79
556.33	59032.99
556.50	59222.58
556.66	59257.68
556.83	59245.98
556.99	59311.52
557.16	59683.66
557.32	59253.00
557.49	59543.23
557.65	59344.28
557.82	59377.05
557.98	59264.70
558.15	59487.06
558.32	59374.71
558.48	59297.47
558.65	59533.87
558.81	59454.29
558.98	59491.74
559.14	59468.33
559.31	59473.01
559.47	59601.74
559.64	59833.46
559.80	59608.76
559.97	59618.13
560.13	59781.96
560.30	59590.04
560.46	59730.47
560.63	59800.69
560.79	59870.90
560.96	59767.92
561.12	59849.84
561.29	59882.61
561.45	59906.01
561.61	59793.67
561.78	60093.25
561.94	59674.30
562.11	59917.71
562.27	59739.83
562.44	59920.05
562.60	60055.81
562.77	59774.94
562.93	59859.20
563.10	59920.05
563.26	59807.71
563.42	60179.85
563.59	59957.50
563.75	59966.87
563.92	59952.82
564.08	60067.51
564.24	60062.83
564.41	60161.13
564.57	60133.04
564.74	59999.63
564.90	60172.83
565.07	60189.22
565.23	60184.54
565.39	60200.92
565.56	60261.77
565.72	60229.01
565.88	60119.00
566.05	60144.75
566.21	59971.55
566.38	60200.92
566.54	60236.03
566.70	60402.21
566.87	60477.10
567.03	60088.57
567.19	60385.82
567.36	60371.78
567.52	60360.08
567.68	60226.66
567.85	60409.23
568.01	60364.76
568.17	60348.37
568.34	60317.95
568.50	60151.77
568.66	60498.17
568.83	60423.27
568.99	60406.89
569.15	60310.92
569.32	60411.57
569.48	60399.86
569.64	60399.86
569.81	60591.79
569.97	60285.18
570.13	60348.37
570.30	60451.36
570.46	60519.23
570.62	60460.72
570.78	60563.70
570.95	60287.52
571.11	60769.67
571.27	60259.43
571.43	60512.21
571.60	60430.29
571.76	60533.28
571.92	60552.00
572.09	60334.33
572.25	60638.60
572.41	60420.93
572.57	60474.76
572.74	60664.35
572.90	60509.87
573.06	60552.00
573.22	60547.32
573.38	60697.11
573.55	60633.92
573.71	60884.36
573.87	60556.68
574.03	60383.48
574.20	60680.73
574.36	60528.59
574.52	60523.91
574.68	60645.62
574.84	60650.30
575.01	60783.71
575.17	60802.44
575.33	60542.64
575.49	60584.77
575.65	60697.11
575.82	60718.18
575.98	60582.43
576.14	60921.80
576.30	60699.45
576.46	60645.62
576.62	60755.63
576.79	60640.94
576.95	60509.87
577.11	60683.07
577.27	60914.78
577.43	61001.38
577.59	60767.33
577.75	60603.49
577.92	60748.60
578.08	60750.94
578.24	60804.78
578.40	61050.53
578.56	60970.96
578.72	60797.76
578.88	60975.64
579.04	60898.40
579.21	60697.11
579.37	60870.31
579.53	61045.85
579.69	60587.11
579.85	60680.73
580.01	60867.97
580.17	60683.07
580.33	60772.01
580.49	61076.28
580.65	60844.57
580.82	61066.92
580.98	60793.07
581.14	60893.72
581.30	60786.05
581.46	60849.25
581.62	60863.29
581.78	60898.40
581.94	60907.76
582.10	60755.63
582.26	60825.84
582.42	60858.61
582.58	60814.14
582.74	60858.61
582.90	60863.29
583.06	61027.13
583.22	60891.38
583.38	60858.61
583.54	60874.99
583.70	60874.99
583.86	60952.23
584.02	60954.57
584.18	61015.43
584.34	60973.30
584.50	60938.19
584.66	60678.39
584.82	60872.65
584.98	61031.81
585.14	61064.58
585.30	60954.57
585.46	61059.90
585.62	60865.63
585.78	60994.36
585.94	60910.10
586.10	60985.00
586.26	60914.78
586.42	61020.11
586.58	60947.55
586.74	61078.62
586.90	60968.61
587.06	61179.26
587.22	61069.26
587.38	61069.26
587.54	61242.46
587.70	61272.88
587.86	61031.81
588.02	60987.34
588.18	61331.40
588.34	61024.79
588.49	61052.87
