SpectraSuite Data File
++++++++++++++++++++++++++++++++++++
Date: Fri Oct 25 11:23:30 EDT 2013
User: price-jones
Dark Spectrum Present: No
Reference Spectrum Present: No
Number of Sampled Component Spectra: 1
Spectrometers: USB2+H05261
Integration Time (usec): 100000 (USB2+H05261)
Spectra Averaged: 1 (USB2+H05261)
Boxcar Smoothing: 0 (USB2+H05261)
Correct for Electrical Dark: No (USB2+H05261)
Strobe/Lamp Enabled: No (USB2+H05261)
Correct for Detector Non-linearity: No (USB2+H05261)
Correct for Stray Light: No (USB2+H05261)
Number of Pixels in Processed Spectrum: 2048
>>>>>Begin Processed Spectral Data<<<<<
365.73	271.50
365.92	271.50
366.12	271.50
366.32	147.45
366.52	95.96
366.72	88.94
366.91	32.77
367.11	173.20
367.31	145.11
367.51	152.13
367.70	44.47
367.90	93.62
368.10	95.96
368.30	131.07
368.49	133.41
368.69	198.95
368.89	133.41
369.09	79.58
369.28	191.92
369.48	201.29
369.68	203.63
369.87	238.73
370.07	198.95
370.27	175.54
370.47	315.97
370.66	566.41
370.86	631.94
371.06	653.01
371.25	638.97
371.45	695.14
371.65	617.90
371.84	697.48
372.04	683.44
372.24	681.10
372.44	688.12
372.63	828.55
372.83	741.95
373.03	805.14
373.22	758.33
373.42	854.30
373.62	828.55
373.81	814.51
374.01	702.16
374.21	770.04
374.40	837.91
374.60	837.91
374.79	774.72
374.99	748.97
375.19	823.87
375.38	873.02
375.58	814.51
375.78	880.04
375.97	882.38
376.17	917.49
376.37	833.23
376.56	828.55
376.76	805.14
376.95	908.13
377.15	954.94
377.35	929.19
377.54	894.08
377.74	851.96
377.93	863.66
378.13	854.30
378.33	915.15
378.52	961.96
378.72	992.39
378.91	940.90
379.11	887.06
379.31	959.62
379.50	912.81
379.70	938.55
379.89	983.02
380.09	936.21
380.28	1048.56
380.48	957.28
380.68	992.39
380.87	983.02
381.07	1055.58
381.26	1050.90
381.46	961.96
381.65	936.21
381.85	898.77
382.04	1029.84
382.24	1095.37
382.43	1074.31
382.63	1043.88
382.83	1097.71
383.02	1083.67
383.22	1137.50
383.41	1135.16
383.61	1217.08
383.80	1167.93
384.00	1205.38
384.19	1097.71
384.39	1165.59
384.58	1163.25
384.78	1172.61
384.97	1090.69
385.17	1142.18
385.36	1163.25
385.56	1203.04
385.75	1266.23
385.95	1174.95
386.14	1224.10
386.34	1160.91
386.53	1142.18
386.72	1144.52
386.92	1343.47
387.11	1233.46
387.31	1130.48
387.50	1289.64
387.70	1275.59
387.89	1174.95
388.09	1228.78
388.28	1261.55
388.48	1289.64
388.67	1315.38
388.86	1317.72
389.06	1277.93
389.25	1338.79
389.45	1404.32
389.64	1366.87
389.84	1348.15
390.03	1472.20
390.22	1425.39
390.42	1413.68
390.61	1383.26
390.81	1439.43
391.00	1373.89
391.19	1476.88
391.39	1434.75
391.58	1462.83
391.78	1497.94
391.97	1446.45
392.16	1523.69
392.36	1551.78
392.55	1535.39
392.75	1528.37
392.94	1556.46
393.13	1488.58
393.33	1530.71
393.52	1584.54
393.71	1502.62
393.91	1530.71
394.10	1575.18
394.29	1626.67
394.49	1540.07
394.68	1614.97
394.88	1563.48
395.07	1706.25
395.26	1666.46
395.46	1715.61
395.65	1743.70
395.84	1682.85
396.04	1776.47
396.23	1750.72
396.42	1802.21
396.62	1736.68
396.81	1722.63
397.00	1788.17
397.19	1788.17
397.39	1823.28
397.58	1813.92
397.77	1820.94
397.97	1844.34
398.16	1893.49
398.35	1820.94
398.55	1863.07
398.74	1872.43
398.93	1942.64
399.12	1851.36
399.32	1893.49
399.51	1923.92
399.70	2050.31
399.90	1937.96
400.09	2080.74
400.28	2080.74
400.47	1914.56
400.67	2094.78
400.86	2059.67
401.05	2174.36
401.24	2101.80
401.44	2132.23
401.63	2129.89
401.82	2160.31
402.01	2139.25
402.21	2120.53
402.40	2232.87
402.59	2277.34
402.78	2211.81
402.97	2183.72
403.17	2319.47
403.36	2321.81
403.55	2239.89
403.74	2401.39
403.93	2249.25
404.13	2347.56
404.32	2457.56
404.51	2434.16
404.70	2516.08
404.89	2434.16
405.09	2518.42
405.28	2438.84
405.47	2490.33
405.66	2513.74
405.85	2487.99
406.05	2495.01
406.24	2471.61
406.43	2595.65
406.62	2623.74
406.81	2619.06
407.00	2583.95
407.20	2605.02
407.39	2724.38
407.58	2724.38
407.77	2672.89
407.96	2675.23
408.15	2787.58
408.34	2731.41
408.54	2822.69
408.73	2841.41
408.92	2818.00
409.11	2785.24
409.30	2888.22
409.49	2857.79
409.68	3016.95
409.87	2902.26
410.07	2967.80
410.26	3075.46
410.45	3002.91
410.64	2937.37
410.83	3059.08
411.02	3112.91
411.21	3056.74
411.40	3030.99
411.59	3040.36
411.78	3187.81
411.98	3136.32
412.17	3115.25
412.36	3297.81
412.55	3398.46
412.74	3456.97
412.93	3417.18
413.12	3258.03
413.31	3730.81
413.50	3466.33
413.69	3506.12
413.88	3634.85
414.07	3538.89
414.26	3798.69
414.45	3583.36
414.64	3688.68
414.83	3873.59
415.02	3691.02
415.22	3817.41
415.41	3922.74
415.60	3695.71
415.79	3789.33
415.98	4032.74
416.17	3948.48
416.36	3871.25
416.55	3887.63
416.74	4098.28
416.93	3995.29
417.12	3983.59
417.31	4149.77
417.50	4187.22
417.69	4257.43
417.88	4269.14
418.07	4152.11
418.26	4161.47
418.45	4184.88
418.64	4500.85
418.83	4418.93
419.02	4449.36
419.21	4550.00
419.39	4461.06
419.58	4517.23
419.77	4449.36
419.96	4688.09
420.15	4667.03
420.34	4706.82
420.53	4531.28
420.72	4727.88
420.91	4758.31
421.10	4709.16
421.29	4884.70
421.48	4699.80
421.67	4695.11
421.86	4863.63
422.05	4772.35
422.24	4784.06
422.43	4884.70
422.61	4851.93
422.80	5074.28
422.99	4861.29
423.18	5095.35
423.37	5029.81
423.56	4887.04
423.75	4950.23
423.94	4720.86
424.13	4681.07
424.32	4650.64
424.50	5074.28
424.69	5102.37
424.88	5018.11
425.07	4870.65
425.26	4945.55
425.45	5060.24
425.64	5004.07
425.83	4966.62
426.01	5156.20
426.20	5069.60
426.39	5135.14
426.58	5083.64
426.77	5027.47
426.96	5090.67
427.15	4952.57
427.33	5298.97
427.52	5130.45
427.71	5226.42
427.90	5404.30
428.09	5341.10
428.28	5296.63
428.46	5369.19
428.65	5401.96
428.84	5416.00
429.03	5528.35
429.22	5315.36
429.40	5563.45
429.59	5387.91
429.78	5118.75
429.97	5413.66
430.16	5504.94
430.34	5547.07
430.53	5706.23
430.72	5738.99
430.91	5778.78
431.10	5659.42
431.28	5818.57
431.47	5685.16
431.66	5867.72
431.85	5729.63
432.03	5977.73
432.22	6001.13
432.41	5994.11
432.60	5778.78
432.79	5858.36
432.97	5884.11
433.16	6115.82
433.35	6132.20
433.54	6078.37
433.72	6059.65
433.91	6101.78
434.10	6108.80
434.28	6148.59
434.47	6314.77
434.66	6345.19
434.85	6340.51
435.03	6289.02
435.22	6312.42
435.41	6523.07
435.59	6583.93
435.78	6375.62
435.97	6541.80
436.16	6494.99
436.34	6647.12
436.53	6628.40
436.72	6626.06
436.90	6511.37
437.09	6562.86
437.28	6537.12
437.46	6649.46
437.65	6621.38
437.84	6841.39
438.02	6642.44
438.21	6787.55
438.40	6644.78
438.58	7063.74
438.77	6998.20
438.96	6878.83
439.14	7014.59
439.33	7290.77
439.52	7260.34
439.70	7096.50
439.89	7489.71
440.08	7421.84
440.26	7412.48
440.45	7377.37
440.63	7396.09
440.82	7676.96
441.01	7508.44
441.19	7627.81
441.38	7815.05
441.57	7730.79
441.75	7845.48
441.94	8067.83
442.12	7929.74
442.31	8147.40
442.50	8161.45
442.68	7850.16
442.87	8105.28
443.05	8058.46
443.24	8084.21
443.43	8053.78
443.61	8315.92
443.80	8454.02
443.98	8163.79
444.17	7871.22
444.35	8187.19
444.54	8348.69
444.73	8210.60
444.91	8383.80
445.10	8348.69
445.28	8297.20
445.47	8154.43
445.65	8423.59
445.84	8449.33
446.02	8636.58
446.21	8341.67
446.39	8346.35
446.58	8463.38
446.77	8519.55
446.95	8344.01
447.14	8306.56
447.32	8758.28
447.51	8648.28
447.69	8446.99
447.88	8512.53
448.06	8725.52
448.25	8557.00
448.43	8566.36
448.62	8549.98
448.80	8414.23
448.99	8800.41
449.17	8631.90
449.36	8685.73
449.54	8774.67
449.73	8999.36
449.91	8973.61
450.10	8908.08
450.28	9158.52
450.46	9261.50
450.65	9036.81
450.83	8896.38
451.02	9067.24
451.20	9202.99
451.39	9191.28
451.57	9256.82
451.76	9085.96
451.94	9109.36
452.13	9411.29
452.31	9312.99
452.49	9261.50
452.68	9296.61
452.86	9474.49
453.05	9214.69
453.23	9561.09
453.42	9563.43
453.60	9415.98
453.78	9593.86
453.97	9554.07
454.15	9554.07
454.34	9699.18
454.52	9799.82
454.70	9696.84
454.89	9657.05
455.07	9947.28
455.26	9858.34
455.44	9891.10
455.62	9863.02
455.81	9935.57
455.99	9956.64
456.17	10164.95
456.36	10115.80
456.54	10071.33
456.73	10267.93
456.91	10354.53
457.09	10366.23
457.28	10296.02
457.46	10270.27
457.64	10523.05
457.83	10413.04
458.01	10691.57
458.19	10626.03
458.38	10422.41
458.56	10546.45
458.74	10719.65
458.93	10738.38
459.11	10731.36
459.29	10696.25
459.48	10686.89
459.66	10792.21
459.84	11042.65
460.03	11199.46
460.21	11030.94
460.39	10904.56
460.57	10972.43
460.76	10984.13
460.94	11389.05
461.12	11108.18
461.31	11220.53
461.49	11194.78
461.67	11328.19
461.85	11332.87
462.04	11318.83
462.22	11817.36
462.40	11524.80
462.59	11545.86
462.77	11398.41
462.95	11597.35
463.13	11527.14
463.32	11597.35
463.50	11655.87
463.68	11836.09
463.86	11866.52
464.05	11571.61
464.23	11712.04
464.41	11669.91
464.59	11634.80
464.78	12287.81
464.96	12011.63
465.14	11847.79
465.32	12313.56
465.50	12177.81
465.69	12077.16
465.87	12112.27
466.05	12138.02
466.23	12189.51
466.41	12170.79
466.60	12414.20
466.78	12231.64
466.96	12421.22
467.14	12376.75
467.32	12388.46
467.51	12685.70
467.69	12250.36
467.87	12603.78
468.05	12521.87
468.23	12266.75
468.41	12582.72
468.60	12587.40
468.78	12875.29
468.96	12556.97
469.14	12812.09
469.32	13022.74
469.50	12517.18
469.69	12973.59
469.87	13032.10
470.05	13327.01
470.23	13256.79
470.41	13200.62
470.59	13111.68
470.77	13357.44
470.95	13305.95
471.14	13437.02
471.32	13397.23
471.50	13565.74
471.68	13795.12
471.86	13666.39
472.04	13827.88
472.22	14019.81
472.40	13710.86
472.58	13949.59
472.77	13973.00
472.95	14059.60
473.13	14640.05
473.31	14235.14
473.49	14459.83
473.67	14115.77
473.85	14120.45
474.03	14766.44
474.21	14801.55
474.39	14827.29
474.57	14944.32
474.75	15005.17
474.93	15084.75
475.12	14956.02
475.30	15236.89
475.48	14988.79
475.66	15220.50
475.84	15372.64
476.02	15653.50
476.20	15279.02
476.38	15604.35
476.56	15950.75
476.74	15971.82
476.92	15943.73
477.10	15995.22
477.28	16315.87
477.46	16358.00
477.64	16266.72
477.82	16891.65
478.00	17008.67
478.18	16884.62
478.36	16868.24
478.54	16964.20
478.72	17261.45
478.90	17451.03
479.08	17401.88
479.26	17661.68
479.44	17612.53
479.62	17696.79
479.80	17963.61
479.98	18420.02
480.16	18654.07
480.34	18565.13
480.52	18707.90
480.70	18417.68
480.88	18445.76
481.06	18780.46
481.24	18817.91
481.41	19021.53
481.59	19728.38
481.77	19117.50
481.95	19613.69
482.13	20067.75
482.31	19370.27
482.49	20259.68
482.67	20163.72
482.85	20552.24
483.03	20774.60
483.21	21013.33
483.39	21123.33
483.57	21048.44
483.74	21537.61
483.92	21207.59
484.10	21249.72
484.28	21738.90
484.46	21678.04
484.64	22221.05
484.82	22033.80
485.00	22522.98
485.18	22483.19
485.35	23220.45
485.53	23147.90
485.71	23035.55
485.89	23634.73
486.07	23264.92
486.25	23412.38
486.43	23548.13
486.61	23913.25
486.78	23618.35
486.96	24163.69
487.14	24678.61
487.32	24830.74
487.50	25352.68
487.68	25142.03
487.85	25254.38
488.03	25525.88
488.21	26106.34
488.39	26003.35
488.57	25954.20
488.75	26288.90
488.92	26555.72
489.10	26689.13
489.28	27117.45
489.46	27356.18
489.64	27218.09
489.81	27810.25
489.99	27611.30
490.17	27878.12
490.35	28166.01
490.53	28346.23
490.70	28563.90
490.88	28503.04
491.06	29057.75
491.24	28716.03
491.41	29385.43
491.59	29303.51
491.77	29144.35
491.95	29764.59
492.13	29858.21
492.30	30054.82
492.48	30073.54
492.66	30450.37
492.84	30169.51
493.01	30953.58
493.19	30195.25
493.37	30969.97
493.54	30829.54
493.72	31594.89
493.90	31225.09
494.08	31489.57
494.25	31796.18
494.43	32273.65
494.61	32402.38
494.79	32261.94
494.96	32624.73
495.14	32914.95
495.32	33144.33
495.49	33614.77
495.67	33333.91
495.85	33752.87
496.02	33663.93
496.20	33905.00
496.38	34267.78
496.55	34256.08
496.73	34768.66
496.91	34614.18
497.09	35026.12
497.26	34958.24
497.44	34976.97
497.62	35409.96
497.79	35992.76
497.97	35604.23
498.14	36325.11
498.32	36444.48
498.50	36266.60
498.67	36545.12
498.85	36559.17
499.03	37062.38
499.20	36903.23
499.38	37153.66
499.56	37226.22
499.73	37593.68
499.91	37544.53
500.08	37464.96
500.26	37397.08
500.44	37912.00
500.61	37809.01
500.79	38103.92
500.97	38064.13
501.14	38646.93
501.32	38838.85
501.49	38672.67
501.67	38693.74
501.84	39152.48
502.02	39138.44
502.20	38899.70
502.37	39913.16
502.55	39569.10
502.72	39763.36
502.90	39470.79
503.07	39643.99
503.25	39976.35
503.43	39803.15
503.60	39681.44
503.78	40107.42
503.95	40669.15
504.13	40851.71
504.30	40538.08
504.48	40821.28
504.65	40774.47
504.83	41308.11
505.01	41715.37
505.18	41170.02
505.36	41649.83
505.53	41399.40
505.71	41736.43
505.88	41612.38
506.06	41911.97
506.23	42183.48
506.41	41673.24
506.58	42190.50
506.76	42199.86
506.93	43051.81
507.11	42087.51
507.28	42326.25
507.46	42813.08
507.63	43030.75
507.81	43208.63
507.98	43335.02
508.16	43182.88
508.33	43112.67
508.50	43697.80
508.68	43845.26
508.85	44053.56
509.03	44662.10
509.20	43985.69
509.38	44406.98
509.55	44699.55
509.73	44278.25
509.90	45076.38
510.08	44584.86
510.25	45038.93
510.42	44865.73
510.60	45191.06
510.77	45291.71
510.95	45270.64
511.12	45291.71
511.30	44964.03
511.47	45429.80
511.64	45652.15
511.82	45975.14
511.99	45801.94
512.17	45986.85
512.34	46204.52
512.51	46363.67
512.69	46410.48
512.86	46529.85
513.04	47065.83
513.21	47026.04
513.38	46689.01
513.56	46862.21
513.73	46831.78
513.90	47213.29
514.08	47239.03
514.25	47381.80
514.43	47283.50
514.60	47515.22
514.77	47267.12
514.95	47756.29
515.12	47929.49
515.29	47791.40
515.47	48060.56
515.64	48416.32
515.81	48074.60
515.99	48325.04
516.16	48629.31
516.33	48715.91
516.51	48814.21
516.68	48552.07
516.85	48552.07
517.03	49006.14
517.20	48643.35
517.37	48971.03
517.54	49048.27
517.72	49027.20
517.89	49066.99
518.06	49169.97
518.24	49186.36
518.41	49404.03
518.58	49289.34
518.75	49462.54
518.93	49694.25
519.10	49169.97
519.27	49837.03
519.45	49727.02
519.62	49895.54
519.79	49839.37
519.96	49949.37
520.14	50277.05
520.31	50225.56
520.48	50309.82
520.65	50707.71
520.83	51084.53
521.00	51044.74
521.17	50440.89
521.34	50499.40
521.52	51136.02
521.69	50871.54
521.86	51002.61
522.03	51320.93
522.20	51489.45
522.38	51587.75
522.55	51714.14
522.72	51330.29
522.89	51278.80
523.07	51557.32
523.24	51557.32
523.41	51639.24
523.58	51543.28
523.75	51550.30
523.92	52182.24
524.10	52191.61
524.27	52090.96
524.44	51985.64
524.61	51723.50
524.78	52463.11
524.96	52348.42
525.13	52402.25
525.30	52545.03
525.47	52467.79
525.64	52877.38
525.81	52540.35
525.98	52952.28
526.16	52603.54
526.33	52680.78
526.50	53303.36
526.67	52718.23
526.84	52893.77
527.01	52701.84
527.18	52753.33
527.36	53263.57
527.53	52982.71
527.70	53347.83
527.87	53364.21
528.04	53338.47
528.21	53595.93
528.38	53270.59
528.55	53869.77
528.72	53558.48
528.89	53579.54
529.07	53382.94
529.24	53434.43
529.41	53783.17
529.58	53715.29
529.75	53677.85
529.92	53944.67
530.09	53741.04
530.26	54110.85
530.43	54024.25
530.60	53876.79
530.77	53972.75
530.94	54064.03
531.11	54108.50
531.28	54230.21
531.46	54209.15
531.63	54363.62
531.80	54099.14
531.97	54487.67
532.14	54611.72
532.31	54571.93
532.48	54878.54
532.65	54733.43
532.82	54436.18
532.99	54824.71
533.16	54658.53
533.33	54646.83
533.50	54969.82
533.67	54939.39
533.84	54831.73
534.01	54841.09
534.18	54974.50
534.35	55295.16
534.52	55093.87
534.69	55377.08
534.86	55112.59
535.03	55222.60
535.20	55393.46
535.37	55625.17
535.54	55363.03
535.71	55688.37
535.88	55704.75
536.05	55529.21
536.22	55709.43
536.38	55718.79
536.55	55777.31
536.72	55669.64
536.89	55576.02
537.06	55709.43
537.23	55917.74
537.40	55716.45
537.57	55828.80
537.74	55915.40
537.91	56250.09
538.08	56023.06
538.25	55800.71
538.42	56151.79
538.59	56165.84
538.75	56121.37
538.92	56100.30
539.09	56350.74
539.26	56327.33
539.43	56168.18
539.60	56559.05
539.77	56210.31
539.94	56521.60
540.11	56313.29
540.28	56418.61
540.44	56488.83
540.61	56570.75
540.78	56395.21
540.95	56521.60
541.12	56645.65
541.29	56456.06
541.46	56563.73
541.62	56449.04
541.79	56795.44
541.96	56519.26
542.13	56603.52
542.30	56889.06
542.47	56868.00
542.63	56849.27
542.80	56816.50
542.97	57221.42
543.14	57226.10
543.31	57015.45
543.48	57368.87
543.64	57310.36
543.81	57511.64
543.98	57389.94
544.15	57389.94
544.32	57684.84
544.48	57535.05
544.65	57420.36
544.82	57485.90
544.99	57092.69
545.16	57584.20
545.32	57425.04
545.49	57668.46
545.66	57979.75
545.83	57462.49
546.00	57766.76
546.16	57488.24
546.33	57682.50
546.50	57588.88
546.67	57820.59
546.83	57418.02
547.00	57858.04
547.17	57726.97
547.34	57675.48
547.50	58045.29
547.67	58152.95
547.84	58110.82
548.00	57968.05
548.17	58267.64
548.34	58190.40
548.51	58354.24
548.67	58255.93
548.84	58225.51
549.01	58005.50
549.18	58478.28
549.34	58302.74
549.51	58396.37
549.68	58576.59
549.84	58553.18
550.01	58511.05
550.18	58138.91
550.34	58581.27
550.51	58466.58
550.68	58403.39
550.84	58377.64
551.01	58679.57
551.18	58475.94
551.34	58684.25
551.51	58780.21
551.68	58592.97
551.84	58473.60
552.01	58527.44
552.18	58705.32
552.34	58569.57
552.51	58611.70
552.68	58604.67
552.84	58745.11
553.01	59224.92
553.18	59054.06
553.34	59040.01
553.51	58960.44
553.67	58770.85
553.84	59058.74
554.01	59042.35
554.17	59119.59
554.34	59215.55
554.51	59047.04
554.67	58934.69
554.84	58908.94
555.00	59016.61
555.17	59032.99
555.33	59089.16
555.50	59131.29
555.67	59384.07
555.83	59025.97
556.00	59231.94
556.16	59484.72
556.33	59267.05
556.50	59451.95
556.66	59510.46
556.83	59243.64
556.99	59501.10
557.16	59353.65
557.32	59412.16
557.49	59641.53
557.65	59489.40
557.82	59430.88
557.98	59257.68
558.15	59557.27
558.32	59391.09
558.48	59236.62
558.65	59477.69
558.81	59756.22
558.98	59664.94
559.14	59678.98
559.31	59796.01
559.47	59784.30
559.64	59800.69
559.80	59781.96
559.97	59753.88
560.13	59662.60
560.30	59807.71
560.46	59952.82
560.63	59966.87
560.79	59725.79
560.96	59913.03
561.12	59826.43
561.29	59807.71
561.45	59990.27
561.61	59781.96
561.78	59992.61
561.94	59962.18
562.11	59906.01
562.27	60016.02
562.44	59987.93
562.60	60090.91
562.77	60051.12
562.93	59913.03
563.10	60147.09
563.26	60027.72
563.42	60184.54
563.59	60025.38
563.75	59891.97
563.92	60102.62
564.08	59924.74
564.24	60362.42
564.41	60217.30
564.57	60205.60
564.74	60086.23
564.90	60090.91
565.07	60032.40
565.23	60163.47
565.39	60336.67
565.56	60186.88
565.72	60357.74
565.88	60378.80
566.05	60151.77
566.21	60172.83
566.38	60346.03
566.54	60390.50
566.70	60250.07
566.87	60484.12
567.03	60175.17
567.19	60687.75
567.36	60245.39
567.52	60324.97
567.68	60516.89
567.85	60575.40
568.01	60444.33
568.17	60320.29
568.34	60643.28
568.50	60425.61
568.66	60278.16
568.83	60500.51
568.99	60453.70
569.15	60313.26
569.32	60381.14
569.48	60559.02
569.64	60654.98
569.81	60456.04
569.97	60420.93
570.13	60523.91
570.30	60502.85
570.46	60418.59
570.62	60666.69
570.78	60488.80
570.95	60626.90
571.11	60654.98
571.27	60460.72
571.43	60582.43
571.60	60783.71
571.76	60732.22
571.92	60617.53
572.09	60786.05
572.25	60544.98
572.41	60615.19
572.57	60856.27
572.74	60823.50
572.90	60760.31
573.06	60851.59
573.22	60701.79
573.38	60594.13
573.55	60594.13
573.71	60727.54
573.87	60608.17
574.03	60577.75
574.20	60767.33
574.36	60535.62
574.52	60540.30
574.68	60830.52
574.84	60839.89
575.01	60966.27
575.17	60757.97
575.33	60701.79
575.49	60690.09
575.65	60945.21
575.82	60928.83
575.98	61036.49
576.14	61087.98
576.30	60874.99
576.46	60980.32
576.62	60755.63
576.79	60793.07
576.95	60811.80
577.11	60856.27
577.27	60905.42
577.43	60837.54
577.59	60811.80
577.75	60821.16
577.92	60790.73
578.08	60863.29
578.24	60935.85
578.40	60917.12
578.56	60856.27
578.72	60905.42
578.88	60973.30
579.04	61013.08
579.21	61048.19
579.37	61076.28
579.53	60947.55
579.69	60900.74
579.85	60872.65
580.01	60886.70
580.17	60718.18
580.33	61080.96
580.49	61078.62
580.65	60940.53
580.82	60858.61
580.98	60870.31
581.14	60750.94
581.30	61076.28
581.46	60914.78
581.62	60938.19
581.78	61043.51
581.94	60975.64
582.10	61080.96
582.26	61015.43
582.42	60961.59
582.58	61006.06
582.74	61078.62
582.90	61006.06
583.06	60985.00
583.22	60779.03
583.38	60963.93
583.54	60863.29
583.70	61057.56
583.86	61069.26
584.02	60793.07
584.18	61174.58
584.34	61097.34
584.50	61013.08
584.66	61013.08
584.82	60753.29
584.98	61233.10
585.14	61235.44
585.30	61050.53
585.46	61024.79
585.62	61160.54
585.78	61052.87
585.94	61027.13
586.10	61095.00
586.26	61265.86
586.42	61202.67
586.58	61240.12
586.74	61123.09
586.90	61057.56
587.06	61102.03
587.22	61333.74
587.38	61099.68
587.54	61368.85
587.70	61219.05
587.86	61022.45
588.02	61120.75
588.18	61399.27
588.34	61205.01
588.49	61062.24
