SpectraSuite Data File
++++++++++++++++++++++++++++++++++++
Date: Fri Oct 25 10:47:55 EDT 2013
User: price-jones
Dark Spectrum Present: No
Reference Spectrum Present: No
Number of Sampled Component Spectra: 1
Spectrometers: USB2+H05261
Integration Time (usec): 100000 (USB2+H05261)
Spectra Averaged: 1 (USB2+H05261)
Boxcar Smoothing: 0 (USB2+H05261)
Correct for Electrical Dark: No (USB2+H05261)
Strobe/Lamp Enabled: No (USB2+H05261)
Correct for Detector Non-linearity: No (USB2+H05261)
Correct for Stray Light: No (USB2+H05261)
Number of Pixels in Processed Spectrum: 2048
>>>>>Begin Processed Spectral Data<<<<<
365.73	180.22
365.92	180.22
366.12	180.22
366.32	84.26
366.52	42.13
366.72	119.37
366.91	0.00
367.11	95.96
367.31	51.49
367.51	72.56
367.70	11.70
367.90	35.11
368.10	21.06
368.30	70.22
368.49	37.45
368.69	39.79
368.89	16.38
369.09	86.60
369.28	70.22
369.48	37.45
369.68	138.09
369.87	142.77
370.07	72.56
370.27	121.71
370.47	215.33
370.66	395.55
370.86	425.98
371.06	543.00
371.25	433.00
371.45	449.38
371.65	489.17
371.84	437.68
372.04	454.06
372.24	496.19
372.44	440.02
372.63	454.06
372.83	514.92
373.03	521.94
373.22	510.24
373.42	456.40
373.62	498.53
373.81	519.60
374.01	559.39
374.21	568.75
374.40	528.96
374.60	568.75
374.79	540.66
374.99	528.96
375.19	543.00
375.38	620.24
375.58	582.79
375.78	622.58
375.97	559.39
376.17	695.14
376.37	610.88
376.56	603.86
376.76	552.37
376.95	620.24
377.15	702.16
377.35	568.75
377.54	561.73
377.74	594.50
377.93	681.10
378.13	566.41
378.33	624.92
378.52	580.45
378.72	650.67
378.91	638.97
379.11	557.05
379.31	580.45
379.50	610.88
379.70	620.24
379.89	631.94
380.09	578.11
380.28	627.26
380.48	638.97
380.68	643.65
380.87	596.84
381.07	755.99
381.26	695.14
381.46	615.56
381.65	683.44
381.85	648.33
382.04	552.37
382.24	655.35
382.43	655.35
382.63	636.63
382.83	657.69
383.02	660.03
383.22	809.83
383.41	716.20
383.61	713.86
383.80	739.61
384.00	669.39
384.19	748.97
384.39	713.86
384.58	741.95
384.78	781.74
384.97	711.52
385.17	798.12
385.36	755.99
385.56	784.08
385.75	720.88
385.95	821.53
386.14	788.76
386.34	727.91
386.53	784.08
386.72	830.89
386.92	816.85
387.11	833.23
387.31	807.48
387.50	861.32
387.70	849.61
387.89	798.12
388.09	863.66
388.28	760.67
388.48	870.68
388.67	908.13
388.86	891.74
389.06	898.77
389.25	887.06
389.45	858.98
389.64	851.96
389.84	940.90
390.03	943.24
390.22	908.13
390.42	940.90
390.61	1015.79
390.81	926.85
391.00	954.94
391.19	1025.15
391.39	1036.86
391.58	985.37
391.78	943.24
391.97	919.83
392.16	936.21
392.36	938.55
392.55	978.34
392.75	978.34
392.94	976.00
393.13	1004.09
393.33	966.64
393.52	1064.94
393.71	1013.45
393.91	1057.92
394.10	1062.60
394.29	1046.22
394.49	1043.88
394.68	1121.12
394.88	1144.52
395.07	1156.22
395.26	1114.10
395.46	1144.52
395.65	1100.05
395.84	1081.33
396.04	1193.67
396.23	1109.41
396.42	1025.15
396.62	1102.39
396.81	1132.82
397.00	1135.16
397.19	1083.67
397.39	1242.82
397.58	1207.72
397.77	1280.27
397.97	1294.32
398.16	1226.44
398.35	1313.04
398.55	1282.61
398.74	1294.32
398.93	1385.60
399.12	1348.15
399.32	1287.29
399.51	1287.29
399.70	1359.85
399.90	1371.55
400.09	1416.02
400.28	1355.17
400.47	1458.15
400.67	1409.00
400.86	1430.07
401.05	1495.60
401.24	1476.88
401.44	1504.96
401.63	1495.60
401.82	1476.88
402.01	1504.96
402.21	1631.35
402.40	1535.39
402.59	1600.93
402.78	1572.84
402.97	1526.03
403.17	1561.14
403.36	1511.99
403.55	1687.53
403.74	1680.50
403.93	1619.65
404.13	1696.89
404.32	1724.97
404.51	1689.87
404.70	1671.14
404.89	1624.33
405.09	1797.53
405.28	1720.29
405.47	1722.63
405.66	1797.53
405.85	1825.62
406.05	1633.69
406.24	1816.26
406.43	1877.11
406.62	1818.60
406.81	1909.88
407.00	1820.94
407.20	1839.66
407.39	1806.89
407.58	1877.11
407.77	1933.28
407.96	2031.58
408.15	1928.60
408.34	1980.09
408.54	1963.71
408.73	1940.30
408.92	2054.99
409.11	2008.18
409.30	2064.35
409.49	2005.84
409.68	2026.90
409.87	2031.58
410.07	2064.35
410.26	2010.52
410.45	2120.53
410.64	1961.37
410.83	2108.82
411.02	2090.10
411.21	2200.10
411.40	2293.72
411.59	2256.28
411.78	2260.96
411.98	2272.66
412.17	2338.20
412.36	2427.14
412.55	2375.64
412.74	2476.29
412.93	2387.35
413.12	2403.73
413.31	2621.40
413.50	2616.72
413.69	2541.82
413.88	2539.48
414.07	2675.23
414.26	2579.27
414.45	2637.78
414.64	2602.68
414.83	2761.83
415.02	2635.44
415.22	2733.75
415.41	2846.09
415.60	2754.81
415.79	2750.13
415.98	2888.22
416.17	2818.00
416.36	2923.33
416.55	2963.12
416.74	2967.80
416.93	2871.84
417.12	2867.16
417.31	2949.08
417.50	2874.18
417.69	3033.33
417.88	3166.74
418.07	3138.66
418.26	3073.12
418.45	3098.87
418.64	3141.00
418.83	3005.25
419.02	3096.53
419.21	3239.30
419.39	3197.17
419.58	3208.87
419.77	3201.85
419.96	3342.28
420.15	3358.67
420.34	3314.20
420.53	3253.34
420.72	3342.28
420.91	3461.65
421.10	3344.63
421.29	3440.59
421.48	3351.65
421.67	3459.31
421.86	3403.14
422.05	3438.25
422.24	3318.88
422.43	3346.97
422.61	3424.20
422.80	3660.60
422.99	3548.25
423.18	3517.83
423.37	3613.79
423.56	3475.70
423.75	3480.38
423.94	3609.11
424.13	3236.96
424.32	3400.80
424.50	3503.78
424.69	3604.42
424.88	3632.51
425.07	3414.84
425.26	3595.06
425.45	3543.57
425.64	3489.74
425.83	3459.31
426.01	3684.00
426.20	3576.34
426.39	3562.30
426.58	3538.89
426.77	3695.71
426.96	3623.15
427.15	3627.83
427.33	3707.41
427.52	3590.38
427.71	3712.09
427.90	3796.35
428.09	3880.61
428.28	3721.45
428.46	3679.32
428.65	3789.33
428.84	3737.84
429.03	3763.58
429.22	3716.77
429.40	3784.65
429.59	3852.52
429.78	3632.51
429.97	3648.90
430.16	3623.15
430.34	3772.94
430.53	3875.93
430.72	3761.24
430.91	3777.62
431.10	3857.20
431.28	4086.58
431.47	4215.30
431.66	4177.86
431.85	4014.02
432.03	4060.83
432.22	4250.41
432.41	4067.85
432.60	4147.43
432.79	4170.83
432.97	4231.69
433.16	4081.89
433.35	4243.39
433.54	4086.58
433.72	4119.34
433.91	4280.84
434.10	4259.78
434.28	4341.69
434.47	4383.82
434.66	4503.19
434.85	4372.12
435.03	4528.94
435.22	4479.79
435.41	4608.51
435.59	4587.45
435.78	4667.03
435.97	4531.28
436.16	4521.92
436.34	4526.60
436.53	4564.04
436.72	4688.09
436.90	4599.15
437.09	4692.77
437.28	4608.51
437.46	4692.77
437.65	4732.56
437.84	4760.65
438.02	4772.35
438.21	4709.16
438.40	4582.77
438.58	4873.00
438.77	4816.82
438.96	4819.16
439.14	5074.28
439.33	4912.78
439.52	4961.94
439.70	5041.51
439.89	5069.60
440.08	5238.12
440.26	5172.58
440.45	5177.26
440.63	5277.91
440.82	5228.76
441.01	5153.86
441.19	5401.96
441.38	5455.79
441.57	5390.25
441.75	5537.71
441.94	5771.76
442.12	5582.18
442.31	5661.76
442.50	5839.64
442.68	5577.50
442.87	5605.58
443.05	5870.06
443.24	5687.50
443.43	5806.87
443.61	5720.27
443.80	5825.59
443.98	5708.57
444.17	5521.32
444.35	5928.58
444.54	5771.76
444.73	5818.57
444.91	5851.34
445.10	5816.23
445.28	5881.77
445.47	5750.70
445.65	5781.12
445.84	5839.64
446.02	6071.35
446.21	5851.34
446.39	5935.60
446.58	5919.21
446.77	5907.51
446.95	5877.09
447.14	5954.32
447.32	6026.88
447.51	5996.45
447.69	6127.52
447.88	6073.69
448.06	5914.53
448.25	5898.15
448.43	6022.20
448.62	5872.40
448.80	6087.73
448.99	6008.16
449.17	6195.40
449.36	6134.54
449.54	6209.44
449.73	6279.66
449.91	6338.17
450.10	6314.77
450.28	6274.98
450.46	6347.53
450.65	6333.49
450.83	6422.43
451.02	6509.03
451.20	6377.96
451.39	6443.49
451.57	6363.92
451.76	6389.66
451.94	6429.45
452.13	6511.37
452.31	6499.67
452.49	6558.18
452.68	6431.79
452.86	6665.85
453.05	6614.35
453.23	6595.63
453.42	6555.84
453.60	6649.46
453.78	6726.70
453.97	6612.01
454.15	6413.07
454.34	6614.35
454.52	6553.50
454.70	6612.01
454.89	6801.60
455.07	6675.21
455.26	6717.34
455.44	6867.13
455.62	6995.86
455.81	6670.53
455.99	6991.18
456.17	6913.94
456.36	6974.80
456.54	7197.15
456.73	7248.64
456.91	7248.64
457.09	7363.33
457.28	7517.80
457.46	7145.66
457.64	7417.16
457.83	7236.94
458.01	7201.83
458.19	7618.44
458.38	7400.77
458.56	7339.92
458.74	7515.46
458.93	7585.68
459.11	7489.71
459.29	7281.41
459.48	7597.38
459.66	7492.05
459.84	7627.81
460.03	7796.32
460.21	7751.85
460.39	7641.85
460.57	7840.79
460.76	7808.03
460.94	7831.43
461.12	7740.15
461.31	7819.73
461.49	7749.51
461.67	7492.05
461.85	8053.78
462.04	7789.30
462.22	8168.47
462.40	8018.68
462.59	8011.65
462.77	8030.38
462.95	8138.04
463.13	8091.23
463.32	8051.44
463.50	8241.03
463.68	7943.78
463.86	8098.25
464.05	7941.44
464.23	7999.95
464.41	8383.80
464.59	8182.51
464.78	8224.64
464.96	8166.13
465.14	8133.36
465.32	8180.17
465.50	8372.10
465.69	8224.64
465.87	8512.53
466.05	8287.84
466.23	8351.03
466.41	8212.94
466.60	8409.54
466.78	8383.80
466.96	8411.89
467.14	8617.85
467.32	8566.36
467.51	8791.05
467.69	8386.14
467.87	8552.32
468.05	8634.24
468.23	8496.14
468.41	8358.05
468.60	8664.66
468.78	8830.84
468.96	8470.40
469.14	8650.62
469.32	8739.56
469.50	8540.61
469.69	8699.77
469.87	8978.30
470.05	8802.75
470.23	9022.77
470.41	8844.88
470.59	8964.25
470.77	8882.33
470.95	9057.87
471.14	9217.03
471.32	9029.79
471.50	9350.44
471.68	9413.63
471.86	9378.53
472.04	9390.23
472.22	9710.88
472.40	9067.24
472.58	9511.94
472.77	9390.23
472.95	9610.24
473.13	9839.61
473.31	9530.66
473.49	9596.20
473.67	9523.64
473.85	9596.20
474.03	9778.76
474.21	9818.55
474.39	10033.88
474.57	10146.22
474.75	10111.11
474.93	10078.35
475.12	10052.60
475.30	10352.19
475.48	10111.11
475.66	10134.52
475.84	10190.69
476.02	10417.72
476.20	10251.55
476.38	10675.18
476.56	10714.97
476.74	10572.20
476.92	10778.17
477.10	10604.97
477.28	10827.32
477.46	10974.77
477.64	11063.71
477.82	11169.04
478.00	11461.60
478.18	11447.56
478.36	11239.25
478.54	11445.22
478.72	11555.22
478.90	11480.33
479.08	11953.12
479.26	11882.90
479.44	11850.13
479.62	11948.43
479.80	12290.15
479.98	12203.55
480.16	12397.82
480.34	12079.50
480.52	12512.50
480.70	12444.63
480.88	12510.16
481.06	12781.67
481.24	12575.70
481.41	12868.27
481.59	13153.81
481.77	13160.83
481.95	13053.17
482.13	13303.60
482.31	13298.92
482.49	13383.18
482.67	13312.97
482.85	13570.43
483.03	13900.44
483.21	14010.45
483.39	14031.51
483.57	14249.18
483.74	13968.32
483.92	14251.52
484.10	14223.44
484.28	14317.06
484.46	14340.46
484.64	15108.16
484.82	14717.29
485.00	14726.65
485.18	15267.31
485.35	15147.95
485.53	14906.87
485.71	15124.54
485.89	15328.17
486.07	15199.44
486.25	15325.83
486.43	15290.72
486.61	15714.36
486.78	15819.68
486.96	16177.78
487.14	16362.69
487.32	16175.44
487.50	16734.83
487.68	16409.50
487.85	16938.46
488.03	16971.22
488.21	17003.99
488.39	16999.31
488.57	17153.79
488.75	17228.68
488.92	17502.53
489.10	17769.35
489.28	17528.27
489.46	17991.70
489.64	17879.35
489.81	18134.47
489.99	18143.83
490.17	18464.49
490.35	18721.95
490.53	18682.16
490.70	18834.29
490.88	18640.03
491.06	18892.80
491.24	18878.76
491.41	19089.41
491.59	19220.48
491.77	19487.30
491.95	19676.88
492.13	19667.52
492.30	19728.38
492.48	19740.08
492.66	19962.43
492.84	19857.10
493.01	19868.81
493.19	20414.15
493.37	20744.17
493.54	20634.16
493.72	20573.31
493.90	20826.09
494.08	21099.93
494.25	20870.56
494.43	21209.93
494.61	21380.79
494.79	21195.89
494.96	21654.64
495.14	21373.77
495.32	21893.37
495.49	21329.30
495.67	22008.06
495.85	22073.59
496.02	22281.90
496.20	22445.74
496.38	22267.86
496.55	22623.62
496.73	22799.16
496.91	22731.28
497.09	23260.24
497.26	23070.66
497.44	22925.55
497.62	23365.57
497.79	23438.12
497.97	23201.73
498.14	23403.02
498.32	23672.18
498.50	24081.77
498.67	23953.04
498.85	23864.10
499.03	24196.46
499.20	24304.12
499.38	24002.19
499.56	24116.88
499.73	24409.45
499.91	24917.34
500.08	24472.64
500.26	24376.68
500.44	24610.73
500.61	24381.36
500.79	24615.41
500.97	24952.45
501.14	25230.98
501.32	25076.50
501.49	25359.70
501.67	25226.29
501.84	25308.21
502.02	25453.33
502.20	25633.55
502.37	25766.96
502.55	25565.67
502.72	26082.93
502.90	25891.01
503.07	26052.50
503.25	25912.07
503.43	25837.17
503.60	25914.41
503.78	26129.74
503.95	26359.11
504.13	26527.63
504.30	26719.56
504.48	26436.35
504.65	26405.92
504.83	26986.38
505.01	26920.84
505.18	26747.64
505.36	27356.18
505.53	27187.66
505.71	27143.19
505.88	27545.76
506.06	27164.26
506.23	27480.23
506.41	27452.14
506.58	27328.10
506.76	27627.68
506.93	27967.06
507.11	27782.16
507.28	28128.56
507.46	27953.02
507.63	28091.11
507.81	28273.67
507.98	27850.03
508.16	28224.52
508.33	28580.28
508.50	28390.70
508.68	28744.12
508.85	28697.31
509.03	28720.71
509.20	28835.40
509.38	28905.62
509.55	29116.26
509.73	29191.16
509.90	29280.10
510.08	29046.05
510.25	29046.05
510.42	29099.88
510.60	29888.64
510.77	29582.03
510.95	29832.47
511.12	29633.52
511.30	29741.19
511.47	30125.04
511.64	30323.98
511.82	30368.45
511.99	29879.28
512.17	30396.54
512.34	29792.68
512.51	30478.46
512.69	30656.34
512.86	30375.47
513.04	30600.16
513.21	30864.64
513.38	30403.56
513.56	30911.46
513.73	31016.78
513.90	31337.43
514.08	30651.66
514.25	30974.65
514.43	31108.06
514.60	31241.47
514.77	31358.50
514.95	30897.41
515.12	31129.12
515.29	31201.68
515.47	31758.73
515.64	31512.97
515.81	31758.73
515.99	31332.75
516.16	31325.73
516.33	31463.82
516.51	31906.18
516.68	31538.72
516.85	31414.67
517.03	31976.40
517.20	31992.78
517.37	31866.39
517.54	32156.62
517.72	32627.07
517.89	32156.62
518.06	32102.79
518.24	32369.61
518.41	32039.59
518.58	32376.63
518.75	32486.64
518.93	32968.79
519.10	32856.44
519.27	32751.12
519.45	32910.27
519.62	32985.17
519.79	33301.14
519.96	33324.55
520.14	33315.19
520.31	33376.04
520.48	33289.44
520.65	33500.09
520.83	33890.96
521.00	33340.93
521.17	33359.66
521.34	33738.82
521.52	33792.65
521.69	33677.97
521.86	34202.25
522.03	33738.82
522.20	34174.16
522.38	34057.14
522.55	34597.80
522.72	34132.03
522.89	34040.75
523.07	34543.97
523.24	34520.56
523.41	34354.38
523.58	34321.62
523.75	34979.31
523.92	34714.83
524.10	35007.39
524.27	34981.65
524.44	35377.20
524.61	34993.35
524.78	34916.11
524.96	35281.24
525.13	35407.62
525.30	35262.51
525.47	35541.03
525.64	35086.97
525.81	35515.29
525.98	35398.26
526.16	35402.94
526.33	35000.37
526.50	35285.92
526.67	35388.90
526.84	35494.22
527.01	35473.16
527.18	35641.68
527.36	35353.79
527.53	35660.40
527.70	36098.08
527.87	36301.71
528.04	35988.08
528.21	36381.29
528.38	36364.90
528.55	36320.43
528.72	36011.48
528.89	36582.57
529.07	36357.88
529.24	36371.92
529.41	36418.74
529.58	36580.23
529.75	36561.51
529.92	36928.97
530.09	36940.68
530.26	36837.69
530.43	36968.76
530.60	36392.99
530.77	37277.71
530.94	36694.92
531.11	36730.03
531.28	37090.47
531.46	36554.49
531.63	37598.37
531.80	37610.07
531.97	37537.51
532.14	37034.30
532.31	37289.42
532.48	37263.67
532.65	37364.31
532.82	37191.11
532.99	37991.58
533.16	37291.76
533.33	38099.24
533.50	38061.79
533.67	37926.04
533.84	38003.28
534.01	37940.08
534.18	37624.11
534.35	38309.89
534.52	37921.36
534.69	38064.13
534.86	37926.04
535.03	37851.14
535.20	38267.76
535.37	38057.11
535.54	38756.93
535.71	38373.08
535.88	38698.42
536.05	38314.57
536.22	38518.20
536.38	38745.23
536.55	38675.01
536.72	38359.04
536.89	38197.54
537.06	38614.16
537.23	38913.75
537.40	38981.62
537.57	38869.28
537.74	38909.07
537.91	39119.71
538.08	39367.81
538.25	38923.11
538.42	38794.38
538.59	39264.83
538.75	38897.36
538.92	39431.01
539.09	39416.96
539.26	39236.74
539.43	39356.11
539.60	39260.15
539.77	39491.86
539.94	39201.63
540.11	39440.37
540.28	39246.10
540.44	39358.45
540.61	39086.95
540.78	39297.59
540.95	39648.68
541.12	39295.25
541.29	39344.41
541.46	39690.80
541.62	39550.37
541.79	39840.60
541.96	39482.50
542.13	39468.45
542.30	39765.70
542.47	40133.17
542.63	39508.24
542.80	40278.28
542.97	40524.04
543.14	40315.73
543.31	40727.66
543.48	40921.93
543.64	41120.87
543.81	40444.46
543.98	40928.95
544.15	40760.43
544.32	40676.17
544.48	40795.54
544.65	40479.57
544.82	40533.40
544.99	40360.20
545.16	41043.63
545.32	40737.02
545.49	40678.51
545.66	40854.05
545.83	41006.19
546.00	41516.42
546.16	41256.62
546.33	40884.48
546.50	40835.33
546.67	41015.55
546.83	40601.27
547.00	41104.49
547.17	41294.07
547.34	41141.94
547.50	41076.40
547.67	41816.01
547.84	41195.77
548.00	41514.08
548.17	41944.74
548.34	41060.02
548.51	41638.13
548.67	41825.37
548.84	41837.08
549.01	41340.88
549.18	41523.44
549.34	41254.28
549.51	41949.42
549.68	41790.27
549.84	41773.88
550.01	41846.44
550.18	41593.66
550.34	41486.00
550.51	41804.31
550.68	41963.46
550.84	41832.39
551.01	41989.21
551.18	42029.00
551.34	41851.12
551.51	42298.16
551.68	42366.04
551.84	42202.20
552.01	42059.43
552.18	42003.25
552.34	41970.49
552.51	42576.69
552.68	42869.25
552.84	42719.46
553.01	42672.65
553.18	42335.61
553.34	42256.03
553.51	42710.10
553.67	42686.69
553.84	42621.16
554.01	42405.83
554.17	42927.77
554.34	43086.92
554.51	42476.04
554.67	42967.55
554.84	42944.15
555.00	42300.50
555.17	42335.61
555.33	42754.57
555.50	42780.31
555.67	42609.45
555.83	43093.94
556.00	42698.39
556.16	43384.17
556.33	43122.03
556.50	42878.61
556.66	43222.67
556.83	43070.54
556.99	42815.42
557.16	43164.16
557.32	43337.36
557.49	43199.27
557.65	42726.48
557.82	43147.78
557.98	43337.36
558.15	43278.85
558.32	43311.61
558.48	43360.76
558.65	42843.51
558.81	42979.26
558.98	43440.34
559.14	43440.34
559.31	43320.98
559.47	43629.93
559.64	43999.73
559.80	43840.57
559.97	43847.60
560.13	43487.15
560.30	43632.27
560.46	43559.71
560.63	43641.63
560.79	43171.18
560.96	44058.24
561.12	43695.46
561.29	43491.83
561.45	43683.76
561.61	43711.84
561.78	43438.00
561.94	43604.18
562.11	43711.84
562.27	43688.44
562.44	43604.18
562.60	44027.82
562.77	44109.74
562.93	43913.13
563.10	43892.07
563.26	43679.08
563.42	44126.12
563.59	44013.77
563.75	43817.17
563.92	43861.64
564.08	44018.46
564.24	43966.96
564.41	43784.40
564.57	43653.33
564.74	44116.76
564.90	44079.31
565.07	43744.61
565.23	43945.90
565.39	44182.29
565.56	44100.37
565.72	44170.59
565.88	43875.68
566.05	44109.74
566.21	43849.94
566.38	43810.15
566.54	43828.87
566.70	44392.94
566.87	44179.95
567.03	44051.22
567.19	44158.89
567.36	44203.36
567.52	44165.91
567.68	44292.30
567.85	44250.17
568.01	44208.04
568.17	43981.01
568.34	44002.07
568.50	44039.52
568.66	44210.38
568.83	44463.16
568.99	43889.73
569.15	44362.51
569.32	43971.64
569.48	44191.65
569.64	44442.09
569.81	44329.75
569.97	44266.55
570.13	44081.65
570.30	44058.24
570.46	44238.47
570.62	43950.58
570.78	44210.38
570.95	44397.62
571.11	44516.99
571.27	44402.30
571.43	44264.21
571.60	44896.16
571.76	44299.32
571.92	44004.41
572.09	44416.35
572.25	44257.19
572.41	44196.34
572.57	44306.34
572.74	45207.45
572.90	44116.76
573.06	44404.64
573.22	44526.35
573.38	44285.28
573.55	44423.37
573.71	44470.18
573.87	44334.43
574.03	44395.28
574.20	44587.21
574.36	44624.65
574.52	44311.02
574.68	44388.26
574.84	44392.94
575.01	44320.38
575.17	44414.01
575.33	44472.52
575.49	44292.30
575.65	44500.61
575.82	44875.09
575.98	44741.68
576.14	44615.29
576.30	44175.27
576.46	44231.44
576.62	44112.08
576.79	44376.56
576.95	43906.11
577.11	44678.49
577.27	44474.86
577.43	44858.71
577.59	44500.61
577.75	44708.91
577.92	44222.08
578.08	44360.17
578.24	44055.90
578.40	44875.09
578.56	44451.45
578.72	44545.08
578.88	44655.08
579.04	44755.72
579.21	44545.08
579.37	44498.26
579.53	44411.67
579.69	44069.95
579.85	44418.69
580.01	44676.15
580.17	44502.95
580.33	45017.86
580.49	45088.08
580.65	44697.21
580.82	44360.17
580.98	44105.06
581.14	44830.62
581.30	45298.73
581.46	44837.64
581.62	44493.58
581.78	44737.00
581.94	45095.10
582.10	44715.93
582.26	45298.73
582.42	44495.92
582.58	44823.60
582.74	44332.09
582.90	44666.78
583.06	44533.37
583.22	45134.89
583.38	45008.50
583.54	44634.02
583.70	44638.70
583.86	44739.34
584.02	44189.31
584.18	44715.93
584.34	44842.32
584.50	45022.54
584.66	44514.65
584.82	44547.42
584.98	44844.66
585.14	44933.60
585.30	44673.81
585.46	44392.94
585.62	44257.19
585.78	44648.06
585.94	44278.25
586.10	44680.83
586.26	44718.28
586.42	44793.17
586.58	45162.98
586.74	44582.52
586.90	44842.32
587.06	44889.13
587.22	44573.16
587.38	44577.84
587.54	45162.98
587.70	44961.69
587.86	44896.16
588.02	44638.70
588.18	44949.99
588.34	44746.36
588.49	44456.14
588.65	44505.29
588.81	44409.32
588.97	44531.03
589.13	44851.69
589.29	44495.92
589.45	44577.84
589.61	44957.01
589.77	44629.34
589.93	44793.17
590.08	45333.84
590.24	44587.21
