SpectraSuite Data File
++++++++++++++++++++++++++++++++++++
Date: Fri Oct 25 11:34:19 EDT 2013
User: price-jones
Dark Spectrum Present: No
Reference Spectrum Present: No
Number of Sampled Component Spectra: 1
Spectrometers: USB2+H05261
Integration Time (usec): 100000 (USB2+H05261)
Spectra Averaged: 1 (USB2+H05261)
Boxcar Smoothing: 0 (USB2+H05261)
Correct for Electrical Dark: No (USB2+H05261)
Strobe/Lamp Enabled: No (USB2+H05261)
Correct for Detector Non-linearity: No (USB2+H05261)
Correct for Stray Light: No (USB2+H05261)
Number of Pixels in Processed Spectrum: 2048
>>>>>Begin Processed Spectral Data<<<<<
365.73	175.54
365.92	175.54
366.12	175.54
366.32	287.89
366.52	210.65
366.72	163.84
366.91	140.43
367.11	238.73
367.31	215.33
367.51	203.63
367.70	238.73
367.90	180.22
368.10	189.58
368.30	161.50
368.49	112.35
368.69	142.77
368.89	182.56
369.09	229.37
369.28	194.26
369.48	280.86
369.68	173.20
369.87	248.10
370.07	271.50
370.27	234.05
370.47	292.57
370.66	430.66
370.86	531.30
371.06	470.45
371.25	587.47
371.45	559.39
371.65	594.50
371.84	444.70
372.04	533.64
372.24	578.11
372.44	634.29
372.63	608.54
372.83	540.66
373.03	543.00
373.22	526.62
373.42	617.90
373.62	608.54
373.81	631.94
374.01	627.26
374.21	608.54
374.40	580.45
374.60	681.10
374.79	631.94
374.99	617.90
375.19	585.13
375.38	713.86
375.58	688.12
375.78	613.22
375.97	615.56
376.17	580.45
376.37	634.29
376.56	557.05
376.76	685.78
376.95	678.76
377.15	650.67
377.35	671.73
377.54	732.59
377.74	631.94
377.93	648.33
378.13	657.69
378.33	697.48
378.52	685.78
378.72	739.61
378.91	727.91
379.11	678.76
379.31	692.80
379.50	629.60
379.70	648.33
379.89	699.82
380.09	704.50
380.28	704.50
380.48	711.52
380.68	774.72
380.87	650.67
381.07	741.95
381.26	763.01
381.46	732.59
381.65	753.65
381.85	770.04
382.04	732.59
382.24	716.20
382.43	784.08
382.63	732.59
382.83	781.74
383.02	777.06
383.22	809.83
383.41	788.76
383.61	791.10
383.80	896.43
384.00	739.61
384.19	826.21
384.39	863.66
384.58	758.33
384.78	851.96
384.97	863.66
385.17	795.78
385.36	751.31
385.56	807.48
385.75	826.21
385.95	767.70
386.14	802.80
386.34	903.45
386.53	819.19
386.72	849.61
386.92	849.61
387.11	887.06
387.31	887.06
387.50	910.47
387.70	884.72
387.89	922.17
388.09	821.53
388.28	891.74
388.48	912.81
388.67	924.51
388.86	891.74
389.06	891.74
389.25	933.87
389.45	905.79
389.64	898.77
389.84	919.83
390.03	924.51
390.22	952.60
390.42	938.55
390.61	1015.79
390.81	978.34
391.00	945.58
391.19	1011.11
391.39	957.28
391.58	894.08
391.78	966.64
391.97	936.21
392.16	1029.84
392.36	1025.15
392.55	1074.31
392.75	1011.11
392.94	1011.11
393.13	978.34
393.33	1025.15
393.52	1041.54
393.71	1081.33
393.91	1039.20
394.10	1041.54
394.29	1118.78
394.49	1078.99
394.68	1151.54
394.88	1132.82
395.07	1198.35
395.26	1163.25
395.46	1086.01
395.65	1238.14
395.84	1158.57
396.04	1231.12
396.23	1207.72
396.42	1118.78
396.62	1144.52
396.81	1160.91
397.00	1156.22
397.19	1214.74
397.39	1198.35
397.58	1254.53
397.77	1186.65
397.97	1170.27
398.16	1172.61
398.35	1294.32
398.55	1270.91
398.74	1238.14
398.93	1409.00
399.12	1404.32
399.32	1238.14
399.51	1240.48
399.70	1294.32
399.90	1273.25
400.09	1275.59
400.28	1282.61
400.47	1270.91
400.67	1315.38
400.86	1376.24
401.05	1385.60
401.24	1310.70
401.44	1376.24
401.63	1390.28
401.82	1507.30
402.01	1366.87
402.21	1425.39
402.40	1451.13
402.59	1462.83
402.78	1469.86
402.97	1523.69
403.17	1483.90
403.36	1472.20
403.55	1530.71
403.74	1488.58
403.93	1528.37
404.13	1633.69
404.32	1554.12
404.51	1540.07
404.70	1692.21
404.89	1603.27
405.09	1654.76
405.28	1591.56
405.47	1582.20
405.66	1607.95
405.85	1654.76
406.05	1582.20
406.24	1717.95
406.43	1540.07
406.62	1781.15
406.81	1739.02
407.00	1739.02
407.20	1699.23
407.39	1720.29
407.58	1741.36
407.77	1748.38
407.96	1858.39
408.15	1818.60
408.34	1851.36
408.54	1937.96
408.73	1909.88
408.92	1893.49
409.11	1949.67
409.30	1874.77
409.49	1977.75
409.68	1909.88
409.87	1944.99
410.07	1926.26
410.26	2017.54
410.45	2010.52
410.64	2024.56
410.83	2069.03
411.02	2083.08
411.21	2104.14
411.40	2024.56
411.59	2080.74
411.78	2047.97
411.98	2162.66
412.17	2108.82
412.36	2150.95
412.55	2167.34
412.74	2298.41
412.93	2310.11
413.12	2111.16
413.31	2387.35
413.50	2342.88
413.69	2342.88
413.88	2349.90
414.07	2459.90
414.26	2464.58
414.45	2485.65
414.64	2487.99
414.83	2480.97
415.02	2499.69
415.22	2509.05
415.41	2572.25
415.60	2593.31
415.79	2616.72
415.98	2668.21
416.17	2708.00
416.36	2686.94
416.55	2665.87
416.74	2668.21
416.93	2729.06
417.12	2782.90
417.31	2827.37
417.50	2810.98
417.69	2928.01
417.88	2832.05
418.07	2871.84
418.26	2956.10
418.45	2871.84
418.64	2918.65
418.83	2972.48
419.02	2946.73
419.21	2972.48
419.39	3042.70
419.58	2935.03
419.77	2993.55
419.96	2991.20
420.15	3016.95
420.34	3005.25
420.53	3080.14
420.72	3103.55
420.91	3087.17
421.10	3150.36
421.29	3073.12
421.48	3136.32
421.67	3199.51
421.86	3229.94
422.05	3199.51
422.24	3178.45
422.43	3297.81
422.61	3255.69
422.80	3349.31
422.99	3227.60
423.18	3253.34
423.37	3407.82
423.56	3279.09
423.75	3435.91
423.94	3234.62
424.13	3185.47
424.32	3009.93
424.50	3286.11
424.69	3412.50
424.88	3269.73
425.07	3330.58
425.26	3311.86
425.45	3272.07
425.64	3358.67
425.83	3344.63
426.01	3421.86
426.20	3314.20
426.39	3297.81
426.58	3335.26
426.77	3513.14
426.96	3400.80
427.15	3552.93
427.33	3414.84
427.52	3454.63
427.71	3583.36
427.90	3386.76
428.09	3625.49
428.28	3534.21
428.46	3639.53
428.65	3583.36
428.84	3566.98
429.03	3777.62
429.22	3494.42
429.40	3595.06
429.59	3681.66
429.78	3562.30
429.97	3571.66
430.16	3655.92
430.34	3721.45
430.53	3913.38
430.72	3674.64
430.91	3819.75
431.10	3770.60
431.28	3756.56
431.47	3913.38
431.66	3847.84
431.85	3889.97
432.03	3875.93
432.22	3960.19
432.41	3889.97
432.60	3822.09
432.79	3946.14
432.97	3894.65
433.16	3967.21
433.35	4081.89
433.54	3880.61
433.72	4058.49
433.91	4072.53
434.10	4117.00
434.28	3957.85
434.47	4060.83
434.66	4025.72
434.85	4210.62
435.03	4297.22
435.22	4252.75
435.41	4147.43
435.59	4191.90
435.78	4337.01
435.97	4257.43
436.16	4255.09
436.34	4332.33
436.53	4339.35
436.72	4367.44
436.90	4341.69
437.09	4229.35
437.28	4243.39
437.46	4278.50
437.65	4482.13
437.84	4491.49
438.02	4255.09
438.21	4531.28
438.40	4397.87
438.58	4603.83
438.77	4566.39
438.96	4624.90
439.14	4751.29
439.33	4575.75
439.52	4732.56
439.70	4718.52
439.89	4643.62
440.08	4816.82
440.26	4840.23
440.45	5043.85
440.63	4931.51
440.82	4854.27
441.01	4997.04
441.19	5032.15
441.38	5055.56
441.57	5060.24
441.75	5130.45
441.94	5245.14
442.12	5191.31
442.31	5228.76
442.50	5270.89
442.68	5179.61
442.87	5263.86
443.05	5348.12
443.24	5465.15
443.43	5338.76
443.61	5397.28
443.80	5509.62
443.98	5256.84
444.17	5245.14
444.35	5399.62
444.54	5490.90
444.73	5600.90
444.91	5362.17
445.10	5439.40
445.28	5507.28
445.47	5558.77
445.65	5401.96
445.84	5647.71
446.02	5406.64
446.21	5493.24
446.39	5750.70
446.58	5537.71
446.77	5444.09
446.95	5535.37
447.14	5479.19
447.32	5757.72
447.51	5549.41
447.69	5493.24
447.88	5593.88
448.06	5558.77
448.25	5673.46
448.43	5645.37
448.62	5729.63
448.80	5598.56
448.99	5544.73
449.17	5680.48
449.36	5650.05
449.54	5687.50
449.73	5914.53
449.91	5987.09
450.10	5764.74
450.28	5912.19
450.46	5926.24
450.65	5795.17
450.83	5792.83
451.02	5956.66
451.20	6094.76
451.39	5987.09
451.57	5849.00
451.76	5867.72
451.94	6054.97
452.13	6239.87
452.31	6045.60
452.49	5980.07
452.68	6064.33
452.86	6134.54
453.05	6267.95
453.23	6228.17
453.42	6045.60
453.60	6061.99
453.78	6186.04
453.97	6176.67
454.15	6270.30
454.34	6157.95
454.52	6190.72
454.70	6361.58
454.89	6410.73
455.07	6291.36
455.26	6274.98
455.44	6574.56
455.62	6483.28
455.81	6450.52
455.99	6518.39
456.17	6527.75
456.36	6462.22
456.54	6628.40
456.73	6642.44
456.91	6626.06
457.09	6731.38
457.28	6743.08
457.46	6803.94
457.64	6944.37
457.83	6827.34
458.01	6799.26
458.19	6930.33
458.38	6815.64
458.56	6848.41
458.74	7005.22
458.93	6841.39
459.11	6864.79
459.29	6956.07
459.48	6986.50
459.66	7164.38
459.84	7068.42
460.03	7131.61
460.21	7110.55
460.39	7063.74
460.57	7180.76
460.76	7335.24
460.94	7375.03
461.12	7126.93
461.31	7194.81
461.49	7236.94
461.67	7021.61
461.85	7351.62
462.04	7194.81
462.22	7964.84
462.40	7459.29
462.59	7515.46
462.77	7634.83
462.95	7405.46
463.13	7566.95
463.32	7405.46
463.50	7339.92
463.68	7735.47
463.86	7538.87
464.05	7611.42
464.23	7740.15
464.41	7651.21
464.59	7485.03
464.78	7892.29
464.96	7770.58
465.14	7538.87
465.32	7840.79
465.50	7843.14
465.69	7887.61
465.87	7838.45
466.05	8023.36
466.23	7873.56
466.41	7932.08
466.60	8102.93
466.78	7728.45
466.96	7934.42
467.14	7861.86
467.32	7899.31
467.51	7819.73
467.69	7777.60
467.87	8016.33
468.05	7948.46
468.23	8037.40
468.41	8180.17
468.60	8166.13
468.78	8376.78
468.96	8341.67
469.14	8219.96
469.32	8290.18
469.50	7964.84
469.69	8493.80
469.87	8273.79
470.05	8521.89
470.23	8573.38
470.41	8411.89
470.59	8353.37
470.77	8496.14
470.95	8542.96
471.14	8688.07
471.32	8517.21
471.50	8629.56
471.68	8695.09
471.86	9071.92
472.04	8947.87
472.22	8999.36
472.40	8676.37
472.58	8985.32
472.77	8987.66
472.95	9221.71
473.13	9322.35
473.31	8982.98
473.49	8999.36
473.67	9132.77
473.85	9160.86
474.03	9163.20
474.21	9343.42
474.39	9446.40
474.57	9397.25
474.75	9729.61
474.93	9738.97
475.12	9525.98
475.30	9563.43
475.48	9678.12
475.66	9525.98
475.84	9741.31
476.02	9961.32
476.20	10078.35
476.38	10113.45
476.56	10349.85
476.74	10228.14
476.92	10031.54
477.10	9881.74
477.28	10242.18
477.46	10368.57
477.64	10518.37
477.82	10958.39
478.00	10588.58
478.18	10754.76
478.36	10668.16
478.54	11019.24
478.72	10953.71
478.90	11157.33
479.08	11014.56
479.26	11101.16
479.44	11229.89
479.62	11386.71
479.80	11487.35
479.98	11644.17
480.16	11749.49
480.34	11311.81
480.52	11737.79
480.70	11815.02
480.88	11910.99
481.06	12102.91
481.24	11716.72
481.41	12170.79
481.59	12285.47
481.77	12388.46
481.95	12666.98
482.13	12767.62
482.31	12503.14
482.49	12762.94
482.67	12664.64
482.85	13254.45
483.03	13081.25
483.21	13172.54
483.39	13254.45
483.57	13200.62
483.74	13570.43
483.92	13465.10
484.10	13570.43
484.28	13767.03
484.46	13820.86
484.64	14139.18
484.82	13689.79
485.00	14068.96
485.18	14424.72
485.35	14457.49
485.53	14480.89
485.71	14588.56
485.89	14918.57
486.07	14808.57
486.25	14778.14
486.43	15033.26
486.61	15194.76
486.78	15398.38
486.96	15300.08
487.14	15552.86
487.32	15613.71
487.50	15623.08
487.68	15702.65
487.85	15903.94
488.03	16189.49
488.21	16278.43
488.39	16196.51
488.57	16585.04
488.75	16262.04
488.92	16840.15
489.10	17043.78
489.28	17114.00
489.46	17193.58
489.64	16854.20
489.81	17493.16
489.99	17652.32
490.17	17774.03
490.35	17961.27
490.53	17675.73
490.70	18232.77
490.88	18125.11
491.06	18097.02
491.24	18223.41
491.41	18300.65
491.59	18420.02
491.77	18459.81
491.95	18740.67
492.13	18881.10
492.30	18909.19
492.48	18923.23
492.66	19187.71
492.84	19070.68
493.01	19550.49
493.19	19407.72
493.37	19414.74
493.54	19637.09
493.72	20009.24
493.90	19578.58
494.08	19943.70
494.25	20451.60
494.43	20175.42
494.61	20086.48
494.79	20514.80
494.96	20531.18
495.14	20989.92
495.32	20697.36
495.49	20903.32
495.67	21319.94
495.85	20936.09
496.02	21078.86
496.20	21443.99
496.38	21425.26
496.55	21624.21
496.73	22331.05
496.91	21523.57
497.09	22029.12
497.26	21947.20
497.44	22298.28
497.62	22171.89
497.79	22810.86
497.97	22452.76
498.14	22548.72
498.32	22782.77
498.50	22792.14
498.67	22852.99
498.85	22946.61
499.03	23131.51
499.20	23241.52
499.38	23105.77
499.56	23276.63
499.73	23351.52
499.91	23639.41
500.08	23924.96
500.26	23353.87
500.44	23892.19
500.61	23826.65
500.79	24191.78
500.97	24107.52
501.14	24444.56
501.32	24762.87
501.49	24594.35
501.67	24961.81
501.84	24631.80
502.02	24170.71
502.20	24556.90
502.37	24851.81
502.55	24699.67
502.72	24786.27
502.90	25174.80
503.07	25060.12
503.25	25436.94
503.43	25366.73
503.60	25348.00
503.78	25380.77
503.95	25624.18
504.13	25476.73
504.30	25888.67
504.48	25757.60
504.65	25813.77
504.83	26017.40
505.01	26192.94
505.18	26071.23
505.36	26298.26
505.53	25832.49
505.71	26567.42
505.88	26377.84
506.06	26471.46
506.23	26827.22
506.41	26644.66
506.58	26679.77
506.76	26696.15
506.93	27040.21
507.11	26567.42
507.28	27122.13
507.46	27185.32
507.63	27475.55
507.81	27365.54
507.98	27194.68
508.16	27372.57
508.33	27702.58
508.50	27756.41
508.68	27852.38
508.85	27894.50
509.03	27716.62
509.20	28278.35
509.38	28465.60
509.55	28367.29
509.73	28060.68
509.90	28407.08
510.08	28250.27
510.25	28479.64
510.42	28353.25
510.60	28606.03
510.77	28666.88
510.95	29003.92
511.12	28416.44
511.30	28849.44
511.47	29053.07
511.64	29001.58
511.82	29294.14
511.99	29050.73
512.17	29270.74
512.34	29219.25
512.51	29823.11
512.69	29610.12
512.86	29635.86
513.04	29912.05
513.21	30071.20
513.38	30382.49
513.56	30146.10
513.73	29785.66
513.90	29900.34
514.08	30319.30
514.25	30543.99
514.43	30412.92
514.60	30300.58
514.77	30497.18
514.95	30487.82
515.12	30492.50
515.29	30731.23
515.47	31124.44
515.64	30930.18
515.81	30677.40
515.99	30845.92
516.16	31049.55
516.33	31094.02
516.51	31072.95
516.68	31318.71
516.85	31243.81
517.03	31299.98
517.20	31775.11
517.37	31309.35
517.54	31807.88
517.72	31641.70
517.89	31711.92
518.06	32105.13
518.24	31981.08
518.41	31908.52
518.58	31913.20
518.75	31538.72
518.93	32140.24
519.10	31948.31
519.27	32301.73
519.45	32439.82
519.62	32545.15
519.79	32357.91
519.96	32095.77
520.14	32383.65
520.31	32336.84
520.48	32863.46
520.65	32648.13
520.83	33139.65
521.00	33181.77
521.17	33230.93
521.34	33167.73
521.52	33357.32
521.69	33263.69
521.86	33663.93
522.03	33589.03
522.20	33773.93
522.38	33855.85
522.55	33947.13
522.72	33497.75
522.89	33675.63
523.07	34075.86
523.24	34066.50
523.41	34195.23
523.58	33809.04
523.75	34356.72
523.92	34012.66
524.10	34394.17
524.27	34178.84
524.44	34316.93
524.61	34349.70
524.78	34181.18
524.96	34923.13
525.13	34153.10
525.30	34670.36
525.47	34735.89
525.64	34892.71
525.81	34752.27
525.98	35367.84
526.16	34883.34
526.33	35548.06
526.50	35409.96
526.67	35150.17
526.84	35445.07
527.01	35550.40
527.18	35384.22
527.36	35489.54
527.53	35442.73
527.70	35438.05
527.87	35683.81
528.04	35868.71
528.21	35644.02
528.38	35927.22
528.55	35775.09
528.72	35999.78
528.89	35868.71
529.07	35569.12
529.24	35679.13
529.41	36404.69
529.58	35969.35
529.75	36343.84
529.92	36737.05
530.09	36467.89
530.26	36388.31
530.43	36404.69
530.60	36355.54
530.77	35992.76
530.94	36465.55
531.11	36282.98
531.28	36636.41
531.46	36526.40
531.63	36919.61
531.80	36870.46
531.97	36816.63
532.14	36889.18
532.31	36495.97
532.48	37357.29
532.65	37003.87
532.82	37109.19
532.99	37329.20
533.16	37368.99
533.33	37642.84
533.50	37390.06
533.67	37591.34
533.84	37139.62
534.01	37336.23
534.18	37563.26
534.35	37928.38
534.52	37986.89
534.69	37706.03
534.86	37731.78
535.03	37823.06
535.20	37841.78
535.37	38246.69
535.54	38307.55
535.71	38227.97
535.88	38251.38
536.05	38113.28
536.22	38389.47
536.38	38513.52
536.55	38106.26
536.72	38183.50
536.89	38511.17
537.06	38438.62
537.23	38733.53
537.40	38775.66
537.57	38728.84
537.74	38382.45
537.91	39210.99
538.08	38689.06
538.25	38499.47
538.42	39150.14
538.59	38541.60
538.75	38623.52
538.92	38880.98
539.09	39316.32
539.26	39033.11
539.43	39072.90
539.60	39243.76
539.77	38993.32
539.94	39463.77
540.11	39236.74
540.28	39159.50
540.44	39332.70
540.61	39702.51
540.78	39133.76
540.95	39400.58
541.12	39304.62
541.29	39578.46
541.46	39754.00
541.62	39622.93
541.79	40135.51
541.96	39210.99
542.13	39667.40
542.30	39669.74
542.47	39859.32
542.63	40500.63
542.80	40076.99
542.97	40437.44
543.14	40437.44
543.31	40044.23
543.48	40240.83
543.64	40587.23
543.81	40589.57
543.98	40425.73
544.15	40835.33
544.32	40423.39
544.48	41057.68
544.65	40294.66
544.82	40713.62
544.99	40442.12
545.16	40570.85
545.32	40474.88
545.49	41322.16
545.66	40994.48
545.83	41141.94
546.00	40945.33
546.16	40861.07
546.33	41296.41
546.50	40851.71
546.67	41092.79
546.83	40926.61
547.00	40840.01
547.17	41326.84
547.34	41193.43
547.50	41511.74
547.67	41511.74
547.84	41504.72
548.00	41551.53
548.17	41633.45
548.34	41818.35
548.51	41968.15
548.67	41701.32
548.84	41617.07
549.01	42012.62
549.18	41921.34
549.34	42052.41
549.51	41647.49
549.68	42052.41
549.84	41776.22
550.01	42068.79
550.18	41787.92
550.34	41928.36
550.51	42143.69
550.68	41970.49
550.84	41998.57
551.01	42323.91
551.18	41785.58
551.34	41797.29
551.51	42260.71
551.68	42508.81
551.84	42380.08
552.01	42253.69
552.18	42380.08
552.34	42108.58
552.51	42635.20
552.68	42452.64
552.84	42583.71
553.01	42682.01
553.18	42279.44
553.34	42679.67
553.51	42342.63
553.67	42831.80
553.84	43093.94
554.01	42965.21
554.17	42476.04
554.34	43009.68
554.51	43239.06
554.67	42885.64
554.84	43196.93
555.00	42817.76
555.17	42752.23
555.33	42916.06
555.50	43229.69
555.67	43236.72
555.83	43112.67
556.00	43409.92
556.16	43889.73
556.33	43517.58
556.50	43407.58
556.66	43171.18
556.83	43405.23
556.99	43812.49
557.16	44065.27
557.32	43735.25
557.49	43454.39
557.65	43147.78
557.82	43660.35
557.98	43564.39
558.15	43543.33
558.32	43555.03
558.48	43592.48
558.65	43639.29
558.81	43435.66
558.98	43379.49
559.14	43426.30
559.31	43679.08
559.47	43402.89
559.64	43856.96
559.80	43758.66
559.97	43824.19
560.13	43969.30
560.30	43650.99
560.46	44360.17
560.63	43674.40
560.79	44240.81
560.96	43969.30
561.12	44116.76
561.29	44318.04
561.45	44402.30
561.61	43990.37
561.78	44243.15
561.94	43976.33
562.11	43863.98
562.27	44112.08
562.44	44526.35
562.60	44334.43
562.77	44451.45
562.93	44182.29
563.10	44699.55
563.26	44149.53
563.42	44907.86
563.59	44395.28
563.75	44451.45
563.92	44713.59
564.08	44304.00
564.24	44603.59
564.41	44381.24
564.57	44704.23
564.74	44041.86
564.90	44224.42
565.07	44240.81
565.23	44751.04
565.39	44292.30
565.56	44938.29
565.72	44404.64
565.88	44687.85
566.05	44807.22
566.21	44512.31
566.38	44903.18
566.54	44486.56
566.70	44779.13
566.87	44610.61
567.03	44666.78
567.19	44713.59
567.36	44900.84
567.52	44516.99
567.68	45249.58
567.85	44959.35
568.01	45055.31
568.17	44856.37
568.34	44741.68
568.50	44809.56
568.66	44488.90
568.83	45436.82
568.99	45162.98
569.15	45048.29
569.32	44865.73
569.48	44807.22
569.64	44961.69
569.81	45317.45
569.97	44905.52
570.13	45298.73
570.30	44409.32
570.46	44978.07
570.62	44992.12
570.78	44849.35
570.95	45102.12
571.11	45359.58
571.27	45031.91
571.43	44926.58
571.60	45242.56
571.76	45148.93
571.92	45375.97
572.09	44753.38
572.25	45045.95
572.41	45127.87
572.57	45350.22
572.74	45998.55
572.90	45420.44
573.06	45078.72
573.22	45450.86
573.38	45404.05
573.55	45364.26
573.71	45745.77
573.87	45195.74
574.03	45652.15
574.20	45565.55
574.36	45256.60
574.52	45179.36
574.68	45436.82
574.84	45436.82
575.01	45645.13
575.17	45497.67
575.33	45563.21
575.49	45495.33
575.65	45471.93
575.82	45247.24
575.98	45514.06
576.14	45741.09
576.30	45595.98
576.46	45909.61
576.62	45235.53
576.79	45331.50
576.95	44744.02
577.11	45263.62
577.27	45432.14
577.43	45111.49
577.59	45642.79
577.75	45364.26
577.92	45052.97
578.08	45382.99
578.24	45345.54
578.40	45682.58
578.56	45453.20
578.72	45326.81
578.88	45495.33
579.04	45504.70
579.21	45387.67
579.37	45441.50
579.53	45731.73
579.69	45427.46
579.85	45661.51
580.01	46047.70
580.17	45851.09
580.33	45904.93
580.49	45661.51
580.65	45661.51
580.82	45698.96
580.98	45326.81
581.14	45099.78
581.30	46014.93
581.46	45305.75
581.62	45727.05
581.78	45766.84
581.94	45684.92
582.10	45773.86
582.26	45762.15
582.42	45741.09
582.58	45893.22
582.74	45745.77
582.90	45684.92
583.06	45844.07
583.22	45460.23
583.38	45886.20
583.54	45759.81
583.70	45654.49
583.86	45757.47
584.02	45364.26
584.18	46167.07
584.34	46071.10
584.50	45977.48
584.66	45928.33
584.82	45666.19
584.98	45921.31
585.14	46143.66
585.30	45769.18
585.46	45958.76
585.62	45577.25
585.78	45502.35
585.94	46061.74
586.10	45745.77
586.26	45724.71
586.42	45935.35
586.58	45799.60
586.74	45326.81
586.90	45874.50
587.06	45663.85
587.22	46075.79
587.38	45921.31
587.54	46117.92
587.70	46171.75
587.86	45553.85
588.02	45928.33
588.18	45916.63
588.34	46050.04
588.49	46167.07
588.65	45764.49
588.81	46314.52
588.97	45937.69
589.13	46052.38
589.29	45940.04
589.45	46291.12
589.61	46073.45
589.77	46202.18
589.93	46117.92
590.08	46487.72
