SpectraSuite Data File
++++++++++++++++++++++++++++++++++++
Date: Fri Oct 25 11:34:23 EDT 2013
User: price-jones
Dark Spectrum Present: No
Reference Spectrum Present: No
Number of Sampled Component Spectra: 1
Spectrometers: USB2+H05261
Integration Time (usec): 100000 (USB2+H05261)
Spectra Averaged: 1 (USB2+H05261)
Boxcar Smoothing: 0 (USB2+H05261)
Correct for Electrical Dark: No (USB2+H05261)
Strobe/Lamp Enabled: No (USB2+H05261)
Correct for Detector Non-linearity: No (USB2+H05261)
Correct for Stray Light: No (USB2+H05261)
Number of Pixels in Processed Spectrum: 2048
>>>>>Begin Processed Spectral Data<<<<<
365.73	229.37
365.92	229.37
366.12	229.37
366.32	194.26
366.52	217.67
366.72	175.54
366.91	182.56
367.11	184.90
367.31	191.92
367.51	163.84
367.70	215.33
367.90	212.99
368.10	234.05
368.30	215.33
368.49	119.37
368.69	215.33
368.89	262.14
369.09	189.58
369.28	177.88
369.48	161.50
369.68	264.48
369.87	273.84
370.07	187.24
370.27	234.05
370.47	280.86
370.66	535.98
370.86	463.43
371.06	526.62
371.25	557.05
371.45	498.53
371.65	543.00
371.84	472.79
372.04	543.00
372.24	585.13
372.44	566.41
372.63	528.96
372.83	575.77
373.03	664.71
373.22	575.77
373.42	545.34
373.62	599.18
373.81	657.69
374.01	617.90
374.21	589.82
374.40	664.71
374.60	638.97
374.79	608.54
374.99	681.10
375.19	578.11
375.38	648.33
375.58	615.56
375.78	676.41
375.97	674.07
376.17	723.23
376.37	655.35
376.56	681.10
376.76	650.67
376.95	669.39
377.15	615.56
377.35	699.82
377.54	723.23
377.74	664.71
377.93	685.78
378.13	713.86
378.33	645.99
378.52	688.12
378.72	716.20
378.91	650.67
379.11	641.31
379.31	732.59
379.50	634.29
379.70	685.78
379.89	683.44
380.09	746.63
380.28	669.39
380.48	767.70
380.68	760.67
380.87	716.20
381.07	683.44
381.26	725.57
381.46	793.44
381.65	791.10
381.85	826.21
382.04	770.04
382.24	779.40
382.43	788.76
382.63	779.40
382.83	713.86
383.02	795.78
383.22	821.53
383.41	669.39
383.61	791.10
383.80	748.97
384.00	760.67
384.19	830.89
384.39	725.57
384.58	842.59
384.78	802.80
384.97	805.14
385.17	791.10
385.36	805.14
385.56	826.21
385.75	786.42
385.95	779.40
386.14	863.66
386.34	894.08
386.53	816.85
386.72	823.87
386.92	814.51
387.11	924.51
387.31	884.72
387.50	908.13
387.70	828.55
387.89	898.77
388.09	826.21
388.28	954.94
388.48	849.61
388.67	945.58
388.86	863.66
389.06	926.85
389.25	849.61
389.45	905.79
389.64	915.15
389.84	933.87
390.03	997.07
390.22	931.53
390.42	912.81
390.61	898.77
390.81	919.83
391.00	940.90
391.19	985.37
391.39	978.34
391.58	957.28
391.78	931.53
391.97	936.21
392.16	919.83
392.36	1008.77
392.55	1104.73
392.75	1022.81
392.94	1039.20
393.13	1022.81
393.33	1067.28
393.52	1078.99
393.71	1074.31
393.91	1057.92
394.10	1078.99
394.29	1062.60
394.49	1083.67
394.68	1097.71
394.88	1137.50
395.07	1123.46
395.26	1057.92
395.46	1163.25
395.65	1102.39
395.84	1118.78
396.04	1240.48
396.23	1270.91
396.42	1191.33
396.62	1186.65
396.81	1277.93
397.00	1097.71
397.19	1196.01
397.39	1210.06
397.58	1167.93
397.77	1179.63
397.97	1144.52
398.16	1172.61
398.35	1172.61
398.55	1158.57
398.74	1233.46
398.93	1219.42
399.12	1296.66
399.32	1132.82
399.51	1247.51
399.70	1303.68
399.90	1357.51
400.09	1355.17
400.28	1357.51
400.47	1320.06
400.67	1331.76
400.86	1380.92
401.05	1448.79
401.24	1392.62
401.44	1373.89
401.63	1434.75
401.82	1437.09
402.01	1397.30
402.21	1507.30
402.40	1542.41
402.59	1420.71
402.78	1439.43
402.97	1458.15
403.17	1420.71
403.36	1507.30
403.55	1549.43
403.74	1521.35
403.93	1563.48
404.13	1621.99
404.32	1523.69
404.51	1596.25
404.70	1671.14
404.89	1563.48
405.09	1664.12
405.28	1769.44
405.47	1638.38
405.66	1584.54
405.85	1671.14
406.05	1682.85
406.24	1680.50
406.43	1689.87
406.62	1708.59
406.81	1689.87
407.00	1743.70
407.20	1682.85
407.39	1746.04
407.58	1820.94
407.77	1820.94
407.96	1732.00
408.15	1811.57
408.34	1809.23
408.54	1928.60
408.73	1921.58
408.92	1767.10
409.11	1888.81
409.30	1973.07
409.49	2033.93
409.68	1940.30
409.87	1987.11
410.07	2026.90
410.26	1956.69
410.45	1982.43
410.64	1935.62
410.83	1989.46
411.02	2127.55
411.21	1982.43
411.40	2113.50
411.59	2174.36
411.78	2106.48
411.98	2141.59
412.17	2120.53
412.36	2230.53
412.55	2289.04
412.74	2305.43
412.93	2401.39
413.12	2256.28
413.31	2363.94
413.50	2387.35
413.69	2331.17
413.88	2492.67
414.07	2361.60
414.26	2314.79
414.45	2487.99
414.64	2476.29
414.83	2445.86
415.02	2448.20
415.22	2644.81
415.41	2581.61
415.60	2583.95
415.79	2686.94
415.98	2525.44
416.17	2616.72
416.36	2708.00
416.55	2600.34
416.74	2658.85
416.93	2703.32
417.12	2813.32
417.31	2850.77
417.50	2904.60
417.69	2799.28
417.88	2848.43
418.07	2855.45
418.26	2834.39
418.45	2981.84
418.64	3042.70
418.83	2986.52
419.02	2918.65
419.21	3045.04
419.39	3047.38
419.58	3061.42
419.77	2967.80
419.96	2998.23
420.15	2984.18
420.34	2988.86
420.53	3129.30
420.72	2986.52
420.91	3091.85
421.10	3234.62
421.29	3265.05
421.48	3014.61
421.67	3187.81
421.86	3145.68
422.05	3159.72
422.24	3150.36
422.43	3180.79
422.61	3342.28
422.80	3272.07
422.99	3288.45
423.18	3323.56
423.37	3363.35
423.56	3255.69
423.75	3279.09
423.94	3126.96
424.13	3061.42
424.32	3159.72
424.50	3379.73
424.69	3323.56
424.88	3515.48
425.07	3344.63
425.26	3332.92
425.45	3372.71
425.64	3318.88
425.83	3337.60
426.01	3466.33
426.20	3358.67
426.39	3454.63
426.58	3386.76
426.77	3494.42
426.96	3468.67
427.15	3361.01
427.33	3496.76
427.52	3449.95
427.71	3478.04
427.90	3447.61
428.09	3639.53
428.28	3555.27
428.46	3672.30
428.65	3581.02
428.84	3726.13
429.03	3548.25
429.22	3522.51
429.40	3595.06
429.59	3581.02
429.78	3672.30
429.97	3520.17
430.16	3688.68
430.34	3597.40
430.53	3761.24
430.72	3770.60
430.91	3761.24
431.10	3716.77
431.28	3817.41
431.47	3941.46
431.66	3822.09
431.85	3812.73
432.03	3971.89
432.22	3988.27
432.41	3960.19
432.60	3838.48
432.79	3962.53
432.97	3960.19
433.16	3915.72
433.35	3918.06
433.54	3985.93
433.72	4053.81
433.91	4051.47
434.10	4051.47
434.28	3955.51
434.47	4032.74
434.66	4278.50
434.85	4313.61
435.03	4248.07
435.22	4142.75
435.41	4374.46
435.59	4351.06
435.78	4285.52
435.97	4322.97
436.16	4154.45
436.34	4334.67
436.53	4280.84
436.72	4430.63
436.90	4222.33
437.09	4337.01
437.28	4327.65
437.46	4283.18
437.65	4346.37
437.84	4521.92
438.02	4360.42
438.21	4423.61
438.40	4435.32
438.58	4755.97
438.77	4678.73
438.96	4732.56
439.14	4585.11
439.33	4746.61
439.52	4767.67
439.70	4655.33
439.89	4858.95
440.08	4777.03
440.26	4683.41
440.45	4725.54
440.63	4844.91
440.82	4903.42
441.01	4856.61
441.19	5149.18
441.38	5210.03
441.57	5020.45
441.75	5165.56
441.94	5088.32
442.12	5228.76
442.31	5298.97
442.50	5153.86
442.68	5284.93
442.87	5195.99
443.05	5317.70
443.24	5387.91
443.43	5282.59
443.61	5242.80
443.80	5645.37
443.98	5397.28
444.17	5076.62
444.35	5416.00
444.54	5493.24
444.73	5270.89
444.91	5549.41
445.10	5394.93
445.28	5313.02
445.47	5371.53
445.65	5249.82
445.84	5558.77
446.02	5650.05
446.21	5572.82
446.39	5486.22
446.58	5476.85
446.77	5589.20
446.95	5336.42
447.14	5556.43
447.32	5657.07
447.51	5516.64
447.69	5591.54
447.88	5514.30
448.06	5568.13
448.25	5701.54
448.43	5593.88
448.62	5617.29
448.80	5530.69
448.99	5710.91
449.17	5790.49
449.36	5619.63
449.54	5788.14
449.73	5825.59
449.91	6031.56
450.10	5893.47
450.28	5984.75
450.46	5907.51
450.65	5790.49
450.83	5916.87
451.02	5928.58
451.20	6005.81
451.39	5959.00
451.57	5689.84
451.76	6003.47
451.94	5982.41
452.13	6094.76
452.31	6122.84
452.49	6001.13
452.68	6090.07
452.86	6129.86
453.05	6108.80
453.23	6274.98
453.42	6047.94
453.60	6136.88
453.78	6127.52
453.97	5989.43
454.15	6167.31
454.34	6143.91
454.52	6384.98
454.70	6520.73
454.89	6377.96
455.07	6370.94
455.26	6272.64
455.44	6380.30
455.62	6473.92
455.81	6541.80
455.99	6436.47
456.17	6707.98
456.36	6583.93
456.54	6443.49
456.73	6600.31
456.91	6944.37
457.09	6757.13
457.28	6745.42
457.46	6932.67
457.64	6794.58
457.83	6913.94
458.01	6586.27
458.19	6911.60
458.38	6736.06
458.56	6937.35
458.74	6825.00
458.93	7009.90
459.11	6946.71
459.29	6937.35
459.48	6988.84
459.66	6970.12
459.84	7098.84
460.03	7077.78
460.21	7091.82
460.39	7098.84
460.57	7178.42
460.76	7157.36
460.94	7157.36
461.12	7218.21
461.31	6995.86
461.49	7108.21
461.67	7073.10
461.85	7328.22
462.04	7243.96
462.22	7901.65
462.40	7323.54
462.59	7386.73
462.77	7307.15
462.95	7564.61
463.13	7281.41
463.32	7445.24
463.50	7583.34
463.68	7667.60
463.86	7571.63
464.05	7662.91
464.23	7559.93
464.41	7583.34
464.59	7445.24
464.78	7756.54
464.96	7779.94
465.14	7564.61
465.32	7894.63
465.50	7899.31
465.69	7857.18
465.87	7810.37
466.05	7775.26
466.23	7438.22
466.41	7805.69
466.60	7995.27
466.78	7903.99
466.96	7953.14
467.14	8021.02
467.32	7971.86
467.51	8128.68
467.69	7929.74
467.87	7978.89
468.05	8205.92
468.23	8011.65
468.41	7983.57
468.60	8222.30
468.78	8365.07
468.96	8107.62
469.14	8243.37
469.32	8461.04
469.50	8156.77
469.69	8571.04
469.87	8322.94
470.05	8341.67
470.23	8503.17
470.41	8423.59
470.59	8678.71
470.77	8379.12
470.95	8463.38
471.14	8606.15
471.32	8341.67
471.50	8723.18
471.68	8542.96
471.86	8500.83
472.04	8758.28
472.22	8875.31
472.40	8901.06
472.58	8713.81
472.77	9018.08
472.95	8945.53
473.13	9228.73
473.31	8894.04
473.49	9025.11
473.67	9034.47
473.85	9151.49
474.03	9441.72
474.21	9256.82
474.39	9432.36
474.57	9591.52
474.75	9668.75
474.93	9790.46
475.12	9430.02
475.30	9568.11
475.48	9736.63
475.66	9851.31
475.84	9617.26
476.02	9685.14
476.20	9762.37
476.38	9856.00
476.56	10317.08
476.74	10031.54
476.92	10174.31
477.10	10171.97
477.28	9977.70
477.46	10214.10
477.64	10272.61
477.82	10473.90
478.00	10738.38
478.18	10766.46
478.36	10553.48
478.54	11094.14
478.72	11047.33
478.90	10836.68
479.08	11147.97
479.26	11243.93
479.44	11157.33
479.62	11297.77
479.80	11463.94
479.98	11487.35
480.16	11700.34
480.34	11672.25
480.52	11609.06
480.70	11927.37
480.88	11735.45
481.06	12044.40
481.24	11655.87
481.41	12205.89
481.59	12292.49
481.77	12269.09
481.95	12507.82
482.13	12416.54
482.31	12432.93
482.49	12793.37
482.67	12957.21
482.85	12786.35
483.03	13055.51
483.21	12994.65
483.39	13282.54
483.57	13027.42
483.74	13570.43
483.92	13296.58
484.10	13282.54
484.28	13734.26
484.46	13783.41
484.64	14101.73
484.82	13867.67
485.00	13989.38
485.18	14298.33
485.35	14743.03
485.53	14647.07
485.71	14766.44
485.89	14967.73
486.07	14712.61
486.25	14930.28
486.43	14579.20
486.61	15166.67
486.78	15154.97
486.96	15384.34
487.14	15611.37
487.32	15517.75
487.50	15798.62
487.68	15786.91
487.85	15920.32
488.03	16170.76
488.21	16294.81
488.39	16215.23
488.57	16437.58
488.75	16608.44
488.92	16762.92
489.10	16617.80
489.28	16704.40
489.46	17114.00
489.64	17083.57
489.81	17413.59
489.99	17743.60
490.17	17465.08
490.35	17692.11
490.53	17982.34
490.70	18017.44
490.88	17954.25
491.06	17935.53
491.24	18267.88
491.41	18260.86
491.59	18469.17
491.77	18508.96
491.95	18579.17
492.13	18747.69
492.30	19225.16
492.48	19178.35
492.66	18981.74
492.84	19494.32
493.01	18911.53
493.19	19433.47
493.37	19405.38
493.54	19311.76
493.72	19662.84
493.90	19552.84
494.08	20051.37
494.25	20367.34
494.43	19920.30
494.61	20175.42
494.79	20622.46
494.96	20152.01
495.14	20613.10
495.32	20980.56
495.49	20650.55
495.67	21018.01
495.85	21481.44
496.02	21273.13
496.20	21572.72
496.38	21469.73
496.55	21188.87
496.73	22232.75
496.91	21488.46
497.09	22092.32
497.26	22169.55
497.44	22160.19
497.62	22104.02
497.79	22576.81
497.97	22305.31
498.14	22572.13
498.32	22864.69
498.50	22513.61
498.67	22750.01
498.85	22827.24
499.03	23056.62
499.20	23168.96
499.38	23307.05
499.56	23232.16
499.73	23403.02
499.91	23463.87
500.08	23833.68
500.26	23857.08
500.44	23910.91
500.61	23721.33
500.79	23697.92
500.97	24119.22
501.14	24526.47
501.32	24479.66
501.49	24276.04
501.67	24484.34
501.84	24938.41
502.02	24482.00
502.20	24414.13
502.37	24898.62
502.55	24315.83
502.72	24971.18
502.90	24936.07
503.07	25109.27
503.25	24847.13
503.43	25113.95
503.60	25486.09
503.78	25668.66
503.95	25500.14
504.13	25455.67
504.30	25720.15
504.48	25813.77
504.65	25888.67
504.83	26171.87
505.01	26052.50
505.18	25954.20
505.36	25933.14
505.53	26199.96
505.71	26438.69
505.88	26562.74
506.06	25958.88
506.23	26799.13
506.41	26604.87
506.58	26412.95
506.76	26661.04
506.93	26801.47
507.11	26794.45
507.28	27182.98
507.46	27133.83
507.63	27166.60
507.81	27372.57
507.98	27157.24
508.16	27157.24
508.33	27552.79
508.50	27569.17
508.68	27599.60
508.85	27772.80
509.03	27585.55
509.20	27730.67
509.38	28414.10
509.55	28371.97
509.73	28098.13
509.90	28360.27
510.08	28500.70
510.25	28175.37
510.42	28151.96
510.60	28790.93
510.77	28711.35
510.95	28697.31
511.12	28500.70
511.30	28652.84
511.47	29055.41
511.64	28966.47
511.82	29366.70
511.99	28903.28
512.17	29291.80
512.34	29298.83
512.51	29397.13
512.69	29603.10
512.86	29486.07
513.04	29486.07
513.21	29441.60
513.38	29888.64
513.56	29591.39
513.73	29860.55
513.90	29769.27
514.08	29886.30
514.25	30258.45
514.43	30153.12
514.60	30363.77
514.77	30595.48
514.95	30670.38
515.12	30293.55
515.29	30707.83
515.47	30756.98
515.64	30749.96
515.81	30780.39
515.99	31182.96
516.16	31440.42
516.33	30834.22
516.51	31101.04
516.68	30925.50
516.85	31140.83
517.03	31377.22
517.20	31346.79
517.37	31372.54
517.54	31335.09
517.72	31618.30
517.89	31496.59
518.06	31784.48
518.24	31770.43
518.41	31744.69
518.58	31864.05
518.75	31903.84
518.93	32055.98
519.10	32058.32
519.27	31896.82
519.45	32264.28
519.62	32575.58
519.79	32708.99
519.96	32503.02
520.14	32533.45
520.31	32404.72
520.48	32486.64
520.65	32685.58
520.83	33312.84
521.00	33347.95
521.17	33008.58
521.34	32896.23
521.52	32929.00
521.69	33364.34
521.86	33338.59
522.03	33221.56
522.20	33757.55
522.38	33546.90
522.55	33757.55
522.72	33687.33
522.89	33577.33
523.07	34082.88
523.24	33858.19
523.41	33764.57
523.58	33446.26
523.75	34405.88
523.92	33731.80
524.10	34436.30
524.27	34422.26
524.44	34174.16
524.61	34415.24
524.78	34260.76
524.96	34745.25
525.13	34806.11
525.30	34836.53
525.47	34773.34
525.64	34405.88
525.81	34810.79
525.98	35129.10
526.16	34806.11
526.33	34813.13
526.50	34824.83
526.67	34738.23
526.84	35407.62
527.01	34888.03
527.18	35082.29
527.36	35756.36
527.53	35637.00
527.70	35789.13
527.87	35622.95
528.04	35400.60
528.21	35618.27
528.38	35587.85
528.55	36062.97
528.72	35611.25
528.89	35744.66
529.07	35924.88
529.24	35810.20
529.41	35873.39
529.58	36098.08
529.75	36034.89
529.92	36151.91
530.09	36182.34
530.26	36313.41
530.43	36109.78
530.60	35903.82
530.77	36264.26
530.94	36458.52
531.11	36561.51
531.28	36217.45
531.46	36753.43
531.63	36683.22
531.80	36376.61
531.97	36996.85
532.14	36905.57
532.31	36723.01
532.48	37167.71
532.65	37071.75
532.82	36877.48
532.99	37043.66
533.16	36720.66
533.33	37226.22
533.50	37191.11
533.67	37329.20
533.84	37490.70
534.01	37429.85
534.18	37331.54
534.35	37731.78
534.52	37556.24
534.69	37787.95
534.86	37661.56
535.03	37619.43
535.20	37586.66
535.37	37752.84
535.54	38014.98
535.71	37766.88
535.88	38220.95
536.05	37818.38
536.22	38426.92
536.38	38251.38
536.55	38543.94
536.72	38078.18
536.89	37897.95
537.06	38220.95
537.23	38085.20
537.40	38117.96
537.57	38293.50
537.74	38518.20
537.91	38602.46
538.08	38529.90
538.25	38171.80
538.42	38656.29
538.59	38787.36
538.75	38607.14
538.92	38700.76
539.09	38609.48
539.26	38967.58
539.43	38518.20
539.60	38930.13
539.77	38686.71
539.94	39164.18
540.11	39115.03
540.28	39372.49
540.44	39096.31
540.61	38979.28
540.78	39358.45
540.95	39360.79
541.12	39119.71
541.29	38979.28
541.46	39613.57
541.62	38824.81
541.79	39959.97
541.96	39360.79
542.13	39349.09
542.30	39632.29
542.47	39819.53
542.63	39896.77
542.80	40121.46
542.97	40128.48
543.14	40556.80
543.31	40037.20
543.48	40053.59
543.64	40498.29
543.81	40669.15
543.98	40011.46
544.15	40238.49
544.32	40795.54
544.48	41090.44
544.65	40594.25
544.82	40620.00
544.99	40556.80
545.16	40718.30
545.32	40685.53
545.49	41085.76
545.66	41181.73
545.83	40957.03
546.00	40924.27
546.16	40779.15
546.33	40589.57
546.50	40905.54
546.67	41151.30
546.83	40638.72
547.00	41345.56
547.17	41060.02
547.34	41265.99
547.50	41708.35
547.67	41659.20
547.84	41296.41
548.00	41240.24
548.17	41720.05
548.34	41780.90
548.51	41490.68
548.67	41764.52
548.84	41883.89
549.01	41713.03
549.18	41280.03
549.34	42000.91
549.51	41584.30
549.68	42061.77
549.84	41806.65
550.01	41984.53
550.18	41659.20
550.34	41696.64
550.51	42120.28
550.68	42045.38
550.84	42155.39
551.01	42246.67
551.18	42054.75
551.34	41904.95
551.51	42127.30
551.68	42689.03
551.84	42103.90
552.01	41986.87
552.18	42635.20
552.34	41991.55
552.51	42185.82
552.68	42007.94
552.84	42284.12
553.01	42630.52
553.18	42410.51
553.34	42656.26
553.51	42440.93
553.67	42450.30
553.84	42349.65
554.01	42944.15
554.17	42703.07
554.34	42677.33
554.51	43096.28
554.67	42932.45
554.84	43044.79
555.00	42567.32
555.17	42941.81
555.33	43402.89
555.50	42700.73
555.67	42993.30
555.83	43217.99
556.00	43531.62
556.16	43648.65
556.33	43264.80
556.50	43278.85
556.66	42820.10
556.83	42534.56
556.99	43222.67
557.16	43391.19
557.32	43566.73
557.49	43765.68
557.65	43365.45
557.82	43225.01
557.98	43372.47
558.15	43496.52
558.32	44030.16
558.48	43260.12
558.65	43225.01
558.81	43447.36
558.98	43473.11
559.14	43845.26
559.31	43702.48
559.47	43290.55
559.64	43770.36
559.80	43695.46
559.97	43749.29
560.13	43697.80
560.30	43955.26
560.46	43896.75
560.63	43950.58
560.79	43924.83
560.96	43814.83
561.12	43950.58
561.29	43831.21
561.45	44163.57
561.61	43756.32
561.78	44172.93
561.94	44051.22
562.11	44362.51
562.27	43728.23
562.44	43835.89
562.60	44163.57
562.77	44219.74
562.93	43878.02
563.10	44402.30
563.26	44156.55
563.42	44917.22
563.59	44346.13
563.75	43775.04
563.92	44287.62
564.08	44053.56
564.24	44669.12
564.41	44458.48
564.57	44280.60
564.74	44446.77
564.90	44266.55
565.07	44233.78
565.23	44109.74
565.39	44105.06
565.56	44500.61
565.72	44175.27
565.88	44617.63
566.05	44439.75
566.21	44322.72
566.38	44364.85
566.54	44453.79
566.70	44648.06
566.87	44744.02
567.03	44589.55
567.19	44758.06
567.36	44622.31
567.52	44423.37
567.68	44769.77
567.85	44395.28
568.01	45062.33
568.17	44465.50
568.34	45057.65
568.50	44659.76
568.66	44612.95
568.83	44947.65
568.99	44626.99
569.15	44591.89
569.32	44636.36
569.48	45001.48
569.64	45450.86
569.81	44971.05
569.97	45069.36
570.13	44942.97
570.30	44832.96
570.46	44931.26
570.62	45251.92
570.78	44758.06
570.95	44479.54
571.11	45174.68
571.27	45043.61
571.43	45148.93
571.60	44912.54
571.76	44603.59
571.92	44856.37
572.09	44570.82
572.25	45045.95
572.41	44737.00
572.57	45289.37
572.74	45464.91
572.90	44980.42
573.06	44652.74
573.22	45415.76
573.38	45394.69
573.55	45511.72
573.71	45631.08
573.87	45326.81
574.03	45338.52
574.20	45677.90
574.36	45291.71
574.52	45537.46
574.68	45397.03
574.84	45212.13
575.01	45724.71
575.17	45429.80
575.33	45052.97
575.49	45050.63
575.65	45483.63
575.82	45116.17
575.98	45296.39
576.14	45741.09
576.30	45680.24
576.46	45146.59
576.62	45272.98
576.79	45504.70
576.95	44940.63
577.11	45324.47
577.27	45074.04
577.43	45059.99
577.59	45390.01
577.75	45095.10
577.92	44907.86
578.08	45118.51
578.24	45455.54
578.40	45251.92
578.56	45436.82
578.72	45546.82
578.88	45085.74
579.04	45394.69
579.21	45214.47
579.37	45132.55
579.53	45221.49
579.69	45102.12
579.85	45223.83
580.01	45436.82
580.17	45104.46
580.33	45212.13
580.49	45624.06
580.65	45483.63
580.82	45703.64
580.98	45757.47
581.14	45326.81
581.30	45673.21
581.46	45413.41
581.62	45581.93
581.78	45331.50
581.94	45937.69
582.10	45516.40
582.26	45364.26
582.42	45284.68
582.58	45471.93
582.74	45764.49
582.90	45888.54
583.06	45394.69
583.22	45652.15
583.38	45787.90
583.54	45418.10
583.70	45886.20
583.86	45745.77
584.02	45209.79
584.18	45947.06
584.34	45869.82
584.50	46216.22
584.66	45677.90
584.82	46038.34
584.98	45771.52
585.14	45626.40
585.30	45666.19
585.46	45755.13
585.62	45347.88
585.78	45794.92
585.94	45471.93
586.10	45368.94
586.26	45600.66
586.42	45626.40
586.58	45558.53
586.74	45701.30
586.90	45432.14
587.06	45963.44
587.22	45776.20
587.38	45467.25
587.54	45944.72
587.70	45986.85
587.86	45921.31
588.02	45909.61
588.18	45380.65
588.34	45727.05
588.49	45965.78
588.65	45617.04
588.81	45862.80
588.97	45757.47
589.13	46183.45
589.29	45944.72
589.45	45963.44
589.61	45724.71
589.77	46321.54
589.93	45635.77
590.08	46047.70
