SpectraSuite Data File
++++++++++++++++++++++++++++++++++++
Date: Fri Oct 25 11:26:34 EDT 2013
User: price-jones
Dark Spectrum Present: No
Reference Spectrum Present: No
Number of Sampled Component Spectra: 1
Spectrometers: USB2+H05261
Integration Time (usec): 100000 (USB2+H05261)
Spectra Averaged: 1 (USB2+H05261)
Boxcar Smoothing: 0 (USB2+H05261)
Correct for Electrical Dark: No (USB2+H05261)
Strobe/Lamp Enabled: No (USB2+H05261)
Correct for Detector Non-linearity: No (USB2+H05261)
Correct for Stray Light: No (USB2+H05261)
Number of Pixels in Processed Spectrum: 2048
>>>>>Begin Processed Spectral Data<<<<<
365.73	262.14
365.92	262.14
366.12	262.14
366.32	170.86
366.52	154.48
366.72	145.11
366.91	102.98
367.11	112.35
367.31	135.75
367.51	170.86
367.70	126.39
367.90	166.18
368.10	182.56
368.30	175.54
368.49	105.32
368.69	128.73
368.89	173.20
369.09	142.77
369.28	180.22
369.48	236.39
369.68	194.26
369.87	243.42
370.07	163.84
370.27	191.92
370.47	355.76
370.66	484.49
370.86	683.44
371.06	638.97
371.25	667.05
371.45	631.94
371.65	702.16
371.84	695.14
372.04	674.07
372.24	688.12
372.44	688.12
372.63	592.16
372.83	629.60
373.03	793.44
373.22	781.74
373.42	704.50
373.62	767.70
373.81	858.98
374.01	781.74
374.21	861.32
374.40	854.30
374.60	819.19
374.79	772.38
374.99	847.27
375.19	840.25
375.38	926.85
375.58	823.87
375.78	800.46
375.97	894.08
376.17	952.60
376.37	828.55
376.56	889.40
376.76	940.90
376.95	842.59
377.15	870.68
377.35	915.15
377.54	903.45
377.74	861.32
377.93	947.92
378.13	910.47
378.33	910.47
378.52	915.15
378.72	908.13
378.91	936.21
379.11	945.58
379.31	980.68
379.50	945.58
379.70	997.07
379.89	983.02
380.09	929.19
380.28	954.94
380.48	987.71
380.68	985.37
380.87	1039.20
381.07	985.37
381.26	994.73
381.46	980.68
381.65	1013.45
381.85	894.08
382.04	1032.18
382.24	1086.01
382.43	999.41
382.63	1083.67
382.83	1043.88
383.02	1081.33
383.22	1156.22
383.41	1053.24
383.61	1095.37
383.80	1095.37
384.00	1146.86
384.19	966.64
384.39	1104.73
384.58	1128.14
384.78	1137.50
384.97	1172.61
385.17	1128.14
385.36	1160.91
385.56	1181.97
385.75	1210.06
385.95	1214.74
386.14	1214.74
386.34	1207.72
386.53	1196.01
386.72	1149.20
386.92	1294.32
387.11	1280.27
387.31	1310.70
387.50	1275.59
387.70	1313.04
387.89	1249.85
388.09	1270.91
388.28	1277.93
388.48	1310.70
388.67	1366.87
388.86	1336.45
389.06	1413.68
389.25	1371.55
389.45	1287.29
389.64	1315.38
389.84	1472.20
390.03	1444.11
390.22	1458.15
390.42	1371.55
390.61	1427.73
390.81	1427.73
391.00	1331.76
391.19	1430.07
391.39	1439.43
391.58	1425.39
391.78	1493.26
391.97	1516.67
392.16	1537.73
392.36	1556.46
392.55	1547.09
392.75	1600.93
392.94	1549.43
393.13	1472.20
393.33	1577.52
393.52	1605.61
393.71	1561.14
393.91	1657.10
394.10	1614.97
394.29	1643.06
394.49	1717.95
394.68	1636.03
394.88	1579.86
395.07	1640.72
395.26	1701.57
395.46	1605.61
395.65	1692.21
395.84	1692.21
396.04	1823.28
396.23	1739.02
396.42	1816.26
396.62	1675.82
396.81	1839.66
397.00	1767.10
397.19	1860.73
397.39	1832.64
397.58	1898.17
397.77	1839.66
397.97	1788.17
398.16	1846.68
398.35	1827.96
398.55	1881.79
398.74	1959.03
398.93	2024.56
399.12	1959.03
399.32	1926.26
399.51	2010.52
399.70	2099.46
399.90	1961.37
400.09	1984.77
400.28	2062.01
400.47	1975.41
400.67	2146.27
400.86	2099.46
401.05	2064.35
401.24	2113.50
401.44	2085.42
401.63	2118.18
401.82	2122.87
402.01	2160.31
402.21	2176.70
402.40	2237.55
402.59	2218.83
402.78	2193.08
402.97	2221.17
403.17	2310.11
403.36	2282.02
403.55	2312.45
403.74	2399.05
403.93	2333.51
404.13	2335.85
404.32	2387.35
404.51	2319.47
404.70	2394.37
404.89	2389.69
405.09	2434.16
405.28	2427.14
405.47	2483.31
405.66	2504.37
405.85	2443.52
406.05	2539.48
406.24	2590.97
406.43	2579.27
406.62	2635.44
406.81	2665.87
407.00	2656.51
407.20	2607.36
407.39	2572.25
407.58	2712.68
407.77	2736.09
407.96	2712.68
408.15	2757.15
408.34	2829.71
408.54	2796.94
408.73	2787.58
408.92	2773.53
409.11	2890.56
409.30	2846.09
409.49	2993.55
409.68	2942.05
409.87	2888.22
410.07	3021.63
410.26	3103.55
410.45	2998.23
410.64	2939.71
410.83	3005.25
411.02	3126.96
411.21	3096.53
411.40	3187.81
411.59	3056.74
411.78	3234.62
411.98	3274.41
412.17	3325.90
412.36	3283.77
412.55	3276.75
412.74	3412.50
412.93	3375.05
413.12	3351.65
413.31	3684.00
413.50	3632.51
413.69	3508.46
413.88	3585.70
414.07	3688.68
414.26	3637.19
414.45	3669.96
414.64	3639.53
414.83	3815.07
415.02	3737.84
415.22	3880.61
415.41	3941.46
415.60	3784.65
415.79	3850.18
415.98	3946.14
416.17	4105.30
416.36	3929.76
416.55	4044.45
416.74	4147.43
416.93	4159.13
417.12	4227.01
417.31	4133.39
417.50	4021.04
417.69	4306.59
417.88	4154.45
418.07	4360.42
418.26	4299.56
418.45	4437.66
418.64	4416.59
418.83	4451.70
419.02	4397.87
419.21	4552.34
419.39	4505.53
419.58	4489.15
419.77	4461.06
419.96	4629.58
420.15	4681.07
420.34	4498.51
420.53	4557.02
420.72	4671.71
420.91	4704.48
421.10	4711.50
421.29	4748.95
421.48	4854.27
421.67	4903.42
421.86	4706.82
422.05	4784.06
422.24	4786.40
422.43	4835.55
422.61	4830.87
422.80	4954.91
422.99	4990.02
423.18	5153.86
423.37	4997.04
423.56	4903.42
423.75	4964.28
423.94	4835.55
424.13	4716.18
424.32	4667.03
424.50	5104.71
424.69	5109.39
424.88	5193.65
425.07	4933.85
425.26	5006.41
425.45	4971.30
425.64	5118.75
425.83	4905.76
426.01	5123.43
426.20	5174.92
426.39	5198.33
426.58	5062.58
426.77	5085.98
426.96	5123.43
427.15	5074.28
427.33	5043.85
427.52	5245.14
427.71	5107.05
427.90	5282.59
428.09	5198.33
428.28	5350.46
428.46	5359.83
428.65	5376.21
428.84	5533.03
429.03	5537.71
429.22	5263.86
429.40	5401.96
429.59	5561.11
429.78	5338.76
429.97	5217.05
430.16	5336.42
430.34	5621.97
430.53	5619.63
430.72	5575.16
430.91	5617.29
431.10	5621.97
431.28	5781.12
431.47	5863.04
431.66	5865.38
431.85	5802.19
432.03	5935.60
432.22	6064.33
432.41	6071.35
432.60	5961.34
432.79	5968.37
432.97	5996.45
433.16	6045.60
433.35	6078.37
433.54	5982.41
433.72	6202.42
433.91	6169.65
434.10	6129.86
434.28	6047.94
434.47	6113.48
434.66	6289.02
434.85	6415.41
435.03	6303.06
435.22	6296.04
435.41	6464.56
435.59	6494.99
435.78	6415.41
435.97	6602.65
436.16	6324.13
436.34	6403.71
436.53	6480.94
436.72	6532.44
436.90	6497.33
437.09	6572.22
437.28	6682.23
437.46	6497.33
437.65	6665.85
437.84	6825.00
438.02	6801.60
438.21	6686.91
438.40	6565.20
438.58	7049.69
438.77	6979.48
438.96	6984.16
439.14	7185.44
439.33	7204.17
439.52	7250.98
439.70	7365.67
439.89	7396.09
440.08	7288.43
440.26	7377.37
440.45	7297.79
440.63	7513.12
440.82	7723.77
441.01	7623.12
441.19	7566.95
441.38	7686.32
441.57	7775.26
441.75	7833.77
441.94	7946.12
442.12	8025.70
442.31	8121.66
442.50	8086.55
442.68	7920.37
442.87	8109.96
443.05	8138.04
443.24	8229.32
443.43	8161.45
443.61	8182.51
443.80	8468.06
443.98	7974.21
444.17	7971.86
444.35	8107.62
444.54	8482.10
444.73	8280.82
444.91	8351.03
445.10	8299.54
445.28	8517.21
445.47	8231.66
445.65	8484.44
445.84	8404.86
446.02	8425.93
446.21	8362.73
446.39	8678.71
446.58	8547.64
446.77	8416.57
446.95	8325.29
447.14	8533.59
447.32	8538.27
447.51	8463.38
447.69	8402.52
447.88	8451.67
448.06	8540.61
448.25	8674.03
448.43	8421.25
448.62	8573.38
448.80	8571.04
448.99	8723.18
449.17	8706.79
449.36	8659.98
449.54	8863.61
449.73	8929.14
449.91	8915.10
450.10	9069.58
450.28	9036.81
450.46	8994.68
450.65	9041.49
450.83	9004.04
451.02	9064.89
451.20	9268.52
451.39	9121.07
451.57	9268.52
451.76	9029.79
451.94	9151.49
452.13	9343.42
452.31	9179.58
452.49	9179.58
452.68	9238.09
452.86	9345.76
453.05	9455.76
453.23	9626.62
453.42	9376.19
453.60	9350.44
453.78	9692.16
453.97	9533.00
454.15	9631.30
454.34	9633.64
454.52	9919.19
454.70	9605.56
454.89	9715.56
455.07	9757.69
455.26	9792.80
455.44	9916.85
455.62	9781.10
455.81	10094.73
455.99	10052.60
456.17	9944.94
456.36	10218.78
456.54	10162.61
456.73	10237.50
456.91	10595.61
457.09	10296.02
457.28	10607.31
457.46	10328.78
457.64	10710.29
457.83	10736.04
458.01	10501.98
458.19	10743.06
458.38	10555.82
458.56	10675.18
458.74	10775.83
458.93	10829.66
459.11	10834.34
459.29	10719.65
459.48	10923.28
459.66	10665.82
459.84	10977.11
460.03	10991.16
460.21	10963.07
460.39	11019.24
460.57	10855.40
460.76	11269.68
460.94	11236.91
461.12	11056.69
461.31	11070.73
461.49	11232.23
461.67	11281.38
461.85	11403.09
462.04	11267.34
462.22	11438.20
462.40	11637.14
462.59	11592.67
462.77	11637.14
462.95	11690.98
463.13	11618.42
463.32	11763.53
463.50	11864.18
463.68	11805.66
463.86	11812.68
464.05	11786.94
464.23	11808.00
464.41	12142.70
464.59	11707.36
464.78	12327.60
464.96	11943.75
465.14	11819.71
465.32	11955.46
465.50	11955.46
465.69	12367.39
465.87	12133.34
466.05	12091.21
466.23	12011.63
466.41	11971.84
466.60	12631.87
466.78	12245.68
466.96	12224.62
467.14	12346.33
467.32	12599.10
467.51	12582.72
467.69	11936.73
467.87	12662.30
468.05	12657.62
468.23	12472.71
468.41	12599.10
468.60	12585.06
468.78	12814.43
468.96	12760.60
469.14	13043.81
469.32	13088.28
469.50	12798.05
469.69	13191.26
469.87	13069.55
470.05	13495.53
470.23	13146.79
470.41	13266.16
470.59	13142.11
470.77	13392.55
470.95	13364.46
471.14	13579.79
471.32	13357.44
471.50	13776.39
471.68	13734.26
471.86	13867.67
472.04	13792.78
472.22	13949.59
472.40	13827.88
472.58	13752.99
472.77	14085.34
472.95	14075.98
473.13	14752.40
473.31	13996.40
473.49	14450.47
473.67	14214.07
473.85	14504.30
474.03	14642.39
474.21	14780.48
474.39	14792.19
474.57	14890.49
474.75	14787.50
474.93	15164.33
475.12	14780.48
475.30	15283.70
475.48	15438.17
475.66	15346.89
475.84	15412.43
476.02	15494.35
476.20	15541.16
476.38	15721.38
476.56	15953.09
476.74	15985.86
476.92	15983.52
477.10	16077.14
477.28	16049.05
477.46	16196.51
477.64	15913.30
477.82	16912.71
478.00	16987.61
478.18	17123.36
478.36	17144.42
478.54	17081.23
478.72	17209.96
478.90	17666.36
479.08	17458.06
479.26	17949.57
479.44	17530.61
479.62	17902.76
479.80	17972.97
479.98	18443.42
480.16	18827.27
480.34	18232.77
480.52	18590.88
480.70	18686.84
480.88	18586.19
481.06	18813.23
481.24	18918.55
481.41	18995.79
481.59	19332.82
481.77	19459.21
481.95	19681.56
482.13	20044.35
482.31	19704.97
482.49	20126.27
482.67	20460.96
482.85	20257.34
483.03	20355.64
483.21	20697.36
483.39	20954.82
483.57	21076.52
483.74	21247.38
483.92	21256.75
484.10	21032.05
484.28	21727.19
484.46	21848.90
484.64	22637.66
484.82	22223.39
485.00	22396.59
485.18	22836.61
485.35	23047.26
485.53	22955.97
485.71	22757.03
485.89	23662.82
486.07	23428.76
486.25	23599.62
486.43	23784.52
486.61	23721.33
486.78	24210.50
486.96	24322.85
487.14	24833.08
487.32	24732.44
487.50	25006.28
487.68	25029.69
487.85	25191.19
488.03	25778.66
488.21	25947.18
488.39	25993.99
488.57	26040.80
488.75	25998.67
488.92	26700.83
489.10	26808.50
489.28	26897.44
489.46	27260.22
489.64	27065.96
489.81	27899.19
489.99	27763.43
490.17	27674.49
490.35	28205.80
490.53	28325.16
490.70	28294.74
490.88	28332.18
491.06	28591.98
491.24	28535.81
491.41	29303.51
491.59	29399.47
491.77	29507.13
491.95	29249.67
492.13	29869.92
492.30	30031.41
492.48	29933.11
492.66	30426.96
492.84	30429.30
493.01	31026.14
493.19	30761.66
493.37	30993.37
493.54	31108.06
493.72	31342.11
493.90	31400.63
494.08	31475.52
494.25	32102.79
494.43	32088.74
494.61	32439.82
494.79	32556.85
494.96	32816.65
495.14	32488.98
495.32	33237.95
495.49	33205.18
495.67	33364.34
495.85	33474.34
496.02	34038.41
496.20	33731.80
496.38	34036.07
496.55	34443.32
496.73	35084.63
496.91	34345.02
497.09	34892.71
497.26	35161.87
497.44	34761.64
497.62	35407.62
497.79	35936.59
497.97	35402.94
498.14	36154.26
498.32	36418.74
498.50	36411.71
498.67	36521.72
498.85	36334.48
499.03	36779.18
499.20	36699.60
499.38	36718.32
499.56	37020.25
499.73	37055.36
499.91	37439.21
500.08	37886.25
500.26	37319.84
500.44	37638.15
500.61	37989.24
500.79	37958.81
500.97	38714.80
501.14	38717.14
501.32	38445.64
501.49	38485.43
501.67	39054.18
501.84	39189.93
502.02	38796.72
502.20	38778.00
502.37	39049.50
502.55	39505.90
502.72	39695.49
502.90	39922.52
503.07	39573.78
503.25	39826.56
503.43	39845.28
503.60	40107.42
503.78	40093.38
503.95	40313.39
504.13	40584.89
504.30	41076.40
504.48	40772.13
504.65	40971.08
504.83	41198.11
505.01	41542.17
505.18	41081.08
505.36	41844.10
505.53	41284.71
505.71	41614.72
505.88	41928.36
506.06	41713.03
506.23	42117.94
506.41	42080.49
506.58	41968.15
506.76	42258.37
506.93	42323.91
507.11	42307.52
507.28	42902.02
507.46	43175.86
507.63	42990.96
507.81	43304.59
507.98	43257.78
508.16	42918.40
508.33	43213.31
508.50	43299.91
508.68	44175.27
508.85	44240.81
509.03	43866.32
509.20	43995.05
509.38	44264.21
509.55	44638.70
509.73	44687.85
509.90	44905.52
510.08	44905.52
510.25	44949.99
510.42	44739.34
510.60	45057.65
510.77	45291.71
510.95	45474.27
511.12	45270.64
511.30	45394.69
511.47	45404.05
511.64	45436.82
511.82	46124.94
511.99	45481.29
512.17	46110.89
512.34	46185.79
512.51	46326.22
512.69	46419.84
512.86	46773.27
513.04	46724.11
513.21	46782.63
513.38	47075.19
513.56	46815.40
513.73	46899.65
513.90	47131.37
514.08	46632.83
514.25	47239.03
514.43	47674.37
514.60	47440.32
514.77	47599.47
514.95	47838.21
515.12	47821.83
515.29	47917.79
515.47	47873.32
515.64	48198.65
515.81	48009.07
515.99	48177.59
516.16	48413.98
516.33	48149.50
516.51	48538.03
516.68	48435.05
516.85	48650.38
517.03	49069.33
517.20	49132.53
517.37	48872.73
517.54	48697.19
517.72	49284.66
517.89	49212.10
518.06	49605.31
518.24	49518.71
518.41	49387.64
518.58	49731.70
518.75	49294.02
518.93	49801.92
519.10	49551.48
519.27	49605.31
519.45	49902.56
519.62	49989.16
519.79	50309.82
519.96	50157.68
520.14	50431.52
520.31	50391.73
520.48	50688.98
520.65	50483.01
520.83	50815.37
521.00	50871.54
521.17	50820.05
521.34	51114.96
521.52	50927.72
521.69	51035.38
521.86	51161.77
522.03	51164.11
522.20	51283.48
522.38	51625.20
522.55	51512.85
522.72	51138.36
522.89	51299.86
523.07	51632.22
523.24	51852.23
523.41	51800.74
523.58	51599.45
523.75	51894.36
523.92	51952.87
524.10	51852.23
524.27	52289.91
524.44	51915.42
524.61	52465.45
524.78	52158.84
524.96	52254.80
525.13	52210.33
525.30	52437.36
525.47	52505.24
525.64	52566.09
525.81	52563.75
525.98	52718.23
526.16	52729.93
526.33	52884.40
526.50	52956.96
526.67	52729.93
526.84	52851.64
527.01	53097.39
527.18	53027.18
527.36	52748.65
527.53	53291.66
527.70	53389.96
527.87	53338.47
528.04	53385.28
528.21	53371.24
528.38	53567.84
528.55	53509.33
528.72	53453.15
528.89	53469.54
529.07	53645.08
529.24	53469.54
529.41	53729.34
529.58	53806.58
529.75	53612.31
529.92	53750.40
530.09	54040.63
530.26	54094.46
530.43	53972.75
530.60	54134.25
530.77	53970.41
530.94	54321.49
531.11	53977.43
531.28	54340.22
531.46	54188.08
531.63	54281.70
531.80	54487.67
531.97	54705.34
532.14	54419.80
532.31	54253.62
532.48	54845.77
532.65	54784.92
532.82	54461.93
532.99	54665.55
533.16	54595.34
533.33	54817.69
533.50	55049.40
533.67	54923.01
533.84	54908.97
534.01	54871.52
534.18	55140.68
534.35	55241.32
534.52	55131.32
534.69	55313.88
534.86	55430.91
535.03	55224.94
535.20	55271.75
535.37	55096.21
535.54	55597.09
535.71	55370.05
535.88	55641.56
536.05	55182.81
536.22	55812.41
536.38	55702.41
536.55	55618.15
536.72	55608.79
536.89	55613.47
537.06	55466.02
537.23	55894.33
537.40	55667.30
537.57	55980.93
537.74	55667.30
537.91	55875.61
538.08	56292.22
538.25	55793.69
538.42	55810.07
538.59	56364.78
538.75	56107.32
538.92	56135.41
539.09	56240.73
539.26	56067.53
539.43	56179.88
539.60	56151.79
539.77	56280.52
539.94	56584.79
540.11	56320.31
540.28	56385.85
540.44	56502.87
540.61	56493.51
540.78	56587.13
540.95	56624.58
541.12	56591.81
541.29	56418.61
541.46	56624.58
541.62	56547.34
541.79	56727.56
541.96	56552.02
542.13	56811.82
542.30	56788.42
542.47	56924.17
542.63	57169.93
542.80	56963.96
542.97	57221.42
543.14	57357.17
543.31	57010.77
543.48	57176.95
543.64	57605.26
543.81	57324.40
543.98	57467.17
544.15	57226.10
544.32	57256.53
544.48	57705.91
544.65	57343.12
544.82	57591.22
544.99	57598.24
545.16	57460.15
545.32	57497.60
545.49	57968.05
545.66	57649.74
545.83	57659.10
546.00	57755.06
546.16	57656.76
546.33	57539.73
546.50	57389.94
546.67	57792.51
546.83	57226.10
547.00	57954.00
547.17	57832.30
547.34	57876.77
547.50	58089.76
547.67	58344.87
547.84	58188.06
548.00	58075.71
548.17	58349.56
548.34	58232.53
548.51	58274.66
548.67	58192.74
548.84	58333.17
549.01	58195.08
549.18	57949.32
549.34	58347.21
549.51	58363.60
549.68	58415.09
549.84	58232.53
550.01	58721.70
550.18	58232.53
550.34	58485.31
550.51	58459.56
550.68	58646.80
550.84	58293.38
551.01	58525.10
551.18	58450.20
551.34	58621.06
551.51	58499.35
551.68	58698.30
551.84	58639.78
552.01	58555.52
552.18	58688.93
552.34	58489.99
552.51	58635.10
552.68	58478.28
552.84	58817.66
553.01	59054.06
553.18	58770.85
553.34	58880.86
553.51	58866.81
553.67	58878.52
553.84	58894.90
554.01	59128.95
554.17	58908.94
554.34	59248.32
554.51	59063.42
554.67	59178.10
554.84	58918.31
555.00	59147.68
555.17	59098.53
555.33	59271.73
555.50	58911.28
555.67	59157.04
555.83	58995.54
556.00	59147.68
556.16	59587.70
556.33	59166.40
556.50	59358.33
556.66	59421.52
556.83	59201.51
556.99	59447.27
557.16	59693.02
557.32	59550.25
557.49	59695.36
557.65	59444.93
557.82	59386.41
557.98	59510.46
558.15	59515.14
558.32	59517.48
558.48	59580.68
558.65	59641.53
558.81	59393.43
558.98	59515.14
559.14	59388.75
559.31	59285.77
559.47	59753.88
559.64	59721.11
559.80	59791.33
559.97	59744.51
560.13	59667.28
560.30	59606.42
560.46	60016.02
560.63	59880.27
560.79	59798.35
560.96	59910.69
561.12	59924.74
561.29	60093.25
561.45	59859.20
561.61	59880.27
561.78	59774.94
561.94	59805.37
562.11	59964.52
562.27	59863.88
562.44	59997.29
562.60	60245.39
562.77	60088.57
562.93	59695.36
563.10	60182.19
563.26	59997.29
563.42	60177.51
563.59	60130.70
563.75	60058.15
563.92	60142.41
564.08	60009.00
564.24	60282.84
564.41	60144.75
564.57	60004.31
564.74	60039.42
564.90	60163.47
565.07	60221.98
565.23	60046.44
565.39	60229.01
565.56	60196.24
565.72	60088.57
565.88	60324.97
566.05	60214.96
566.21	60329.65
566.38	60170.49
566.54	60212.62
566.70	60530.93
566.87	60364.76
567.03	60247.73
567.19	60488.80
567.36	60491.15
567.52	60264.11
567.68	60509.87
567.85	60493.49
568.01	60456.04
568.17	60470.08
568.34	60364.76
568.50	60252.41
568.66	60282.84
568.83	60472.42
568.99	60334.33
569.15	60441.99
569.32	60287.52
569.48	60430.29
569.64	60669.03
569.81	60491.15
569.97	60456.04
570.13	60453.70
570.30	60357.74
570.46	60458.38
570.62	60502.85
570.78	60547.32
570.95	60530.93
571.11	60781.37
571.27	60495.83
571.43	60437.31
571.60	60608.17
571.76	60736.90
571.92	60643.28
572.09	60640.94
572.25	60535.62
572.41	60673.71
572.57	60603.49
572.74	60898.40
572.90	60514.55
573.06	60685.41
573.22	60704.13
573.38	60734.56
573.55	60706.47
573.71	60739.24
573.87	60823.50
574.03	60919.46
574.20	60900.74
574.36	60636.26
574.52	60779.03
574.68	60706.47
574.84	60750.94
575.01	60748.60
575.17	60755.63
575.33	60685.41
575.49	60577.75
575.65	60884.36
575.82	60776.69
575.98	60945.21
576.14	60907.76
576.30	60914.78
576.46	60795.42
576.62	60762.65
576.79	60673.71
576.95	60664.35
577.11	61116.07
577.27	60774.35
577.43	60954.57
577.59	60727.54
577.75	60966.27
577.92	60926.49
578.08	60989.68
578.24	60942.87
578.40	61059.90
578.56	60999.04
578.72	60839.89
578.88	60912.44
579.04	61102.03
579.21	60837.54
579.37	61010.74
579.53	61137.13
579.69	60711.16
579.85	60879.67
580.01	60872.65
580.17	60750.94
580.33	60753.29
580.49	60924.14
580.65	61076.28
580.82	60975.64
580.98	60921.80
581.14	60919.46
581.30	61076.28
581.46	60676.05
581.62	61052.87
581.78	61010.74
581.94	61092.66
582.10	60900.74
582.26	60942.87
582.42	61022.45
582.58	61029.47
582.74	60872.65
582.90	61104.37
583.06	60966.27
583.22	60786.05
583.38	60886.70
583.54	60830.52
583.70	61010.74
583.86	61249.48
584.02	60912.44
584.18	61153.52
584.34	61034.15
584.50	61048.19
584.66	61008.40
584.82	60814.14
584.98	61247.14
585.14	61235.44
585.30	60889.04
585.46	61130.11
585.62	61090.32
585.78	61202.67
585.94	60659.66
586.10	61130.11
586.26	60935.85
586.42	61052.87
586.58	61247.14
586.74	61179.26
586.90	60992.02
587.06	61244.80
587.22	60959.25
587.38	61066.92
587.54	61291.61
587.70	61293.95
587.86	61034.15
588.02	60959.25
588.18	61193.31
588.34	61291.61
588.49	61113.73
