SpectraSuite Data File
++++++++++++++++++++++++++++++++++++
Date: Fri Oct 25 11:34:06 EDT 2013
User: price-jones
Dark Spectrum Present: No
Reference Spectrum Present: No
Number of Sampled Component Spectra: 1
Spectrometers: USB2+H05261
Integration Time (usec): 100000 (USB2+H05261)
Spectra Averaged: 1 (USB2+H05261)
Boxcar Smoothing: 0 (USB2+H05261)
Correct for Electrical Dark: No (USB2+H05261)
Strobe/Lamp Enabled: No (USB2+H05261)
Correct for Detector Non-linearity: No (USB2+H05261)
Correct for Stray Light: No (USB2+H05261)
Number of Pixels in Processed Spectrum: 2048
>>>>>Begin Processed Spectral Data<<<<<
365.73	262.14
365.92	262.14
366.12	262.14
366.32	177.88
366.52	191.92
366.72	203.63
366.91	142.77
367.11	264.48
367.31	205.97
367.51	105.32
367.70	180.22
367.90	173.20
368.10	224.69
368.30	191.92
368.49	196.60
368.69	93.62
368.89	245.76
369.09	159.16
369.28	205.97
369.48	215.33
369.68	187.24
369.87	222.35
370.07	180.22
370.27	250.44
370.47	404.91
370.66	517.26
370.86	463.43
371.06	550.03
371.25	519.60
371.45	491.51
371.65	599.18
371.84	578.11
372.04	559.39
372.24	533.64
372.44	566.41
372.63	587.47
372.83	617.90
373.03	594.50
373.22	631.94
373.42	636.63
373.62	645.99
373.81	629.60
374.01	580.45
374.21	706.84
374.40	676.41
374.60	601.52
374.79	627.26
374.99	608.54
375.19	685.78
375.38	676.41
375.58	615.56
375.78	669.39
375.97	620.24
376.17	697.48
376.37	690.46
376.56	718.54
376.76	578.11
376.95	624.92
377.15	662.37
377.35	669.39
377.54	720.88
377.74	688.12
377.93	711.52
378.13	667.05
378.33	765.36
378.52	674.07
378.72	685.78
378.91	653.01
379.11	683.44
379.31	753.65
379.50	734.93
379.70	716.20
379.89	697.48
380.09	720.88
380.28	697.48
380.48	655.35
380.68	641.31
380.87	739.61
381.07	695.14
381.26	760.67
381.46	765.36
381.65	823.87
381.85	770.04
382.04	758.33
382.24	793.44
382.43	732.59
382.63	805.14
382.83	828.55
383.02	826.21
383.22	856.64
383.41	788.76
383.61	823.87
383.80	819.19
384.00	837.91
384.19	798.12
384.39	774.72
384.58	800.46
384.78	812.17
384.97	828.55
385.17	861.32
385.36	875.36
385.56	856.64
385.75	835.57
385.95	856.64
386.14	842.59
386.34	891.74
386.53	798.12
386.72	823.87
386.92	828.55
387.11	884.72
387.31	809.83
387.50	880.04
387.70	777.06
387.89	884.72
388.09	908.13
388.28	910.47
388.48	919.83
388.67	924.51
388.86	889.40
389.06	947.92
389.25	961.96
389.45	943.24
389.64	950.26
389.84	971.32
390.03	1006.43
390.22	950.26
390.42	901.11
390.61	887.06
390.81	987.71
391.00	954.94
391.19	985.37
391.39	891.74
391.58	997.07
391.78	997.07
391.97	1013.45
392.16	1029.84
392.36	1062.60
392.55	985.37
392.75	1025.15
392.94	983.02
393.13	961.96
393.33	1034.52
393.52	1057.92
393.71	1057.92
393.91	1046.22
394.10	1015.79
394.29	1083.67
394.49	1102.39
394.68	1081.33
394.88	1163.25
395.07	1116.44
395.26	1062.60
395.46	1196.01
395.65	1114.10
395.84	1165.59
396.04	1160.91
396.23	1196.01
396.42	1121.12
396.62	1203.04
396.81	1219.42
397.00	1191.33
397.19	1212.40
397.39	1219.42
397.58	1151.54
397.77	1163.25
397.97	1303.68
398.16	1247.51
398.35	1226.44
398.55	1196.01
398.74	1200.69
398.93	1275.59
399.12	1294.32
399.32	1249.85
399.51	1256.87
399.70	1425.39
399.90	1348.15
400.09	1284.95
400.28	1376.24
400.47	1343.47
400.67	1385.60
400.86	1383.26
401.05	1383.26
401.24	1455.81
401.44	1423.05
401.63	1441.77
401.82	1556.46
402.01	1329.42
402.21	1420.71
402.40	1516.67
402.59	1451.13
402.78	1434.75
402.97	1371.55
403.17	1598.59
403.36	1453.47
403.55	1472.20
403.74	1535.39
403.93	1537.73
404.13	1561.14
404.32	1586.88
404.51	1584.54
404.70	1465.18
404.89	1551.78
405.09	1748.38
405.28	1551.78
405.47	1699.23
405.66	1605.61
405.85	1643.06
406.05	1722.63
406.24	1746.04
406.43	1689.87
406.62	1813.92
406.81	1722.63
407.00	1778.81
407.20	1755.40
407.39	1764.76
407.58	1834.98
407.77	1818.60
407.96	1802.21
408.15	1884.13
408.34	1872.43
408.54	1816.26
408.73	1804.55
408.92	1893.49
409.11	1933.28
409.30	1966.05
409.49	1949.67
409.68	1975.41
409.87	1954.35
410.07	2024.56
410.26	1996.48
410.45	1928.60
410.64	2036.27
410.83	2005.84
411.02	1994.14
411.21	2115.84
411.40	2132.23
411.59	2200.10
411.78	2256.28
411.98	2054.99
412.17	2153.29
412.36	2265.64
412.55	2230.53
412.74	2335.85
412.93	2399.05
413.12	2289.04
413.31	2328.83
413.50	2270.32
413.69	2413.09
413.88	2349.90
414.07	2511.39
414.26	2511.39
414.45	2455.22
414.64	2499.69
414.83	2586.29
415.02	2541.82
415.22	2569.91
415.41	2670.55
415.60	2572.25
415.79	2654.17
415.98	2745.45
416.17	2768.85
416.36	2658.85
416.55	2661.19
416.74	2733.75
416.93	2743.11
417.12	2745.45
417.31	2785.24
417.50	2869.50
417.69	2855.45
417.88	2888.22
418.07	2871.84
418.26	2888.22
418.45	2855.45
418.64	3105.89
418.83	3007.59
419.02	2972.48
419.21	3016.95
419.39	3045.04
419.58	3038.02
419.77	3091.85
419.96	3115.25
420.15	3150.36
420.34	3155.04
420.53	2995.89
420.72	3148.02
420.91	3309.52
421.10	3229.94
421.29	3218.24
421.48	3124.62
421.67	3272.07
421.86	3260.37
422.05	3356.33
422.24	3105.89
422.43	3300.16
422.61	3344.63
422.80	3358.67
422.99	3365.69
423.18	3361.01
423.37	3391.44
423.56	3253.34
423.75	3215.90
423.94	3349.31
424.13	3122.27
424.32	3309.52
424.50	3344.63
424.69	3552.93
424.88	3431.23
425.07	3351.65
425.26	3258.03
425.45	3496.76
425.64	3363.35
425.83	3393.78
426.01	3473.36
426.20	3473.36
426.39	3442.93
426.58	3517.83
426.77	3393.78
426.96	3501.44
427.15	3531.87
427.33	3517.83
427.52	3492.08
427.71	3574.00
427.90	3445.27
428.09	3538.89
428.28	3583.36
428.46	3702.73
428.65	3627.83
428.84	3644.21
429.03	3623.15
429.22	3520.17
429.40	3581.02
429.59	3662.94
429.78	3597.40
429.97	3576.34
430.16	3712.09
430.34	3700.39
430.53	3810.39
430.72	3808.05
430.91	3768.26
431.10	3831.46
431.28	3810.39
431.47	3913.38
431.66	3915.72
431.85	3763.58
432.03	3964.87
432.22	4107.64
432.41	4007.00
432.60	4037.42
432.79	3955.51
432.97	4018.70
433.16	4102.96
433.35	4060.83
433.54	4147.43
433.72	4126.36
433.91	4060.83
434.10	4180.20
434.28	4053.81
434.47	4187.22
434.66	4231.69
434.85	4121.68
435.03	4236.37
435.22	4145.09
435.41	4397.87
435.59	4271.48
435.78	4231.69
435.97	4259.78
436.16	4435.32
436.34	4255.09
436.53	4486.81
436.72	4337.01
436.90	4395.53
437.09	4475.10
437.28	4507.87
437.46	4535.96
437.65	4383.82
437.84	4643.62
438.02	4440.00
438.21	4477.44
438.40	4507.87
438.58	4704.48
438.77	4779.37
438.96	4645.96
439.14	4688.09
439.33	4744.27
439.52	4865.97
439.70	4929.17
439.89	4973.64
440.08	5060.24
440.26	4774.69
440.45	4947.89
440.63	4929.17
440.82	5060.24
441.01	4983.00
441.19	5284.93
441.38	5158.54
441.57	5093.01
441.75	5184.29
441.94	5345.78
442.12	5397.28
442.31	5404.30
442.50	5315.36
442.68	5413.66
442.87	5334.08
443.05	5362.17
443.24	5490.90
443.43	5359.83
443.61	5329.40
443.80	5523.66
443.98	5247.48
444.17	5224.08
444.35	5408.98
444.54	5549.41
444.73	5551.75
444.91	5509.62
445.10	5631.33
445.28	5696.86
445.47	5509.62
445.65	5600.90
445.84	5636.01
446.02	5650.05
446.21	5490.90
446.39	5678.14
446.58	5720.27
446.77	5783.46
446.95	5561.11
447.14	5614.95
447.32	5600.90
447.51	5654.73
447.69	5760.06
447.88	5755.38
448.06	5626.65
448.25	5736.65
448.43	5799.85
448.62	5591.54
448.80	5598.56
448.99	5902.83
449.17	5706.23
449.36	5710.91
449.54	5926.24
449.73	5928.58
449.91	5877.09
450.10	6005.81
450.28	5940.28
450.46	5975.39
450.65	6017.52
450.83	5994.11
451.02	5984.75
451.20	5959.00
451.39	6141.57
451.57	6155.61
451.76	6080.71
451.94	5977.73
452.13	6136.88
452.31	6249.23
452.49	6059.65
452.68	6052.63
452.86	6157.95
453.05	6143.91
453.23	6300.72
453.42	6118.16
453.60	6200.08
453.78	6342.85
453.97	6307.74
454.15	6221.14
454.34	6143.91
454.52	6267.95
454.70	6356.90
454.89	6324.13
455.07	6380.30
455.26	6478.60
455.44	6693.93
455.62	6427.11
455.81	6691.59
455.99	6434.13
456.17	6761.81
456.36	6609.67
456.54	6733.72
456.73	6707.98
456.91	6717.34
457.09	6965.43
457.28	6869.47
457.46	6869.47
457.64	6862.45
457.83	6927.99
458.01	7042.67
458.19	7077.78
458.38	6981.82
458.56	6951.39
458.74	7056.72
458.93	7148.00
459.11	7037.99
459.29	7000.54
459.48	7037.99
459.66	7138.63
459.84	7152.68
460.03	7232.26
460.21	7222.89
460.39	7358.64
460.57	7360.98
460.76	7140.97
460.94	7438.22
461.12	7473.33
461.31	7325.88
461.49	7358.64
461.67	7206.51
461.85	7386.73
462.04	7440.56
462.22	8032.72
462.40	7634.83
462.59	7695.68
462.77	7698.02
462.95	7618.44
463.13	7688.66
463.32	7712.07
463.50	7822.07
463.68	7765.90
463.86	7861.86
464.05	7742.49
464.23	7803.35
464.41	7836.11
464.59	7559.93
464.78	8030.38
464.96	7719.09
465.14	7740.15
465.32	7882.92
465.50	7927.39
465.69	7857.18
465.87	7929.74
466.05	8037.40
466.23	7978.89
466.41	8121.66
466.60	8126.34
466.78	7887.61
466.96	8016.33
467.14	8060.80
467.32	8133.36
467.51	8252.73
467.69	7939.10
467.87	8191.88
468.05	8322.94
468.23	8236.35
468.41	8114.64
468.60	8271.45
468.78	8065.49
468.96	8109.96
469.14	8393.16
469.32	8353.37
469.50	8208.26
469.69	8657.64
469.87	8582.74
470.05	8615.51
470.23	8662.32
470.41	8664.66
470.59	8620.19
470.77	8744.24
470.95	8641.26
471.14	8849.57
471.32	8449.33
471.50	8943.19
471.68	8835.52
471.86	9018.08
472.04	9095.32
472.22	9107.02
472.40	8947.87
472.58	9128.09
472.77	9125.75
472.95	9118.73
473.13	9404.27
473.31	8945.53
473.49	9233.41
473.67	9345.76
473.85	9523.64
474.03	9387.89
474.21	9570.45
474.39	9753.01
474.57	9523.64
474.75	9696.84
474.93	9685.14
475.12	9694.50
475.30	9891.10
475.48	9921.53
475.66	9774.08
475.84	10076.01
476.02	10050.26
476.20	9827.91
476.38	10083.03
476.56	10431.77
476.74	10387.30
476.92	10324.10
477.10	10232.82
477.28	10434.11
477.46	10382.62
477.64	10745.40
477.82	10717.31
478.00	10939.66
478.18	10803.91
478.36	11070.73
478.54	11192.44
478.72	11002.86
478.90	11309.47
479.08	11372.66
479.26	11379.68
479.44	11075.42
479.62	11300.11
479.80	11728.42
479.98	11819.71
480.16	11845.45
480.34	11920.35
480.52	11763.53
480.70	12051.42
480.88	11992.90
481.06	11999.93
481.24	12276.11
481.41	12521.87
481.59	12542.93
481.77	12343.99
481.95	12659.96
482.13	12716.13
482.31	12751.24
482.49	12872.95
482.67	13095.30
482.85	13315.31
483.03	13282.54
483.21	13547.02
483.39	13586.81
483.57	13359.78
483.74	13341.05
483.92	13584.47
484.10	13724.90
484.28	13713.20
484.46	14270.25
484.64	14473.87
484.82	14157.90
485.00	14284.29
485.18	14537.07
485.35	14574.52
485.53	14621.33
485.71	14579.20
485.89	15281.36
486.07	14986.45
486.25	15321.15
486.43	15391.36
486.61	15185.40
486.78	15580.95
486.96	15585.63
487.14	15658.18
487.32	16016.29
487.50	16208.21
487.68	15920.32
487.85	16280.77
488.03	16308.85
488.21	16699.72
488.39	16603.76
488.57	16531.20
488.75	16458.65
488.92	16805.05
489.10	17114.00
489.28	17006.33
489.46	17256.77
489.64	17266.13
489.81	17785.73
489.99	17731.90
490.17	17862.97
490.35	18106.38
490.53	18141.49
490.70	18347.46
490.88	17837.22
491.06	18246.82
491.24	18012.76
491.41	18686.84
491.59	18651.73
491.77	18965.36
491.95	18810.89
492.13	19007.49
492.30	19283.67
492.48	19356.23
492.66	19400.70
492.84	19335.17
493.01	19697.95
493.19	19494.32
493.37	19613.69
493.54	20098.18
493.72	20016.26
493.90	19735.40
494.08	20636.50
494.25	20535.86
494.43	20554.58
494.61	20503.09
494.79	20826.09
494.96	20725.44
495.14	21184.19
495.32	21177.17
495.49	21366.75
495.67	21341.00
495.85	21493.14
496.02	21743.58
496.20	21984.65
496.38	21944.86
496.55	21806.77
496.73	22464.46
496.91	22366.16
497.09	22302.96
497.26	22445.74
497.44	22525.32
497.62	22885.76
497.79	22808.52
497.97	22340.41
498.14	22934.91
498.32	23239.18
498.50	22993.42
498.67	23166.62
498.85	23138.54
499.03	23473.23
499.20	23775.16
499.38	23606.64
499.56	23747.08
499.73	23854.74
499.91	24100.50
500.08	24280.72
500.26	24123.90
500.44	24273.70
500.61	23929.64
500.79	24189.44
500.97	24760.53
501.14	25050.75
501.32	24528.81
501.49	24896.28
501.67	24915.00
501.84	25032.03
502.02	24922.02
502.20	25113.95
502.37	25088.20
502.55	25053.09
502.72	25294.17
502.90	25020.33
503.07	25565.67
503.25	25420.56
503.43	25256.72
503.60	25720.15
503.78	26319.32
503.95	25790.36
504.13	25895.69
504.30	26167.19
504.48	26120.38
504.65	26396.56
504.83	26391.88
505.01	26305.28
505.18	26621.25
505.36	26909.14
505.53	26593.17
505.71	26792.11
505.88	26536.99
506.06	26675.09
506.23	26801.47
506.41	27080.00
506.58	27058.93
506.76	27372.57
506.93	27515.34
507.11	27459.16
507.28	27384.27
507.46	27723.65
507.63	27365.54
507.81	28034.94
507.98	27840.67
508.16	27847.69
508.33	27810.25
508.50	28149.62
508.68	28151.96
508.85	28472.62
509.03	28198.77
509.20	28517.09
509.38	28601.35
509.55	28601.35
509.73	28907.96
509.90	28624.75
510.08	28599.01
510.25	28851.78
510.42	29071.79
510.60	29252.02
510.77	29139.67
510.95	29612.46
511.12	29509.47
511.30	29249.67
511.47	29280.10
511.64	29605.44
511.82	29521.18
511.99	29429.90
512.17	29532.88
512.34	30057.16
512.51	30085.25
512.69	30349.73
512.86	30031.41
513.04	30246.74
513.21	30438.67
513.38	30080.56
513.56	30525.27
513.73	30213.98
513.90	30478.46
514.08	30504.20
514.25	30331.00
514.43	31042.53
514.60	30883.37
514.77	30787.41
514.95	30955.93
515.12	30899.75
515.29	31173.60
515.47	31049.55
515.64	31297.64
515.81	31084.65
515.99	31613.62
516.16	31917.89
516.33	31641.70
516.51	31622.98
516.68	31655.75
516.85	31683.83
517.03	31999.80
517.20	32060.66
517.37	31997.46
517.54	32219.81
517.72	32116.83
517.89	32201.09
518.06	32084.06
518.24	32395.35
518.41	32353.23
518.58	32573.24
518.75	32362.59
518.93	33076.45
519.10	32636.43
519.27	32748.78
519.45	32673.88
519.62	32538.13
519.79	32931.34
519.96	32755.80
520.14	33085.81
520.31	33031.98
520.48	33174.75
520.65	33394.76
520.83	33750.52
521.00	33619.46
521.17	33273.06
521.34	33694.35
521.52	33516.47
521.69	33795.00
521.86	33612.43
522.03	34192.89
522.20	34389.49
522.38	34115.65
522.55	34305.23
522.72	33979.90
522.89	34396.51
523.07	34719.51
523.24	34689.08
523.41	34703.12
523.58	33991.60
523.75	34630.57
523.92	35049.52
524.10	34862.28
524.27	34873.98
524.44	35016.75
524.61	35459.12
524.78	34885.68
524.96	35084.63
525.13	35292.94
525.30	35421.67
525.47	35248.47
525.64	35276.55
525.81	35955.31
525.98	35924.88
526.16	35601.89
526.33	35309.32
526.50	35941.27
526.67	35803.17
526.84	35880.41
527.01	35510.61
527.18	35814.88
527.36	35985.74
527.53	36102.76
527.70	36566.19
527.87	36046.59
528.04	36172.98
528.21	36142.55
528.38	36423.42
528.55	36423.42
528.72	36304.05
528.89	36318.09
529.07	36458.52
529.24	36622.36
529.41	36727.69
529.58	36884.50
529.75	36631.72
529.92	36350.86
530.09	36648.11
530.26	36861.10
530.43	36919.61
530.60	36795.56
530.77	36594.28
530.94	37366.65
531.11	36891.52
531.28	37137.28
531.46	37343.25
531.63	37277.71
531.80	37509.43
531.97	37497.72
532.14	37500.06
532.31	37146.64
532.48	37703.69
532.65	37799.65
532.82	37528.15
532.99	37654.54
533.16	37937.74
533.33	37773.91
533.50	38031.36
533.67	37720.07
533.84	37516.45
534.01	37750.50
534.18	38560.33
534.35	38363.72
534.52	38508.83
534.69	38693.74
534.86	38546.28
535.03	38073.49
535.20	38380.10
535.37	38714.80
535.54	38335.63
535.71	38483.09
535.88	38801.40
536.05	38281.80
536.22	38941.83
536.38	38396.49
536.55	38904.38
536.72	38925.45
536.89	38642.24
537.06	38632.88
537.23	38873.96
537.40	38555.64
537.57	39152.48
537.74	38265.42
537.91	39669.74
538.08	38834.17
538.25	39014.39
538.42	39306.96
538.59	39751.66
538.75	38834.17
538.92	39566.76
539.09	39833.58
539.26	39576.12
539.43	39533.99
539.60	39665.06
539.77	39744.64
539.94	39819.53
540.11	40009.12
540.28	39742.30
540.44	39803.15
540.61	39922.52
540.78	39922.52
540.95	39880.39
541.12	39796.13
541.29	39819.53
541.46	40088.70
541.62	40177.64
541.79	40313.39
541.96	39658.04
542.13	39981.03
542.30	40109.76
542.47	40297.00
542.63	40430.41
542.80	40596.59
542.97	40832.99
543.14	41383.01
543.31	40697.24
543.48	40903.20
543.64	41579.62
543.81	41380.67
543.98	41055.34
544.15	41766.86
544.32	41041.29
544.48	41642.81
544.65	41621.75
544.82	41294.07
544.99	40807.24
545.16	41783.24
545.32	41181.73
545.49	41996.23
545.66	41769.20
545.83	41893.25
546.00	41921.34
546.16	41476.63
546.33	41633.45
546.50	41792.61
546.67	42202.20
546.83	41371.31
547.00	41418.12
547.17	41490.68
547.34	42085.17
547.50	41961.12
547.67	42618.81
547.84	42110.92
548.00	42246.67
548.17	42899.68
548.34	42546.26
548.51	42604.77
548.67	42232.63
548.84	42443.27
549.01	42066.45
549.18	42497.11
549.34	42232.63
549.51	42806.06
549.68	42674.99
549.84	42305.18
550.01	42604.77
550.18	42560.30
550.34	42827.12
550.51	42653.92
550.68	42473.70
550.84	42080.49
551.01	42895.00
551.18	42686.69
551.34	43007.34
551.51	42969.90
551.68	42527.53
551.84	42761.59
552.01	42674.99
552.18	42932.45
552.34	43100.97
552.51	43248.42
552.68	42808.40
552.84	43611.20
553.01	43152.46
553.18	43337.36
553.34	43250.76
553.51	42962.87
553.67	43217.99
553.84	43337.36
554.01	43026.07
554.17	43573.75
554.34	43428.64
554.51	43562.05
554.67	44144.84
554.84	43709.50
555.00	43812.49
555.17	43501.20
555.33	43976.33
555.50	43695.46
555.67	43470.77
555.83	43697.80
556.00	44048.88
556.16	44294.64
556.33	43892.07
556.50	44168.25
556.66	44315.70
556.83	43842.92
556.99	44304.00
557.16	44835.30
557.32	43988.03
557.49	44292.30
557.65	44271.23
557.82	44100.37
557.98	44107.40
558.15	43838.23
558.32	44168.25
558.48	44030.16
558.65	44196.34
558.81	44507.63
558.98	44362.51
559.14	43978.67
559.31	44238.47
559.47	44463.16
559.64	44421.03
559.80	44687.85
559.97	44545.08
560.13	44091.01
560.30	44093.35
560.46	45050.63
560.63	44783.81
560.79	44975.73
560.96	44921.90
561.12	44566.14
561.29	44402.30
561.45	44823.60
561.61	44439.75
561.78	44992.12
561.94	44751.04
562.11	44966.37
562.27	44868.07
562.44	44711.25
562.60	45064.67
562.77	44790.83
562.93	44776.79
563.10	44814.24
563.26	44432.73
563.42	45172.34
563.59	44797.85
563.75	44856.37
563.92	45490.65
564.08	44236.12
564.24	44980.42
564.41	45207.45
564.57	45247.24
564.74	44905.52
564.90	45485.97
565.07	45315.11
565.23	45050.63
565.39	45207.45
565.56	45263.62
565.72	44952.33
565.88	45109.14
566.05	45385.33
566.21	45111.49
566.38	45382.99
566.54	45404.05
566.70	45350.22
566.87	45654.49
567.03	45104.46
567.19	45729.39
567.36	45397.03
567.52	45326.81
567.68	45642.79
567.85	45631.08
568.01	45713.00
568.17	45382.99
568.34	45443.84
568.50	45947.06
568.66	45270.64
568.83	45345.54
568.99	45619.38
569.15	45329.16
569.32	45521.08
569.48	45462.57
569.64	45827.69
569.81	45963.44
569.97	45610.02
570.13	45998.55
570.30	45289.37
570.46	45677.90
570.62	45670.87
570.78	45801.94
570.95	45588.95
571.11	45925.99
571.27	45659.17
571.43	45504.70
571.60	45696.62
571.76	45830.03
571.92	45666.19
572.09	45783.22
572.25	45886.20
572.41	45572.57
572.57	45603.00
572.74	46293.46
572.90	45813.65
573.06	45743.43
573.22	45797.26
573.38	46103.87
573.55	46354.31
573.71	46684.33
573.87	46031.32
574.03	45830.03
574.20	46131.96
574.36	45827.69
574.52	46223.24
574.68	45837.05
574.84	45799.60
575.01	46380.06
575.17	46253.67
575.33	45942.38
575.49	46000.89
575.65	46209.20
575.82	46082.81
575.98	45612.36
576.14	46309.84
576.30	46258.35
576.46	45935.35
576.62	45867.48
576.79	46237.28
576.95	46344.95
577.11	45900.25
577.27	46366.01
577.43	45860.46
577.59	46253.67
577.75	46178.77
577.92	45916.63
578.08	46178.77
578.24	46045.36
578.40	46513.47
578.56	46274.73
578.72	46256.01
578.88	46162.39
579.04	45965.78
579.21	46373.03
579.37	45979.82
579.53	46251.33
579.69	46176.43
579.85	46272.39
580.01	46560.28
580.17	46148.34
580.33	46590.70
580.49	46113.23
580.65	46483.04
580.82	46075.79
580.98	45876.84
581.14	45797.26
581.30	46244.30
581.46	46202.18
581.62	46087.49
581.78	46169.41
581.94	46286.43
582.10	46288.77
582.26	46670.28
582.42	46127.28
582.58	46213.88
582.74	46553.26
582.90	46464.32
583.06	46520.49
583.22	46525.17
583.38	46202.18
583.54	46616.45
583.70	46464.32
583.86	46424.53
584.02	46396.44
584.18	46806.03
584.34	46873.91
584.50	46731.14
584.66	46892.63
584.82	46040.68
584.98	46815.40
585.14	46742.84
585.30	46417.50
585.46	46248.99
585.62	46438.57
585.78	46274.73
585.94	46099.19
586.10	46569.64
586.26	46190.47
586.42	46129.62
586.58	46642.20
586.74	46340.27
586.90	46316.86
587.06	45975.14
587.22	46642.20
587.38	46431.55
587.54	46630.49
587.70	46499.42
587.86	46438.57
588.02	46471.34
588.18	46534.53
588.34	46061.74
588.49	46602.41
588.65	46529.85
588.81	46712.41
588.97	46218.56
589.13	46707.73
589.29	46384.74
589.45	46843.48
589.61	46745.18
589.77	47014.34
589.93	46637.51
590.08	46939.44
