SpectraSuite Data File
++++++++++++++++++++++++++++++++++++
Date: Fri Oct 25 11:33:16 EDT 2013
User: price-jones
Dark Spectrum Present: No
Reference Spectrum Present: No
Number of Sampled Component Spectra: 1
Spectrometers: USB2+H05261
Integration Time (usec): 100000 (USB2+H05261)
Spectra Averaged: 1 (USB2+H05261)
Boxcar Smoothing: 0 (USB2+H05261)
Correct for Electrical Dark: No (USB2+H05261)
Strobe/Lamp Enabled: No (USB2+H05261)
Correct for Detector Non-linearity: No (USB2+H05261)
Correct for Stray Light: No (USB2+H05261)
Number of Pixels in Processed Spectrum: 2048
>>>>>Begin Processed Spectral Data<<<<<
365.73	283.20
365.92	283.20
366.12	283.20
366.32	250.44
366.52	131.07
366.72	168.52
366.91	119.37
367.11	238.73
367.31	138.09
367.51	166.18
367.70	198.95
367.90	196.60
368.10	173.20
368.30	266.82
368.49	95.96
368.69	159.16
368.89	229.37
369.09	215.33
369.28	145.11
369.48	238.73
369.68	220.01
369.87	210.65
370.07	269.16
370.27	271.50
370.47	259.80
370.66	395.55
370.86	507.90
371.06	519.60
371.25	517.26
371.45	557.05
371.65	575.77
371.84	533.64
372.04	582.79
372.24	603.86
372.44	566.41
372.63	571.09
372.83	566.41
373.03	571.09
373.22	601.52
373.42	702.16
373.62	636.63
373.81	613.22
374.01	543.00
374.21	657.69
374.40	711.52
374.60	603.86
374.79	685.78
374.99	718.54
375.19	617.90
375.38	669.39
375.58	706.84
375.78	636.63
375.97	617.90
376.17	720.88
376.37	695.14
376.56	683.44
376.76	641.31
376.95	617.90
377.15	648.33
377.35	664.71
377.54	688.12
377.74	704.50
377.93	711.52
378.13	704.50
378.33	674.07
378.52	730.25
378.72	744.29
378.91	706.84
379.11	748.97
379.31	660.03
379.50	741.95
379.70	770.04
379.89	777.06
380.09	660.03
380.28	741.95
380.48	699.82
380.68	709.18
380.87	746.63
381.07	816.85
381.26	826.21
381.46	774.72
381.65	788.76
381.85	758.33
382.04	793.44
382.24	793.44
382.43	772.38
382.63	788.76
382.83	795.78
383.02	795.78
383.22	828.55
383.41	727.91
383.61	746.63
383.80	835.57
384.00	795.78
384.19	788.76
384.39	791.10
384.58	844.93
384.78	805.14
384.97	844.93
385.17	870.68
385.36	795.78
385.56	835.57
385.75	849.61
385.95	809.83
386.14	844.93
386.34	894.08
386.53	854.30
386.72	798.12
386.92	851.96
387.11	908.13
387.31	901.11
387.50	922.17
387.70	856.64
387.89	929.19
388.09	901.11
388.28	957.28
388.48	898.77
388.67	922.17
388.86	945.58
389.06	933.87
389.25	940.90
389.45	964.30
389.64	966.64
389.84	868.34
390.03	987.71
390.22	912.81
390.42	854.30
390.61	950.26
390.81	983.02
391.00	1013.45
391.19	968.98
391.39	1100.05
391.58	1046.22
391.78	997.07
391.97	1093.03
392.16	1039.20
392.36	1039.20
392.55	1055.58
392.75	1006.43
392.94	1050.90
393.13	1102.39
393.33	983.02
393.52	1090.69
393.71	1090.69
393.91	1090.69
394.10	1050.90
394.29	1118.78
394.49	1198.35
394.68	1076.65
394.88	1104.73
395.07	1125.80
395.26	1186.65
395.46	1146.86
395.65	1221.76
395.84	1135.16
396.04	1266.23
396.23	1210.06
396.42	1254.53
396.62	1282.61
396.81	1238.14
397.00	1277.93
397.19	1315.38
397.39	1224.10
397.58	1306.02
397.77	1224.10
397.97	1203.04
398.16	1282.61
398.35	1310.70
398.55	1291.98
398.74	1331.76
398.93	1371.55
399.12	1348.15
399.32	1308.36
399.51	1327.08
399.70	1352.83
399.90	1369.21
400.09	1371.55
400.28	1441.77
400.47	1315.38
400.67	1345.81
400.86	1357.51
401.05	1364.53
401.24	1437.09
401.44	1479.22
401.63	1453.47
401.82	1397.30
402.01	1446.45
402.21	1469.86
402.40	1514.33
402.59	1488.58
402.78	1483.90
402.97	1551.78
403.17	1469.86
403.36	1514.33
403.55	1488.58
403.74	1645.40
403.93	1565.82
404.13	1664.12
404.32	1593.90
404.51	1661.78
404.70	1593.90
404.89	1645.40
405.09	1727.32
405.28	1764.76
405.47	1671.14
405.66	1699.23
405.85	1652.42
406.05	1713.27
406.24	1727.32
406.43	1781.15
406.62	1919.24
406.81	1774.13
407.00	1753.06
407.20	1783.49
407.39	1914.56
407.58	1727.32
407.77	1888.81
407.96	1884.13
408.15	1856.04
408.34	1900.52
408.54	1961.37
408.73	1905.20
408.92	1923.92
409.11	1998.82
409.30	1898.17
409.49	1991.80
409.68	1947.33
409.87	1928.60
410.07	2062.01
410.26	2054.99
410.45	2064.35
410.64	2015.20
410.83	2207.13
411.02	2153.29
411.21	2207.13
411.40	2155.63
411.59	2237.55
411.78	2125.21
411.98	2289.04
412.17	2235.21
412.36	2235.21
412.55	2338.20
412.74	2356.92
412.93	2434.16
413.12	2265.64
413.31	2497.35
413.50	2359.26
413.69	2424.80
413.88	2434.16
414.07	2441.18
414.26	2520.76
414.45	2469.27
414.64	2476.29
414.83	2621.40
415.02	2651.83
415.22	2745.45
415.41	2644.81
415.60	2607.36
415.79	2668.21
415.98	2757.15
416.17	2670.55
416.36	2803.96
416.55	2813.32
416.74	2815.66
416.93	2820.35
417.12	2848.43
417.31	2834.39
417.50	2902.26
417.69	2937.37
417.88	2942.05
418.07	2843.75
418.26	2951.42
418.45	2981.84
418.64	3019.29
418.83	3019.29
419.02	3112.91
419.21	3108.23
419.39	3108.23
419.58	3201.85
419.77	3105.89
419.96	3155.04
420.15	3117.59
420.34	3141.00
420.53	3136.32
420.72	3304.84
420.91	3253.34
421.10	3288.45
421.29	3253.34
421.48	3258.03
421.67	3398.46
421.86	3251.00
422.05	3234.62
422.24	3428.88
422.43	3274.41
422.61	3361.01
422.80	3468.67
422.99	3405.48
423.18	3445.27
423.37	3529.53
423.56	3302.50
423.75	3517.83
423.94	3309.52
424.13	3220.58
424.32	3234.62
424.50	3520.17
424.69	3524.85
424.88	3426.54
425.07	3461.65
425.26	3435.91
425.45	3396.12
425.64	3382.07
425.83	3473.36
426.01	3581.02
426.20	3571.66
426.39	3524.85
426.58	3419.52
426.77	3485.06
426.96	3536.55
427.15	3449.95
427.33	3606.77
427.52	3534.21
427.71	3655.92
427.90	3634.85
428.09	3667.62
428.28	3719.11
428.46	3627.83
428.65	3611.45
428.84	3824.44
429.03	3761.24
429.22	3751.88
429.40	3796.35
429.59	3901.67
429.78	3691.02
429.97	3679.32
430.16	3749.54
430.34	3850.18
430.53	3904.01
430.72	3859.54
430.91	3705.07
431.10	3779.97
431.28	3918.06
431.47	4049.13
431.66	4109.98
431.85	3936.78
432.03	4046.79
432.22	4219.99
432.41	3999.98
432.60	4091.26
432.79	4194.24
432.97	4112.32
433.16	4175.52
433.35	4128.70
433.54	4285.52
433.72	4161.47
433.91	4212.96
434.10	4311.27
434.28	4203.60
434.47	4222.33
434.66	4379.14
434.85	4285.52
435.03	4250.41
435.22	4533.62
435.41	4510.21
435.59	4479.79
435.78	4512.55
435.97	4437.66
436.16	4407.23
436.34	4409.57
436.53	4510.21
436.72	4608.51
436.90	4435.32
437.09	4557.02
437.28	4437.66
437.46	4496.17
437.65	4603.83
437.84	4655.33
438.02	4608.51
438.21	4652.98
438.40	4489.15
438.58	4725.54
438.77	4802.78
438.96	4706.82
439.14	5039.17
439.33	5062.58
439.52	4975.98
439.70	4931.51
439.89	4992.36
440.08	5078.96
440.26	5069.60
440.45	5085.98
440.63	5029.81
440.82	5198.33
441.01	5235.78
441.19	5270.89
441.38	5296.63
441.57	5343.44
441.75	5291.95
441.94	5467.49
442.12	5565.79
442.31	5586.86
442.50	5380.89
442.68	5523.66
442.87	5476.85
443.05	5455.79
443.24	5483.88
443.43	5518.98
443.61	5675.80
443.80	5668.78
443.98	5327.06
444.17	5406.64
444.35	5678.14
444.54	5720.27
444.73	5762.40
444.91	5523.66
445.10	5870.06
445.28	5713.25
445.47	5671.12
445.65	5624.31
445.84	5776.44
446.02	5584.52
446.21	5820.91
446.39	5870.06
446.58	5881.77
446.77	5905.17
446.95	5692.18
447.14	5727.29
447.32	5818.57
447.51	5837.30
447.69	5823.25
447.88	5806.87
448.06	5865.38
448.25	5788.14
448.43	5781.12
448.62	5582.18
448.80	5888.79
448.99	5891.13
449.17	5994.11
449.36	5966.03
449.54	6235.19
449.73	5996.45
449.91	6031.56
450.10	6120.50
450.28	6050.28
450.46	6286.68
450.65	6148.59
450.83	6193.06
451.02	6150.93
451.20	6200.08
451.39	6209.44
451.57	6181.35
451.76	6193.06
451.94	6370.94
452.13	6457.54
452.31	6267.95
452.49	6190.72
452.68	6363.92
452.86	6253.91
453.05	6396.68
453.23	6541.80
453.42	6417.75
453.60	6277.32
453.78	6469.24
453.97	6443.49
454.15	6314.77
454.34	6361.58
454.52	6478.60
454.70	6480.94
454.89	6747.76
455.07	6649.46
455.26	6661.16
455.44	6726.70
455.62	6736.06
455.81	6736.06
455.99	6890.54
456.17	6925.65
456.36	6757.13
456.54	6937.35
456.73	6883.52
456.91	7262.68
457.09	6965.43
457.28	7075.44
457.46	6768.83
457.64	7138.63
457.83	7026.29
458.01	7213.53
458.19	7286.09
458.38	7281.41
458.56	7281.41
458.74	7122.25
458.93	7283.75
459.11	7344.60
459.29	7232.26
459.48	7164.38
459.66	7194.81
459.84	7403.11
460.03	7386.73
460.21	7337.58
460.39	7339.92
460.57	7653.55
460.76	7534.18
460.94	7606.74
461.12	7737.81
461.31	7606.74
461.49	7576.31
461.67	7463.97
461.85	7798.66
462.04	7669.94
462.22	7955.48
462.40	7936.76
462.59	7772.92
462.77	7557.59
462.95	7798.66
463.13	7981.23
463.32	7826.75
463.50	8107.62
463.68	7932.08
463.86	7889.95
464.05	7829.09
464.23	8004.63
464.41	8074.85
464.59	7808.03
464.78	8142.72
464.96	8070.17
465.14	7988.25
465.32	8173.15
465.50	8341.67
465.69	8168.47
465.87	8149.75
466.05	8093.57
466.23	8250.39
466.41	8334.65
466.60	8407.20
466.78	8290.18
466.96	8308.90
467.14	8414.23
467.32	8219.96
467.51	8290.18
467.69	8299.54
467.87	8367.42
468.05	8486.78
468.23	8355.71
468.41	8348.69
468.60	8451.67
468.78	8601.47
468.96	8435.29
469.14	8606.15
469.32	8809.78
469.50	8613.17
469.69	8610.83
469.87	8826.16
470.05	8699.77
470.23	8959.57
470.41	8833.18
470.59	8917.44
470.77	8980.64
470.95	8947.87
471.14	9104.68
471.32	8924.46
471.50	9153.84
471.68	8933.82
471.86	8842.54
472.04	9139.79
472.22	9511.94
472.40	9165.54
472.58	9273.20
472.77	9287.25
472.95	9500.23
473.13	9743.65
473.31	9453.42
473.49	9638.33
473.67	9261.50
473.85	9584.49
474.03	9785.78
474.21	9844.29
474.39	9884.08
474.57	10085.37
474.75	9991.75
474.93	10127.50
475.12	10099.41
475.30	10232.82
475.48	10101.75
475.66	10340.49
475.84	10146.22
476.02	10303.04
476.20	10296.02
476.38	10593.26
476.56	10754.76
476.74	10752.42
476.92	10661.14
477.10	10586.24
477.28	10789.87
477.46	10656.46
477.64	11091.80
477.82	11054.35
478.00	11536.50
478.18	11185.42
478.36	11447.56
478.54	11447.56
478.72	11428.84
478.90	11569.27
479.08	11723.74
479.26	11580.97
479.44	11712.04
479.62	11875.88
479.80	11861.84
479.98	12011.63
480.16	12229.30
480.34	11997.59
480.52	12552.29
480.70	12432.93
480.88	12306.54
481.06	12606.13
481.24	12449.31
481.41	12659.96
481.59	12898.69
481.77	13001.68
481.95	12982.95
482.13	13111.68
482.31	13301.26
482.49	13249.77
482.67	13537.66
482.85	13404.25
483.03	13664.05
483.21	13785.76
483.39	13895.76
483.57	13855.97
483.74	13921.51
483.92	14087.68
484.10	14286.63
484.28	14228.12
484.46	14539.41
484.64	14740.69
484.82	14616.65
485.00	14787.50
485.18	15133.90
485.35	15365.62
485.53	14895.17
485.71	15295.40
485.89	15719.04
486.07	15447.54
486.25	15948.41
486.43	15566.90
486.61	15784.57
486.78	15969.48
486.96	16105.23
487.14	15948.41
487.32	16198.85
487.50	16741.85
487.68	16463.33
487.85	16662.27
488.03	16999.31
488.21	17170.17
488.39	17097.61
488.57	17469.76
488.75	17390.18
488.92	17472.10
489.10	18010.42
489.28	17561.04
489.46	17881.69
489.64	17874.67
489.81	18272.56
489.99	18396.61
490.17	18228.09
490.35	18593.22
490.53	18621.30
490.70	19012.17
490.88	19098.77
491.06	19112.81
491.24	19222.82
491.41	19007.49
491.59	19424.11
491.77	19239.20
491.95	19358.57
492.13	19604.33
492.30	19889.87
492.48	20011.58
492.66	19859.45
492.84	20210.53
493.01	20542.88
493.19	20229.25
493.37	20339.26
493.54	20603.74
493.72	20624.80
493.90	20652.89
494.08	21123.33
494.25	20915.03
494.43	21254.40
494.61	21521.23
494.79	21355.05
494.96	21654.64
495.14	21862.94
495.32	21715.49
495.49	22174.24
495.67	22097.00
495.85	21820.81
496.02	22616.60
496.20	22595.53
496.38	22284.24
496.55	22651.70
496.73	23438.12
496.91	22782.77
497.09	23000.44
497.26	23023.85
497.44	23002.78
497.62	23632.39
497.79	23768.14
497.97	23393.65
498.14	23814.95
498.32	23749.42
498.50	23704.95
498.67	24198.80
498.85	24137.94
499.03	24376.68
499.20	24381.36
499.38	24098.16
499.56	24458.60
499.73	24587.33
499.91	24790.95
500.08	25041.39
500.26	24643.50
500.44	24905.64
500.61	25006.28
500.79	24891.60
500.97	24868.19
501.14	25486.09
501.32	25511.84
501.49	25238.00
501.67	25610.14
501.84	25879.30
502.02	25694.40
502.20	25694.40
502.37	25905.05
502.55	25972.92
502.72	26134.42
502.90	25975.27
503.07	25998.67
503.25	26522.95
503.43	26057.18
503.60	26384.86
503.78	26764.03
503.95	26799.13
504.13	26731.26
504.30	26845.94
504.48	26911.48
504.65	26948.93
504.83	26998.08
505.01	27463.85
505.18	27480.23
505.36	27676.83
505.53	27576.19
505.71	27793.86
505.88	27618.32
506.06	27365.54
506.23	27861.74
506.41	27288.31
506.58	27997.49
506.76	28261.97
506.93	28154.30
507.11	28250.27
507.28	28584.96
507.46	28409.42
507.63	28886.89
507.81	28601.35
507.98	28411.76
508.16	28896.25
508.33	28823.70
508.50	29277.76
508.68	29172.44
508.85	29352.66
509.03	29132.65
509.20	28938.38
509.38	29390.11
509.55	29469.69
509.73	29860.55
509.90	29596.07
510.08	29539.90
510.25	29841.83
510.42	29504.79
510.60	30305.26
510.77	30204.61
510.95	30277.17
511.12	30239.72
511.30	30108.65
511.47	30515.90
511.64	30363.77
511.82	30562.72
511.99	30682.08
512.17	30637.61
512.34	30719.53
512.51	31208.70
512.69	30988.69
512.86	31108.06
513.04	31400.63
513.21	30906.77
513.38	31585.53
513.56	31428.71
513.73	31182.96
513.90	31922.57
514.08	31601.91
514.25	31854.69
514.43	31835.97
514.60	32023.21
514.77	31555.10
514.95	31737.66
515.12	32430.46
515.29	31957.67
515.47	32329.82
515.64	32816.65
515.81	32385.99
515.99	32507.70
516.16	32547.49
516.33	32683.24
516.51	32893.89
516.68	32332.16
516.85	33120.92
517.03	32713.67
517.20	33127.94
517.37	32964.10
517.54	32943.04
517.72	32830.69
517.89	33546.90
518.06	33132.62
518.24	33631.16
518.41	33443.91
518.58	33495.41
518.75	32921.98
518.93	33530.51
519.10	33539.88
519.27	33907.34
519.45	33668.61
519.62	33865.21
519.79	34120.33
519.96	33928.41
520.14	33998.62
520.31	34202.25
520.48	34363.75
520.65	34237.36
520.83	34604.82
521.00	34831.85
521.17	34705.46
521.34	34522.90
521.52	34625.89
521.69	34852.92
521.86	34941.86
522.03	35248.47
522.20	35175.91
522.38	35225.06
522.55	35246.13
522.72	35253.15
522.89	35398.26
523.07	35583.16
523.24	35505.93
523.41	35548.06
523.58	35295.28
523.75	35660.40
523.92	35854.67
524.10	36011.48
524.27	36154.26
524.44	35749.34
524.61	36215.11
524.78	36229.15
524.96	36650.45
525.13	36292.35
525.30	36519.38
525.47	35915.52
525.64	36334.48
525.81	36727.69
525.98	36605.98
526.16	36421.08
526.33	36507.68
526.50	36985.15
526.67	36650.45
526.84	37144.30
527.01	36849.39
527.18	36800.24
527.36	37090.47
527.53	37137.28
527.70	37502.40
527.87	37397.08
528.04	36931.31
528.21	37067.06
528.38	37148.98
528.55	37720.07
528.72	37504.74
528.89	37862.85
529.07	37804.33
529.24	37361.97
529.41	38239.67
529.58	38094.56
529.75	37743.48
529.92	38099.24
530.09	37708.37
530.26	38246.69
530.43	37991.58
530.60	37923.70
530.77	37717.73
530.94	38000.94
531.11	38515.86
531.28	38513.52
531.46	38352.02
531.63	38508.83
531.80	38370.74
531.97	38789.70
532.14	38651.61
532.31	38848.21
532.48	38880.98
532.65	39019.07
532.82	38522.88
532.99	39262.49
533.16	39077.58
533.33	39253.12
533.50	39044.82
533.67	38775.66
533.84	38698.42
534.01	38967.58
534.18	39199.29
534.35	39569.10
534.52	39674.42
534.69	40259.55
534.86	39756.34
535.03	39573.78
535.20	39782.09
535.37	39796.13
535.54	39945.92
535.71	39819.53
535.88	40095.72
536.05	39875.71
536.22	40233.81
536.38	40414.03
536.55	40240.83
536.72	40037.20
536.89	39845.28
537.06	39817.19
537.23	40472.54
537.40	40114.44
537.57	39744.64
537.74	40233.81
537.91	40385.94
538.08	40268.92
538.25	40275.94
538.42	40622.34
538.59	40528.72
538.75	40240.83
538.92	40823.62
539.09	40968.74
539.26	41076.40
539.43	40868.09
539.60	40961.72
539.77	41067.04
539.94	41221.52
540.11	41528.13
540.28	41312.80
540.44	40856.39
540.61	40912.56
540.78	40706.60
540.95	41148.96
541.12	40931.29
541.29	40863.41
541.46	41195.77
541.62	41535.15
541.79	41354.93
541.96	41139.60
542.13	41170.02
542.30	41706.01
542.47	41816.01
542.63	41436.84
542.80	41944.74
542.97	41881.55
543.14	42153.05
543.31	42094.53
543.48	42284.12
543.64	42548.60
543.81	42162.41
543.98	42483.06
544.15	42543.92
544.32	42827.12
544.48	42972.24
544.65	42410.51
544.82	43042.45
544.99	42370.72
545.16	42513.49
545.32	42691.37
545.49	43117.35
545.66	42904.36
545.83	43201.61
546.00	42792.01
546.16	42887.98
546.33	42684.35
546.50	42541.58
546.67	43124.37
546.83	41949.42
547.00	42993.30
547.17	43093.94
547.34	43012.02
547.50	43232.04
547.67	43868.66
547.84	43131.39
548.00	43658.01
548.17	43758.66
548.34	43622.90
548.51	43405.23
548.67	43241.40
548.84	43803.13
549.01	43548.01
549.18	43681.42
549.34	43580.78
549.51	43800.79
549.68	43658.01
549.84	43723.55
550.01	44086.33
550.18	43660.35
550.34	43892.07
550.51	43880.36
550.68	44252.51
550.84	43753.97
551.01	44362.51
551.18	44453.79
551.34	44004.41
551.51	44215.06
551.68	44254.85
551.84	44556.78
552.01	43952.92
552.18	44580.18
552.34	44404.64
552.51	44343.79
552.68	44140.16
552.84	44521.67
553.01	44648.06
553.18	44350.81
553.34	44313.36
553.51	44516.99
553.67	44718.28
553.84	44903.18
554.01	44879.77
554.17	45160.64
554.34	45017.86
554.51	45083.40
554.67	45123.19
554.84	45221.49
555.00	44961.69
555.17	44776.79
555.33	44971.05
555.50	44626.99
555.67	45195.74
555.83	45280.00
556.00	44935.95
556.16	45469.59
556.33	44814.24
556.50	45333.84
556.66	45099.78
556.83	44861.05
556.99	45425.12
557.16	45584.27
557.32	45427.46
557.49	45652.15
557.65	45600.66
557.82	44832.96
557.98	45418.10
558.15	45834.71
558.32	45560.87
558.48	45446.18
558.65	45390.01
558.81	45488.31
558.98	45507.04
559.14	45539.80
559.31	45743.43
559.47	45666.19
559.64	45745.77
559.80	45839.39
559.97	45677.90
560.13	45593.64
560.30	45968.12
560.46	46206.86
560.63	46281.75
560.79	46197.49
560.96	46103.87
561.12	45783.22
561.29	45867.48
561.45	46122.60
561.61	45867.48
561.78	45933.01
561.94	45783.22
562.11	46265.37
562.27	45708.32
562.44	46560.28
562.60	46419.84
562.77	46567.30
562.93	46019.61
563.10	46883.27
563.26	46078.13
563.42	46686.67
563.59	45684.92
563.75	46368.35
563.92	46003.23
564.08	46181.11
564.24	46473.68
564.41	46188.13
564.57	46466.66
564.74	46539.21
564.90	46270.05
565.07	46045.36
565.23	46712.41
565.39	46260.69
565.56	46941.78
565.72	46621.13
565.88	46557.94
566.05	46583.68
566.21	46590.70
566.38	46485.38
566.54	46838.80
566.70	46548.57
566.87	46862.21
567.03	46380.06
567.19	46653.90
567.36	46813.05
567.52	46691.35
567.68	47126.69
567.85	46450.27
568.01	47028.38
568.17	46691.35
568.34	46862.21
568.50	46902.00
568.66	46665.60
568.83	46649.22
568.99	46663.26
569.15	46850.50
569.32	46979.23
569.48	47026.04
569.64	47524.58
569.81	46878.59
569.97	46909.02
570.13	46955.83
570.30	47091.58
570.46	46995.62
570.62	47040.09
570.78	47119.66
570.95	46927.74
571.11	47480.11
571.27	46986.25
571.43	46965.19
571.60	46990.94
571.76	47295.21
571.92	46899.65
572.09	47093.92
572.25	47124.35
572.41	47138.39
572.57	47253.08
572.74	47636.92
572.90	46724.11
573.06	47332.65
573.22	47746.93
573.38	47395.85
573.55	47084.56
573.71	47922.47
573.87	47208.61
574.03	47435.64
574.20	47718.84
574.36	47262.44
574.52	47262.44
574.68	47063.49
574.84	47358.40
575.01	47632.24
575.17	47292.86
575.33	47082.22
575.49	47143.07
575.65	47154.77
575.82	47332.65
575.98	47157.11
576.14	47365.42
576.30	47789.06
576.46	47374.78
576.62	47318.61
576.79	47332.65
576.95	47239.03
577.11	47185.20
577.27	47526.92
577.43	47667.35
577.59	47578.41
577.75	47330.31
577.92	47309.25
578.08	47332.65
578.24	47489.47
578.40	47805.44
578.56	47901.40
578.72	47782.04
578.88	47419.25
579.04	47391.17
579.21	47182.86
579.37	47721.18
579.53	47908.43
579.69	47189.88
579.85	47185.20
580.01	47330.31
580.17	47112.64
580.33	47814.80
580.49	47519.90
580.65	47899.06
580.82	47353.72
580.98	47421.59
581.14	47491.81
581.30	47164.14
581.46	47669.69
581.62	47812.46
581.78	47540.96
581.94	47470.75
582.10	47337.33
582.26	48112.05
582.42	47386.49
582.58	47463.72
582.74	47587.77
582.90	47622.88
583.06	47929.49
583.22	47805.44
583.38	47550.32
583.54	47512.88
583.70	47475.43
583.86	47700.12
584.02	47524.58
584.18	48130.78
584.34	47966.94
584.50	48100.35
584.66	47791.40
584.82	47779.70
584.98	47702.46
585.14	47929.49
585.30	47531.60
585.46	47746.93
585.62	47522.24
585.78	47892.04
585.94	47524.58
586.10	47859.27
586.26	47831.19
586.42	47725.86
586.58	47447.34
586.74	47681.39
586.90	47466.06
587.06	47547.98
587.22	48037.16
587.38	47847.57
587.54	48208.01
587.70	48360.15
587.86	48076.94
588.02	47842.89
588.18	47852.25
588.34	47814.80
588.49	47859.27
588.65	47796.08
588.81	47650.97
588.97	48156.52
589.13	47873.32
589.29	48004.39
589.45	48058.22
589.61	48102.69
589.77	48058.22
589.93	47931.83
