SpectraSuite Data File
++++++++++++++++++++++++++++++++++++
Date: Fri Oct 25 11:22:57 EDT 2013
User: price-jones
Dark Spectrum Present: No
Reference Spectrum Present: No
Number of Sampled Component Spectra: 1
Spectrometers: USB2+H05261
Integration Time (usec): 100000 (USB2+H05261)
Spectra Averaged: 1 (USB2+H05261)
Boxcar Smoothing: 0 (USB2+H05261)
Correct for Electrical Dark: No (USB2+H05261)
Strobe/Lamp Enabled: No (USB2+H05261)
Correct for Detector Non-linearity: No (USB2+H05261)
Correct for Stray Light: No (USB2+H05261)
Number of Pixels in Processed Spectrum: 2048
>>>>>Begin Processed Spectral Data<<<<<
365.73	250.44
365.92	250.44
366.12	250.44
366.32	180.22
366.52	102.98
366.72	131.07
366.91	93.62
367.11	110.01
367.31	93.62
367.51	51.49
367.70	156.82
367.90	142.77
368.10	196.60
368.30	152.13
368.49	107.66
368.69	182.56
368.89	44.47
369.09	147.45
369.28	133.41
369.48	112.35
369.68	114.69
369.87	212.99
370.07	147.45
370.27	252.78
370.47	334.70
370.66	573.43
370.86	653.01
371.06	685.78
371.25	613.22
371.45	662.37
371.65	692.80
371.84	746.63
372.04	688.12
372.24	730.25
372.44	634.29
372.63	709.18
372.83	781.74
373.03	863.66
373.22	802.80
373.42	730.25
373.62	788.76
373.81	746.63
374.01	774.72
374.21	828.55
374.40	882.38
374.60	840.25
374.79	774.72
374.99	765.36
375.19	819.19
375.38	861.32
375.58	788.76
375.78	933.87
375.97	931.53
376.17	912.81
376.37	807.48
376.56	877.70
376.76	837.91
376.95	835.57
377.15	856.64
377.35	959.62
377.54	947.92
377.74	947.92
377.93	877.70
378.13	959.62
378.33	1008.77
378.52	973.66
378.72	952.60
378.91	924.51
379.11	926.85
379.31	959.62
379.50	990.05
379.70	1034.52
379.89	980.68
380.09	978.34
380.28	924.51
380.48	997.07
380.68	985.37
380.87	959.62
381.07	1057.92
381.26	1076.65
381.46	957.28
381.65	1088.35
381.85	1032.18
382.04	1057.92
382.24	1006.43
382.43	1043.88
382.63	1081.33
382.83	1029.84
383.02	1095.37
383.22	1137.50
383.41	1081.33
383.61	1107.07
383.80	1242.82
384.00	1095.37
384.19	1139.84
384.39	1193.67
384.58	1076.65
384.78	1163.25
384.97	1142.18
385.17	1212.40
385.36	1149.20
385.56	1149.20
385.75	1170.27
385.95	1203.04
386.14	1193.67
386.34	1149.20
386.53	1240.48
386.72	1156.22
386.92	1200.69
387.11	1226.44
387.31	1261.55
387.50	1217.08
387.70	1249.85
387.89	1280.27
388.09	1254.53
388.28	1315.38
388.48	1231.12
388.67	1320.06
388.86	1324.74
389.06	1348.15
389.25	1294.32
389.45	1277.93
389.64	1322.40
389.84	1341.13
390.03	1401.98
390.22	1460.49
390.42	1341.13
390.61	1336.45
390.81	1409.00
391.00	1472.20
391.19	1418.36
391.39	1432.41
391.58	1448.79
391.78	1495.60
391.97	1495.60
392.16	1444.11
392.36	1434.75
392.55	1390.28
392.75	1568.16
392.94	1488.58
393.13	1519.01
393.33	1434.75
393.52	1584.54
393.71	1645.40
393.91	1558.80
394.10	1591.56
394.29	1694.55
394.49	1666.46
394.68	1614.97
394.88	1629.01
395.07	1689.87
395.26	1633.69
395.46	1657.10
395.65	1685.19
395.84	1771.79
396.04	1839.66
396.23	1778.81
396.42	1832.64
396.62	1762.42
396.81	1823.28
397.00	1846.68
397.19	1792.85
397.39	1846.68
397.58	1743.70
397.77	1621.99
397.97	1872.43
398.16	1853.70
398.35	1886.47
398.55	1823.28
398.74	1870.09
398.93	1961.37
399.12	1977.75
399.32	1923.92
399.51	1937.96
399.70	2008.18
399.90	1996.48
400.09	1963.71
400.28	2036.27
400.47	2047.97
400.67	2064.35
400.86	2106.48
401.05	2099.46
401.24	2157.97
401.44	2232.87
401.63	2272.66
401.82	2155.63
402.01	2113.50
402.21	2118.18
402.40	2193.08
402.59	2190.74
402.78	2239.89
402.97	2165.00
403.17	2211.81
403.36	2293.72
403.55	2356.92
403.74	2338.20
403.93	2420.11
404.13	2363.94
404.32	2436.50
404.51	2434.16
404.70	2462.24
404.89	2431.82
405.09	2527.78
405.28	2464.58
405.47	2438.84
405.66	2546.50
405.85	2452.88
406.05	2541.82
406.24	2567.57
406.43	2633.10
406.62	2691.62
406.81	2635.44
407.00	2656.51
407.20	2544.16
407.39	2647.15
407.58	2792.26
407.77	2738.43
407.96	2677.57
408.15	2869.50
408.34	2775.88
408.54	2731.41
408.73	2916.31
408.92	2920.99
409.11	2885.88
409.30	2876.52
409.49	2874.18
409.68	2925.67
409.87	2829.71
410.07	3042.70
410.26	3112.91
410.45	2794.60
410.64	3002.91
410.83	3239.30
411.02	3091.85
411.21	3239.30
411.40	3253.34
411.59	3232.28
411.78	3148.02
411.98	3197.17
412.17	3375.05
412.36	3241.64
412.55	3405.48
412.74	3382.07
412.93	3419.52
413.12	3344.63
413.31	3571.66
413.50	3473.36
413.69	3576.34
413.88	3574.00
414.07	3644.21
414.26	3653.58
414.45	3765.92
414.64	3658.26
414.83	3618.47
415.02	3798.69
415.22	3889.97
415.41	3920.40
415.60	3927.42
415.79	4042.11
415.98	4021.04
416.17	4004.66
416.36	4046.79
416.55	4016.36
416.74	4063.17
416.93	4145.09
417.12	4189.56
417.31	4201.26
417.50	4280.84
417.69	4416.59
417.88	4432.97
418.07	4222.33
418.26	4346.37
418.45	4402.55
418.64	4486.81
418.83	4440.00
419.02	4461.06
419.21	4580.43
419.39	4542.98
419.58	4404.89
419.77	4461.06
419.96	4685.75
420.15	4645.96
420.34	4631.92
420.53	4594.47
420.72	4816.82
420.91	4652.98
421.10	4739.58
421.29	4896.40
421.48	4861.29
421.67	4947.89
421.86	4826.18
422.05	4669.37
422.24	5116.41
422.43	4999.38
422.61	4961.94
422.80	5050.88
422.99	4851.93
423.18	4936.19
423.37	5102.37
423.56	4954.91
423.75	4812.14
423.94	4894.06
424.13	4777.03
424.32	4901.08
424.50	5074.28
424.69	5261.52
424.88	5020.45
425.07	5020.45
425.26	4924.49
425.45	4978.32
425.64	5034.49
425.83	5067.26
426.01	5081.30
426.20	5036.83
426.39	5228.76
426.58	5188.97
426.77	5085.98
426.96	5235.78
427.15	5085.98
427.33	5207.69
427.52	5004.07
427.71	5406.64
427.90	5298.97
428.09	5399.62
428.28	5385.57
428.46	5432.38
428.65	5432.38
428.84	5636.01
429.03	5497.92
429.22	5313.02
429.40	5528.35
429.59	5631.33
429.78	5453.45
429.97	5296.63
430.16	5710.91
430.34	5757.72
430.53	5619.63
430.72	5654.73
430.91	5678.14
431.10	5760.06
431.28	5998.79
431.47	5951.98
431.66	5884.11
431.85	5891.13
432.03	5951.98
432.22	6090.07
432.41	6038.58
432.60	6083.05
432.79	5970.71
432.97	5928.58
433.16	6024.54
433.35	6022.20
433.54	6118.16
433.72	6179.01
433.91	6040.92
434.10	6195.40
434.28	6033.90
434.47	6237.53
434.66	6356.90
434.85	6595.63
435.03	6429.45
435.22	6340.51
435.41	6469.24
435.59	6384.98
435.78	6569.88
435.97	6525.41
436.16	6459.88
436.34	6609.67
436.53	6705.63
436.72	6817.98
436.90	6436.47
437.09	6623.72
437.28	6520.73
437.46	6438.81
437.65	6871.81
437.84	6771.17
438.02	6778.19
438.21	7016.93
438.40	6871.81
438.58	7047.35
438.77	7052.03
438.96	6951.39
439.14	7199.49
439.33	7234.60
439.52	7272.04
439.70	7295.45
439.89	7513.12
440.08	7337.58
440.26	7501.42
440.45	7391.41
440.63	7480.35
440.82	7716.75
441.01	7557.59
441.19	7770.58
441.38	7653.55
441.57	7803.35
441.75	7962.50
441.94	7990.59
442.12	8028.04
442.31	8168.47
442.50	8065.49
442.68	8051.44
442.87	8100.59
443.05	8116.98
443.24	8257.41
443.43	8325.29
443.61	8196.56
443.80	8554.66
443.98	8166.13
444.17	7765.90
444.35	8299.54
444.54	8571.04
444.73	8468.06
444.91	8348.69
445.10	8404.86
445.28	8599.13
445.47	8425.93
445.65	8407.20
445.84	8512.53
446.02	8664.66
446.21	8439.97
446.39	8472.74
446.58	8388.48
446.77	8451.67
446.95	8362.73
447.14	8683.39
447.32	8709.13
447.51	8573.38
447.69	8545.30
447.88	8655.30
448.06	8545.30
448.25	8540.61
448.43	8540.61
448.62	8769.99
448.80	8601.47
448.99	8695.09
449.17	8730.20
449.36	8711.47
449.54	9226.39
449.73	9151.49
449.91	9153.84
450.10	8896.38
450.28	9114.05
450.46	9184.26
450.65	9179.58
450.83	9071.92
451.02	8994.68
451.20	9493.21
451.39	9352.78
451.57	9198.31
451.76	9329.38
451.94	9362.14
452.13	9467.47
452.31	9427.68
452.49	9397.25
452.68	9301.29
452.86	9540.02
453.05	9549.39
453.23	9558.75
453.42	9476.83
453.60	9509.60
453.78	9453.42
453.97	9540.02
454.15	9448.74
454.34	9687.48
454.52	9579.81
454.70	9748.33
454.89	9731.95
455.07	9816.21
455.26	9994.09
455.44	9947.28
455.62	9884.08
455.81	10078.35
455.99	9961.32
456.17	10195.37
456.36	9973.02
456.54	10106.43
456.73	10186.01
456.91	10693.91
457.09	10490.28
457.28	10670.50
457.46	10270.27
457.64	10572.20
457.83	10448.15
458.01	10478.58
458.19	10757.10
458.38	10710.29
458.56	10574.54
458.74	10813.28
458.93	10988.82
459.11	11070.73
459.29	10902.22
459.48	10953.71
459.66	10911.58
459.84	11178.40
460.03	11150.31
460.21	10963.07
460.39	11033.29
460.57	10939.66
460.76	11124.57
460.94	11162.01
461.12	11552.88
461.31	11360.96
461.49	11215.85
461.67	11461.60
461.85	11309.47
462.04	11438.20
462.22	11723.74
462.40	11747.15
462.59	11824.39
462.77	11812.68
462.95	11709.70
463.13	11702.68
463.32	11672.25
463.50	11976.52
463.68	11955.46
463.86	12067.80
464.05	11798.64
464.23	11667.57
464.41	11981.20
464.59	11901.62
464.78	12341.64
464.96	12135.68
465.14	11941.41
465.32	12102.91
465.50	11957.80
465.69	12362.71
465.87	12475.06
466.05	12262.07
466.23	12030.35
466.41	12442.29
466.60	12444.63
466.78	12313.56
466.96	12180.15
467.14	12313.56
467.32	12458.67
467.51	12622.51
467.69	12444.63
467.87	12603.78
468.05	12634.21
468.23	12688.04
468.41	12393.14
468.60	12678.68
468.78	12807.41
468.96	12631.87
469.14	12978.27
469.32	13172.54
469.50	12940.82
469.69	13151.47
469.87	13195.94
470.05	13261.48
470.23	13212.32
470.41	13118.70
470.59	13551.70
470.77	13249.77
470.95	13401.91
471.14	13532.98
471.32	13312.97
471.50	13862.99
471.68	13710.86
471.86	13795.12
472.04	14017.47
472.22	13865.33
472.40	13797.46
472.58	13862.99
472.77	13851.29
472.95	14295.99
473.13	14740.69
473.31	14190.67
473.49	14398.98
473.67	14216.41
473.85	14541.75
474.03	14728.99
474.21	14506.64
474.39	15026.24
474.57	14817.93
474.75	15007.52
474.93	14944.32
475.12	15194.76
475.30	15335.19
475.48	15293.06
475.66	15358.60
475.84	15253.27
476.02	15534.14
476.20	15487.32
476.38	15772.87
476.56	16053.73
476.74	15892.24
476.92	16086.50
477.10	15810.32
477.28	16191.83
477.46	16496.10
477.64	16503.12
477.82	16580.36
478.00	17249.75
478.18	16959.52
478.36	16816.75
478.54	17324.65
478.72	17479.12
478.90	17415.93
479.08	17680.41
479.26	18031.49
479.44	17802.11
479.62	18256.18
479.80	18047.87
479.98	18317.03
480.16	18719.60
480.34	18740.67
480.52	19016.85
480.70	18693.86
480.88	18162.56
481.06	18944.30
481.24	19080.05
481.41	19204.10
481.59	19459.21
481.77	19709.65
481.95	19688.59
482.13	19864.13
482.31	19829.02
482.49	20655.23
482.67	20123.93
482.85	20863.54
483.03	20798.00
483.21	20737.15
483.39	21144.40
483.57	21074.18
483.74	21614.85
483.92	21518.89
484.10	21270.79
484.28	21963.59
484.46	22022.10
484.64	22312.33
484.82	22387.22
485.00	22663.41
485.18	22895.12
485.35	23040.23
485.53	23159.60
485.71	23702.61
485.89	23910.91
486.07	23262.58
486.25	23836.02
486.43	24222.20
486.61	24002.19
486.78	24292.42
486.96	24559.24
487.14	24732.44
487.32	25003.94
487.50	25216.93
487.68	25034.37
487.85	25717.81
488.03	25865.26
488.21	25996.33
488.39	25809.09
488.57	26387.20
488.75	26471.46
488.92	26892.76
489.10	26426.99
489.28	27292.99
489.46	27615.98
489.64	27129.15
489.81	27648.75
489.99	27796.20
490.17	28311.12
490.35	28540.49
490.53	28561.56
490.70	28711.35
490.88	28519.43
491.06	28758.16
491.24	29034.35
491.41	29397.13
491.59	29242.65
491.77	29879.28
491.95	29869.92
492.13	29979.92
492.30	30228.02
492.48	30328.66
492.66	30609.53
492.84	30712.51
493.01	30897.41
493.19	30979.33
493.37	31182.96
493.54	31482.55
493.72	31555.10
493.90	31871.07
494.08	32011.51
494.25	32659.84
494.43	32348.54
494.61	32533.45
494.79	32865.80
494.96	32793.25
495.14	33031.98
495.32	33567.96
495.49	33153.69
495.67	33607.75
495.85	33926.07
496.02	34338.00
496.20	34548.65
496.38	34417.58
496.55	34408.22
496.73	35239.11
496.91	34508.86
497.09	35086.97
497.26	34995.69
497.44	35222.72
497.62	35257.83
497.79	36154.26
497.97	35482.52
498.14	36257.24
498.32	36437.46
498.50	36594.28
498.67	36928.97
498.85	36495.97
499.03	36914.93
499.20	36971.10
499.38	37551.56
499.56	37340.91
499.73	37408.78
499.91	37858.17
500.08	38110.94
500.26	37710.71
500.44	37949.45
500.61	38426.92
500.79	37874.55
500.97	38719.48
501.14	38983.96
501.32	38806.08
501.49	38773.31
501.67	39044.82
501.84	39517.60
502.02	39693.15
502.20	39704.85
502.37	39674.42
502.55	39264.83
502.72	39990.39
502.90	40046.57
503.07	40205.72
503.25	40091.04
503.43	39777.40
503.60	40835.33
503.78	40322.75
503.95	40821.28
504.13	40900.86
504.30	40561.48
504.48	40898.52
504.65	40968.74
504.83	41581.96
505.01	41731.75
505.18	41588.98
505.36	41841.76
505.53	41624.09
505.71	42176.45
505.88	42277.10
506.06	41617.07
506.23	42342.63
506.41	41792.61
506.58	42763.93
506.76	42445.62
506.93	42754.57
507.11	42504.13
507.28	43147.78
507.46	43246.08
507.63	43536.30
507.81	43419.28
507.98	42988.62
508.16	43452.05
508.33	43751.63
508.50	43779.72
508.68	44657.42
508.85	44395.28
509.03	44053.56
509.20	44334.43
509.38	44559.12
509.55	44629.34
509.73	44648.06
509.90	44926.58
510.08	44835.30
510.25	44769.77
510.42	45148.93
510.60	45336.18
510.77	45310.43
510.95	46089.83
511.12	45794.92
511.30	45525.76
511.47	45797.26
511.64	45720.02
511.82	46422.19
511.99	46050.04
512.17	45968.12
512.34	46248.99
512.51	46653.90
512.69	46560.28
512.86	46859.87
513.04	46810.71
513.21	47192.22
513.38	47061.15
513.56	47232.01
513.73	47367.76
513.90	47716.50
514.08	47323.29
514.25	47505.85
514.43	47950.56
514.60	48065.24
514.77	47702.46
514.95	48184.61
515.12	48135.46
515.29	48257.17
515.47	48399.94
515.64	48222.06
515.81	48186.95
515.99	48662.08
516.16	48566.12
516.33	48521.65
516.51	48727.61
516.68	48697.19
516.85	48816.55
517.03	49099.76
517.20	49420.41
517.37	49275.30
517.54	49069.33
517.72	49162.95
517.89	49357.22
518.06	49422.75
518.24	50117.89
518.41	49815.96
518.58	49940.01
518.75	49649.78
518.93	49834.69
519.10	49893.20
519.27	50033.63
519.45	49911.92
519.62	50267.69
519.79	50225.56
519.96	50646.85
520.14	50370.67
520.31	50438.54
520.48	50543.87
520.65	50480.67
520.83	51171.13
521.00	51140.71
521.17	50728.77
521.34	50857.50
521.52	50873.88
521.69	51386.46
521.86	51157.09
522.03	51440.29
522.20	51618.17
522.38	51889.68
522.55	51721.16
522.72	51587.75
522.89	51849.89
523.07	52222.03
523.24	51393.48
523.41	51870.95
523.58	51910.74
523.75	52030.11
523.92	51955.21
524.10	52037.13
524.27	52280.55
524.44	52222.03
524.61	52680.78
524.78	52451.41
524.96	52479.49
525.13	52453.75
525.30	52411.62
525.47	52882.06
525.64	52891.43
525.81	52804.83
525.98	53010.79
526.16	52790.78
526.33	52917.17
526.50	52978.03
526.67	53090.37
526.84	53132.50
527.01	53275.27
527.18	53439.11
527.36	53289.32
527.53	53167.61
527.70	53371.24
527.87	53439.11
528.04	53544.44
528.21	53483.58
528.38	53497.62
528.55	53958.71
528.72	53595.93
528.89	53668.48
529.07	53841.68
529.24	53677.85
529.41	53900.20
529.58	53918.92
529.75	53794.87
529.92	54115.53
530.09	54136.59
530.26	54057.01
530.43	54375.33
530.60	54164.68
530.77	54213.83
530.94	54225.53
531.11	54330.86
531.28	54398.73
531.46	54492.35
531.63	54171.70
531.80	54438.52
531.97	55025.99
532.14	54883.22
532.31	54527.46
532.48	55079.83
532.65	54967.48
532.82	54693.64
532.99	55107.91
533.16	54803.64
533.33	54997.91
533.50	54953.44
533.67	55117.28
533.84	54958.12
534.01	54981.52
534.18	55068.12
534.35	55671.98
534.52	55325.58
534.69	55594.74
534.86	55526.87
535.03	55283.45
535.20	55449.63
535.37	55311.54
535.54	55789.01
535.71	55599.43
535.88	55566.66
536.05	55810.07
536.22	55716.45
536.38	55707.09
536.55	56083.92
536.72	55894.33
536.89	55798.37
537.06	55992.64
537.23	56093.28
537.40	55870.93
537.57	55915.40
537.74	55976.25
537.91	56381.16
538.08	56254.78
538.25	55842.84
538.42	56161.15
538.59	56303.93
538.75	56076.90
538.92	56350.74
539.09	56568.41
539.26	56294.56
539.43	56165.84
539.60	56404.57
539.77	56467.76
539.94	56774.37
540.11	56439.68
540.28	56711.18
540.44	56598.83
540.61	56825.87
540.78	56545.00
540.95	56708.84
541.12	56594.15
541.29	56734.59
541.46	56886.72
541.62	56741.61
541.79	56690.12
541.96	56626.92
542.13	56868.00
542.30	56772.03
542.47	57104.39
542.63	57158.22
542.80	57240.14
542.97	57411.00
543.14	57380.57
543.31	57130.14
543.48	57401.64
543.64	57696.55
543.81	57710.59
543.98	57474.20
544.15	57670.80
544.32	57574.84
544.48	57797.19
544.65	57373.55
544.82	57411.00
544.99	57429.72
545.16	57581.86
545.32	57628.67
545.49	57858.04
545.66	58042.95
545.83	57724.63
546.00	57858.04
546.16	57888.47
546.33	57794.85
546.50	57968.05
546.67	58096.78
546.83	57787.83
547.00	58028.90
547.17	57881.45
547.34	57996.13
547.50	58157.63
547.67	58269.98
547.84	58251.25
548.00	58368.28
548.17	58443.18
548.34	58492.33
548.51	58684.25
548.67	58375.30
548.84	58391.68
549.01	58403.39
549.18	58244.23
549.34	58534.46
549.51	58497.01
549.68	58475.94
549.84	58475.94
550.01	58599.99
550.18	58740.42
550.34	58618.72
550.51	58738.08
550.68	58796.60
550.84	58473.60
551.01	58805.96
551.18	58780.21
551.34	58763.83
551.51	58937.03
551.68	58798.94
551.84	58752.13
552.01	58740.42
552.18	59018.95
552.34	58855.11
552.51	59150.02
552.68	58993.20
552.84	59070.44
553.01	59222.58
553.18	59171.08
553.34	58969.80
553.51	59075.12
553.67	59021.29
553.84	59168.74
554.01	59145.34
554.17	59164.06
554.34	59187.47
554.51	59224.92
554.67	59306.83
554.84	59192.15
555.00	59168.74
555.17	59114.91
555.33	59278.75
555.50	59248.32
555.67	59248.32
555.83	59260.02
556.00	59323.22
556.16	59718.77
556.33	59433.22
556.50	59519.82
556.66	59618.13
556.83	59269.39
556.99	59803.03
557.16	59838.14
557.32	59915.37
557.49	59746.86
557.65	59583.02
557.82	59529.19
557.98	59653.23
558.15	59786.64
558.32	59627.49
558.48	59669.62
558.65	59641.53
558.81	59702.38
558.98	59880.27
559.14	60074.53
559.31	59772.60
559.47	59751.54
559.64	60123.68
559.80	60030.06
559.97	59983.25
560.13	59662.60
560.30	59831.11
560.46	59901.33
560.63	60025.38
560.79	60203.26
560.96	60100.28
561.12	59964.52
561.29	59999.63
561.45	60219.64
561.61	60062.83
561.78	60030.06
561.94	60095.60
562.11	59959.84
562.27	59931.76
562.44	60170.49
562.60	60367.10
562.77	60081.55
562.93	60100.28
563.10	60229.01
563.26	60004.31
563.42	60416.25
563.59	60135.38
563.75	60128.36
563.92	60149.43
564.08	60402.21
564.24	60495.83
564.41	60439.65
564.57	60465.40
564.74	60214.96
564.90	60491.15
565.07	60355.39
565.23	60381.14
565.39	60343.69
565.56	60376.46
565.72	60369.44
565.88	60360.08
566.05	60434.97
566.21	60430.29
566.38	60514.55
566.54	60493.49
566.70	60629.24
566.87	60566.04
567.03	60308.58
567.19	60683.07
567.36	60502.85
567.52	60467.74
567.68	60706.47
567.85	60486.46
568.01	60530.93
568.17	60619.88
568.34	60690.09
568.50	60697.11
568.66	60331.99
568.83	60870.31
568.99	60580.09
569.15	60566.04
569.32	60397.52
569.48	60619.88
569.64	60940.53
569.81	60830.52
569.97	60729.88
570.13	60570.72
570.30	60706.47
570.46	60678.39
570.62	60917.12
570.78	60853.93
570.95	60746.26
571.11	60811.80
571.27	60650.30
571.43	60603.49
571.60	60900.74
571.76	60900.74
571.92	60992.02
572.09	60811.80
572.25	60732.22
572.41	60776.69
572.57	60807.12
572.74	61062.24
572.90	60825.84
573.06	60931.17
573.22	60772.01
573.38	60846.91
573.55	60851.59
573.71	60891.38
573.87	60851.59
574.03	60842.23
574.20	60968.61
574.36	61038.83
574.52	60917.12
574.68	60842.23
574.84	61078.62
575.01	60982.66
575.17	60839.89
575.33	60942.87
575.49	60889.04
575.65	60872.65
575.82	60975.64
575.98	61059.90
576.14	61083.30
576.30	61179.26
576.46	60968.61
576.62	60980.32
576.79	60851.59
576.95	60879.67
577.11	61083.30
577.27	61045.85
577.43	61006.06
577.59	61017.77
577.75	60970.96
577.92	60853.93
578.08	61109.05
578.24	61132.45
578.40	61162.88
578.56	61216.71
578.72	61085.64
578.88	61209.69
579.04	61219.05
579.21	61155.86
579.37	61160.54
579.53	61286.93
579.69	60907.76
579.85	60919.46
580.01	61102.03
580.17	61207.35
580.33	61277.57
580.49	61326.72
580.65	61134.79
580.82	60968.61
580.98	61041.17
581.14	61013.08
581.30	61116.07
581.46	61167.56
581.62	61080.96
581.78	61099.68
581.94	61120.75
582.10	61059.90
582.26	61146.50
582.42	61071.60
582.58	61095.00
582.74	60973.30
582.90	61092.66
583.06	61104.37
583.22	60926.49
583.38	61200.33
583.54	61270.54
583.70	61151.18
583.86	61216.71
584.02	60877.33
584.18	61174.58
584.34	61197.99
584.50	61240.12
584.66	61139.47
584.82	61099.68
584.98	61270.54
585.14	61403.95
585.30	60994.36
585.46	61441.40
585.62	61310.33
585.78	61399.27
585.94	61010.74
586.10	61015.43
586.26	61151.18
586.42	61300.97
586.58	61242.46
586.74	61249.48
586.90	61099.68
587.06	61254.16
587.22	61240.12
587.38	61263.52
587.54	61481.19
587.70	61315.01
587.86	61251.82
588.02	61298.63
588.18	61410.98
588.34	61228.41
588.49	61263.52
