SpectraSuite Data File
++++++++++++++++++++++++++++++++++++
Date: Fri Oct 25 11:34:44 EDT 2013
User: price-jones
Dark Spectrum Present: No
Reference Spectrum Present: No
Number of Sampled Component Spectra: 1
Spectrometers: USB2+H05261
Integration Time (usec): 100000 (USB2+H05261)
Spectra Averaged: 1 (USB2+H05261)
Boxcar Smoothing: 0 (USB2+H05261)
Correct for Electrical Dark: No (USB2+H05261)
Strobe/Lamp Enabled: No (USB2+H05261)
Correct for Detector Non-linearity: No (USB2+H05261)
Correct for Stray Light: No (USB2+H05261)
Number of Pixels in Processed Spectrum: 2048
>>>>>Begin Processed Spectral Data<<<<<
365.73	290.23
365.92	290.23
366.12	290.23
366.32	88.94
366.52	182.56
366.72	184.90
366.91	184.90
367.11	117.03
367.31	145.11
367.51	131.07
367.70	222.35
367.90	163.84
368.10	152.13
368.30	187.24
368.49	210.65
368.69	201.29
368.89	166.18
369.09	194.26
369.28	147.45
369.48	194.26
369.68	241.08
369.87	271.50
370.07	234.05
370.27	245.76
370.47	215.33
370.66	468.11
370.86	454.06
371.06	517.26
371.25	594.50
371.45	505.56
371.65	599.18
371.84	561.73
372.04	547.69
372.24	503.22
372.44	540.66
372.63	575.77
372.83	559.39
373.03	613.22
373.22	648.33
373.42	596.84
373.62	671.73
373.81	650.67
374.01	624.92
374.21	610.88
374.40	667.05
374.60	713.86
374.79	594.50
374.99	643.65
375.19	564.07
375.38	655.35
375.58	617.90
375.78	650.67
375.97	617.90
376.17	662.37
376.37	636.63
376.56	678.76
376.76	599.18
376.95	711.52
377.15	671.73
377.35	662.37
377.54	711.52
377.74	589.82
377.93	671.73
378.13	699.82
378.33	685.78
378.52	697.48
378.72	706.84
378.91	751.31
379.11	690.46
379.31	713.86
379.50	664.71
379.70	674.07
379.89	746.63
380.09	704.50
380.28	681.10
380.48	720.88
380.68	751.31
380.87	697.48
381.07	744.29
381.26	730.25
381.46	821.53
381.65	741.95
381.85	744.29
382.04	753.65
382.24	807.48
382.43	741.95
382.63	739.61
382.83	737.27
383.02	833.23
383.22	784.08
383.41	760.67
383.61	800.46
383.80	753.65
384.00	760.67
384.19	777.06
384.39	814.51
384.58	795.78
384.78	809.83
384.97	805.14
385.17	851.96
385.36	856.64
385.56	856.64
385.75	861.32
385.95	884.72
386.14	814.51
386.34	840.25
386.53	854.30
386.72	898.77
386.92	779.40
387.11	858.98
387.31	870.68
387.50	819.19
387.70	891.74
387.89	800.46
388.09	873.02
388.28	889.40
388.48	877.70
388.67	887.06
388.86	957.28
389.06	901.11
389.25	915.15
389.45	887.06
389.64	884.72
389.84	938.55
390.03	987.71
390.22	1004.09
390.42	908.13
390.61	943.24
390.81	882.38
391.00	987.71
391.19	1055.58
391.39	957.28
391.58	1025.15
391.78	973.66
391.97	983.02
392.16	1050.90
392.36	1086.01
392.55	978.34
392.75	1062.60
392.94	997.07
393.13	971.32
393.33	1027.50
393.52	997.07
393.71	1034.52
393.91	1039.20
394.10	1062.60
394.29	1069.62
394.49	1053.24
394.68	1041.54
394.88	1046.22
395.07	1090.69
395.26	1109.41
395.46	1111.75
395.65	1121.12
395.84	1107.07
396.04	1198.35
396.23	1123.46
396.42	1165.59
396.62	1179.63
396.81	1275.59
397.00	1219.42
397.19	1193.67
397.39	1123.46
397.58	1165.59
397.77	1107.07
397.97	1165.59
398.16	1254.53
398.35	1188.99
398.55	1177.29
398.74	1327.08
398.93	1238.14
399.12	1259.21
399.32	1238.14
399.51	1217.08
399.70	1280.27
399.90	1273.25
400.09	1427.73
400.28	1348.15
400.47	1308.36
400.67	1247.51
400.86	1383.26
401.05	1329.42
401.24	1266.23
401.44	1383.26
401.63	1432.41
401.82	1378.58
402.01	1451.13
402.21	1427.73
402.40	1394.96
402.59	1406.66
402.78	1390.28
402.97	1453.47
403.17	1455.81
403.36	1476.88
403.55	1451.13
403.74	1451.13
403.93	1547.09
404.13	1507.30
404.32	1411.34
404.51	1563.48
404.70	1523.69
404.89	1561.14
405.09	1621.99
405.28	1636.03
405.47	1673.48
405.66	1610.29
405.85	1685.19
406.05	1682.85
406.24	1689.87
406.43	1750.72
406.62	1701.57
406.81	1750.72
407.00	1785.83
407.20	1727.32
407.39	1706.25
407.58	1762.42
407.77	1842.00
407.96	1806.89
408.15	1743.70
408.34	1727.32
408.54	1797.53
408.73	1785.83
408.92	1912.22
409.11	1811.57
409.30	1914.56
409.49	1839.66
409.68	1959.03
409.87	1930.94
410.07	1966.05
410.26	1905.20
410.45	1959.03
410.64	1909.88
410.83	2064.35
411.02	2062.01
411.21	2120.53
411.40	2054.99
411.59	2115.84
411.78	2150.95
411.98	2071.37
412.17	2122.87
412.36	2202.44
412.55	2209.47
412.74	2354.58
412.93	2207.13
413.12	2195.42
413.31	2293.72
413.50	2239.89
413.69	2284.36
413.88	2356.92
414.07	2307.77
414.26	2319.47
414.45	2415.43
414.64	2473.95
414.83	2473.95
415.02	2450.54
415.22	2335.85
415.41	2431.82
415.60	2626.08
415.79	2546.50
415.98	2581.61
416.17	2595.65
416.36	2649.49
416.55	2605.02
416.74	2569.91
416.93	2679.91
417.12	2654.17
417.31	2796.94
417.50	2677.57
417.69	2836.73
417.88	2794.60
418.07	2820.35
418.26	2796.94
418.45	2843.75
418.64	2909.29
418.83	2871.84
419.02	2923.33
419.21	2946.73
419.39	3005.25
419.58	3007.59
419.77	2876.52
419.96	2864.82
420.15	3094.19
420.34	3138.66
420.53	3115.25
420.72	3089.51
420.91	3122.27
421.10	3091.85
421.29	3045.04
421.48	3143.34
421.67	3126.96
421.86	3026.31
422.05	3138.66
422.24	3138.66
422.43	3145.68
422.61	3178.45
422.80	3229.94
422.99	3126.96
423.18	3150.36
423.37	3290.79
423.56	3368.03
423.75	3246.32
423.94	3098.87
424.13	3042.70
424.32	3222.92
424.50	3318.88
424.69	3297.81
424.88	3283.77
425.07	3220.58
425.26	3339.94
425.45	3265.05
425.64	3201.85
425.83	3389.10
426.01	3391.44
426.20	3309.52
426.39	3421.86
426.58	3281.43
426.77	3300.16
426.96	3396.12
427.15	3349.31
427.33	3304.84
427.52	3302.50
427.71	3496.76
427.90	3433.57
428.09	3454.63
428.28	3503.78
428.46	3613.79
428.65	3459.31
428.84	3676.98
429.03	3648.90
429.22	3494.42
429.40	3522.51
429.59	3508.46
429.78	3442.93
429.97	3431.23
430.16	3473.36
430.34	3672.30
430.53	3606.77
430.72	3508.46
430.91	3744.86
431.10	3602.08
431.28	3768.26
431.47	3786.99
431.66	3770.60
431.85	3749.54
432.03	3953.16
432.22	3918.06
432.41	3852.52
432.60	3880.61
432.79	3866.56
432.97	3859.54
433.16	3824.44
433.35	3899.33
433.54	3918.06
433.72	3983.59
433.91	3964.87
434.10	3948.48
434.28	4088.92
434.47	4032.74
434.66	3911.04
434.85	4065.51
435.03	4175.52
435.22	4121.68
435.41	4301.90
435.59	4219.99
435.78	4142.75
435.97	4217.65
436.16	4161.47
436.34	4133.39
436.53	4339.35
436.72	4294.88
436.90	4201.26
437.09	4496.17
437.28	4252.75
437.46	4416.59
437.65	4334.67
437.84	4379.14
438.02	4297.22
438.21	4444.68
438.40	4264.46
438.58	4416.59
438.77	4589.79
438.96	4596.81
439.14	4580.43
439.33	4652.98
439.52	4531.28
439.70	4800.44
439.89	4777.03
440.08	4730.22
440.26	4791.08
440.45	4868.31
440.63	4861.29
440.82	4889.38
441.01	4758.31
441.19	4922.15
441.38	5041.51
441.57	4992.36
441.75	5036.83
441.94	5085.98
442.12	5041.51
442.31	5233.44
442.50	5128.11
442.68	5057.90
442.87	5322.38
443.05	5247.48
443.24	5221.74
443.43	5266.21
443.61	5282.59
443.80	5486.22
443.98	5212.37
444.17	5074.28
444.35	5163.22
444.54	5385.57
444.73	5404.30
444.91	5397.28
445.10	5383.23
445.28	5254.50
445.47	5270.89
445.65	5462.81
445.84	5404.30
446.02	5481.53
446.21	5507.28
446.39	5317.70
446.58	5394.93
446.77	5359.83
446.95	5294.29
447.14	5504.94
447.32	5486.22
447.51	5408.98
447.69	5497.92
447.88	5434.72
448.06	5486.22
448.25	5476.85
448.43	5282.59
448.62	5364.51
448.80	5390.25
448.99	5668.78
449.17	5565.79
449.36	5561.11
449.54	5703.89
449.73	5734.31
449.91	5657.07
450.10	5675.80
450.28	5720.27
450.46	5895.81
450.65	5968.37
450.83	5774.10
451.02	5839.64
451.20	6019.86
451.39	6026.88
451.57	5944.96
451.76	5722.61
451.94	5797.51
452.13	5996.45
452.31	5966.03
452.49	5909.85
452.68	5928.58
452.86	5994.11
453.05	6171.99
453.23	6157.95
453.42	6073.69
453.60	5940.28
453.78	5982.41
453.97	5984.75
454.15	6153.27
454.34	6085.39
454.52	6239.87
454.70	6300.72
454.89	6466.90
455.07	6129.86
455.26	6225.82
455.44	6417.75
455.62	6448.18
455.81	6359.24
455.99	6438.81
456.17	6314.77
456.36	6466.90
456.54	6401.37
456.73	6621.38
456.91	6532.44
457.09	6607.33
457.28	6731.38
457.46	6586.27
457.64	6710.32
457.83	6546.48
458.01	6651.80
458.19	6691.59
458.38	6649.46
458.56	6949.05
458.74	6864.79
458.93	6946.71
459.11	6871.81
459.29	6780.53
459.48	6839.05
459.66	6904.58
459.84	7045.01
460.03	6960.75
460.21	6970.12
460.39	7075.44
460.57	7185.44
460.76	7049.69
460.94	6974.80
461.12	7059.06
461.31	7028.63
461.49	6972.46
461.67	6925.65
461.85	7332.90
462.04	7119.91
462.22	7269.70
462.40	7279.07
462.59	7297.79
462.77	7199.49
462.95	7330.56
463.13	7267.36
463.32	7403.11
463.50	7480.35
463.68	7627.81
463.86	7400.77
464.05	7335.24
464.23	7480.35
464.41	7482.69
464.59	7339.92
464.78	7700.36
464.96	7646.53
465.14	7475.67
465.32	7625.47
465.50	7765.90
465.69	7445.24
465.87	7714.41
466.05	7768.24
466.23	7698.02
466.41	7812.71
466.60	7782.28
466.78	7709.72
466.96	7618.44
467.14	7852.50
467.32	7761.22
467.51	8016.33
467.69	7597.38
467.87	8013.99
468.05	8032.72
468.23	7726.11
468.41	7971.86
468.60	7974.21
468.78	8133.36
468.96	8044.42
469.14	8276.13
469.32	8402.52
469.50	8138.04
469.69	8170.81
469.87	8283.16
470.05	8372.10
470.23	8390.82
470.41	8299.54
470.59	8493.80
470.77	8365.07
470.95	8346.35
471.14	8526.57
471.32	8257.41
471.50	8606.15
471.68	8561.68
471.86	8435.29
472.04	8734.88
472.22	8910.42
472.40	8606.15
472.58	8739.56
472.77	8802.75
472.95	8875.31
473.13	9252.14
473.31	9001.70
473.49	9167.88
473.67	9064.89
473.85	9055.53
474.03	8926.80
474.21	9371.50
474.39	9214.69
474.57	9034.47
474.75	9198.31
474.93	9298.95
475.12	9523.64
475.30	9579.81
475.48	9387.89
475.66	9432.36
475.84	9249.80
476.02	9596.20
476.20	9837.27
476.38	9781.10
476.56	10190.69
476.74	10019.83
476.92	9907.49
477.10	9942.60
477.28	10017.49
477.46	10104.09
477.64	10293.68
477.82	10235.16
478.00	10501.98
478.18	10590.92
478.36	10614.33
478.54	10661.14
478.72	10663.48
478.90	10906.90
479.08	11075.42
479.26	10904.56
479.44	10974.77
479.62	11215.85
479.80	11356.28
479.98	11335.21
480.16	11571.61
480.34	11400.75
480.52	11501.39
480.70	11515.44
480.88	11538.84
481.06	11583.31
481.24	11847.79
481.41	11868.86
481.59	12079.50
481.77	12229.30
481.95	12287.81
482.13	12531.23
482.31	12381.43
482.49	12468.03
482.67	12416.54
482.85	12720.81
483.03	12898.69
483.21	12872.95
483.39	12837.84
483.57	12858.90
483.74	13057.85
483.92	13324.67
484.10	13348.08
484.28	13174.88
484.46	13495.53
484.64	13727.24
484.82	13689.79
485.00	13666.39
485.18	14005.77
485.35	14181.31
485.53	14246.84
485.71	13994.06
485.89	14466.85
486.07	14286.63
486.25	14469.19
486.43	14516.00
486.61	14883.47
486.78	15021.56
486.96	14647.07
487.14	15229.87
487.32	15068.37
487.50	15616.05
487.68	15548.18
487.85	15557.54
488.03	15854.79
488.21	15777.55
488.39	16233.96
488.57	16278.43
488.75	16194.17
488.92	16404.81
489.10	16542.91
489.28	16311.19
489.46	16882.28
489.64	16762.92
489.81	17076.55
489.99	17238.05
490.17	17055.48
490.35	17256.77
490.53	17645.30
490.70	17488.48
490.88	17511.89
491.06	17652.32
491.24	17771.69
491.41	17982.34
491.59	18225.75
491.77	18150.85
491.95	18345.12
492.13	18459.81
492.30	18595.56
492.48	18450.44
492.66	18583.85
492.84	18925.57
493.01	19187.71
493.19	19023.87
493.37	18918.55
493.54	18944.30
493.72	19328.14
493.90	19171.33
494.08	19421.77
494.25	19775.19
494.43	19667.52
494.61	19728.38
494.79	20023.28
494.96	19793.91
495.14	20257.34
495.32	20418.83
495.49	20489.05
495.67	20711.40
495.85	20758.21
496.02	20943.11
496.20	20842.47
496.38	20989.92
496.55	21195.89
496.73	21619.53
496.91	21142.06
497.09	21380.79
497.26	21530.59
497.44	21745.92
497.62	21727.19
497.79	22043.17
497.97	21734.21
498.14	22101.68
498.32	22504.25
498.50	22712.56
498.67	22632.98
498.85	22506.59
499.03	22881.08
499.20	22864.69
499.38	22822.56
499.56	23161.94
499.73	23346.84
499.91	23035.55
500.08	23508.34
500.26	22789.80
500.44	23300.03
500.61	23548.13
500.79	23360.89
500.97	23903.89
501.14	23775.16
501.32	23892.19
501.49	23819.63
501.67	23990.49
501.84	24109.86
502.02	24180.07
502.20	24470.30
502.37	24072.41
502.55	24313.48
502.72	24460.94
502.90	24325.19
503.07	24552.22
503.25	24629.46
503.43	24360.30
503.60	24751.17
503.78	24926.71
503.95	24872.87
504.13	25209.91
504.30	25027.35
504.48	25305.87
504.65	25305.87
504.83	25518.86
505.01	25734.19
505.18	25294.17
505.36	25596.10
505.53	25366.73
505.71	25689.72
505.88	25766.96
506.06	25631.21
506.23	26349.75
506.41	26080.59
506.58	25907.39
506.76	26328.69
506.93	26443.37
507.11	26586.15
507.28	26377.84
507.46	26363.79
507.63	26841.26
507.81	27110.43
507.98	26740.62
508.16	26796.79
508.33	26838.92
508.50	26899.78
508.68	27075.32
508.85	27150.21
509.03	27372.57
509.20	27101.06
509.38	27922.59
509.55	27278.94
509.73	27573.85
509.90	27608.96
510.08	27639.39
510.25	27938.97
510.42	28119.20
510.60	28276.01
510.77	28002.17
510.95	28477.30
511.12	28208.14
511.30	28079.41
511.47	27960.04
511.64	28460.91
511.82	28414.10
511.99	28444.53
512.17	28723.05
512.34	28884.55
512.51	29036.69
512.69	28982.85
512.86	28816.68
513.04	29406.49
513.21	29261.38
513.38	29259.04
513.56	29500.11
513.73	29242.65
513.90	29216.91
514.08	29156.05
514.25	29745.87
514.43	29626.50
514.60	29783.32
514.77	29942.47
514.95	29832.47
515.12	29624.16
515.29	30047.80
515.47	30101.63
515.64	30017.37
515.81	30361.43
515.99	30548.67
516.16	30930.18
516.33	30260.79
516.51	30515.90
516.68	30593.14
516.85	30106.31
517.03	30525.27
517.20	30848.26
517.37	30668.04
517.54	30740.60
517.72	31372.54
517.89	30878.69
518.06	31133.81
518.24	31211.04
518.41	31283.60
518.58	31077.63
518.75	31131.47
518.93	31576.17
519.10	31538.72
519.27	31653.40
519.45	31585.53
519.62	31517.65
519.79	31861.71
519.96	31936.61
520.14	31929.59
520.31	31934.27
520.48	31793.84
520.65	32156.62
520.83	32755.80
521.00	32182.37
521.17	32027.89
521.34	32266.63
521.52	32830.69
521.69	32554.51
521.86	32505.36
522.03	33053.05
522.20	33055.39
522.38	32889.21
522.55	32776.86
522.72	32823.67
522.89	32940.70
523.07	33362.00
523.24	32833.04
523.41	33184.12
523.58	33221.56
523.75	33324.55
523.92	33029.64
524.10	33776.27
524.27	33652.22
524.44	33338.59
524.61	33825.42
524.78	33607.75
524.96	33851.17
525.13	33827.76
525.30	34384.81
525.47	34068.84
525.64	34103.95
525.81	33905.00
525.98	34389.49
526.16	34260.76
526.33	33809.04
526.50	34742.91
526.67	33942.45
526.84	34588.44
527.01	34148.42
527.18	34822.49
527.36	34579.07
527.53	34532.26
527.70	34955.90
527.87	34923.13
528.04	34827.17
528.21	34897.39
528.38	35194.64
528.55	35110.38
528.72	34719.51
528.89	35117.40
529.07	34803.77
529.24	34766.32
529.41	35262.51
529.58	35578.48
529.75	35555.08
529.92	35606.57
530.09	35431.03
530.26	35672.10
530.43	35342.09
530.60	35285.92
530.77	35672.10
530.94	35880.41
531.11	35515.29
531.28	36053.61
531.46	35950.63
531.63	36196.38
531.80	36013.82
531.97	36245.54
532.14	36107.44
532.31	36053.61
532.48	36397.67
532.65	36385.97
532.82	36130.85
532.99	36627.04
533.16	36360.22
533.33	36545.12
533.50	36119.15
533.67	36547.47
533.84	36442.14
534.01	36657.47
534.18	36877.48
534.35	37034.30
534.52	36912.59
534.69	37029.62
534.86	36898.55
535.03	36453.84
535.20	37191.11
535.37	37371.33
535.54	37415.80
535.71	36821.31
535.88	37177.07
536.05	37656.88
536.22	37413.46
536.38	37626.45
536.55	37574.96
536.72	37462.61
536.89	37535.17
537.06	37783.27
537.23	37837.10
537.40	37385.38
537.57	37799.65
537.74	37820.72
537.91	37844.12
538.08	37956.47
538.25	37846.46
538.42	37567.94
538.59	38256.06
538.75	37703.69
538.92	38078.18
539.09	38513.52
539.26	38529.90
539.43	37977.53
539.60	38440.96
539.77	38279.46
539.94	38258.40
540.11	38426.92
540.28	38169.46
540.44	38370.74
540.61	38291.16
540.78	38263.08
540.95	38375.42
541.12	38302.87
541.29	38635.22
541.46	38663.31
541.62	38593.09
541.79	39147.80
541.96	38745.23
542.13	38675.01
542.30	38630.54
542.47	38763.95
542.63	39117.37
542.80	39173.55
542.97	39505.90
543.14	39793.79
543.31	39629.95
543.48	39398.24
543.64	39665.06
543.81	39669.74
543.98	39875.71
544.15	39665.06
544.32	39995.07
544.48	39852.30
544.65	39428.66
544.82	40048.91
544.99	39697.83
545.16	39697.83
545.32	39917.84
545.49	39966.99
545.66	40196.36
545.83	39875.71
546.00	40002.10
546.16	39959.97
546.33	40222.11
546.50	40285.30
546.67	40308.71
546.83	39711.87
547.00	40060.61
547.17	40179.98
547.34	40648.08
547.50	40535.74
547.67	40435.10
547.84	40617.66
548.00	40673.83
548.17	40980.44
548.34	40505.31
548.51	41041.29
548.67	41006.19
548.84	40730.00
549.01	40484.25
549.18	40964.06
549.34	41053.00
549.51	41036.61
549.68	40938.31
549.84	40914.90
550.01	40704.26
550.18	40800.22
550.34	41212.15
550.51	41537.49
550.68	41670.90
550.84	40865.75
551.01	41558.55
551.18	41319.82
551.34	41074.06
551.51	41551.53
551.68	41483.66
551.84	41708.35
552.01	41413.44
552.18	41736.43
552.34	41062.36
552.51	42096.88
552.68	41280.03
552.84	41577.28
553.01	41661.54
553.18	41450.89
553.34	41771.54
553.51	41614.72
553.67	41921.34
553.84	41663.88
554.01	42005.59
554.17	42052.41
554.34	42239.65
554.51	41963.46
554.67	42007.94
554.84	41783.24
555.00	41860.48
555.17	42426.89
555.33	41991.55
555.50	42314.55
555.67	42525.19
555.83	42412.85
556.00	42033.68
556.16	42700.73
556.33	42520.51
556.50	42335.61
556.66	42302.84
556.83	41956.44
556.99	43070.54
557.16	42452.64
557.32	42349.65
557.49	42878.61
557.65	42684.35
557.82	42356.67
557.98	43178.20
558.15	42438.59
558.32	42511.15
558.48	42443.27
558.65	42527.53
558.81	42855.21
558.98	42684.35
559.14	42838.83
559.31	42859.89
559.47	42539.24
559.64	42838.83
559.80	43021.39
559.97	43199.27
560.13	42895.00
560.30	42518.17
560.46	43203.95
560.63	42939.47
560.79	43222.67
560.96	43349.06
561.12	43210.97
561.29	43817.17
561.45	43012.02
561.61	43320.98
561.78	42902.02
561.94	43241.40
562.11	43166.50
562.27	43370.13
562.44	43316.29
562.60	43438.00
562.77	43576.09
562.93	43276.51
563.10	43871.00
563.26	43269.48
563.42	43711.84
563.59	43524.60
563.75	43253.10
563.92	43386.51
564.08	43210.97
564.24	43075.22
564.41	43576.09
564.57	44074.63
564.74	43763.34
564.90	43276.51
565.07	43683.76
565.23	43278.85
565.39	43878.02
565.56	43831.21
565.72	43753.97
565.88	43262.46
566.05	43449.70
566.21	43634.61
566.38	43377.15
566.54	43714.19
566.70	43620.56
566.87	43697.80
567.03	43955.26
567.19	44116.76
567.36	43658.01
567.52	43594.82
567.68	44119.10
567.85	43892.07
568.01	43707.16
568.17	44023.14
568.34	43859.30
568.50	44308.68
568.66	43866.32
568.83	43988.03
568.99	44030.16
569.15	44194.00
569.32	44154.21
569.48	43737.59
569.64	44318.04
569.81	43793.76
569.97	44020.80
570.13	44296.98
570.30	43768.02
570.46	44116.76
570.62	44168.25
570.78	44069.95
570.95	44123.78
571.11	44495.92
571.27	44009.09
571.43	44210.38
571.60	44346.13
571.76	43887.39
571.92	44133.14
572.09	44257.19
572.25	43746.95
572.41	44170.59
572.57	44320.38
572.74	44509.97
572.90	44406.98
573.06	44545.08
573.22	44486.56
573.38	44741.68
573.55	44449.11
573.71	44825.94
573.87	44404.64
574.03	44353.15
574.20	44353.15
574.36	44423.37
574.52	44973.39
574.68	44629.34
574.84	44760.40
575.01	44638.70
575.17	44884.45
575.33	44114.42
575.49	44126.12
575.65	44669.12
575.82	44612.95
575.98	44306.34
576.14	44870.41
576.30	44591.89
576.46	44357.83
576.62	44444.43
576.79	44767.43
576.95	44385.92
577.11	43997.39
577.27	44538.05
577.43	44570.82
577.59	44238.47
577.75	44467.84
577.92	43929.51
578.08	44252.51
578.24	44634.02
578.40	44404.64
578.56	44493.58
578.72	44601.25
578.88	44940.63
579.04	44683.17
579.21	44266.55
579.37	44479.54
579.53	44837.64
579.69	44437.41
579.85	44573.16
580.01	44732.32
580.17	44268.89
580.33	44652.74
580.49	44584.86
580.65	44444.43
580.82	44619.97
580.98	44758.06
581.14	44304.00
581.30	44570.82
581.46	44706.57
581.62	44650.40
581.78	44392.94
581.94	44793.17
582.10	44954.67
582.26	44524.01
582.42	44676.15
582.58	44982.76
582.74	44577.84
582.90	44186.97
583.06	44879.77
583.22	44509.97
583.38	44416.35
583.54	44732.32
583.70	44978.07
583.86	44985.10
584.02	44591.89
584.18	44605.93
584.34	45015.52
584.50	44992.12
584.66	45237.87
584.82	44779.13
584.98	45104.46
585.14	44556.78
585.30	44704.23
585.46	44641.04
585.62	44828.28
585.78	44650.40
585.94	44257.19
586.10	44650.40
586.26	44350.81
586.42	44374.22
586.58	44804.88
586.74	44928.92
586.90	44556.78
587.06	44683.17
587.22	44732.32
587.38	44481.88
587.54	45291.71
587.70	44971.05
587.86	45375.97
588.02	45200.43
588.18	44727.64
588.34	44816.58
588.49	45134.89
588.65	44800.19
588.81	44868.07
588.97	44678.49
589.13	44748.70
589.29	45130.21
589.45	45244.90
589.61	44818.92
589.77	45312.77
589.93	45256.60
590.08	45045.95
