SpectraSuite Data File
++++++++++++++++++++++++++++++++++++
Date: Fri Oct 25 11:26:15 EDT 2013
User: price-jones
Dark Spectrum Present: No
Reference Spectrum Present: No
Number of Sampled Component Spectra: 1
Spectrometers: USB2+H05261
Integration Time (usec): 100000 (USB2+H05261)
Spectra Averaged: 1 (USB2+H05261)
Boxcar Smoothing: 0 (USB2+H05261)
Correct for Electrical Dark: No (USB2+H05261)
Strobe/Lamp Enabled: No (USB2+H05261)
Correct for Detector Non-linearity: No (USB2+H05261)
Correct for Stray Light: No (USB2+H05261)
Number of Pixels in Processed Spectrum: 2048
>>>>>Begin Processed Spectral Data<<<<<
365.73	287.89
365.92	287.89
366.12	287.89
366.32	156.82
366.52	187.24
366.72	194.26
366.91	91.28
367.11	142.77
367.31	138.09
367.51	194.26
367.70	119.37
367.90	117.03
368.10	175.54
368.30	140.43
368.49	124.05
368.69	180.22
368.89	168.52
369.09	135.75
369.28	133.41
369.48	175.54
369.68	184.90
369.87	168.52
370.07	210.65
370.27	269.16
370.47	308.95
370.66	585.13
370.86	610.88
371.06	699.82
371.25	667.05
371.45	667.05
371.65	793.44
371.84	662.37
372.04	809.83
372.24	763.01
372.44	662.37
372.63	805.14
372.83	730.25
373.03	793.44
373.22	779.40
373.42	779.40
373.62	737.27
373.81	805.14
374.01	842.59
374.21	809.83
374.40	791.10
374.60	835.57
374.79	681.10
374.99	828.55
375.19	851.96
375.38	842.59
375.58	851.96
375.78	924.51
375.97	877.70
376.17	908.13
376.37	905.79
376.56	814.51
376.76	786.42
376.95	875.36
377.15	950.26
377.35	910.47
377.54	924.51
377.74	940.90
377.93	823.87
378.13	800.46
378.33	938.55
378.52	940.90
378.72	1013.45
378.91	959.62
379.11	924.51
379.31	964.30
379.50	887.06
379.70	1013.45
379.89	994.73
380.09	1011.11
380.28	926.85
380.48	959.62
380.68	1015.79
380.87	1006.43
381.07	987.71
381.26	1006.43
381.46	959.62
381.65	1011.11
381.85	1048.56
382.04	1036.86
382.24	1029.84
382.43	990.05
382.63	1093.03
382.83	1116.44
383.02	1196.01
383.22	1142.18
383.41	1086.01
383.61	1093.03
383.80	1095.37
384.00	1146.86
384.19	1090.69
384.39	1146.86
384.58	1256.87
384.78	1146.86
384.97	1144.52
385.17	1116.44
385.36	1156.22
385.56	1210.06
385.75	1151.54
385.95	1130.48
386.14	1277.93
386.34	1263.89
386.53	1207.72
386.72	1235.80
386.92	1188.99
387.11	1259.21
387.31	1294.32
387.50	1284.95
387.70	1245.16
387.89	1177.29
388.09	1366.87
388.28	1308.36
388.48	1289.64
388.67	1327.08
388.86	1263.89
389.06	1324.74
389.25	1329.42
389.45	1390.28
389.64	1437.09
389.84	1357.51
390.03	1315.38
390.22	1334.11
390.42	1352.83
390.61	1383.26
390.81	1469.86
391.00	1561.14
391.19	1423.05
391.39	1387.94
391.58	1500.28
391.78	1549.43
391.97	1495.60
392.16	1544.75
392.36	1593.90
392.55	1493.26
392.75	1561.14
392.94	1549.43
393.13	1474.54
393.33	1514.33
393.52	1591.56
393.71	1621.99
393.91	1610.29
394.10	1666.46
394.29	1600.93
394.49	1629.01
394.68	1689.87
394.88	1575.18
395.07	1659.44
395.26	1701.57
395.46	1661.78
395.65	1755.40
395.84	1743.70
396.04	1797.53
396.23	1743.70
396.42	1689.87
396.62	1778.81
396.81	1722.63
397.00	1790.51
397.19	1799.87
397.39	1799.87
397.58	1863.07
397.77	1839.66
397.97	1870.09
398.16	1914.56
398.35	1970.73
398.55	1858.39
398.74	1980.09
398.93	2050.31
399.12	1926.26
399.32	1844.34
399.51	1863.07
399.70	1952.01
399.90	1919.24
400.09	1970.73
400.28	2104.14
400.47	1968.39
400.67	2040.95
400.86	1968.39
401.05	1994.14
401.24	2092.44
401.44	2104.14
401.63	2125.21
401.82	2136.91
402.01	2146.27
402.21	2190.74
402.40	2115.84
402.59	2193.08
402.78	2085.42
402.97	2223.51
403.17	2324.15
403.36	2338.20
403.55	2228.19
403.74	2258.62
403.93	2450.54
404.13	2328.83
404.32	2333.51
404.51	2242.23
404.70	2366.28
404.89	2459.90
405.09	2499.69
405.28	2441.18
405.47	2429.48
405.66	2492.67
405.85	2717.36
406.05	2499.69
406.24	2546.50
406.43	2511.39
406.62	2633.10
406.81	2619.06
407.00	2499.69
407.20	2574.59
407.39	2551.18
407.58	2691.62
407.77	2679.91
407.96	2722.04
408.15	2738.43
408.34	2700.98
408.54	2810.98
408.73	2792.26
408.92	2759.49
409.11	2803.96
409.30	2888.22
409.49	2871.84
409.68	2789.92
409.87	2937.37
410.07	3007.59
410.26	3087.17
410.45	2911.63
410.64	3103.55
410.83	3112.91
411.02	3056.74
411.21	3199.51
411.40	3215.90
411.59	3166.74
411.78	3171.43
411.98	3073.12
412.17	3222.92
412.36	3295.47
412.55	3279.09
412.74	3459.31
412.93	3431.23
413.12	3421.86
413.31	3609.11
413.50	3438.25
413.69	3461.65
413.88	3653.58
414.07	3620.81
414.26	3545.91
414.45	3676.98
414.64	3609.11
414.83	3709.75
415.02	3730.81
415.22	3887.63
415.41	3990.61
415.60	3850.18
415.79	3915.72
415.98	3822.09
416.17	4060.83
416.36	4056.15
416.55	4011.68
416.74	4100.62
416.93	4039.76
417.12	4189.56
417.31	4091.26
417.50	4187.22
417.69	4252.75
417.88	4196.58
418.07	4287.86
418.26	4229.35
418.45	4379.14
418.64	4528.94
418.83	4542.98
419.02	4400.21
419.21	4442.34
419.39	4535.96
419.58	4519.57
419.77	4521.92
419.96	4603.83
420.15	4430.63
420.34	4484.47
420.53	4461.06
420.72	4699.80
420.91	4697.46
421.10	4798.10
421.29	4849.59
421.48	4615.54
421.67	4711.50
421.86	4971.30
422.05	4610.86
422.24	4851.93
422.43	4800.44
422.61	4919.81
422.80	5018.11
422.99	4833.21
423.18	5036.83
423.37	4936.19
423.56	4968.96
423.75	4910.44
423.94	4786.40
424.13	4718.52
424.32	4802.78
424.50	5114.07
424.69	5261.52
424.88	5048.54
425.07	5034.49
425.26	4990.02
425.45	4919.81
425.64	4905.76
425.83	5013.43
426.01	5013.43
426.20	5022.79
426.39	5041.51
426.58	5036.83
426.77	4875.34
426.96	5263.86
427.15	5221.74
427.33	5149.18
427.52	5165.56
427.71	5160.88
427.90	5107.05
428.09	5263.86
428.28	5256.84
428.46	5394.93
428.65	5315.36
428.84	5439.40
429.03	5589.20
429.22	5465.15
429.40	5348.12
429.59	5448.77
429.78	5263.86
429.97	5352.81
430.16	5551.75
430.34	5591.54
430.53	5624.31
430.72	5675.80
430.91	5603.24
431.10	5610.26
431.28	5682.82
431.47	5853.68
431.66	5774.10
431.85	5717.93
432.03	5867.72
432.22	5816.23
432.41	5949.64
432.60	5823.25
432.79	5870.06
432.97	5963.68
433.16	5944.96
433.35	6073.69
433.54	6085.39
433.72	6099.44
433.91	5919.21
434.10	6258.59
434.28	6141.57
434.47	6129.86
434.66	6291.36
434.85	6279.66
435.03	6274.98
435.22	6122.84
435.41	6494.99
435.59	6352.21
435.78	6485.62
435.97	6572.22
436.16	6284.34
436.34	6429.45
436.53	6588.61
436.72	6717.34
436.90	6389.66
437.09	6595.63
437.28	6553.50
437.46	6523.07
437.65	6551.16
437.84	6731.38
438.02	6686.91
438.21	6731.38
438.40	6789.89
438.58	6888.20
438.77	7026.29
438.96	7028.63
439.14	7162.04
439.33	7218.21
439.52	7169.06
439.70	7140.97
439.89	7360.98
440.08	7166.72
440.26	7386.73
440.45	7229.91
440.63	7679.30
440.82	7431.20
441.01	7428.86
441.19	7375.03
441.38	7550.57
441.57	7616.10
441.75	7875.90
441.94	7957.82
442.12	8004.63
442.31	7920.37
442.50	7859.52
442.68	7950.80
442.87	8060.80
443.05	8182.51
443.24	8238.69
443.43	8065.49
443.61	8004.63
443.80	8451.67
443.98	8018.68
444.17	7950.80
444.35	8067.83
444.54	8196.56
444.73	8407.20
444.91	8128.68
445.10	8411.89
445.28	8339.33
445.47	8278.47
445.65	8205.92
445.84	8463.38
446.02	8402.52
446.21	8454.02
446.39	8383.80
446.58	8322.94
446.77	8458.70
446.95	8292.52
447.14	8496.14
447.32	8524.23
447.51	8507.85
447.69	8430.61
447.88	8407.20
448.06	8578.06
448.25	8589.77
448.43	8580.40
448.62	8566.36
448.80	8470.40
448.99	8425.93
449.17	8592.11
449.36	8777.01
449.54	8894.04
449.73	9020.42
449.91	8966.59
450.10	8982.98
450.28	9048.51
450.46	9128.09
450.65	9193.62
450.83	9034.47
451.02	8872.97
451.20	9128.09
451.39	9254.48
451.57	9123.41
451.76	8997.02
451.94	9088.30
452.13	9163.20
452.31	9345.76
452.49	9095.32
452.68	9256.82
452.86	9188.94
453.05	9451.08
453.23	9423.00
453.42	9322.35
453.60	9437.04
453.78	9476.83
453.97	9408.95
454.15	9390.23
454.34	9607.90
454.52	9689.82
454.70	9722.59
454.89	9720.24
455.07	9661.73
455.26	9966.00
455.44	10157.92
455.62	9961.32
455.81	9813.87
455.99	9991.75
456.17	9832.59
456.36	10052.60
456.54	9872.38
456.73	10211.76
456.91	10373.25
457.09	10565.18
457.28	10424.75
457.46	10345.17
457.64	10497.30
457.83	10410.70
458.01	10340.49
458.19	10696.25
458.38	10509.01
458.56	10602.63
458.74	10696.25
458.93	10855.40
459.11	10682.20
459.29	10544.11
459.48	10658.80
459.66	10705.61
459.84	10902.22
460.03	10944.34
460.21	10808.59
460.39	10920.94
460.57	10998.18
460.76	11138.61
460.94	11143.29
461.12	11480.33
461.31	11262.66
461.49	11070.73
461.67	11314.15
461.85	11089.46
462.04	11367.98
462.22	11847.79
462.40	11681.61
462.59	11452.24
462.77	11344.58
462.95	11548.20
463.13	11419.47
463.32	11510.75
463.50	11758.85
463.68	11873.54
463.86	11733.11
464.05	11702.68
464.23	11606.72
464.41	11871.20
464.59	11541.18
464.78	12145.04
464.96	12077.16
465.14	11875.88
465.32	12070.14
465.50	12168.45
465.69	12147.38
465.87	12119.29
466.05	12060.78
466.23	12004.61
466.41	12203.55
466.60	12517.18
466.78	11840.77
466.96	12229.30
467.14	12255.04
467.32	12161.42
467.51	12468.03
467.69	12060.78
467.87	12369.73
468.05	12692.73
468.23	12353.35
468.41	12456.33
468.60	12327.60
468.78	12915.08
468.96	12514.84
469.14	12821.45
469.32	13041.46
469.50	12592.08
469.69	12720.81
469.87	13214.66
470.05	12877.63
470.23	12940.82
470.41	13135.09
470.59	13280.20
470.77	13291.90
470.95	13116.36
471.14	13406.59
471.32	13207.64
471.50	13652.34
471.68	13610.22
471.86	13755.33
472.04	13659.37
472.22	14115.77
472.40	13579.79
472.58	13968.32
472.77	13802.14
472.95	13970.66
473.13	14504.30
473.31	13994.06
473.49	13830.23
473.67	13729.58
473.85	14249.18
474.03	14644.73
474.21	14698.56
474.39	14731.33
474.57	14677.50
474.75	14640.05
474.93	14764.10
475.12	14775.80
475.30	15021.56
475.48	15061.35
475.66	15360.94
475.84	15126.88
476.02	15419.45
476.20	15358.60
476.38	15747.12
476.56	15765.85
476.74	15934.37
476.92	15545.84
477.10	15777.55
477.28	16252.68
477.46	16255.02
477.64	16058.42
477.82	16489.07
478.00	16755.90
478.18	16795.68
478.36	16695.04
478.54	17109.32
478.72	17296.56
478.90	17247.41
479.08	17399.54
479.26	17860.63
479.44	17509.55
479.62	17928.50
479.80	18080.64
479.98	18326.39
480.16	18607.26
480.34	17891.06
480.52	18651.73
480.70	18658.75
480.88	18251.50
481.06	18539.38
481.24	18621.30
481.41	18960.68
481.59	19349.21
481.77	19557.52
481.95	19286.01
482.13	20049.03
482.31	19707.31
482.49	20343.94
482.67	20006.90
482.85	20521.82
483.03	20507.77
483.21	20692.68
483.39	21099.93
483.57	20915.03
483.74	20868.22
483.92	21280.15
484.10	21142.06
484.28	21514.20
484.46	21816.13
484.64	22317.01
484.82	21977.63
485.00	22352.12
485.18	22632.98
485.35	23190.03
485.53	22857.67
485.71	22965.34
485.89	23393.65
486.07	23021.51
486.25	22775.75
486.43	23400.68
486.61	24051.34
486.78	24006.87
486.96	24297.10
487.14	24510.09
487.32	24718.40
487.50	24816.70
487.68	24912.66
487.85	25256.72
488.03	24936.07
488.21	25942.50
488.39	25605.46
488.57	25977.61
488.75	26029.10
488.92	26256.13
489.10	26307.62
489.28	26639.98
489.46	26927.86
489.64	26679.77
489.81	27393.63
489.99	27871.10
490.17	27468.53
490.35	27548.11
490.53	28158.99
490.70	28301.76
490.88	28112.17
491.06	28863.49
491.24	28512.41
491.41	28903.28
491.59	29298.83
491.77	29174.78
491.95	29666.29
492.13	29743.53
492.30	29680.33
492.48	29968.22
492.66	30232.70
492.84	30260.79
493.01	30904.43
493.19	30424.62
493.37	30672.72
493.54	30820.17
493.72	31871.07
493.90	31175.94
494.08	31850.01
494.25	31620.64
494.43	31707.24
494.61	31882.78
494.79	32032.57
494.96	32491.32
495.14	32697.28
495.32	33287.10
495.49	32840.06
495.67	32985.17
495.85	33188.80
496.02	33844.15
496.20	33731.80
496.38	33715.42
496.55	34132.03
496.73	34665.67
496.91	34377.79
497.09	34717.17
497.26	35012.07
497.44	34583.76
497.62	35379.54
497.79	35594.87
497.97	35438.05
498.14	35718.92
498.32	36023.19
498.50	35896.80
498.67	36376.61
498.85	36400.01
499.03	36545.12
499.20	36287.67
499.38	36776.84
499.56	37385.38
499.73	37326.86
499.91	37125.58
500.08	37123.24
500.26	37104.51
500.44	37619.43
500.61	37528.15
500.79	37830.08
500.97	37940.08
501.14	38405.85
501.32	38457.34
501.49	38394.15
501.67	38433.94
501.84	38930.13
502.02	38768.63
502.20	39098.65
502.37	39086.95
502.55	39131.42
502.72	39175.89
502.90	39615.91
503.07	39372.49
503.25	39746.98
503.43	39915.50
503.60	39838.26
503.78	40179.98
503.95	40329.77
504.13	40598.93
504.30	40601.27
504.48	40493.61
504.65	40472.54
504.83	40938.31
505.01	41139.60
505.18	41027.25
505.36	41273.01
505.53	41167.68
505.71	41460.25
505.88	41305.77
506.06	41088.10
506.23	41724.73
506.41	41769.20
506.58	42017.30
506.76	41675.58
506.93	42347.31
507.11	42473.70
507.28	42539.24
507.46	42506.47
507.63	42740.52
507.81	42590.73
507.98	42754.57
508.16	42356.67
508.33	42925.42
508.50	43173.52
508.68	43669.72
508.85	43566.73
509.03	43442.68
509.20	43718.87
509.38	44402.30
509.55	44011.43
509.73	44067.61
509.90	44676.15
510.08	44025.48
510.25	44832.96
510.42	44854.03
510.60	45057.65
510.77	45158.30
510.95	44748.70
511.12	45092.76
511.30	45008.50
511.47	45422.78
511.64	45371.28
511.82	46073.45
511.99	44996.80
512.17	45720.02
512.34	45745.77
512.51	46094.51
512.69	46188.13
512.86	46258.35
513.04	46508.79
513.21	46476.02
513.38	46504.10
513.56	46960.51
513.73	46501.76
513.90	46780.29
514.08	46808.37
514.25	47318.61
514.43	47213.29
514.60	47131.37
514.77	47447.34
514.95	47667.35
515.12	47524.58
515.29	47189.88
515.47	47814.80
515.64	47882.68
515.81	47423.93
515.99	47571.39
516.16	48306.32
516.33	48303.98
516.51	48458.45
516.68	48718.25
516.85	48662.08
517.03	48980.39
517.20	48643.35
517.37	48458.45
517.54	48687.82
517.72	48645.69
517.89	48559.09
518.06	49174.66
518.24	48556.75
518.41	49132.53
518.58	48947.62
518.75	49303.38
518.93	49162.95
519.10	49125.50
519.27	49413.39
519.45	49701.28
519.62	49605.31
519.79	49687.23
519.96	49851.07
520.14	49991.50
520.31	50038.31
520.48	50312.16
520.65	50183.43
520.83	50384.71
521.00	50857.50
521.17	50564.93
521.34	50703.03
521.52	50740.47
521.69	50604.72
521.86	50822.39
522.03	51035.38
522.20	51126.66
522.38	51143.05
522.55	51360.72
522.72	51077.51
522.89	51185.18
523.07	51274.12
523.24	51337.31
523.41	51405.19
523.58	51339.65
523.75	51679.03
523.92	51414.55
524.10	51150.07
524.27	51987.98
524.44	52126.07
524.61	51999.68
524.78	52168.20
524.96	52065.22
525.13	51803.08
525.30	52357.78
525.47	52514.60
525.64	52161.18
525.81	52292.25
525.98	52292.25
526.16	52601.20
526.33	52535.66
526.50	52863.34
526.67	52753.33
526.84	52945.26
527.01	52877.38
527.18	52753.33
527.36	52570.77
527.53	53139.52
527.70	53137.18
527.87	53427.41
528.04	53279.96
528.21	53006.11
528.38	53165.27
528.55	53411.02
528.72	53315.06
528.89	53282.30
529.07	53542.10
529.24	53286.98
529.41	53712.95
529.58	53462.52
529.75	53464.86
529.92	53750.40
530.09	53942.33
530.26	53862.75
530.43	53654.44
530.60	53614.65
530.77	53506.99
530.94	53989.14
531.11	53911.90
531.28	54045.31
531.46	53956.37
531.63	54115.53
531.80	54117.87
531.97	54255.96
532.14	54363.62
532.31	54312.13
532.48	54454.90
532.65	54426.82
532.82	54213.83
532.99	54658.53
533.16	54391.71
533.33	54616.40
533.50	54864.50
533.67	54749.81
533.84	54485.33
534.01	54911.31
534.18	54845.77
534.35	55302.18
534.52	54920.67
534.69	54995.57
534.86	55084.51
535.03	54827.05
535.20	55353.67
535.37	55363.03
535.54	55217.92
535.71	54983.86
535.88	55133.66
536.05	55409.84
536.22	55559.64
536.38	55435.59
536.55	55442.61
536.72	55669.64
536.89	55458.99
537.06	55419.20
537.23	55571.34
537.40	55484.74
537.57	55533.89
537.74	55620.49
537.91	56002.00
538.08	55849.86
538.25	55416.86
538.42	55779.65
538.59	55884.97
538.75	55824.12
538.92	55870.93
539.09	55922.42
539.26	56079.24
539.43	56144.77
539.60	56027.74
539.77	56303.93
539.94	56484.15
540.11	56100.30
540.28	56329.67
540.44	56198.60
540.61	56399.89
540.78	56250.09
540.95	56236.05
541.12	56420.95
541.29	56065.19
541.46	56402.23
541.62	56495.85
541.79	56596.49
541.96	56107.32
542.13	56451.38
542.30	56748.63
542.47	56708.84
542.63	56863.32
542.80	56835.23
542.97	56963.96
543.14	57064.60
543.31	57055.24
543.48	56961.62
543.64	57448.45
543.81	57162.90
543.98	57078.64
544.15	57055.24
544.32	57396.96
544.48	57516.32
544.65	57167.58
544.82	57382.91
544.99	57200.35
545.16	57296.31
545.32	57167.58
545.49	57701.23
545.66	57593.56
545.83	57511.64
546.00	57790.17
546.16	57635.69
546.33	57403.98
546.50	57439.09
546.67	57677.82
546.83	57303.34
547.00	57551.43
547.17	57609.95
547.34	57469.51
547.50	57764.42
547.67	57961.03
547.84	57998.48
548.00	57991.45
548.17	58075.71
548.34	58080.39
548.51	58120.18
548.67	58152.95
548.84	57858.04
549.01	57942.30
549.18	58113.16
549.34	58031.24
549.51	58223.17
549.68	58171.67
549.84	58335.51
550.01	58246.57
550.18	58211.46
550.34	58438.50
550.51	58230.19
550.68	58277.00
550.84	58113.16
551.01	58471.26
551.18	58403.39
551.34	58504.03
551.51	58328.49
551.68	58344.87
551.84	58485.31
552.01	58347.21
552.18	58431.47
552.34	58295.72
552.51	58721.70
552.68	58604.67
552.84	58515.73
553.01	58714.68
553.18	58674.89
553.34	58604.67
553.51	58688.93
553.67	58649.14
553.84	58885.54
554.01	58845.75
554.17	58782.55
554.34	58873.84
554.51	59030.65
554.67	58911.28
554.84	58897.24
555.00	58955.75
555.17	58922.99
555.33	58908.94
555.50	58925.33
555.67	58939.37
555.83	59002.56
556.00	58906.60
556.16	59257.68
556.33	59227.26
556.50	58866.81
556.66	59339.60
556.83	58967.46
556.99	59302.15
557.16	59241.30
557.32	59365.35
557.49	59433.22
557.65	59285.77
557.82	59409.82
557.98	59360.67
558.15	59377.05
558.32	59398.12
558.48	59208.53
558.65	59501.10
558.81	59442.59
558.98	59494.08
559.14	59313.86
559.31	59606.42
559.47	59653.23
559.64	59510.46
559.80	59728.13
559.97	59508.12
560.13	59475.35
560.30	59650.89
560.46	59707.07
560.63	59676.64
560.79	59618.13
560.96	59807.71
561.12	59796.01
561.29	59835.80
561.45	59678.98
561.61	59784.30
561.78	59634.51
561.94	59552.59
562.11	59742.17
562.27	59910.69
562.44	59833.46
562.60	59999.63
562.77	59882.61
562.93	59746.86
563.10	60100.28
563.26	59927.08
563.42	60095.60
563.59	60013.68
563.75	59798.35
563.92	59838.14
564.08	59863.88
564.24	60175.17
564.41	60048.78
564.57	59814.73
564.74	59868.56
564.90	59915.37
565.07	60055.81
565.23	60243.05
565.39	60018.36
565.56	60334.33
565.72	59952.82
565.88	59999.63
566.05	59903.67
566.21	59941.12
566.38	60149.43
566.54	60233.69
566.70	60343.69
566.87	60151.77
567.03	59959.84
567.19	60388.16
567.36	60137.72
567.52	60158.79
567.68	60413.91
567.85	60243.05
568.01	60479.44
568.17	60109.64
568.34	60355.39
568.50	60275.82
568.66	60221.98
568.83	60388.16
568.99	60374.12
569.15	60348.37
569.32	60282.84
569.48	59971.55
569.64	60273.48
569.81	60411.57
569.97	60175.17
570.13	60257.09
570.30	60320.29
570.46	60320.29
570.62	60186.88
570.78	60294.54
570.95	60509.87
571.11	60561.36
571.27	60404.55
571.43	60509.87
571.60	60416.25
571.76	60301.56
571.92	60399.86
572.09	60374.12
572.25	60561.36
572.41	60289.86
572.57	60388.16
572.74	60662.00
572.90	60364.76
573.06	60493.49
573.22	60505.19
573.38	60271.14
573.55	60645.62
573.71	60874.99
573.87	60622.22
574.03	60273.48
574.20	60669.03
574.36	60739.24
574.52	60594.13
574.68	60612.85
574.84	60631.58
575.01	60664.35
575.17	60673.71
575.33	60530.93
575.49	60395.18
575.65	60622.22
575.82	60692.43
575.98	60601.15
576.14	60807.12
576.30	60793.07
576.46	60566.04
576.62	60706.47
576.79	60636.26
576.95	60598.81
577.11	60807.12
577.27	60755.63
577.43	60704.13
577.59	60535.62
577.75	60657.32
577.92	60605.83
578.08	60734.56
578.24	60575.40
578.40	60760.31
578.56	60767.33
578.72	60608.17
578.88	60867.97
579.04	61034.15
579.21	60690.09
579.37	60755.63
579.53	60874.99
579.69	60657.32
579.85	60498.17
580.01	60652.64
580.17	60701.79
580.33	60706.47
580.49	60835.20
580.65	61064.58
580.82	60673.71
580.98	60804.78
581.14	60825.84
581.30	60882.02
581.46	60860.95
581.62	60631.58
581.78	60736.90
581.94	60720.52
582.10	60622.22
582.26	60683.07
582.42	60697.11
582.58	60776.69
582.74	60645.62
582.90	60900.74
583.06	60954.57
583.22	60851.59
583.38	60910.10
583.54	61006.06
583.70	60926.49
583.86	60935.85
584.02	60802.44
584.18	61020.11
584.34	60921.80
584.50	60837.54
584.66	60825.84
584.82	60860.95
584.98	61052.87
585.14	61071.60
585.30	60697.11
585.46	60926.49
585.62	60921.80
585.78	60928.83
585.94	60851.59
586.10	60900.74
586.26	60896.06
586.42	60905.42
586.58	60987.34
586.74	60851.59
586.90	60985.00
587.06	61034.15
587.22	61240.12
587.38	61087.98
587.54	61029.47
587.70	60910.10
587.86	60896.06
588.02	60996.70
588.18	60921.80
588.34	61008.40
588.49	60992.02
