SpectraSuite Data File
++++++++++++++++++++++++++++++++++++
Date: Fri Oct 25 11:23:25 EDT 2013
User: price-jones
Dark Spectrum Present: No
Reference Spectrum Present: No
Number of Sampled Component Spectra: 1
Spectrometers: USB2+H05261
Integration Time (usec): 100000 (USB2+H05261)
Spectra Averaged: 1 (USB2+H05261)
Boxcar Smoothing: 0 (USB2+H05261)
Correct for Electrical Dark: No (USB2+H05261)
Strobe/Lamp Enabled: No (USB2+H05261)
Correct for Detector Non-linearity: No (USB2+H05261)
Correct for Stray Light: No (USB2+H05261)
Number of Pixels in Processed Spectrum: 2048
>>>>>Begin Processed Spectral Data<<<<<
365.73	182.56
365.92	182.56
366.12	182.56
366.32	227.03
366.52	133.41
366.72	124.05
366.91	138.09
367.11	138.09
367.31	154.48
367.51	60.85
367.70	93.62
367.90	168.52
368.10	170.86
368.30	135.75
368.49	121.71
368.69	182.56
368.89	124.05
369.09	110.01
369.28	112.35
369.48	163.84
369.68	217.67
369.87	229.37
370.07	159.16
370.27	243.42
370.47	285.55
370.66	575.77
370.86	589.82
371.06	704.50
371.25	741.95
371.45	650.67
371.65	669.39
371.84	669.39
372.04	716.20
372.24	730.25
372.44	683.44
372.63	753.65
372.83	751.31
373.03	734.93
373.22	664.71
373.42	751.31
373.62	767.70
373.81	791.10
374.01	767.70
374.21	784.08
374.40	793.44
374.60	919.83
374.79	833.23
374.99	784.08
375.19	833.23
375.38	896.43
375.58	861.32
375.78	924.51
375.97	823.87
376.17	926.85
376.37	835.57
376.56	889.40
376.76	835.57
376.95	849.61
377.15	882.38
377.35	800.46
377.54	910.47
377.74	833.23
377.93	898.77
378.13	943.24
378.33	877.70
378.52	978.34
378.72	931.53
378.91	917.49
379.11	994.73
379.31	994.73
379.50	950.26
379.70	938.55
379.89	1015.79
380.09	973.66
380.28	919.83
380.48	978.34
380.68	964.30
380.87	1029.84
381.07	971.32
381.26	1027.50
381.46	1086.01
381.65	985.37
381.85	1088.35
382.04	1057.92
382.24	1048.56
382.43	1149.20
382.63	1076.65
382.83	1102.39
383.02	1130.48
383.22	1083.67
383.41	1055.58
383.61	1076.65
383.80	1179.63
384.00	1130.48
384.19	1135.16
384.39	1064.94
384.58	1102.39
384.78	1165.59
384.97	1165.59
385.17	1144.52
385.36	1053.24
385.56	1217.08
385.75	1273.25
385.95	1172.61
386.14	1240.48
386.34	1130.48
386.53	1125.80
386.72	1146.86
386.92	1249.85
387.11	1256.87
387.31	1291.98
387.50	1254.53
387.70	1179.63
387.89	1196.01
388.09	1275.59
388.28	1242.82
388.48	1263.89
388.67	1303.68
388.86	1355.17
389.06	1350.49
389.25	1329.42
389.45	1313.04
389.64	1345.81
389.84	1378.58
390.03	1355.17
390.22	1434.75
390.42	1425.39
390.61	1310.70
390.81	1341.13
391.00	1476.88
391.19	1465.18
391.39	1397.30
391.58	1472.20
391.78	1490.92
391.97	1486.24
392.16	1558.80
392.36	1537.73
392.55	1500.28
392.75	1472.20
392.94	1507.30
393.13	1453.47
393.33	1558.80
393.52	1600.93
393.71	1507.30
393.91	1612.63
394.10	1514.33
394.29	1523.69
394.49	1540.07
394.68	1631.35
394.88	1593.90
395.07	1673.48
395.26	1640.72
395.46	1593.90
395.65	1675.82
395.84	1722.63
396.04	1746.04
396.23	1743.70
396.42	1687.53
396.62	1661.78
396.81	1874.77
397.00	1788.17
397.19	1746.04
397.39	1809.23
397.58	1956.69
397.77	1795.19
397.97	1937.96
398.16	1909.88
398.35	1944.99
398.55	1902.86
398.74	1863.07
398.93	1966.05
399.12	1977.75
399.32	1827.96
399.51	1963.71
399.70	1944.99
399.90	1966.05
400.09	2019.88
400.28	2099.46
400.47	1987.11
400.67	2202.44
400.86	2127.55
401.05	2106.48
401.24	2106.48
401.44	2064.35
401.63	2204.78
401.82	2038.61
402.01	2157.97
402.21	2179.04
402.40	2101.80
402.59	2183.72
402.78	2305.43
402.97	2242.23
403.17	2249.25
403.36	2225.85
403.55	2321.81
403.74	2368.62
403.93	2401.39
404.13	2298.41
404.32	2441.18
404.51	2356.92
404.70	2431.82
404.89	2347.56
405.09	2445.86
405.28	2502.03
405.47	2368.62
405.66	2504.37
405.85	2572.25
406.05	2476.29
406.24	2530.12
406.43	2670.55
406.62	2663.53
406.81	2546.50
407.00	2621.40
407.20	2551.18
407.39	2698.64
407.58	2792.26
407.77	2747.79
407.96	2715.02
408.15	2761.83
408.34	2724.38
408.54	2773.53
408.73	2733.75
408.92	2827.37
409.11	2801.62
409.30	2881.20
409.49	2878.86
409.68	2876.52
409.87	2937.37
410.07	2974.82
410.26	3049.72
410.45	2883.54
410.64	3089.51
410.83	3028.65
411.02	3080.14
411.21	3194.83
411.40	2977.16
411.59	3211.22
411.78	3185.47
411.98	3286.11
412.17	3138.66
412.36	3372.71
412.55	3311.86
412.74	3475.70
412.93	3485.06
413.12	3482.72
413.31	3517.83
413.50	3559.95
413.69	3447.61
413.88	3599.74
414.07	3630.17
414.26	3578.68
414.45	3801.03
414.64	3616.13
414.83	3761.24
415.02	3843.16
415.22	3925.08
415.41	3861.88
415.60	3819.75
415.79	3908.69
415.98	3981.25
416.17	4107.64
416.36	3901.67
416.55	3934.44
416.74	4180.20
416.93	4042.11
417.12	4241.05
417.31	4320.63
417.50	4077.21
417.69	4231.69
417.88	4166.15
418.07	4435.32
418.26	4273.82
418.45	4304.25
418.64	4545.32
418.83	4449.36
419.02	4423.61
419.21	4425.95
419.39	4320.63
419.58	4383.82
419.77	4503.19
419.96	4526.60
420.15	4447.02
420.34	4535.96
420.53	4521.92
420.72	4795.76
420.91	4690.43
421.10	4746.61
421.29	4709.16
421.48	4720.86
421.67	4685.75
421.86	4833.21
422.05	4840.23
422.24	4716.18
422.43	4887.04
422.61	5093.01
422.80	4950.23
422.99	4938.53
423.18	5001.72
423.37	4858.95
423.56	4968.96
423.75	4938.53
423.94	4931.51
424.13	4545.32
424.32	4617.88
424.50	4905.76
424.69	5181.95
424.88	5048.54
425.07	4973.64
425.26	4901.08
425.45	4980.66
425.64	4994.70
425.83	4985.34
426.01	5069.60
426.20	5008.75
426.39	5067.26
426.58	5062.58
426.77	4985.34
426.96	5142.16
427.15	5167.90
427.33	5338.76
427.52	5078.96
427.71	5359.83
427.90	5111.73
428.09	5291.95
428.28	5369.19
428.46	5317.70
428.65	5282.59
428.84	5481.53
429.03	5565.79
429.22	5420.68
429.40	5432.38
429.59	5495.58
429.78	5191.31
429.97	5308.34
430.16	5434.72
430.34	5444.09
430.53	5551.75
430.72	5804.53
430.91	5547.07
431.10	5687.50
431.28	5797.51
431.47	5830.27
431.66	5820.91
431.85	5795.17
432.03	5888.79
432.22	6101.78
432.41	5909.85
432.60	5951.98
432.79	5877.09
432.97	6073.69
433.16	5891.13
433.35	5884.11
433.54	6139.23
433.72	6246.89
433.91	6017.52
434.10	6031.56
434.28	6092.41
434.47	6066.67
434.66	6134.54
434.85	6387.32
435.03	6384.98
435.22	6228.17
435.41	6684.57
435.59	6401.37
435.78	6553.50
435.97	6525.41
436.16	6494.99
436.34	6483.28
436.53	6595.63
436.72	6724.36
436.90	6464.56
437.09	6710.32
437.28	6377.96
437.46	6616.69
437.65	6635.42
437.84	6822.66
438.02	6862.45
438.21	6722.02
438.40	6766.49
438.58	6967.77
438.77	6916.28
438.96	6958.41
439.14	7115.23
439.33	7047.35
439.52	7169.06
439.70	7110.55
439.89	7286.09
440.08	7363.33
440.26	7297.79
440.45	7337.58
440.63	7363.33
440.82	7515.46
441.01	7513.12
441.19	7688.66
441.38	7595.04
441.57	7688.66
441.75	7779.94
441.94	7894.63
442.12	7892.29
442.31	7997.61
442.50	8060.80
442.68	7927.39
442.87	8063.15
443.05	8315.92
443.24	8348.69
443.43	8074.85
443.61	8266.77
443.80	8404.86
443.98	8145.06
444.17	8025.70
444.35	8362.73
444.54	8346.35
444.73	8402.52
444.91	8201.24
445.10	8304.22
445.28	8503.17
445.47	8285.50
445.65	8449.33
445.84	8416.57
446.02	8503.17
446.21	8514.87
446.39	8390.82
446.58	8685.73
446.77	8393.16
446.95	8414.23
447.14	8325.29
447.32	8437.63
447.51	8381.46
447.69	8475.08
447.88	8648.28
448.06	8610.83
448.25	8601.47
448.43	8601.47
448.62	8582.74
448.80	8615.51
448.99	8535.93
449.17	8655.30
449.36	8580.40
449.54	8704.45
449.73	8896.38
449.91	8931.48
450.10	8809.78
450.28	9071.92
450.46	8947.87
450.65	8961.91
450.83	9233.41
451.02	9020.42
451.20	9397.25
451.39	9179.58
451.57	9235.75
451.76	9097.66
451.94	9139.79
452.13	9469.81
452.31	9572.79
452.49	9174.90
452.68	9432.36
452.86	9373.85
453.05	9364.48
453.23	9462.79
453.42	9205.33
453.60	9270.86
453.78	9528.32
453.97	9458.10
454.15	9287.25
454.34	9490.87
454.52	9785.78
454.70	9738.97
454.89	9811.53
455.07	9673.43
455.26	9738.97
455.44	10059.62
455.62	9870.04
455.81	9745.99
455.99	9905.15
456.17	10171.97
456.36	10026.86
456.54	9954.30
456.73	10399.00
456.91	10555.82
457.09	10506.66
457.28	10445.81
457.46	10256.23
457.64	10478.58
457.83	10281.97
458.01	10335.81
458.19	10658.80
458.38	10721.99
458.56	10909.24
458.74	10640.08
458.93	10754.76
459.11	10768.80
459.29	10752.42
459.48	10579.22
459.66	10731.36
459.84	10817.96
460.03	11208.83
460.21	11136.27
460.39	11103.50
460.57	11033.29
460.76	10993.50
460.94	11290.74
461.12	11351.60
461.31	11300.11
461.49	11211.17
461.67	11187.76
461.85	11417.13
462.04	11351.60
462.22	11489.69
462.40	11543.52
462.59	11447.56
462.77	11405.43
462.95	11707.36
463.13	11644.17
463.32	11482.67
463.50	11836.09
463.68	11768.21
463.86	11880.56
464.05	11660.55
464.23	11674.59
464.41	12145.04
464.59	11812.68
464.78	12280.79
464.96	11922.69
465.14	11939.07
465.32	12152.06
465.50	11974.18
465.69	12278.45
465.87	12049.08
466.05	12437.61
466.23	11864.18
466.41	12442.29
466.60	12718.47
466.78	12219.94
466.96	12365.05
467.14	12020.99
467.32	12531.23
467.51	12659.96
467.69	12100.57
467.87	12432.93
468.05	12451.65
468.23	12381.43
468.41	12538.25
468.60	12627.19
468.78	12734.85
468.96	12674.00
469.14	12882.31
469.32	13177.22
469.50	12503.14
469.69	13231.05
469.87	13074.23
470.05	13053.17
470.23	13004.02
470.41	13025.08
470.59	13540.00
470.77	13224.03
470.95	13308.29
471.14	13523.62
471.32	12872.95
471.50	13525.96
471.68	13544.68
471.86	13692.13
472.04	13837.25
472.22	13895.76
472.40	13521.27
472.58	13666.39
472.77	14019.81
472.95	14132.15
473.13	14436.42
473.31	14010.45
473.49	14111.09
473.67	14085.34
473.85	14307.69
474.03	14724.31
474.21	14558.13
474.39	14780.48
474.57	14724.31
474.75	14710.27
474.93	15180.71
475.12	14883.47
475.30	14986.45
475.48	15267.31
475.66	15410.09
475.84	15222.84
476.02	15424.13
476.20	15583.29
476.38	15721.38
476.56	16102.89
476.74	16086.50
476.92	16074.80
477.10	16088.84
477.28	16107.57
477.46	16290.13
477.64	16479.71
477.82	17025.06
478.00	16959.52
478.18	16961.86
478.36	16971.22
478.54	17179.53
478.72	17097.61
478.90	17350.39
479.08	17717.86
479.26	17584.44
479.44	17713.17
479.62	17987.02
479.80	18253.84
479.98	18061.91
480.16	18520.66
480.34	18232.77
480.52	18799.18
480.70	18752.37
480.88	18396.61
481.06	18712.58
481.24	18871.74
481.41	18993.45
481.59	19365.59
481.77	19501.34
481.95	19428.79
482.13	19852.42
482.31	19379.64
482.49	20372.02
482.67	20229.25
482.85	20549.90
483.03	20498.41
483.21	20856.51
483.39	21289.51
483.57	20875.24
483.74	21179.51
483.92	21523.57
484.10	21177.17
484.28	21649.96
484.46	22136.79
484.64	22391.91
484.82	22141.47
485.00	22466.80
485.18	22600.21
485.35	22960.66
485.53	22766.39
485.71	22918.53
485.89	23356.21
486.07	23353.87
486.25	23590.26
486.43	23777.50
486.61	23639.41
486.78	23974.11
486.96	24308.80
487.14	24418.81
487.32	25069.48
487.50	24940.75
487.68	25235.66
487.85	25230.98
488.03	25951.86
488.21	26143.78
488.39	25975.27
488.57	26333.37
488.75	26382.52
488.92	26405.92
489.10	26829.56
489.28	26967.65
489.46	27288.31
489.64	26960.63
489.81	27955.36
489.99	27470.87
490.17	27908.55
490.35	28446.87
490.53	28374.31
490.70	28470.28
490.88	28662.20
491.06	29207.55
491.24	28797.95
491.41	29057.75
491.59	29546.92
491.77	29687.36
491.95	30094.61
492.13	29823.11
492.30	30249.08
492.48	30361.43
492.66	30389.52
492.84	30586.12
493.01	30953.58
493.19	30609.53
493.37	31126.78
493.54	31578.51
493.72	31264.88
493.90	31552.76
494.08	31814.90
494.25	32217.47
494.43	32467.91
494.61	32442.17
494.79	32659.84
494.96	32781.54
495.14	33134.96
495.32	33244.97
495.49	33181.77
495.67	33565.62
495.85	33661.58
496.02	33862.87
496.20	33954.15
496.38	33663.93
496.55	33989.26
496.73	35058.88
496.91	34492.47
497.09	34909.09
497.26	35173.57
497.44	34766.32
497.62	35878.07
497.79	35590.19
497.97	35154.85
498.14	35934.24
498.32	36168.30
498.50	36062.97
498.67	36542.78
498.85	36264.26
499.03	36755.77
499.20	36748.75
499.38	37048.34
499.56	37085.79
499.73	37312.82
499.91	37359.63
500.08	37827.74
500.26	37383.04
500.44	37926.04
500.61	38153.07
500.79	37640.50
500.97	38024.34
501.14	38426.92
501.32	38869.28
501.49	38480.75
501.67	39014.39
501.84	39208.65
502.02	38967.58
502.20	39185.25
502.37	39159.50
502.55	38998.01
502.72	39475.48
502.90	39735.27
503.07	39730.59
503.25	39906.13
503.43	39835.92
503.60	40259.55
503.78	40542.76
503.95	40573.19
504.13	40470.20
504.30	40865.75
504.48	40451.48
504.65	40645.74
504.83	41261.30
505.01	41483.66
505.18	41228.54
505.36	41570.25
505.53	41205.13
505.71	41476.63
505.88	41935.38
506.06	41790.27
506.23	42110.92
506.41	42082.83
506.58	42000.91
506.76	42440.93
506.93	42480.72
507.11	42494.77
507.28	42501.79
507.46	42770.95
507.63	43400.55
507.81	43047.13
507.98	42724.14
508.16	43196.93
508.33	43484.81
508.50	43683.76
508.68	43688.44
508.85	44158.89
509.03	44301.66
509.20	43849.94
509.38	44484.22
509.55	44800.19
509.73	44631.68
509.90	44783.81
510.08	44582.52
510.25	44652.74
510.42	44758.06
510.60	45338.52
510.77	45123.19
510.95	45516.40
511.12	45333.84
511.30	45048.29
511.47	45296.39
511.64	45783.22
511.82	46171.75
511.99	45860.46
512.17	45998.55
512.34	46131.96
512.51	46010.25
512.69	46663.26
512.86	46284.09
513.04	46689.01
513.21	46953.49
513.38	46658.58
513.56	47033.07
513.73	46646.88
513.90	47016.68
514.08	46583.68
514.25	47421.59
514.43	47482.45
514.60	47892.04
514.77	47737.57
514.95	47585.43
515.12	47880.34
515.29	47515.22
515.47	48009.07
515.64	48105.03
515.81	48392.92
515.99	48357.81
516.16	48699.53
516.33	48598.88
516.51	48479.52
516.68	48395.26
516.85	48413.98
517.03	48996.77
517.20	49001.46
517.37	48875.07
517.54	48959.33
517.72	48835.28
517.89	49614.68
518.06	49509.35
518.24	49352.54
518.41	49244.87
518.58	49563.18
518.75	49137.21
518.93	49640.42
519.10	49705.96
519.27	49968.10
519.45	49619.36
519.62	49928.31
519.79	50087.46
519.96	49984.48
520.14	50326.20
520.31	49991.50
520.48	50419.82
520.65	50548.55
520.83	50696.00
521.00	50983.89
521.17	50637.49
521.34	50607.06
521.52	50955.80
521.69	50937.08
521.86	51201.56
522.03	51241.35
522.20	51519.87
522.38	51643.92
522.55	51316.25
522.72	51126.66
522.89	51311.56
523.07	51435.61
523.24	51711.80
523.41	51964.57
523.58	51285.82
523.75	52079.26
523.92	51812.44
524.10	51920.10
524.27	52140.11
524.44	52315.65
524.61	52332.04
524.78	52217.35
524.96	52315.65
525.13	52339.06
525.30	52271.18
525.47	52671.42
525.64	52568.43
525.81	52893.77
525.98	52601.20
526.16	52549.71
526.33	52430.34
526.50	53272.93
526.67	53020.16
526.84	52949.94
527.01	53214.42
527.18	52994.41
527.36	53167.61
527.53	53085.69
527.70	53584.22
527.87	53216.76
528.04	53207.40
528.21	53366.55
528.38	53361.87
528.55	53841.68
528.72	53460.18
528.89	53565.50
529.07	53574.86
529.24	53392.30
529.41	53743.38
529.58	53804.24
529.75	53485.92
529.92	53867.43
530.09	54145.95
530.26	54181.06
530.43	54094.46
530.60	53867.43
530.77	54059.35
530.94	54244.26
531.11	54061.69
531.28	54101.48
531.46	54042.97
531.63	54536.82
531.80	54457.24
531.97	54288.73
532.14	54667.89
532.31	54766.20
532.48	54447.88
532.65	54490.01
532.82	54595.34
532.99	54969.82
533.16	54791.94
533.33	55061.10
533.50	54841.09
533.67	54808.32
533.84	54679.60
534.01	55086.85
534.18	55091.53
534.35	55304.52
534.52	55054.08
534.69	55236.64
534.86	55260.05
535.03	55098.55
535.20	55199.19
535.37	55391.12
535.54	55377.08
535.71	55260.05
535.88	55395.80
536.05	55580.70
536.22	55608.79
536.38	55863.91
536.55	55374.73
536.72	55756.24
536.89	55615.81
537.06	55784.33
537.23	55695.39
537.40	55718.79
537.57	56011.36
537.74	55688.37
537.91	56002.00
538.08	55863.91
538.25	55709.43
538.42	56013.70
538.59	56074.55
538.75	55758.58
538.92	56287.54
539.09	56200.94
539.26	56243.07
539.43	56189.24
539.60	56327.33
539.77	56198.60
539.94	56512.23
540.11	56479.47
540.28	56563.73
540.44	56631.60
540.61	56673.73
540.78	56458.40
540.95	56222.01
541.12	56430.32
541.29	56381.16
541.46	56488.83
541.62	56526.28
541.79	56552.02
541.96	56381.16
542.13	56439.68
542.30	56608.20
542.47	56825.87
542.63	56818.84
542.80	57059.92
542.97	57024.81
543.14	57193.33
543.31	57158.22
543.48	57308.02
543.64	57284.61
543.81	57366.53
543.98	57525.69
544.15	57478.88
544.32	57357.17
544.48	57719.95
544.65	57502.28
544.82	57565.48
544.99	57359.51
545.16	57719.95
545.32	57495.26
545.49	57712.93
545.66	57832.30
545.83	57673.14
546.00	57771.44
546.16	57661.44
546.33	57776.12
546.50	57745.70
546.67	57785.49
546.83	57595.90
547.00	57944.64
547.17	57879.11
547.34	57939.96
547.50	57900.17
547.67	58108.48
547.84	58042.95
548.00	58190.40
548.17	58155.29
548.34	58225.51
548.51	58326.15
548.67	58312.11
548.84	57986.77
549.01	58101.46
549.18	58277.00
549.34	58085.07
549.51	58246.57
549.68	58522.76
549.84	58340.19
550.01	58246.57
550.18	58368.28
550.34	58494.67
550.51	58422.11
550.68	58548.50
550.84	58101.46
551.01	58564.88
551.18	58548.50
551.34	58644.46
551.51	58796.60
551.68	58611.70
551.84	58471.26
552.01	58497.01
552.18	58674.89
552.34	58564.88
552.51	58885.54
552.68	58527.44
552.84	58684.25
553.01	58815.32
553.18	58857.45
553.34	58915.96
553.51	58808.30
553.67	58820.00
553.84	59037.67
554.01	59018.95
554.17	59192.15
554.34	59070.44
554.51	58960.44
554.67	59042.35
554.84	59255.34
555.00	59002.56
555.17	59203.85
555.33	59096.19
555.50	58972.14
555.67	59192.15
555.83	58979.16
556.00	59082.14
556.16	59395.77
556.33	59159.38
556.50	59194.49
556.66	59346.62
556.83	59234.28
556.99	59451.95
557.16	59742.17
557.32	59370.03
557.49	59763.24
557.65	59346.62
557.82	59143.00
557.98	59578.34
558.15	59482.37
558.32	59576.00
558.48	59515.14
558.65	59491.74
558.81	59737.49
558.98	59533.87
559.14	59676.64
559.31	59686.00
559.47	59812.39
559.64	59889.63
559.80	59758.56
559.97	59847.50
560.13	59725.79
560.30	59723.45
560.46	59774.94
560.63	59774.94
560.79	59845.16
560.96	60039.42
561.12	59814.73
561.29	59798.35
561.45	59941.12
561.61	59718.77
561.78	59917.71
561.94	59732.81
562.11	59831.11
562.27	59969.21
562.44	59868.56
562.60	60104.96
562.77	60055.81
562.93	59945.80
563.10	59992.61
563.26	60083.89
563.42	60315.61
563.59	60119.00
563.75	59990.27
563.92	60079.21
564.08	60025.38
564.24	60121.34
564.41	60060.49
564.57	60161.13
564.74	59985.59
564.90	60111.98
565.07	60179.85
565.23	60254.75
565.39	60214.96
565.56	60252.41
565.72	60240.71
565.88	60357.74
566.05	60491.15
566.21	60259.43
566.38	60369.44
566.54	60303.90
566.70	60397.52
566.87	60563.70
567.03	60411.57
567.19	60488.80
567.36	60460.72
567.52	60198.58
567.68	60725.20
567.85	60226.66
568.01	60596.47
568.17	60479.44
568.34	60420.93
568.50	60385.82
568.66	60547.32
568.83	60603.49
568.99	60271.14
569.15	60477.10
569.32	60526.25
569.48	60334.33
569.64	60498.17
569.81	60399.86
569.97	60547.32
570.13	60566.04
570.30	60390.50
570.46	60594.13
570.62	60603.49
570.78	60647.96
570.95	60472.42
571.11	60528.59
571.27	60662.00
571.43	60659.66
571.60	60690.09
571.76	60753.29
571.92	60725.20
572.09	60629.24
572.25	60542.64
572.41	60638.60
572.57	60706.47
572.74	60832.86
572.90	60647.96
573.06	60652.64
573.22	60711.16
573.38	60516.89
573.55	60706.47
573.71	60814.14
573.87	60699.45
574.03	60622.22
574.20	60917.12
574.36	60669.03
574.52	60680.73
574.68	61008.40
574.84	60842.23
575.01	60802.44
575.17	60662.00
575.33	60776.69
575.49	60741.58
575.65	60919.46
575.82	60924.14
575.98	60924.14
576.14	60931.17
576.30	60846.91
576.46	60685.41
576.62	60704.13
576.79	60615.19
576.95	60809.46
577.11	60947.55
577.27	60685.41
577.43	60800.10
577.59	60692.43
577.75	60863.29
577.92	60793.07
578.08	60764.99
578.24	60858.61
578.40	61020.11
578.56	61148.84
578.72	60912.44
578.88	61066.92
579.04	60963.93
579.21	60989.68
579.37	61195.65
579.53	60985.00
579.69	60725.20
579.85	60872.65
580.01	60966.27
580.17	60708.82
580.33	60858.61
580.49	60973.30
580.65	61022.45
580.82	61008.40
580.98	60884.36
581.14	60694.77
581.30	60987.34
581.46	60973.30
581.62	60914.78
581.78	61020.11
581.94	60879.67
582.10	60809.46
582.26	60994.36
582.42	60940.53
582.58	61109.05
582.74	61169.90
582.90	60772.01
583.06	61020.11
583.22	60708.82
583.38	60846.91
583.54	60858.61
583.70	61052.87
583.86	61057.56
584.02	61109.05
584.18	61085.64
584.34	61083.30
584.50	61050.53
584.66	60985.00
584.82	60811.80
584.98	61202.67
585.14	60924.14
585.30	60924.14
585.46	61167.56
585.62	61031.81
585.78	61038.83
585.94	60734.56
586.10	61102.03
586.26	60994.36
586.42	61207.35
586.58	61200.33
586.74	61137.13
586.90	61006.06
587.06	60977.98
587.22	61095.00
587.38	61188.63
587.54	61286.93
587.70	61137.13
587.86	61113.73
588.02	61010.74
588.18	61361.82
588.34	61141.81
588.49	61087.98
