SpectraSuite Data File
++++++++++++++++++++++++++++++++++++
Date: Fri Oct 25 11:34:36 EDT 2013
User: price-jones
Dark Spectrum Present: No
Reference Spectrum Present: No
Number of Sampled Component Spectra: 1
Spectrometers: USB2+H05261
Integration Time (usec): 100000 (USB2+H05261)
Spectra Averaged: 1 (USB2+H05261)
Boxcar Smoothing: 0 (USB2+H05261)
Correct for Electrical Dark: No (USB2+H05261)
Strobe/Lamp Enabled: No (USB2+H05261)
Correct for Detector Non-linearity: No (USB2+H05261)
Correct for Stray Light: No (USB2+H05261)
Number of Pixels in Processed Spectrum: 2048
>>>>>Begin Processed Spectral Data<<<<<
365.73	255.12
365.92	255.12
366.12	255.12
366.32	215.33
366.52	166.18
366.72	184.90
366.91	229.37
367.11	205.97
367.31	135.75
367.51	191.92
367.70	215.33
367.90	154.48
368.10	154.48
368.30	145.11
368.49	149.79
368.69	154.48
368.89	147.45
369.09	248.10
369.28	273.84
369.48	198.95
369.68	217.67
369.87	283.20
370.07	173.20
370.27	287.89
370.47	374.49
370.66	454.06
370.86	538.32
371.06	538.32
371.25	585.13
371.45	603.86
371.65	528.96
371.84	599.18
372.04	615.56
372.24	589.82
372.44	568.75
372.63	552.37
372.83	645.99
373.03	578.11
373.22	601.52
373.42	667.05
373.62	596.84
373.81	631.94
374.01	631.94
374.21	596.84
374.40	599.18
374.60	702.16
374.79	653.01
374.99	655.35
375.19	587.47
375.38	662.37
375.58	645.99
375.78	650.67
375.97	627.26
376.17	739.61
376.37	624.92
376.56	711.52
376.76	641.31
376.95	664.71
377.15	662.37
377.35	685.78
377.54	676.41
377.74	655.35
377.93	681.10
378.13	692.80
378.33	772.38
378.52	631.94
378.72	730.25
378.91	734.93
379.11	667.05
379.31	739.61
379.50	704.50
379.70	695.14
379.89	755.99
380.09	774.72
380.28	667.05
380.48	669.39
380.68	744.29
380.87	650.67
381.07	692.80
381.26	685.78
381.46	793.44
381.65	793.44
381.85	777.06
382.04	826.21
382.24	737.27
382.43	748.97
382.63	704.50
382.83	734.93
383.02	767.70
383.22	781.74
383.41	699.82
383.61	765.36
383.80	821.53
384.00	812.17
384.19	814.51
384.39	774.72
384.58	840.25
384.78	758.33
384.97	835.57
385.17	784.08
385.36	844.93
385.56	826.21
385.75	772.38
385.95	798.12
386.14	851.96
386.34	734.93
386.53	826.21
386.72	823.87
386.92	877.70
387.11	903.45
387.31	887.06
387.50	894.08
387.70	791.10
387.89	882.38
388.09	746.63
388.28	961.96
388.48	861.32
388.67	922.17
388.86	877.70
389.06	870.68
389.25	943.24
389.45	898.77
389.64	898.77
389.84	898.77
390.03	980.68
390.22	919.83
390.42	961.96
390.61	994.73
390.81	954.94
391.00	844.93
391.19	926.85
391.39	931.53
391.58	957.28
391.78	929.19
391.97	961.96
392.16	1008.77
392.36	1081.33
392.55	1046.22
392.75	1071.97
392.94	971.32
393.13	1041.54
393.33	1076.65
393.52	1067.28
393.71	1114.10
393.91	1050.90
394.10	1057.92
394.29	954.94
394.49	1043.88
394.68	1050.90
394.88	1086.01
395.07	1095.37
395.26	1123.46
395.46	1088.35
395.65	1121.12
395.84	1139.84
396.04	1158.57
396.23	1170.27
396.42	1160.91
396.62	1172.61
396.81	1116.44
397.00	1191.33
397.19	1252.19
397.39	1193.67
397.58	1210.06
397.77	1184.31
397.97	1263.89
398.16	1275.59
398.35	1306.02
398.55	1226.44
398.74	1219.42
398.93	1245.16
399.12	1270.91
399.32	1306.02
399.51	1296.66
399.70	1289.64
399.90	1170.27
400.09	1387.94
400.28	1359.85
400.47	1331.76
400.67	1299.00
400.86	1249.85
401.05	1404.32
401.24	1303.68
401.44	1490.92
401.63	1423.05
401.82	1448.79
402.01	1296.66
402.21	1434.75
402.40	1404.32
402.59	1399.64
402.78	1453.47
402.97	1582.20
403.17	1596.25
403.36	1462.83
403.55	1493.26
403.74	1497.94
403.93	1511.99
404.13	1504.96
404.32	1490.92
404.51	1504.96
404.70	1624.33
404.89	1549.43
405.09	1582.20
405.28	1596.25
405.47	1685.19
405.66	1610.29
405.85	1717.95
406.05	1743.70
406.24	1652.42
406.43	1645.40
406.62	1661.78
406.81	1785.83
407.00	1689.87
407.20	1678.16
407.39	1776.47
407.58	1799.87
407.77	1837.32
407.96	1692.21
408.15	1846.68
408.34	1771.79
408.54	1860.73
408.73	1816.26
408.92	1820.94
409.11	1886.47
409.30	1891.15
409.49	1909.88
409.68	1834.98
409.87	1893.49
410.07	1949.67
410.26	1980.09
410.45	1982.43
410.64	2005.84
410.83	1949.67
411.02	1909.88
411.21	2083.08
411.40	2029.24
411.59	2050.31
411.78	2143.93
411.98	2076.06
412.17	2125.21
412.36	2127.55
412.55	2186.06
412.74	2242.23
412.93	2232.87
413.12	2167.34
413.31	2211.81
413.50	2324.15
413.69	2267.98
413.88	2385.01
414.07	2272.66
414.26	2303.09
414.45	2422.45
414.64	2373.30
414.83	2490.33
415.02	2431.82
415.22	2595.65
415.41	2544.16
415.60	2513.74
415.79	2546.50
415.98	2523.10
416.17	2658.85
416.36	2626.08
416.55	2586.29
416.74	2640.12
416.93	2675.23
417.12	2661.19
417.31	2708.00
417.50	2801.62
417.69	2782.90
417.88	2942.05
418.07	2885.88
418.26	2691.62
418.45	2890.56
418.64	2860.13
418.83	2909.29
419.02	2942.05
419.21	2820.35
419.39	2930.35
419.58	2986.52
419.77	3033.33
419.96	3089.51
420.15	3091.85
420.34	2939.71
420.53	2979.50
420.72	3166.74
420.91	3171.43
421.10	3049.72
421.29	3215.90
421.48	3016.95
421.67	3304.84
421.86	3194.83
422.05	3131.64
422.24	3115.25
422.43	3166.74
422.61	3150.36
422.80	3087.17
422.99	3339.94
423.18	3269.73
423.37	3323.56
423.56	3300.16
423.75	3330.58
423.94	3311.86
424.13	3082.49
424.32	3059.08
424.50	3279.09
424.69	3288.45
424.88	3314.20
425.07	3346.97
425.26	3295.47
425.45	3225.26
425.64	3176.11
425.83	3295.47
426.01	3302.50
426.20	3283.77
426.39	3375.05
426.58	3246.32
426.77	3384.41
426.96	3342.28
427.15	3325.90
427.33	3492.08
427.52	3318.88
427.71	3559.95
427.90	3407.82
428.09	3552.93
428.28	3609.11
428.46	3487.40
428.65	3620.81
428.84	3588.04
429.03	3564.64
429.22	3494.42
429.40	3583.36
429.59	3574.00
429.78	3538.89
429.97	3541.23
430.16	3538.89
430.34	3733.15
430.53	3559.95
430.72	3669.96
430.91	3786.99
431.10	3602.08
431.28	3681.66
431.47	3723.79
431.66	3791.67
431.85	3885.29
432.03	3857.20
432.22	3941.46
432.41	3857.20
432.60	3873.59
432.79	3913.38
432.97	3854.86
433.16	3985.93
433.35	3962.53
433.54	3988.27
433.72	3941.46
433.91	4032.74
434.10	4067.85
434.28	3999.98
434.47	3946.14
434.66	4098.28
434.85	4170.83
435.03	4161.47
435.22	4049.13
435.41	4299.56
435.59	4145.09
435.78	4163.81
435.97	4255.09
436.16	4102.96
436.34	4177.86
436.53	4248.07
436.72	4273.82
436.90	4198.92
437.09	4337.01
437.28	4212.96
437.46	4262.12
437.65	4444.68
437.84	4430.63
438.02	4486.81
438.21	4470.42
438.40	4344.03
438.58	4498.51
438.77	4585.11
438.96	4526.60
439.14	4533.62
439.33	4718.52
439.52	4709.16
439.70	4678.73
439.89	4877.68
440.08	4692.77
440.26	4751.29
440.45	4793.42
440.63	4910.44
440.82	5034.49
441.01	4779.37
441.19	5018.11
441.38	4978.32
441.57	5100.03
441.75	5039.17
441.94	5046.20
442.12	5048.54
442.31	5214.71
442.50	5322.38
442.68	5142.16
442.87	5114.07
443.05	5416.00
443.24	5378.55
443.43	5315.36
443.61	5252.16
443.80	5490.90
443.98	5329.40
444.17	5144.50
444.35	5273.23
444.54	5383.23
444.73	5376.21
444.91	5287.27
445.10	5294.29
445.28	5268.55
445.47	5329.40
445.65	5425.36
445.84	5497.92
446.02	5411.32
446.21	5387.91
446.39	5247.48
446.58	5521.32
446.77	5535.37
446.95	5254.50
447.14	5493.24
447.32	5570.48
447.51	5481.53
447.69	5336.42
447.88	5537.71
448.06	5465.15
448.25	5320.04
448.43	5483.88
448.62	5507.28
448.80	5617.29
448.99	5420.68
449.17	5572.82
449.36	5565.79
449.54	5703.89
449.73	5916.87
449.91	5823.25
450.10	5743.67
450.28	5652.39
450.46	5724.95
450.65	5762.40
450.83	5940.28
451.02	5762.40
451.20	5951.98
451.39	5942.62
451.57	5959.00
451.76	5797.51
451.94	5928.58
452.13	6162.63
452.31	5937.94
452.49	5879.43
452.68	6106.46
452.86	5923.90
453.05	5949.64
453.23	6071.35
453.42	6183.70
453.60	6043.26
453.78	6148.59
453.97	6148.59
454.15	6080.71
454.34	6087.73
454.52	6197.74
454.70	6443.49
454.89	6293.70
455.07	6342.85
455.26	6499.67
455.44	6354.55
455.62	6221.14
455.81	6408.39
455.99	6356.90
456.17	6366.26
456.36	6389.66
456.54	6429.45
456.73	6649.46
456.91	6597.97
457.09	6670.53
457.28	6792.23
457.46	6693.93
457.64	6785.21
457.83	6715.00
458.01	6696.27
458.19	6902.24
458.38	6693.93
458.56	6803.94
458.74	6740.74
458.93	6853.09
459.11	6846.07
459.29	6778.19
459.48	6916.28
459.66	6998.20
459.84	7098.84
460.03	7283.75
460.21	7012.24
460.39	6960.75
460.57	7059.06
460.76	7049.69
460.94	6995.86
461.12	7178.42
461.31	7250.98
461.49	7307.15
461.67	7105.87
461.85	7351.62
462.04	7180.76
462.22	7602.06
462.40	7358.64
462.59	7311.83
462.77	7311.83
462.95	7473.33
463.13	7391.41
463.32	7351.62
463.50	7414.82
463.68	7604.40
463.86	7456.95
464.05	7576.31
464.23	7363.33
464.41	7515.46
464.59	7623.12
464.78	7658.23
464.96	7646.53
465.14	7419.50
465.32	7499.08
465.50	7585.68
465.69	7857.18
465.87	7765.90
466.05	7751.85
466.23	7822.07
466.41	7925.05
466.60	7878.24
466.78	7721.43
466.96	7716.75
467.14	7929.74
467.32	8006.97
467.51	7974.21
467.69	7768.24
467.87	7990.59
468.05	7995.27
468.23	8093.57
468.41	7932.08
468.60	8098.25
468.78	8056.12
468.96	7941.44
469.14	8229.32
469.32	8355.71
469.50	8159.11
469.69	8238.69
469.87	8124.00
470.05	8201.24
470.23	8264.43
470.41	8245.71
470.59	8407.20
470.77	8390.82
470.95	8542.96
471.14	8461.04
471.32	8276.13
471.50	8566.36
471.68	8524.23
471.86	8592.11
472.04	8697.43
472.22	8901.06
472.40	8458.70
472.58	8592.11
472.77	8837.86
472.95	8816.80
473.13	9132.77
473.31	8947.87
473.49	8957.23
473.67	8926.80
473.85	9158.52
474.03	9179.58
474.21	9067.24
474.39	9352.78
474.57	9324.69
474.75	9343.42
474.93	9535.34
475.12	9427.68
475.30	9469.81
475.48	9481.51
475.66	9540.02
475.84	9394.91
476.02	9577.47
476.20	9650.03
476.38	10026.86
476.56	9851.31
476.74	10068.98
476.92	9839.61
477.10	9970.68
477.28	10129.84
477.46	10115.80
477.64	10359.21
477.82	10422.41
478.00	10635.39
478.18	10476.24
478.36	10656.46
478.54	10731.36
478.72	10635.39
478.90	10754.76
479.08	10890.51
479.26	11087.12
479.44	10949.03
479.62	10965.41
479.80	11232.23
479.98	11412.45
480.16	11583.31
480.34	11597.35
480.52	11454.58
480.70	11627.78
480.88	11676.93
481.06	11637.14
481.24	11817.36
481.41	11693.32
481.59	11925.03
481.77	12205.89
481.95	12236.32
482.13	12248.02
482.31	12091.21
482.49	12606.13
482.67	12657.62
482.85	12812.09
483.03	12868.27
483.21	12894.01
483.39	13001.68
483.57	12884.65
483.74	13034.44
483.92	13109.34
484.10	13312.97
484.28	13460.42
484.46	13554.04
484.64	13895.76
484.82	13830.23
485.00	13792.78
485.18	14218.75
485.35	14352.16
485.53	14377.91
485.71	14185.99
485.89	14398.98
486.07	14436.42
486.25	14808.57
486.43	14693.88
486.61	14911.55
486.78	15119.86
486.96	15087.09
487.14	15335.19
487.32	15260.29
487.50	15749.46
487.68	15484.98
487.85	15602.01
488.03	15868.83
488.21	15822.02
488.39	15967.13
488.57	16126.29
488.75	16358.00
488.92	16528.86
489.10	16669.30
489.28	16683.34
489.46	16723.13
489.64	16535.88
489.81	17053.14
489.99	17022.72
490.17	17207.62
490.35	17348.05
490.53	17516.57
490.70	17935.53
490.88	17738.92
491.06	17886.37
491.24	17837.22
491.41	18010.42
491.59	18321.71
491.77	18160.22
491.95	18466.83
492.13	18586.19
492.30	18333.42
492.48	18679.82
492.66	18944.30
492.84	19040.26
493.01	19168.99
493.19	19112.81
493.37	19309.42
493.54	19286.01
493.72	19559.86
493.90	19681.56
494.08	19559.86
494.25	19976.47
494.43	19281.33
494.61	20147.33
494.79	20418.83
494.96	19924.98
495.14	20423.51
495.32	20577.99
495.49	20680.97
495.67	20673.95
495.85	21060.14
496.02	20751.19
496.20	21153.76
496.38	21303.56
496.55	21380.79
496.73	21729.53
496.91	21371.43
497.09	21715.49
497.26	21825.50
497.44	21736.56
497.62	21603.14
497.79	22033.80
497.97	21816.13
498.14	22230.41
498.32	22288.92
498.50	21989.33
498.67	22431.69
498.85	22576.81
499.03	22801.50
499.20	22850.65
499.38	22747.67
499.56	23159.60
499.73	23133.86
499.91	23225.14
500.08	23756.44
500.26	22979.38
500.44	22958.31
500.61	23391.31
500.79	23077.68
500.97	23761.12
501.14	24116.88
501.32	24058.37
501.49	23782.18
501.67	24292.42
501.84	24652.86
502.02	23779.84
502.20	24049.00
502.37	24233.91
502.55	24320.51
502.72	24435.19
502.90	24692.65
503.07	24500.73
503.25	24950.11
503.43	24900.96
503.60	24842.45
503.78	25263.74
503.95	24718.40
504.13	24797.98
504.30	25106.93
504.48	25125.65
504.65	25153.74
504.83	25504.82
505.01	25364.39
505.18	25671.00
505.36	25900.37
505.53	25951.86
505.71	26029.10
505.88	25986.97
506.06	25692.06
506.23	26167.19
506.41	25778.66
506.58	26340.39
506.76	26426.99
506.93	26501.89
507.11	26508.91
507.28	26576.78
507.46	26597.85
507.63	26555.72
507.81	27049.57
507.98	26941.91
508.16	27208.73
508.33	27346.82
508.50	27274.26
508.68	27393.63
508.85	27154.90
509.03	27517.68
509.20	27468.53
509.38	27704.92
509.55	27754.07
509.73	27658.11
509.90	27821.95
510.08	27934.29
510.25	27962.38
510.42	27707.26
510.60	27955.36
510.77	28315.80
510.95	28692.63
511.12	28362.61
511.30	28496.02
511.47	28418.78
511.64	28308.78
511.82	28978.17
511.99	28467.94
512.17	28755.82
512.34	29102.22
512.51	29015.62
512.69	29221.59
512.86	29074.13
513.04	29355.00
513.21	29638.20
513.38	29120.95
513.56	29453.30
513.73	29315.21
513.90	29570.33
514.08	29575.01
514.25	29656.93
514.43	29755.23
514.60	29792.68
514.77	29776.30
514.95	30094.61
515.12	29919.07
515.29	30323.98
515.47	30221.00
515.64	30211.64
515.81	30019.71
515.99	30897.41
516.16	30962.95
516.33	30761.66
516.51	30717.19
516.68	30831.88
516.85	30459.73
517.03	30813.15
517.20	30888.05
517.37	30829.54
517.54	30897.41
517.72	31175.94
517.89	31213.38
518.06	31330.41
518.24	31269.56
518.41	31414.67
518.58	31314.03
518.75	31309.35
518.93	31449.78
519.10	31316.37
519.27	31814.90
519.45	31573.83
519.62	31594.89
519.79	31821.92
519.96	32006.83
520.14	31842.99
520.31	31974.06
520.48	32198.75
520.65	32011.51
520.83	32444.51
521.00	32603.66
521.17	32425.78
521.34	32278.33
521.52	32524.08
521.69	32425.78
521.86	32496.00
522.03	33106.88
522.20	32737.07
522.38	33055.39
522.55	33127.94
522.72	33191.14
522.89	33069.43
523.07	33284.76
523.24	33546.90
523.41	33626.48
523.58	33453.28
523.75	33862.87
523.92	33448.60
524.10	33708.40
524.27	33336.25
524.44	33876.91
524.61	33919.04
524.78	33954.15
524.96	33820.74
525.13	33858.19
525.30	34031.39
525.47	33975.22
525.64	34136.71
525.81	34263.10
525.98	34490.13
526.16	34586.10
526.33	34153.10
526.50	34391.83
526.67	34405.88
526.84	34363.75
527.01	34237.36
527.18	34333.32
527.36	34710.14
527.53	34852.92
527.70	35440.39
527.87	35311.66
528.04	35019.10
528.21	34969.94
528.38	35129.10
528.55	35580.82
528.72	35101.01
528.89	35346.77
529.07	35093.99
529.24	34761.64
529.41	35508.27
529.58	35728.28
529.75	35372.52
529.92	35618.27
530.09	35644.02
530.26	35711.89
530.43	35786.79
530.60	35758.70
530.77	35828.92
530.94	35627.63
531.11	35407.62
531.28	35737.64
531.46	36315.75
531.63	36304.05
531.80	36252.56
531.97	36418.74
532.14	36381.29
532.31	35936.59
532.48	36575.55
532.65	36718.32
532.82	36187.02
532.99	36797.90
533.16	36439.80
533.33	36697.26
533.50	36938.33
533.67	36620.02
533.84	36025.53
534.01	36854.08
534.18	37083.45
534.35	37060.04
534.52	37301.12
534.69	37003.87
534.86	37263.67
535.03	36985.15
535.20	37270.69
535.37	37460.27
535.54	37570.28
535.71	37617.09
535.88	37385.38
536.05	37460.27
536.22	37296.44
536.38	37589.00
536.55	37504.74
536.72	37343.25
536.89	37860.51
537.06	37720.07
537.23	37933.06
537.40	37214.52
537.57	37811.35
537.74	37713.05
537.91	38117.96
538.08	37958.81
538.25	37460.27
538.42	37902.64
538.59	38167.12
538.75	37874.55
538.92	38155.41
539.09	38382.45
539.26	38218.61
539.43	38492.45
539.60	38075.84
539.77	38349.68
539.94	38593.09
540.11	38639.90
540.28	38829.49
540.44	38349.68
540.61	38426.92
540.78	38588.41
540.95	38529.90
541.12	39140.78
541.29	38363.72
541.46	39044.82
541.62	39068.22
541.79	39498.88
541.96	38403.51
542.13	38693.74
542.30	38862.26
542.47	39136.10
542.63	39466.11
542.80	39285.89
542.97	39693.15
543.14	39721.23
543.31	39524.63
543.48	39695.49
543.64	40013.80
543.81	39952.94
543.98	39810.17
544.15	39714.21
544.32	39915.50
544.48	40339.13
544.65	40294.66
544.82	39990.39
544.99	39789.11
545.16	40006.78
545.32	39966.99
545.49	40711.28
545.66	40435.10
545.83	40322.75
546.00	40411.69
546.16	40765.11
546.33	40531.06
546.50	40198.70
546.67	40498.29
546.83	39999.76
547.00	40465.52
547.17	40442.12
547.34	40540.42
547.50	40935.97
547.67	41095.13
547.84	40800.22
548.00	40818.94
548.17	41064.70
548.34	40802.56
548.51	40975.76
548.67	40835.33
548.84	41097.47
549.01	41118.53
549.18	40769.79
549.34	41460.25
549.51	41081.08
549.68	41399.40
549.84	41141.94
550.01	41329.18
550.18	41125.55
550.34	41329.18
550.51	41593.66
550.68	41242.58
550.84	41198.11
551.01	41766.86
551.18	41216.83
551.34	41366.63
551.51	41546.85
551.68	41450.89
551.84	41652.17
552.01	41607.70
552.18	41226.20
552.34	41734.09
552.51	41647.49
552.68	41439.18
552.84	41933.04
553.01	41446.21
553.18	41811.33
553.34	41813.67
553.51	41792.61
553.67	42160.07
553.84	42113.26
554.01	42052.41
554.17	42473.70
554.34	41886.23
554.51	42344.97
554.67	42632.86
554.84	42185.82
555.00	41996.23
555.17	41940.06
555.33	42150.71
555.50	42677.33
555.67	42281.78
555.83	42316.89
556.00	42279.44
556.16	42689.03
556.33	42576.69
556.50	42422.21
556.66	42745.20
556.83	42293.48
556.99	42670.31
557.16	42471.36
557.32	42817.76
557.49	42932.45
557.65	42485.40
557.82	42714.78
557.98	42794.36
558.15	42834.14
558.32	42492.43
558.48	42808.40
558.65	43316.29
558.81	43054.15
558.98	42869.25
559.14	42691.37
559.31	43143.09
559.47	42799.04
559.64	43203.95
559.80	42693.71
559.97	43189.91
560.13	42850.53
560.30	42784.99
560.46	43880.36
560.63	43540.99
560.79	43557.37
560.96	43498.86
561.12	43505.88
561.29	43384.17
561.45	43409.92
561.61	43702.48
561.78	43335.02
561.94	43463.75
562.11	43117.35
562.27	43512.90
562.44	43538.65
562.60	43536.30
562.77	43969.30
562.93	43519.92
563.10	43950.58
563.26	43264.80
563.42	43959.94
563.59	43679.08
563.75	43831.21
563.92	43576.09
564.08	44041.86
564.24	43548.01
564.41	43459.07
564.57	43681.42
564.74	44105.06
564.90	43660.35
565.07	43934.20
565.23	43889.73
565.39	44069.95
565.56	43819.51
565.72	43728.23
565.88	43487.15
566.05	43695.46
566.21	43849.94
566.38	43681.42
566.54	44311.02
566.70	43910.79
566.87	43688.44
567.03	44004.41
567.19	43863.98
567.36	43873.34
567.52	44378.90
567.68	44484.22
567.85	43966.96
568.01	44308.68
568.17	44142.50
568.34	44451.45
568.50	44350.81
568.66	43943.56
568.83	43793.76
568.99	44020.80
569.15	44301.66
569.32	43971.64
569.48	43758.66
569.64	44622.31
569.81	44348.47
569.97	44292.30
570.13	44631.68
570.30	43658.01
570.46	44109.74
570.62	44708.91
570.78	44362.51
570.95	44638.70
571.11	44374.22
571.27	43973.98
571.43	44147.18
571.60	44250.17
571.76	43976.33
571.92	44388.26
572.09	44589.55
572.25	44484.22
572.41	44275.91
572.57	44341.45
572.74	45109.14
572.90	44399.96
573.06	44624.65
573.22	44521.67
573.38	44910.20
573.55	44875.09
573.71	44758.06
573.87	44708.91
574.03	44472.52
574.20	44762.75
574.36	44545.08
574.52	44851.69
574.68	44650.40
574.84	45085.74
575.01	44472.52
575.17	44538.05
575.33	44575.50
575.49	44360.17
575.65	44664.44
575.82	44402.30
575.98	44573.16
576.14	45111.49
576.30	45251.92
576.46	44800.19
576.62	44643.38
576.79	44566.14
576.95	44390.60
577.11	44772.11
577.27	44711.25
577.43	44748.70
577.59	44669.12
577.75	44666.78
577.92	44112.08
578.08	44907.86
578.24	44847.00
578.40	44669.12
578.56	45081.06
578.72	44491.24
578.88	44708.91
579.04	44622.31
579.21	44570.82
579.37	44753.38
579.53	44734.66
579.69	44442.09
579.85	45010.84
580.01	44896.16
580.17	44502.95
580.33	44837.64
580.49	44924.24
580.65	44814.24
580.82	44811.90
580.98	45085.74
581.14	44767.43
581.30	45174.68
581.46	45048.29
581.62	44638.70
581.78	44652.74
581.94	44893.82
582.10	44676.15
582.26	44662.10
582.42	45111.49
582.58	45186.38
582.74	44863.39
582.90	44732.32
583.06	45134.89
583.22	44718.28
583.38	45345.54
583.54	44989.78
583.70	44971.05
583.86	44706.57
584.02	45268.30
584.18	45160.64
584.34	45574.91
584.50	45043.61
584.66	45099.78
584.82	45242.56
584.98	45675.55
585.14	45518.74
585.30	44781.47
585.46	44942.97
585.62	44978.07
585.78	45511.72
585.94	44868.07
586.10	45123.19
586.26	44753.38
586.42	44947.65
586.58	45038.93
586.74	44879.77
586.90	44861.05
587.06	45034.25
587.22	45029.57
587.38	44552.10
587.54	45055.31
587.70	45390.01
587.86	45130.21
588.02	44882.11
588.18	44884.45
588.34	45254.26
588.49	45071.70
588.65	44858.71
588.81	45153.62
588.97	45141.91
589.13	44629.34
589.29	45057.65
589.45	45090.42
589.61	45184.04
589.77	45354.90
589.93	45177.02
590.08	45572.57
