SpectraSuite Data File
++++++++++++++++++++++++++++++++++++
Date: Fri Oct 25 11:25:29 EDT 2013
User: price-jones
Dark Spectrum Present: No
Reference Spectrum Present: No
Number of Sampled Component Spectra: 1
Spectrometers: USB2+H05261
Integration Time (usec): 100000 (USB2+H05261)
Spectra Averaged: 1 (USB2+H05261)
Boxcar Smoothing: 0 (USB2+H05261)
Correct for Electrical Dark: No (USB2+H05261)
Strobe/Lamp Enabled: No (USB2+H05261)
Correct for Detector Non-linearity: No (USB2+H05261)
Correct for Stray Light: No (USB2+H05261)
Number of Pixels in Processed Spectrum: 2048
>>>>>Begin Processed Spectral Data<<<<<
365.73	297.25
365.92	297.25
366.12	297.25
366.32	140.43
366.52	91.28
366.72	128.73
366.91	201.29
367.11	159.16
367.31	154.48
367.51	102.98
367.70	102.98
367.90	156.82
368.10	159.16
368.30	98.30
368.49	142.77
368.69	140.43
368.89	152.13
369.09	140.43
369.28	191.92
369.48	156.82
369.68	191.92
369.87	217.67
370.07	241.08
370.27	259.80
370.47	308.95
370.66	564.07
370.86	540.66
371.06	697.48
371.25	732.59
371.45	615.56
371.65	741.95
371.84	702.16
372.04	723.23
372.24	739.61
372.44	716.20
372.63	788.76
372.83	791.10
373.03	720.88
373.22	732.59
373.42	774.72
373.62	718.54
373.81	744.29
374.01	805.14
374.21	802.80
374.40	826.21
374.60	805.14
374.79	861.32
374.99	837.91
375.19	880.04
375.38	819.19
375.58	851.96
375.78	891.74
375.97	812.17
376.17	849.61
376.37	842.59
376.56	828.55
376.76	894.08
376.95	844.93
377.15	917.49
377.35	833.23
377.54	830.89
377.74	889.40
377.93	837.91
378.13	894.08
378.33	898.77
378.52	976.00
378.72	866.00
378.91	1034.52
379.11	947.92
379.31	926.85
379.50	910.47
379.70	1001.75
379.89	985.37
380.09	917.49
380.28	983.02
380.48	1032.18
380.68	978.34
380.87	1013.45
381.07	976.00
381.26	1018.13
381.46	1006.43
381.65	976.00
381.85	1123.46
382.04	1029.84
382.24	1081.33
382.43	1076.65
382.63	976.00
382.83	1081.33
383.02	1121.12
383.22	1181.97
383.41	1060.26
383.61	1118.78
383.80	1076.65
384.00	1013.45
384.19	1107.07
384.39	1107.07
384.58	1193.67
384.78	1151.54
384.97	1214.74
385.17	1181.97
385.36	1125.80
385.56	1158.57
385.75	1144.52
385.95	1172.61
386.14	1207.72
386.34	1151.54
386.53	1163.25
386.72	1121.12
386.92	1294.32
387.11	1277.93
387.31	1212.40
387.50	1249.85
387.70	1252.19
387.89	1240.48
388.09	1191.33
388.28	1226.44
388.48	1259.21
388.67	1329.42
388.86	1287.29
389.06	1261.55
389.25	1348.15
389.45	1334.11
389.64	1385.60
389.84	1315.38
390.03	1373.89
390.22	1320.06
390.42	1385.60
390.61	1350.49
390.81	1378.58
391.00	1345.81
391.19	1434.75
391.39	1465.18
391.58	1483.90
391.78	1507.30
391.97	1483.90
392.16	1504.96
392.36	1523.69
392.55	1554.12
392.75	1556.46
392.94	1409.00
393.13	1481.56
393.33	1523.69
393.52	1521.35
393.71	1570.50
393.91	1551.78
394.10	1521.35
394.29	1549.43
394.49	1577.52
394.68	1610.29
394.88	1673.48
395.07	1612.63
395.26	1689.87
395.46	1710.93
395.65	1755.40
395.84	1664.12
396.04	1851.36
396.23	1750.72
396.42	1788.17
396.62	1664.12
396.81	1811.57
397.00	1832.64
397.19	1799.87
397.39	1776.47
397.58	1797.53
397.77	1785.83
397.97	1914.56
398.16	1905.20
398.35	1905.20
398.55	1788.17
398.74	1853.70
398.93	1888.81
399.12	1940.30
399.32	1944.99
399.51	2012.86
399.70	1961.37
399.90	1973.07
400.09	2043.29
400.28	2029.24
400.47	2038.61
400.67	2066.69
400.86	2083.08
401.05	1956.69
401.24	2036.27
401.44	2153.29
401.63	2076.06
401.82	2239.89
402.01	2132.23
402.21	2125.21
402.40	2162.66
402.59	2200.10
402.78	2244.57
402.97	2193.08
403.17	2183.72
403.36	2246.91
403.55	2237.55
403.74	2370.96
403.93	2310.11
404.13	2300.75
404.32	2345.22
404.51	2267.98
404.70	2422.45
404.89	2502.03
405.09	2478.63
405.28	2466.92
405.47	2455.22
405.66	2485.65
405.85	2476.29
406.05	2438.84
406.24	2495.01
406.43	2579.27
406.62	2600.34
406.81	2693.96
407.00	2705.66
407.20	2588.63
407.39	2626.08
407.58	2698.64
407.77	2700.98
407.96	2640.12
408.15	2682.25
408.34	2696.30
408.54	2743.11
408.73	2860.13
408.92	2850.77
409.11	2878.86
409.30	2869.50
409.49	3009.93
409.68	2951.42
409.87	2970.14
410.07	2967.80
410.26	3126.96
410.45	3023.97
410.64	3002.91
410.83	3145.68
411.02	3124.62
411.21	3136.32
411.40	3110.57
411.59	3169.09
411.78	3166.74
411.98	3276.75
412.17	3166.74
412.36	3229.94
412.55	3255.69
412.74	3445.27
412.93	3370.37
413.12	3363.35
413.31	3482.72
413.50	3550.59
413.69	3485.06
413.88	3630.17
414.07	3606.77
414.26	3599.74
414.45	3688.68
414.64	3730.81
414.83	3653.58
415.02	3784.65
415.22	3836.14
415.41	3786.99
415.60	3803.37
415.79	3822.09
415.98	3770.60
416.17	3798.69
416.36	3969.55
416.55	3899.33
416.74	4189.56
416.93	3920.40
417.12	4119.34
417.31	4142.75
417.50	4114.66
417.69	4355.74
417.88	4259.78
418.07	4227.01
418.26	4447.02
418.45	4311.27
418.64	4542.98
418.83	4454.04
419.02	4402.55
419.21	4428.29
419.39	4496.17
419.58	4496.17
419.77	4423.61
419.96	4617.88
420.15	4550.00
420.34	4550.00
420.53	4641.28
420.72	4631.92
420.91	4535.96
421.10	4830.87
421.29	4840.23
421.48	4641.28
421.67	4739.58
421.86	5011.09
422.05	4723.20
422.24	4856.61
422.43	4758.31
422.61	4840.23
422.80	4966.62
422.99	4772.35
423.18	4985.34
423.37	4905.76
423.56	4891.72
423.75	4805.12
423.94	4713.84
424.13	4709.16
424.32	4873.00
424.50	4968.96
424.69	5224.08
424.88	5095.35
425.07	4952.57
425.26	4826.18
425.45	4987.68
425.64	4957.25
425.83	4889.38
426.01	5123.43
426.20	5078.96
426.39	5067.26
426.58	4915.12
426.77	5123.43
426.96	5048.54
427.15	4975.98
427.33	5064.92
427.52	5228.76
427.71	5296.63
427.90	5151.52
428.09	5324.72
428.28	5366.85
428.46	5270.89
428.65	5317.70
428.84	5420.68
429.03	5462.81
429.22	5308.34
429.40	5427.70
429.59	5411.32
429.78	5399.62
429.97	5280.25
430.16	5465.15
430.34	5600.90
430.53	5593.88
430.72	5671.12
430.91	5734.31
431.10	5514.30
431.28	5832.62
431.47	5790.49
431.66	5811.55
431.85	5713.25
432.03	5991.77
432.22	5872.40
432.41	5933.26
432.60	5853.68
432.79	5935.60
432.97	5923.90
433.16	5912.19
433.35	5865.38
433.54	6087.73
433.72	6183.70
433.91	6181.35
434.10	5921.56
434.28	6174.33
434.47	6186.04
434.66	6183.70
434.85	6307.74
435.03	6136.88
435.22	6303.06
435.41	6623.72
435.59	6459.88
435.78	6310.08
435.97	6431.79
436.16	6490.31
436.34	6394.34
436.53	6534.78
436.72	6555.84
436.90	6429.45
437.09	6637.76
437.28	6523.07
437.46	6443.49
437.65	6511.37
437.84	6665.85
438.02	6658.82
438.21	6672.87
438.40	6541.80
438.58	7045.01
438.77	6897.56
438.96	6883.52
439.14	7110.55
439.33	7009.90
439.52	7070.76
439.70	7059.06
439.89	7339.92
440.08	7253.32
440.26	7258.00
440.45	7353.96
440.63	7353.96
440.82	7742.49
441.01	7473.33
441.19	7487.37
441.38	7627.81
441.57	7779.94
441.75	7681.64
441.94	7808.03
442.12	8051.44
442.31	8217.62
442.50	8109.96
442.68	7988.25
442.87	7992.93
443.05	8119.32
443.24	8140.38
443.43	8060.80
443.61	8163.79
443.80	8362.73
443.98	7976.55
444.17	7906.33
444.35	8308.90
444.54	8248.05
444.73	8102.93
444.91	8203.58
445.10	8341.67
445.28	8292.52
445.47	8280.82
445.65	8133.36
445.84	8444.65
446.02	8311.24
446.21	8400.18
446.39	8365.07
446.58	8545.30
446.77	8498.49
446.95	8234.00
447.14	8369.76
447.32	8620.19
447.51	8610.83
447.69	8451.67
447.88	8437.63
448.06	8451.67
448.25	8568.70
448.43	8645.94
448.62	8634.24
448.80	8674.03
448.99	8601.47
449.17	8652.96
449.36	8573.38
449.54	8821.48
449.73	8922.12
449.91	9057.87
450.10	8884.67
450.28	8992.34
450.46	8910.42
450.65	9043.83
450.83	9249.80
451.02	9071.92
451.20	9137.45
451.39	9142.13
451.57	9111.71
451.76	9343.42
451.94	9160.86
452.13	9184.26
452.31	9301.29
452.49	9107.02
452.68	9371.50
452.86	9570.45
453.05	9511.94
453.23	9432.36
453.42	9289.59
453.60	9275.54
453.78	9404.27
453.97	9420.66
454.15	9439.38
454.34	9298.95
454.52	9703.86
454.70	9753.01
454.89	9635.99
455.07	9666.41
455.26	9839.61
455.44	9778.76
455.62	9792.80
455.81	9823.23
455.99	10195.37
456.17	10012.81
456.36	10085.37
456.54	10223.46
456.73	10228.14
456.91	10473.90
457.09	10298.36
457.28	10670.50
457.46	10277.29
457.64	10600.29
457.83	10476.24
458.01	10391.98
458.19	10839.02
458.38	10490.28
458.56	10682.20
458.74	10555.82
458.93	10539.43
459.11	10724.33
459.29	10839.02
459.48	10789.87
459.66	10420.06
459.84	11110.52
460.03	10958.39
460.21	10883.49
460.39	11115.20
460.57	10841.36
460.76	11164.36
460.94	11154.99
461.12	11234.57
461.31	11035.63
461.49	11281.38
461.67	11129.25
461.85	11501.39
462.04	11117.54
462.22	11831.41
462.40	11714.38
462.59	11520.12
462.77	11559.91
462.95	11667.57
463.13	11431.18
463.32	11611.40
463.50	11770.55
463.68	11782.26
463.86	11754.17
464.05	11690.98
464.23	11660.55
464.41	11978.86
464.59	11564.59
464.78	11910.99
464.96	11946.09
465.14	11894.60
465.32	12042.06
465.50	12072.48
465.69	12107.59
465.87	12023.33
466.05	12145.04
466.23	12074.82
466.41	12341.64
466.60	12545.27
466.78	12067.80
466.96	12042.06
467.14	12549.95
467.32	12248.02
467.51	12575.70
467.69	12353.35
467.87	12273.77
468.05	12601.44
468.23	12264.41
468.41	12528.89
468.60	12439.95
468.78	12725.49
468.96	12695.07
469.14	12758.26
469.32	13078.91
469.50	12791.03
469.69	12875.29
469.87	13099.98
470.05	13158.49
470.23	13163.17
470.41	12901.03
470.59	13071.89
470.77	13090.62
470.95	13266.16
471.14	13654.69
471.32	13111.68
471.50	13446.38
471.68	13448.72
471.86	13596.17
472.04	13635.96
472.22	13727.24
472.40	13905.12
472.58	13757.67
472.77	13851.29
472.95	14057.26
473.13	14501.96
473.31	13977.68
473.49	14331.10
473.67	14164.92
473.85	14176.62
474.03	14583.88
474.21	14663.46
474.39	14457.49
474.57	14726.65
474.75	14752.40
474.93	14850.70
475.12	14871.76
475.30	14923.26
475.48	14949.00
475.66	15367.96
475.84	15051.99
476.02	15513.07
476.20	15089.43
476.38	15756.49
476.56	15864.15
476.74	15901.60
476.92	15735.42
477.10	15688.61
477.28	16018.63
477.46	15852.45
477.64	16250.34
477.82	16301.83
478.00	16716.11
478.18	16783.98
478.36	17011.01
478.54	17245.07
478.72	17048.46
478.90	17291.88
479.08	17502.53
479.26	17528.27
479.44	17621.89
479.62	17724.88
479.80	17820.84
479.98	18031.49
480.16	18520.66
480.34	18232.77
480.52	18684.50
480.70	18600.24
480.88	18574.49
481.06	18485.55
481.24	18808.54
481.41	19208.78
481.59	19023.87
481.77	19681.56
481.95	19346.87
482.13	19461.55
482.31	19592.62
482.49	20365.00
482.67	20056.05
482.85	20313.51
483.03	20566.29
483.21	20809.70
483.39	20788.64
483.57	20697.36
483.74	21163.12
483.92	21083.55
484.10	21221.64
484.28	21488.46
484.46	22113.38
484.64	22389.56
484.82	22026.78
485.00	22132.11
485.18	22654.05
485.35	22981.72
485.53	22782.77
485.71	22876.40
485.89	23470.89
486.07	23211.09
486.25	22951.29
486.43	23931.98
486.61	23777.50
486.78	23899.21
486.96	24240.93
487.14	24142.63
487.32	24261.99
487.50	24617.75
487.68	24842.45
487.85	25296.51
488.03	25312.89
488.21	25715.47
488.39	25900.37
488.57	25619.50
488.75	25991.65
488.92	25996.33
489.10	26478.48
489.28	26747.64
489.46	26721.90
489.64	27058.93
489.81	27592.58
489.99	27314.05
490.17	27606.62
490.35	28086.43
490.53	27807.90
490.70	28079.41
490.88	28144.94
491.06	28542.83
491.24	28701.99
491.41	28891.57
491.59	29242.65
491.77	29567.99
491.95	29694.38
492.13	30108.65
492.30	29834.81
492.48	29799.70
492.66	30061.84
492.84	29982.26
493.01	30548.67
493.19	30698.47
493.37	30852.94
493.54	31194.66
493.72	31693.19
493.90	31384.24
494.08	31833.63
494.25	31847.67
494.43	31854.69
494.61	31824.26
494.79	32451.53
494.96	32875.16
495.14	32613.02
495.32	32994.53
495.49	32772.18
495.67	33149.01
495.85	33701.37
496.02	33872.23
496.20	33589.03
496.38	33905.00
496.55	34085.22
496.73	34733.55
496.91	34443.32
497.09	34787.38
497.26	35056.54
497.44	34569.71
497.62	35496.56
497.79	35573.80
497.97	35250.81
498.14	35695.51
498.32	36062.97
498.50	36339.16
498.67	36608.32
498.85	36678.54
499.03	36210.43
499.20	36182.34
499.38	36577.89
499.56	36666.83
499.73	36957.06
499.91	37284.73
500.08	37722.41
500.26	37109.19
500.44	37481.34
500.61	37682.62
500.79	37844.12
500.97	37989.24
501.14	38780.34
501.32	38328.61
501.49	38480.75
501.67	38492.45
501.84	38281.80
502.02	38918.43
502.20	38749.91
502.37	39143.12
502.55	38841.19
502.72	39005.03
502.90	39428.66
503.07	39496.54
503.25	39957.63
503.43	39255.46
503.60	40076.99
503.78	39889.75
503.95	40030.18
504.13	40556.80
504.30	40123.80
504.48	40142.53
504.65	40795.54
504.83	40872.78
505.01	41104.49
505.18	40786.18
505.36	41148.96
505.53	40711.28
505.71	41523.44
505.88	41256.62
506.06	41429.82
506.23	42003.25
506.41	41624.09
506.58	41808.99
506.76	42045.38
506.93	42029.00
507.11	41961.12
507.28	42457.32
507.46	42433.91
507.63	42672.65
507.81	42993.30
507.98	42696.05
508.16	42976.92
508.33	43737.59
508.50	43552.69
508.68	43709.50
508.85	43948.24
509.03	43840.57
509.20	44081.65
509.38	44287.62
509.55	44177.61
509.73	44294.64
509.90	44814.24
510.08	44252.51
510.25	44727.64
510.42	44655.08
510.60	44481.88
510.77	45076.38
510.95	45610.02
511.12	45385.33
511.30	44870.41
511.47	45333.84
511.64	45244.90
511.82	45462.57
511.99	45720.02
512.17	45661.51
512.34	45846.41
512.51	46263.03
512.69	46281.75
512.86	46078.13
513.04	46698.37
513.21	46344.95
513.38	46665.60
513.56	46628.15
513.73	46447.93
513.90	46689.01
514.08	46630.49
514.25	47019.02
514.43	46925.40
514.60	47330.31
514.77	47309.25
514.95	47613.52
515.12	47405.21
515.29	47721.18
515.47	48060.56
515.64	47840.55
515.81	47767.99
515.99	48306.32
516.16	48140.14
516.33	48381.21
516.51	48617.61
516.68	48203.33
516.85	48191.63
517.03	48882.09
517.20	49001.46
517.37	48683.14
517.54	48694.85
517.72	48875.07
517.89	49008.48
518.06	48732.29
518.24	49064.65
518.41	49132.53
518.58	49270.62
518.75	49317.43
518.93	49509.35
519.10	49195.72
519.27	49464.88
519.45	49626.38
519.62	49893.20
519.79	49773.83
519.96	49745.75
520.14	50148.32
520.31	50014.91
520.48	50351.94
520.65	49944.69
520.83	50335.56
521.00	50335.56
521.17	50354.29
521.34	50710.05
521.52	50667.92
521.69	50564.93
521.86	50733.45
522.03	51007.29
522.20	51040.06
522.38	51007.29
522.55	51070.49
522.72	51377.10
522.89	50871.54
523.07	51503.49
523.24	51416.89
523.41	51885.00
523.58	51405.19
523.75	51604.13
523.92	51899.04
524.10	51840.53
524.27	51964.57
524.44	51737.54
524.61	52048.83
524.78	51796.06
524.96	51908.40
525.13	52090.96
525.30	52168.20
525.47	52376.51
525.64	52472.47
525.81	52776.74
525.98	52292.25
526.16	52229.05
526.33	52559.07
526.50	52772.06
526.67	52849.30
526.84	52954.62
527.01	52360.12
527.18	52554.39
527.36	52959.30
527.53	52992.07
527.70	53043.56
527.87	53169.95
528.04	52992.07
528.21	53457.84
528.38	53291.66
528.55	53518.69
528.72	53359.53
528.89	53230.80
529.07	53214.42
529.24	53387.62
529.41	53581.88
529.58	53488.26
529.75	53382.94
529.92	53422.73
530.09	53743.38
530.26	53792.53
530.43	53818.28
530.60	53689.55
530.77	53921.26
530.94	53748.06
531.11	53907.22
531.28	54150.63
531.46	53954.03
531.63	54078.08
531.80	53858.07
531.97	54349.58
532.14	54305.11
532.31	53970.41
532.48	54192.76
532.65	54607.04
532.82	54279.36
532.99	54637.47
533.16	54607.04
533.33	54974.50
533.50	55112.59
533.67	54653.85
533.84	54384.69
534.01	54695.98
534.18	54934.71
534.35	54953.44
534.52	55091.53
534.69	55154.72
534.86	55327.92
535.03	54972.16
535.20	55054.08
535.37	55124.30
535.54	55210.90
535.71	54939.39
535.88	55243.66
536.05	55510.49
536.22	55473.04
536.38	55323.24
536.55	55271.75
536.72	55632.19
536.89	55475.38
537.06	55606.45
537.23	55655.60
537.40	55449.63
537.57	55416.86
537.74	55606.45
537.91	55985.61
538.08	55891.99
538.25	55529.21
538.42	55973.91
538.59	56093.28
538.75	55679.00
538.92	55854.54
539.09	56025.40
539.26	55901.36
539.43	55969.23
539.60	56074.55
539.77	55964.55
539.94	56418.61
540.11	56348.40
540.28	56413.93
540.44	56186.90
540.61	56406.91
540.78	56254.78
540.95	56324.99
541.12	56252.44
541.29	56381.16
541.46	56306.27
541.62	56666.71
541.79	56418.61
541.96	56282.86
542.13	56573.09
542.30	56360.10
542.47	56748.63
542.63	56907.79
542.80	56896.08
542.97	56891.40
543.14	57326.74
543.31	57134.82
543.48	56987.36
543.64	57174.61
543.81	57380.57
543.98	57497.60
544.15	57205.03
544.32	57537.39
544.48	57495.26
544.65	57289.29
544.82	57298.65
544.99	57092.69
545.16	57263.55
545.32	57469.51
545.49	57457.81
545.66	57652.08
545.83	57535.05
546.00	57790.17
546.16	57635.69
546.33	57403.98
546.50	57490.58
546.67	57787.83
546.83	57333.76
547.00	57542.07
547.17	57478.88
547.34	57542.07
547.50	57895.49
547.67	58042.95
547.84	58061.67
548.00	57961.03
548.17	58101.46
548.34	57773.78
548.51	58042.95
548.67	58220.83
548.84	57972.73
549.01	57965.71
549.18	58129.54
549.34	58258.27
549.51	58136.57
549.68	58377.64
549.84	58258.27
550.01	58363.60
550.18	58143.59
550.34	58375.30
550.51	58124.86
550.68	58323.81
550.84	57989.11
551.01	58305.09
551.18	58370.62
551.34	58379.98
551.51	58457.22
551.68	58681.91
551.84	58419.77
552.01	58183.38
552.18	58691.27
552.34	58489.99
552.51	58436.16
552.68	58494.67
552.84	58604.67
553.01	58843.41
553.18	58532.12
553.34	58763.83
553.51	58745.11
553.67	58688.93
553.84	59011.93
554.01	58990.86
554.17	59068.10
554.34	58894.90
554.51	58922.99
554.67	58894.90
554.84	58850.43
555.00	59000.22
555.17	58864.47
555.33	58862.13
555.50	58993.20
555.67	58824.68
555.83	58901.92
556.00	59070.44
556.16	59121.93
556.33	59131.29
556.50	59194.49
556.66	59063.42
556.83	59007.25
556.99	59217.89
557.16	59498.76
557.32	59363.01
557.49	59395.77
557.65	59161.72
557.82	59477.69
557.98	59196.83
558.15	59215.55
558.32	59550.25
558.48	59414.50
558.65	59381.73
558.81	59358.33
558.98	59613.44
559.14	59484.72
559.31	59470.67
559.47	59470.67
559.64	59559.61
559.80	59566.63
559.97	59777.28
560.13	59540.89
560.30	59412.16
560.46	59763.24
560.63	59559.61
560.79	59749.20
560.96	59765.58
561.12	59791.33
561.29	59749.20
561.45	59662.60
561.61	59636.85
561.78	59749.20
561.94	59653.23
562.11	59629.83
562.27	59859.20
562.44	59861.54
562.60	59887.29
562.77	60018.36
562.93	59826.43
563.10	59779.62
563.26	59856.86
563.42	60177.51
563.59	59807.71
563.75	59800.69
563.92	59898.99
564.08	60016.02
564.24	60001.97
564.41	59929.42
564.57	60100.28
564.74	60161.13
564.90	60130.70
565.07	60037.08
565.23	59915.37
565.39	59924.74
565.56	60250.07
565.72	60023.04
565.88	60037.08
566.05	60114.32
566.21	60114.32
566.38	60018.36
566.54	60221.98
566.70	60158.79
566.87	60177.51
567.03	60226.66
567.19	60357.74
567.36	60236.03
567.52	60280.50
567.68	60376.46
567.85	60278.16
568.01	60437.31
568.17	60191.56
568.34	60456.04
568.50	60369.44
568.66	60069.85
568.83	60301.56
568.99	60233.69
569.15	60453.70
569.32	60521.57
569.48	60385.82
569.64	60434.97
569.81	60301.56
569.97	60259.43
570.13	60317.95
570.30	60418.59
570.46	60460.72
570.62	60376.46
570.78	60346.03
570.95	60416.25
571.11	60619.88
571.27	60362.42
571.43	60507.53
571.60	60544.98
571.76	60526.25
571.92	60596.47
572.09	60561.36
572.25	60615.19
572.41	60392.84
572.57	60409.23
572.74	60802.44
572.90	60575.40
573.06	60690.09
573.22	60413.91
573.38	60739.24
573.55	60874.99
573.71	60825.84
573.87	60626.90
574.03	60701.79
574.20	60725.20
574.36	60680.73
574.52	60680.73
574.68	60687.75
574.84	60828.18
575.01	60842.23
575.17	60622.22
575.33	60638.60
575.49	60544.98
575.65	60694.77
575.82	60783.71
575.98	60893.72
576.14	60640.94
576.30	60865.63
576.46	60458.38
576.62	60715.84
576.79	60591.79
576.95	60369.44
577.11	60825.84
577.27	60671.37
577.43	60795.42
577.59	60430.29
577.75	60743.92
577.92	60544.98
578.08	60739.24
578.24	60783.71
578.40	60900.74
578.56	60926.49
578.72	60795.42
578.88	60905.42
579.04	60961.59
579.21	60872.65
579.37	61073.94
579.53	60949.89
579.69	60643.28
579.85	60753.29
580.01	60692.43
580.17	60526.25
580.33	60772.01
580.49	60985.00
580.65	60753.29
580.82	60701.79
580.98	60673.71
581.14	60992.02
581.30	60891.38
581.46	60786.05
581.62	60912.44
581.78	60722.86
581.94	60889.04
582.10	60797.76
582.26	61031.81
582.42	60636.26
582.58	60748.60
582.74	60872.65
582.90	60807.12
583.06	60926.49
583.22	60776.69
583.38	60814.14
583.54	60764.99
583.70	60912.44
583.86	60851.59
584.02	60818.82
584.18	60942.87
584.34	60743.92
584.50	60968.61
584.66	60811.80
584.82	60584.77
584.98	60977.98
585.14	60992.02
585.30	60874.99
585.46	61036.49
585.62	61059.90
585.78	61080.96
585.94	60858.61
586.10	60825.84
586.26	60814.14
586.42	60933.51
586.58	61102.03
586.74	60898.40
586.90	60940.53
587.06	60837.54
587.22	61202.67
587.38	60882.02
587.54	61109.05
587.70	61242.46
587.86	60989.68
588.02	60863.29
588.18	61062.24
588.34	61015.43
588.49	60825.84
