SpectraSuite Data File
++++++++++++++++++++++++++++++++++++
Date: Fri Oct 25 10:43:13 EDT 2013
User: price-jones
Dark Spectrum Present: No
Reference Spectrum Present: No
Number of Sampled Component Spectra: 1
Spectrometers: USB2+H05261
Integration Time (usec): 100000 (USB2+H05261)
Spectra Averaged: 1 (USB2+H05261)
Boxcar Smoothing: 0 (USB2+H05261)
Correct for Electrical Dark: No (USB2+H05261)
Strobe/Lamp Enabled: No (USB2+H05261)
Correct for Detector Non-linearity: No (USB2+H05261)
Correct for Stray Light: No (USB2+H05261)
Number of Pixels in Processed Spectrum: 2048
>>>>>Begin Processed Spectral Data<<<<<
365.73	98.30
365.92	98.30
366.12	98.30
366.32	4.68
366.52	32.77
366.72	23.41
366.91	0.00
367.11	53.83
367.31	16.38
367.51	0.00
367.70	0.00
367.90	70.22
368.10	0.00
368.30	74.90
368.49	0.00
368.69	32.77
368.89	32.77
369.09	42.13
369.28	35.11
369.48	39.79
369.68	30.43
369.87	102.98
370.07	102.98
370.27	149.79
370.47	191.92
370.66	376.83
370.86	414.27
371.06	444.70
371.25	468.11
371.45	409.59
371.65	402.57
371.84	451.72
372.04	423.64
372.24	442.36
372.44	512.58
372.63	580.45
372.83	484.49
373.03	486.83
373.22	496.19
373.42	575.77
373.62	526.62
373.81	594.50
374.01	535.98
374.21	578.11
374.40	638.97
374.60	559.39
374.79	512.58
374.99	559.39
375.19	561.73
375.38	472.79
375.58	543.00
375.78	545.34
375.97	608.54
376.17	645.99
376.37	564.07
376.56	671.73
376.76	739.61
376.95	660.03
377.15	629.60
377.35	655.35
377.54	704.50
377.74	580.45
377.93	655.35
378.13	650.67
378.33	559.39
378.52	660.03
378.72	676.41
378.91	571.09
379.11	664.71
379.31	627.26
379.50	594.50
379.70	704.50
379.89	650.67
380.09	660.03
380.28	748.97
380.48	725.57
380.68	655.35
380.87	627.26
381.07	641.31
381.26	809.83
381.46	678.76
381.65	627.26
381.85	610.88
382.04	732.59
382.24	690.46
382.43	765.36
382.63	655.35
382.83	727.91
383.02	702.16
383.22	667.05
383.41	699.82
383.61	737.27
383.80	814.51
384.00	781.74
384.19	847.27
384.39	847.27
384.58	758.33
384.78	847.27
384.97	861.32
385.17	854.30
385.36	816.85
385.56	741.95
385.75	837.91
385.95	840.25
386.14	802.80
386.34	802.80
386.53	840.25
386.72	826.21
386.92	828.55
387.11	891.74
387.31	889.40
387.50	795.78
387.70	826.21
387.89	903.45
388.09	887.06
388.28	884.72
388.48	784.08
388.67	894.08
388.86	910.47
389.06	884.72
389.25	1018.13
389.45	990.05
389.64	976.00
389.84	964.30
390.03	1004.09
390.22	997.07
390.42	973.66
390.61	1020.47
390.81	1004.09
391.00	1029.84
391.19	1006.43
391.39	976.00
391.58	968.98
391.78	997.07
391.97	1034.52
392.16	1067.28
392.36	1130.48
392.55	990.05
392.75	950.26
392.94	1128.14
393.13	961.96
393.33	1060.26
393.52	1055.58
393.71	1093.03
393.91	1064.94
394.10	1167.93
394.29	1149.20
394.49	1177.29
394.68	1153.88
394.88	1191.33
395.07	1233.46
395.26	1282.61
395.46	1149.20
395.65	1235.80
395.84	1174.95
396.04	1245.16
396.23	1139.84
396.42	1158.57
396.62	1186.65
396.81	1210.06
397.00	1196.01
397.19	1369.21
397.39	1444.11
397.58	1411.34
397.77	1369.21
397.97	1373.89
398.16	1350.49
398.35	1507.30
398.55	1446.45
398.74	1465.18
398.93	1432.41
399.12	1439.43
399.32	1427.73
399.51	1493.26
399.70	1568.16
399.90	1598.59
400.09	1614.97
400.28	1523.69
400.47	1572.84
400.67	1579.86
400.86	1572.84
401.05	1586.88
401.24	1645.40
401.44	1781.15
401.63	1760.08
401.82	1762.42
402.01	1680.50
402.21	1781.15
402.40	1661.78
402.59	1661.78
402.78	1809.23
402.97	1785.83
403.17	1788.17
403.36	1820.94
403.55	1858.39
403.74	1839.66
403.93	1849.02
404.13	1963.71
404.32	1973.07
404.51	1792.85
404.70	1839.66
404.89	1949.67
405.09	1863.07
405.28	1923.92
405.47	2045.63
405.66	1989.46
405.85	2012.86
406.05	2045.63
406.24	2022.22
406.43	2019.88
406.62	2047.97
406.81	2160.31
407.00	2064.35
407.20	1991.80
407.39	2101.80
407.58	2094.78
407.77	2202.44
407.96	2155.63
408.15	2223.51
408.34	2202.44
408.54	2230.53
408.73	2202.44
408.92	2408.41
409.11	2352.24
409.30	2270.32
409.49	2312.45
409.68	2342.88
409.87	2305.43
410.07	2375.64
410.26	2352.24
410.45	2401.39
410.64	2466.92
410.83	2466.92
411.02	2408.41
411.21	2530.12
411.40	2513.74
411.59	2600.34
411.78	2663.53
411.98	2628.42
412.17	2635.44
412.36	2752.47
412.55	2722.04
412.74	2722.04
412.93	2747.79
413.12	2712.68
413.31	2855.45
413.50	2881.20
413.69	2869.50
413.88	2780.56
414.07	2691.62
414.26	2967.80
414.45	2972.48
414.64	2939.71
414.83	3026.31
415.02	2965.46
415.22	3038.02
415.41	3080.14
415.60	3178.45
415.79	3286.11
415.98	3178.45
416.17	3115.25
416.36	3136.32
416.55	3169.09
416.74	3267.39
416.93	3255.69
417.12	3192.49
417.31	3300.16
417.50	3262.71
417.69	3433.57
417.88	3300.16
418.07	3496.76
418.26	3330.58
418.45	3449.95
418.64	3480.38
418.83	3531.87
419.02	3471.01
419.21	3592.72
419.39	3655.92
419.58	3538.89
419.77	3613.79
419.96	3562.30
420.15	3625.49
420.34	3585.70
420.53	3803.37
420.72	3733.15
420.91	3819.75
421.10	3929.76
421.29	3749.54
421.48	3716.77
421.67	3833.80
421.86	3852.52
422.05	3796.35
422.24	3854.86
422.43	3700.39
422.61	3875.93
422.80	3871.25
422.99	3892.31
423.18	3805.71
423.37	4053.81
423.56	4004.66
423.75	3981.25
423.94	3808.05
424.13	3658.26
424.32	3728.47
424.50	3880.61
424.69	3992.95
424.88	4042.11
425.07	3925.08
425.26	3801.03
425.45	3847.84
425.64	3976.57
425.83	3878.27
426.01	3990.61
426.20	3978.91
426.39	3981.25
426.58	3955.51
426.77	3941.46
426.96	4018.70
427.15	4119.34
427.33	3941.46
427.52	4147.43
427.71	4170.83
427.90	4142.75
428.09	4154.45
428.28	4184.88
428.46	4117.00
428.65	4063.17
428.84	4278.50
429.03	4273.82
429.22	4119.34
429.40	4147.43
429.59	4147.43
429.78	3875.93
429.97	3812.73
430.16	4011.68
430.34	4093.60
430.53	4203.60
430.72	4049.13
430.91	4109.98
431.10	4283.18
431.28	4568.73
431.47	4589.79
431.66	4627.24
431.85	4465.74
432.03	4491.49
432.22	4603.83
432.41	4798.10
432.60	4624.90
432.79	4683.41
432.97	4589.79
433.16	4643.62
433.35	4685.75
433.54	4557.02
433.72	4603.83
433.91	4596.81
434.10	4741.93
434.28	4936.19
434.47	4915.12
434.66	4938.53
434.85	4816.82
435.03	4894.06
435.22	4917.47
435.41	5123.43
435.59	5001.72
435.78	5067.26
435.97	5036.83
436.16	5053.22
436.34	5226.42
436.53	4997.04
436.72	5097.69
436.90	5064.92
437.09	5280.25
437.28	4936.19
437.46	5069.60
437.65	5053.22
437.84	5270.89
438.02	5027.47
438.21	5205.35
438.40	4978.32
438.58	5228.76
438.77	5441.75
438.96	5366.85
439.14	5577.50
439.33	5565.79
439.52	5598.56
439.70	5584.52
439.89	5872.40
440.08	5694.52
440.26	5603.24
440.45	5748.36
440.63	5708.57
440.82	5949.64
441.01	5837.30
441.19	5905.17
441.38	6087.73
441.57	6038.58
441.75	6111.14
441.94	6193.06
442.12	6345.19
442.31	6370.94
442.50	6296.04
442.68	6022.20
442.87	6190.72
443.05	6246.89
443.24	6431.79
443.43	6401.37
443.61	6392.00
443.80	6593.29
443.98	6335.83
444.17	6218.80
444.35	6511.37
444.54	6644.78
444.73	6588.61
444.91	6441.15
445.10	6502.01
445.28	6406.05
445.47	6216.46
445.65	6293.70
445.84	6541.80
446.02	6436.47
446.21	6651.80
446.39	6600.31
446.58	6665.85
446.77	6726.70
446.95	6567.54
447.14	6626.06
447.32	6792.23
447.51	6581.59
447.69	6483.28
447.88	6693.93
448.06	6759.47
448.25	6579.25
448.43	6754.79
448.62	6764.15
448.80	6700.95
448.99	6773.51
449.17	6935.01
449.36	6794.58
449.54	6981.82
449.73	7056.72
449.91	7101.19
450.10	7173.74
450.28	7103.53
450.46	7136.29
450.65	6967.77
450.83	7082.46
451.02	7136.29
451.20	7337.58
451.39	7155.02
451.57	7150.34
451.76	7201.83
451.94	7239.28
452.13	7194.81
452.31	7089.48
452.49	7066.08
452.68	7190.13
452.86	7162.04
453.05	7276.73
453.23	7365.67
453.42	7166.72
453.60	7293.11
453.78	7393.75
453.97	7192.47
454.15	7435.88
454.34	7541.21
454.52	7468.65
454.70	7410.14
454.89	7555.25
455.07	7503.76
455.26	7534.18
455.44	7730.79
455.62	7564.61
455.81	7693.34
455.99	7639.51
456.17	7737.81
456.36	7857.18
456.54	7932.08
456.73	7826.75
456.91	7819.73
457.09	8042.08
457.28	8191.88
457.46	8088.89
457.64	8166.13
457.83	8070.17
458.01	7887.61
458.19	8287.84
458.38	8028.04
458.56	8222.30
458.74	8234.00
458.93	8271.45
459.11	8128.68
459.29	8269.11
459.48	8285.50
459.66	8285.50
459.84	8344.01
460.03	8318.26
460.21	8425.93
460.39	8528.91
460.57	8318.26
460.76	8664.66
460.94	8446.99
461.12	8587.43
461.31	8774.67
461.49	8479.76
461.67	8746.58
461.85	8730.20
462.04	8685.73
462.22	9160.86
462.40	8882.33
462.59	8744.24
462.77	8868.29
462.95	9057.87
463.13	8718.50
463.32	8889.35
463.50	9039.15
463.68	8917.44
463.86	9008.72
464.05	8774.67
464.23	8891.70
464.41	8945.53
464.59	8688.07
464.78	9085.96
464.96	9018.08
465.14	9128.09
465.32	9177.24
465.50	9327.03
465.69	9137.45
465.87	9177.24
466.05	9277.88
466.23	9261.50
466.41	9305.97
466.60	9130.43
466.78	9029.79
466.96	9163.20
467.14	9247.46
467.32	9249.80
467.51	9245.12
467.69	9069.58
467.87	9572.79
468.05	9453.42
468.23	9537.68
468.41	9474.49
468.60	9334.06
468.78	9383.21
468.96	9605.56
469.14	9696.84
469.32	9776.42
469.50	9444.06
469.69	9783.44
469.87	9907.49
470.05	9848.97
470.23	9760.03
470.41	9689.82
470.59	9792.80
470.77	10015.15
470.95	9898.13
471.14	10040.90
471.32	9844.29
471.50	10122.82
471.68	10289.00
471.86	10108.77
472.04	10160.27
472.22	10492.62
472.40	10277.29
472.58	10326.44
472.77	10520.71
472.95	10644.76
473.13	10953.71
473.31	10499.64
473.49	10548.79
473.67	10391.98
473.85	10719.65
474.03	10743.06
474.21	10796.89
474.39	11019.24
474.57	10874.13
474.75	11016.90
474.93	11187.76
475.12	11229.89
475.30	11190.10
475.48	11052.01
475.66	11176.06
475.84	11215.85
476.02	11300.11
476.20	11468.62
476.38	11641.82
476.56	11761.19
476.74	11744.81
476.92	11744.81
477.10	11988.22
477.28	12070.14
477.46	12044.40
477.64	12283.13
477.82	12091.21
478.00	12603.78
478.18	12475.06
478.36	12430.59
478.54	12582.72
478.72	12559.31
478.90	12685.70
479.08	12919.76
479.26	12999.34
479.44	13055.51
479.62	13282.54
479.80	13226.37
479.98	13429.99
480.16	13497.87
480.34	13673.41
480.52	13530.64
480.70	13549.36
480.88	13268.50
481.06	13980.02
481.24	13551.70
481.41	14256.20
481.59	14422.38
481.77	14143.86
481.95	14382.59
482.13	14665.80
482.31	14569.83
482.49	14764.10
482.67	14780.48
482.85	15185.40
483.03	15002.83
483.21	15321.15
483.39	15503.71
483.57	15220.50
483.74	15482.64
483.92	15461.58
484.10	15307.10
484.28	16032.67
484.46	15976.50
484.64	16327.58
484.82	15878.19
485.00	16077.14
485.18	16135.65
485.35	16283.11
485.53	16170.76
485.71	16023.31
485.89	16215.23
486.07	16402.47
486.25	16514.82
486.43	16910.37
486.61	16971.22
486.78	17064.85
486.96	17231.02
487.14	17436.99
487.32	17603.17
487.50	17809.14
487.68	17872.33
487.85	18321.71
488.03	18192.98
488.21	18380.23
488.39	18403.63
488.57	18340.44
488.75	18668.11
488.92	18918.55
489.10	18946.64
489.28	19351.55
489.46	19541.13
489.64	19583.26
489.81	19948.39
489.99	20311.17
490.17	20252.66
490.35	20510.11
490.53	20086.48
490.70	20252.66
490.88	20126.27
491.06	20650.55
491.24	20587.35
491.41	20540.54
491.59	20657.57
491.77	20945.45
491.95	20968.86
492.13	21413.56
492.30	21170.15
492.48	21488.46
492.66	21734.21
492.84	21556.33
493.01	21998.70
493.19	21905.07
493.37	22192.96
493.54	22160.19
493.72	22279.56
493.90	22403.61
494.08	22843.63
494.25	23058.96
494.43	22869.37
494.61	23669.84
494.79	23342.16
494.96	23262.58
495.14	23756.44
495.32	23506.00
495.49	23517.70
495.67	23688.56
495.85	23847.72
496.02	23983.47
496.20	23985.81
496.38	23826.65
496.55	24409.45
496.73	25020.33
496.91	24629.46
497.09	24772.23
497.26	24760.53
497.44	25020.33
497.62	25305.87
497.79	25193.53
497.97	25055.43
498.14	25235.66
498.32	25521.20
498.50	25472.05
498.67	25436.94
498.85	26108.68
499.03	25956.54
499.20	26080.59
499.38	26471.46
499.56	26136.76
499.73	26136.76
499.91	26281.88
500.08	26724.24
500.26	26230.38
500.44	26195.28
500.61	26789.77
500.79	26120.38
500.97	26768.71
501.14	26834.24
501.32	27164.26
501.49	27035.53
501.67	26609.55
501.84	26953.61
502.02	27323.41
502.20	27660.45
502.37	27646.41
502.55	27838.33
502.72	27946.00
502.90	27707.26
503.07	27840.67
503.25	28002.17
503.43	27999.83
503.60	27976.42
503.78	28133.24
503.95	28133.24
504.13	28140.26
504.30	28439.85
504.48	28437.51
504.65	29003.92
504.83	28940.72
505.01	28975.83
505.18	28758.16
505.36	29200.52
505.53	29605.44
505.71	29626.50
505.88	29324.57
506.06	29167.76
506.23	29355.00
506.41	29355.00
506.58	29261.38
506.76	29675.65
506.93	30118.01
507.11	29315.21
507.28	29860.55
507.46	29537.56
507.63	30071.20
507.81	29979.92
507.98	30066.52
508.16	30223.34
508.33	30532.29
508.50	29886.30
508.68	30815.49
508.85	30696.13
509.03	31079.97
509.20	30834.22
509.38	31168.91
509.55	31070.61
509.73	31136.15
509.90	31215.72
510.08	31023.80
510.25	31421.69
510.42	31180.62
510.60	31133.81
510.77	31332.75
510.95	31662.77
511.12	31821.92
511.30	31665.11
511.47	32219.81
511.64	32180.03
511.82	32144.92
511.99	31955.33
512.17	31997.46
512.34	32240.88
512.51	32339.18
512.69	32549.83
512.86	32369.61
513.04	32690.26
513.21	32545.15
513.38	32687.92
513.56	32329.82
513.73	32730.05
513.90	33186.46
514.08	33053.05
514.25	33195.82
514.43	32313.44
514.60	33062.41
514.77	33188.80
514.95	33591.37
515.12	33261.35
515.29	33385.40
515.47	34094.58
515.64	33890.96
515.81	33619.46
515.99	33631.16
516.16	33427.53
516.33	33263.69
516.51	33600.73
516.68	33097.52
516.85	32783.88
517.03	33308.16
517.20	33401.79
517.37	33612.43
517.54	34239.70
517.72	33872.23
517.89	33755.21
518.06	34122.67
518.24	33736.48
518.41	33802.02
518.58	34267.78
518.75	34249.06
518.93	34745.25
519.10	34625.89
519.27	34604.82
519.45	35056.54
519.62	34958.24
519.79	35468.48
519.96	35061.22
520.14	35061.22
520.31	35023.78
520.48	35072.93
520.65	35250.81
520.83	35342.09
521.00	35590.19
521.17	35920.20
521.34	35765.73
521.52	35737.64
521.69	35992.76
521.86	36086.38
522.03	35744.66
522.20	35959.99
522.38	36196.38
522.55	35924.88
522.72	35704.87
522.89	36151.91
523.07	36449.16
523.24	36285.33
523.41	36659.81
523.58	36950.04
523.75	36917.27
523.92	36875.14
524.10	36964.08
524.27	37020.25
524.44	36690.24
524.61	37446.23
524.78	37380.70
524.96	37364.31
525.13	37165.37
525.30	37535.17
525.47	37298.78
525.64	37322.18
525.81	37450.91
525.98	37310.48
526.16	36769.82
526.33	37118.56
526.50	37127.92
526.67	36783.86
526.84	36837.69
527.01	36891.52
527.18	37500.06
527.36	37930.72
527.53	37717.73
527.70	38230.31
527.87	37865.19
528.04	37961.15
528.21	38298.19
528.38	37998.60
528.55	38312.23
528.72	38422.23
528.89	38401.17
529.07	38515.86
529.24	38167.12
529.41	38447.98
529.58	38218.61
529.75	38635.22
529.92	39000.35
530.09	38789.70
530.26	38719.48
530.43	39253.12
530.60	38918.43
530.77	39012.05
530.94	39152.48
531.11	38962.90
531.28	39035.45
531.46	39089.29
531.63	39208.65
531.80	38909.07
531.97	39201.63
532.14	38974.60
532.31	38660.97
532.48	39028.43
532.65	39489.52
532.82	38794.38
532.99	39515.26
533.16	39267.17
533.33	39725.91
533.50	40339.13
533.67	40058.27
533.84	40091.04
534.01	39803.15
534.18	39754.00
534.35	40301.68
534.52	39922.52
534.69	40294.66
534.86	40341.47
535.03	40161.25
535.20	40194.02
535.37	41031.93
535.54	40428.07
535.71	40559.14
535.88	40364.88
536.05	40374.24
536.22	40451.48
536.38	40648.08
536.55	40648.08
536.72	40196.36
536.89	40219.77
537.06	40612.98
537.23	41069.38
537.40	40825.96
537.57	41099.81
537.74	40563.82
537.91	41340.88
538.08	40966.40
538.25	40933.63
538.42	41144.28
538.59	41151.30
538.75	40662.13
538.92	41062.36
539.09	41141.94
539.26	40900.86
539.43	40940.65
539.60	40919.59
539.77	41048.32
539.94	40849.37
540.11	40741.71
540.28	41148.96
540.44	40952.35
540.61	41263.64
540.78	41057.68
540.95	41249.60
541.12	40994.48
541.29	41373.65
541.46	41670.90
541.62	41420.46
541.79	41799.63
541.96	41319.82
542.13	41610.04
542.30	41493.02
542.47	41876.86
542.63	41357.27
542.80	42059.43
542.97	42169.43
543.14	42021.98
543.31	42085.17
543.48	42326.25
543.64	42366.04
543.81	42415.19
543.98	42834.14
544.15	42499.45
544.32	42639.88
544.48	42997.98
544.65	42483.06
544.82	42534.56
544.99	42370.72
545.16	42330.93
545.32	42382.42
545.49	42808.40
545.66	42707.76
545.83	42859.89
546.00	42932.45
546.16	42768.61
546.33	42913.72
546.50	42763.93
546.67	43154.80
546.83	42389.44
547.00	43093.94
547.17	42469.02
547.34	43028.41
547.50	43082.24
547.67	43210.97
547.84	43543.33
548.00	43407.58
548.17	43730.57
548.34	43466.09
548.51	43536.30
548.67	43435.66
548.84	43711.84
549.01	43407.58
549.18	43339.70
549.34	43620.56
549.51	43477.79
549.68	43351.40
549.84	43615.88
550.01	43393.53
550.18	43325.66
550.34	43665.03
550.51	43573.75
550.68	43739.93
550.84	43239.06
551.01	43419.28
551.18	43782.06
551.34	43941.22
551.51	43896.75
551.68	43711.84
551.84	43938.88
552.01	43533.96
552.18	43674.40
552.34	43522.26
552.51	43997.39
552.68	43737.59
552.84	44018.46
553.01	44533.37
553.18	44023.14
553.34	44465.50
553.51	44004.41
553.67	44404.64
553.84	44542.74
554.01	44641.04
554.17	44280.60
554.34	44332.09
554.51	44201.02
554.67	44561.46
554.84	44563.80
555.00	44542.74
555.17	44268.89
555.33	44746.36
555.50	44414.01
555.67	44198.68
555.83	44252.51
556.00	44582.52
556.16	44818.92
556.33	44119.10
556.50	44495.92
556.66	45141.91
556.83	44587.21
556.99	44680.83
557.16	44470.18
557.32	44748.70
557.49	44280.60
557.65	44222.08
557.82	44636.36
557.98	45223.83
558.15	44788.49
558.32	45013.18
558.48	44718.28
558.65	44619.97
558.81	44453.79
558.98	44863.39
559.14	44891.48
559.31	44744.02
559.47	44318.04
559.64	44821.26
559.80	44959.35
559.97	44795.51
560.13	44671.46
560.30	44715.93
560.46	45158.30
560.63	44804.88
560.79	44952.33
560.96	45258.94
561.12	45144.25
561.29	45071.70
561.45	44694.87
561.61	45155.96
561.78	45081.06
561.94	44872.75
562.11	44694.87
562.27	44739.34
562.44	45111.49
562.60	45354.90
562.77	45272.98
562.93	44959.35
563.10	45277.66
563.26	44584.86
563.42	45642.79
563.59	45359.58
563.75	44968.71
563.92	45174.68
564.08	45275.32
564.24	45446.18
564.41	45111.49
564.57	45038.93
564.74	45006.16
564.90	45052.97
565.07	45146.59
565.23	45485.97
565.39	45392.35
565.56	45146.59
565.72	44825.94
565.88	45127.87
566.05	45055.31
566.21	45125.53
566.38	45151.27
566.54	45085.74
566.70	45654.49
566.87	45610.02
567.03	45146.59
567.19	45951.74
567.36	45591.30
567.52	45411.07
567.68	45876.84
567.85	45373.63
568.01	45652.15
568.17	45687.26
568.34	45539.80
568.50	45261.28
568.66	45017.86
568.83	45099.78
568.99	45265.96
569.15	45659.17
569.32	45130.21
569.48	45549.17
569.64	45797.26
569.81	45642.79
569.97	45846.41
570.13	45825.35
570.30	45088.08
570.46	45059.99
570.62	45081.06
570.78	45052.97
570.95	45223.83
571.11	45691.94
571.27	45305.75
571.43	45375.97
571.60	45998.55
571.76	45666.19
571.92	45691.94
572.09	45083.40
572.25	45837.05
572.41	45556.19
572.57	45865.14
572.74	45977.48
572.90	46066.42
573.06	45844.07
573.22	45715.34
573.38	45495.33
573.55	45502.35
573.71	46286.43
573.87	45872.16
574.03	45324.47
574.20	45956.42
574.36	45532.78
574.52	45420.44
574.68	45687.26
574.84	46190.47
575.01	45769.18
575.17	45642.79
575.33	45226.17
575.49	45209.79
575.65	45792.58
575.82	45537.46
575.98	45371.28
576.14	46024.29
576.30	45694.28
576.46	45820.67
576.62	45427.46
576.79	45928.33
576.95	45628.74
577.11	45666.19
577.27	45591.30
577.43	45663.85
577.59	45771.52
577.75	45244.90
577.92	45338.52
578.08	45242.56
578.24	45193.40
578.40	45270.64
578.56	45415.76
578.72	45240.21
578.88	45518.74
579.04	45895.56
579.21	45469.59
579.37	45497.67
579.53	45930.67
579.69	45528.10
579.85	45680.24
580.01	45560.87
580.17	45755.13
580.33	46080.47
580.49	45837.05
580.65	45696.62
580.82	45689.60
580.98	45708.32
581.14	45663.85
581.30	45827.69
581.46	45661.51
581.62	45937.69
581.78	45647.47
581.94	45921.31
582.10	45530.44
582.26	46005.57
582.42	46014.93
582.58	45357.24
582.74	45450.86
582.90	45535.12
583.06	45551.51
583.22	45942.38
583.38	45940.04
583.54	46080.47
583.70	46155.36
583.86	45865.14
584.02	45867.48
584.18	45895.56
584.34	45514.06
584.50	45680.24
584.66	45771.52
584.82	45890.88
584.98	45825.35
585.14	45778.54
585.30	45705.98
585.46	45345.54
585.62	45500.01
585.78	45621.72
585.94	45638.11
586.10	45385.33
586.26	45504.70
586.42	45846.41
586.58	45605.34
586.74	46054.72
586.90	45982.16
587.06	45680.24
587.22	46167.07
587.38	45631.08
587.54	45921.31
587.70	45853.44
587.86	45825.35
588.02	45801.94
588.18	45942.38
588.34	45265.96
588.49	45017.86
588.65	45027.23
588.81	45563.21
588.97	45029.57
589.13	45324.47
589.29	45331.50
589.45	45464.91
589.61	45532.78
589.77	46012.59
589.93	45397.03
590.08	45855.78
