SpectraSuite Data File
++++++++++++++++++++++++++++++++++++
Date: Fri Oct 25 10:47:38 EDT 2013
User: price-jones
Dark Spectrum Present: No
Reference Spectrum Present: No
Number of Sampled Component Spectra: 1
Spectrometers: USB2+H05261
Integration Time (usec): 100000 (USB2+H05261)
Spectra Averaged: 1 (USB2+H05261)
Boxcar Smoothing: 0 (USB2+H05261)
Correct for Electrical Dark: No (USB2+H05261)
Strobe/Lamp Enabled: No (USB2+H05261)
Correct for Detector Non-linearity: No (USB2+H05261)
Correct for Stray Light: No (USB2+H05261)
Number of Pixels in Processed Spectrum: 2048
>>>>>Begin Processed Spectral Data<<<<<
365.73	159.16
365.92	159.16
366.12	159.16
366.32	100.64
366.52	46.81
366.72	102.98
366.91	14.04
367.11	16.38
367.31	25.75
367.51	30.43
367.70	46.81
367.90	79.58
368.10	72.56
368.30	37.45
368.49	0.00
368.69	28.09
368.89	63.19
369.09	72.56
369.28	63.19
369.48	49.15
369.68	77.24
369.87	77.24
370.07	60.85
370.27	117.03
370.47	194.26
370.66	358.10
370.86	346.40
371.06	355.76
371.25	444.70
371.45	447.04
371.65	519.60
371.84	472.79
372.04	435.34
372.24	409.59
372.44	428.32
372.63	528.96
372.83	507.90
373.03	510.24
373.22	435.34
373.42	477.47
373.62	493.85
373.81	545.34
374.01	554.71
374.21	531.30
374.40	550.03
374.60	540.66
374.79	636.63
374.99	580.45
375.19	610.88
375.38	699.82
375.58	599.18
375.78	617.90
375.97	629.60
376.17	629.60
376.37	568.75
376.56	620.24
376.76	627.26
376.95	608.54
377.15	615.56
377.35	676.41
377.54	610.88
377.74	601.52
377.93	627.26
378.13	624.92
378.33	648.33
378.52	587.47
378.72	575.77
378.91	592.16
379.11	627.26
379.31	617.90
379.50	587.47
379.70	709.18
379.89	739.61
380.09	697.48
380.28	692.80
380.48	648.33
380.68	657.69
380.87	606.20
381.07	723.23
381.26	688.12
381.46	697.48
381.65	795.78
381.85	716.20
382.04	709.18
382.24	730.25
382.43	638.97
382.63	697.48
382.83	725.57
383.02	657.69
383.22	620.24
383.41	753.65
383.61	671.73
383.80	774.72
384.00	615.56
384.19	716.20
384.39	720.88
384.58	690.46
384.78	791.10
384.97	777.06
385.17	746.63
385.36	744.29
385.56	706.84
385.75	805.14
385.95	758.33
386.14	751.31
386.34	784.08
386.53	706.84
386.72	781.74
386.92	826.21
387.11	732.59
387.31	833.23
387.50	830.89
387.70	849.61
387.89	770.04
388.09	812.17
388.28	816.85
388.48	854.30
388.67	833.23
388.86	933.87
389.06	868.34
389.25	901.11
389.45	826.21
389.64	861.32
389.84	931.53
390.03	882.38
390.22	992.39
390.42	877.70
390.61	791.10
390.81	910.47
391.00	882.38
391.19	957.28
391.39	1001.75
391.58	971.32
391.78	940.90
391.97	1053.24
392.16	940.90
392.36	1006.43
392.55	1034.52
392.75	978.34
392.94	959.62
393.13	936.21
393.33	994.73
393.52	992.39
393.71	1029.84
393.91	1011.11
394.10	968.98
394.29	1100.05
394.49	938.55
394.68	1174.95
394.88	1167.93
395.07	1163.25
395.26	1156.22
395.46	1125.80
395.65	1149.20
395.84	1156.22
396.04	1160.91
396.23	1170.27
396.42	1130.48
396.62	1167.93
396.81	1123.46
397.00	1203.04
397.19	1217.08
397.39	1219.42
397.58	1259.21
397.77	1303.68
397.97	1303.68
398.16	1289.64
398.35	1301.34
398.55	1256.87
398.74	1329.42
398.93	1376.24
399.12	1364.53
399.32	1371.55
399.51	1327.08
399.70	1448.79
399.90	1291.98
400.09	1413.68
400.28	1371.55
400.47	1394.96
400.67	1458.15
400.86	1448.79
401.05	1502.62
401.24	1582.20
401.44	1502.62
401.63	1570.50
401.82	1507.30
402.01	1502.62
402.21	1570.50
402.40	1516.67
402.59	1511.99
402.78	1593.90
402.97	1673.48
403.17	1605.61
403.36	1610.29
403.55	1654.76
403.74	1591.56
403.93	1671.14
404.13	1682.85
404.32	1652.42
404.51	1643.06
404.70	1661.78
404.89	1659.44
405.09	1708.59
405.28	1771.79
405.47	1783.49
405.66	1820.94
405.85	1792.85
406.05	1823.28
406.24	1799.87
406.43	1839.66
406.62	1790.51
406.81	1895.83
407.00	1856.04
407.20	1746.04
407.39	1767.10
407.58	1968.39
407.77	1865.41
407.96	1961.37
408.15	2059.67
408.34	1956.69
408.54	2111.16
408.73	2101.80
408.92	1944.99
409.11	2134.57
409.30	2209.47
409.49	2050.31
409.68	2057.33
409.87	2005.84
410.07	2174.36
410.26	2179.04
410.45	2080.74
410.64	2172.02
410.83	2153.29
411.02	2310.11
411.21	2298.41
411.40	2321.81
411.59	2349.90
411.78	2244.57
411.98	2298.41
412.17	2431.82
412.36	2377.98
412.55	2392.03
412.74	2459.90
412.93	2415.43
413.12	2445.86
413.31	2513.74
413.50	2485.65
413.69	2534.80
413.88	2623.74
414.07	2539.48
414.26	2635.44
414.45	2722.04
414.64	2752.47
414.83	2675.23
415.02	2614.38
415.22	2834.39
415.41	2813.32
415.60	2703.32
415.79	2803.96
415.98	2860.13
416.17	2974.82
416.36	2988.86
416.55	2967.80
416.74	3075.46
416.93	2902.26
417.12	2986.52
417.31	2876.52
417.50	3042.70
417.69	3110.57
417.88	3089.51
418.07	3122.27
418.26	3159.72
418.45	3091.85
418.64	3265.05
418.83	3173.77
419.02	3190.15
419.21	3358.67
419.39	3269.73
419.58	3218.24
419.77	3213.56
419.96	3243.98
420.15	3363.35
420.34	3531.87
420.53	3391.44
420.72	3349.31
420.91	3393.78
421.10	3431.23
421.29	3438.25
421.48	3428.88
421.67	3581.02
421.86	3538.89
422.05	3447.61
422.24	3452.29
422.43	3440.59
422.61	3499.10
422.80	3653.58
422.99	3524.85
423.18	3435.91
423.37	3595.06
423.56	3515.48
423.75	3569.32
423.94	3489.74
424.13	3286.11
424.32	3538.89
424.50	3597.40
424.69	3625.49
424.88	3651.24
425.07	3632.51
425.26	3552.93
425.45	3665.28
425.64	3648.90
425.83	3548.25
426.01	3826.78
426.20	3749.54
426.39	3604.42
426.58	3695.71
426.77	3700.39
426.96	3599.74
427.15	3735.50
427.33	3728.47
427.52	3702.73
427.71	3784.65
427.90	3826.78
428.09	3784.65
428.28	3808.05
428.46	3822.09
428.65	3789.33
428.84	3857.20
429.03	3960.19
429.22	3749.54
429.40	3887.63
429.59	4011.68
429.78	3712.09
429.97	3660.60
430.16	3688.68
430.34	3889.97
430.53	3974.23
430.72	3859.54
430.91	3887.63
431.10	3981.25
431.28	4084.23
431.47	4372.12
431.66	4301.90
431.85	4203.60
432.03	4154.45
432.22	4311.27
432.41	4135.73
432.60	4358.08
432.79	4234.03
432.97	4344.03
433.16	4191.90
433.35	4257.43
433.54	4322.97
433.72	4245.73
433.91	4397.87
434.10	4447.02
434.28	4332.33
434.47	4358.08
434.66	4435.32
434.85	4669.37
435.03	4482.13
435.22	4606.17
435.41	4800.44
435.59	4692.77
435.78	4547.66
435.97	4596.81
436.16	4559.36
436.34	4753.63
436.53	4690.43
436.72	4737.24
436.90	4608.51
437.09	4718.52
437.28	4498.51
437.46	4765.33
437.65	4727.88
437.84	4887.04
438.02	4889.38
438.21	4781.71
438.40	4739.58
438.58	4919.81
438.77	4823.84
438.96	5022.79
439.14	5062.58
439.33	5125.77
439.52	5273.23
439.70	5217.05
439.89	5210.03
440.08	5203.01
440.26	5228.76
440.45	5163.22
440.63	5249.82
440.82	5458.13
441.01	5348.12
441.19	5430.04
441.38	5678.14
441.57	5565.79
441.75	5607.92
441.94	5652.39
442.12	5715.59
442.31	5774.10
442.50	5764.74
442.68	5795.17
442.87	5774.10
443.05	5785.80
443.24	5895.81
443.43	6008.16
443.61	5870.06
443.80	6057.31
443.98	5652.39
444.17	5706.23
444.35	5844.32
444.54	6001.13
444.73	6010.50
444.91	5909.85
445.10	5872.40
445.28	5870.06
445.47	5853.68
445.65	5961.34
445.84	5994.11
446.02	6033.90
446.21	6047.94
446.39	6106.46
446.58	6087.73
446.77	5905.17
446.95	5905.17
447.14	5914.53
447.32	6200.08
447.51	6106.46
447.69	6017.52
447.88	6017.52
448.06	6118.16
448.25	6148.59
448.43	6174.33
448.62	6298.38
448.80	6237.53
448.99	6244.55
449.17	6141.57
449.36	6040.92
449.54	6373.28
449.73	6384.98
449.91	6443.49
450.10	6382.64
450.28	6539.46
450.46	6581.59
450.65	6548.82
450.83	6429.45
451.02	6464.56
451.20	6555.84
451.39	6389.66
451.57	6473.92
451.76	6487.96
451.94	6572.22
452.13	6572.22
452.31	6553.50
452.49	6403.71
452.68	6668.19
452.86	6494.99
453.05	6661.16
453.23	6663.51
453.42	6555.84
453.60	6738.40
453.78	6736.06
453.97	6768.83
454.15	6738.40
454.34	6780.53
454.52	6860.11
454.70	6937.35
454.89	6862.45
455.07	6916.28
455.26	6867.13
455.44	6956.07
455.62	6796.92
455.81	6892.88
455.99	7054.37
456.17	7082.46
456.36	7084.80
456.54	7220.55
456.73	7297.79
456.91	7421.84
457.09	7419.50
457.28	7578.65
457.46	7307.15
457.64	7431.20
457.83	7332.90
458.01	7356.30
458.19	7679.30
458.38	7400.77
458.56	7620.78
458.74	7478.01
458.93	7412.48
459.11	7655.89
459.29	7557.59
459.48	7644.19
459.66	7592.70
459.84	7515.46
460.03	7929.74
460.21	7707.38
460.39	7669.94
460.57	7623.12
460.76	7833.77
460.94	7871.22
461.12	7826.75
461.31	7801.01
461.49	7779.94
461.67	7906.33
461.85	8098.25
462.04	8030.38
462.22	8557.00
462.40	8245.71
462.59	8112.30
462.77	7983.57
462.95	8086.55
463.13	8252.73
463.32	8252.73
463.50	8198.90
463.68	8236.35
463.86	8294.86
464.05	8304.22
464.23	8217.62
464.41	8294.86
464.59	8276.13
464.78	8458.70
464.96	8290.18
465.14	8390.82
465.32	8493.80
465.50	8620.19
465.69	8470.40
465.87	8358.05
466.05	8381.46
466.23	8486.78
466.41	8252.73
466.60	8482.10
466.78	8491.46
466.96	8362.73
467.14	8456.36
467.32	8849.57
467.51	8676.37
467.69	8358.05
467.87	8678.71
468.05	8713.81
468.23	8631.90
468.41	8496.14
468.60	8674.03
468.78	8758.28
468.96	8901.06
469.14	9102.34
469.32	8968.93
469.50	8674.03
469.69	9006.38
469.87	8975.95
470.05	8954.89
470.23	9006.38
470.41	9004.04
470.59	9092.98
470.77	9214.69
470.95	9188.94
471.14	9107.02
471.32	9294.27
471.50	9359.80
471.68	9224.05
471.86	9607.90
472.04	9577.47
472.22	9682.80
472.40	9514.28
472.58	9385.55
472.77	9476.83
472.95	9701.52
473.13	10024.51
473.31	9645.35
473.49	9839.61
473.67	9799.82
473.85	9757.69
474.03	10073.67
474.21	10019.83
474.39	10068.98
474.57	9970.68
474.75	10265.59
474.93	10340.49
475.12	10380.28
475.30	10452.83
475.48	10188.35
475.66	10326.44
475.84	10312.40
476.02	10436.45
476.20	10518.37
476.38	10799.23
476.56	10972.43
476.74	10775.83
476.92	10815.62
477.10	10993.50
477.28	11183.08
477.46	11063.71
477.64	11208.83
477.82	11335.21
478.00	11459.26
478.18	11386.71
478.36	11653.53
478.54	11758.85
478.72	11733.11
478.90	11934.39
479.08	12304.20
479.26	12248.02
479.44	12196.53
479.62	12278.45
479.80	12285.47
479.98	12313.56
480.16	12657.62
480.34	12180.15
480.52	12676.34
480.70	12671.66
480.88	12669.32
481.06	12793.37
481.24	12720.81
481.41	13069.55
481.59	13135.09
481.77	13240.41
481.95	13575.11
482.13	13638.30
482.31	13308.29
482.49	13703.84
482.67	13699.16
482.85	13907.46
483.03	14015.13
483.21	14384.93
483.39	14162.58
483.57	14099.39
483.74	14354.51
483.92	14630.69
484.10	14204.71
484.28	14497.28
484.46	14970.07
484.64	15274.34
484.82	14679.84
485.00	15035.60
485.18	15131.56
485.35	15264.97
485.53	15222.84
485.71	15325.83
485.89	15566.90
486.07	15597.33
486.25	15527.11
486.43	15749.46
486.61	15749.46
486.78	16161.40
486.96	16142.67
487.14	16327.58
487.32	16446.94
487.50	16435.24
487.68	16629.51
487.85	17090.59
488.03	16893.99
488.21	17233.36
488.39	16980.59
488.57	17174.85
488.75	17504.87
488.92	17961.27
489.10	17577.42
489.28	18019.78
489.46	18317.03
489.64	18167.24
489.81	18284.26
489.99	18857.70
490.17	18668.11
490.35	18707.90
490.53	19007.49
490.70	19253.25
490.88	19016.85
491.06	19536.45
491.24	19417.08
491.41	19328.14
491.59	19517.73
491.77	19494.32
491.95	19896.89
492.13	19896.89
492.30	19999.88
492.48	20180.10
492.66	20154.35
492.84	20479.69
493.01	20556.93
493.19	20276.06
493.37	20940.77
493.54	20779.28
493.72	20980.56
493.90	21135.04
494.08	21200.57
494.25	21385.47
494.43	21642.93
494.61	21935.50
494.79	21556.33
494.96	21652.30
495.14	21640.59
495.32	21951.88
495.49	21921.46
495.67	22340.41
495.85	22810.86
496.02	22331.05
496.20	22525.32
496.38	22593.19
496.55	23040.23
496.73	23452.17
496.91	22775.75
497.09	23323.44
497.26	23513.02
497.44	23269.61
497.62	23447.49
497.79	23274.29
497.97	23943.68
498.14	23859.42
498.32	23850.06
498.50	24203.48
498.67	24325.19
498.85	24013.90
499.03	24376.68
499.20	24421.15
499.38	24404.77
499.56	24634.14
499.73	24945.43
499.91	24746.48
500.08	24905.64
500.26	24648.18
500.44	25165.44
500.61	25055.43
500.79	24519.45
500.97	25149.06
501.14	25399.49
501.32	25528.22
501.49	25458.01
501.67	25584.40
501.84	25827.81
502.02	25809.09
502.20	26008.03
502.37	26319.32
502.55	26162.51
502.72	26314.64
502.90	25982.29
503.07	26345.07
503.25	26471.46
503.43	26340.39
503.60	26857.65
503.78	26923.18
503.95	26417.63
504.13	26504.23
504.30	27012.12
504.48	26841.26
504.65	26810.84
504.83	27204.05
505.01	27110.43
505.18	27292.99
505.36	27351.50
505.53	27342.14
505.71	27608.96
505.88	27566.83
506.06	27578.53
506.23	27957.70
506.41	27695.56
506.58	27796.20
506.76	27943.66
506.93	28109.83
507.11	28156.64
507.28	28240.90
507.46	28346.23
507.63	28128.56
507.81	28711.35
507.98	28711.35
508.16	28664.54
508.33	28811.99
508.50	28533.47
508.68	28737.10
508.85	29151.37
509.03	28655.18
509.20	29113.92
509.38	29088.18
509.55	29734.17
509.73	29439.26
509.90	29411.17
510.08	29055.41
510.25	29685.01
510.42	29743.53
510.60	29600.76
510.77	29745.87
510.95	29993.97
511.12	30424.62
511.30	30260.79
511.47	30265.47
511.64	30134.40
511.82	30167.16
511.99	30436.33
512.17	30284.19
512.34	30654.00
512.51	30829.54
512.69	30609.53
512.86	30565.06
513.04	31307.01
513.21	30686.76
513.38	31274.24
513.56	31009.76
513.73	30602.50
513.90	31414.67
514.08	31180.62
514.25	31129.12
514.43	31061.25
514.60	31358.50
514.77	31442.76
514.95	31702.56
515.12	31866.39
515.29	31412.33
515.47	31859.37
515.64	31908.52
515.81	31683.83
515.99	32198.75
516.16	32121.51
516.33	31974.06
516.51	32048.96
516.68	31978.74
516.85	31775.11
517.03	32060.66
517.20	32126.19
517.37	32320.46
517.54	32788.56
517.72	32245.56
517.89	32573.24
518.06	32739.41
518.24	32418.76
518.41	32620.05
518.58	32659.84
518.75	32889.21
518.93	33010.92
519.10	33041.34
519.27	33387.74
519.45	32973.47
519.62	33198.16
519.79	33516.47
519.96	33521.15
520.14	33909.68
520.31	33366.68
520.48	33802.02
520.65	33790.31
520.83	34136.71
521.00	34012.66
521.17	34099.26
521.34	34204.59
521.52	34110.97
521.69	34588.44
521.86	34171.82
522.03	34232.68
522.20	34022.03
522.38	34616.52
522.55	34787.38
522.72	34649.29
522.89	34520.56
523.07	34506.52
523.24	34506.52
523.41	34885.68
523.58	34597.80
523.75	35110.38
523.92	34866.96
524.10	35466.14
524.27	35365.49
524.44	35068.25
524.61	35255.49
524.78	35526.99
524.96	35498.91
525.13	35637.00
525.30	35845.30
525.47	35786.79
525.64	35454.44
525.81	35758.70
525.98	35505.93
526.16	35428.69
526.33	35365.49
526.50	35948.29
526.67	35800.83
526.84	35634.66
527.01	35463.80
527.18	36055.95
527.36	36215.11
527.53	36062.97
527.70	36444.48
527.87	36545.12
528.04	36203.41
528.21	36694.92
528.38	36378.95
528.55	36549.81
528.72	37179.41
528.89	36690.24
529.07	37006.21
529.24	36315.75
529.41	36769.82
529.58	36629.38
529.75	36655.13
529.92	37205.16
530.09	37589.00
530.26	37191.11
530.43	37713.05
530.60	36980.46
530.77	37022.59
530.94	37481.34
531.11	37186.43
531.28	37329.20
531.46	37455.59
531.63	37886.25
531.80	37366.65
531.97	37560.92
532.14	37752.84
532.31	37284.73
532.48	38005.62
532.65	37591.34
532.82	38150.73
532.99	37860.51
533.16	37589.00
533.33	37720.07
533.50	38382.45
533.67	38253.72
533.84	38136.69
534.01	38410.53
534.18	38204.56
534.35	38780.34
534.52	38373.08
534.69	38375.42
534.86	38651.61
535.03	38000.94
535.20	38691.40
535.37	38712.46
535.54	38892.68
535.71	38850.55
535.88	39227.38
536.05	38621.18
536.22	39416.96
536.38	38878.64
536.55	39007.37
536.72	38665.65
536.89	38553.30
537.06	39178.23
537.23	39152.48
537.40	39295.25
537.57	39185.25
537.74	39030.77
537.91	39110.35
538.08	39117.37
538.25	39042.48
538.42	39157.16
538.59	39882.73
538.75	39468.45
538.92	39302.28
539.09	39627.61
539.26	39957.63
539.43	39615.91
539.60	39833.58
539.77	39103.33
539.94	39915.50
540.11	39541.01
540.28	39372.49
540.44	39868.69
540.61	39789.11
540.78	39819.53
540.95	39793.79
541.12	39981.03
541.29	40187.00
541.46	39585.48
541.62	40112.10
541.79	40023.16
541.96	39966.99
542.13	40374.24
542.30	40421.05
542.47	40264.24
542.63	40306.37
542.80	40243.17
542.97	40720.64
543.14	41275.35
543.31	40582.55
543.48	40933.63
543.64	40875.12
543.81	41296.41
543.98	41060.02
544.15	40877.46
544.32	41085.76
544.48	41303.43
544.65	40840.01
544.82	41069.38
544.99	40828.30
545.16	41483.66
545.32	40893.84
545.49	41670.90
545.66	41476.63
545.83	41577.28
546.00	41371.31
546.16	41352.58
546.33	41385.35
546.50	40914.90
546.67	41406.42
546.83	41223.86
547.00	41642.81
547.17	41226.20
547.34	41193.43
547.50	41752.82
547.67	41724.73
547.84	41937.72
548.00	41998.57
548.17	42141.35
548.34	41780.90
548.51	41794.95
548.67	41944.74
548.84	41998.57
549.01	41853.46
549.18	41876.86
549.34	41703.67
549.51	42071.13
549.68	42445.62
549.84	41869.84
550.01	42209.22
550.18	42094.53
550.34	42501.79
550.51	42089.85
550.68	42288.80
550.84	42124.96
551.01	42394.12
551.18	42216.24
551.34	42497.11
551.51	42061.77
551.68	42277.10
551.84	42405.83
552.01	42572.00
552.18	42780.31
552.34	42445.62
552.51	42515.83
552.68	42944.15
552.84	43161.82
553.01	42899.68
553.18	42295.82
553.34	42906.70
553.51	42653.92
553.67	42820.10
553.84	43255.44
554.01	43346.72
554.17	43306.93
554.34	43473.11
554.51	43285.87
554.67	43222.67
554.84	42958.19
555.00	43227.35
555.17	43311.61
555.33	43367.79
555.50	42740.52
555.67	43234.38
555.83	43070.54
556.00	43316.29
556.16	43346.72
556.33	43072.88
556.50	43290.55
556.66	43501.20
556.83	43363.11
556.99	43672.06
557.16	43723.55
557.32	43636.95
557.49	43335.02
557.65	43381.83
557.82	43119.69
557.98	43014.37
558.15	43571.41
558.32	43700.14
558.48	43650.99
558.65	43772.70
558.81	43704.82
558.98	43690.78
559.14	43466.09
559.31	43800.79
559.47	43737.59
559.64	43934.20
559.80	43842.92
559.97	43643.97
560.13	43753.97
560.30	44119.10
560.46	43559.71
560.63	43845.26
560.79	43929.51
560.96	44081.65
561.12	43983.35
561.29	44074.63
561.45	44282.94
561.61	44123.78
561.78	43475.45
561.94	43775.04
562.11	44308.68
562.27	43840.57
562.44	43924.83
562.60	44179.95
562.77	44175.27
562.93	44304.00
563.10	44149.53
563.26	43871.00
563.42	44502.95
563.59	44004.41
563.75	44051.22
563.92	44442.09
564.08	44685.51
564.24	44383.58
564.41	44435.07
564.57	44215.06
564.74	44538.05
564.90	44315.70
565.07	44509.97
565.23	43976.33
565.39	43782.06
565.56	44505.29
565.72	43927.17
565.88	44301.66
566.05	44175.27
566.21	44168.25
566.38	44292.30
566.54	44215.06
566.70	44734.66
566.87	44568.48
567.03	44580.18
567.19	44706.57
567.36	44472.52
567.52	44432.73
567.68	44800.19
567.85	44369.54
568.01	44404.64
568.17	44229.10
568.34	44121.44
568.50	44634.02
568.66	44720.62
568.83	44556.78
568.99	44472.52
569.15	44299.32
569.32	44453.79
569.48	44456.14
569.64	44985.10
569.81	44720.62
569.97	44465.50
570.13	45006.16
570.30	44140.16
570.46	44313.36
570.62	44350.81
570.78	44313.36
570.95	44378.90
571.11	44533.37
571.27	44526.35
571.43	44437.41
571.60	44891.48
571.76	44641.04
571.92	44563.80
572.09	44741.68
572.25	44460.82
572.41	44636.36
572.57	44793.17
572.74	45301.07
572.90	44720.62
573.06	44650.40
573.22	44847.00
573.38	44671.46
573.55	44421.03
573.71	44697.21
573.87	44804.88
574.03	44514.65
574.20	44751.04
574.36	44641.04
574.52	45074.04
574.68	45048.29
574.84	45017.86
575.01	44664.44
575.17	44683.17
575.33	44491.24
575.49	44561.46
575.65	45132.55
575.82	45429.80
575.98	44910.20
576.14	45595.98
576.30	44680.83
576.46	44832.96
576.62	44554.44
576.79	44624.65
576.95	44811.90
577.11	45015.52
577.27	44615.29
577.43	45069.36
577.59	44463.16
577.75	45055.31
577.92	44828.28
578.08	44589.55
578.24	44626.99
578.40	44776.79
578.56	44823.60
578.72	44971.05
578.88	45104.46
579.04	45055.31
579.21	44839.98
579.37	44807.22
579.53	44727.64
579.69	44374.22
579.85	44790.83
580.01	45045.95
580.17	45034.25
580.33	44910.20
580.49	44971.05
580.65	44744.02
580.82	44966.37
580.98	44905.52
581.14	44582.52
581.30	44849.35
581.46	45048.29
581.62	45074.04
581.78	44882.11
581.94	45373.63
582.10	45275.32
582.26	45034.25
582.42	44774.45
582.58	45160.64
582.74	44720.62
582.90	45317.45
583.06	44933.60
583.22	45109.14
583.38	45326.81
583.54	44720.62
583.70	45354.90
583.86	45020.20
584.02	44751.04
584.18	44835.30
584.34	45500.01
584.50	45357.24
584.66	44725.30
584.82	44531.03
584.98	45343.20
585.14	44842.32
585.30	45170.00
585.46	44666.78
585.62	44512.31
585.78	44982.76
585.94	44800.19
586.10	44748.70
586.26	44697.21
586.42	44952.33
586.58	44662.10
586.74	45167.66
586.90	45331.50
587.06	44535.71
587.22	45354.90
587.38	44526.35
587.54	45226.17
587.70	45572.57
587.86	45219.15
588.02	44942.97
588.18	45324.47
588.34	44818.92
588.49	44488.90
588.65	44493.58
588.81	44671.46
588.97	45268.30
589.13	44439.75
589.29	44987.44
589.45	45076.38
589.61	45048.29
589.77	45226.17
589.93	45139.57
590.08	45600.66
590.24	45539.80
