SpectraSuite Data File
++++++++++++++++++++++++++++++++++++
Date: Fri Oct 25 11:23:20 EDT 2013
User: price-jones
Dark Spectrum Present: No
Reference Spectrum Present: No
Number of Sampled Component Spectra: 1
Spectrometers: USB2+H05261
Integration Time (usec): 100000 (USB2+H05261)
Spectra Averaged: 1 (USB2+H05261)
Boxcar Smoothing: 0 (USB2+H05261)
Correct for Electrical Dark: No (USB2+H05261)
Strobe/Lamp Enabled: No (USB2+H05261)
Correct for Detector Non-linearity: No (USB2+H05261)
Correct for Stray Light: No (USB2+H05261)
Number of Pixels in Processed Spectrum: 2048
>>>>>Begin Processed Spectral Data<<<<<
365.73	231.71
365.92	231.71
366.12	231.71
366.32	154.48
366.52	133.41
366.72	105.32
366.91	121.71
367.11	95.96
367.31	142.77
367.51	198.95
367.70	79.58
367.90	102.98
368.10	135.75
368.30	128.73
368.49	117.03
368.69	56.17
368.89	135.75
369.09	154.48
369.28	145.11
369.48	159.16
369.68	154.48
369.87	152.13
370.07	163.84
370.27	224.69
370.47	273.84
370.66	599.18
370.86	683.44
371.06	676.41
371.25	678.76
371.45	660.03
371.65	678.76
371.84	744.29
372.04	699.82
372.24	697.48
372.44	763.01
372.63	772.38
372.83	767.70
373.03	741.95
373.22	758.33
373.42	777.06
373.62	800.46
373.81	823.87
374.01	819.19
374.21	763.01
374.40	809.83
374.60	849.61
374.79	868.34
374.99	791.10
375.19	770.04
375.38	798.12
375.58	894.08
375.78	819.19
375.97	889.40
376.17	938.55
376.37	833.23
376.56	875.36
376.76	877.70
376.95	882.38
377.15	896.43
377.35	933.87
377.54	837.91
377.74	842.59
377.93	945.58
378.13	931.53
378.33	891.74
378.52	990.05
378.72	952.60
378.91	877.70
379.11	985.37
379.31	959.62
379.50	866.00
379.70	964.30
379.89	926.85
380.09	922.17
380.28	1034.52
380.48	1001.75
380.68	999.41
380.87	933.87
381.07	1062.60
381.26	985.37
381.46	943.24
381.65	1053.24
381.85	1064.94
382.04	1022.81
382.24	1050.90
382.43	1039.20
382.63	966.64
382.83	1104.73
383.02	1104.73
383.22	1029.84
383.41	1167.93
383.61	1078.99
383.80	1144.52
384.00	1107.07
384.19	1093.03
384.39	1191.33
384.58	1123.46
384.78	1114.10
384.97	1228.78
385.17	1170.27
385.36	1149.20
385.56	1301.34
385.75	1100.05
385.95	1219.42
386.14	1221.76
386.34	1191.33
386.53	1259.21
386.72	1181.97
386.92	1313.04
387.11	1233.46
387.31	1369.21
387.50	1320.06
387.70	1343.47
387.89	1188.99
388.09	1378.58
388.28	1240.48
388.48	1301.34
388.67	1331.76
388.86	1401.98
389.06	1308.36
389.25	1310.70
389.45	1341.13
389.64	1378.58
389.84	1460.49
390.03	1425.39
390.22	1371.55
390.42	1387.94
390.61	1320.06
390.81	1437.09
391.00	1469.86
391.19	1563.48
391.39	1465.18
391.58	1469.86
391.78	1495.60
391.97	1432.41
392.16	1458.15
392.36	1502.62
392.55	1519.01
392.75	1500.28
392.94	1547.09
393.13	1589.22
393.33	1486.24
393.52	1479.22
393.71	1577.52
393.91	1633.69
394.10	1556.46
394.29	1577.52
394.49	1619.65
394.68	1671.14
394.88	1600.93
395.07	1668.80
395.26	1724.97
395.46	1680.50
395.65	1750.72
395.84	1776.47
396.04	1757.74
396.23	1811.57
396.42	1692.21
396.62	1732.00
396.81	1844.34
397.00	1809.23
397.19	1776.47
397.39	1865.41
397.58	1872.43
397.77	1806.89
397.97	1870.09
398.16	1870.09
398.35	1959.03
398.55	1853.70
398.74	1879.45
398.93	2038.61
399.12	1909.88
399.32	1895.83
399.51	1898.17
399.70	1949.67
399.90	2045.63
400.09	1919.24
400.28	2038.61
400.47	1966.05
400.67	2216.49
400.86	1959.03
401.05	2104.14
401.24	2246.91
401.44	2134.57
401.63	2115.84
401.82	2296.07
402.01	2054.99
402.21	2221.17
402.40	2136.91
402.59	2186.06
402.78	2356.92
402.97	2356.92
403.17	2167.34
403.36	2223.51
403.55	2312.45
403.74	2335.85
403.93	2392.03
404.13	2310.11
404.32	2338.20
404.51	2499.69
404.70	2490.33
404.89	2548.84
405.09	2567.57
405.28	2595.65
405.47	2572.25
405.66	2523.10
405.85	2471.61
406.05	2555.86
406.24	2567.57
406.43	2670.55
406.62	2642.46
406.81	2663.53
407.00	2576.93
407.20	2527.78
407.39	2724.38
407.58	2818.00
407.77	2726.72
407.96	2724.38
408.15	2693.96
408.34	2773.53
408.54	2848.43
408.73	2825.03
408.92	2815.66
409.11	2888.22
409.30	2888.22
409.49	2949.08
409.68	2808.64
409.87	2944.39
410.07	3089.51
410.26	2981.84
410.45	3021.63
410.64	2974.82
410.83	3110.57
411.02	3098.87
411.21	3119.93
411.40	3052.06
411.59	3180.79
411.78	3211.22
411.98	3222.92
412.17	3363.35
412.36	3339.94
412.55	3274.41
412.74	3461.65
412.93	3382.07
413.12	3414.84
413.31	3609.11
413.50	3527.19
413.69	3569.32
413.88	3590.38
414.07	3688.68
414.26	3578.68
414.45	3566.98
414.64	3695.71
414.83	3700.39
415.02	3721.45
415.22	3878.27
415.41	3880.61
415.60	3929.76
415.79	3892.31
415.98	3983.59
416.17	3985.93
416.36	4124.02
416.55	3990.61
416.74	4100.62
416.93	4140.41
417.12	4037.42
417.31	4161.47
417.50	4166.15
417.69	4421.27
417.88	4346.37
418.07	4224.67
418.26	4344.03
418.45	4416.59
418.64	4535.96
418.83	4393.19
419.02	4454.04
419.21	4772.35
419.39	4575.75
419.58	4559.36
419.77	4564.04
419.96	4517.23
420.15	4730.22
420.34	4564.04
420.53	4751.29
420.72	4784.06
420.91	4758.31
421.10	4730.22
421.29	4844.91
421.48	4814.48
421.67	4697.46
421.86	4802.78
422.05	4821.50
422.24	4814.48
422.43	4873.00
422.61	5001.72
422.80	4931.51
422.99	4919.81
423.18	4887.04
423.37	5149.18
423.56	5060.24
423.75	4957.25
423.94	4842.57
424.13	4730.22
424.32	4587.45
424.50	5043.85
424.69	5067.26
424.88	5107.05
425.07	5067.26
425.26	4933.85
425.45	5193.65
425.64	4863.63
425.83	4936.19
426.01	5177.26
426.20	5275.57
426.39	5130.45
426.58	5060.24
426.77	5071.94
426.96	5174.92
427.15	5022.79
427.33	5181.95
427.52	5242.80
427.71	5301.31
427.90	5282.59
428.09	5303.65
428.28	5296.63
428.46	5486.22
428.65	5537.71
428.84	5624.31
429.03	5743.67
429.22	5378.55
429.40	5523.66
429.59	5465.15
429.78	5343.44
429.97	5320.04
430.16	5607.92
430.34	5621.97
430.53	5654.73
430.72	5769.42
430.91	5647.71
431.10	5568.13
431.28	5905.17
431.47	5921.56
431.66	5951.98
431.85	5935.60
432.03	5900.49
432.22	5949.64
432.41	6029.22
432.60	6015.18
432.79	5998.79
432.97	6291.36
433.16	6054.97
433.35	6083.05
433.54	6164.97
433.72	6274.98
433.91	6279.66
434.10	6270.30
434.28	5933.26
434.47	6136.88
434.66	6368.60
434.85	6509.03
435.03	6469.24
435.22	6455.20
435.41	6569.88
435.59	6422.43
435.78	6403.71
435.97	6469.24
436.16	6595.63
436.34	6576.91
436.53	6717.34
436.72	6684.57
436.90	6438.81
437.09	6726.70
437.28	6497.33
437.46	6752.45
437.65	6801.60
437.84	6977.14
438.02	6782.87
438.21	6822.66
438.40	6871.81
438.58	7155.02
438.77	7150.34
438.96	7082.46
439.14	6991.18
439.33	7157.36
439.52	7321.20
439.70	7159.70
439.89	7325.88
440.08	7403.11
440.26	7520.14
440.45	7279.07
440.63	7581.00
440.82	7808.03
441.01	7674.62
441.19	7803.35
441.38	7960.16
441.57	7889.95
441.75	7925.05
441.94	8013.99
442.12	7960.16
442.31	8170.81
442.50	8042.08
442.68	8131.02
442.87	8205.92
443.05	8393.16
443.24	8262.09
443.43	8334.65
443.61	8177.83
443.80	8528.91
443.98	8229.32
444.17	8058.46
444.35	8348.69
444.54	8435.29
444.73	8329.97
444.91	8360.39
445.10	8423.59
445.28	8379.12
445.47	8393.16
445.65	8526.57
445.84	8491.46
446.02	8655.30
446.21	8596.79
446.39	8332.31
446.58	8617.85
446.77	8678.71
446.95	8510.19
447.14	8526.57
447.32	8676.37
447.51	8554.66
447.69	8671.68
447.88	8585.08
448.06	8617.85
448.25	8575.72
448.43	8554.66
448.62	8655.30
448.80	8634.24
448.99	8699.77
449.17	8725.52
449.36	8828.50
449.54	8901.06
449.73	9123.41
449.91	9074.26
450.10	9085.96
450.28	9078.94
450.46	9109.36
450.65	9132.77
450.83	9032.13
451.02	9219.37
451.20	9394.91
451.39	9200.65
451.57	9188.94
451.76	9254.48
451.94	9511.94
452.13	9357.46
452.31	9369.16
452.49	9167.88
452.68	9444.06
452.86	9514.28
453.05	9507.26
453.23	9563.43
453.42	9312.99
453.60	9509.60
453.78	9879.40
453.97	9556.41
454.15	9764.72
454.34	9561.09
454.52	9788.12
454.70	9872.38
454.89	9870.04
455.07	9884.08
455.26	9865.36
455.44	10178.99
455.62	10038.56
455.81	10148.56
455.99	9987.07
456.17	9966.00
456.36	10221.12
456.54	10289.00
456.73	10462.19
456.91	10574.54
457.09	10483.26
457.28	10824.98
457.46	10413.04
457.64	10670.50
457.83	10614.33
458.01	10576.88
458.19	10768.80
458.38	10621.35
458.56	11229.89
458.74	10726.68
458.93	10876.47
459.11	11143.29
459.29	10864.77
459.48	10956.05
459.66	10843.70
459.84	10967.75
460.03	11194.78
460.21	11316.49
460.39	11180.74
460.57	11274.36
460.76	11506.07
460.94	11286.06
461.12	11379.68
461.31	11480.33
461.49	11234.57
461.67	11419.47
461.85	11613.74
462.04	11456.92
462.22	11641.82
462.40	11929.71
462.59	11768.21
462.77	11543.52
462.95	11775.24
463.13	11742.47
463.32	11859.49
463.50	11875.88
463.68	12013.97
463.86	11910.99
464.05	11737.79
464.23	11679.27
464.41	12128.66
464.59	11810.34
464.78	12180.15
464.96	12273.77
465.14	12264.41
465.32	12217.60
465.50	12407.18
465.69	12283.13
465.87	12208.23
466.05	12308.88
466.23	12458.67
466.41	12339.30
466.60	12741.88
466.78	12369.73
466.96	12322.92
467.14	12388.46
467.32	12526.55
467.51	12854.22
467.69	12388.46
467.87	12676.34
468.05	12688.04
468.23	12528.89
468.41	12711.45
468.60	12765.28
468.78	13149.13
468.96	12823.80
469.14	12959.55
469.32	13268.50
469.50	13001.68
469.69	13083.59
469.87	13195.94
470.05	13364.46
470.23	13322.33
470.41	13563.40
470.59	13373.82
470.77	13219.35
470.95	13406.59
471.14	13729.58
471.32	13373.82
471.50	13645.32
471.68	13685.11
471.86	13596.17
472.04	13942.57
472.22	14066.62
472.40	13965.98
472.58	13958.96
472.77	14143.86
472.95	14146.20
473.13	14897.51
473.31	14160.24
473.49	14572.18
473.67	14450.47
473.85	14518.34
474.03	14637.71
474.21	14881.13
474.39	14853.04
474.57	15035.60
474.75	15197.10
474.93	15264.97
475.12	15169.01
475.30	15508.39
475.48	15059.01
475.66	15073.05
475.84	15173.69
476.02	15611.37
476.20	15623.08
476.38	15721.38
476.56	16208.21
476.74	16219.91
476.92	16159.06
477.10	16027.99
477.28	16184.80
477.46	16442.26
477.64	16762.92
477.82	16673.98
478.00	17275.49
478.18	16926.75
478.36	17207.62
478.54	17486.14
478.72	17256.77
478.90	17680.41
479.08	17848.93
479.26	17905.10
479.44	17916.80
479.62	18127.45
479.80	17972.97
479.98	18504.28
480.16	18635.35
480.34	18518.32
480.52	18895.14
480.70	18925.57
480.88	18750.03
481.06	19054.30
481.24	19236.86
481.41	19414.74
481.59	19475.60
481.77	19826.68
481.95	19414.74
482.13	19955.41
482.31	19768.16
482.49	20397.77
482.67	20507.77
482.85	20762.89
483.03	20636.50
483.21	20884.60
483.39	21223.98
483.57	21074.18
483.74	21532.93
483.92	21631.23
484.10	21467.39
484.28	22235.09
484.46	22162.53
484.64	22387.22
484.82	22221.05
485.00	22663.41
485.18	22948.95
485.35	23283.65
485.53	23049.60
485.71	22860.01
485.89	23601.96
486.07	23644.09
486.25	24084.11
486.43	23791.55
486.61	24053.69
486.78	24460.94
486.96	24535.84
487.14	24587.33
487.32	25010.96
487.50	25429.92
487.68	25294.17
487.85	25504.82
488.03	25846.54
488.21	26277.19
488.39	26057.18
488.57	26211.66
488.75	26532.31
488.92	26656.36
489.10	26988.72
489.28	26986.38
489.46	27615.98
489.64	27515.34
489.81	28058.34
489.99	28191.75
490.17	28264.31
490.35	28395.38
490.53	28645.82
490.70	28669.22
490.88	28414.10
491.06	29036.69
491.24	29153.71
491.41	29146.69
491.59	29720.12
491.77	29724.80
491.95	30169.51
492.13	30192.91
492.30	30511.22
492.48	30511.22
492.66	30462.07
492.84	31028.48
493.01	30890.39
493.19	30822.51
493.37	31314.03
493.54	31260.20
493.72	31800.86
493.90	31477.86
494.08	31878.10
494.25	32498.34
494.43	32165.98
494.61	32568.55
494.79	32732.39
494.96	32884.53
495.14	32900.91
495.32	33486.04
495.49	33446.26
495.67	33703.71
495.85	33785.63
496.02	34267.78
496.20	34583.76
496.38	34497.16
496.55	34534.60
496.73	35398.26
496.91	34934.84
497.09	35072.93
497.26	35372.52
497.44	35388.90
497.62	35627.63
497.79	35938.93
497.97	35997.44
498.14	36528.74
498.32	36851.73
498.50	36711.30
498.67	36671.51
498.85	37219.20
499.03	37308.14
499.20	37244.94
499.38	37331.54
499.56	37361.97
499.73	37624.11
499.91	37879.23
500.08	38345.00
500.26	37876.89
500.44	38089.88
500.61	37972.85
500.79	38000.94
500.97	38593.09
501.14	39014.39
501.32	38895.02
501.49	38553.30
501.67	38710.12
501.84	39555.05
502.02	39456.75
502.20	39491.86
502.37	39110.35
502.55	39360.79
502.72	39768.04
502.90	39988.05
503.07	39454.41
503.25	40140.19
503.43	40086.36
503.60	40587.23
503.78	40779.15
503.95	40776.81
504.13	41020.23
504.30	40935.97
504.48	40961.72
504.65	41317.48
504.83	41340.88
505.01	41818.35
505.18	41148.96
505.36	42127.30
505.53	42014.96
505.71	41874.52
505.88	42284.12
506.06	41539.83
506.23	42466.68
506.41	42382.42
506.58	42497.11
506.76	42581.37
506.93	43227.35
507.11	42529.87
507.28	43093.94
507.46	42834.14
507.63	43344.38
507.81	43761.00
507.98	43489.49
508.16	43468.43
508.33	44030.16
508.50	44236.12
508.68	44343.79
508.85	44542.74
509.03	44353.15
509.20	44844.66
509.38	45015.52
509.55	44875.09
509.73	44947.65
509.90	45167.66
510.08	45067.02
510.25	44701.89
510.42	45256.60
510.60	45591.30
510.77	45645.13
510.95	45612.36
511.12	45897.91
511.30	45563.21
511.47	45897.91
511.64	46071.10
511.82	46351.97
511.99	45808.96
512.17	46326.22
512.34	46990.94
512.51	46979.23
512.69	46616.45
512.86	46667.94
513.04	47365.42
513.21	46841.14
513.38	47189.88
513.56	47416.91
513.73	47393.51
513.90	47416.91
514.08	47199.24
514.25	47800.76
514.43	47592.45
514.60	47746.93
514.77	47952.90
514.95	47941.19
515.12	47952.90
515.29	48198.65
515.47	48683.14
515.64	48481.86
515.81	48488.88
515.99	48624.63
516.16	48933.58
516.33	48884.43
516.51	49104.44
516.68	48720.59
516.85	49027.20
517.03	49408.71
517.20	49464.88
517.37	49223.81
517.54	49195.72
517.72	49312.75
517.89	49389.98
518.06	49771.49
518.24	49785.54
518.41	49375.94
518.58	49804.26
518.75	49649.78
518.93	50031.29
519.10	49762.13
519.27	50237.26
519.45	50145.98
519.62	50375.35
519.79	50255.98
519.96	50447.91
520.14	50600.04
520.31	50288.75
520.48	50944.10
520.65	50916.01
520.83	51047.08
521.00	50941.76
521.17	51051.76
521.34	51129.00
521.52	51318.59
521.69	51276.46
521.86	51377.10
522.03	51353.69
522.20	51896.70
522.38	52083.94
522.55	51952.87
522.72	51693.07
522.89	52004.36
523.07	51934.15
523.24	51955.21
523.41	52200.97
523.58	52058.20
523.75	52109.69
523.92	51957.55
524.10	52119.05
524.27	52425.66
524.44	52481.83
524.61	52346.08
524.78	52530.98
524.96	52420.98
525.13	52640.99
525.30	52741.63
525.47	52837.59
525.64	52865.68
525.81	52898.45
525.98	53052.92
526.16	53183.99
526.33	53162.93
526.50	53521.03
526.67	53221.44
526.84	53432.09
527.01	53144.20
527.18	53202.72
527.36	53294.00
527.53	53537.41
527.70	53804.24
527.87	53715.29
528.04	53577.20
528.21	53916.58
528.38	53523.37
528.55	53975.09
528.72	53769.13
528.89	53869.77
529.07	53815.94
529.24	53867.43
529.41	54328.52
529.58	53986.80
529.75	54071.06
529.92	53942.33
530.09	54169.36
530.26	54335.54
530.43	54417.46
530.60	54160.00
530.77	54262.98
530.94	54457.24
531.11	54518.10
531.28	54513.42
531.46	54670.23
531.63	54705.34
531.80	54330.86
531.97	54817.69
532.14	54695.98
532.31	54817.69
532.48	54831.73
532.65	54887.90
532.82	54808.32
532.99	55367.71
533.16	55040.04
533.33	55077.49
533.50	55348.99
533.67	55290.48
533.84	54979.18
534.01	55196.85
534.18	55267.07
534.35	55679.00
534.52	55585.38
534.69	55753.90
534.86	55416.86
535.03	55363.03
535.20	55505.80
535.37	55714.11
535.54	55922.42
535.71	55583.04
535.88	55875.61
536.05	55880.29
536.22	55927.10
536.38	55908.38
536.55	55842.84
536.72	55847.52
536.89	55807.73
537.06	55950.51
537.23	56156.47
537.40	56083.92
537.57	55891.99
537.74	56072.21
537.91	56016.04
538.08	56116.68
538.25	55985.61
538.42	56212.65
538.59	56589.47
538.75	56238.39
538.92	56552.02
539.09	56584.79
539.26	56470.11
539.43	56484.15
539.60	56612.88
539.77	56559.05
539.94	56659.69
540.11	56474.79
540.28	56793.10
540.44	56767.35
540.61	56708.84
540.78	56736.93
540.95	56748.63
541.12	56762.67
541.29	56893.74
541.46	56727.56
541.62	57029.49
541.79	56980.34
541.96	56580.11
542.13	56912.47
542.30	56942.89
542.47	57190.99
542.63	57134.82
542.80	57219.08
542.97	57256.53
543.14	57261.21
543.31	57212.06
543.48	57462.49
543.64	58017.20
543.81	57591.22
543.98	57790.17
544.15	57584.20
544.32	57776.12
544.48	58000.82
544.65	57773.78
544.82	57640.37
544.99	57464.83
545.16	57982.09
545.32	57729.31
545.49	58045.29
545.66	57923.58
545.83	57918.90
546.00	58003.16
546.16	57750.38
546.33	57925.92
546.50	57869.75
546.67	58213.80
546.83	57855.70
547.00	58052.31
547.17	57916.56
547.34	58159.97
547.50	58141.25
547.67	58223.17
547.84	58155.29
548.00	58447.86
548.17	58585.95
548.34	58445.52
548.51	58450.20
548.67	58562.54
548.84	58731.06
549.01	58309.77
549.18	58382.32
549.34	58389.34
549.51	58471.26
549.68	58700.64
549.84	58777.87
550.01	58578.93
550.18	58539.14
550.34	58756.81
550.51	58824.68
550.68	58585.95
550.84	58459.56
551.01	58728.72
551.18	58705.32
551.34	58920.65
551.51	58972.14
551.68	58705.32
551.84	58817.66
552.01	58747.45
552.18	58962.78
552.34	58759.15
552.51	59229.60
552.68	58784.90
552.84	58848.09
553.01	59274.07
553.18	59178.10
553.34	59096.19
553.51	58965.12
553.67	59203.85
553.84	59199.17
554.01	59192.15
554.17	59180.45
554.34	59238.96
554.51	59402.80
554.67	59199.17
554.84	59096.19
555.00	59128.95
555.17	59299.81
555.33	59405.14
555.50	59299.81
555.67	59316.20
555.83	59407.48
556.00	59271.73
556.16	59608.76
556.33	59604.08
556.50	59573.66
556.66	59739.83
556.83	59358.33
556.99	59639.19
557.16	59730.47
557.32	59896.65
557.49	59826.43
557.65	59650.89
557.82	59803.03
557.98	59814.73
558.15	59681.32
558.32	59777.28
558.48	59676.64
558.65	59693.02
558.81	59924.74
558.98	59800.69
559.14	59915.37
559.31	60081.55
559.47	60093.25
559.64	60149.43
559.80	60060.49
559.97	60025.38
560.13	59817.07
560.30	60109.64
560.46	60009.00
560.63	60161.13
560.79	60069.85
560.96	60238.37
561.12	60245.39
561.29	60104.96
561.45	59882.61
561.61	60088.57
561.78	60067.51
561.94	60128.36
562.11	60081.55
562.27	60114.32
562.44	60207.94
562.60	60413.91
562.77	60254.75
562.93	60083.89
563.10	60233.69
563.26	60278.16
563.42	60308.58
563.59	60252.41
563.75	60257.09
563.92	60491.15
564.08	60406.89
564.24	60605.83
564.41	60446.68
564.57	60514.55
564.74	60294.54
564.90	60360.08
565.07	60460.72
565.23	60212.62
565.39	60385.82
565.56	60676.05
565.72	60509.87
565.88	60549.66
566.05	60657.32
566.21	60360.08
566.38	60535.62
566.54	60331.99
566.70	60690.09
566.87	60456.04
567.03	60430.29
567.19	60704.13
567.36	60743.92
567.52	60647.96
567.68	60879.67
567.85	60481.78
568.01	60697.11
568.17	60694.77
568.34	60505.19
568.50	60664.35
568.66	60657.32
568.83	60610.51
568.99	60533.28
569.15	60739.24
569.32	60769.67
569.48	60650.30
569.64	60853.93
569.81	60872.65
569.97	60725.20
570.13	60736.90
570.30	60664.35
570.46	60835.20
570.62	60952.23
570.78	60673.71
570.95	60685.41
571.11	60821.16
571.27	60769.67
571.43	60786.05
571.60	60980.32
571.76	60989.68
571.92	60797.76
572.09	60926.49
572.25	60914.78
572.41	60755.63
572.57	60924.14
572.74	61027.13
572.90	60912.44
573.06	60977.98
573.22	60952.23
573.38	61090.32
573.55	60975.64
573.71	61200.33
573.87	61020.11
574.03	60755.63
574.20	61024.79
574.36	60849.25
574.52	60931.17
574.68	61050.53
574.84	60940.53
575.01	61031.81
575.17	60886.70
575.33	60926.49
575.49	60903.08
575.65	61034.15
575.82	60970.96
575.98	61111.39
576.14	61202.67
576.30	61071.60
576.46	61010.74
576.62	60851.59
576.79	60973.30
576.95	60837.54
577.11	61013.08
577.27	61174.58
577.43	61155.86
577.59	60966.27
577.75	60898.40
577.92	60947.55
578.08	61188.63
578.24	61111.39
578.40	61401.61
578.56	61036.49
578.72	61244.80
578.88	61125.43
579.04	61237.78
579.21	61176.92
579.37	61226.07
579.53	61329.06
579.69	61181.60
579.85	61216.71
580.01	61087.98
580.17	61090.32
580.33	61380.55
580.49	61146.50
580.65	61230.75
580.82	61116.07
580.98	60949.89
581.14	61162.88
581.30	61429.70
581.46	61286.93
581.62	61375.87
581.78	61195.65
581.94	61244.80
582.10	61188.63
582.26	61176.92
582.42	61134.79
582.58	61247.14
582.74	61162.88
582.90	61272.88
583.06	61127.77
583.22	61226.07
583.38	61315.01
583.54	61235.44
583.70	61373.53
583.86	61153.52
584.02	61127.77
584.18	61380.55
584.34	61104.37
584.50	61181.60
584.66	60977.98
584.82	60956.91
584.98	61291.61
585.14	61420.34
585.30	61034.15
585.46	61324.38
585.62	61319.70
585.78	61436.72
585.94	61254.16
586.10	61207.35
586.26	61389.91
586.42	61375.87
586.58	61317.35
586.74	61256.50
586.90	61258.84
587.06	61366.51
587.22	61361.82
587.38	61352.46
587.54	61663.75
587.70	61572.47
587.86	61242.46
588.02	61226.07
588.18	61338.42
588.34	61375.87
588.49	61460.13
