SpectraSuite Data File
++++++++++++++++++++++++++++++++++++
Date: Fri Oct 25 10:46:53 EDT 2013
User: price-jones
Dark Spectrum Present: No
Reference Spectrum Present: No
Number of Sampled Component Spectra: 1
Spectrometers: USB2+H05261
Integration Time (usec): 100000 (USB2+H05261)
Spectra Averaged: 1 (USB2+H05261)
Boxcar Smoothing: 0 (USB2+H05261)
Correct for Electrical Dark: No (USB2+H05261)
Strobe/Lamp Enabled: No (USB2+H05261)
Correct for Detector Non-linearity: No (USB2+H05261)
Correct for Stray Light: No (USB2+H05261)
Number of Pixels in Processed Spectrum: 2048
>>>>>Begin Processed Spectral Data<<<<<
365.73	124.05
365.92	124.05
366.12	124.05
366.32	117.03
366.52	0.00
366.72	91.28
366.91	72.56
367.11	56.17
367.31	102.98
367.51	42.13
367.70	88.94
367.90	0.00
368.10	30.43
368.30	0.00
368.49	0.00
368.69	86.60
368.89	32.77
369.09	63.19
369.28	42.13
369.48	56.17
369.68	46.81
369.87	112.35
370.07	84.26
370.27	100.64
370.47	168.52
370.66	358.10
370.86	423.64
371.06	484.49
371.25	491.51
371.45	440.02
371.65	491.51
371.84	425.98
372.04	428.32
372.24	479.81
372.44	468.11
372.63	465.77
372.83	566.41
373.03	507.90
373.22	519.60
373.42	540.66
373.62	580.45
373.81	531.30
374.01	580.45
374.21	528.96
374.40	571.09
374.60	561.73
374.79	526.62
374.99	559.39
375.19	564.07
375.38	627.26
375.58	557.05
375.78	585.13
375.97	557.05
376.17	678.76
376.37	645.99
376.56	564.07
376.76	622.58
376.95	615.56
377.15	678.76
377.35	643.65
377.54	568.75
377.74	660.03
377.93	657.69
378.13	624.92
378.33	697.48
378.52	657.69
378.72	692.80
378.91	631.94
379.11	669.39
379.31	575.77
379.50	671.73
379.70	653.01
379.89	718.54
380.09	641.31
380.28	664.71
380.48	713.86
380.68	674.07
380.87	669.39
381.07	678.76
381.26	711.52
381.46	711.52
381.65	737.27
381.85	706.84
382.04	709.18
382.24	667.05
382.43	655.35
382.63	730.25
382.83	791.10
383.02	730.25
383.22	765.36
383.41	753.65
383.61	793.44
383.80	786.42
384.00	828.55
384.19	779.40
384.39	805.14
384.58	777.06
384.78	873.02
384.97	823.87
385.17	833.23
385.36	802.80
385.56	882.38
385.75	751.31
385.95	816.85
386.14	835.57
386.34	856.64
386.53	823.87
386.72	887.06
386.92	912.81
387.11	917.49
387.31	861.32
387.50	844.93
387.70	863.66
387.89	870.68
388.09	863.66
388.28	868.34
388.48	896.43
388.67	976.00
388.86	938.55
389.06	952.60
389.25	950.26
389.45	901.11
389.64	908.13
389.84	908.13
390.03	985.37
390.22	945.58
390.42	896.43
390.61	999.41
390.81	1013.45
391.00	952.60
391.19	1107.07
391.39	1111.75
391.58	1078.99
391.78	973.66
391.97	1067.28
392.16	990.05
392.36	1055.58
392.55	1025.15
392.75	1055.58
392.94	931.53
393.13	1013.45
393.33	1048.56
393.52	964.30
393.71	1121.12
393.91	1165.59
394.10	1114.10
394.29	1135.16
394.49	1200.69
394.68	1160.91
394.88	1207.72
395.07	1270.91
395.26	1228.78
395.46	1151.54
395.65	1212.40
395.84	1163.25
396.04	1282.61
396.23	1219.42
396.42	1172.61
396.62	1268.57
396.81	1263.89
397.00	1252.19
397.19	1315.38
397.39	1376.24
397.58	1394.96
397.77	1259.21
397.97	1357.51
398.16	1380.92
398.35	1432.41
398.55	1331.76
398.74	1390.28
398.93	1504.96
399.12	1413.68
399.32	1359.85
399.51	1465.18
399.70	1589.22
399.90	1558.80
400.09	1514.33
400.28	1537.73
400.47	1516.67
400.67	1694.55
400.86	1614.97
401.05	1624.33
401.24	1570.50
401.44	1598.59
401.63	1556.46
401.82	1760.08
402.01	1687.53
402.21	1736.68
402.40	1696.89
402.59	1732.00
402.78	1717.95
402.97	1729.66
403.17	1743.70
403.36	1748.38
403.55	1715.61
403.74	1816.26
403.93	1823.28
404.13	1727.32
404.32	1795.19
404.51	1870.09
404.70	1900.52
404.89	1905.20
405.09	1959.03
405.28	1907.54
405.47	1902.86
405.66	1870.09
405.85	1923.92
406.05	1944.99
406.24	1870.09
406.43	2047.97
406.62	2087.76
406.81	2165.00
407.00	1942.64
407.20	1905.20
407.39	1991.80
407.58	1961.37
407.77	2033.93
407.96	2064.35
408.15	2062.01
408.34	2179.04
408.54	2277.34
408.73	2242.23
408.92	2225.85
409.11	2377.98
409.30	2253.94
409.49	2174.36
409.68	2193.08
409.87	2232.87
410.07	2303.09
410.26	2279.68
410.45	2340.54
410.64	2377.98
410.83	2427.14
411.02	2459.90
411.21	2469.27
411.40	2457.56
411.59	2537.14
411.78	2504.37
411.98	2469.27
412.17	2597.99
412.36	2562.89
412.55	2609.70
412.74	2654.17
412.93	2621.40
413.12	2642.46
413.31	2747.79
413.50	2759.49
413.69	2551.18
413.88	2794.60
414.07	2867.16
414.26	2935.03
414.45	2778.22
414.64	2916.31
414.83	2906.95
415.02	2869.50
415.22	2970.14
415.41	3094.19
415.60	3028.65
415.79	3148.02
415.98	3122.27
416.17	3150.36
416.36	3211.22
416.55	3159.72
416.74	3190.15
416.93	3094.19
417.12	3279.09
417.31	3239.30
417.50	3159.72
417.69	3316.54
417.88	3379.73
418.07	3323.56
418.26	3438.25
418.45	3442.93
418.64	3496.76
418.83	3449.95
419.02	3473.36
419.21	3513.14
419.39	3543.57
419.58	3368.03
419.77	3421.86
419.96	3637.19
420.15	3660.60
420.34	3595.06
420.53	3634.85
420.72	3648.90
420.91	3815.07
421.10	3786.99
421.29	3721.45
421.48	3726.13
421.67	3737.84
421.86	3707.41
422.05	3712.09
422.24	3602.08
422.43	3653.58
422.61	3712.09
422.80	3847.84
422.99	3761.24
423.18	3716.77
423.37	3878.27
423.56	3999.98
423.75	3887.63
423.94	3805.71
424.13	3613.79
424.32	3641.87
424.50	3904.01
424.69	3878.27
424.88	3911.04
425.07	3878.27
425.26	3861.88
425.45	3796.35
425.64	4056.15
425.83	3983.59
426.01	3901.67
426.20	3911.04
426.39	3981.25
426.58	3925.08
426.77	3899.33
426.96	3960.19
427.15	3850.18
427.33	3957.85
427.52	4161.47
427.71	4063.17
427.90	4138.07
428.09	4208.28
428.28	4023.38
428.46	3981.25
428.65	4205.94
428.84	4297.22
429.03	4229.35
429.22	4070.19
429.40	4067.85
429.59	4018.70
429.78	3887.63
429.97	3850.18
430.16	3922.74
430.34	3960.19
430.53	4095.94
430.72	4215.30
430.91	4133.39
431.10	4301.90
431.28	4437.66
431.47	4458.72
431.66	4458.72
431.85	4404.89
432.03	4507.87
432.22	4791.08
432.41	4292.54
432.60	4732.56
432.79	4615.54
432.97	4667.03
433.16	4622.56
433.35	4585.11
433.54	4484.47
433.72	4629.58
433.91	4624.90
434.10	4641.28
434.28	4676.39
434.47	4786.40
434.66	4716.18
434.85	4777.03
435.03	4828.53
435.22	4816.82
435.41	4943.21
435.59	4999.38
435.78	4931.51
435.97	5088.32
436.16	5011.09
436.34	4978.32
436.53	5200.67
436.72	5043.85
436.90	5006.41
437.09	5118.75
437.28	5004.07
437.46	5050.88
437.65	5088.32
437.84	4964.28
438.02	5071.94
438.21	5132.79
438.40	5174.92
438.58	5217.05
438.77	5373.87
438.96	5334.08
439.14	5376.21
439.33	5397.28
439.52	5572.82
439.70	5242.80
439.89	5376.21
440.08	5533.03
440.26	5591.54
440.45	5694.52
440.63	5757.72
440.82	5893.47
441.01	5774.10
441.19	5785.80
441.38	6031.56
441.57	5832.62
441.75	6092.41
441.94	6171.99
442.12	6143.91
442.31	6305.40
442.50	6010.50
442.68	6118.16
442.87	6155.61
443.05	6106.46
443.24	6307.74
443.43	6429.45
443.61	6282.00
443.80	6406.05
443.98	6253.91
444.17	6085.39
444.35	6272.64
444.54	6450.52
444.73	6399.02
444.91	6188.38
445.10	6307.74
445.28	6200.08
445.47	6249.23
445.65	6223.48
445.84	6298.38
446.02	6356.90
446.21	6242.21
446.39	6394.34
446.58	6586.27
446.77	6473.92
446.95	6277.32
447.14	6576.91
447.32	6602.65
447.51	6658.82
447.69	6527.75
447.88	6642.44
448.06	6583.93
448.25	6546.48
448.43	6658.82
448.62	6693.93
448.80	6375.62
448.99	6651.80
449.17	6675.21
449.36	6792.23
449.54	6782.87
449.73	6834.36
449.91	6909.26
450.10	7108.21
450.28	6855.43
450.46	6951.39
450.65	6974.80
450.83	7000.54
451.02	7084.80
451.20	7124.59
451.39	7028.63
451.57	6906.92
451.76	7023.95
451.94	6904.58
452.13	7152.68
452.31	6984.16
452.49	6923.30
452.68	7124.59
452.86	7045.01
453.05	7152.68
453.23	7328.22
453.42	7138.63
453.60	7204.17
453.78	7332.90
453.97	7215.87
454.15	7124.59
454.34	7323.54
454.52	7330.56
454.70	7473.33
454.89	7353.96
455.07	7431.20
455.26	7515.46
455.44	7756.54
455.62	7620.78
455.81	7428.86
455.99	7581.00
456.17	7733.13
456.36	7644.19
456.54	7667.60
456.73	7669.94
456.91	7829.09
457.09	7805.69
457.28	8056.12
457.46	7941.44
457.64	8081.87
457.83	8065.49
458.01	7805.69
458.19	8098.25
458.38	8056.12
458.56	8133.36
458.74	7967.18
458.93	8058.46
459.11	8056.12
459.29	8098.25
459.48	8332.31
459.66	8278.47
459.84	8362.73
460.03	8592.11
460.21	8161.45
460.39	8439.97
460.57	8290.18
460.76	8273.79
460.94	8194.22
461.12	8477.42
461.31	8575.72
461.49	8407.20
461.67	8613.17
461.85	8552.32
462.04	8510.19
462.22	9039.15
462.40	8861.27
462.59	8521.89
462.77	8695.09
462.95	8828.50
463.13	8812.12
463.32	8629.56
463.50	8915.10
463.68	8781.69
463.86	8786.37
464.05	8613.17
464.23	8617.85
464.41	8982.98
464.59	8617.85
464.78	9121.07
464.96	8940.85
465.14	8805.10
465.32	9013.40
465.50	9146.81
465.69	9240.44
465.87	8858.93
466.05	9013.40
466.23	9083.62
466.41	9287.25
466.60	9277.88
466.78	9067.24
466.96	8931.48
467.14	9139.79
467.32	9097.66
467.51	9439.38
467.69	8971.27
467.87	9315.33
468.05	9310.65
468.23	9092.98
468.41	9446.40
468.60	9277.88
468.78	9657.05
468.96	9345.76
469.14	9373.85
469.32	9591.52
469.50	9359.80
469.69	9479.17
469.87	9640.67
470.05	9579.81
470.23	9654.71
470.41	9788.12
470.59	9626.62
470.77	9888.76
470.95	9727.27
471.14	9771.74
471.32	9710.88
471.50	10003.45
471.68	10296.02
471.86	9961.32
472.04	10111.11
472.22	10375.59
472.40	9970.68
472.58	10202.40
472.77	10399.00
472.95	10480.92
473.13	10583.90
473.31	10583.90
473.49	10197.71
473.67	10338.15
473.85	10485.60
474.03	10768.80
474.21	10757.10
474.39	10902.22
474.57	10698.59
474.75	10771.15
474.93	10754.76
475.12	10869.45
475.30	10970.09
475.48	10918.60
475.66	11026.26
475.84	11054.35
476.02	11227.55
476.20	11176.06
476.38	11571.61
476.56	11730.76
476.74	11683.95
476.92	11925.03
477.10	11531.82
477.28	11744.81
477.46	11721.40
477.64	11875.88
477.82	12294.83
478.00	12388.46
478.18	12166.10
478.36	12264.41
478.54	12564.00
478.72	12177.81
478.90	12620.17
479.08	12858.90
479.26	12765.28
479.44	13053.17
479.62	12968.91
479.80	13205.30
479.98	13160.83
480.16	13537.66
480.34	13296.58
480.52	13589.15
480.70	13804.48
480.88	13355.10
481.06	13542.34
481.24	13586.81
481.41	13713.20
481.59	13935.55
481.77	14134.50
481.95	14277.27
482.13	14363.87
482.31	14448.13
482.49	14588.56
482.67	14810.91
482.85	14911.55
483.03	14714.95
483.21	14970.07
483.39	15082.41
483.57	14892.83
483.74	15197.10
483.92	15515.41
484.10	15044.96
484.28	15627.76
484.46	15740.10
484.64	15948.41
484.82	15910.96
485.00	15929.69
485.18	15939.05
485.35	16269.06
485.53	15992.88
485.71	16053.73
485.89	16313.53
486.07	16093.52
486.25	16414.18
486.43	16498.44
486.61	16908.03
486.78	17067.19
486.96	17156.13
487.14	17397.20
487.32	17406.56
487.50	17544.66
487.68	17963.61
487.85	18412.99
488.03	18286.61
488.21	18312.35
488.39	18157.88
488.57	18513.64
488.75	18391.93
488.92	18691.52
489.10	18829.61
489.28	19309.42
489.46	19419.42
489.64	19536.45
489.81	19791.57
489.99	19719.01
490.17	20063.07
490.35	19964.77
490.53	19807.95
490.70	20102.86
490.88	20109.88
491.06	20451.60
491.24	20477.35
491.41	20081.80
491.59	20868.22
491.77	20430.54
491.95	20512.46
492.13	21247.38
492.30	21074.18
492.48	21357.39
492.66	21535.27
492.84	21542.29
493.01	21879.33
493.19	21610.17
493.37	22022.10
493.54	22073.59
493.72	22052.53
493.90	22171.89
494.08	22375.52
494.25	22735.96
494.43	22869.37
494.61	22941.93
494.79	22941.93
494.96	22836.61
495.14	23105.77
495.32	23037.89
495.49	22916.19
495.67	23660.48
495.85	23798.57
496.02	23931.98
496.20	24290.08
496.38	23950.70
496.55	24224.54
496.73	24652.86
496.91	24105.18
497.09	24713.72
497.26	24835.42
497.44	24875.21
497.62	24971.18
497.79	25130.33
497.97	24933.73
498.14	25050.75
498.32	25228.63
498.50	24933.73
498.67	25645.25
498.85	25490.77
499.03	25785.68
499.20	25446.30
499.38	26033.78
499.56	25954.20
499.73	26225.70
499.91	25855.90
500.08	26127.40
500.26	26223.36
500.44	26373.16
500.61	26485.50
500.79	26649.34
500.97	26457.42
501.14	26948.93
501.32	27012.12
501.49	27222.77
501.67	26881.05
501.84	27187.66
502.02	27180.64
502.20	27412.35
502.37	27461.51
502.55	27204.05
502.72	27730.67
502.90	27440.44
503.07	27524.70
503.25	27655.77
503.43	27559.81
503.60	28292.40
503.78	27831.31
503.95	27777.48
504.13	28268.99
504.30	28348.57
504.48	28081.75
504.65	28561.56
504.83	28662.20
505.01	28950.09
505.18	28910.30
505.36	28687.95
505.53	28819.02
505.71	29184.14
505.88	29448.62
506.06	29188.82
506.23	29326.91
506.41	29153.71
506.58	29472.03
506.76	29137.33
506.93	29631.18
507.11	29675.65
507.28	29542.24
507.46	29610.12
507.63	29432.24
507.81	29961.20
507.98	29422.87
508.16	30244.40
508.33	30387.18
508.50	30120.35
508.68	30464.41
508.85	30546.33
509.03	30527.61
509.20	30590.80
509.38	30916.14
509.55	30902.09
509.73	30918.48
509.90	31037.84
510.08	30731.23
510.25	30862.30
510.42	31468.50
510.60	31283.60
510.77	31667.45
510.95	31754.05
511.12	31927.25
511.30	31644.04
511.47	32217.47
511.64	32051.30
511.82	31875.76
511.99	31660.43
512.17	32053.64
512.34	32137.90
512.51	31814.90
512.69	32552.17
512.86	32285.35
513.04	32545.15
513.21	32809.63
513.38	32510.04
513.56	32268.97
513.73	32306.41
513.90	32793.25
514.08	32739.41
514.25	32741.75
514.43	32795.59
514.60	33006.23
514.77	32943.04
514.95	33078.79
515.12	32898.57
515.29	33406.47
515.47	33902.66
515.64	33589.03
515.81	33539.88
515.99	33677.97
516.16	33502.43
516.33	33434.55
516.51	33193.48
516.68	32842.40
516.85	33088.15
517.03	33411.15
517.20	33687.33
517.37	33659.24
517.54	34101.61
517.72	34192.89
517.89	34082.88
518.06	33497.75
518.24	33982.24
518.41	34242.04
518.58	34204.59
518.75	34209.27
518.93	34419.92
519.10	34644.61
519.27	34504.18
519.45	34799.08
519.62	34721.85
519.79	35056.54
519.96	35178.25
520.14	35033.14
520.31	35021.44
520.48	35318.68
520.65	35101.01
520.83	35438.05
521.00	35332.73
521.17	35332.73
521.34	35466.14
521.52	35941.27
521.69	36189.36
521.86	36112.13
522.03	35824.24
522.20	36423.42
522.38	35934.24
522.55	36350.86
522.72	36105.10
522.89	36285.33
523.07	36467.89
523.24	36278.30
523.41	36664.49
523.58	36322.77
523.75	37118.56
523.92	37092.81
524.10	37017.91
524.27	36982.80
524.44	37247.29
524.61	37081.11
524.78	36734.71
524.96	37366.65
525.13	37230.90
525.30	37872.21
525.47	37638.15
525.64	37249.63
525.81	37687.31
525.98	37034.30
526.16	37200.47
526.33	37256.65
526.50	37720.07
526.67	37020.25
526.84	37359.63
527.01	37249.63
527.18	37701.35
527.36	37706.03
527.53	38075.84
527.70	38298.19
527.87	38192.86
528.04	38319.25
528.21	37916.68
528.38	38251.38
528.55	38410.53
528.72	38581.39
528.89	38679.69
529.07	38667.99
529.24	38644.59
529.41	38473.73
529.58	37813.70
529.75	38600.12
529.92	39274.19
530.09	38670.33
530.26	38827.15
530.43	38904.38
530.60	38557.99
530.77	38728.84
530.94	38941.83
531.11	38749.91
531.28	38862.26
531.46	39470.79
531.63	39660.38
531.80	39077.58
531.97	39423.98
532.14	39344.41
532.31	39138.44
532.48	39110.35
532.65	39988.05
532.82	39599.52
532.99	39758.68
533.16	39625.27
533.33	39236.74
533.50	39910.82
533.67	39962.31
533.84	39627.61
534.01	39931.88
534.18	39592.50
534.35	39915.50
534.52	39716.55
534.69	40149.55
534.86	40037.20
535.03	40339.13
535.20	40474.88
535.37	40634.04
535.54	40528.72
535.71	40067.63
535.88	40659.79
536.05	40381.26
536.22	40612.98
536.38	40837.67
536.55	40657.45
536.72	40687.87
536.89	40292.32
537.06	40697.24
537.23	40919.59
537.40	40664.47
537.57	40730.00
537.74	40809.58
537.91	41013.21
538.08	41319.82
538.25	40744.05
538.42	40818.94
538.59	41130.23
538.75	40662.13
538.92	40914.90
539.09	41333.86
539.26	41069.38
539.43	40825.96
539.60	41200.45
539.77	41132.57
539.94	41333.86
540.11	41296.41
540.28	41116.19
540.44	41109.17
540.61	41696.64
540.78	41322.16
540.95	41640.47
541.12	40914.90
541.29	41612.38
541.46	41572.60
541.62	41654.51
541.79	41816.01
541.96	41481.31
542.13	41614.72
542.30	42230.29
542.47	42129.64
542.63	41977.51
542.80	41977.51
542.97	42094.53
543.14	42506.47
543.31	42157.73
543.48	42412.85
543.64	43185.22
543.81	42735.84
543.98	42298.16
544.15	42284.12
544.32	42866.91
544.48	42794.36
544.65	42485.40
544.82	42946.49
544.99	41956.44
545.16	42848.19
545.32	43030.75
545.49	43241.40
545.66	43122.03
545.83	43023.73
546.00	43484.81
546.16	42979.26
546.33	43093.94
546.50	42637.54
546.67	43082.24
546.83	42567.32
547.00	43117.35
547.17	43356.08
547.34	43206.29
547.50	42799.04
547.67	43426.30
547.84	43716.53
548.00	43854.62
548.17	44247.83
548.34	43393.53
548.51	44006.75
548.67	43555.03
548.84	43763.34
549.01	43531.62
549.18	43786.74
549.34	43524.60
549.51	43758.66
549.68	43875.68
549.84	43587.80
550.01	43981.01
550.18	43784.40
550.34	43969.30
550.51	43910.79
550.68	43931.86
550.84	43763.34
551.01	44013.77
551.18	44088.67
551.34	43777.38
551.51	44266.55
551.68	43999.73
551.84	44416.35
552.01	43807.81
552.18	44353.15
552.34	44231.44
552.51	44135.48
552.68	44259.53
552.84	44470.18
553.01	44814.24
553.18	43899.09
553.34	44940.63
553.51	44212.72
553.67	44069.95
553.84	44631.68
554.01	44451.45
554.17	44257.19
554.34	44528.69
554.51	44648.06
554.67	45130.21
554.84	44748.70
555.00	44577.84
555.17	44521.67
555.33	44758.06
555.50	44669.12
555.67	44701.89
555.83	44669.12
556.00	45076.38
556.16	45151.27
556.33	45048.29
556.50	44903.18
556.66	45177.02
556.83	44554.44
556.99	45322.13
557.16	44985.10
557.32	44818.92
557.49	45427.46
557.65	43962.28
557.82	44966.37
557.98	44694.87
558.15	44828.28
558.32	44563.80
558.48	44626.99
558.65	44987.44
558.81	44924.24
558.98	45067.02
559.14	45052.97
559.31	44856.37
559.47	45287.03
559.64	45207.45
559.80	45432.14
559.97	45113.83
560.13	45228.51
560.30	45216.81
560.46	45565.55
560.63	45626.40
560.79	45434.48
560.96	45336.18
561.12	45361.92
561.29	45090.42
561.45	45399.37
561.61	45202.77
561.78	45581.93
561.94	45088.08
562.11	45738.75
562.27	45303.41
562.44	45223.83
562.60	45549.17
562.77	45813.65
562.93	45474.27
563.10	46031.32
563.26	45200.43
563.42	45509.38
563.59	45340.86
563.75	45502.35
563.92	45553.85
564.08	45815.99
564.24	45921.31
564.41	45886.20
564.57	45757.47
564.74	45853.44
564.90	45773.86
565.07	45542.14
565.23	45600.66
565.39	45595.98
565.56	45284.68
565.72	45357.24
565.88	45471.93
566.05	45813.65
566.21	45652.15
566.38	45165.32
566.54	45415.76
566.70	45823.01
566.87	46117.92
567.03	45858.12
567.19	46335.59
567.36	45556.19
567.52	45663.85
567.68	46265.37
567.85	45471.93
568.01	45771.52
568.17	45617.04
568.34	45879.18
568.50	45872.16
568.66	46050.04
568.83	45949.40
568.99	45453.20
569.15	45745.77
569.32	45504.70
569.48	45469.59
569.64	46110.89
569.81	46099.19
569.97	45881.52
570.13	45577.25
570.30	45769.18
570.46	45694.28
570.62	45729.39
570.78	45284.68
570.95	45947.06
571.11	45993.87
571.27	46087.49
571.43	46127.28
571.60	45961.10
571.76	46092.17
571.92	45804.28
572.09	46003.23
572.25	45797.26
572.41	45942.38
572.57	46103.87
572.74	46192.81
572.90	45921.31
573.06	46251.33
573.22	46073.45
573.38	46251.33
573.55	46064.08
573.71	46150.68
573.87	46087.49
574.03	46068.76
574.20	46153.02
574.36	46305.16
574.52	45935.35
574.68	45823.01
574.84	45811.31
575.01	45963.44
575.17	46246.65
575.33	46043.02
575.49	46005.57
575.65	46216.22
575.82	46237.28
575.98	46281.75
576.14	46457.29
576.30	46305.16
576.46	46248.99
576.62	45869.82
576.79	46291.12
576.95	45689.60
577.11	45918.97
577.27	46157.70
577.43	46274.73
577.59	46225.58
577.75	46054.72
577.92	45390.01
578.08	46007.91
578.24	45645.13
578.40	46162.39
578.56	46099.19
578.72	45752.79
578.88	46859.87
579.04	46237.28
579.21	45963.44
579.37	46368.35
579.53	46047.70
579.69	45626.40
579.85	45961.10
580.01	46241.96
580.17	46377.72
580.33	46162.39
580.49	46075.79
580.65	46178.77
580.82	46153.02
580.98	46644.54
581.14	45914.29
581.30	46885.61
581.46	46110.89
581.62	46497.08
581.78	46021.95
581.94	46553.26
582.10	46160.05
582.26	46089.83
582.42	45937.69
582.58	46279.41
582.74	46131.96
582.90	46176.43
583.06	46094.51
583.22	46234.94
583.38	46628.15
583.54	46237.28
583.70	46241.96
583.86	46436.23
584.02	45563.21
584.18	46356.65
584.34	46548.57
584.50	46326.22
584.66	46071.10
584.82	45736.41
584.98	46522.83
585.14	46146.00
585.30	45886.20
585.46	46628.15
585.62	45827.69
585.78	46113.23
585.94	45914.29
586.10	46272.39
586.26	46138.98
586.42	46106.21
586.58	46305.16
586.74	46284.09
586.90	46199.83
587.06	45848.75
587.22	46251.33
587.38	46169.41
587.54	46579.00
587.70	46569.64
587.86	46363.67
588.02	46513.47
588.18	46639.86
588.34	46305.16
588.49	46230.26
588.65	45937.69
588.81	45846.41
588.97	46410.48
589.13	45741.09
589.29	46358.99
589.45	46054.72
589.61	46106.21
589.77	46836.46
589.93	46426.87
590.08	46527.51
