SpectraSuite Data File
++++++++++++++++++++++++++++++++++++
Date: Fri Oct 25 10:47:04 EDT 2013
User: price-jones
Dark Spectrum Present: No
Reference Spectrum Present: No
Number of Sampled Component Spectra: 1
Spectrometers: USB2+H05261
Integration Time (usec): 100000 (USB2+H05261)
Spectra Averaged: 1 (USB2+H05261)
Boxcar Smoothing: 0 (USB2+H05261)
Correct for Electrical Dark: No (USB2+H05261)
Strobe/Lamp Enabled: No (USB2+H05261)
Correct for Detector Non-linearity: No (USB2+H05261)
Correct for Stray Light: No (USB2+H05261)
Number of Pixels in Processed Spectrum: 2048
>>>>>Begin Processed Spectral Data<<<<<
365.73	72.56
365.92	72.56
366.12	72.56
366.32	117.03
366.52	0.00
366.72	117.03
366.91	91.28
367.11	7.02
367.31	58.51
367.51	72.56
367.70	0.00
367.90	58.51
368.10	0.00
368.30	21.06
368.49	32.77
368.69	154.48
368.89	0.00
369.09	81.92
369.28	102.98
369.48	42.13
369.68	105.32
369.87	102.98
370.07	152.13
370.27	98.30
370.47	283.20
370.66	463.43
370.86	503.22
371.06	491.51
371.25	397.89
371.45	390.87
371.65	491.51
371.84	440.02
372.04	437.68
372.24	507.90
372.44	470.45
372.63	573.43
372.83	500.87
373.03	517.26
373.22	461.09
373.42	496.19
373.62	535.98
373.81	564.07
374.01	557.05
374.21	564.07
374.40	505.56
374.60	573.43
374.79	582.79
374.99	580.45
375.19	543.00
375.38	573.43
375.58	524.28
375.78	594.50
375.97	592.16
376.17	622.58
376.37	578.11
376.56	664.71
376.76	589.82
376.95	592.16
377.15	592.16
377.35	587.47
377.54	571.09
377.74	580.45
377.93	681.10
378.13	643.65
378.33	681.10
378.52	615.56
378.72	615.56
378.91	606.20
379.11	636.63
379.31	610.88
379.50	538.32
379.70	620.24
379.89	702.16
380.09	645.99
380.28	699.82
380.48	636.63
380.68	643.65
380.87	645.99
381.07	704.50
381.26	669.39
381.46	636.63
381.65	678.76
381.85	725.57
382.04	674.07
382.24	739.61
382.43	683.44
382.63	706.84
382.83	779.40
383.02	765.36
383.22	702.16
383.41	723.23
383.61	697.48
383.80	760.67
384.00	779.40
384.19	751.31
384.39	809.83
384.58	765.36
384.78	795.78
384.97	821.53
385.17	720.88
385.36	828.55
385.56	812.17
385.75	697.48
385.95	828.55
386.14	788.76
386.34	788.76
386.53	802.80
386.72	758.33
386.92	861.32
387.11	835.57
387.31	844.93
387.50	805.14
387.70	903.45
387.89	858.98
388.09	898.77
388.28	844.93
388.48	908.13
388.67	781.74
388.86	908.13
389.06	889.40
389.25	828.55
389.45	873.02
389.64	887.06
389.84	973.66
390.03	980.68
390.22	940.90
390.42	924.51
390.61	966.64
390.81	875.36
391.00	987.71
391.19	978.34
391.39	966.64
391.58	1008.77
391.78	1050.90
391.97	1008.77
392.16	926.85
392.36	1020.47
392.55	929.19
392.75	898.77
392.94	966.64
393.13	987.71
393.33	971.32
393.52	1060.26
393.71	1095.37
393.91	1041.54
394.10	1149.20
394.29	1086.01
394.49	1067.28
394.68	1088.35
394.88	1097.71
395.07	1181.97
395.26	1132.82
395.46	1121.12
395.65	1118.78
395.84	1144.52
396.04	1226.44
396.23	1135.16
396.42	1207.72
396.62	1170.27
396.81	1153.88
397.00	1217.08
397.19	1277.93
397.39	1219.42
397.58	1158.57
397.77	1273.25
397.97	1350.49
398.16	1259.21
398.35	1303.68
398.55	1401.98
398.74	1425.39
398.93	1327.08
399.12	1341.13
399.32	1380.92
399.51	1315.38
399.70	1387.94
399.90	1334.11
400.09	1476.88
400.28	1516.67
400.47	1453.47
400.67	1523.69
400.86	1495.60
401.05	1490.92
401.24	1458.15
401.44	1528.37
401.63	1537.73
401.82	1523.69
402.01	1486.24
402.21	1448.79
402.40	1579.86
402.59	1528.37
402.78	1511.99
402.97	1535.39
403.17	1523.69
403.36	1579.86
403.55	1661.78
403.74	1699.23
403.93	1579.86
404.13	1799.87
404.32	1610.29
404.51	1797.53
404.70	1748.38
404.89	1774.13
405.09	1884.13
405.28	1809.23
405.47	1724.97
405.66	1762.42
405.85	1863.07
406.05	1804.55
406.24	1785.83
406.43	1844.34
406.62	1830.30
406.81	1851.36
407.00	1844.34
407.20	1832.64
407.39	1830.30
407.58	2022.22
407.77	1973.07
407.96	2108.82
408.15	2066.69
408.34	1907.54
408.54	2015.20
408.73	1994.14
408.92	2125.21
409.11	2118.18
409.30	2036.27
409.49	2090.10
409.68	2008.18
409.87	2150.95
410.07	2115.84
410.26	2270.32
410.45	2188.40
410.64	2099.46
410.83	2298.41
411.02	2331.17
411.21	2307.77
411.40	2406.07
411.59	2333.51
411.78	2389.69
411.98	2300.75
412.17	2375.64
412.36	2396.71
412.55	2335.85
412.74	2511.39
412.93	2443.52
413.12	2452.88
413.31	2581.61
413.50	2621.40
413.69	2539.48
413.88	2523.10
414.07	2736.09
414.26	2595.65
414.45	2686.94
414.64	2583.95
414.83	2773.53
415.02	2731.41
415.22	2764.17
415.41	2860.13
415.60	2822.69
415.79	2822.69
415.98	2958.44
416.17	2946.73
416.36	2979.50
416.55	3061.42
416.74	2958.44
416.93	2951.42
417.12	3066.10
417.31	3098.87
417.50	3091.85
417.69	3094.19
417.88	3260.37
418.07	3049.72
418.26	3171.43
418.45	3162.06
418.64	3318.88
418.83	3052.06
419.02	3192.49
419.21	3218.24
419.39	3148.02
419.58	3208.87
419.77	3173.77
419.96	3391.44
420.15	3480.38
420.34	3330.58
420.53	3382.07
420.72	3400.80
420.91	3487.40
421.10	3414.84
421.29	3660.60
421.48	3485.06
421.67	3550.59
421.86	3400.80
422.05	3487.40
422.24	3473.36
422.43	3412.50
422.61	3459.31
422.80	3571.66
422.99	3550.59
423.18	3581.02
423.37	3583.36
423.56	3634.85
423.75	3604.42
423.94	3602.08
424.13	3316.54
424.32	3426.54
424.50	3700.39
424.69	3602.08
424.88	3574.00
425.07	3684.00
425.26	3485.06
425.45	3510.80
425.64	3730.81
425.83	3662.94
426.01	3705.07
426.20	3662.94
426.39	3691.02
426.58	3674.64
426.77	3705.07
426.96	3705.07
427.15	3716.77
427.33	3784.65
427.52	3726.13
427.71	3915.72
427.90	3730.81
428.09	3899.33
428.28	3969.55
428.46	3887.63
428.65	3779.97
428.84	3925.08
429.03	4079.55
429.22	3873.59
429.40	3939.12
429.59	3854.86
429.78	3672.30
429.97	3672.30
430.16	3817.41
430.34	3861.88
430.53	3953.16
430.72	3904.01
430.91	4018.70
431.10	4142.75
431.28	4170.83
431.47	4177.86
431.66	4243.39
431.85	4063.17
432.03	4166.15
432.22	4269.14
432.41	4306.59
432.60	4318.29
432.79	4262.12
432.97	4339.35
433.16	4320.63
433.35	4196.58
433.54	4278.50
433.72	4243.39
433.91	4341.69
434.10	4503.19
434.28	4477.44
434.47	4528.94
434.66	4573.41
434.85	4629.58
435.03	4409.57
435.22	4807.46
435.41	4671.71
435.59	4526.60
435.78	4638.94
435.97	4706.82
436.16	4697.46
436.34	4627.24
436.53	4751.29
436.72	4894.06
436.90	4655.33
437.09	4835.55
437.28	4753.63
437.46	4695.11
437.65	4760.65
437.84	4933.85
438.02	4704.48
438.21	4861.29
438.40	4723.20
438.58	5008.75
438.77	4950.23
438.96	4973.64
439.14	5174.92
439.33	5104.71
439.52	5233.44
439.70	5188.97
439.89	5296.63
440.08	5322.38
440.26	5238.12
440.45	5313.02
440.63	5343.44
440.82	5514.30
441.01	5530.69
441.19	5434.72
441.38	5526.00
441.57	5633.67
441.75	5568.13
441.94	5724.95
442.12	5823.25
442.31	5841.98
442.50	5708.57
442.68	5743.67
442.87	5734.31
443.05	5832.62
443.24	5837.30
443.43	5912.19
443.61	5872.40
443.80	6017.52
443.98	5937.94
444.17	5657.07
444.35	6036.24
444.54	5888.79
444.73	6083.05
444.91	5891.13
445.10	6015.18
445.28	5928.58
445.47	5916.87
445.65	5916.87
445.84	6076.03
446.02	5872.40
446.21	6052.63
446.39	6111.14
446.58	6118.16
446.77	6136.88
446.95	6033.90
447.14	6202.42
447.32	6300.72
447.51	6129.86
447.69	6015.18
447.88	6143.91
448.06	6026.88
448.25	6076.03
448.43	6340.51
448.62	5980.07
448.80	6211.78
448.99	6097.10
449.17	6211.78
449.36	6253.91
449.54	6518.39
449.73	6518.39
449.91	6593.29
450.10	6377.96
450.28	6392.00
450.46	6602.65
450.65	6483.28
450.83	6415.41
451.02	6516.05
451.20	6579.25
451.39	6546.48
451.57	6539.46
451.76	6621.38
451.94	6588.61
452.13	6740.74
452.31	6567.54
452.49	6499.67
452.68	6637.76
452.86	6546.48
453.05	6679.89
453.23	6724.36
453.42	6647.12
453.60	6726.70
453.78	6867.13
453.97	6747.76
454.15	6796.92
454.34	6799.26
454.52	6995.86
454.70	6841.39
454.89	6832.02
455.07	7002.88
455.26	6960.75
455.44	7171.40
455.62	7143.32
455.81	7070.76
455.99	7136.29
456.17	7323.54
456.36	7288.43
456.54	7382.05
456.73	7239.28
456.91	7499.08
457.09	7379.71
457.28	7637.17
457.46	7325.88
457.64	7475.67
457.83	7330.56
458.01	7260.34
458.19	7679.30
458.38	7595.04
458.56	7534.18
458.74	7609.08
458.93	7571.63
459.11	7648.87
459.29	7637.17
459.48	7620.78
459.66	7557.59
459.84	7698.02
460.03	7911.01
460.21	7765.90
460.39	7903.99
460.57	7768.24
460.76	7747.17
460.94	7974.21
461.12	7922.71
461.31	7873.56
461.49	7723.77
461.67	7801.01
461.85	7934.42
462.04	8105.28
462.22	8439.97
462.40	8301.88
462.59	8140.38
462.77	8201.24
462.95	8308.90
463.13	8159.11
463.32	8124.00
463.50	8175.49
463.68	8245.71
463.86	8299.54
464.05	8102.93
464.23	8259.75
464.41	8313.58
464.59	8271.45
464.78	8444.65
464.96	8271.45
465.14	8051.44
465.32	8470.40
465.50	8638.92
465.69	8557.00
465.87	8531.25
466.05	8524.23
466.23	8470.40
466.41	8479.76
466.60	8568.70
466.78	8545.30
466.96	8601.47
467.14	8505.51
467.32	8603.81
467.51	8814.46
467.69	8589.77
467.87	8821.48
468.05	8875.31
468.23	8713.81
468.41	8573.38
468.60	8645.94
468.78	8990.00
468.96	8812.12
469.14	8882.33
469.32	9095.32
469.50	8765.31
469.69	9050.85
469.87	9142.13
470.05	9013.40
470.23	9142.13
470.41	9205.33
470.59	9343.42
470.77	9214.69
470.95	9114.05
471.14	9343.42
471.32	9345.76
471.50	9458.10
471.68	9434.70
471.86	9586.83
472.04	9710.88
472.22	9685.14
472.40	9556.41
472.58	9666.41
472.77	9612.58
472.95	9661.73
473.13	9937.91
473.31	9781.10
473.49	9720.24
473.67	9764.72
473.85	9973.02
474.03	10097.07
474.21	10132.18
474.39	10267.93
474.57	10076.01
474.75	10216.44
474.93	10361.55
475.12	10595.61
475.30	10457.51
475.48	10504.32
475.66	10534.75
475.84	10539.43
476.02	10562.84
476.20	10370.91
476.38	10848.38
476.56	11052.01
476.74	10970.09
476.92	10707.95
477.10	10951.37
477.28	11173.72
477.46	11351.60
477.64	11382.03
477.82	11367.98
478.00	11627.78
478.18	11426.50
478.36	11550.54
478.54	11868.86
478.72	11756.51
478.90	11932.05
479.08	12262.07
479.26	12276.11
479.44	12060.78
479.62	12081.85
479.80	12198.87
479.98	12430.59
480.16	12636.55
480.34	12343.99
480.52	12931.46
480.70	12695.07
480.88	12678.68
481.06	12659.96
481.24	13011.04
481.41	13233.39
481.59	13270.84
481.77	13448.72
481.95	13188.92
482.13	13511.91
482.31	13689.79
482.49	13767.03
482.67	13921.51
482.85	13923.85
483.03	13951.93
483.21	14197.69
483.39	14047.90
483.57	14169.60
483.74	14377.91
483.92	14462.17
484.10	14572.18
484.28	14951.34
484.46	14939.64
484.64	15208.80
484.82	14860.06
485.00	14904.53
485.18	15154.97
485.35	15489.67
485.53	15391.36
485.71	15218.16
485.89	15302.42
486.07	15475.62
486.25	15470.94
486.43	16013.95
486.61	15857.13
486.78	16177.78
486.96	16205.87
487.14	16638.87
487.32	16568.65
487.50	16514.82
487.68	17025.06
487.85	17233.36
488.03	17116.34
488.21	17579.76
488.39	17315.28
488.57	17451.03
488.75	17785.73
488.92	17956.59
489.10	17954.25
489.28	18218.73
489.46	18396.61
489.64	18202.35
489.81	18523.00
489.99	18764.07
490.17	18609.60
490.35	19339.85
490.53	18876.42
490.70	19033.24
490.88	19035.58
491.06	19489.64
491.24	19377.30
491.41	19564.54
491.59	19295.38
491.77	19737.74
491.95	19800.93
492.13	20020.94
492.30	20297.13
492.48	20240.95
492.66	20414.15
492.84	20329.89
493.01	20507.77
493.19	20613.10
493.37	21069.50
493.54	21130.36
493.72	21081.21
493.90	20900.98
494.08	21579.74
494.25	21972.95
494.43	21734.21
494.61	21940.18
494.79	21928.48
494.96	21914.44
495.14	22195.30
495.32	22150.83
495.49	22160.19
495.67	22251.47
495.85	22384.88
496.02	22597.87
496.20	22759.37
496.38	22658.73
496.55	22869.37
496.73	23491.96
496.91	23033.21
497.09	23445.15
497.26	23562.17
497.44	23260.24
497.62	23440.47
497.79	23447.49
497.97	23632.39
498.14	23819.63
498.32	24250.29
498.50	24175.39
498.67	24353.27
498.85	24510.09
499.03	24790.95
499.20	24519.45
499.38	24809.68
499.56	24533.50
499.73	24587.33
499.91	24879.89
500.08	25102.25
500.26	24793.29
500.44	25050.75
500.61	25226.29
500.79	25261.40
500.97	25371.41
501.14	25659.29
501.32	25624.18
501.49	25551.63
501.67	25448.64
501.84	25944.84
502.02	25771.64
502.20	26331.03
502.37	26127.40
502.55	26309.96
502.72	26316.98
502.90	26324.01
503.07	26590.83
503.25	26590.83
503.43	26302.94
503.60	26307.62
503.78	26539.33
503.95	26698.49
504.13	26700.83
504.30	27204.05
504.48	27094.04
504.65	27089.36
504.83	27168.94
505.01	27435.76
505.18	27365.54
505.36	27735.35
505.53	27445.12
505.71	27873.44
505.88	27983.44
506.06	27988.13
506.23	28048.98
506.41	28140.26
506.58	28088.77
506.76	27882.80
506.93	28496.02
507.11	28299.42
507.28	28407.08
507.46	28264.31
507.63	28496.02
507.81	28833.06
507.98	28411.76
508.16	28720.71
508.33	29046.05
508.50	28973.49
508.68	28903.28
508.85	29284.78
509.03	28952.43
509.20	29584.37
509.38	29530.54
509.55	29319.89
509.73	29633.52
509.90	29745.87
510.08	29846.51
510.25	29816.08
510.42	29717.78
510.60	30054.82
510.77	30305.26
510.95	30256.11
511.12	30382.49
511.30	30043.12
511.47	30391.86
511.64	30321.64
511.82	30878.69
511.99	30309.94
512.17	30684.42
512.34	30436.33
512.51	30679.74
512.69	31077.63
512.86	31112.74
513.04	31297.64
513.21	31117.42
513.38	30890.39
513.56	31171.25
513.73	31220.41
513.90	31512.97
514.08	31208.70
514.25	31449.78
514.43	31475.52
514.60	31482.55
514.77	31424.03
514.95	31618.30
515.12	31751.71
515.29	31868.73
515.47	32098.11
515.64	32219.81
515.81	32311.10
515.99	31974.06
516.16	32095.77
516.33	32163.64
516.51	32793.25
516.68	32144.92
516.85	31875.76
517.03	32093.43
517.20	32683.24
517.37	32488.98
517.54	32975.81
517.72	32542.81
517.89	32613.02
518.06	32723.03
518.24	32863.46
518.41	32636.43
518.58	32662.18
518.75	32809.63
518.93	33385.40
519.10	33034.32
519.27	33415.83
519.45	33371.36
519.62	33343.27
519.79	33408.81
519.96	33647.54
520.14	33993.94
520.31	33528.17
520.48	34127.35
520.65	33958.83
520.83	34036.07
521.00	34401.19
521.17	34197.57
521.34	34330.98
521.52	34490.13
521.69	34199.91
521.86	34380.13
522.03	34639.93
522.20	34820.15
522.38	34452.69
522.55	34721.85
522.72	34611.84
522.89	35016.75
523.07	34991.01
523.24	34803.77
523.41	35264.85
523.58	34520.56
523.75	35082.29
523.92	35257.83
524.10	35672.10
524.27	35515.29
524.44	35232.08
524.61	35187.61
524.78	35503.59
524.96	35793.81
525.13	36041.91
525.30	35943.61
525.47	36081.70
525.64	35756.36
525.81	35978.72
525.98	36320.43
526.16	35852.33
526.33	35990.42
526.50	36067.66
526.67	35875.73
526.84	36079.36
527.01	35990.42
527.18	36343.84
527.36	36250.22
527.53	36914.93
527.70	36374.27
527.87	36694.92
528.04	36477.25
528.21	36453.84
528.38	36917.27
528.55	37146.64
528.72	36751.09
528.89	37275.37
529.07	36884.50
529.24	36872.80
529.41	37401.76
529.58	37139.62
529.75	37184.09
529.92	37324.52
530.09	37120.90
530.26	37481.34
530.43	37556.24
530.60	36992.17
530.77	37415.80
530.94	37558.58
531.11	37212.18
531.28	37706.03
531.46	38096.90
531.63	38234.99
531.80	37741.14
531.97	37549.21
532.14	37865.19
532.31	37455.59
532.48	38073.49
532.65	38258.40
532.82	38153.07
532.99	37862.85
533.16	37385.38
533.33	38204.56
533.50	38553.30
533.67	38621.18
533.84	38197.54
534.01	38555.64
534.18	37998.60
534.35	38869.28
534.52	38054.77
534.69	38693.74
534.86	38969.92
535.03	38469.04
535.20	38962.90
535.37	39110.35
535.54	39061.20
535.71	38981.62
535.88	39037.80
536.05	38855.23
536.22	38962.90
536.38	39281.21
536.55	38778.00
536.72	39421.64
536.89	38810.76
537.06	38927.79
537.23	39227.38
537.40	38895.02
537.57	39316.32
537.74	39098.65
537.91	39634.63
538.08	39765.70
538.25	39377.17
538.42	39807.83
538.59	39548.03
538.75	39494.20
538.92	39461.43
539.09	39274.19
539.26	39550.37
539.43	39295.25
539.60	39613.57
539.77	39875.71
539.94	40060.61
540.11	39730.59
540.28	40175.30
540.44	40102.74
540.61	40034.86
540.78	39906.13
540.95	40245.51
541.12	39854.64
541.29	40121.46
541.46	39983.37
541.62	39812.51
541.79	40662.13
541.96	40184.66
542.13	40065.29
542.30	40229.13
542.47	40573.19
542.63	40767.45
542.80	40605.95
542.97	41020.23
543.14	41148.96
543.31	41120.87
543.48	40891.50
543.64	41656.85
543.81	41600.68
543.98	41607.70
544.15	41060.02
544.32	41483.66
544.48	41474.29
544.65	41446.21
544.82	41317.48
544.99	40898.52
545.16	41198.11
545.32	41102.15
545.49	41596.00
545.66	41214.49
545.83	41579.62
546.00	41806.65
546.16	41596.00
546.33	41359.61
546.50	41317.48
546.67	41806.65
546.83	41851.12
547.00	41682.60
547.17	42153.05
547.34	41687.28
547.50	41495.36
547.67	41909.63
547.84	42082.83
548.00	42536.90
548.17	42293.48
548.34	41954.10
548.51	42344.97
548.67	42621.16
548.84	42391.78
549.01	42089.85
549.18	42195.18
549.34	42295.82
549.51	42314.55
549.68	42206.88
549.84	42525.19
550.01	42052.41
550.18	42682.01
550.34	42740.52
550.51	42265.39
550.68	42431.57
550.84	42476.04
551.01	42469.02
551.18	42761.59
551.34	42696.05
551.51	42850.53
551.68	42759.25
551.84	42857.55
552.01	42342.63
552.18	42497.11
552.34	42443.27
552.51	43044.79
552.68	42923.08
552.84	43225.01
553.01	43206.29
553.18	43028.41
553.34	42789.67
553.51	42728.82
553.67	43136.07
553.84	43407.58
554.01	42969.90
554.17	43201.61
554.34	43040.11
554.51	43203.95
554.67	43952.92
554.84	42993.30
555.00	43459.07
555.17	43131.39
555.33	43482.47
555.50	43278.85
555.67	43438.00
555.83	43330.34
556.00	43447.36
556.16	43533.96
556.33	43372.47
556.50	43648.65
556.66	43515.24
556.83	43119.69
556.99	43494.18
557.16	43679.08
557.32	43744.61
557.49	43753.97
557.65	43604.18
557.82	43585.46
557.98	43482.47
558.15	43686.10
558.32	43852.28
558.48	44121.44
558.65	43789.08
558.81	43782.06
558.98	43789.08
559.14	43777.38
559.31	43564.39
559.47	43936.54
559.64	44163.57
559.80	44186.97
559.97	44432.73
560.13	43498.86
560.30	43978.67
560.46	44109.74
560.63	44247.83
560.79	43920.15
560.96	44425.71
561.12	44219.74
561.29	44100.37
561.45	44222.08
561.61	43971.64
561.78	44076.97
561.94	44133.14
562.11	44062.93
562.27	44161.23
562.44	44355.49
562.60	44282.94
562.77	44411.67
562.93	44369.54
563.10	44425.71
563.26	43913.13
563.42	44259.53
563.59	44203.36
563.75	44341.45
563.92	44304.00
564.08	44236.12
564.24	44257.19
564.41	44428.05
564.57	44395.28
564.74	43976.33
564.90	44289.96
565.07	44465.50
565.23	44357.83
565.39	44093.35
565.56	44711.25
565.72	43889.73
565.88	44776.79
566.05	44163.57
566.21	44278.25
566.38	44800.19
566.54	44088.67
566.70	45155.96
566.87	44861.05
567.03	44538.05
567.19	45198.09
567.36	44591.89
567.52	44718.28
567.68	45038.93
567.85	44355.49
568.01	44603.59
568.17	44617.63
568.34	44575.50
568.50	44514.65
568.66	44556.78
568.83	44266.55
568.99	44835.30
569.15	44685.51
569.32	44179.95
569.48	44425.71
569.64	45078.72
569.81	44914.88
569.97	44666.78
570.13	45036.59
570.30	44369.54
570.46	44453.79
570.62	44343.79
570.78	44500.61
570.95	44484.22
571.11	44999.14
571.27	44528.69
571.43	44914.88
571.60	45095.10
571.76	45202.77
571.92	44900.84
572.09	44624.65
572.25	44465.50
572.41	45083.40
572.57	44989.78
572.74	45258.94
572.90	44985.10
573.06	44629.34
573.22	44854.03
573.38	45090.42
573.55	44945.31
573.71	44765.09
573.87	44942.97
574.03	44458.48
574.20	44507.63
574.36	45017.86
574.52	45141.91
574.68	44788.49
574.84	44704.23
575.01	45322.13
575.17	44999.14
575.33	44683.17
575.49	44830.62
575.65	45581.93
575.82	45640.45
575.98	44624.65
576.14	45120.85
576.30	45212.13
576.46	44467.84
576.62	44360.17
576.79	44839.98
576.95	44556.78
577.11	44739.34
577.27	44479.54
577.43	45418.10
577.59	45329.16
577.75	44914.88
577.92	44872.75
578.08	44697.21
578.24	44718.28
578.40	44699.55
578.56	45050.63
578.72	45179.36
578.88	45214.47
579.04	45240.21
579.21	45027.23
579.37	44856.37
579.53	45013.18
579.69	44949.99
579.85	45137.23
580.01	45228.51
580.17	44795.51
580.33	45553.85
580.49	44992.12
580.65	45055.31
580.82	45184.04
580.98	44940.63
581.14	44774.45
581.30	45549.17
581.46	45343.20
581.62	45099.78
581.78	44952.33
581.94	45322.13
582.10	45118.51
582.26	45390.01
582.42	45436.82
582.58	45448.52
582.74	44741.68
582.90	45109.14
583.06	45528.10
583.22	45397.03
583.38	45743.43
583.54	45139.57
583.70	45141.91
583.86	44825.94
584.02	44854.03
584.18	45254.26
584.34	44891.48
584.50	44882.11
584.66	44699.55
584.82	45045.95
584.98	45560.87
585.14	45045.95
585.30	45120.85
585.46	45397.03
585.62	44816.58
585.78	45071.70
585.94	44868.07
586.10	45081.06
586.26	44893.82
586.42	45184.04
586.58	45144.25
586.74	45160.64
586.90	45024.89
587.06	44879.77
587.22	45385.33
587.38	44989.78
587.54	45382.99
587.70	45476.61
587.86	45621.72
588.02	45294.05
588.18	45387.67
588.34	44966.37
588.49	45013.18
588.65	44765.09
588.81	44619.97
588.97	44942.97
589.13	44685.51
589.29	45085.74
589.45	45581.93
589.61	45235.53
589.77	45310.43
589.93	45324.47
590.08	45691.94
590.24	45563.21
