SpectraSuite Data File
++++++++++++++++++++++++++++++++++++
Date: Fri Oct 25 11:24:07 EDT 2013
User: price-jones
Dark Spectrum Present: No
Reference Spectrum Present: No
Number of Sampled Component Spectra: 1
Spectrometers: USB2+H05261
Integration Time (usec): 100000 (USB2+H05261)
Spectra Averaged: 1 (USB2+H05261)
Boxcar Smoothing: 0 (USB2+H05261)
Correct for Electrical Dark: No (USB2+H05261)
Strobe/Lamp Enabled: No (USB2+H05261)
Correct for Detector Non-linearity: No (USB2+H05261)
Correct for Stray Light: No (USB2+H05261)
Number of Pixels in Processed Spectrum: 2048
>>>>>Begin Processed Spectral Data<<<<<
365.73	255.12
365.92	255.12
366.12	255.12
366.32	196.60
366.52	74.90
366.72	189.58
366.91	152.13
367.11	163.84
367.31	191.92
367.51	140.43
367.70	117.03
367.90	147.45
368.10	135.75
368.30	138.09
368.49	135.75
368.69	131.07
368.89	135.75
369.09	135.75
369.28	65.54
369.48	182.56
369.68	117.03
369.87	194.26
370.07	168.52
370.27	210.65
370.47	348.74
370.66	545.34
370.86	653.01
371.06	664.71
371.25	678.76
371.45	690.46
371.65	702.16
371.84	695.14
372.04	774.72
372.24	774.72
372.44	732.59
372.63	704.50
372.83	734.93
373.03	713.86
373.22	772.38
373.42	697.48
373.62	784.08
373.81	704.50
374.01	837.91
374.21	819.19
374.40	772.38
374.60	875.36
374.79	734.93
374.99	821.53
375.19	823.87
375.38	896.43
375.58	835.57
375.78	915.15
375.97	847.27
376.17	840.25
376.37	901.11
376.56	943.24
376.76	814.51
376.95	861.32
377.15	929.19
377.35	861.32
377.54	940.90
377.74	844.93
377.93	840.25
378.13	997.07
378.33	884.72
378.52	894.08
378.72	966.64
378.91	884.72
379.11	908.13
379.31	891.74
379.50	943.24
379.70	1015.79
379.89	1011.11
380.09	971.32
380.28	889.40
380.48	940.90
380.68	896.43
380.87	898.77
381.07	1053.24
381.26	1069.62
381.46	1097.71
381.65	999.41
381.85	1039.20
382.04	931.53
382.24	1076.65
382.43	1018.13
382.63	971.32
382.83	966.64
383.02	1013.45
383.22	1060.26
383.41	1118.78
383.61	1057.92
383.80	1158.57
384.00	1102.39
384.19	1107.07
384.39	1193.67
384.58	1071.97
384.78	1078.99
384.97	1160.91
385.17	1132.82
385.36	1142.18
385.56	1203.04
385.75	1163.25
385.95	1210.06
386.14	1165.59
386.34	1179.63
386.53	1172.61
386.72	1184.31
386.92	1207.72
387.11	1228.78
387.31	1228.78
387.50	1327.08
387.70	1303.68
387.89	1242.82
388.09	1228.78
388.28	1270.91
388.48	1284.95
388.67	1306.02
388.86	1291.98
389.06	1301.34
389.25	1261.55
389.45	1327.08
389.64	1238.14
389.84	1392.62
390.03	1472.20
390.22	1392.62
390.42	1397.30
390.61	1334.11
390.81	1376.24
391.00	1430.07
391.19	1453.47
391.39	1495.60
391.58	1364.53
391.78	1523.69
391.97	1465.18
392.16	1479.22
392.36	1472.20
392.55	1612.63
392.75	1493.26
392.94	1455.81
393.13	1554.12
393.33	1591.56
393.52	1551.78
393.71	1561.14
393.91	1540.07
394.10	1579.86
394.29	1629.01
394.49	1570.50
394.68	1687.53
394.88	1617.31
395.07	1647.74
395.26	1661.78
395.46	1717.95
395.65	1682.85
395.84	1790.51
396.04	1785.83
396.23	1792.85
396.42	1750.72
396.62	1827.96
396.81	1757.74
397.00	1900.52
397.19	1795.19
397.39	1732.00
397.58	1891.15
397.77	1856.04
397.97	1937.96
398.16	1923.92
398.35	1928.60
398.55	1877.11
398.74	1944.99
398.93	2010.52
399.12	1954.35
399.32	2026.90
399.51	1919.24
399.70	1980.09
399.90	2008.18
400.09	2101.80
400.28	2097.12
400.47	2040.95
400.67	2073.71
400.86	2143.93
401.05	2101.80
401.24	2083.08
401.44	2153.29
401.63	2157.97
401.82	2188.40
402.01	2129.89
402.21	2235.21
402.40	2279.68
402.59	2176.70
402.78	2174.36
402.97	2249.25
403.17	2200.10
403.36	2232.87
403.55	2338.20
403.74	2317.13
403.93	2377.98
404.13	2415.43
404.32	2272.66
404.51	2338.20
404.70	2349.90
404.89	2370.96
405.09	2473.95
405.28	2403.73
405.47	2487.99
405.66	2438.84
405.85	2520.76
406.05	2441.18
406.24	2558.21
406.43	2602.68
406.62	2656.51
406.81	2640.12
407.00	2560.55
407.20	2628.42
407.39	2621.40
407.58	2738.43
407.77	2675.23
407.96	2768.85
408.15	2808.64
408.34	2801.62
408.54	2888.22
408.73	2869.50
408.92	2848.43
409.11	2937.37
409.30	2822.69
409.49	2935.03
409.68	2860.13
409.87	2871.84
410.07	2993.55
410.26	3042.70
410.45	2942.05
410.64	3038.02
410.83	3089.51
411.02	3028.65
411.21	3232.28
411.40	3157.38
411.59	3288.45
411.78	3101.21
411.98	3176.11
412.17	3290.79
412.36	3185.47
412.55	3262.71
412.74	3438.25
412.93	3475.70
413.12	3391.44
413.31	3562.30
413.50	3583.36
413.69	3566.98
413.88	3688.68
414.07	3609.11
414.26	3513.14
414.45	3653.58
414.64	3630.17
414.83	3728.47
415.02	3779.97
415.22	3857.20
415.41	3892.31
415.60	3777.62
415.79	3953.16
415.98	3772.94
416.17	4077.21
416.36	4147.43
416.55	3995.29
416.74	4170.83
416.93	4056.15
417.12	4196.58
417.31	4142.75
417.50	4187.22
417.69	4287.86
417.88	4222.33
418.07	4201.26
418.26	4259.78
418.45	4425.95
418.64	4447.02
418.83	4592.13
419.02	4301.90
419.21	4505.53
419.39	4655.33
419.58	4512.55
419.77	4578.09
419.96	4648.30
420.15	4638.94
420.34	4535.96
420.53	4627.24
420.72	4774.69
420.91	4603.83
421.10	4770.01
421.29	4751.29
421.48	4650.64
421.67	4793.42
421.86	4786.40
422.05	4826.18
422.24	4784.06
422.43	4950.23
422.61	4947.89
422.80	5053.22
422.99	4903.42
423.18	5062.58
423.37	5027.47
423.56	4889.38
423.75	4774.69
423.94	4791.08
424.13	4669.37
424.32	4688.09
424.50	4975.98
424.69	5053.22
424.88	5200.67
425.07	4959.60
425.26	4987.68
425.45	4887.04
425.64	5053.22
425.83	4847.25
426.01	5191.31
426.20	5144.50
426.39	5139.82
426.58	5179.61
426.77	5081.30
426.96	5093.01
427.15	5125.77
427.33	5308.34
427.52	5109.39
427.71	5268.55
427.90	5247.48
428.09	5352.81
428.28	5341.10
428.46	5341.10
428.65	5371.53
428.84	5600.90
429.03	5544.73
429.22	5305.99
429.40	5462.81
429.59	5572.82
429.78	5411.32
429.97	5308.34
430.16	5507.28
430.34	5603.24
430.53	5846.66
430.72	5713.25
430.91	5795.17
431.10	5563.45
431.28	5675.80
431.47	5762.40
431.66	5839.64
431.85	5722.61
432.03	5895.81
432.22	6005.81
432.41	5966.03
432.60	5858.36
432.79	5923.90
432.97	6029.22
433.16	5984.75
433.35	5951.98
433.54	5940.28
433.72	6169.65
433.91	6197.74
434.10	6113.48
434.28	6139.23
434.47	6239.87
434.66	6263.27
434.85	6279.66
435.03	6368.60
435.22	6345.19
435.41	6487.96
435.59	6399.02
435.78	6459.88
435.97	6604.99
436.16	6469.24
436.34	6490.31
436.53	6541.80
436.72	6518.39
436.90	6523.07
437.09	6663.51
437.28	6499.67
437.46	6511.37
437.65	6686.91
437.84	6813.30
438.02	6698.61
438.21	6796.92
438.40	6705.63
438.58	6960.75
438.77	7061.40
438.96	6977.14
439.14	7136.29
439.33	7122.25
439.52	7208.85
439.70	7468.65
439.89	7344.60
440.08	7232.26
440.26	7426.52
440.45	7356.30
440.63	7541.21
440.82	7714.41
441.01	7545.89
441.19	7573.97
441.38	7735.47
441.57	7857.18
441.75	7630.15
441.94	7957.82
442.12	7847.82
442.31	8149.75
442.50	8056.12
442.68	7988.25
442.87	8161.45
443.05	7981.23
443.24	8166.13
443.43	7955.48
443.61	8065.49
443.80	8456.36
443.98	8032.72
444.17	7808.03
444.35	8182.51
444.54	8432.95
444.73	8315.92
444.91	8276.13
445.10	8465.72
445.28	8538.27
445.47	8226.98
445.65	8458.70
445.84	8400.18
446.02	8549.98
446.21	8554.66
446.39	8479.76
446.58	8468.06
446.77	8554.66
446.95	8344.01
447.14	8390.82
447.32	8561.68
447.51	8528.91
447.69	8484.44
447.88	8603.81
448.06	8454.02
448.25	8437.63
448.43	8411.89
448.62	8557.00
448.80	8610.83
448.99	8725.52
449.17	8634.24
449.36	8676.37
449.54	8901.06
449.73	8985.32
449.91	9109.36
450.10	8966.59
450.28	9046.17
450.46	8835.52
450.65	9025.11
450.83	9123.41
451.02	9102.34
451.20	9315.33
451.39	9212.35
451.57	9294.27
451.76	9102.34
451.94	9160.86
452.13	9357.46
452.31	9303.63
452.49	9270.86
452.68	9500.23
452.86	9156.18
453.05	9376.19
453.23	9446.40
453.42	9451.08
453.60	9423.00
453.78	9577.47
453.97	9516.62
454.15	9348.10
454.34	9659.39
454.52	9507.26
454.70	9675.77
454.89	10003.45
455.07	9966.00
455.26	9792.80
455.44	10061.96
455.62	9778.76
455.81	9966.00
455.99	10118.14
456.17	9816.21
456.36	10202.40
456.54	10317.08
456.73	10480.92
456.91	10511.35
457.09	10621.35
457.28	10548.79
457.46	10370.91
457.64	10509.01
457.83	10649.44
458.01	10511.35
458.19	10609.65
458.38	10619.01
458.56	10743.06
458.74	10677.52
458.93	10764.12
459.11	10839.02
459.29	10719.65
459.48	10771.15
459.66	10689.23
459.84	10998.18
460.03	11119.89
460.21	11159.67
460.39	10988.82
460.57	11040.31
460.76	11101.16
460.94	11325.85
461.12	11206.48
461.31	11342.24
461.49	11267.34
461.67	11272.02
461.85	11452.24
462.04	11265.00
462.22	11353.94
462.40	11866.52
462.59	11503.73
462.77	11435.86
462.95	11611.40
463.13	11517.78
463.32	11634.80
463.50	11831.41
463.68	11730.76
463.86	11992.90
464.05	11789.28
464.23	11777.58
464.41	11981.20
464.59	11817.36
464.78	12037.38
464.96	11871.20
465.14	11908.65
465.32	12018.65
465.50	12013.97
465.69	12229.30
465.87	12257.39
466.05	12231.64
466.23	12250.36
466.41	12248.02
466.60	12791.03
466.78	12168.45
466.96	12353.35
467.14	12470.37
467.32	12414.20
467.51	12751.24
467.69	12255.04
467.87	12798.05
468.05	12957.21
468.23	12524.21
468.41	12828.48
468.60	12884.65
468.78	12844.86
468.96	12727.83
469.14	13018.06
469.32	13144.45
469.50	12671.66
469.69	13025.08
469.87	13378.50
470.05	13076.57
470.23	13219.35
470.41	13336.37
470.59	13324.67
470.77	13322.33
470.95	13357.44
471.14	13635.96
471.32	13341.05
471.50	13610.22
471.68	13399.57
471.86	13818.52
472.04	13783.41
472.22	14031.51
472.40	13474.46
472.58	13776.39
472.77	14190.67
472.95	14478.55
473.13	14560.47
473.31	14087.68
473.49	14281.95
473.67	13874.70
473.85	14270.25
474.03	14771.12
474.21	14616.65
474.39	14867.08
474.57	14906.87
474.75	14979.43
474.93	15012.20
475.12	15021.56
475.30	15293.06
475.48	15126.88
475.66	15274.34
475.84	15517.75
476.02	15351.57
476.20	15391.36
476.38	15917.98
476.56	15791.59
476.74	15929.69
476.92	16350.98
477.10	15880.53
477.28	16507.80
477.46	16397.79
477.64	16451.63
477.82	16575.67
478.00	17123.36
478.18	16662.27
478.36	17032.08
478.54	17221.66
478.72	17228.68
478.90	17432.31
479.08	17556.36
479.26	17790.41
479.44	17661.68
479.62	18078.30
479.80	18134.47
479.98	18244.48
480.16	18546.40
480.34	18485.55
480.52	18820.25
480.70	18649.39
480.88	18403.63
481.06	18897.49
481.24	18890.46
481.41	18974.72
481.59	19510.71
481.77	19793.91
481.95	19660.50
482.13	19688.59
482.31	19620.71
482.49	20109.88
482.67	20451.60
482.85	20585.01
483.03	20725.44
483.21	20561.61
483.39	21106.95
483.57	20910.35
483.74	21109.29
483.92	21226.32
484.10	21027.37
484.28	21654.64
484.46	22174.24
484.64	22284.24
484.82	22298.28
485.00	22373.18
485.18	22712.56
485.35	23000.44
485.53	22967.68
485.71	23115.13
485.89	23658.14
486.07	23461.53
486.25	23484.94
486.43	23707.29
486.61	24070.07
486.78	24474.98
486.96	24411.79
487.14	24945.43
487.32	24634.14
487.50	24669.25
487.68	25436.94
487.85	25568.01
488.03	25699.08
488.21	25872.28
488.39	25701.42
488.57	26286.56
488.75	26108.68
488.92	26391.88
489.10	26998.08
489.28	26714.87
489.46	27234.47
489.64	27143.19
489.81	27461.51
489.99	27835.99
490.17	27917.91
490.35	28456.23
490.53	28418.78
490.70	28566.24
490.88	28191.75
491.06	29310.53
491.24	28849.44
491.41	29270.74
491.59	29298.83
491.77	29713.10
491.95	29848.85
492.13	30015.03
492.30	30118.01
492.48	29993.97
492.66	30522.93
492.84	30705.49
493.01	30747.62
493.19	30845.92
493.37	31295.30
493.54	31309.35
493.72	31622.98
493.90	31248.49
494.08	32067.68
494.25	32158.96
494.43	32318.12
494.61	32259.60
494.79	32563.87
494.96	32397.70
495.14	32818.99
495.32	33317.53
495.49	33572.64
495.67	33544.56
495.85	33518.81
496.02	34096.92
496.20	34202.25
496.38	34258.42
496.55	34160.12
496.73	34998.03
496.91	34895.05
497.09	34941.86
497.26	35199.32
497.44	34876.32
497.62	35061.22
497.79	35791.47
497.97	35412.31
498.14	36070.00
498.32	36025.53
498.50	36236.17
498.67	37106.85
498.85	36825.99
499.03	37085.79
499.20	36734.71
499.38	37046.00
499.56	37448.57
499.73	37881.57
499.91	37387.72
500.08	38043.07
500.26	37397.08
500.44	38092.22
500.61	38263.08
500.79	38160.09
500.97	38419.89
501.14	38543.94
501.32	38471.39
501.49	39084.61
501.67	39000.35
501.84	39213.34
502.02	39009.71
502.20	39054.18
502.37	39143.12
502.55	39339.72
502.72	39543.35
502.90	39449.73
503.07	39428.66
503.25	39728.25
503.43	39974.01
503.60	40023.16
503.78	40397.65
503.95	40612.98
504.13	40959.38
504.30	41392.37
504.48	40769.79
504.65	40900.86
504.83	41216.83
505.01	41291.73
505.18	41361.95
505.36	41881.55
505.53	41659.20
505.71	41904.95
505.88	42162.41
506.06	41724.73
506.23	42211.56
506.41	42010.28
506.58	42347.31
506.76	42401.14
506.93	43100.97
507.11	42326.25
507.28	42768.61
507.46	43126.71
507.63	43040.11
507.81	43159.48
507.98	43328.00
508.16	43320.98
508.33	43800.79
508.50	43978.67
508.68	43899.09
508.85	44313.36
509.03	44062.93
509.20	44533.37
509.38	44402.30
509.55	44430.39
509.73	44964.03
509.90	45230.85
510.08	44744.02
510.25	44945.31
510.42	44882.11
510.60	44886.79
510.77	45205.11
510.95	45595.98
511.12	45226.17
511.30	45268.30
511.47	45823.01
511.64	45951.74
511.82	46387.08
511.99	45776.20
512.17	45996.21
512.34	45989.19
512.51	46714.75
512.69	46892.63
512.86	46361.33
513.04	46937.10
513.21	46457.29
513.38	46979.23
513.56	46913.70
513.73	47180.52
513.90	47232.01
514.08	47051.79
514.25	47416.91
514.43	47608.84
514.60	47765.65
514.77	47349.04
514.95	47917.79
515.12	47419.25
515.29	47547.98
515.47	48222.06
515.64	48446.75
515.81	48119.07
515.99	48399.94
516.16	48739.32
516.33	48467.81
516.51	48842.30
516.68	48664.42
516.85	48208.01
517.03	49055.29
517.20	49008.48
517.37	48987.41
517.54	48891.45
517.72	49200.40
517.89	49345.51
518.06	49420.41
518.24	49443.82
518.41	49469.56
518.58	49303.38
518.75	49614.68
518.93	49743.41
519.10	49357.22
519.27	49815.96
519.45	50115.55
519.62	50248.96
519.79	49982.14
519.96	50129.59
520.14	50279.39
520.31	50089.80
520.48	50644.51
520.65	50518.12
520.83	50960.48
521.00	50415.14
521.17	50951.12
521.34	50869.20
521.52	50777.92
521.69	51334.97
521.86	51295.18
522.03	51222.62
522.20	51480.08
522.38	51812.44
522.55	51559.66
522.72	51529.23
522.89	51428.59
523.07	51819.46
523.24	51854.57
523.41	52088.62
523.58	51679.03
523.75	51962.23
523.92	51847.55
524.10	52222.03
524.27	52065.22
524.44	52055.85
524.61	52245.44
524.78	52676.10
524.96	52406.94
525.13	52680.78
525.30	52360.12
525.47	52767.38
525.64	52760.36
525.81	52870.36
525.98	52949.94
526.16	52711.20
526.33	52872.70
526.50	53153.57
526.67	52849.30
526.84	53130.16
527.01	53036.54
527.18	52949.94
527.36	53406.34
527.53	53160.59
527.70	53567.84
527.87	53577.20
528.04	53544.44
528.21	53612.31
528.38	53649.76
528.55	53602.95
528.72	53455.50
528.89	53380.60
529.07	53502.31
529.24	53638.06
529.41	53792.53
529.58	53977.43
529.75	53865.09
529.92	53806.58
530.09	53939.99
530.26	54040.63
530.43	54080.42
530.60	53666.14
530.77	53886.15
530.94	54380.01
531.11	53958.71
531.28	54120.21
531.46	54609.38
531.63	54670.23
531.80	54550.87
531.97	54791.94
532.14	54698.32
532.31	54457.24
532.48	54738.11
532.65	54625.76
532.82	54522.78
532.99	54908.97
533.16	54934.71
533.33	55084.51
533.50	55227.28
533.67	54897.27
533.84	54801.30
534.01	54876.20
534.18	55140.68
534.35	55421.55
534.52	55379.42
534.69	55248.35
534.86	55105.57
535.03	55297.50
535.20	55316.22
535.37	55566.66
535.54	55437.93
535.71	55388.78
535.88	55737.52
536.05	55540.91
536.22	55686.03
536.38	55618.15
536.55	55856.88
536.72	55679.00
536.89	55704.75
537.06	55856.88
537.23	56116.68
537.40	55688.37
537.57	55901.36
537.74	55866.25
537.91	56236.05
538.08	56069.87
538.25	55877.95
538.42	56039.45
538.59	56243.07
538.75	56058.17
538.92	56343.72
539.09	56336.69
539.26	56151.79
539.43	56179.88
539.60	56367.12
539.77	56514.58
539.94	56486.49
540.11	56528.62
540.28	56575.43
540.44	56629.26
540.61	56437.34
540.78	56493.51
540.95	56837.57
541.12	56456.06
541.29	56811.82
541.46	56554.36
541.62	56619.90
541.79	56912.47
541.96	56624.58
542.13	56636.28
542.30	56804.80
542.47	56928.85
542.63	56903.10
542.80	56907.79
542.97	57144.18
543.14	57509.30
543.31	57256.53
543.48	57350.15
543.64	57731.65
543.81	57523.35
543.98	57518.67
544.15	57392.28
544.32	57516.32
544.48	57516.32
544.65	57399.30
544.82	57609.95
544.99	57532.71
545.16	57682.50
545.32	57565.48
545.49	57729.31
545.66	57869.75
545.83	57790.17
546.00	57872.09
546.16	57785.49
546.33	57722.29
546.50	57623.99
546.67	57790.17
546.83	57509.30
547.00	57862.72
547.17	58005.50
547.34	57696.55
547.50	57923.58
547.67	58239.55
547.84	58157.63
548.00	58129.54
548.17	58291.04
548.34	58092.10
548.51	58452.54
548.67	58323.81
548.84	58234.87
549.01	58244.23
549.18	58522.76
549.34	58342.53
549.51	58478.28
549.68	58475.94
549.84	58363.60
550.01	58471.26
550.18	58361.26
550.34	58571.91
550.51	58562.54
550.68	58686.59
550.84	58337.85
551.01	58752.13
551.18	58688.93
551.34	58569.57
551.51	58588.29
551.68	58749.79
551.84	58674.89
552.01	58838.73
552.18	58646.80
552.34	58426.79
552.51	58993.20
552.68	58576.59
552.84	58827.02
553.01	58997.88
553.18	58932.35
553.34	58953.41
553.51	58686.59
553.67	58967.46
553.84	58911.28
554.01	58981.50
554.17	59164.06
554.34	59105.55
554.51	59288.11
554.67	59381.73
554.84	59037.67
555.00	59196.83
555.17	58934.69
555.33	59297.47
555.50	59325.56
555.67	59168.74
555.83	59150.02
556.00	59341.94
556.16	59199.17
556.33	59299.81
556.50	59416.84
556.66	59475.35
556.83	59327.90
556.99	59426.20
557.16	59704.73
557.32	59653.23
557.49	59632.17
557.65	59414.50
557.82	59288.11
557.98	59330.24
558.15	59613.44
558.32	59786.64
558.48	59540.89
558.65	59522.16
558.81	59494.08
558.98	59686.00
559.14	59817.07
559.31	59875.58
559.47	59777.28
559.64	59877.93
559.80	59824.09
559.97	59700.04
560.13	59561.95
560.30	59805.37
560.46	59938.78
560.63	59973.89
560.79	59856.86
560.96	60027.72
561.12	59723.45
561.29	60116.66
561.45	60009.00
561.61	60062.83
561.78	59875.58
561.94	60055.81
562.11	59913.03
562.27	60083.89
562.44	60142.41
562.60	60135.38
562.77	60111.98
562.93	59807.71
563.10	60107.30
563.26	59882.61
563.42	60331.99
563.59	59976.23
563.75	60074.53
563.92	60205.60
564.08	60161.13
564.24	60390.50
564.41	60292.20
564.57	60229.01
564.74	60268.79
564.90	60231.35
565.07	60163.47
565.23	60130.70
565.39	60154.11
565.56	60205.60
565.72	60409.23
565.88	60214.96
566.05	60182.19
566.21	60221.98
566.38	60301.56
566.54	60472.42
566.70	60399.86
566.87	60465.40
567.03	60207.94
567.19	60512.21
567.36	60334.33
567.52	60287.52
567.68	60507.53
567.85	60573.06
568.01	60664.35
568.17	60388.16
568.34	60528.59
568.50	60444.33
568.66	60533.28
568.83	60523.91
568.99	60498.17
569.15	60554.34
569.32	60406.89
569.48	60547.32
569.64	60654.98
569.81	60767.33
569.97	60477.10
570.13	60521.57
570.30	60109.64
570.46	60514.55
570.62	60736.90
570.78	60697.11
570.95	60631.58
571.11	60767.33
571.27	60601.15
571.43	60561.36
571.60	60772.01
571.76	60589.45
571.92	60790.73
572.09	60573.06
572.25	60760.31
572.41	60584.77
572.57	60746.26
572.74	61059.90
572.90	60633.92
573.06	60746.26
573.22	60727.54
573.38	60914.78
573.55	60683.07
573.71	60886.70
573.87	60856.27
574.03	60781.37
574.20	60729.88
574.36	60919.46
574.52	60851.59
574.68	61010.74
574.84	60924.14
575.01	60842.23
575.17	60776.69
575.33	60884.36
575.49	60708.82
575.65	60729.88
575.82	60907.76
575.98	60954.57
576.14	61027.13
576.30	60926.49
576.46	60837.54
576.62	60783.71
576.79	61062.24
576.95	60699.45
577.11	60945.21
577.27	61095.00
577.43	60891.38
577.59	60968.61
577.75	60921.80
577.92	60767.33
578.08	61013.08
578.24	60828.18
578.40	61059.90
578.56	61062.24
578.72	61099.68
578.88	61116.07
579.04	61130.11
579.21	61102.03
579.37	61132.45
579.53	61034.15
579.69	60704.13
579.85	60980.32
580.01	61006.06
580.17	61050.53
580.33	61055.21
580.49	60980.32
580.65	61132.45
580.82	60970.96
580.98	61024.79
581.14	60788.39
581.30	61158.20
581.46	60996.70
581.62	61118.41
581.78	61144.16
581.94	60963.93
582.10	60860.95
582.26	61134.79
582.42	60790.73
582.58	61052.87
582.74	60928.83
582.90	61036.49
583.06	61073.94
583.22	60919.46
583.38	60959.25
583.54	61104.37
583.70	61080.96
583.86	61116.07
584.02	61183.94
584.18	61104.37
584.34	61050.53
584.50	60926.49
584.66	60837.54
584.82	60973.30
584.98	61317.35
585.14	61087.98
585.30	61008.40
585.46	61282.25
585.62	61069.26
585.78	61291.61
585.94	61069.26
586.10	61193.31
586.26	61090.32
586.42	61181.60
586.58	61104.37
586.74	61216.71
586.90	61275.22
587.06	61078.62
587.22	61263.52
587.38	60956.91
587.54	61336.08
587.70	61450.77
587.86	61272.88
588.02	61441.40
588.18	61221.39
588.34	60985.00
588.49	61319.70
