SpectraSuite Data File
++++++++++++++++++++++++++++++++++++
Date: Fri Oct 25 10:47:40 EDT 2013
User: price-jones
Dark Spectrum Present: No
Reference Spectrum Present: No
Number of Sampled Component Spectra: 1
Spectrometers: USB2+H05261
Integration Time (usec): 100000 (USB2+H05261)
Spectra Averaged: 1 (USB2+H05261)
Boxcar Smoothing: 0 (USB2+H05261)
Correct for Electrical Dark: No (USB2+H05261)
Strobe/Lamp Enabled: No (USB2+H05261)
Correct for Detector Non-linearity: No (USB2+H05261)
Correct for Stray Light: No (USB2+H05261)
Number of Pixels in Processed Spectrum: 2048
>>>>>Begin Processed Spectral Data<<<<<
365.73	142.77
365.92	142.77
366.12	142.77
366.32	98.30
366.52	93.62
366.72	53.83
366.91	28.09
367.11	77.24
367.31	42.13
367.51	58.51
367.70	4.68
367.90	14.04
368.10	65.54
368.30	49.15
368.49	44.47
368.69	60.85
368.89	0.00
369.09	21.06
369.28	39.79
369.48	72.56
369.68	72.56
369.87	163.84
370.07	124.05
370.27	91.28
370.47	180.22
370.66	376.83
370.86	421.30
371.06	440.02
371.25	428.32
371.45	493.85
371.65	477.47
371.84	379.17
372.04	461.09
372.24	449.38
372.44	472.79
372.63	479.81
372.83	512.58
373.03	526.62
373.22	533.64
373.42	575.77
373.62	472.79
373.81	491.51
374.01	528.96
374.21	533.64
374.40	540.66
374.60	643.65
374.79	557.05
374.99	498.53
375.19	545.34
375.38	594.50
375.58	631.94
375.78	557.05
375.97	596.84
376.17	552.37
376.37	552.37
376.56	706.84
376.76	552.37
376.95	641.31
377.15	571.09
377.35	657.69
377.54	606.20
377.74	566.41
377.93	568.75
378.13	655.35
378.33	629.60
378.52	582.79
378.72	723.23
378.91	676.41
379.11	631.94
379.31	648.33
379.50	622.58
379.70	692.80
379.89	697.48
380.09	617.90
380.28	648.33
380.48	641.31
380.68	734.93
380.87	653.01
381.07	660.03
381.26	734.93
381.46	645.99
381.65	732.59
381.85	697.48
382.04	674.07
382.24	692.80
382.43	767.70
382.63	711.52
382.83	662.37
383.02	655.35
383.22	741.95
383.41	784.08
383.61	739.61
383.80	772.38
384.00	758.33
384.19	770.04
384.39	732.59
384.58	793.44
384.78	805.14
384.97	793.44
385.17	802.80
385.36	748.97
385.56	781.74
385.75	748.97
385.95	753.65
386.14	744.29
386.34	767.70
386.53	812.17
386.72	819.19
386.92	931.53
387.11	875.36
387.31	861.32
387.50	840.25
387.70	870.68
387.89	931.53
388.09	868.34
388.28	833.23
388.48	875.36
388.67	926.85
388.86	908.13
389.06	840.25
389.25	929.19
389.45	933.87
389.64	788.76
389.84	915.15
390.03	1001.75
390.22	992.39
390.42	926.85
390.61	976.00
390.81	924.51
391.00	1015.79
391.19	1060.26
391.39	994.73
391.58	957.28
391.78	1006.43
391.97	931.53
392.16	936.21
392.36	1015.79
392.55	980.68
392.75	959.62
392.94	905.79
393.13	947.92
393.33	933.87
393.52	1011.11
393.71	1111.75
393.91	1020.47
394.10	1057.92
394.29	1100.05
394.49	1057.92
394.68	1156.22
394.88	1156.22
395.07	1158.57
395.26	1102.39
395.46	1158.57
395.65	1078.99
395.84	1160.91
396.04	1137.50
396.23	1104.73
396.42	1081.33
396.62	1179.63
396.81	1184.31
397.00	1174.95
397.19	1146.86
397.39	1193.67
397.58	1221.76
397.77	1336.45
397.97	1280.27
398.16	1299.00
398.35	1252.19
398.55	1252.19
398.74	1284.95
398.93	1488.58
399.12	1446.45
399.32	1270.91
399.51	1376.24
399.70	1359.85
399.90	1423.05
400.09	1345.81
400.28	1401.98
400.47	1511.99
400.67	1516.67
400.86	1439.43
401.05	1474.54
401.24	1589.22
401.44	1516.67
401.63	1486.24
401.82	1455.81
402.01	1439.43
402.21	1507.30
402.40	1514.33
402.59	1504.96
402.78	1586.88
402.97	1533.05
403.17	1607.95
403.36	1607.95
403.55	1582.20
403.74	1619.65
403.93	1741.36
404.13	1710.93
404.32	1621.99
404.51	1724.97
404.70	1640.72
404.89	1572.84
405.09	1799.87
405.28	1764.76
405.47	1736.68
405.66	1823.28
405.85	1771.79
406.05	1764.76
406.24	1816.26
406.43	1834.98
406.62	1893.49
406.81	1959.03
407.00	1788.17
407.20	1870.09
407.39	1853.70
407.58	1952.01
407.77	1942.64
407.96	1998.82
408.15	2029.24
408.34	2015.20
408.54	2045.63
408.73	2019.88
408.92	1949.67
409.11	2045.63
409.30	1970.73
409.49	2120.53
409.68	2043.29
409.87	2040.95
410.07	2181.38
410.26	2139.25
410.45	2188.40
410.64	2167.34
410.83	2204.78
411.02	2305.43
411.21	2289.04
411.40	2200.10
411.59	2373.30
411.78	2345.22
411.98	2331.17
412.17	2448.20
412.36	2377.98
412.55	2466.92
412.74	2424.80
412.93	2511.39
413.12	2473.95
413.31	2541.82
413.50	2499.69
413.69	2560.55
413.88	2612.04
414.07	2605.02
414.26	2656.51
414.45	2612.04
414.64	2623.74
414.83	2754.81
415.02	2736.09
415.22	2715.02
415.41	2700.98
415.60	2750.13
415.79	2916.31
415.98	2895.24
416.17	2977.16
416.36	2942.05
416.55	2888.22
416.74	3014.61
416.93	2839.07
417.12	2977.16
417.31	3080.14
417.50	3133.98
417.69	3110.57
417.88	3063.76
418.07	3091.85
418.26	3080.14
418.45	3096.53
418.64	3220.58
418.83	3218.24
419.02	3227.60
419.21	3342.28
419.39	3295.47
419.58	3290.79
419.77	3253.34
419.96	3344.63
420.15	3452.29
420.34	3232.28
420.53	3414.84
420.72	3445.27
420.91	3431.23
421.10	3440.59
421.29	3475.70
421.48	3407.82
421.67	3353.99
421.86	3503.78
422.05	3442.93
422.24	3445.27
422.43	3456.97
422.61	3487.40
422.80	3641.87
422.99	3440.59
423.18	3550.59
423.37	3506.12
423.56	3480.38
423.75	3576.34
423.94	3552.93
424.13	3302.50
424.32	3463.99
424.50	3562.30
424.69	3658.26
424.88	3658.26
425.07	3527.19
425.26	3503.78
425.45	3639.53
425.64	3569.32
425.83	3672.30
426.01	3726.13
426.20	3513.14
426.39	3597.40
426.58	3644.21
426.77	3714.43
426.96	3595.06
427.15	3627.83
427.33	3698.05
427.52	3829.12
427.71	3681.66
427.90	3658.26
428.09	3679.32
428.28	3779.97
428.46	3815.07
428.65	3906.35
428.84	3859.54
429.03	3920.40
429.22	3871.25
429.40	3889.97
429.59	3873.59
429.78	3698.05
429.97	3691.02
430.16	3749.54
430.34	3850.18
430.53	3899.33
430.72	3918.06
430.91	3971.89
431.10	4049.13
431.28	4032.74
431.47	4273.82
431.66	4100.62
431.85	4149.77
432.03	4210.62
432.22	4334.67
432.41	4224.67
432.60	4217.65
432.79	4294.88
432.97	4393.19
433.16	4360.42
433.35	4191.90
433.54	4332.33
433.72	4327.65
433.91	4301.90
434.10	4393.19
434.28	4243.39
434.47	4564.04
434.66	4491.49
434.85	4552.34
435.03	4521.92
435.22	4484.47
435.41	4550.00
435.59	4575.75
435.78	4578.09
435.97	4645.96
436.16	4613.20
436.34	4496.17
436.53	4641.28
436.72	4741.93
436.90	4641.28
437.09	4821.50
437.28	4585.11
437.46	4755.97
437.65	4603.83
437.84	4737.24
438.02	4903.42
438.21	4723.20
438.40	4713.84
438.58	4870.65
438.77	4945.55
438.96	5020.45
439.14	4992.36
439.33	4975.98
439.52	5158.54
439.70	5163.22
439.89	5111.73
440.08	5327.06
440.26	5172.58
440.45	5245.14
440.63	5179.61
440.82	5465.15
441.01	5467.49
441.19	5427.70
441.38	5633.67
441.57	5584.52
441.75	5507.28
441.94	5610.26
442.12	5645.37
442.31	5818.57
442.50	5734.31
442.68	5703.89
442.87	5696.86
443.05	5743.67
443.24	5905.17
443.43	5830.27
443.61	5841.98
443.80	6017.52
443.98	5867.72
444.17	5764.74
444.35	5944.96
444.54	5968.37
444.73	6076.03
444.91	6026.88
445.10	5823.25
445.28	5930.92
445.47	5792.83
445.65	5767.08
445.84	6019.86
446.02	6031.56
446.21	5989.43
446.39	5795.17
446.58	6169.65
446.77	5975.39
446.95	5947.30
447.14	6148.59
447.32	6071.35
447.51	6106.46
447.69	5989.43
447.88	5996.45
448.06	6029.22
448.25	5900.49
448.43	6143.91
448.62	6141.57
448.80	5970.71
448.99	6101.78
449.17	6164.97
449.36	6228.17
449.54	6349.87
449.73	6214.12
449.91	6438.81
450.10	6567.54
450.28	6457.54
450.46	6555.84
450.65	6476.26
450.83	6408.39
451.02	6555.84
451.20	6569.88
451.39	6607.33
451.57	6609.67
451.76	6553.50
451.94	6452.86
452.13	6593.29
452.31	6612.01
452.49	6424.77
452.68	6644.78
452.86	6560.52
453.05	6640.10
453.23	6956.07
453.42	6553.50
453.60	6595.63
453.78	6764.15
453.97	6630.74
454.15	6780.53
454.34	6864.79
454.52	6923.30
454.70	6932.67
454.89	6925.65
455.07	6808.62
455.26	7009.90
455.44	7021.61
455.62	7045.01
455.81	7028.63
455.99	6846.07
456.17	7023.95
456.36	7133.95
456.54	7075.44
456.73	7133.95
456.91	7431.20
457.09	7382.05
457.28	7440.56
457.46	7461.63
457.64	7274.38
457.83	7396.09
458.01	7428.86
458.19	7627.81
458.38	7506.10
458.56	7452.27
458.74	7541.21
458.93	7571.63
459.11	7552.91
459.29	7693.34
459.48	7648.87
459.66	7665.25
459.84	7672.28
460.03	7763.56
460.21	7742.49
460.39	7817.39
460.57	7838.45
460.76	7765.90
460.94	7908.67
461.12	7922.71
461.31	7948.46
461.49	7960.16
461.67	7819.73
461.85	8116.98
462.04	7817.39
462.22	8226.98
462.40	8166.13
462.59	7864.20
462.77	8072.51
462.95	8049.10
463.13	8182.51
463.32	8140.38
463.50	8285.50
463.68	8131.02
463.86	8156.77
464.05	8049.10
464.23	8128.68
464.41	8138.04
464.59	8358.05
464.78	8362.73
464.96	8468.06
465.14	8287.84
465.32	8285.50
465.50	8423.59
465.69	8423.59
465.87	8205.92
466.05	8456.36
466.23	8407.20
466.41	8461.04
466.60	8655.30
466.78	8358.05
466.96	8484.44
467.14	8594.45
467.32	8493.80
467.51	8875.31
467.69	8334.65
467.87	8657.64
468.05	8795.73
468.23	8496.14
468.41	8542.96
468.60	8814.46
468.78	8851.91
468.96	8999.36
469.14	8868.29
469.32	8961.91
469.50	8535.93
469.69	8931.48
469.87	9158.52
470.05	9266.18
470.23	8985.32
470.41	8915.10
470.59	9130.43
470.77	9025.11
470.95	9287.25
471.14	9146.81
471.32	9139.79
471.50	9312.99
471.68	9336.40
471.86	9444.06
472.04	9451.08
472.22	9659.39
472.40	9275.54
472.58	9593.86
472.77	9507.26
472.95	9650.03
473.13	9923.87
473.31	9694.50
473.49	9795.14
473.67	9523.64
473.85	9675.77
474.03	10127.50
474.21	10171.97
474.39	10352.19
474.57	9837.27
474.75	10305.38
474.93	10289.00
475.12	10270.27
475.30	10375.59
475.48	10253.89
475.66	10464.54
475.84	10562.84
476.02	10445.81
476.20	10558.16
476.38	10775.83
476.56	10869.45
476.74	10937.32
476.92	10857.75
477.10	10883.49
477.28	10927.96
477.46	10965.41
477.64	11063.71
477.82	11449.90
478.00	11440.54
478.18	11513.10
478.36	11419.47
478.54	11758.85
478.72	11627.78
478.90	11798.64
479.08	11845.45
479.26	12079.50
479.44	11976.52
479.62	12128.66
479.80	12222.28
479.98	12278.45
480.16	12451.65
480.34	12519.53
480.52	12521.87
480.70	12821.45
480.88	12496.12
481.06	12666.98
481.24	12556.97
481.41	13111.68
481.59	13240.41
481.77	13156.15
481.95	13376.16
482.13	13689.79
482.31	13390.20
482.49	13556.38
482.67	13767.03
482.85	13834.91
483.03	13781.07
483.21	14134.50
483.39	14157.90
483.57	14057.26
483.74	14370.89
483.92	14637.71
484.10	13970.66
484.28	14728.99
484.46	15023.90
484.64	14956.02
484.82	14733.67
485.00	14806.23
485.18	15255.61
485.35	15147.95
485.53	15192.42
485.71	15227.53
485.89	15733.08
486.07	15353.91
486.25	15510.73
486.43	15690.95
486.61	15819.68
486.78	16137.99
486.96	16379.07
487.14	16517.16
487.32	16285.45
487.50	16973.56
487.68	16723.13
487.85	17022.72
488.03	17172.51
488.21	17277.83
488.39	17373.80
488.57	17497.84
488.75	17619.55
488.92	17664.02
489.10	17736.58
489.28	17958.93
489.46	18111.07
489.64	17935.53
489.81	18703.22
489.99	18607.26
490.17	18679.82
490.35	18705.56
490.53	18820.25
490.70	18773.44
490.88	19082.39
491.06	19267.29
491.24	19197.07
491.41	19199.41
491.59	19183.03
491.77	19484.96
491.95	19805.61
492.13	19779.87
492.30	20119.24
492.48	19819.66
492.66	20243.29
492.84	20037.33
493.01	20561.61
493.19	20362.66
493.37	20748.85
493.54	20781.62
493.72	20978.22
493.90	21043.76
494.08	21263.77
494.25	21586.76
494.43	21593.78
494.61	21811.45
494.79	21785.71
494.96	21647.61
495.14	21671.02
495.32	22068.91
495.49	21827.84
495.67	22607.23
495.85	22352.12
496.02	22382.54
496.20	22874.06
496.38	22740.64
496.55	22810.86
496.73	23091.73
496.91	22754.69
497.09	23183.01
497.26	23173.64
497.44	23225.14
497.62	23342.16
497.79	23623.03
497.97	23484.94
498.14	24091.13
498.32	23709.63
498.50	23875.80
498.67	24648.18
498.85	24201.14
499.03	24147.31
499.20	24641.16
499.38	24444.56
499.56	24482.00
499.73	24797.98
499.91	24631.80
500.08	25074.16
500.26	24711.38
500.44	24821.38
500.61	24861.17
500.79	24982.88
500.97	25200.55
501.14	25458.01
501.32	25420.56
501.49	25568.01
501.67	25619.50
501.84	25848.88
502.02	25649.93
502.20	26171.87
502.37	25825.47
502.55	25958.88
502.72	26349.75
502.90	26232.72
503.07	26150.81
503.25	26274.85
503.43	26127.40
503.60	26595.51
503.78	26244.43
503.95	26494.86
504.13	26574.44
504.30	26693.81
504.48	26871.69
504.65	27035.53
504.83	27068.30
505.01	27112.77
505.18	26925.52
505.36	27637.05
505.53	27091.70
505.71	27749.39
505.88	27922.59
506.06	27721.30
506.23	28222.18
506.41	27655.77
506.58	27922.59
506.76	28231.54
506.93	28163.67
507.11	28680.92
507.28	28093.45
507.46	28034.94
507.63	28376.66
507.81	28463.25
507.98	28388.36
508.16	28208.14
508.33	28671.56
508.50	28830.72
508.68	29184.14
508.85	29247.33
509.03	28936.04
509.20	29394.79
509.38	29455.64
509.55	29567.99
509.73	29553.94
509.90	29586.71
510.08	29212.23
510.25	29689.70
510.42	29738.85
510.60	29919.07
510.77	29804.38
510.95	29970.56
511.12	29811.40
511.30	30122.69
511.47	30586.12
511.64	30181.21
511.82	30426.96
511.99	29944.81
512.17	30691.44
512.34	30270.15
512.51	30817.83
512.69	30396.54
512.86	30871.67
513.04	30852.94
513.21	30792.09
513.38	30780.39
513.56	30953.58
513.73	30806.13
513.90	31002.74
514.08	31035.50
514.25	31042.53
514.43	31594.89
514.60	31409.99
514.77	31330.41
514.95	31615.96
515.12	31431.05
515.29	31882.78
515.47	32109.81
515.64	31875.76
515.81	32060.66
515.99	32041.93
516.16	32030.23
516.33	31718.94
516.51	31981.08
516.68	31747.03
516.85	31714.26
517.03	32102.79
517.20	32271.31
517.37	32624.73
517.54	32879.85
517.72	32517.06
517.89	32498.34
518.06	32732.39
518.24	32121.51
518.41	32598.98
518.58	32734.73
518.75	32610.68
518.93	33020.28
519.10	33181.77
519.27	33464.98
519.45	33390.08
519.62	33830.10
519.79	33453.28
519.96	33226.24
520.14	33614.77
520.31	33582.01
520.48	33783.29
520.65	33759.89
520.83	34071.18
521.00	33670.95
521.17	34293.53
521.34	33937.77
521.52	34338.00
521.69	34553.33
521.86	34349.70
522.03	34387.15
522.20	34803.77
522.38	34335.66
522.55	34452.69
522.72	34558.01
522.89	34394.17
523.07	35117.40
523.24	34480.77
523.41	34876.32
523.58	35138.46
523.75	35257.83
523.92	35115.06
524.10	34991.01
524.27	35154.85
524.44	35194.64
524.61	35400.60
524.78	35723.60
524.96	35634.66
525.13	35686.15
525.30	36184.68
525.47	35995.10
525.64	35424.01
525.81	35466.14
525.98	35522.31
526.16	35323.36
526.33	35833.60
526.50	35798.49
526.67	35632.32
526.84	36123.83
527.01	36432.78
527.18	36165.96
527.36	36400.01
527.53	36783.86
527.70	36701.94
527.87	36559.17
528.04	36201.07
528.21	36467.89
528.38	36467.89
528.55	36933.65
528.72	36971.10
528.89	36797.90
529.07	36889.18
529.24	36622.36
529.41	36748.75
529.58	37268.35
529.75	36624.70
529.92	37202.82
530.09	37092.81
530.26	36840.03
530.43	37476.66
530.60	37186.43
530.77	37069.40
530.94	37380.70
531.11	37462.61
531.28	37329.20
531.46	37731.78
531.63	37570.28
531.80	37736.46
531.97	37804.33
532.14	37509.43
532.31	37755.18
532.48	37900.29
532.65	37900.29
532.82	37839.44
532.99	38197.54
533.16	37687.31
533.33	38218.61
533.50	38319.25
533.67	38167.12
533.84	37940.08
534.01	38326.27
534.18	38022.00
534.35	38658.63
534.52	37977.53
534.69	38747.57
534.86	38590.75
535.03	38373.08
535.20	38593.09
535.37	39201.63
535.54	39005.03
535.71	38691.40
535.88	38579.05
536.05	38738.21
536.22	39187.59
536.38	38906.73
536.55	38913.75
536.72	39012.05
536.89	38440.96
537.06	38913.75
537.23	39360.79
537.40	38677.35
537.57	39253.12
537.74	38944.17
537.91	39398.24
538.08	39082.27
538.25	39367.81
538.42	39421.64
538.59	39330.36
538.75	39196.95
538.92	39531.65
539.09	39641.65
539.26	39601.86
539.43	39763.36
539.60	39896.77
539.77	39676.76
539.94	39679.10
540.11	39079.92
540.28	39964.65
540.44	39873.37
540.61	39536.33
540.78	39608.89
540.95	39229.72
541.12	39950.60
541.29	39601.86
541.46	40158.91
541.62	40067.63
541.79	40315.73
541.96	40088.70
542.13	40158.91
542.30	40542.76
542.47	40107.42
542.63	40495.95
542.80	40369.56
542.97	41198.11
543.14	40905.54
543.31	40493.61
543.48	40875.12
543.64	41003.85
543.81	40914.90
543.98	41055.34
544.15	40814.26
544.32	40783.83
544.48	41350.24
544.65	41207.47
544.82	41212.15
544.99	40917.25
545.16	41436.84
545.32	41060.02
545.49	41481.31
545.66	41474.29
545.83	41383.01
546.00	41993.89
546.16	42082.83
546.33	40685.53
546.50	40851.71
546.67	41324.50
546.83	40903.20
547.00	41434.50
547.17	41497.70
547.34	41577.28
547.50	41893.25
547.67	41701.32
547.84	41911.97
548.00	41963.46
548.17	41780.90
548.34	42052.41
548.51	42410.51
548.67	41970.49
548.84	42003.25
549.01	41944.74
549.18	41799.63
549.34	42337.95
549.51	41949.42
549.68	42387.10
549.84	42162.41
550.01	42726.48
550.18	42122.62
550.34	42370.72
550.51	42171.77
550.68	42099.22
550.84	41696.64
551.01	42445.62
551.18	41944.74
551.34	42347.31
551.51	42761.59
551.68	42469.02
551.84	42567.32
552.01	42728.82
552.18	42572.00
552.34	42279.44
552.51	42644.56
552.68	42703.07
552.84	42916.06
553.01	43316.29
553.18	42995.64
553.34	42768.61
553.51	43140.75
553.67	42658.60
553.84	43248.42
554.01	43159.48
554.17	43288.21
554.34	43023.73
554.51	42960.53
554.67	43107.99
554.84	42621.16
555.00	43180.54
555.17	42916.06
555.33	42988.62
555.50	42712.44
555.67	42953.51
555.83	43414.60
556.00	43129.05
556.16	43622.90
556.33	43180.54
556.50	43236.72
556.66	43328.00
556.83	43037.77
556.99	43456.73
557.16	43105.65
557.32	43276.51
557.49	43379.49
557.65	43107.99
557.82	43267.14
557.98	43459.07
558.15	43625.25
558.32	43711.84
558.48	43594.82
558.65	43477.79
558.81	43704.82
558.98	43533.96
559.14	44034.84
559.31	43449.70
559.47	43716.53
559.64	44203.36
559.80	44062.93
559.97	43751.63
560.13	43468.43
560.30	43590.14
560.46	43349.06
560.63	43697.80
560.79	43931.86
560.96	44037.18
561.12	44069.95
561.29	44425.71
561.45	43978.67
561.61	43873.34
561.78	43922.49
561.94	43807.81
562.11	44254.85
562.27	43702.48
562.44	43407.58
562.60	44051.22
562.77	44308.68
562.93	44182.29
563.10	44135.48
563.26	44009.09
563.42	44006.75
563.59	43725.89
563.75	43992.71
563.92	44444.43
564.08	44350.81
564.24	44308.68
564.41	44467.84
564.57	44140.16
564.74	44149.53
564.90	44531.03
565.07	44465.50
565.23	44065.27
565.39	44292.30
565.56	44526.35
565.72	43952.92
565.88	44030.16
566.05	44364.85
566.21	44170.59
566.38	44091.01
566.54	44025.48
566.70	44339.11
566.87	44294.64
567.03	44336.77
567.19	44877.43
567.36	44748.70
567.52	44577.84
567.68	44694.87
567.85	44294.64
568.01	44404.64
568.17	44250.17
568.34	44964.03
568.50	44624.65
568.66	44786.15
568.83	44556.78
568.99	44505.29
569.15	44774.45
569.32	44619.97
569.48	44589.55
569.64	44727.64
569.81	45001.48
569.97	44676.15
570.13	44502.95
570.30	44423.37
570.46	44128.46
570.62	44149.53
570.78	44315.70
570.95	44161.23
571.11	44837.64
571.27	44542.74
571.43	44486.56
571.60	44781.47
571.76	44755.72
571.92	44650.40
572.09	44486.56
572.25	44512.31
572.41	44617.63
572.57	44992.12
572.74	45120.85
572.90	44687.85
573.06	44800.19
573.22	44879.77
573.38	44662.10
573.55	44261.87
573.71	44863.39
573.87	44891.48
574.03	44456.14
574.20	44713.59
574.36	44608.27
574.52	44849.35
574.68	45298.73
574.84	44687.85
575.01	44552.10
575.17	44758.06
575.33	44945.31
575.49	44261.87
575.65	44926.58
575.82	45181.70
575.98	44800.19
576.14	45174.68
576.30	44823.60
576.46	44690.19
576.62	44697.21
576.79	44151.87
576.95	44135.48
577.11	44828.28
577.27	44842.32
577.43	45010.84
577.59	44748.70
577.75	45106.80
577.92	44680.83
578.08	44746.36
578.24	44641.04
578.40	44697.21
578.56	44577.84
578.72	45034.25
578.88	44739.34
579.04	44509.97
579.21	44568.48
579.37	44938.29
579.53	44692.53
579.69	44664.44
579.85	44905.52
580.01	45001.48
580.17	44699.55
580.33	45008.50
580.49	44945.31
580.65	44776.79
580.82	44823.60
580.98	44484.22
581.14	44617.63
581.30	44849.35
581.46	44680.83
581.62	45045.95
581.78	45041.27
581.94	44816.58
582.10	45256.60
582.26	45249.58
582.42	44629.34
582.58	44926.58
582.74	44566.14
582.90	44421.03
583.06	45123.19
583.22	44776.79
583.38	45280.00
583.54	44949.99
583.70	45221.49
583.86	44957.01
584.02	44816.58
584.18	44699.55
584.34	45170.00
584.50	44982.76
584.66	44608.27
584.82	44889.13
584.98	45017.86
585.14	44692.53
585.30	44877.43
585.46	44849.35
585.62	45162.98
585.78	44863.39
585.94	44201.02
586.10	44809.56
586.26	45067.02
586.42	45116.17
586.58	45272.98
586.74	45102.12
586.90	44683.17
587.06	44839.98
587.22	45050.63
587.38	44406.98
587.54	45251.92
587.70	45125.53
587.86	45139.57
588.02	45595.98
588.18	45282.34
588.34	44830.62
588.49	44509.97
588.65	44514.65
588.81	44474.86
588.97	44554.44
589.13	45139.57
589.29	44790.83
589.45	44884.45
589.61	45113.83
589.77	45298.73
589.93	44856.37
590.08	45162.98
590.24	45001.48
