SpectraSuite Data File
++++++++++++++++++++++++++++++++++++
Date: Fri Oct 25 10:43:33 EDT 2013
User: price-jones
Dark Spectrum Present: No
Reference Spectrum Present: No
Number of Sampled Component Spectra: 1
Spectrometers: USB2+H05261
Integration Time (usec): 100000 (USB2+H05261)
Spectra Averaged: 1 (USB2+H05261)
Boxcar Smoothing: 0 (USB2+H05261)
Correct for Electrical Dark: No (USB2+H05261)
Strobe/Lamp Enabled: No (USB2+H05261)
Correct for Detector Non-linearity: No (USB2+H05261)
Correct for Stray Light: No (USB2+H05261)
Number of Pixels in Processed Spectrum: 2048
>>>>>Begin Processed Spectral Data<<<<<
365.73	128.73
365.92	128.73
366.12	128.73
366.32	46.81
366.52	14.04
366.72	42.13
366.91	2.34
367.11	98.30
367.31	0.00
367.51	16.38
367.70	65.54
367.90	0.00
368.10	14.04
368.30	0.00
368.49	28.09
368.69	9.36
368.89	74.90
369.09	74.90
369.28	84.26
369.48	0.00
369.68	79.58
369.87	79.58
370.07	56.17
370.27	98.30
370.47	201.29
370.66	379.17
370.86	376.83
371.06	449.38
371.25	528.96
371.45	430.66
371.65	472.79
371.84	468.11
372.04	425.98
372.24	526.62
372.44	526.62
372.63	526.62
372.83	484.49
373.03	507.90
373.22	538.32
373.42	578.11
373.62	524.28
373.81	599.18
374.01	524.28
374.21	507.90
374.40	540.66
374.60	526.62
374.79	587.47
374.99	524.28
375.19	486.83
375.38	594.50
375.58	533.64
375.78	627.26
375.97	634.29
376.17	615.56
376.37	622.58
376.56	636.63
376.76	629.60
376.95	606.20
377.15	657.69
377.35	711.52
377.54	723.23
377.74	613.22
377.93	627.26
378.13	592.16
378.33	744.29
378.52	699.82
378.72	678.76
378.91	690.46
379.11	657.69
379.31	638.97
379.50	645.99
379.70	641.31
379.89	713.86
380.09	671.73
380.28	641.31
380.48	648.33
380.68	711.52
380.87	716.20
381.07	688.12
381.26	716.20
381.46	671.73
381.65	770.04
381.85	685.78
382.04	664.71
382.24	681.10
382.43	718.54
382.63	723.23
382.83	732.59
383.02	763.01
383.22	723.23
383.41	744.29
383.61	620.24
383.80	725.57
384.00	734.93
384.19	772.38
384.39	805.14
384.58	802.80
384.78	837.91
384.97	779.40
385.17	746.63
385.36	781.74
385.56	753.65
385.75	751.31
385.95	835.57
386.14	894.08
386.34	887.06
386.53	788.76
386.72	805.14
386.92	842.59
387.11	847.27
387.31	952.60
387.50	781.74
387.70	821.53
387.89	898.77
388.09	952.60
388.28	915.15
388.48	887.06
388.67	954.94
388.86	947.92
389.06	971.32
389.25	1046.22
389.45	898.77
389.64	936.21
389.84	999.41
390.03	976.00
390.22	978.34
390.42	999.41
390.61	997.07
390.81	919.83
391.00	1029.84
391.19	1020.47
391.39	1015.79
391.58	1067.28
391.78	954.94
391.97	1013.45
392.16	987.71
392.36	1100.05
392.55	938.55
392.75	1011.11
392.94	954.94
393.13	1011.11
393.33	994.73
393.52	910.47
393.71	1121.12
393.91	1055.58
394.10	1151.54
394.29	1100.05
394.49	1245.16
394.68	1170.27
394.88	1163.25
395.07	1282.61
395.26	1338.79
395.46	1231.12
395.65	1242.82
395.84	1282.61
396.04	1308.36
396.23	1196.01
396.42	1097.71
396.62	1191.33
396.81	1167.93
397.00	1266.23
397.19	1242.82
397.39	1196.01
397.58	1378.58
397.77	1343.47
397.97	1418.36
398.16	1437.09
398.35	1439.43
398.55	1535.39
398.74	1357.51
398.93	1423.05
399.12	1481.56
399.32	1523.69
399.51	1554.12
399.70	1572.84
399.90	1528.37
400.09	1570.50
400.28	1586.88
400.47	1589.22
400.67	1612.63
400.86	1753.06
401.05	1659.44
401.24	1706.25
401.44	1720.29
401.63	1638.38
401.82	1741.36
402.01	1631.35
402.21	1736.68
402.40	1696.89
402.59	1685.19
402.78	1659.44
402.97	1811.57
403.17	1741.36
403.36	1851.36
403.55	1909.88
403.74	2057.33
403.93	1916.90
404.13	1895.83
404.32	1823.28
404.51	1914.56
404.70	1954.35
404.89	1954.35
405.09	1975.41
405.28	1980.09
405.47	1881.79
405.66	1846.68
405.85	1916.90
406.05	1912.22
406.24	2080.74
406.43	2054.99
406.62	2054.99
406.81	2101.80
407.00	2118.18
407.20	2076.06
407.39	2078.40
407.58	2108.82
407.77	2165.00
407.96	2195.42
408.15	2223.51
408.34	2125.21
408.54	2263.30
408.73	2169.68
408.92	2291.38
409.11	2282.02
409.30	2312.45
409.49	2193.08
409.68	2232.87
409.87	2155.63
410.07	2242.23
410.26	2321.81
410.45	2415.43
410.64	2516.08
410.83	2429.48
411.02	2628.42
411.21	2581.61
411.40	2530.12
411.59	2602.68
411.78	2679.91
411.98	2703.32
412.17	2693.96
412.36	2736.09
412.55	2780.56
412.74	2740.77
412.93	2745.45
413.12	2768.85
413.31	2878.86
413.50	2895.24
413.69	2906.95
413.88	2967.80
414.07	2785.24
414.26	3042.70
414.45	3117.59
414.64	2895.24
414.83	3035.67
415.02	3162.06
415.22	3075.46
415.41	3052.06
415.60	2977.16
415.79	3173.77
415.98	3215.90
416.17	3265.05
416.36	3206.53
416.55	3180.79
416.74	3215.90
416.93	3267.39
417.12	3213.56
417.31	3328.24
417.50	3316.54
417.69	3508.46
417.88	3482.72
418.07	3433.57
418.26	3527.19
418.45	3447.61
418.64	3541.23
418.83	3691.02
419.02	3508.46
419.21	3566.98
419.39	3508.46
419.58	3405.48
419.77	3485.06
419.96	3786.99
420.15	3681.66
420.34	3712.09
420.53	3660.60
420.72	3859.54
420.91	3784.65
421.10	3857.20
421.29	3864.22
421.48	3712.09
421.67	3801.03
421.86	3882.95
422.05	3700.39
422.24	3833.80
422.43	3840.82
422.61	3857.20
422.80	3983.59
422.99	3889.97
423.18	3932.10
423.37	4063.17
423.56	3770.60
423.75	3967.21
423.94	3922.74
424.13	3702.73
424.32	3801.03
424.50	3964.87
424.69	4067.85
424.88	4067.85
425.07	3721.45
425.26	3896.99
425.45	3875.93
425.64	4039.76
425.83	4011.68
426.01	3981.25
426.20	4198.92
426.39	4088.92
426.58	4070.19
426.77	3971.89
426.96	3988.27
427.15	4065.51
427.33	4112.32
427.52	4056.15
427.71	4074.87
427.90	4168.49
428.09	4187.22
428.28	4077.21
428.46	4119.34
428.65	4191.90
428.84	4243.39
429.03	4194.24
429.22	4142.75
429.40	4212.96
429.59	4224.67
429.78	3885.29
429.97	3887.63
430.16	4039.76
430.34	4215.30
430.53	4329.99
430.72	4243.39
430.91	4304.25
431.10	4376.80
431.28	4484.47
431.47	4760.65
431.66	4692.77
431.85	4545.32
432.03	4587.45
432.22	4365.10
432.41	4585.11
432.60	4805.12
432.79	4807.46
432.97	4601.49
433.16	4606.17
433.35	4592.13
433.54	4678.73
433.72	4697.46
433.91	4716.18
434.10	4760.65
434.28	4952.57
434.47	4753.63
434.66	4835.55
434.85	5020.45
435.03	4966.62
435.22	4971.30
435.41	5172.58
435.59	5062.58
435.78	5081.30
435.97	5135.14
436.16	5107.05
436.34	5221.74
436.53	5048.54
436.72	5275.57
436.90	5022.79
437.09	5238.12
437.28	5057.90
437.46	5228.76
437.65	5069.60
437.84	5116.41
438.02	5027.47
438.21	5107.05
438.40	5217.05
438.58	5254.50
438.77	5418.34
438.96	5511.96
439.14	5542.39
439.33	5703.89
439.52	5514.30
439.70	5483.88
439.89	5753.04
440.08	5654.73
440.26	5631.33
440.45	5664.10
440.63	5841.98
440.82	5944.96
441.01	6036.24
441.19	6031.56
441.38	6066.67
441.57	6125.18
441.75	6232.85
441.94	6380.30
442.12	6176.67
442.31	6291.36
442.50	6267.95
442.68	6375.62
442.87	6558.18
443.05	6230.51
443.24	6569.88
443.43	6541.80
443.61	6583.93
443.80	6663.51
443.98	6370.94
444.17	6122.84
444.35	6319.45
444.54	6560.52
444.73	6370.94
444.91	6476.26
445.10	6581.59
445.28	6487.96
445.47	6370.94
445.65	6349.87
445.84	6476.26
446.02	6677.55
446.21	6597.97
446.39	6640.10
446.58	6476.26
446.77	6745.42
446.95	6499.67
447.14	6682.23
447.32	6836.70
447.51	6612.01
447.69	6565.20
447.88	6679.89
448.06	6736.06
448.25	6848.41
448.43	6757.13
448.62	6862.45
448.80	6771.17
448.99	7009.90
449.17	6862.45
449.36	6705.63
449.54	7035.65
449.73	7063.74
449.91	7133.95
450.10	7159.70
450.28	7248.64
450.46	7368.01
450.65	7140.97
450.83	7302.47
451.02	7166.72
451.20	7293.11
451.39	7098.84
451.57	7265.02
451.76	7323.54
451.94	7375.03
452.13	7178.42
452.31	7133.95
452.49	6988.84
452.68	7286.09
452.86	7136.29
453.05	7318.86
453.23	7384.39
453.42	7358.64
453.60	7243.96
453.78	7396.09
453.97	7386.73
454.15	7517.80
454.34	7424.18
454.52	7447.58
454.70	7475.67
454.89	7728.45
455.07	7562.27
455.26	7660.57
455.44	7854.84
455.62	7751.85
455.81	7859.52
455.99	7808.03
456.17	7810.37
456.36	7885.26
456.54	7932.08
456.73	8002.29
456.91	8145.06
457.09	8217.62
457.28	8098.25
457.46	8102.93
457.64	8159.11
457.83	8044.42
458.01	7962.50
458.19	8219.96
458.38	8156.77
458.56	8290.18
458.74	8112.30
458.93	8189.53
459.11	8386.14
459.29	8365.07
459.48	8465.72
459.66	8311.24
459.84	8400.18
460.03	8346.35
460.21	8446.99
460.39	8374.44
460.57	8528.91
460.76	8720.84
460.94	8575.72
461.12	8571.04
461.31	8512.53
461.49	8681.05
461.67	8681.05
461.85	8678.71
462.04	8901.06
462.22	9242.78
462.40	8978.30
462.59	8870.63
462.77	9111.71
462.95	9081.28
463.13	8980.64
463.32	8985.32
463.50	9022.77
463.68	9107.02
463.86	8898.72
464.05	9006.38
464.23	8982.98
464.41	9036.81
464.59	8931.48
464.78	9247.46
464.96	9149.15
465.14	9312.99
465.32	9221.71
465.50	9062.55
465.69	9289.59
465.87	9308.31
466.05	9280.22
466.23	9214.69
466.41	9088.30
466.60	9270.86
466.78	9095.32
466.96	9282.56
467.14	9212.35
467.32	9273.20
467.51	9298.95
467.69	9102.34
467.87	9406.61
468.05	9565.77
468.23	9425.34
468.41	9535.34
468.60	9640.67
468.78	9689.82
468.96	9575.13
469.14	9551.73
469.32	9762.37
469.50	9614.92
469.69	9671.09
469.87	9633.64
470.05	9738.97
470.23	9914.51
470.41	9837.27
470.59	9909.83
470.77	9760.03
470.95	9832.59
471.14	9975.36
471.32	10057.28
471.50	10366.23
471.68	10403.68
471.86	10480.92
472.04	10368.57
472.22	10434.11
472.40	10324.10
472.58	10251.55
472.77	10352.19
472.95	10476.24
473.13	10820.30
473.31	10434.11
473.49	10436.45
473.67	10658.80
473.85	10485.60
474.03	11119.89
474.21	11068.39
474.39	11066.05
474.57	10967.75
474.75	11103.50
474.93	11353.94
475.12	11356.28
475.30	11281.38
475.48	11201.80
475.66	11021.58
475.84	11515.44
476.02	11524.80
476.20	11496.71
476.38	11655.87
476.56	11740.13
476.74	11939.07
476.92	11852.47
477.10	11578.63
477.28	11943.75
477.46	12088.87
477.64	12112.27
477.82	12362.71
478.00	12362.71
478.18	12697.41
478.36	12528.89
478.54	12776.98
478.72	12746.56
478.90	12922.10
479.08	13036.78
479.26	13369.14
479.44	13092.96
479.62	13336.37
479.80	13167.85
479.98	13628.94
480.16	13874.70
480.34	13654.69
480.52	13729.58
480.70	13914.48
480.88	13767.03
481.06	13837.25
481.24	14066.62
481.41	14244.50
481.59	14473.87
481.77	14328.76
481.95	14787.50
482.13	14616.65
482.31	14335.78
482.49	14717.29
482.67	14890.49
482.85	14885.81
483.03	15035.60
483.21	15447.54
483.39	15353.91
483.57	15082.41
483.74	15332.85
483.92	15915.64
484.10	15712.02
484.28	15887.56
484.46	15859.47
484.64	16095.86
484.82	16070.12
485.00	16037.35
485.18	16325.24
485.35	16524.18
485.53	16252.68
485.71	15943.73
485.89	16622.48
486.07	16123.95
486.25	16732.49
486.43	16805.05
486.61	16673.98
486.78	17172.51
486.96	17448.69
487.14	17535.29
487.32	17633.60
487.50	17895.74
487.68	17989.36
487.85	18338.10
488.03	18487.89
488.21	18562.79
488.39	18523.00
488.57	18466.83
488.75	19044.94
488.92	19084.73
489.10	19396.02
489.28	19583.26
489.46	19852.42
489.64	19531.77
489.81	19814.98
489.99	20084.14
490.17	20088.82
490.35	20177.76
490.53	20168.40
490.70	21132.70
490.88	20437.56
491.06	20926.73
491.24	20570.97
491.41	20547.56
491.59	20891.62
491.77	20762.89
491.95	21252.06
492.13	21415.90
492.30	21729.53
492.48	21949.54
492.66	21429.94
492.84	21612.51
493.01	22141.47
493.19	22082.95
493.37	22506.59
493.54	22169.55
493.72	22534.68
493.90	22857.67
494.08	22920.87
494.25	23061.30
494.43	23232.16
494.61	23503.66
494.79	23571.54
494.96	23410.04
495.14	23552.81
495.32	23281.31
495.49	23796.23
495.67	24166.03
495.85	23843.04
496.02	24166.03
496.20	24458.60
496.38	24386.04
496.55	24524.13
496.73	24760.53
496.91	24482.00
497.09	24844.79
497.26	24718.40
497.44	25001.60
497.62	25366.73
497.79	25479.07
497.97	25132.67
498.14	25535.24
498.32	25476.73
498.50	25528.22
498.67	26047.82
498.85	25970.58
499.03	26281.88
499.20	26188.25
499.38	26347.41
499.56	26359.11
499.73	26221.02
499.91	26799.13
500.08	26464.44
500.26	26309.96
500.44	26874.03
500.61	26637.64
500.79	26499.55
500.97	26857.65
501.14	26864.67
501.32	27283.62
501.49	27129.15
501.67	27484.91
501.84	27133.83
502.02	27307.03
502.20	27531.72
502.37	27786.84
502.55	27695.56
502.72	27997.49
502.90	28034.94
503.07	27840.67
503.25	27817.27
503.43	27814.93
503.60	28245.58
503.78	28259.63
503.95	27955.36
504.13	28524.11
504.30	28772.21
504.48	28552.20
504.65	28903.28
504.83	29132.65
505.01	29046.05
505.18	29099.88
505.36	29338.62
505.53	29240.31
505.71	29731.83
505.88	30010.35
506.06	29621.82
506.23	29689.70
506.41	29518.84
506.58	29813.74
506.76	29902.68
506.93	29951.84
507.11	30008.01
507.28	30033.75
507.46	29701.40
507.63	29968.22
507.81	29722.46
507.98	29961.20
508.16	30178.87
508.33	30609.53
508.50	30953.58
508.68	30661.02
508.85	31445.10
509.03	30923.16
509.20	30874.01
509.38	31541.06
509.55	31131.47
509.73	31339.77
509.90	31143.17
510.08	31531.70
510.25	31267.22
510.42	31285.94
510.60	31885.12
510.77	31667.45
510.95	32046.62
511.12	31777.45
511.30	32219.81
511.47	32393.01
511.64	32158.96
511.82	32779.20
511.99	32261.94
512.17	32446.85
512.34	32037.25
512.51	33273.06
512.69	32896.23
512.86	32594.30
513.04	32938.36
513.21	32505.36
513.38	32697.28
513.56	32676.22
513.73	32493.66
513.90	33141.99
514.08	33067.09
514.25	33020.28
514.43	33376.04
514.60	32893.89
514.77	33008.58
514.95	33848.83
515.12	33551.58
515.29	33460.30
515.47	34359.06
515.64	34127.35
515.81	33986.92
515.99	33741.16
516.16	33954.15
516.33	33771.59
516.51	33797.34
516.68	33177.09
516.85	33207.52
517.03	33509.45
517.20	34195.23
517.37	34216.29
517.54	34588.44
517.72	34209.27
517.89	34185.86
518.06	34071.18
518.24	34218.63
518.41	34295.87
518.58	34249.06
518.75	34663.33
518.93	34518.22
519.10	34749.93
519.27	34859.94
519.45	34948.88
519.62	34864.62
519.79	35374.86
519.96	35564.44
520.14	35433.37
520.31	35367.84
520.48	35227.40
520.65	35393.58
520.83	35592.53
521.00	35800.83
521.17	35751.68
521.34	35903.82
521.52	35880.41
521.69	36133.19
521.86	36077.02
522.03	36238.51
522.20	36615.34
522.38	36254.90
522.55	36617.68
522.72	36582.57
522.89	36449.16
523.07	36617.68
523.24	36856.42
523.41	36678.54
523.58	36753.43
523.75	36985.15
523.92	37408.78
524.10	37305.80
524.27	37170.05
524.44	37069.40
524.61	37488.36
524.78	37392.40
524.96	37296.44
525.13	37652.20
525.30	37677.94
525.47	37972.85
525.64	37729.44
525.81	37741.14
525.98	37441.55
526.16	37223.88
526.33	37532.83
526.50	37619.43
526.67	37289.42
526.84	37247.29
527.01	37546.87
527.18	37837.10
527.36	37991.58
527.53	38101.58
527.70	38426.92
527.87	38490.11
528.04	38314.57
528.21	38256.06
528.38	38447.98
528.55	38717.14
528.72	38871.62
528.89	39159.50
529.07	38707.78
529.24	38536.92
529.41	38763.95
529.58	38672.67
529.75	38539.26
529.92	39005.03
530.09	39201.63
530.26	39519.95
530.43	38892.68
530.60	38941.83
530.77	39016.73
530.94	39447.39
531.11	39267.17
531.28	39690.80
531.46	39552.71
531.63	39615.91
531.80	39297.59
531.97	39447.39
532.14	39686.12
532.31	38927.79
532.48	39215.68
532.65	39543.35
532.82	39835.92
532.99	39831.24
533.16	39522.29
533.33	39660.38
533.50	39812.51
533.67	40238.49
533.84	39810.17
534.01	39798.47
534.18	40222.11
534.35	40573.19
534.52	40650.42
534.69	40524.04
534.86	40500.63
535.03	39892.09
535.20	40755.75
535.37	40942.99
535.54	41137.26
535.71	40587.23
535.88	40577.87
536.05	40648.08
536.22	40825.96
536.38	40753.41
536.55	40385.94
536.72	40816.60
536.89	40451.48
537.06	40622.34
537.23	40769.79
537.40	40821.28
537.57	40694.89
537.74	41177.04
537.91	41148.96
538.08	40942.99
538.25	41109.17
538.42	41015.55
538.59	41546.85
538.75	40825.96
538.92	41525.78
539.09	41163.00
539.26	41247.26
539.43	41804.31
539.60	41256.62
539.77	41181.73
539.94	41263.64
540.11	41048.32
540.28	41743.45
540.44	41631.11
540.61	41570.25
540.78	41144.28
540.95	41399.40
541.12	41511.74
541.29	41617.07
541.46	41956.44
541.62	42211.56
541.79	42197.52
541.96	41371.31
542.13	41577.28
542.30	42408.17
542.47	41677.92
542.63	41654.51
542.80	42122.62
542.97	42529.87
543.14	42689.03
543.31	42447.96
543.48	42342.63
543.64	42829.46
543.81	42614.13
543.98	42642.22
544.15	42813.08
544.32	42965.21
544.48	42878.61
544.65	43075.22
544.82	43178.20
544.99	42433.91
545.16	42635.20
545.32	42728.82
545.49	42955.85
545.66	43679.08
545.83	42859.89
546.00	43103.31
546.16	43194.59
546.33	43335.02
546.50	42749.88
546.67	43391.19
546.83	42955.85
547.00	42976.92
547.17	42890.32
547.34	42728.82
547.50	43409.92
547.67	43082.24
547.84	43225.01
548.00	43552.69
548.17	43988.03
548.34	43913.13
548.51	43775.04
548.67	43966.96
548.84	43814.83
549.01	43688.44
549.18	43995.05
549.34	43636.95
549.51	43583.12
549.68	43283.53
549.84	43749.29
550.01	44076.97
550.18	43606.52
550.34	43814.83
550.51	43791.42
550.68	44055.90
550.84	43667.37
551.01	43821.85
551.18	43763.34
551.34	43739.93
551.51	44301.66
551.68	44296.98
551.84	44016.11
552.01	44210.38
552.18	43997.39
552.34	44067.61
552.51	44362.51
552.68	44332.09
552.84	44133.14
553.01	44320.38
553.18	44336.77
553.34	44428.05
553.51	44406.98
553.67	44446.77
553.84	44498.26
554.01	44980.42
554.17	44762.75
554.34	44800.19
554.51	44753.38
554.67	45010.84
554.84	44538.05
555.00	44299.32
555.17	44692.53
555.33	44659.76
555.50	44325.07
555.67	45020.20
555.83	44481.88
556.00	44610.61
556.16	45244.90
556.33	45132.55
556.50	44437.41
556.66	44629.34
556.83	44676.15
556.99	45205.11
557.16	44783.81
557.32	45034.25
557.49	44814.24
557.65	44931.26
557.82	44940.63
557.98	44968.71
558.15	45038.93
558.32	44933.60
558.48	44889.13
558.65	44851.69
558.81	44339.11
558.98	45319.79
559.14	45048.29
559.31	44982.76
559.47	44711.25
559.64	45088.08
559.80	45261.28
559.97	45317.45
560.13	44666.78
560.30	45095.10
560.46	45488.31
560.63	45457.88
560.79	45586.61
560.96	45792.58
561.12	45277.66
561.29	44907.86
561.45	45439.16
561.61	44957.01
561.78	45329.16
561.94	45099.78
562.11	45205.11
562.27	45085.74
562.44	45574.91
562.60	45516.40
562.77	45759.81
562.93	45413.41
563.10	45635.77
563.26	44643.38
563.42	45783.22
563.59	45205.11
563.75	45710.66
563.92	45516.40
564.08	45687.26
564.24	45839.39
564.41	45485.97
564.57	45240.21
564.74	45565.55
564.90	45572.57
565.07	45502.35
565.23	45586.61
565.39	45511.72
565.56	45703.64
565.72	45191.06
565.88	45677.90
566.05	45099.78
566.21	45595.98
566.38	45628.74
566.54	45841.73
566.70	46150.68
566.87	45734.07
567.03	45923.65
567.19	45951.74
567.36	46211.54
567.52	45813.65
567.68	45874.50
567.85	45382.99
568.01	45722.37
568.17	45600.66
568.34	45879.18
568.50	45399.37
568.66	45687.26
568.83	45902.59
568.99	45511.72
569.15	45504.70
569.32	45542.14
569.48	45478.95
569.64	45996.21
569.81	45577.25
569.97	46000.89
570.13	45598.32
570.30	45717.68
570.46	45507.04
570.62	45270.64
570.78	45471.93
570.95	45790.24
571.11	45689.60
571.27	45415.76
571.43	45844.07
571.60	45923.65
571.76	45752.79
571.92	45925.99
572.09	46052.38
572.25	45785.56
572.41	45745.77
572.57	46120.26
572.74	46611.77
572.90	46061.74
573.06	45918.97
573.22	45741.09
573.38	45947.06
573.55	45670.87
573.71	46476.02
573.87	46047.70
574.03	45780.88
574.20	45923.65
574.36	46071.10
574.52	46197.49
574.68	45617.04
574.84	45998.55
575.01	45631.08
575.17	46047.70
575.33	45851.09
575.49	45647.47
575.65	45874.50
575.82	46092.17
575.98	45539.80
576.14	45846.41
576.30	46010.25
576.46	45841.73
576.62	46052.38
576.79	45528.10
576.95	45890.88
577.11	45986.85
577.27	46337.93
577.43	45881.52
577.59	45574.91
577.75	45993.87
577.92	45703.64
578.08	45710.66
578.24	45790.24
578.40	45460.23
578.56	45890.88
578.72	45633.42
578.88	46237.28
579.04	46057.06
579.21	45731.73
579.37	46052.38
579.53	45858.12
579.69	45598.32
579.85	46026.63
580.01	45928.33
580.17	45701.30
580.33	46270.05
580.49	46052.38
580.65	45940.04
580.82	45851.09
580.98	45965.78
581.14	45998.55
581.30	45869.82
581.46	45928.33
581.62	46064.08
581.78	45867.48
581.94	46483.04
582.10	46288.77
582.26	46401.12
582.42	46492.40
582.58	46206.86
582.74	45830.03
582.90	45874.50
583.06	46382.40
583.22	46506.44
583.38	46241.96
583.54	46232.60
583.70	46473.68
583.86	46014.93
584.02	45783.22
584.18	46801.35
584.34	45895.56
584.50	46068.76
584.66	46108.55
584.82	46068.76
584.98	46796.67
585.14	46206.86
585.30	45668.53
585.46	45717.68
585.62	45855.78
585.78	45886.20
585.94	45862.80
586.10	45858.12
586.26	45748.11
586.42	46471.34
586.58	46586.02
586.74	46150.68
586.90	46038.34
587.06	45759.81
587.22	46586.02
587.38	46190.47
587.54	46506.44
587.70	46272.39
587.86	45968.12
588.02	45670.87
588.18	46368.35
588.34	45755.13
588.49	45773.86
588.65	45738.75
588.81	45663.85
588.97	45851.09
589.13	45490.65
589.29	45392.35
589.45	45633.42
589.61	45940.04
589.77	45895.56
589.93	45989.19
590.08	46351.97
