SpectraSuite Data File
++++++++++++++++++++++++++++++++++++
Date: Fri Oct 25 11:25:48 EDT 2013
User: price-jones
Dark Spectrum Present: No
Reference Spectrum Present: No
Number of Sampled Component Spectra: 1
Spectrometers: USB2+H05261
Integration Time (usec): 100000 (USB2+H05261)
Spectra Averaged: 1 (USB2+H05261)
Boxcar Smoothing: 0 (USB2+H05261)
Correct for Electrical Dark: No (USB2+H05261)
Strobe/Lamp Enabled: No (USB2+H05261)
Correct for Detector Non-linearity: No (USB2+H05261)
Correct for Stray Light: No (USB2+H05261)
Number of Pixels in Processed Spectrum: 2048
>>>>>Begin Processed Spectral Data<<<<<
365.73	217.67
365.92	217.67
366.12	217.67
366.32	147.45
366.52	100.64
366.72	142.77
366.91	159.16
367.11	163.84
367.31	114.69
367.51	117.03
367.70	107.66
367.90	67.88
368.10	124.05
368.30	117.03
368.49	91.28
368.69	163.84
368.89	166.18
369.09	112.35
369.28	168.52
369.48	152.13
369.68	163.84
369.87	180.22
370.07	142.77
370.27	250.44
370.47	348.74
370.66	550.03
370.86	648.33
371.06	662.37
371.25	746.63
371.45	702.16
371.65	622.58
371.84	695.14
372.04	727.91
372.24	688.12
372.44	723.23
372.63	681.10
372.83	840.25
373.03	770.04
373.22	793.44
373.42	805.14
373.62	821.53
373.81	702.16
374.01	858.98
374.21	781.74
374.40	833.23
374.60	844.93
374.79	795.78
374.99	866.00
375.19	823.87
375.38	837.91
375.58	786.42
375.78	809.83
375.97	844.93
376.17	924.51
376.37	868.34
376.56	917.49
376.76	917.49
376.95	898.77
377.15	915.15
377.35	964.30
377.54	901.11
377.74	868.34
377.93	926.85
378.13	938.55
378.33	985.37
378.52	1001.75
378.72	999.41
378.91	994.73
379.11	1001.75
379.31	943.24
379.50	922.17
379.70	1006.43
379.89	968.98
380.09	926.85
380.28	973.66
380.48	983.02
380.68	957.28
380.87	1041.54
381.07	952.60
381.26	992.39
381.46	992.39
381.65	1132.82
381.85	1050.90
382.04	1013.45
382.24	1029.84
382.43	1149.20
382.63	1057.92
382.83	1088.35
383.02	1039.20
383.22	1121.12
383.41	1125.80
383.61	1078.99
383.80	1135.16
384.00	1170.27
384.19	1029.84
384.39	1188.99
384.58	1130.48
384.78	1060.26
384.97	1160.91
385.17	1186.65
385.36	1118.78
385.56	1139.84
385.75	1118.78
385.95	1128.14
386.14	1188.99
386.34	1179.63
386.53	1224.10
386.72	1156.22
386.92	1287.29
387.11	1210.06
387.31	1296.66
387.50	1198.35
387.70	1160.91
387.89	1273.25
388.09	1303.68
388.28	1392.62
388.48	1320.06
388.67	1240.48
388.86	1313.04
389.06	1289.64
389.25	1315.38
389.45	1289.64
389.64	1313.04
389.84	1448.79
390.03	1327.08
390.22	1390.28
390.42	1413.68
390.61	1406.66
390.81	1376.24
391.00	1446.45
391.19	1364.53
391.39	1366.87
391.58	1537.73
391.78	1441.77
391.97	1472.20
392.16	1451.13
392.36	1486.24
392.55	1554.12
392.75	1490.92
392.94	1593.90
393.13	1511.99
393.33	1474.54
393.52	1519.01
393.71	1586.88
393.91	1619.65
394.10	1483.90
394.29	1528.37
394.49	1593.90
394.68	1624.33
394.88	1603.27
395.07	1764.76
395.26	1652.42
395.46	1713.27
395.65	1703.91
395.84	1633.69
396.04	1867.75
396.23	1788.17
396.42	1778.81
396.62	1736.68
396.81	1760.08
397.00	1720.29
397.19	1689.87
397.39	1760.08
397.58	1874.77
397.77	1799.87
397.97	1736.68
398.16	1818.60
398.35	1900.52
398.55	1970.73
398.74	1937.96
398.93	2001.16
399.12	1879.45
399.32	2001.16
399.51	1877.11
399.70	2001.16
399.90	2001.16
400.09	2019.88
400.28	2017.54
400.47	2003.50
400.67	2047.97
400.86	2017.54
401.05	1959.03
401.24	2038.61
401.44	2202.44
401.63	2118.18
401.82	2047.97
402.01	2085.42
402.21	2101.80
402.40	2202.44
402.59	2214.15
402.78	2232.87
402.97	2223.51
403.17	2246.91
403.36	2202.44
403.55	2270.32
403.74	2382.67
403.93	2307.77
404.13	2377.98
404.32	2307.77
404.51	2438.84
404.70	2415.43
404.89	2431.82
405.09	2455.22
405.28	2523.10
405.47	2438.84
405.66	2551.18
405.85	2523.10
406.05	2502.03
406.24	2441.18
406.43	2628.42
406.62	2555.86
406.81	2597.99
407.00	2623.74
407.20	2546.50
407.39	2630.76
407.58	2715.02
407.77	2579.27
407.96	2808.64
408.15	2637.78
408.34	2733.75
408.54	2909.29
408.73	2703.32
408.92	2864.82
409.11	2834.39
409.30	2888.22
409.49	2946.73
409.68	2871.84
409.87	2888.22
410.07	2946.73
410.26	3056.74
410.45	2897.58
410.64	2993.55
410.83	3028.65
411.02	3185.47
411.21	3141.00
411.40	3084.83
411.59	3150.36
411.78	3155.04
411.98	3087.17
412.17	3323.56
412.36	3290.79
412.55	3365.69
412.74	3330.58
412.93	3344.63
413.12	3211.22
413.31	3445.27
413.50	3456.97
413.69	3442.93
413.88	3709.75
414.07	3632.51
414.26	3639.53
414.45	3672.30
414.64	3705.07
414.83	3688.68
415.02	3742.52
415.22	3913.38
415.41	3684.00
415.60	3859.54
415.79	3810.39
415.98	3857.20
416.17	4100.62
416.36	4002.32
416.55	3943.80
416.74	3941.46
416.93	4035.08
417.12	3967.21
417.31	4070.19
417.50	4119.34
417.69	4344.03
417.88	4142.75
418.07	4283.18
418.26	4322.97
418.45	4311.27
418.64	4491.49
418.83	4341.69
419.02	4297.22
419.21	4514.89
419.39	4430.63
419.58	4477.44
419.77	4496.17
419.96	4580.43
420.15	4423.61
420.34	4528.94
420.53	4514.89
420.72	4645.96
420.91	4725.54
421.10	4854.27
421.29	4835.55
421.48	4746.61
421.67	4800.44
421.86	4830.87
422.05	4622.56
422.24	4781.71
422.43	4683.41
422.61	4861.29
422.80	4819.16
422.99	4882.36
423.18	4816.82
423.37	4912.78
423.56	4929.17
423.75	4915.12
423.94	4922.15
424.13	4645.96
424.32	4608.51
424.50	4964.28
424.69	4968.96
424.88	4901.08
425.07	4973.64
425.26	4842.57
425.45	4997.04
425.64	5060.24
425.83	4868.31
426.01	4938.53
426.20	4945.55
426.39	5181.95
426.58	5046.20
426.77	5015.77
426.96	5294.29
427.15	5123.43
427.33	5118.75
427.52	5226.42
427.71	5235.78
427.90	5320.04
428.09	5142.16
428.28	5174.92
428.46	5338.76
428.65	5217.05
428.84	5507.28
429.03	5401.96
429.22	5289.61
429.40	5364.51
429.59	5439.40
429.78	5158.54
429.97	5205.35
430.16	5561.11
430.34	5455.79
430.53	5511.96
430.72	5638.35
430.91	5530.69
431.10	5549.41
431.28	5706.23
431.47	5738.99
431.66	5991.77
431.85	5678.14
432.03	6017.52
432.22	5975.39
432.41	5916.87
432.60	5905.17
432.79	5841.98
432.97	5982.41
433.16	6015.18
433.35	5849.00
433.54	6061.99
433.72	6200.08
433.91	6085.39
434.10	6274.98
434.28	6141.57
434.47	6195.40
434.66	6394.34
434.85	6303.06
435.03	6361.58
435.22	6209.44
435.41	6396.68
435.59	6244.55
435.78	6296.04
435.97	6452.86
436.16	6225.82
436.34	6401.37
436.53	6471.58
436.72	6675.21
436.90	6459.88
437.09	6544.14
437.28	6487.96
437.46	6691.59
437.65	6719.68
437.84	6689.25
438.02	6647.12
438.21	6764.15
438.40	6604.99
438.58	6988.84
438.77	6839.05
438.96	6974.80
439.14	7028.63
439.33	7159.70
439.52	7265.02
439.70	7187.79
439.89	7412.48
440.08	7201.83
440.26	7370.35
440.45	7124.59
440.63	7478.01
440.82	7639.51
441.01	7382.05
441.19	7639.51
441.38	7742.49
441.57	7552.91
441.75	7852.50
441.94	7899.31
442.12	7866.54
442.31	7882.92
442.50	8128.68
442.68	8053.78
442.87	8072.51
443.05	8072.51
443.24	8135.70
443.43	8156.77
443.61	8056.12
443.80	8287.84
443.98	8152.09
444.17	7871.22
444.35	8175.49
444.54	8039.74
444.73	8112.30
444.91	8189.53
445.10	8372.10
445.28	8297.20
445.47	8138.04
445.65	8301.88
445.84	8360.39
446.02	8514.87
446.21	8346.35
446.39	8327.63
446.58	8552.32
446.77	8351.03
446.95	8219.96
447.14	8198.90
447.32	8542.96
447.51	8498.49
447.69	8393.16
447.88	8645.94
448.06	8678.71
448.25	8540.61
448.43	8730.20
448.62	8526.57
448.80	8734.88
448.99	8477.42
449.17	8711.47
449.36	8723.18
449.54	8812.12
449.73	8997.02
449.91	8833.18
450.10	8842.54
450.28	8903.40
450.46	9144.47
450.65	9020.42
450.83	9062.55
451.02	9067.24
451.20	9078.94
451.39	9336.40
451.57	9060.21
451.76	9057.87
451.94	9104.68
452.13	9303.63
452.31	9284.91
452.49	9149.15
452.68	9275.54
452.86	9408.95
453.05	9415.98
453.23	9446.40
453.42	9327.03
453.60	9437.04
453.78	9415.98
453.97	9542.36
454.15	9497.89
454.34	9703.86
454.52	9785.78
454.70	9661.73
454.89	9558.75
455.07	9804.50
455.26	9666.41
455.44	9809.19
455.62	9919.19
455.81	10031.54
455.99	9891.10
456.17	10061.96
456.36	9951.96
456.54	10265.59
456.73	10209.42
456.91	10478.58
457.09	10511.35
457.28	10530.07
457.46	10455.17
457.64	10354.53
457.83	10387.30
458.01	10286.65
458.19	10801.57
458.38	10422.41
458.56	10600.29
458.74	10672.84
458.93	10485.60
459.11	10874.13
459.29	10670.50
459.48	10740.72
459.66	10710.29
459.84	10979.45
460.03	11089.46
460.21	11014.56
460.39	11012.22
460.57	10904.56
460.76	11136.27
460.94	11108.18
461.12	11295.43
461.31	11194.78
461.49	11009.88
461.67	11005.20
461.85	11428.84
462.04	11255.64
462.22	11424.15
462.40	11356.28
462.59	11414.79
462.77	11321.17
462.95	11648.85
463.13	11630.12
463.32	11513.10
463.50	11632.46
463.68	11646.51
463.86	11885.24
464.05	11274.36
464.23	11906.31
464.41	11875.88
464.59	11634.80
464.78	11929.71
464.96	11808.00
465.14	11941.41
465.32	12030.35
465.50	11932.05
465.69	12191.85
465.87	12119.29
466.05	12116.95
466.23	12135.68
466.41	12156.74
466.60	12465.69
466.78	12241.00
466.96	12051.42
467.14	12423.56
467.32	12180.15
467.51	12461.01
467.69	12205.89
467.87	12500.80
468.05	12678.68
468.23	12388.46
468.41	12521.87
468.60	12456.33
468.78	12915.08
468.96	12482.08
469.14	12627.19
469.32	12989.97
469.50	12601.44
469.69	12706.77
469.87	12919.76
470.05	13249.77
470.23	13296.58
470.41	12905.71
470.59	13163.17
470.77	13172.54
470.95	13322.33
471.14	13191.26
471.32	13135.09
471.50	13479.15
471.68	13399.57
471.86	13645.32
472.04	13603.19
472.22	13907.46
472.40	13767.03
472.58	13834.91
472.77	13921.51
472.95	14043.21
473.13	14382.59
473.31	14176.62
473.49	14029.17
473.67	14052.58
473.85	14326.42
474.03	14586.22
474.21	14618.99
474.39	14909.21
474.57	14677.50
474.75	15143.27
474.93	15012.20
475.12	14937.30
475.30	14855.38
475.48	14920.92
475.66	15030.92
475.84	15059.01
476.02	15538.82
476.20	14787.50
476.38	15557.54
476.56	15995.22
476.74	16013.95
476.92	15644.14
477.10	15786.91
477.28	16168.42
477.46	16358.00
477.64	16177.78
477.82	16636.53
478.00	16776.96
478.18	16706.74
478.36	16936.12
478.54	17106.98
478.72	17106.98
478.90	17146.76
479.08	17554.02
479.26	17591.47
479.44	17425.29
479.62	17825.52
479.80	18085.32
479.98	18340.44
480.16	18623.64
480.34	18143.83
480.52	18792.16
480.70	18349.80
480.88	18363.84
481.06	18843.65
481.24	18607.26
481.41	19124.52
481.59	19398.36
481.77	19459.21
481.95	19400.70
482.13	19637.09
482.31	19496.66
482.49	20229.25
482.67	20126.27
482.85	20596.71
483.03	20386.07
483.21	20423.51
483.39	20678.63
483.57	20695.02
483.74	21076.52
483.92	21095.25
484.10	21118.65
484.28	21324.62
484.46	22211.68
484.64	22274.88
484.82	21797.41
485.00	22394.25
485.18	22682.13
485.35	22927.89
485.53	22607.23
485.71	22937.25
485.89	23377.27
486.07	23489.62
486.25	23154.92
486.43	23398.34
486.61	23861.76
486.78	24084.11
486.96	24360.30
487.14	24421.15
487.32	24723.08
487.50	24615.41
487.68	25088.20
487.85	25139.69
488.03	25467.37
488.21	25706.10
488.39	25853.56
488.57	26045.48
488.75	26230.38
488.92	26169.53
489.10	26450.39
489.28	26441.03
489.46	27068.30
489.64	27339.80
489.81	27601.94
489.99	27379.59
490.17	27868.76
490.35	27915.57
490.53	28219.84
490.70	28191.75
490.88	28121.54
491.06	28552.20
491.24	28608.37
491.41	28823.70
491.59	29179.46
491.77	29226.27
491.95	29479.05
492.13	29982.26
492.30	29996.31
492.48	29942.47
492.66	30412.92
492.84	30466.75
493.01	30562.72
493.19	30424.62
493.37	31058.91
493.54	31339.77
493.72	31204.02
493.90	31370.20
494.08	31646.38
494.25	31573.83
494.43	31927.25
494.61	32521.74
494.79	32378.97
494.96	32266.63
495.14	32811.97
495.32	32542.81
495.49	33347.95
495.67	33233.27
495.85	33303.48
496.02	33577.33
496.20	33731.80
496.38	34150.76
496.55	33979.90
496.73	34635.25
496.91	34309.91
497.09	34787.38
497.26	34665.67
497.44	34553.33
497.62	35358.47
497.79	35454.44
497.97	35222.72
498.14	35725.94
498.32	35761.05
498.50	36006.80
498.67	36250.22
498.85	36172.98
499.03	36402.35
499.20	36250.22
499.38	36715.98
499.56	37067.06
499.73	37525.81
499.91	37507.08
500.08	37399.42
500.26	37591.34
500.44	37205.16
500.61	37684.97
500.79	37717.73
500.97	38054.77
501.14	38740.55
501.32	38450.32
501.49	38593.09
501.67	38721.82
501.84	38717.14
502.02	38831.83
502.20	38761.61
502.37	38934.81
502.55	39147.80
502.72	39208.65
502.90	39721.23
503.07	39445.05
503.25	39386.54
503.43	39498.88
503.60	39847.62
503.78	39957.63
503.95	40084.01
504.13	40304.02
504.30	40800.22
504.48	40444.46
504.65	40741.71
504.83	40844.69
505.01	40980.44
505.18	41146.62
505.36	41659.20
505.53	41013.21
505.71	41535.15
505.88	41532.81
506.06	41268.33
506.23	41937.72
506.41	41794.95
506.58	42012.62
506.76	41860.48
506.93	42443.27
507.11	42092.19
507.28	42309.86
507.46	42288.80
507.63	42653.92
507.81	42904.36
507.98	42745.20
508.16	42759.25
508.33	43423.96
508.50	43414.60
508.68	43555.03
508.85	43660.35
509.03	43496.52
509.20	43786.74
509.38	44212.72
509.55	44416.35
509.73	44123.78
509.90	44414.01
510.08	44519.33
510.25	44266.55
510.42	44332.09
510.60	44818.92
510.77	45064.67
510.95	45560.87
511.12	45127.87
511.30	44694.87
511.47	45490.65
511.64	45553.85
511.82	45820.67
511.99	45584.27
512.17	45846.41
512.34	45191.06
512.51	45869.82
512.69	46099.19
512.86	46211.54
513.04	46515.81
513.21	47093.92
513.38	46403.46
513.56	46981.57
513.73	46642.20
513.90	46923.06
514.08	46602.41
514.25	47358.40
514.43	47391.17
514.60	47192.22
514.77	47016.68
514.95	47636.92
515.12	47428.62
515.29	47332.65
515.47	47480.11
515.64	48126.10
515.81	47826.51
515.99	47627.56
516.16	48177.59
516.33	48196.31
516.51	48399.94
516.68	48498.24
516.85	48545.05
517.03	48231.42
517.20	48332.06
517.37	48650.38
517.54	48605.91
517.72	48449.09
517.89	49095.08
518.06	49048.27
518.24	49102.10
518.41	49151.25
518.58	49127.84
518.75	49188.70
518.93	49633.40
519.10	49118.48
519.27	49932.99
519.45	49855.75
519.62	49811.28
519.79	49703.62
519.96	50113.21
520.14	50136.62
520.31	50160.02
520.48	50080.44
520.65	49996.18
520.83	50578.98
521.00	50625.79
521.17	50365.99
521.34	50696.00
521.52	50422.16
521.69	50894.95
521.86	50721.75
522.03	50944.10
522.20	51154.75
522.38	51147.73
522.55	51110.28
522.72	51276.46
522.89	50813.03
523.07	51634.56
523.24	51643.92
523.41	51573.70
523.58	51344.33
523.75	51847.55
523.92	51824.14
524.10	51868.61
524.27	51716.48
524.44	51873.29
524.61	52109.69
524.78	52317.99
524.96	52184.58
525.13	51969.26
525.30	52177.56
525.47	52301.61
525.64	52456.09
525.81	52226.71
525.98	52519.28
526.16	52205.65
526.33	52542.69
526.50	53162.93
526.67	52985.05
526.84	52725.25
527.01	52844.62
527.18	52720.57
527.36	52786.10
527.53	52985.05
527.70	53375.92
527.87	53499.97
528.04	53312.72
528.21	53319.74
528.38	53399.32
528.55	53546.78
528.72	53408.68
528.89	53345.49
529.07	53308.04
529.24	53546.78
529.41	53389.96
529.58	53542.10
529.75	53813.60
529.92	53757.42
530.09	53748.06
530.26	53689.55
530.43	53762.11
530.60	53588.91
530.77	53443.79
530.94	54007.86
531.11	53977.43
531.28	54143.61
531.46	54024.25
531.63	54277.02
531.80	54145.95
531.97	54049.99
532.14	54227.87
532.31	54356.60
532.48	54368.30
532.65	54480.65
532.82	54316.81
532.99	54550.87
533.16	54625.76
533.33	54822.37
533.50	54908.97
533.67	54845.77
533.84	54623.42
534.01	54756.83
534.18	54981.52
534.35	55248.35
534.52	54951.10
534.69	55079.83
534.86	55047.06
535.03	55030.68
535.20	55201.53
535.37	55157.06
535.54	55498.78
535.71	55269.41
535.88	55224.94
536.05	55416.86
536.22	55634.53
536.38	55681.34
536.55	55379.42
536.72	55508.14
536.89	55370.05
537.06	55676.66
537.23	55583.04
537.40	55529.21
537.57	55676.66
537.74	55592.40
537.91	55763.26
538.08	55536.23
538.25	55676.66
538.42	55767.94
538.59	55882.63
538.75	55873.27
538.92	55908.38
539.09	55980.93
539.26	56076.90
539.43	56027.74
539.60	56062.85
539.77	56299.25
539.94	56364.78
540.11	56191.58
540.28	56432.66
540.44	56406.91
540.61	56067.53
540.78	56439.68
540.95	56479.47
541.12	56144.77
541.29	56652.67
541.46	56339.04
541.62	56633.94
541.79	56669.05
541.96	56383.51
542.13	56528.62
542.30	56535.64
542.47	56718.20
542.63	56804.80
542.80	57057.58
542.97	56968.64
543.14	57076.30
543.31	56942.89
543.48	57296.31
543.64	57226.10
543.81	57448.45
543.98	57190.99
544.15	57022.47
544.32	57240.14
544.48	57602.92
544.65	57167.58
544.82	57359.51
544.99	57240.14
545.16	57647.39
545.32	57403.98
545.49	57373.55
545.66	57607.61
545.83	57478.88
546.00	57640.37
546.16	57584.20
546.33	57378.23
546.50	57247.16
546.67	57715.27
546.83	57258.87
547.00	57703.57
547.17	57581.86
547.34	57745.70
547.50	57907.19
547.67	58010.18
547.84	57820.59
548.00	57839.32
548.17	58218.49
548.34	57743.36
548.51	58026.56
548.67	58162.31
548.84	58019.54
549.01	58045.29
549.18	58031.24
549.34	58197.42
549.51	58134.23
549.68	58335.51
549.84	58129.54
550.01	58260.62
550.18	58181.04
550.34	58277.00
550.51	58171.67
550.68	58454.88
550.84	58012.52
551.01	58408.07
551.18	58204.44
551.34	58501.69
551.51	58623.40
551.68	58597.65
551.84	58506.37
552.01	58356.58
552.18	58614.04
552.34	58651.48
552.51	58672.55
552.68	58340.19
552.84	58525.10
553.01	59121.93
553.18	58553.18
553.34	58951.07
553.51	58787.24
553.67	58607.01
553.84	58838.73
554.01	58930.01
554.17	58740.42
554.34	59154.70
554.51	58845.75
554.67	58820.00
554.84	58937.03
555.00	58922.99
555.17	58656.17
555.33	58848.09
555.50	58646.80
555.67	58944.05
555.83	59047.04
556.00	58988.52
556.16	59196.83
556.33	59292.79
556.50	59337.26
556.66	59215.55
556.83	59187.47
556.99	59334.92
557.16	59374.71
557.32	59470.67
557.49	59344.28
557.65	59220.23
557.82	59203.85
557.98	59484.72
558.15	59363.01
558.32	59447.27
558.48	59517.48
558.65	59344.28
558.81	59501.10
558.98	59281.09
559.14	59475.35
559.31	59653.23
559.47	59700.04
559.64	59618.13
559.80	59423.86
559.97	59709.41
560.13	59629.83
560.30	59660.26
560.46	59643.87
560.63	59590.04
560.79	59723.45
560.96	59714.09
561.12	59744.51
561.29	59723.45
561.45	59828.77
561.61	59697.70
561.78	59690.68
561.94	59533.87
562.11	59826.43
562.27	59924.74
562.44	59903.67
562.60	60104.96
562.77	59987.93
562.93	59835.80
563.10	59842.82
563.26	59807.71
563.42	60238.37
563.59	60069.85
563.75	59739.83
563.92	59936.44
564.08	59898.99
564.24	60069.85
564.41	59964.52
564.57	60058.15
564.74	60102.62
564.90	60009.00
565.07	59936.44
565.23	60013.68
565.39	60083.89
565.56	60011.34
565.72	60032.40
565.88	60154.11
566.05	60140.07
566.21	60130.70
566.38	59992.61
566.54	60133.04
566.70	60039.42
566.87	60353.05
567.03	59966.87
567.19	60240.71
567.36	60210.28
567.52	60285.18
567.68	60467.74
567.85	60252.41
568.01	60367.10
568.17	60205.60
568.34	60079.21
568.50	60301.56
568.66	60013.68
568.83	60453.70
568.99	60252.41
569.15	60336.67
569.32	60336.67
569.48	60348.37
569.64	60420.93
569.81	60374.12
569.97	60353.05
570.13	60390.50
570.30	60467.74
570.46	60477.10
570.62	60533.28
570.78	60378.80
570.95	60219.64
571.11	60465.40
571.27	60329.65
571.43	60353.05
571.60	60631.58
571.76	60434.97
571.92	60385.82
572.09	60561.36
572.25	60392.84
572.41	60243.05
572.57	60502.85
572.74	60549.66
572.90	60404.55
573.06	60350.71
573.22	60481.78
573.38	60346.03
573.55	60573.06
573.71	60753.29
573.87	60577.75
574.03	60514.55
574.20	60793.07
574.36	60350.71
574.52	60544.98
574.68	60535.62
574.84	60736.90
575.01	60535.62
575.17	60584.77
575.33	60446.68
575.49	60383.48
575.65	60561.36
575.82	60687.75
575.98	60832.86
576.14	60977.98
576.30	60832.86
576.46	60729.88
576.62	60697.11
576.79	60767.33
576.95	60294.54
577.11	60879.67
577.27	60914.78
577.43	60764.99
577.59	60577.75
577.75	60580.09
577.92	60566.04
578.08	60678.39
578.24	60722.86
578.40	60893.72
578.56	60598.81
578.72	60732.22
578.88	61001.38
579.04	61010.74
579.21	60800.10
579.37	60802.44
579.53	60882.02
579.69	60654.98
579.85	60713.50
580.01	60619.88
580.17	60535.62
580.33	60800.10
580.49	60977.98
580.65	60802.44
580.82	60713.50
580.98	60732.22
581.14	60669.03
581.30	61034.15
581.46	60683.07
581.62	60842.23
581.78	60722.86
581.94	60952.23
582.10	60931.17
582.26	60802.44
582.42	60694.77
582.58	60697.11
582.74	60999.04
582.90	60867.97
583.06	60821.16
583.22	60767.33
583.38	60872.65
583.54	60830.52
583.70	60828.18
583.86	60987.34
584.02	60664.35
584.18	60886.70
584.34	60863.29
584.50	60694.77
584.66	60701.79
584.82	60711.16
584.98	61027.13
585.14	60800.10
585.30	60849.25
585.46	61080.96
585.62	61118.41
585.78	61013.08
585.94	60615.19
586.10	61071.60
586.26	61024.79
586.42	60975.64
586.58	61099.68
586.74	60886.70
586.90	60970.96
587.06	61036.49
587.22	61125.43
587.38	60858.61
587.54	60954.57
587.70	61020.11
587.86	60893.72
588.02	60921.80
588.18	60994.36
588.34	60931.17
588.49	61034.15
