SpectraSuite Data File
++++++++++++++++++++++++++++++++++++
Date: Fri Oct 25 11:33:10 EDT 2013
User: price-jones
Dark Spectrum Present: No
Reference Spectrum Present: No
Number of Sampled Component Spectra: 1
Spectrometers: USB2+H05261
Integration Time (usec): 100000 (USB2+H05261)
Spectra Averaged: 1 (USB2+H05261)
Boxcar Smoothing: 0 (USB2+H05261)
Correct for Electrical Dark: No (USB2+H05261)
Strobe/Lamp Enabled: No (USB2+H05261)
Correct for Detector Non-linearity: No (USB2+H05261)
Correct for Stray Light: No (USB2+H05261)
Number of Pixels in Processed Spectrum: 2048
>>>>>Begin Processed Spectral Data<<<<<
365.73	236.39
365.92	236.39
366.12	236.39
366.32	187.24
366.52	182.56
366.72	238.73
366.91	170.86
367.11	180.22
367.31	222.35
367.51	173.20
367.70	196.60
367.90	227.03
368.10	203.63
368.30	198.95
368.49	215.33
368.69	187.24
368.89	128.73
369.09	107.66
369.28	189.58
369.48	220.01
369.68	229.37
369.87	297.25
370.07	285.55
370.27	257.46
370.47	332.36
370.66	477.47
370.86	498.53
371.06	550.03
371.25	629.60
371.45	547.69
371.65	514.92
371.84	610.88
372.04	559.39
372.24	589.82
372.44	603.86
372.63	580.45
372.83	573.43
373.03	603.86
373.22	559.39
373.42	692.80
373.62	634.29
373.81	674.07
374.01	610.88
374.21	643.65
374.40	594.50
374.60	669.39
374.79	613.22
374.99	662.37
375.19	606.20
375.38	699.82
375.58	653.01
375.78	634.29
375.97	657.69
376.17	702.16
376.37	617.90
376.56	585.13
376.76	641.31
376.95	613.22
377.15	697.48
377.35	683.44
377.54	671.73
377.74	674.07
377.93	627.26
378.13	645.99
378.33	706.84
378.52	702.16
378.72	695.14
378.91	697.48
379.11	676.41
379.31	645.99
379.50	683.44
379.70	723.23
379.89	732.59
380.09	674.07
380.28	807.48
380.48	732.59
380.68	716.20
380.87	786.42
381.07	814.51
381.26	713.86
381.46	746.63
381.65	802.80
381.85	809.83
382.04	851.96
382.24	753.65
382.43	837.91
382.63	737.27
382.83	823.87
383.02	802.80
383.22	828.55
383.41	814.51
383.61	788.76
383.80	894.08
384.00	805.14
384.19	788.76
384.39	823.87
384.58	844.93
384.78	814.51
384.97	784.08
385.17	770.04
385.36	847.27
385.56	823.87
385.75	889.40
385.95	926.85
386.14	833.23
386.34	798.12
386.53	823.87
386.72	873.02
386.92	903.45
387.11	891.74
387.31	884.72
387.50	917.49
387.70	940.90
387.89	795.78
388.09	978.34
388.28	863.66
388.48	828.55
388.67	966.64
388.86	959.62
389.06	961.96
389.25	945.58
389.45	954.94
389.64	973.66
389.84	1032.18
390.03	1011.11
390.22	947.92
390.42	1036.86
390.61	924.51
390.81	924.51
391.00	1015.79
391.19	1011.11
391.39	983.02
391.58	1013.45
391.78	994.73
391.97	1048.56
392.16	1050.90
392.36	1020.47
392.55	1069.62
392.75	1001.75
392.94	1036.86
393.13	1027.50
393.33	1062.60
393.52	1050.90
393.71	1102.39
393.91	1069.62
394.10	1015.79
394.29	1114.10
394.49	1114.10
394.68	1095.37
394.88	1071.97
395.07	1210.06
395.26	1104.73
395.46	1165.59
395.65	1273.25
395.84	1191.33
396.04	1114.10
396.23	1188.99
396.42	1228.78
396.62	1308.36
396.81	1228.78
397.00	1188.99
397.19	1263.89
397.39	1249.85
397.58	1263.89
397.77	1294.32
397.97	1294.32
398.16	1287.29
398.35	1338.79
398.55	1235.80
398.74	1313.04
398.93	1376.24
399.12	1273.25
399.32	1331.76
399.51	1362.19
399.70	1341.13
399.90	1315.38
400.09	1404.32
400.28	1359.85
400.47	1329.42
400.67	1320.06
400.86	1434.75
401.05	1390.28
401.24	1425.39
401.44	1474.54
401.63	1425.39
401.82	1453.47
402.01	1420.71
402.21	1448.79
402.40	1467.52
402.59	1507.30
402.78	1514.33
402.97	1509.65
403.17	1507.30
403.36	1448.79
403.55	1645.40
403.74	1528.37
403.93	1563.48
404.13	1617.31
404.32	1621.99
404.51	1659.44
404.70	1650.08
404.89	1621.99
405.09	1732.00
405.28	1722.63
405.47	1682.85
405.66	1750.72
405.85	1762.42
406.05	1785.83
406.24	1661.78
406.43	1804.55
406.62	1823.28
406.81	1849.02
407.00	1797.53
407.20	1853.70
407.39	1799.87
407.58	1898.17
407.77	1851.36
407.96	1968.39
408.15	1905.20
408.34	1839.66
408.54	1886.47
408.73	1909.88
408.92	1823.28
409.11	2038.61
409.30	1952.01
409.49	1996.48
409.68	2054.99
409.87	2090.10
410.07	1940.30
410.26	2139.25
410.45	2017.54
410.64	2059.67
410.83	2097.12
411.02	2157.97
411.21	2186.06
411.40	2150.95
411.59	2195.42
411.78	2239.89
411.98	2228.19
412.17	2174.36
412.36	2356.92
412.55	2300.75
412.74	2352.24
412.93	2422.45
413.12	2258.62
413.31	2516.08
413.50	2443.52
413.69	2558.21
413.88	2499.69
414.07	2492.67
414.26	2377.98
414.45	2597.99
414.64	2537.14
414.83	2651.83
415.02	2656.51
415.22	2693.96
415.41	2686.94
415.60	2693.96
415.79	2686.94
415.98	2738.43
416.17	2803.96
416.36	2869.50
416.55	2684.59
416.74	2792.26
416.93	2832.05
417.12	2892.90
417.31	2871.84
417.50	2993.55
417.69	3042.70
417.88	3047.38
418.07	3012.27
418.26	2932.69
418.45	3002.91
418.64	3059.08
418.83	2923.33
419.02	3019.29
419.21	3087.17
419.39	3150.36
419.58	3068.44
419.77	3089.51
419.96	3119.93
420.15	3243.98
420.34	3166.74
420.53	3253.34
420.72	3243.98
420.91	3166.74
421.10	3267.39
421.29	3258.03
421.48	3218.24
421.67	3346.97
421.86	3321.22
422.05	3241.64
422.24	3297.81
422.43	3339.94
422.61	3365.69
422.80	3304.84
422.99	3517.83
423.18	3471.01
423.37	3485.06
423.56	3466.33
423.75	3272.07
423.94	3358.67
424.13	3176.11
424.32	3293.13
424.50	3412.50
424.69	3599.74
424.88	3510.80
425.07	3438.25
425.26	3588.04
425.45	3590.38
425.64	3358.67
425.83	3541.23
426.01	3534.21
426.20	3571.66
426.39	3590.38
426.58	3461.65
426.77	3468.67
426.96	3634.85
427.15	3583.36
427.33	3550.59
427.52	3564.64
427.71	3634.85
427.90	3686.34
428.09	3714.43
428.28	3716.77
428.46	3742.52
428.65	3758.90
428.84	3803.37
429.03	3913.38
429.22	3641.87
429.40	3845.50
429.59	3667.62
429.78	3721.45
429.97	3658.26
430.16	3674.64
430.34	3894.65
430.53	3922.74
430.72	3997.64
430.91	3801.03
431.10	3981.25
431.28	4072.53
431.47	3974.23
431.66	4049.13
431.85	4028.06
432.03	4030.40
432.22	4191.90
432.41	3932.10
432.60	4119.34
432.79	4086.58
432.97	4196.58
433.16	4355.74
433.35	4224.67
433.54	4074.87
433.72	4332.33
433.91	4203.60
434.10	4250.41
434.28	4084.23
434.47	4327.65
434.66	4222.33
434.85	4374.46
435.03	4517.23
435.22	4215.30
435.41	4372.12
435.59	4315.95
435.78	4421.27
435.97	4358.08
436.16	4414.25
436.34	4571.07
436.53	4547.66
436.72	4678.73
436.90	4507.87
437.09	4388.50
437.28	4287.86
437.46	4627.24
437.65	4505.53
437.84	4575.75
438.02	4538.30
438.21	4674.05
438.40	4580.43
438.58	4800.44
438.77	4807.46
438.96	4807.46
439.14	4865.97
439.33	4868.31
439.52	4915.12
439.70	4985.34
439.89	5165.56
440.08	4990.02
440.26	5116.41
440.45	5029.81
440.63	5018.11
440.82	5142.16
441.01	5090.67
441.19	5275.57
441.38	5167.90
441.57	5315.36
441.75	5200.67
441.94	5504.94
442.12	5455.79
442.31	5462.81
442.50	5607.92
442.68	5413.66
442.87	5514.30
443.05	5390.25
443.24	5881.77
443.43	5547.07
443.61	5570.48
443.80	5738.99
443.98	5533.03
444.17	5329.40
444.35	5540.05
444.54	5907.51
444.73	5746.02
444.91	5636.01
445.10	5687.50
445.28	5652.39
445.47	5703.89
445.65	5666.44
445.84	5804.53
446.02	5689.84
446.21	5717.93
446.39	5645.37
446.58	5799.85
446.77	5905.17
446.95	5493.24
447.14	5774.10
447.32	5778.78
447.51	5760.06
447.69	5926.24
447.88	5841.98
448.06	5753.04
448.25	5710.91
448.43	5743.67
448.62	5916.87
448.80	5816.23
448.99	6043.26
449.17	5989.43
449.36	6017.52
449.54	6164.97
449.73	6162.63
449.91	6253.91
450.10	5987.09
450.28	6171.99
450.46	6197.74
450.65	6221.14
450.83	6186.04
451.02	6207.10
451.20	6211.78
451.39	6251.57
451.57	6260.93
451.76	6214.12
451.94	6167.31
452.13	6286.68
452.31	6286.68
452.49	6169.65
452.68	6354.55
452.86	6321.79
453.05	6361.58
453.23	6473.92
453.42	6452.86
453.60	6284.34
453.78	6396.68
453.97	6370.94
454.15	6459.88
454.34	6415.41
454.52	6623.72
454.70	6574.56
454.89	6544.14
455.07	6672.87
455.26	6640.10
455.44	6588.61
455.62	6848.41
455.81	6825.00
455.99	6878.83
456.17	6679.89
456.36	6881.18
456.54	6883.52
456.73	7124.59
456.91	7012.24
457.09	6988.84
457.28	7140.97
457.46	7124.59
457.64	7283.75
457.83	7075.44
458.01	7152.68
458.19	7185.44
458.38	7150.34
458.56	7466.31
458.74	7218.21
458.93	7232.26
459.11	7206.51
459.29	7351.62
459.48	7302.47
459.66	7304.81
459.84	7342.26
460.03	7648.87
460.21	7412.48
460.39	7384.39
460.57	7466.31
460.76	7705.04
460.94	7552.91
461.12	7562.27
461.31	7646.53
461.49	7543.55
461.67	7548.23
461.85	7838.45
462.04	7447.58
462.22	8063.15
462.40	7801.01
462.59	7765.90
462.77	7768.24
462.95	7754.19
463.13	7815.05
463.32	7833.77
463.50	7817.39
463.68	8114.64
463.86	8049.10
464.05	7929.74
464.23	7840.79
464.41	8011.65
464.59	7920.37
464.78	8248.05
464.96	8142.72
465.14	8112.30
465.32	8311.24
465.50	8290.18
465.69	8140.38
465.87	8107.62
466.05	8149.75
466.23	8304.22
466.41	8299.54
466.60	8390.82
466.78	8175.49
466.96	8259.75
467.14	8236.35
467.32	8374.44
467.51	8432.95
467.69	8348.69
467.87	8379.12
468.05	8395.50
468.23	8308.90
468.41	8360.39
468.60	8432.95
468.78	8479.76
468.96	8606.15
469.14	8432.95
469.32	8746.58
469.50	8594.45
469.69	8980.64
469.87	8950.21
470.05	8727.86
470.23	8908.08
470.41	8812.12
470.59	9123.41
470.77	8889.35
470.95	8769.99
471.14	9149.15
471.32	8812.12
471.50	9083.62
471.68	9104.68
471.86	9355.12
472.04	9151.49
472.22	9493.21
472.40	9221.71
472.58	9158.52
472.77	9357.46
472.95	9458.10
473.13	9610.24
473.31	9626.62
473.49	9533.00
473.67	9362.14
473.85	9757.69
474.03	9696.84
474.21	9830.25
474.39	9760.03
474.57	9811.53
474.75	9996.43
474.93	10024.51
475.12	9994.09
475.30	10160.27
475.48	9729.61
475.66	10094.73
475.84	10274.95
476.02	10403.68
476.20	10099.41
476.38	10345.17
476.56	10544.11
476.74	10611.99
476.92	10527.73
477.10	10644.76
477.28	10754.76
477.46	10740.72
477.64	10677.52
477.82	11204.14
478.00	11323.51
478.18	11349.26
478.36	11241.59
478.54	11569.27
478.72	11508.41
478.90	11709.70
479.08	11672.25
479.26	11765.87
479.44	11658.21
479.62	11805.66
479.80	11936.73
479.98	12212.92
480.16	12327.60
480.34	12376.75
480.52	12367.39
480.70	12428.24
480.88	12439.95
481.06	12676.34
481.24	12568.68
481.41	12875.29
481.59	12901.03
481.77	12877.63
481.95	13263.82
482.13	13107.00
482.31	12947.84
482.49	13724.90
482.67	13458.08
482.85	13797.46
483.03	13825.54
483.21	13982.36
483.39	13865.33
483.57	13760.01
483.74	13968.32
483.92	14176.62
484.10	14321.74
484.28	14317.06
484.46	14537.07
484.64	14934.96
484.82	14544.09
485.00	14834.32
485.18	14916.23
485.35	15288.38
485.53	15180.71
485.71	15391.36
485.89	15873.51
486.07	15391.36
486.25	15555.20
486.43	15611.37
486.61	15592.65
486.78	16056.08
486.96	16201.19
487.14	16283.11
487.32	16173.10
487.50	16538.23
487.68	16737.17
487.85	16805.05
488.03	16872.92
488.21	17259.11
488.39	16905.69
488.57	17343.37
488.75	17280.18
488.92	17572.74
489.10	17809.14
489.28	17783.39
489.46	18239.79
489.64	18078.30
489.81	18272.56
489.99	18223.41
490.17	18312.35
490.35	18583.85
490.53	18644.71
490.70	18967.70
490.88	18848.33
491.06	19056.64
491.24	19138.56
491.41	19412.40
491.59	19290.70
491.77	19061.32
491.95	19573.90
492.13	19583.26
492.30	19784.55
492.48	20072.43
492.66	20018.60
492.84	20184.78
493.01	20105.20
493.19	20257.34
493.37	20442.24
493.54	20545.22
493.72	20758.21
493.90	21062.48
494.08	21022.69
494.25	21013.33
494.43	21116.31
494.61	21263.77
494.79	21682.72
494.96	21579.74
495.14	21963.59
495.32	21774.00
495.49	21893.37
495.67	22040.82
495.85	22214.02
496.02	22405.95
496.20	22506.59
496.38	22740.64
496.55	22567.45
496.73	23061.30
496.91	22665.75
497.09	23133.86
497.26	22632.98
497.44	23178.33
497.62	23346.84
497.79	23648.77
497.97	23587.92
498.14	23697.92
498.32	24004.53
498.50	23939.00
498.67	24238.59
498.85	23824.31
499.03	24446.90
499.20	24781.59
499.38	24407.11
499.56	24484.34
499.73	24456.26
499.91	25158.42
500.08	25025.01
500.26	25036.71
500.44	24861.17
500.61	25113.95
500.79	24922.02
500.97	25235.66
501.14	25757.60
501.32	25490.77
501.49	25446.30
501.67	25500.14
501.84	25722.49
502.02	25706.10
502.20	25979.95
502.37	25781.00
502.55	26047.82
502.72	26082.93
502.90	26267.83
503.07	26389.54
503.25	26146.12
503.43	26473.80
503.60	26441.03
503.78	26792.11
503.95	26558.06
504.13	26672.74
504.30	26972.33
504.48	26782.75
504.65	27447.46
504.83	27360.86
505.01	27461.51
505.18	27168.94
505.36	27475.55
505.53	27597.26
505.71	27594.92
505.88	27718.96
506.06	27669.81
506.23	27922.59
506.41	27843.01
506.58	28079.41
506.76	28348.57
506.93	28669.22
507.11	28428.15
507.28	28327.50
507.46	28381.34
507.63	28559.22
507.81	28748.80
507.98	28493.68
508.16	28868.17
508.33	29209.89
508.50	28999.24
508.68	29120.95
508.85	29387.77
509.03	28982.85
509.20	29294.14
509.38	29366.70
509.55	29624.16
509.73	29895.66
509.90	29771.61
510.08	29582.03
510.25	29961.20
510.42	29727.14
510.60	30237.38
510.77	30110.99
510.95	30429.30
511.12	30525.27
511.30	30508.88
511.47	30525.27
511.64	30684.42
511.82	30883.37
511.99	30976.99
512.17	31136.15
512.34	30279.51
512.51	31084.65
512.69	31236.79
512.86	31185.30
513.04	31131.47
513.21	31318.71
513.38	31494.25
513.56	31517.65
513.73	31407.65
513.90	31461.48
514.08	31653.40
514.25	31688.51
514.43	31672.13
514.60	31957.67
514.77	31845.33
514.95	32175.34
515.12	32030.23
515.29	32208.11
515.47	32229.18
515.64	32414.08
515.81	32257.26
515.99	32400.04
516.16	33015.60
516.33	32694.94
516.51	33010.92
516.68	32818.99
516.85	32769.84
517.03	32975.81
517.20	32828.35
517.37	32694.94
517.54	32622.39
517.72	33537.54
517.89	33130.28
518.06	33301.14
518.24	33509.45
518.41	33340.93
518.58	33855.85
518.75	33088.15
518.93	33708.40
519.10	33642.86
519.27	33776.27
519.45	34029.05
519.62	34574.39
519.79	34120.33
519.96	34031.39
520.14	34417.58
520.31	34047.77
520.48	34143.74
520.65	34712.49
520.83	35061.22
521.00	34806.11
521.17	34529.92
521.34	35093.99
521.52	34979.31
521.69	34731.21
521.86	35196.98
522.03	35152.51
522.20	35503.59
522.38	35828.92
522.55	35534.01
522.72	34925.47
522.89	35157.19
523.07	36194.04
523.24	35470.82
523.41	35667.42
523.58	35229.74
523.75	35667.42
523.92	35498.91
524.10	35906.16
524.27	36055.95
524.44	36088.72
524.61	35761.05
524.78	36161.28
524.96	36503.00
525.13	36690.24
525.30	36514.70
525.47	36407.03
525.64	36488.95
525.81	36573.21
525.98	36596.62
526.16	36884.50
526.33	36725.35
526.50	36828.33
526.67	37017.91
526.84	36734.71
527.01	36755.77
527.18	36891.52
527.36	36840.03
527.53	37385.38
527.70	37191.11
527.87	37589.00
528.04	37237.92
528.21	37720.07
528.38	37326.86
528.55	37982.21
528.72	37254.31
528.89	37724.75
529.07	37364.31
529.24	37167.71
529.41	37785.61
529.58	37897.95
529.75	37521.13
529.92	38202.22
530.09	37984.55
530.26	37965.83
530.43	38380.10
530.60	38022.00
530.77	38082.86
530.94	38345.00
531.11	38059.45
531.28	38265.42
531.46	38785.02
531.63	38373.08
531.80	38529.90
531.97	38859.91
532.14	38869.28
532.31	38712.46
532.48	39072.90
532.65	39180.57
532.82	38789.70
532.99	39065.88
533.16	38792.04
533.33	39232.06
533.50	39171.21
533.67	39023.75
533.84	38897.36
534.01	38895.02
534.18	39274.19
534.35	39714.21
534.52	39377.17
534.69	39950.60
534.86	39576.12
535.03	39849.96
535.20	39686.12
535.37	40280.62
535.54	40055.93
535.71	39948.26
535.88	39880.39
536.05	40182.32
536.22	40343.81
536.38	39943.58
536.55	39812.51
536.72	40315.73
536.89	39819.53
537.06	39847.62
537.23	40273.60
537.40	40060.61
537.57	39948.26
537.74	40542.76
537.91	40509.99
538.08	40509.99
538.25	40245.51
538.42	40655.11
538.59	40858.73
538.75	40486.59
538.92	41172.36
539.09	40783.83
539.26	40912.56
539.43	41104.49
539.60	41029.59
539.77	40650.42
539.94	41184.07
540.11	41163.00
540.28	41432.16
540.44	41226.20
540.61	41223.86
540.78	41078.74
540.95	41296.41
541.12	41181.73
541.29	41041.29
541.46	41155.98
541.62	41600.68
541.79	41596.00
541.96	41158.32
542.13	41352.58
542.30	41757.50
542.47	41462.59
542.63	41879.21
542.80	41933.04
542.97	42614.13
543.14	42433.91
543.31	42197.52
543.48	42146.03
543.64	42511.15
543.81	42344.97
543.98	42347.31
544.15	42253.69
544.32	42824.78
544.48	42965.21
544.65	42588.39
544.82	42859.89
544.99	42583.71
545.16	43091.60
545.32	42803.72
545.49	42967.55
545.66	43178.20
545.83	42731.16
546.00	42927.77
546.16	43077.56
546.33	43452.05
546.50	42953.51
546.67	42873.93
546.83	42487.74
547.00	43292.89
547.17	42834.14
547.34	42993.30
547.50	43416.94
547.67	43512.90
547.84	43339.70
548.00	43210.97
548.17	43550.35
548.34	43569.07
548.51	43491.83
548.67	43398.21
548.84	43365.45
549.01	43716.53
549.18	43470.77
549.34	43629.93
549.51	43819.51
549.68	43658.01
549.84	43821.85
550.01	44311.02
550.18	43798.44
550.34	43927.17
550.51	44334.43
550.68	44236.12
550.84	43945.90
551.01	44112.08
551.18	43985.69
551.34	43817.17
551.51	44072.29
551.68	43976.33
551.84	44027.82
552.01	43929.51
552.18	44341.45
552.34	44126.12
552.51	44657.42
552.68	44119.10
552.84	44332.09
553.01	44816.58
553.18	44369.54
553.34	44898.50
553.51	44261.87
553.67	44751.04
553.84	44744.02
554.01	44591.89
554.17	44638.70
554.34	45015.52
554.51	44872.75
554.67	44999.14
554.84	45055.31
555.00	45244.90
555.17	44825.94
555.33	45125.53
555.50	44727.64
555.67	45200.43
555.83	45233.19
556.00	45436.82
556.16	45485.97
556.33	45109.14
556.50	44982.76
556.66	45308.09
556.83	45296.39
556.99	45729.39
557.16	45764.49
557.32	45628.74
557.49	45631.08
557.65	45200.43
557.82	45645.13
557.98	45560.87
558.15	45553.85
558.32	45525.76
558.48	45523.42
558.65	45666.19
558.81	45874.50
558.98	45523.42
559.14	45958.76
559.31	45595.98
559.47	46373.03
559.64	45954.08
559.80	46050.04
559.97	45797.26
560.13	46110.89
560.30	45853.44
560.46	45935.35
560.63	46398.78
560.79	46031.32
560.96	46342.61
561.12	46127.28
561.29	45876.84
561.45	45698.96
561.61	46148.34
561.78	45918.97
561.94	45930.67
562.11	46358.99
562.27	45993.87
562.44	46387.08
562.60	46096.85
562.77	46279.41
562.93	46211.54
563.10	46239.62
563.26	46410.48
563.42	46885.61
563.59	46103.87
563.75	46291.12
563.92	46384.74
564.08	46394.10
564.24	46450.27
564.41	46747.52
564.57	46429.21
564.74	46258.35
564.90	46234.94
565.07	46827.10
565.23	46410.48
565.39	46684.33
565.56	46721.77
565.72	46497.08
565.88	46894.97
566.05	46293.46
566.21	46569.64
566.38	46256.01
566.54	47065.83
566.70	46412.82
566.87	46745.18
567.03	46513.47
567.19	46967.53
567.36	46651.56
567.52	46300.48
567.68	47367.76
567.85	47100.94
568.01	46986.25
568.17	46681.98
568.34	47164.14
568.50	46803.69
568.66	46773.27
568.83	47054.13
568.99	46995.62
569.15	46784.97
569.32	47136.05
569.48	47063.49
569.64	46930.08
569.81	47105.62
569.97	47051.79
570.13	47103.28
570.30	47257.76
570.46	47133.71
570.62	47327.97
570.78	46976.89
570.95	46541.55
571.11	47075.19
571.27	46782.63
571.43	47014.34
571.60	46911.36
571.76	46784.97
571.92	47040.09
572.09	46677.30
572.25	46817.74
572.41	46827.10
572.57	47159.45
572.74	47849.91
572.90	47400.53
573.06	47702.46
573.22	47224.99
573.38	47290.52
573.55	47299.89
573.71	47723.52
573.87	47615.86
574.03	47320.95
574.20	47342.02
574.36	47157.11
574.52	47147.75
574.68	47416.91
574.84	47557.35
575.01	47786.72
575.17	47409.89
575.33	47334.99
575.49	47206.26
575.65	47400.53
575.82	47423.93
575.98	47262.44
576.14	47650.97
576.30	48062.90
576.46	47896.72
576.62	47316.27
576.79	47573.73
576.95	47239.03
577.11	47363.08
577.27	47332.65
577.43	47358.40
577.59	47721.18
577.75	47540.96
577.92	47103.28
578.08	47498.83
578.24	47655.65
578.40	47863.96
578.56	47384.15
578.72	47487.13
578.88	47786.72
579.04	47456.70
579.21	47250.74
579.37	47306.91
579.53	47880.34
579.69	47391.17
579.85	47641.60
580.01	47334.99
580.17	47482.45
580.33	47936.51
580.49	47667.35
580.65	47255.42
580.82	47552.66
580.98	47667.35
581.14	47665.01
581.30	47667.35
581.46	47468.40
581.62	47812.46
581.78	47320.95
581.94	47861.61
582.10	47657.99
582.26	47753.95
582.42	47650.97
582.58	47936.51
582.74	47187.54
582.90	47625.22
583.06	47695.44
583.22	47852.25
583.38	47870.98
583.54	47777.36
583.70	47863.96
583.86	48112.05
584.02	47695.44
584.18	47899.06
584.34	47983.32
584.50	47798.42
584.66	47751.61
584.82	47789.06
584.98	48011.41
585.14	47985.66
585.30	47583.09
585.46	47861.61
585.62	47592.45
585.78	47992.68
585.94	47538.62
586.10	48149.50
586.26	47875.66
586.42	47494.15
586.58	47929.49
586.74	47728.20
586.90	47533.94
587.06	47611.18
587.22	48292.27
587.38	47674.37
587.54	47990.34
587.70	48205.67
587.86	48385.89
588.02	47756.29
588.18	47641.60
588.34	47571.39
588.49	48069.92
588.65	47868.64
588.81	47767.99
588.97	48254.82
589.13	48158.86
589.29	47952.90
589.45	48135.46
589.61	47793.74
589.77	48322.70
589.93	47835.87
