SpectraSuite Data File
++++++++++++++++++++++++++++++++++++
Date: Fri Oct 25 10:47:24 EDT 2013
User: price-jones
Dark Spectrum Present: No
Reference Spectrum Present: No
Number of Sampled Component Spectra: 1
Spectrometers: USB2+H05261
Integration Time (usec): 100000 (USB2+H05261)
Spectra Averaged: 1 (USB2+H05261)
Boxcar Smoothing: 0 (USB2+H05261)
Correct for Electrical Dark: No (USB2+H05261)
Strobe/Lamp Enabled: No (USB2+H05261)
Correct for Detector Non-linearity: No (USB2+H05261)
Correct for Stray Light: No (USB2+H05261)
Number of Pixels in Processed Spectrum: 2048
>>>>>Begin Processed Spectral Data<<<<<
365.73	133.41
365.92	133.41
366.12	133.41
366.32	0.00
366.52	42.13
366.72	84.26
366.91	0.00
367.11	95.96
367.31	0.00
367.51	60.85
367.70	28.09
367.90	93.62
368.10	60.85
368.30	7.02
368.49	86.60
368.69	35.11
368.89	79.58
369.09	93.62
369.28	44.47
369.48	121.71
369.68	79.58
369.87	159.16
370.07	131.07
370.27	175.54
370.47	231.71
370.66	365.12
370.86	472.79
371.06	365.12
371.25	475.13
371.45	381.51
371.65	482.15
371.84	454.06
372.04	418.96
372.24	505.56
372.44	517.26
372.63	444.70
372.83	477.47
373.03	465.77
373.22	507.90
373.42	486.83
373.62	465.77
373.81	500.87
374.01	573.43
374.21	498.53
374.40	505.56
374.60	638.97
374.79	568.75
374.99	601.52
375.19	610.88
375.38	578.11
375.58	500.87
375.78	571.09
375.97	613.22
376.17	606.20
376.37	613.22
376.56	580.45
376.76	524.28
376.95	554.71
377.15	669.39
377.35	617.90
377.54	528.96
377.74	638.97
377.93	655.35
378.13	657.69
378.33	678.76
378.52	683.44
378.72	629.60
378.91	578.11
379.11	571.09
379.31	685.78
379.50	751.31
379.70	681.10
379.89	622.58
380.09	629.60
380.28	674.07
380.48	690.46
380.68	624.92
380.87	638.97
381.07	676.41
381.26	697.48
381.46	678.76
381.65	688.12
381.85	587.47
382.04	669.39
382.24	716.20
382.43	657.69
382.63	638.97
382.83	636.63
383.02	706.84
383.22	716.20
383.41	741.95
383.61	739.61
383.80	830.89
384.00	690.46
384.19	695.14
384.39	748.97
384.58	765.36
384.78	683.44
384.97	741.95
385.17	734.93
385.36	802.80
385.56	753.65
385.75	763.01
385.95	746.63
386.14	748.97
386.34	821.53
386.53	772.38
386.72	786.42
386.92	877.70
387.11	758.33
387.31	837.91
387.50	812.17
387.70	807.48
387.89	856.64
388.09	940.90
388.28	837.91
388.48	833.23
388.67	828.55
388.86	779.40
389.06	851.96
389.25	877.70
389.45	926.85
389.64	821.53
389.84	947.92
390.03	898.77
390.22	896.43
390.42	873.02
390.61	863.66
390.81	901.11
391.00	968.98
391.19	917.49
391.39	922.17
391.58	1034.52
391.78	924.51
391.97	894.08
392.16	978.34
392.36	1041.54
392.55	1050.90
392.75	1027.50
392.94	851.96
393.13	952.60
393.33	1050.90
393.52	985.37
393.71	1022.81
393.91	1032.18
394.10	1034.52
394.29	1057.92
394.49	1057.92
394.68	1139.84
394.88	1165.59
395.07	1151.54
395.26	1022.81
395.46	1057.92
395.65	1245.16
395.84	1174.95
396.04	1184.31
396.23	1102.39
396.42	1132.82
396.62	1109.41
396.81	1179.63
397.00	1142.18
397.19	1203.04
397.39	1256.87
397.58	1277.93
397.77	1277.93
397.97	1359.85
398.16	1296.66
398.35	1315.38
398.55	1268.57
398.74	1315.38
398.93	1423.05
399.12	1277.93
399.32	1259.21
399.51	1317.72
399.70	1280.27
399.90	1301.34
400.09	1327.08
400.28	1458.15
400.47	1446.45
400.67	1472.20
400.86	1509.65
401.05	1509.65
401.24	1516.67
401.44	1493.26
401.63	1444.11
401.82	1519.01
402.01	1376.24
402.21	1490.92
402.40	1671.14
402.59	1568.16
402.78	1572.84
402.97	1495.60
403.17	1490.92
403.36	1626.67
403.55	1572.84
403.74	1643.06
403.93	1659.44
404.13	1621.99
404.32	1682.85
404.51	1652.42
404.70	1643.06
404.89	1624.33
405.09	1713.27
405.28	1678.16
405.47	1687.53
405.66	1755.40
405.85	1746.04
406.05	1696.89
406.24	1769.44
406.43	1734.34
406.62	1811.57
406.81	1863.07
407.00	1930.94
407.20	1830.30
407.39	1806.89
407.58	1851.36
407.77	1842.00
407.96	2001.16
408.15	1940.30
408.34	1982.43
408.54	1954.35
408.73	2111.16
408.92	2031.58
409.11	2012.86
409.30	2083.08
409.49	2115.84
409.68	2036.27
409.87	2071.37
410.07	2113.50
410.26	2059.67
410.45	2209.47
410.64	2108.82
410.83	2232.87
411.02	2251.60
411.21	2275.00
411.40	2174.36
411.59	2183.72
411.78	2237.55
411.98	2188.40
412.17	2352.24
412.36	2335.85
412.55	2375.64
412.74	2441.18
412.93	2497.35
413.12	2448.20
413.31	2551.18
413.50	2567.57
413.69	2565.23
413.88	2630.76
414.07	2567.57
414.26	2621.40
414.45	2647.15
414.64	2684.59
414.83	2541.82
415.02	2724.38
415.22	2780.56
415.41	2822.69
415.60	2967.80
415.79	2862.48
415.98	2806.30
416.17	2871.84
416.36	2956.10
416.55	2782.90
416.74	3049.72
416.93	2864.82
417.12	2979.50
417.31	3089.51
417.50	2892.90
417.69	2991.20
417.88	3112.91
418.07	3157.38
418.26	3040.36
418.45	3218.24
418.64	3187.81
418.83	3206.53
419.02	3091.85
419.21	3173.77
419.39	3122.27
419.58	3138.66
419.77	3136.32
419.96	3152.70
420.15	3321.22
420.34	3323.56
420.53	3499.10
420.72	3393.78
420.91	3358.67
421.10	3494.42
421.29	3499.10
421.48	3459.31
421.67	3459.31
421.86	3417.18
422.05	3426.54
422.24	3372.71
422.43	3456.97
422.61	3489.74
422.80	3449.95
422.99	3576.34
423.18	3517.83
423.37	3574.00
423.56	3480.38
423.75	3595.06
423.94	3478.04
424.13	3325.90
424.32	3407.82
424.50	3534.21
424.69	3648.90
424.88	3597.40
425.07	3566.98
425.26	3442.93
425.45	3487.40
425.64	3529.53
425.83	3581.02
426.01	3522.51
426.20	3644.21
426.39	3616.13
426.58	3478.04
426.77	3583.36
426.96	3616.13
427.15	3552.93
427.33	3705.07
427.52	3571.66
427.71	3634.85
427.90	3583.36
428.09	3798.69
428.28	3843.16
428.46	3716.77
428.65	3611.45
428.84	3808.05
429.03	3808.05
429.22	3789.33
429.40	3742.52
429.59	3920.40
429.78	3552.93
429.97	3672.30
430.16	3655.92
430.34	3763.58
430.53	3868.91
430.72	3922.74
430.91	3885.29
431.10	3992.95
431.28	4114.66
431.47	4196.58
431.66	4318.29
431.85	4156.79
432.03	4142.75
432.22	4344.03
432.41	4147.43
432.60	4201.26
432.79	4241.05
432.97	4297.22
433.16	4236.37
433.35	4278.50
433.54	4227.01
433.72	4353.40
433.91	4386.16
434.10	4449.36
434.28	4362.76
434.47	4320.63
434.66	4428.29
434.85	4533.62
435.03	4486.81
435.22	4514.89
435.41	4650.64
435.59	4627.24
435.78	4678.73
435.97	4760.65
436.16	4613.20
436.34	4566.39
436.53	4669.37
436.72	4648.30
436.90	4652.98
437.09	4854.27
437.28	4662.35
437.46	4718.52
437.65	4760.65
437.84	4800.44
438.02	4566.39
438.21	4667.03
438.40	4711.50
438.58	4908.10
438.77	4805.12
438.96	5039.17
439.14	4997.04
439.33	5100.03
439.52	5177.26
439.70	5172.58
439.89	5081.30
440.08	4992.36
440.26	5011.09
440.45	5212.37
440.63	5263.86
440.82	5394.93
441.01	5233.44
441.19	5317.70
441.38	5437.06
441.57	5432.38
441.75	5633.67
441.94	5605.58
442.12	5570.48
442.31	5802.19
442.50	5589.20
442.68	5579.84
442.87	5673.46
443.05	5612.60
443.24	5738.99
443.43	5909.85
443.61	5923.90
443.80	6069.01
443.98	5781.12
444.17	5727.29
444.35	5699.20
444.54	5806.87
444.73	5996.45
444.91	5797.51
445.10	5870.06
445.28	5949.64
445.47	5741.33
445.65	5736.65
445.84	5940.28
446.02	6038.58
446.21	5994.11
446.39	5827.93
446.58	6099.44
446.77	5767.08
446.95	5900.49
447.14	6115.82
447.32	6038.58
447.51	5984.75
447.69	5959.00
447.88	6026.88
448.06	6040.92
448.25	5874.74
448.43	6073.69
448.62	6012.84
448.80	5937.94
448.99	6125.18
449.17	5933.26
449.36	6108.80
449.54	6225.82
449.73	6228.17
449.91	6260.93
450.10	6218.80
450.28	6593.29
450.46	6431.79
450.65	6497.33
450.83	6417.75
451.02	6417.75
451.20	6410.73
451.39	6422.43
451.57	6277.32
451.76	6356.90
451.94	6642.44
452.13	6775.85
452.31	6434.13
452.49	6270.30
452.68	6539.46
452.86	6455.20
453.05	6686.91
453.23	6532.44
453.42	6579.25
453.60	6658.82
453.78	6761.81
453.97	6551.16
454.15	6487.96
454.34	6675.21
454.52	6750.10
454.70	6834.36
454.89	6719.68
455.07	6855.43
455.26	6974.80
455.44	7023.95
455.62	6869.47
455.81	6766.49
455.99	7061.40
456.17	7052.03
456.36	7023.95
456.54	7061.40
456.73	7171.40
456.91	7281.41
457.09	7300.13
457.28	7473.33
457.46	7094.16
457.64	7220.55
457.83	7405.46
458.01	7131.61
458.19	7510.78
458.38	7454.61
458.56	7449.93
458.74	7325.88
458.93	7510.78
459.11	7288.43
459.29	7414.82
459.48	7616.10
459.66	7543.55
459.84	7424.18
460.03	7676.96
460.21	7707.38
460.39	7709.72
460.57	7742.49
460.76	7728.45
460.94	7705.04
461.12	7854.84
461.31	7974.21
461.49	7733.13
461.67	7819.73
461.85	8170.81
462.04	7981.23
462.22	8322.94
462.40	7960.16
462.59	8077.19
462.77	8053.78
462.95	8058.46
463.13	7885.26
463.32	7943.78
463.50	8142.72
463.68	8074.85
463.86	8058.46
464.05	8116.98
464.23	8063.15
464.41	8243.37
464.59	8116.98
464.78	8580.40
464.96	8264.43
465.14	8147.40
465.32	8269.11
465.50	8374.44
465.69	8498.49
465.87	8505.51
466.05	8414.23
466.23	8360.39
466.41	8339.33
466.60	8524.23
466.78	8358.05
466.96	8367.42
467.14	8397.84
467.32	8470.40
467.51	8528.91
467.69	8372.10
467.87	8369.76
468.05	8702.11
468.23	8561.68
468.41	8580.40
468.60	8435.29
468.78	8645.94
468.96	8564.02
469.14	8905.74
469.32	8952.55
469.50	8723.18
469.69	8959.57
469.87	8971.27
470.05	8945.53
470.23	9118.73
470.41	8837.86
470.59	8819.14
470.77	9029.79
470.95	9020.42
471.14	9268.52
471.32	9085.96
471.50	9324.69
471.68	9249.80
471.86	9336.40
472.04	9523.64
472.22	9418.32
472.40	9355.12
472.58	9345.76
472.77	9488.53
472.95	9650.03
473.13	9785.78
473.31	9745.99
473.49	9675.77
473.67	9790.46
473.85	9738.97
474.03	9968.34
474.21	9984.73
474.39	10150.90
474.57	10171.97
474.75	9951.96
474.93	10146.22
475.12	10228.14
475.30	10305.38
475.48	10377.94
475.66	10368.57
475.84	10338.15
476.02	10499.64
476.20	10597.95
476.38	10743.06
476.56	10663.48
476.74	10787.53
476.92	10867.11
477.10	10846.04
477.28	11021.58
477.46	11084.78
477.64	11253.30
477.82	11140.95
478.00	11377.34
478.18	11475.65
478.36	11426.50
478.54	11475.65
478.72	11501.39
478.90	11705.02
479.08	11936.73
479.26	11913.33
479.44	11885.24
479.62	12159.08
479.80	12042.06
479.98	12173.13
480.16	12542.93
480.34	12402.50
480.52	12730.17
480.70	12620.17
480.88	12334.62
481.06	12940.82
481.24	12786.35
481.41	12985.29
481.59	13104.66
481.77	13163.17
481.95	13097.64
482.13	13376.16
482.31	13104.66
482.49	13486.17
482.67	13731.92
482.85	13830.23
483.03	13970.66
483.21	13916.83
483.39	14214.07
483.57	14080.66
483.74	14078.32
483.92	14195.35
484.10	14317.06
484.28	14618.99
484.46	14630.69
484.64	14899.85
484.82	14677.50
485.00	14677.50
485.18	15164.33
485.35	15400.72
485.53	14960.70
485.71	15166.67
485.89	15370.30
486.07	15372.64
486.25	15662.86
486.43	15770.53
486.61	15578.61
486.78	15976.50
486.96	15882.88
487.14	16152.04
487.32	16386.09
487.50	16779.30
487.68	16465.67
487.85	16915.05
488.03	17067.19
488.21	17207.62
488.39	17053.14
488.57	17195.92
488.75	17537.63
488.92	17738.92
489.10	17706.15
489.28	18052.55
489.46	18061.91
489.64	17935.53
489.81	18546.40
489.99	18424.70
490.17	18712.58
490.35	18785.14
490.53	18504.28
490.70	18728.97
490.88	18677.48
491.06	19063.66
491.24	19091.75
491.41	19110.47
491.59	19267.29
491.77	19386.66
491.95	19438.15
492.13	19908.60
492.30	19700.29
492.48	19896.89
492.66	20056.05
492.84	20063.07
493.01	20208.19
493.19	20287.76
493.37	20594.37
493.54	20636.50
493.72	20718.42
493.90	20734.81
494.08	21046.10
494.25	21518.89
494.43	21380.79
494.61	21263.77
494.79	21757.62
494.96	21270.79
495.14	21469.73
495.32	21652.30
495.49	21685.06
495.67	21848.90
495.85	21998.70
496.02	22377.86
496.20	22183.60
496.38	22279.56
496.55	22473.82
496.73	22977.04
496.91	22841.29
497.09	22946.61
497.26	22862.35
497.44	23190.03
497.62	23379.61
497.79	23704.95
497.97	23410.04
498.14	23800.91
498.32	23676.86
498.50	23531.75
498.67	23936.66
498.85	24119.22
499.03	24203.48
499.20	24034.96
499.38	24652.86
499.56	24343.91
499.73	24521.79
499.91	24769.89
500.08	24842.45
500.26	24367.32
500.44	25095.22
500.61	24870.53
500.79	25027.35
500.97	24952.45
501.14	25130.33
501.32	25153.74
501.49	25338.64
501.67	25408.86
501.84	25322.26
502.02	25362.04
502.20	25668.66
502.37	25387.79
502.55	25710.78
502.72	25668.66
502.90	26082.93
503.07	25958.88
503.25	26387.20
503.43	26206.98
503.60	26419.97
503.78	26249.11
503.95	26441.03
504.13	26464.44
504.30	26565.08
504.48	26525.29
504.65	26731.26
504.83	27115.11
505.01	27325.75
505.18	26831.90
505.36	27517.68
505.53	27000.42
505.71	27653.43
505.88	27534.06
506.06	27625.34
506.23	27613.64
506.41	27721.30
506.58	27655.77
506.76	27800.88
506.93	28004.51
507.11	27639.39
507.28	28056.00
507.46	28226.86
507.63	28290.06
507.81	28395.38
507.98	27962.38
508.16	28390.70
508.33	28135.58
508.50	28566.24
508.68	28542.83
508.85	28833.06
509.03	28936.04
509.20	28767.52
509.38	29256.70
509.55	29067.11
509.73	29392.45
509.90	29504.79
510.08	28886.89
510.25	29383.09
510.42	29376.06
510.60	29635.86
510.77	29879.28
510.95	29926.09
511.12	29528.20
511.30	30132.06
511.47	30183.55
511.64	30040.78
511.82	30050.14
511.99	30181.21
512.17	30665.70
512.34	30017.37
512.51	30663.36
512.69	30431.65
512.86	30787.41
513.04	30969.97
513.21	30717.19
513.38	30897.41
513.56	30827.20
513.73	30579.10
513.90	31204.02
514.08	30913.80
514.25	31098.70
514.43	30913.80
514.60	30904.43
514.77	31386.58
514.95	31026.14
515.12	31239.13
515.29	31725.96
515.47	31587.87
515.64	31756.39
515.81	31756.39
515.99	31779.79
516.16	32126.19
516.33	31681.49
516.51	31704.90
516.68	31812.56
516.85	31536.38
517.03	31842.99
517.20	32051.30
517.37	32006.83
517.54	32297.05
517.72	32266.63
517.89	32334.50
518.06	32315.78
518.24	32474.93
518.41	32458.55
518.58	32212.79
518.75	32634.09
518.93	32463.23
519.10	32833.04
519.27	32549.83
519.45	32762.82
519.62	33088.15
519.79	33216.88
519.96	33303.48
520.14	33413.49
520.31	33413.49
520.48	33635.84
520.65	33387.74
520.83	33612.43
521.00	33795.00
521.17	33565.62
521.34	33429.87
521.52	33984.58
521.69	33684.99
521.86	34054.79
522.03	33919.04
522.20	34286.51
522.38	34012.66
522.55	34827.17
522.72	34134.37
522.89	34387.15
523.07	34658.65
523.24	34422.26
523.41	34873.98
523.58	34333.32
523.75	34803.77
523.92	34930.16
524.10	35145.48
524.27	35175.91
524.44	35119.74
524.61	35002.71
524.78	35281.24
524.96	35264.85
525.13	35555.08
525.30	35613.59
525.47	35651.04
525.64	35145.48
525.81	35452.09
525.98	35466.14
526.16	35297.62
526.33	35407.62
526.50	35782.11
526.67	35304.64
526.84	35632.32
527.01	35564.44
527.18	36011.48
527.36	36149.57
527.53	36004.46
527.70	36648.11
527.87	36320.43
528.04	36304.05
528.21	36290.01
528.38	36243.20
528.55	36627.04
528.72	36605.98
528.89	36470.23
529.07	36570.87
529.24	36346.18
529.41	36896.20
529.58	36561.51
529.75	36294.69
529.92	36828.33
530.09	37434.53
530.26	36818.97
530.43	37102.17
530.60	36865.78
530.77	37261.33
530.94	36767.48
531.11	36931.31
531.28	37148.98
531.46	37474.32
531.63	37504.74
531.80	37462.61
531.97	37474.32
532.14	37242.60
532.31	36767.48
532.48	37427.51
532.65	37816.04
532.82	37631.13
532.99	38003.28
533.16	37401.76
533.33	38000.94
533.50	37764.54
533.67	37750.50
533.84	37731.78
534.01	37991.58
534.18	37921.36
534.35	38480.75
534.52	38108.60
534.69	38251.38
534.86	38646.93
535.03	38300.53
535.20	38623.52
535.37	38707.78
535.54	38359.04
535.71	38239.67
535.88	38408.19
536.05	38508.83
536.22	38555.64
536.38	38897.36
536.55	38567.35
536.72	38490.11
536.89	38424.57
537.06	38850.55
537.23	38686.71
537.40	38672.67
537.57	38794.38
537.74	38995.67
537.91	39047.16
538.08	39065.88
538.25	38965.24
538.42	38665.65
538.59	39526.97
538.75	38822.47
538.92	39576.12
539.09	39510.58
539.26	39414.62
539.43	39278.87
539.60	39445.05
539.77	39358.45
539.94	39381.85
540.11	39789.11
540.28	39814.85
540.44	39302.28
540.61	39423.98
540.78	39260.15
540.95	39431.01
541.12	39629.95
541.29	39803.15
541.46	39908.47
541.62	39597.18
541.79	40112.10
541.96	39508.24
542.13	39950.60
542.30	40282.96
542.47	39873.37
542.63	40051.25
542.80	40067.63
542.97	40428.07
543.14	40395.31
543.31	40378.92
543.48	40669.15
543.64	41003.85
543.81	40404.67
543.98	40587.23
544.15	40605.95
544.32	41223.86
544.48	41139.60
544.65	40669.15
544.82	41029.59
544.99	40507.65
545.16	41095.13
545.32	41045.97
545.49	41460.25
545.66	41345.56
545.83	41511.74
546.00	41591.32
546.16	41427.48
546.33	40966.40
546.50	41003.85
546.67	41338.54
546.83	40797.88
547.00	41205.13
547.17	41160.66
547.34	41170.02
547.50	41581.96
547.67	41528.13
547.84	42033.68
548.00	41441.53
548.17	42213.90
548.34	42124.96
548.51	42183.48
548.67	41738.77
548.84	41729.41
549.01	41567.91
549.18	41783.24
549.34	41680.26
549.51	41638.13
549.68	41916.65
549.84	41706.01
550.01	41900.27
550.18	41893.25
550.34	41762.18
550.51	41923.68
550.68	41918.99
550.84	41970.49
551.01	42108.58
551.18	42103.90
551.34	42096.88
551.51	42246.67
551.68	42361.36
551.84	42370.72
552.01	42450.30
552.18	42368.38
552.34	42459.66
552.51	42712.44
552.68	42862.23
552.84	42773.29
553.01	42892.66
553.18	42209.22
553.34	42689.03
553.51	41923.68
553.67	42169.43
553.84	42969.90
554.01	42651.58
554.17	43222.67
554.34	43030.75
554.51	43194.59
554.67	43370.13
554.84	42941.81
555.00	42689.03
555.17	43012.02
555.33	43005.00
555.50	43311.61
555.67	42930.11
555.83	42993.30
556.00	43337.36
556.16	43540.99
556.33	43498.86
556.50	43171.18
556.66	43414.60
556.83	43416.94
556.99	43257.78
557.16	43648.65
557.32	43707.16
557.49	42925.42
557.65	43000.32
557.82	42841.17
557.98	43157.14
558.15	43400.55
558.32	43761.00
558.48	43358.42
558.65	43463.75
558.81	43377.15
558.98	43079.90
559.14	43489.49
559.31	43136.07
559.47	43423.96
559.64	43922.49
559.80	43758.66
559.97	43922.49
560.13	43243.74
560.30	43540.99
560.46	43983.35
560.63	43524.60
560.79	43866.32
560.96	43650.99
561.12	43643.97
561.29	43536.30
561.45	43573.75
561.61	43863.98
561.78	43435.66
561.94	43707.16
562.11	43679.08
562.27	43339.70
562.44	43688.44
562.60	44280.60
562.77	43903.77
562.93	44158.89
563.10	43929.51
563.26	43749.29
563.42	44245.49
563.59	43856.96
563.75	44020.80
563.92	43964.62
564.08	43400.55
564.24	44175.27
564.41	43552.69
564.57	43999.73
564.74	43718.87
564.90	44285.28
565.07	44186.97
565.23	44023.14
565.39	44175.27
565.56	43826.53
565.72	43988.03
565.88	44067.61
566.05	44105.06
566.21	43828.87
566.38	43873.34
566.54	43508.22
566.70	44301.66
566.87	44399.96
567.03	44278.25
567.19	44612.95
567.36	44814.24
567.52	43885.04
567.68	44467.84
567.85	44287.62
568.01	44369.54
568.17	44278.25
568.34	44444.43
568.50	44002.07
568.66	43981.01
568.83	44591.89
568.99	44587.21
569.15	44339.11
569.32	44341.45
569.48	44226.76
569.64	44528.69
569.81	44638.70
569.97	44072.29
570.13	44266.55
570.30	44371.88
570.46	44041.86
570.62	43503.54
570.78	44016.11
570.95	44261.87
571.11	44694.87
571.27	44460.82
571.43	44282.94
571.60	44421.03
571.76	44535.71
571.92	44322.72
572.09	44151.87
572.25	44666.78
572.41	44318.04
572.57	44432.73
572.74	44643.38
572.90	44112.08
573.06	44406.98
573.22	44460.82
573.38	44458.48
573.55	44528.69
573.71	44744.02
573.87	44397.62
574.03	44264.21
574.20	44402.30
574.36	44313.36
574.52	44957.01
574.68	44687.85
574.84	44645.72
575.01	44699.55
575.17	44369.54
575.33	44421.03
575.49	44645.72
575.65	44552.10
575.82	45228.51
575.98	44739.34
576.14	45130.21
576.30	44659.76
576.46	44673.81
576.62	44634.02
576.79	44540.39
576.95	44624.65
577.11	44797.85
577.27	44666.78
577.43	44542.74
577.59	44657.42
577.75	44559.12
577.92	44367.20
578.08	44339.11
578.24	44119.10
578.40	44741.68
578.56	44713.59
578.72	44521.67
578.88	45333.84
579.04	44982.76
579.21	44872.75
579.37	44439.75
579.53	44587.21
579.69	44397.62
579.85	44486.56
580.01	45146.59
580.17	45221.49
580.33	44964.03
580.49	44697.21
580.65	44673.81
580.82	45172.34
580.98	44758.06
581.14	44643.38
581.30	44931.26
581.46	44577.84
581.62	45205.11
581.78	44474.86
581.94	44996.80
582.10	44877.43
582.26	44868.07
582.42	44898.50
582.58	44786.15
582.74	44624.65
582.90	44729.98
583.06	45031.91
583.22	45219.15
583.38	44877.43
583.54	44521.67
583.70	44795.51
583.86	44830.62
584.02	44821.26
584.18	44938.29
584.34	44554.44
584.50	45083.40
584.66	44931.26
584.82	44573.16
584.98	45247.24
585.14	44996.80
585.30	44701.89
585.46	44383.58
585.62	44533.37
585.78	44863.39
585.94	44612.95
586.10	44659.76
586.26	44786.15
586.42	44348.47
586.58	44727.64
586.74	44964.03
586.90	44495.92
587.06	44966.37
587.22	44856.37
587.38	44524.01
587.54	45017.86
587.70	45401.71
587.86	44762.75
588.02	44634.02
588.18	45109.14
588.34	44879.77
588.49	44666.78
588.65	44708.91
588.81	44402.30
588.97	44535.71
589.13	44556.78
589.29	45123.19
589.45	44952.33
589.61	44854.03
589.77	44975.73
589.93	45193.40
590.08	45329.16
590.24	45104.46
