SpectraSuite Data File
++++++++++++++++++++++++++++++++++++
Date: Fri Oct 25 10:43:15 EDT 2013
User: price-jones
Dark Spectrum Present: No
Reference Spectrum Present: No
Number of Sampled Component Spectra: 1
Spectrometers: USB2+H05261
Integration Time (usec): 100000 (USB2+H05261)
Spectra Averaged: 1 (USB2+H05261)
Boxcar Smoothing: 0 (USB2+H05261)
Correct for Electrical Dark: No (USB2+H05261)
Strobe/Lamp Enabled: No (USB2+H05261)
Correct for Detector Non-linearity: No (USB2+H05261)
Correct for Stray Light: No (USB2+H05261)
Number of Pixels in Processed Spectrum: 2048
>>>>>Begin Processed Spectral Data<<<<<
365.73	124.05
365.92	124.05
366.12	124.05
366.32	28.09
366.52	0.00
366.72	0.00
366.91	0.00
367.11	32.77
367.31	0.00
367.51	44.47
367.70	25.75
367.90	35.11
368.10	0.00
368.30	0.00
368.49	25.75
368.69	53.83
368.89	30.43
369.09	30.43
369.28	60.85
369.48	37.45
369.68	0.00
369.87	65.54
370.07	110.01
370.27	135.75
370.47	210.65
370.66	290.23
370.86	409.59
371.06	512.58
371.25	519.60
371.45	428.32
371.65	461.09
371.84	526.62
372.04	461.09
372.24	477.47
372.44	465.77
372.63	517.26
372.83	475.13
373.03	449.38
373.22	409.59
373.42	491.51
373.62	552.37
373.81	543.00
374.01	500.87
374.21	540.66
374.40	603.86
374.60	582.79
374.79	575.77
374.99	620.24
375.19	500.87
375.38	610.88
375.58	603.86
375.78	582.79
375.97	650.67
376.17	636.63
376.37	561.73
376.56	587.47
376.76	582.79
376.95	587.47
377.15	650.67
377.35	636.63
377.54	695.14
377.74	627.26
377.93	662.37
378.13	631.94
378.33	547.69
378.52	645.99
378.72	678.76
378.91	699.82
379.11	685.78
379.31	662.37
379.50	629.60
379.70	655.35
379.89	608.54
380.09	636.63
380.28	688.12
380.48	709.18
380.68	713.86
380.87	620.24
381.07	704.50
381.26	667.05
381.46	617.90
381.65	711.52
381.85	690.46
382.04	688.12
382.24	664.71
382.43	739.61
382.63	720.88
382.83	725.57
383.02	744.29
383.22	732.59
383.41	695.14
383.61	807.48
383.80	823.87
384.00	777.06
384.19	772.38
384.39	877.70
384.58	781.74
384.78	767.70
384.97	819.19
385.17	851.96
385.36	704.50
385.56	805.14
385.75	805.14
385.95	795.78
386.14	842.59
386.34	866.00
386.53	851.96
386.72	887.06
386.92	821.53
387.11	854.30
387.31	819.19
387.50	849.61
387.70	819.19
387.89	938.55
388.09	896.43
388.28	891.74
388.48	835.57
388.67	954.94
388.86	952.60
389.06	964.30
389.25	952.60
389.45	968.98
389.64	910.47
389.84	1027.50
390.03	997.07
390.22	980.68
390.42	1011.11
390.61	940.90
390.81	964.30
391.00	1046.22
391.19	1006.43
391.39	1036.86
391.58	1039.20
391.78	1064.94
391.97	1050.90
392.16	957.28
392.36	1069.62
392.55	1078.99
392.75	966.64
392.94	961.96
393.13	987.71
393.33	943.24
393.52	1062.60
393.71	1046.22
393.91	1114.10
394.10	1149.20
394.29	1160.91
394.49	1139.84
394.68	1146.86
394.88	1228.78
395.07	1151.54
395.26	1259.21
395.46	1249.85
395.65	1261.55
395.84	1266.23
396.04	1249.85
396.23	1149.20
396.42	1102.39
396.62	1287.29
396.81	1203.04
397.00	1125.80
397.19	1226.44
397.39	1294.32
397.58	1366.87
397.77	1385.60
397.97	1500.28
398.16	1411.34
398.35	1481.56
398.55	1401.98
398.74	1434.75
398.93	1554.12
399.12	1579.86
399.32	1488.58
399.51	1483.90
399.70	1551.78
399.90	1577.52
400.09	1600.93
400.28	1624.33
400.47	1701.57
400.67	1596.25
400.86	1598.59
401.05	1696.89
401.24	1682.85
401.44	1750.72
401.63	1708.59
401.82	1783.49
402.01	1753.06
402.21	1762.42
402.40	1774.13
402.59	1753.06
402.78	1685.19
402.97	1682.85
403.17	1802.21
403.36	1750.72
403.55	1816.26
403.74	1865.41
403.93	1858.39
404.13	1902.86
404.32	1874.77
404.51	1987.11
404.70	1863.07
404.89	1940.30
405.09	1954.35
405.28	1928.60
405.47	2040.95
405.66	1977.75
405.85	1823.28
406.05	1930.94
406.24	1895.83
406.43	2047.97
406.62	2113.50
406.81	2118.18
407.00	2019.88
407.20	2022.22
407.39	2153.29
407.58	2167.34
407.77	2221.17
407.96	2256.28
408.15	2282.02
408.34	2275.00
408.54	2342.88
408.73	2338.20
408.92	2214.15
409.11	2188.40
409.30	2312.45
409.49	2312.45
409.68	2317.13
409.87	2368.62
410.07	2392.03
410.26	2401.39
410.45	2370.96
410.64	2450.54
410.83	2392.03
411.02	2436.50
411.21	2502.03
411.40	2457.56
411.59	2705.66
411.78	2626.08
411.98	2590.97
412.17	2722.04
412.36	2740.77
412.55	2689.28
412.74	2672.89
412.93	2747.79
413.12	2794.60
413.31	2815.66
413.50	2918.65
413.69	2930.35
413.88	2953.76
414.07	2867.16
414.26	3005.25
414.45	2984.18
414.64	2946.73
414.83	3077.80
415.02	2974.82
415.22	3070.78
415.41	3190.15
415.60	3187.81
415.79	3122.27
415.98	3190.15
416.17	3316.54
416.36	3220.58
416.55	3363.35
416.74	3276.75
416.93	3269.73
417.12	3307.18
417.31	3309.52
417.50	3339.94
417.69	3471.01
417.88	3330.58
418.07	3417.18
418.26	3433.57
418.45	3424.20
418.64	3463.99
418.83	3440.59
419.02	3545.91
419.21	3552.93
419.39	3646.55
419.58	3541.23
419.77	3534.21
419.96	3693.37
420.15	3705.07
420.34	3754.22
420.53	3751.88
420.72	3911.04
420.91	3911.04
421.10	3779.97
421.29	3941.46
421.48	3941.46
421.67	3808.05
421.86	3740.18
422.05	3819.75
422.24	3789.33
422.43	3861.88
422.61	3840.82
422.80	3969.55
422.99	3873.59
423.18	3852.52
423.37	3925.08
423.56	4002.32
423.75	3911.04
423.94	3798.69
424.13	3726.13
424.32	3894.65
424.50	3960.19
424.69	4056.15
424.88	3955.51
425.07	3927.42
425.26	3854.86
425.45	3950.82
425.64	3990.61
425.83	3943.80
426.01	4009.34
426.20	4023.38
426.39	3941.46
426.58	4049.13
426.77	3974.23
426.96	3995.29
427.15	3941.46
427.33	4077.21
427.52	4152.11
427.71	4072.53
427.90	4100.62
428.09	4203.60
428.28	4241.05
428.46	4236.37
428.65	4077.21
428.84	4217.65
429.03	4173.18
429.22	4079.55
429.40	4056.15
429.59	4049.13
429.78	3857.20
429.97	3817.41
430.16	3995.29
430.34	3978.91
430.53	4105.30
430.72	4168.49
430.91	4266.80
431.10	4280.84
431.28	4542.98
431.47	4533.62
431.66	4601.49
431.85	4521.92
432.03	4596.81
432.22	4554.68
432.41	4587.45
432.60	4641.28
432.79	4699.80
432.97	4833.21
433.16	4873.00
433.35	4606.17
433.54	4652.98
433.72	4699.80
433.91	4631.92
434.10	4760.65
434.28	4772.35
434.47	4975.98
434.66	4896.40
434.85	4901.08
435.03	4887.04
435.22	5004.07
435.41	5006.41
435.59	5132.79
435.78	5128.11
435.97	5004.07
436.16	4992.36
436.34	5242.80
436.53	5214.71
436.72	5195.99
436.90	5062.58
437.09	5210.03
437.28	5123.43
437.46	5163.22
437.65	5282.59
437.84	5135.14
438.02	5109.39
438.21	5198.33
438.40	5107.05
438.58	5383.23
438.77	5385.57
438.96	5500.26
439.14	5523.66
439.33	5760.06
439.52	5757.72
439.70	5596.22
439.89	5673.46
440.08	5521.32
440.26	5774.10
440.45	5645.37
440.63	5736.65
440.82	5968.37
441.01	5837.30
441.19	5926.24
441.38	6043.26
441.57	6148.59
441.75	6136.88
441.94	6520.73
442.12	6256.25
442.31	6282.00
442.50	6375.62
442.68	6249.23
442.87	6282.00
443.05	6349.87
443.24	6338.17
443.43	6384.98
443.61	6569.88
443.80	6490.31
443.98	6349.87
444.17	6216.46
444.35	6485.62
444.54	6614.35
444.73	6553.50
444.91	6366.26
445.10	6555.84
445.28	6377.96
445.47	6569.88
445.65	6525.41
445.84	6523.07
446.02	6499.67
446.21	6434.13
446.39	6651.80
446.58	6597.97
446.77	6586.27
446.95	6392.00
447.14	6810.96
447.32	6967.77
447.51	6759.47
447.69	6588.61
447.88	6759.47
448.06	6672.87
448.25	6560.52
448.43	6689.25
448.62	6530.09
448.80	6806.28
448.99	6768.83
449.17	7002.88
449.36	6832.02
449.54	6979.48
449.73	7087.14
449.91	7162.04
450.10	7028.63
450.28	7204.17
450.46	7068.42
450.65	7157.36
450.83	7241.62
451.02	7225.23
451.20	7243.96
451.39	7211.19
451.57	7204.17
451.76	7080.12
451.94	7232.26
452.13	7218.21
452.31	7227.57
452.49	7155.02
452.68	7243.96
452.86	7101.19
453.05	7318.86
453.23	7307.15
453.42	7293.11
453.60	7318.86
453.78	7403.11
453.97	7323.54
454.15	7548.23
454.34	7360.98
454.52	7578.65
454.70	7672.28
454.89	7473.33
455.07	7639.51
455.26	7623.12
455.44	7859.52
455.62	7740.15
455.81	7845.48
455.99	7777.60
456.17	7824.41
456.36	7878.24
456.54	7906.33
456.73	8187.19
456.91	8032.72
457.09	8081.87
457.28	8369.76
457.46	8112.30
457.64	8147.40
457.83	8161.45
458.01	7892.29
458.19	8124.00
458.38	8053.78
458.56	8362.73
458.74	8212.94
458.93	8156.77
459.11	8224.64
459.29	8044.42
459.48	8325.29
459.66	8196.56
459.84	8491.46
460.03	8479.76
460.21	8437.63
460.39	8669.34
460.57	8348.69
460.76	8622.53
460.94	8486.78
461.12	8655.30
461.31	8430.61
461.49	8772.33
461.67	8828.50
461.85	8645.94
462.04	8877.65
462.22	9280.22
462.40	8849.57
462.59	8882.33
462.77	8950.21
462.95	8821.48
463.13	8882.33
463.32	8945.53
463.50	9048.51
463.68	9170.22
463.86	8896.38
464.05	8973.61
464.23	8968.93
464.41	9036.81
464.59	8720.84
464.78	9076.60
464.96	9008.72
465.14	9238.09
465.32	9188.94
465.50	9324.69
465.69	9090.64
465.87	9092.98
466.05	9160.86
466.23	9193.62
466.41	9331.72
466.60	9376.19
466.78	9128.09
466.96	9060.21
467.14	9364.48
467.32	9355.12
467.51	9490.87
467.69	9184.26
467.87	9561.09
468.05	9551.73
468.23	9357.46
468.41	9610.24
468.60	9385.55
468.78	9296.61
468.96	9640.67
469.14	9731.95
469.32	9870.04
469.50	9273.20
469.69	9511.94
469.87	9696.84
470.05	9881.74
470.23	9767.06
470.41	9795.14
470.59	9975.36
470.77	9935.57
470.95	9888.76
471.14	9898.13
471.32	10045.58
471.50	10471.56
471.68	10047.92
471.86	10286.65
472.04	10373.25
472.22	10504.32
472.40	10312.40
472.58	10326.44
472.77	10328.78
472.95	10537.09
473.13	10850.72
473.31	10469.22
473.49	10541.77
473.67	10581.56
473.85	10611.99
474.03	10899.87
474.21	10998.18
474.39	11049.67
474.57	11180.74
474.75	10895.19
474.93	11096.48
475.12	11016.90
475.30	11435.86
475.48	11101.16
475.66	11201.80
475.84	11101.16
476.02	11410.11
476.20	11386.71
476.38	11805.66
476.56	11667.57
476.74	11646.51
476.92	11506.07
477.10	11887.58
477.28	12175.47
477.46	12147.38
477.64	12259.73
477.82	12453.99
478.00	12571.02
478.18	12269.09
478.36	12678.68
478.54	12657.62
478.72	12926.78
478.90	12931.46
479.08	13254.45
479.26	13385.52
479.44	13027.42
479.62	13247.43
479.80	13104.66
479.98	13469.78
480.16	13652.34
480.34	13675.75
480.52	13502.55
480.70	13589.15
480.88	13659.37
481.06	13628.94
481.24	13752.99
481.41	14171.94
481.59	14370.89
481.77	14394.29
481.95	14523.02
482.13	14492.60
482.31	14387.27
482.49	14979.43
482.67	15012.20
482.85	14977.09
483.03	15316.47
483.21	15154.97
483.39	15541.16
483.57	15009.86
483.74	15660.52
483.92	15562.22
484.10	15683.93
484.28	15903.94
484.46	15887.56
484.64	16219.91
484.82	16065.44
485.00	16255.02
485.18	16137.99
485.35	16725.47
485.53	16142.67
485.71	16128.63
485.89	16453.97
486.07	16229.27
486.25	16655.25
486.43	16908.03
486.61	16989.95
486.78	17118.68
486.96	17069.53
487.14	17537.63
487.32	17701.47
487.50	17837.22
487.68	18033.83
487.85	18214.05
488.03	18448.10
488.21	18558.11
488.39	18684.50
488.57	18565.13
488.75	18670.45
488.92	19047.28
489.10	19389.00
489.28	19660.50
489.46	19747.10
489.64	19480.28
489.81	20247.97
489.99	20020.94
490.17	19868.81
490.35	20397.77
490.53	19999.88
490.70	20362.66
490.88	20482.03
491.06	20549.90
491.24	20837.79
491.41	20849.49
491.59	20638.84
491.77	20741.83
491.95	20989.92
492.13	21088.23
492.30	21579.74
492.48	21530.59
492.66	21535.27
492.84	21895.71
493.01	21898.05
493.19	22169.55
493.37	22129.77
493.54	22265.52
493.72	22375.52
493.90	22483.19
494.08	23033.21
494.25	22944.27
494.43	22920.87
494.61	23122.15
494.79	23363.23
494.96	23630.05
495.14	23358.55
495.32	23917.93
495.49	23770.48
495.67	23840.70
495.85	23608.98
496.02	24137.94
496.20	24339.23
496.38	24666.91
496.55	24491.37
496.73	24844.79
496.91	24907.98
497.09	24734.78
497.26	24835.42
497.44	25029.69
497.62	24856.49
497.79	25177.14
497.97	25340.98
498.14	25579.71
498.32	25729.51
498.50	25666.31
498.67	25729.51
498.85	25778.66
499.03	26244.43
499.20	26162.51
499.38	26391.88
499.56	26534.65
499.73	26232.72
499.91	26295.92
500.08	26462.10
500.26	26319.32
500.44	26616.57
500.61	26693.81
500.79	26487.84
500.97	26752.32
501.14	26892.76
501.32	26981.70
501.49	27119.79
501.67	27136.17
501.84	27316.39
502.02	27758.75
502.20	27285.97
502.37	27686.20
502.55	27632.36
502.72	27899.19
502.90	27800.88
503.07	27730.67
503.25	28191.75
503.43	28133.24
503.60	27817.27
503.78	27948.34
503.95	28128.56
504.13	28517.09
504.30	28594.32
504.48	28739.44
504.65	28713.69
504.83	28868.17
505.01	29383.09
505.18	29181.80
505.36	29453.30
505.53	29064.77
505.71	29504.79
505.88	29366.70
506.06	29656.93
506.23	29481.39
506.41	29743.53
506.58	30127.38
506.76	29600.76
506.93	29930.77
507.11	29666.29
507.28	30204.61
507.46	29715.44
507.63	29771.61
507.81	29853.53
507.98	29991.62
508.16	30433.99
508.33	30349.73
508.50	30539.31
508.68	30244.40
508.85	30965.29
509.03	31108.06
509.20	31063.59
509.38	30876.35
509.55	31267.22
509.73	30775.70
509.90	31138.49
510.08	31133.81
510.25	31304.67
510.42	31648.72
510.60	31688.51
510.77	31852.35
510.95	31859.37
511.12	31749.37
511.30	31754.05
511.47	32383.65
511.64	32315.78
511.82	32430.46
511.99	31908.52
512.17	32430.46
512.34	32247.90
512.51	32664.52
512.69	32891.55
512.86	32561.53
513.04	32442.17
513.21	32753.46
513.38	32779.20
513.56	32683.24
513.73	32416.42
513.90	32514.72
514.08	33048.36
514.25	32917.29
514.43	33179.43
514.60	33116.24
514.77	33062.41
514.95	33472.00
515.12	33589.03
515.29	33780.95
515.47	32912.61
515.64	34253.74
515.81	33706.05
515.99	33839.47
516.16	33523.49
516.33	33682.65
516.51	33401.79
516.68	32994.53
516.85	33010.92
517.03	33621.80
517.20	33982.24
517.37	34127.35
517.54	34485.45
517.72	34082.88
517.89	33846.49
518.06	34139.05
518.24	33832.44
518.41	34253.74
518.58	34251.40
518.75	34139.05
518.93	34700.78
519.10	34808.45
519.27	34876.32
519.45	34808.45
519.62	35232.08
519.79	35173.57
519.96	35491.88
520.14	35681.47
520.31	34822.49
520.48	35103.35
520.65	35653.38
520.83	35473.16
521.00	35849.99
521.17	35405.28
521.34	35805.52
521.52	36374.27
521.69	35732.96
521.86	36226.81
522.03	36142.55
522.20	36163.62
522.38	36133.19
522.55	36631.72
522.72	36374.27
522.89	36119.15
523.07	36617.68
523.24	36425.76
523.41	36840.03
523.58	36800.24
523.75	37193.45
523.92	37350.27
524.10	37261.33
524.27	36781.52
524.44	37198.13
524.61	37078.77
524.78	37153.66
524.96	37256.65
525.13	37315.16
525.30	37376.01
525.47	37996.26
525.64	37617.09
525.81	37247.29
525.98	37127.92
526.16	37191.11
526.33	37254.31
526.50	37642.84
526.67	37022.59
526.84	37380.70
527.01	37067.06
527.18	37809.01
527.36	37771.57
527.53	38019.66
527.70	38106.26
527.87	38148.39
528.04	37893.27
528.21	38450.32
528.38	38660.97
528.55	38609.48
528.72	38518.20
528.89	38635.22
529.07	38342.66
529.24	38103.92
529.41	38412.87
529.58	38555.64
529.75	38806.08
529.92	38946.51
530.09	38925.45
530.26	38855.23
530.43	38616.50
530.60	38892.68
530.77	39147.80
530.94	39302.28
531.11	39140.78
531.28	39115.03
531.46	39316.32
531.63	39641.65
531.80	39070.56
531.97	39140.78
532.14	39576.12
532.31	38925.45
532.48	39016.73
532.65	39594.84
532.82	39388.88
532.99	39754.00
533.16	39426.32
533.33	39943.58
533.50	39934.22
533.67	39276.53
533.84	39910.82
534.01	39824.22
534.18	40091.04
534.35	40144.87
534.52	40156.57
534.69	40046.57
534.86	40458.50
535.03	40289.98
535.20	40383.60
535.37	40797.88
535.54	40938.31
535.71	40238.49
535.88	40566.16
536.05	40392.97
536.22	40318.07
536.38	40292.32
536.55	40905.54
536.72	40594.25
536.89	39861.66
537.06	40353.18
537.23	40823.62
537.40	41055.34
537.57	40891.50
537.74	41230.88
537.91	41277.69
538.08	41216.83
538.25	40655.11
538.42	41013.21
538.59	41605.36
538.75	40601.27
538.92	41294.07
539.09	41371.31
539.26	40961.72
539.43	41195.77
539.60	41085.76
539.77	41095.13
539.94	41060.02
540.11	41544.51
540.28	41532.81
540.44	41413.44
540.61	41361.95
540.78	40800.22
540.95	41048.32
541.12	41013.21
541.29	41392.37
541.46	41731.75
541.62	41759.84
541.79	41869.84
541.96	41268.33
542.13	41937.72
542.30	41729.41
542.47	41666.22
542.63	41766.86
542.80	41816.01
542.97	42363.70
543.14	42691.37
543.31	42520.51
543.48	42403.49
543.64	42436.25
543.81	42787.33
543.98	42799.04
544.15	42326.25
544.32	42567.32
544.48	43051.81
544.65	42789.67
544.82	42078.15
544.99	42272.42
545.16	42869.25
545.32	42548.60
545.49	42965.21
545.66	43320.98
545.83	42644.56
546.00	43042.45
546.16	42834.14
546.33	42960.53
546.50	42656.26
546.67	43318.64
546.83	42904.36
547.00	42815.42
547.17	42658.60
547.34	42773.29
547.50	43044.79
547.67	43370.13
547.84	43185.22
548.00	43318.64
548.17	43543.33
548.34	43213.31
548.51	43849.94
548.67	43428.64
548.84	43377.15
549.01	43360.76
549.18	42850.53
549.34	43196.93
549.51	43543.33
549.68	43620.56
549.84	43934.20
550.01	43751.63
550.18	43473.11
550.34	43592.48
550.51	43761.00
550.68	43718.87
550.84	43442.68
551.01	44013.77
551.18	43934.20
551.34	43707.16
551.51	43871.00
551.68	44133.14
551.84	44004.41
552.01	44041.86
552.18	44210.38
552.34	43943.56
552.51	44023.14
552.68	43693.12
552.84	44315.70
553.01	44346.13
553.18	44093.35
553.34	44519.33
553.51	44137.82
553.67	44495.92
553.84	44879.77
554.01	44320.38
554.17	44612.95
554.34	44435.07
554.51	44437.41
554.67	44708.91
554.84	44318.04
555.00	44226.76
555.17	44320.38
555.33	44577.84
555.50	44470.18
555.67	44266.55
555.83	44854.03
556.00	44837.64
556.16	44818.92
556.33	44727.64
556.50	44332.09
556.66	44332.09
556.83	44212.72
556.99	44378.90
557.16	44959.35
557.32	44720.62
557.49	44772.11
557.65	44516.99
557.82	44762.75
557.98	44657.42
558.15	45059.99
558.32	45022.54
558.48	44612.95
558.65	44699.55
558.81	44741.68
558.98	44371.88
559.14	44912.54
559.31	44903.18
559.47	44844.66
559.64	44811.90
559.80	44973.39
559.97	45013.18
560.13	44662.10
560.30	44856.37
560.46	45263.62
560.63	45160.64
560.79	45209.79
560.96	45661.51
561.12	44861.05
561.29	44928.92
561.45	45315.11
561.61	45268.30
561.78	45071.70
561.94	44779.13
562.11	45090.42
562.27	45059.99
562.44	45558.53
562.60	44966.37
562.77	45282.34
562.93	45284.68
563.10	45343.20
563.26	45399.37
563.42	45558.53
563.59	45298.73
563.75	45205.11
563.92	45301.07
564.08	45434.48
564.24	45361.92
564.41	45331.50
564.57	44971.05
564.74	45127.87
564.90	45638.11
565.07	45750.45
565.23	45411.07
565.39	45144.25
565.56	45331.50
565.72	45198.09
565.88	45247.24
566.05	45455.54
566.21	45317.45
566.38	45378.31
566.54	45865.14
566.70	45287.03
566.87	45968.12
567.03	45485.97
567.19	46429.21
567.36	45921.31
567.52	45818.33
567.68	45904.93
567.85	45151.27
568.01	45434.48
568.17	45598.32
568.34	45542.14
568.50	46021.95
568.66	45125.53
568.83	45888.54
568.99	45518.74
569.15	45420.44
569.32	45738.75
569.48	45357.24
569.64	46057.06
569.81	46211.54
569.97	45530.44
570.13	45827.69
570.30	45471.93
570.46	45507.04
570.62	45158.30
570.78	44989.78
570.95	45212.13
571.11	45804.28
571.27	45584.27
571.43	45539.80
571.60	45656.83
571.76	45755.13
571.92	45380.65
572.09	45516.40
572.25	45900.25
572.41	46415.16
572.57	46246.65
572.74	46012.59
572.90	45792.58
573.06	46059.40
573.22	45663.85
573.38	45610.02
573.55	45888.54
573.71	46014.93
573.87	45406.39
574.03	45008.50
574.20	45687.26
574.36	45457.88
574.52	45984.51
574.68	45474.27
574.84	45413.41
575.01	45928.33
575.17	45497.67
575.33	45549.17
575.49	45572.57
575.65	45958.76
575.82	45698.96
575.98	45890.88
576.14	45951.74
576.30	45914.29
576.46	45443.84
576.62	45633.42
576.79	45610.02
576.95	45806.62
577.11	45923.65
577.27	46087.49
577.43	45806.62
577.59	45691.94
577.75	45380.65
577.92	45610.02
578.08	45481.29
578.24	45184.04
578.40	45881.52
578.56	45511.72
578.72	45792.58
578.88	46267.71
579.04	45865.14
579.21	45490.65
579.37	45710.66
579.53	45635.77
579.69	45621.72
579.85	45673.21
580.01	45757.47
580.17	45654.49
580.33	45897.91
580.49	45911.95
580.65	46333.24
580.82	46028.98
580.98	45897.91
581.14	45481.29
581.30	45909.61
581.46	45701.30
581.62	46248.99
581.78	46024.29
581.94	46279.41
582.10	45975.14
582.26	46096.85
582.42	46096.85
582.58	46178.77
582.74	45904.93
582.90	46314.52
583.06	46087.49
583.22	46127.28
583.38	46272.39
583.54	45780.88
583.70	46487.72
583.86	45684.92
584.02	45502.35
584.18	46148.34
584.34	45801.94
584.50	46160.05
584.66	46047.70
584.82	46391.76
584.98	45729.39
585.14	46071.10
585.30	45933.01
585.46	45713.00
585.62	45521.08
585.78	46010.25
585.94	45734.07
586.10	45652.15
586.26	45834.71
586.42	46618.79
586.58	45954.08
586.74	46064.08
586.90	45965.78
587.06	45748.11
587.22	46106.21
587.38	45684.92
587.54	46122.60
587.70	46251.33
587.86	45998.55
588.02	45670.87
588.18	46141.32
588.34	45710.66
588.49	45303.41
588.65	45324.47
588.81	45361.92
588.97	45715.34
589.13	45013.18
589.29	45216.81
589.45	45549.17
589.61	45762.15
589.77	45933.01
589.93	45539.80
590.08	45944.72
