SpectraSuite Data File
++++++++++++++++++++++++++++++++++++
Date: Fri Oct 25 11:25:49 EDT 2013
User: price-jones
Dark Spectrum Present: No
Reference Spectrum Present: No
Number of Sampled Component Spectra: 1
Spectrometers: USB2+H05261
Integration Time (usec): 100000 (USB2+H05261)
Spectra Averaged: 1 (USB2+H05261)
Boxcar Smoothing: 0 (USB2+H05261)
Correct for Electrical Dark: No (USB2+H05261)
Strobe/Lamp Enabled: No (USB2+H05261)
Correct for Detector Non-linearity: No (USB2+H05261)
Correct for Stray Light: No (USB2+H05261)
Number of Pixels in Processed Spectrum: 2048
>>>>>Begin Processed Spectral Data<<<<<
365.73	201.29
365.92	201.29
366.12	201.29
366.32	140.43
366.52	121.71
366.72	210.65
366.91	168.52
367.11	131.07
367.31	70.22
367.51	140.43
367.70	114.69
367.90	138.09
368.10	140.43
368.30	119.37
368.49	166.18
368.69	128.73
368.89	142.77
369.09	107.66
369.28	163.84
369.48	201.29
369.68	177.88
369.87	208.31
370.07	238.73
370.27	229.37
370.47	325.33
370.66	603.86
370.86	657.69
371.06	596.84
371.25	636.63
371.45	702.16
371.65	702.16
371.84	690.46
372.04	624.92
372.24	690.46
372.44	767.70
372.63	760.67
372.83	746.63
373.03	821.53
373.22	763.01
373.42	746.63
373.62	793.44
373.81	819.19
374.01	884.72
374.21	908.13
374.40	781.74
374.60	842.59
374.79	861.32
374.99	847.27
375.19	774.72
375.38	814.51
375.58	800.46
375.78	863.66
375.97	943.24
376.17	851.96
376.37	887.06
376.56	940.90
376.76	887.06
376.95	880.04
377.15	877.70
377.35	795.78
377.54	919.83
377.74	854.30
377.93	835.57
378.13	926.85
378.33	1008.77
378.52	1004.09
378.72	973.66
378.91	884.72
379.11	1013.45
379.31	793.44
379.50	901.11
379.70	940.90
379.89	1057.92
380.09	978.34
380.28	1034.52
380.48	1008.77
380.68	976.00
380.87	1069.62
381.07	1086.01
381.26	1046.22
381.46	1039.20
381.65	1034.52
381.85	933.87
382.04	1039.20
382.24	1104.73
382.43	1043.88
382.63	1062.60
382.83	1069.62
383.02	1111.75
383.22	1048.56
383.41	1186.65
383.61	1137.50
383.80	1100.05
384.00	1111.75
384.19	1123.46
384.39	1100.05
384.58	1118.78
384.78	1114.10
384.97	1193.67
385.17	1158.57
385.36	1132.82
385.56	1118.78
385.75	1121.12
385.95	1132.82
386.14	1191.33
386.34	1207.72
386.53	1240.48
386.72	1231.12
386.92	1291.98
387.11	1247.51
387.31	1245.16
387.50	1301.34
387.70	1238.14
387.89	1270.91
388.09	1301.34
388.28	1299.00
388.48	1329.42
388.67	1296.66
388.86	1315.38
389.06	1259.21
389.25	1434.75
389.45	1350.49
389.64	1352.83
389.84	1324.74
390.03	1430.07
390.22	1341.13
390.42	1303.68
390.61	1327.08
390.81	1345.81
391.00	1366.87
391.19	1444.11
391.39	1521.35
391.58	1472.20
391.78	1404.32
391.97	1511.99
392.16	1479.22
392.36	1479.22
392.55	1486.24
392.75	1563.48
392.94	1404.32
393.13	1416.02
393.33	1675.82
393.52	1549.43
393.71	1596.25
393.91	1582.20
394.10	1582.20
394.29	1624.33
394.49	1542.41
394.68	1732.00
394.88	1619.65
395.07	1701.57
395.26	1675.82
395.46	1701.57
395.65	1701.57
395.84	1680.50
396.04	1804.55
396.23	1764.76
396.42	1689.87
396.62	1947.33
396.81	1825.62
397.00	1863.07
397.19	1771.79
397.39	1874.77
397.58	1743.70
397.77	1797.53
397.97	1928.60
398.16	1884.13
398.35	1881.79
398.55	1895.83
398.74	1886.47
398.93	1949.67
399.12	1900.52
399.32	1914.56
399.51	1907.54
399.70	1919.24
399.90	1891.15
400.09	1930.94
400.28	1928.60
400.47	1956.69
400.67	2045.63
400.86	1963.71
401.05	2129.89
401.24	2160.31
401.44	2155.63
401.63	2118.18
401.82	2083.08
402.01	2160.31
402.21	2108.82
402.40	2129.89
402.59	2286.70
402.78	2239.89
402.97	2129.89
403.17	2289.04
403.36	2286.70
403.55	2385.01
403.74	2307.77
403.93	2331.17
404.13	2338.20
404.32	2401.39
404.51	2300.75
404.70	2551.18
404.89	2352.24
405.09	2396.71
405.28	2363.94
405.47	2459.90
405.66	2450.54
405.85	2511.39
406.05	2480.97
406.24	2560.55
406.43	2518.42
406.62	2722.04
406.81	2647.15
407.00	2684.59
407.20	2656.51
407.39	2647.15
407.58	2703.32
407.77	2693.96
407.96	2766.51
408.15	2672.89
408.34	2693.96
408.54	2820.35
408.73	2937.37
408.92	2778.22
409.11	2810.98
409.30	2888.22
409.49	2913.97
409.68	2967.80
409.87	2904.60
410.07	2993.55
410.26	2965.46
410.45	3047.38
410.64	3042.70
410.83	3101.21
411.02	3148.02
411.21	3150.36
411.40	2984.18
411.59	3112.91
411.78	3131.64
411.98	3213.56
412.17	3386.76
412.36	3494.42
412.55	3246.32
412.74	3391.44
412.93	3325.90
413.12	3412.50
413.31	3538.89
413.50	3475.70
413.69	3531.87
413.88	3515.48
414.07	3545.91
414.26	3527.19
414.45	3625.49
414.64	3611.45
414.83	3623.15
415.02	3648.90
415.22	3782.31
415.41	3866.56
415.60	3838.48
415.79	3836.14
415.98	3880.61
416.17	3946.14
416.36	3845.50
416.55	3854.86
416.74	4086.58
416.93	3988.27
417.12	4109.98
417.31	4131.05
417.50	4063.17
417.69	4395.53
417.88	4159.13
418.07	4280.84
418.26	4234.03
418.45	4245.73
418.64	4505.53
418.83	4444.68
419.02	4428.29
419.21	4470.42
419.39	4442.34
419.58	4362.76
419.77	4297.22
419.96	4652.98
420.15	4683.41
420.34	4507.87
420.53	4674.05
420.72	4744.27
420.91	4784.06
421.10	4868.31
421.29	4793.42
421.48	4915.12
421.67	4814.48
421.86	4746.61
422.05	4781.71
422.24	4842.57
422.43	4826.18
422.61	4809.80
422.80	4873.00
422.99	4947.89
423.18	4952.57
423.37	4973.64
423.56	4844.91
423.75	4896.40
423.94	4854.27
424.13	4547.66
424.32	4498.51
424.50	5069.60
424.69	5123.43
424.88	5043.85
425.07	4924.49
425.26	4943.21
425.45	4819.16
425.64	4870.65
425.83	4919.81
426.01	5085.98
426.20	5001.72
426.39	5064.92
426.58	5022.79
426.77	5048.54
426.96	5116.41
427.15	5034.49
427.33	5184.29
427.52	5298.97
427.71	5261.52
427.90	5287.27
428.09	5226.42
428.28	5373.87
428.46	5404.30
428.65	5308.34
428.84	5537.71
429.03	5516.64
429.22	5280.25
429.40	5348.12
429.59	5497.92
429.78	5210.03
429.97	5287.27
430.16	5467.49
430.34	5692.18
430.53	5680.48
430.72	5687.50
430.91	5675.80
431.10	5593.88
431.28	5813.89
431.47	5624.31
431.66	5839.64
431.85	5830.27
432.03	6019.86
432.22	5961.34
432.41	5778.78
432.60	5987.09
432.79	5963.68
432.97	5919.21
433.16	6017.52
433.35	5966.03
433.54	6047.94
433.72	6061.99
433.91	6092.41
434.10	6115.82
434.28	6078.37
434.47	6289.02
434.66	6195.40
434.85	6354.55
435.03	6284.34
435.22	6141.57
435.41	6424.77
435.59	6305.40
435.78	6511.37
435.97	6452.86
436.16	6462.22
436.34	6476.26
436.53	6497.33
436.72	6614.35
436.90	6448.18
437.09	6520.73
437.28	6619.04
437.46	6675.21
437.65	6707.98
437.84	6888.20
438.02	6686.91
438.21	6651.80
438.40	6541.80
438.58	6892.88
438.77	7112.89
438.96	7012.24
439.14	7157.36
439.33	7009.90
439.52	7215.87
439.70	7143.32
439.89	7173.74
440.08	7384.39
440.26	7346.94
440.45	7414.82
440.63	7391.41
440.82	7569.29
441.01	7379.71
441.19	7588.02
441.38	7611.42
441.57	7513.12
441.75	7805.69
441.94	7852.50
442.12	7950.80
442.31	7997.61
442.50	7976.55
442.68	7999.95
442.87	7882.92
443.05	8105.28
443.24	8269.11
443.43	7971.86
443.61	8109.96
443.80	8367.42
443.98	8147.40
444.17	7702.70
444.35	8079.53
444.54	8105.28
444.73	8458.70
444.91	8149.75
445.10	8339.33
445.28	8428.27
445.47	8416.57
445.65	8285.50
445.84	8430.61
446.02	8503.17
446.21	8468.06
446.39	8416.57
446.58	8592.11
446.77	8372.10
446.95	8287.84
447.14	8379.12
447.32	8531.25
447.51	8388.48
447.69	8458.70
447.88	8454.02
448.06	8521.89
448.25	8439.97
448.43	8692.75
448.62	8486.78
448.80	8753.60
448.99	8702.11
449.17	8753.60
449.36	8685.73
449.54	8582.74
449.73	8795.73
449.91	9085.96
450.10	9067.24
450.28	9062.55
450.46	8997.02
450.65	9085.96
450.83	9004.04
451.02	9022.77
451.20	9123.41
451.39	9163.20
451.57	9121.07
451.76	9085.96
451.94	9100.00
452.13	9240.44
452.31	9476.83
452.49	9156.18
452.68	9455.76
452.86	9266.18
453.05	9451.08
453.23	9596.20
453.42	9476.83
453.60	9245.12
453.78	9563.43
453.97	9397.25
454.15	9394.91
454.34	9394.91
454.52	9621.94
454.70	9589.17
454.89	9586.83
455.07	9554.07
455.26	9902.81
455.44	9689.82
455.62	9816.21
455.81	9806.84
455.99	9977.70
456.17	10146.22
456.36	10078.35
456.54	10174.31
456.73	10265.59
456.91	10394.32
457.09	10249.21
457.28	10466.88
457.46	10256.23
457.64	10296.02
457.83	10518.37
458.01	10289.00
458.19	10740.72
458.38	10544.11
458.56	10649.44
458.74	10548.79
458.93	10640.08
459.11	10703.27
459.29	10647.10
459.48	10820.30
459.66	10724.33
459.84	10764.12
460.03	10956.05
460.21	11042.65
460.39	10860.09
460.57	11016.90
460.76	11014.56
460.94	11246.27
461.12	10986.47
461.31	11157.33
461.49	11131.59
461.67	11197.12
461.85	11473.31
462.04	11335.21
462.22	11840.77
462.40	11555.22
462.59	11501.39
462.77	11559.91
462.95	11473.31
463.13	11496.71
463.32	11524.80
463.50	11611.40
463.68	11864.18
463.86	11798.64
464.05	11531.82
464.23	11648.85
464.41	11875.88
464.59	11693.32
464.78	12177.81
464.96	11822.05
465.14	11866.52
465.32	11775.24
465.50	12283.13
465.69	12107.59
465.87	12011.63
466.05	11988.22
466.23	12383.77
466.41	12037.38
466.60	12360.37
466.78	11969.50
466.96	12355.69
467.14	12163.76
467.32	12252.70
467.51	12561.66
467.69	12051.42
467.87	12580.38
468.05	12709.11
468.23	12332.28
468.41	12463.35
468.60	12690.38
468.78	12716.13
468.96	12531.23
469.14	12573.36
469.32	13022.74
469.50	12603.78
469.69	13013.38
469.87	13027.42
470.05	13130.41
470.23	12968.91
470.41	12952.52
470.59	13280.20
470.77	13198.28
470.95	13336.37
471.14	13579.79
471.32	13399.57
471.50	13628.94
471.68	13626.60
471.86	13439.36
472.04	13621.92
472.22	14155.56
472.40	13605.53
472.58	13774.05
472.77	13977.68
472.95	13942.57
473.13	14712.61
473.31	13879.38
473.49	14143.86
473.67	13994.06
473.85	14075.98
474.03	14539.41
474.21	14490.26
474.39	14597.92
474.57	14553.45
474.75	14787.50
474.93	14677.50
475.12	14831.97
475.30	15073.05
475.48	15302.42
475.66	15105.82
475.84	15082.41
476.02	15229.87
476.20	15363.28
476.38	15576.27
476.56	15908.62
476.74	16070.12
476.92	15807.98
477.10	15852.45
477.28	15950.75
477.46	15953.09
477.64	16147.36
477.82	16294.81
478.00	16940.80
478.18	16542.91
478.36	16961.86
478.54	17163.15
478.72	17282.52
478.90	17125.70
479.08	17455.72
479.26	17345.71
479.44	17738.92
479.62	17907.44
479.80	17895.74
479.98	17886.37
480.16	18209.37
480.34	18190.64
480.52	18544.06
480.70	18515.98
480.88	18422.36
481.06	18752.37
481.24	18794.50
481.41	19044.94
481.59	19463.90
481.77	19438.15
481.95	19414.74
482.13	19555.18
482.31	19744.76
482.49	20126.27
482.67	19990.52
482.85	20496.07
483.03	20704.38
483.21	20751.19
483.39	21151.42
483.57	20730.12
483.74	21263.77
483.92	21308.24
484.10	21172.49
484.28	21561.02
484.46	21972.95
484.64	22178.92
484.82	21783.37
485.00	22237.43
485.18	22714.90
485.35	22632.98
485.53	22787.46
485.71	22602.55
485.89	23431.10
486.07	23346.84
486.25	23250.88
486.43	23414.72
486.61	23573.88
486.78	23941.34
486.96	24280.72
487.14	24362.64
487.32	24636.48
487.50	24758.19
487.68	24821.38
487.85	25060.12
488.03	25345.66
488.21	25687.38
488.39	25493.12
488.57	26096.97
488.75	26136.76
488.92	26380.18
489.10	26300.60
489.28	26677.43
489.46	26836.58
489.64	26684.45
489.81	27377.25
489.99	27571.51
490.17	27608.96
490.35	27878.12
490.53	28173.03
490.70	28217.50
490.88	28198.77
491.06	28701.99
491.24	28318.14
491.41	28980.51
491.59	29252.02
491.77	29387.77
491.95	29390.11
492.13	29539.90
492.30	29750.55
492.48	29921.41
492.66	29902.68
492.84	30408.24
493.01	30347.39
493.19	30895.07
493.37	30822.51
493.54	31264.88
493.72	31501.27
493.90	31365.52
494.08	31393.61
494.25	31674.47
494.43	31615.96
494.61	32247.90
494.79	32510.04
494.96	32266.63
495.14	32360.25
495.32	32982.83
495.49	32842.40
495.67	33139.65
495.85	33205.18
496.02	33759.89
496.20	34167.14
496.38	33783.29
496.55	33982.24
496.73	34864.62
496.91	34714.83
497.09	34436.30
497.26	34852.92
497.44	34904.41
497.62	35220.38
497.79	35674.45
497.97	35639.34
498.14	35805.52
498.32	36065.31
498.50	36271.28
498.67	36533.42
498.85	36266.60
499.03	36409.37
499.20	36683.22
499.38	36739.39
499.56	37038.98
499.73	37109.19
499.91	37134.94
500.08	37511.77
500.26	36985.15
500.44	37670.92
500.61	37890.93
500.79	37710.71
500.97	37818.38
501.14	38679.69
501.32	38398.83
501.49	38078.18
501.67	38675.01
501.84	38998.01
502.02	38983.96
502.20	38689.06
502.37	39164.18
502.55	38728.84
502.72	39409.94
502.90	39519.95
503.07	39522.29
503.25	39723.57
503.43	39716.55
503.60	39711.87
503.78	39718.89
503.95	40030.18
504.13	39866.34
504.30	40498.29
504.48	40257.21
504.65	40821.28
504.83	40994.48
505.01	40973.42
505.18	41134.92
505.36	41495.36
505.53	41383.01
505.71	41357.27
505.88	41893.25
506.06	41277.69
506.23	41918.99
506.41	41848.78
506.58	41769.20
506.76	42036.02
506.93	42422.21
507.11	41689.62
507.28	42616.47
507.46	42515.83
507.63	42747.54
507.81	42955.85
507.98	42740.52
508.16	42672.65
508.33	43332.68
508.50	43306.93
508.68	43540.99
508.85	43665.03
509.03	43627.59
509.20	43786.74
509.38	43517.58
509.55	44376.56
509.73	44069.95
509.90	44201.02
510.08	44390.60
510.25	44343.79
510.42	44935.95
510.60	44837.64
510.77	45233.19
510.95	45200.43
511.12	45549.17
511.30	45050.63
511.47	45074.04
511.64	45408.73
511.82	45434.48
511.99	45429.80
512.17	45642.79
512.34	45832.37
512.51	46562.62
512.69	46305.16
512.86	45944.72
513.04	46508.79
513.21	46382.40
513.38	46726.46
513.56	46569.64
513.73	46789.65
513.90	47119.66
514.08	46808.37
514.25	47147.75
514.43	47129.03
514.60	47208.61
514.77	46852.84
514.95	47339.68
515.12	47484.79
515.29	47091.58
515.47	47805.44
515.64	47821.83
515.81	47845.23
515.99	47978.64
516.16	48250.14
516.33	48444.41
516.51	48392.92
516.68	48399.94
516.85	48170.57
517.03	48879.75
517.20	48823.58
517.37	48818.89
517.54	48617.61
517.72	48786.13
517.89	48854.00
518.06	48816.55
518.24	49102.10
518.41	49186.36
518.58	49298.70
518.75	49055.29
518.93	49855.75
519.10	49083.37
519.27	49677.87
519.45	49385.30
519.62	49457.86
519.79	49794.90
519.96	50141.30
520.14	50167.04
520.31	50218.53
520.48	50518.12
520.65	50265.34
520.83	50625.79
521.00	50728.77
521.17	50461.95
521.34	50766.22
521.52	50958.14
521.69	50803.67
521.86	51019.00
522.03	50827.07
522.20	50901.97
522.38	51168.79
522.55	51215.60
522.72	50962.82
522.89	51217.94
523.07	51440.29
523.24	51442.63
523.41	51683.71
523.58	51316.25
523.75	51756.27
523.92	51798.40
524.10	51538.60
524.27	51899.04
524.44	51831.16
524.61	51957.55
524.78	52027.77
524.96	51952.87
525.13	52360.12
525.30	52275.87
525.47	52385.87
525.64	52233.74
525.81	52652.69
525.98	52580.13
526.16	52547.37
526.33	52559.07
526.50	53034.20
526.67	52402.25
526.84	52788.44
527.01	52804.83
527.18	52893.77
527.36	53083.35
527.53	52472.47
527.70	53296.34
527.87	53359.53
528.04	53062.29
528.21	53319.74
528.38	53106.76
528.55	53415.71
528.72	53333.79
528.89	53198.04
529.07	53404.00
529.24	53183.99
529.41	53631.04
529.58	53822.96
529.75	53633.38
529.92	53375.92
530.09	53928.28
530.26	53792.53
530.43	54099.14
530.60	53729.34
530.77	53689.55
530.94	54124.89
531.11	54176.38
531.28	53909.56
531.46	54202.13
531.63	54302.77
531.80	53956.37
531.97	54309.79
532.14	54527.46
532.31	53942.33
532.48	54365.96
532.65	54328.52
532.82	54454.90
532.99	54394.05
533.16	54721.72
533.33	54440.86
533.50	54761.51
533.67	54674.91
533.84	54796.62
534.01	54752.15
534.18	55065.78
534.35	55030.68
534.52	54787.26
534.69	54969.82
534.86	55262.39
535.03	54857.48
535.20	55089.19
535.37	55363.03
535.54	55358.35
535.71	55220.26
535.88	55414.52
536.05	55302.18
536.22	55667.30
536.38	55496.44
536.55	55573.68
536.72	55501.12
536.89	55295.16
537.06	55648.58
537.23	55852.20
537.40	55367.71
537.57	55590.06
537.74	55573.68
537.91	55863.91
538.08	55751.56
538.25	55590.06
538.42	55835.82
538.59	56107.32
538.75	55870.93
538.92	55999.66
539.09	55945.83
539.26	56252.44
539.43	55889.65
539.60	56140.09
539.77	55894.33
539.94	56299.25
540.11	56348.40
540.28	56350.74
540.44	56367.12
540.61	56243.07
540.78	56303.93
540.95	56343.72
541.12	56292.22
541.29	56240.73
541.46	56512.23
541.62	56573.09
541.79	56378.82
541.96	56320.31
542.13	56545.00
542.30	56816.50
542.47	56601.18
542.63	56966.30
542.80	56743.95
542.97	56912.47
543.14	57064.60
543.31	56954.60
543.48	57270.57
543.64	57495.26
543.81	57343.12
543.98	57167.58
544.15	57207.37
544.32	57411.00
544.48	57312.70
544.65	57361.85
544.82	57350.15
544.99	57041.20
545.16	57399.30
545.32	57181.63
545.49	57623.99
545.66	57539.73
545.83	57291.63
546.00	57726.97
546.16	57488.24
546.33	57525.69
546.50	57389.94
546.67	57586.54
546.83	57237.80
547.00	57743.36
547.17	57518.67
547.34	57467.17
547.50	58080.39
547.67	57958.69
547.84	57911.88
548.00	58080.39
548.17	58178.70
548.34	57834.64
548.51	58099.12
548.67	58204.44
548.84	58059.33
549.01	57769.10
549.18	58049.97
549.34	57982.09
549.51	58377.64
549.68	58314.45
549.84	58443.18
550.01	58354.24
550.18	58209.12
550.34	58178.70
550.51	58293.38
550.68	58422.11
550.84	58237.21
551.01	58429.13
551.18	58396.37
551.34	58529.78
551.51	58499.35
551.68	58384.66
551.84	58590.63
552.01	58309.77
552.18	58541.48
552.34	58567.23
552.51	58681.91
552.68	58277.00
552.84	58621.06
553.01	58745.11
553.18	58780.21
553.34	58855.11
553.51	58843.41
553.67	58784.90
553.84	58925.33
554.01	58859.79
554.17	58974.48
554.34	59065.76
554.51	58951.07
554.67	58979.16
554.84	58756.81
555.00	59114.91
555.17	59000.22
555.33	59068.10
555.50	58932.35
555.67	58946.39
555.83	58794.26
556.00	59065.76
556.16	59243.64
556.33	59140.66
556.50	59166.40
556.66	59363.01
556.83	59093.85
556.99	59285.77
557.16	59393.43
557.32	59442.59
557.49	59344.28
557.65	59348.96
557.82	59262.36
557.98	59222.58
558.15	59388.75
558.32	59440.24
558.48	59318.54
558.65	59274.07
558.81	59400.46
558.98	59447.27
559.14	59550.25
559.31	59245.98
559.47	59592.38
559.64	59531.53
559.80	59412.16
559.97	59700.04
560.13	59709.41
560.30	59697.70
560.46	59784.30
560.63	59737.49
560.79	59753.88
560.96	59807.71
561.12	59744.51
561.29	59615.79
561.45	59828.77
561.61	59746.86
561.78	59910.69
561.94	59711.75
562.11	59618.13
562.27	59835.80
562.44	59978.57
562.60	59950.48
562.77	59906.01
562.93	59611.10
563.10	59985.59
563.26	59718.77
563.42	59805.37
563.59	59707.07
563.75	59891.97
563.92	59997.29
564.08	59966.87
564.24	59863.88
564.41	60027.72
564.57	59997.29
564.74	59962.18
564.90	60121.34
565.07	59896.65
565.23	59936.44
565.39	59948.14
565.56	60226.66
565.72	59987.93
565.88	60025.38
566.05	59934.10
566.21	60093.25
566.38	60207.94
566.54	60376.46
566.70	60317.95
566.87	60041.76
567.03	60111.98
567.19	60317.95
567.36	60395.18
567.52	60327.31
567.68	60430.29
567.85	60226.66
568.01	60385.82
568.17	60310.92
568.34	60161.13
568.50	60175.17
568.66	60186.88
568.83	60329.65
568.99	60133.04
569.15	60369.44
569.32	60196.24
569.48	60404.55
569.64	60493.49
569.81	60392.84
569.97	60207.94
570.13	60392.84
570.30	60243.05
570.46	60397.52
570.62	60505.19
570.78	60416.25
570.95	60425.61
571.11	60556.68
571.27	60238.37
571.43	60404.55
571.60	60725.20
571.76	60406.89
571.92	60554.34
572.09	60605.83
572.25	60540.30
572.41	60413.91
572.57	60575.40
572.74	60802.44
572.90	60360.08
573.06	60547.32
573.22	60802.44
573.38	60463.06
573.55	60589.45
573.71	60680.73
573.87	60736.90
574.03	60376.46
574.20	60584.77
574.36	60556.68
574.52	60835.20
574.68	60591.79
574.84	60662.00
575.01	60814.14
575.17	60659.66
575.33	60451.36
575.49	60523.91
575.65	60783.71
575.82	60699.45
575.98	60877.33
576.14	60615.19
576.30	60804.78
576.46	60669.03
576.62	60500.51
576.79	60603.49
576.95	60629.24
577.11	60807.12
577.27	60701.79
577.43	60769.67
577.59	60898.40
577.75	60678.39
577.92	60624.56
578.08	60629.24
578.24	60673.71
578.40	60783.71
578.56	60996.70
578.72	60701.79
578.88	60940.53
579.04	61038.83
579.21	60779.03
579.37	60903.08
579.53	60811.80
579.69	60664.35
579.85	60638.60
580.01	60701.79
580.17	60687.75
580.33	60867.97
580.49	60928.83
580.65	60800.10
580.82	60624.56
580.98	60853.93
581.14	60783.71
581.30	61008.40
581.46	60856.27
581.62	60921.80
581.78	60767.33
581.94	60842.23
582.10	60704.13
582.26	60750.94
582.42	60839.89
582.58	60842.23
582.74	60874.99
582.90	60905.42
583.06	60882.02
583.22	60748.60
583.38	60973.30
583.54	60753.29
583.70	60879.67
583.86	60844.57
584.02	60858.61
584.18	60795.42
584.34	60725.20
584.50	60952.23
584.66	60872.65
584.82	60795.42
584.98	61207.35
585.14	60956.91
585.30	60846.91
585.46	61080.96
585.62	60896.06
585.78	61186.28
585.94	60722.86
586.10	60832.86
586.26	60757.97
586.42	61034.15
586.58	61071.60
586.74	61006.06
586.90	61027.13
587.06	60837.54
587.22	61071.60
587.38	61015.43
587.54	61095.00
587.70	61202.67
587.86	60741.58
588.02	61013.08
588.18	61123.09
588.34	61073.94
