SpectraSuite Data File
++++++++++++++++++++++++++++++++++++
Date: Fri Oct 25 10:44:09 EDT 2013
User: price-jones
Dark Spectrum Present: No
Reference Spectrum Present: No
Number of Sampled Component Spectra: 1
Spectrometers: USB2+H05261
Integration Time (usec): 100000 (USB2+H05261)
Spectra Averaged: 1 (USB2+H05261)
Boxcar Smoothing: 0 (USB2+H05261)
Correct for Electrical Dark: No (USB2+H05261)
Strobe/Lamp Enabled: No (USB2+H05261)
Correct for Detector Non-linearity: No (USB2+H05261)
Correct for Stray Light: No (USB2+H05261)
Number of Pixels in Processed Spectrum: 2048
>>>>>Begin Processed Spectral Data<<<<<
365.73	105.32
365.92	105.32
366.12	105.32
366.32	0.00
366.52	0.00
366.72	0.00
366.91	51.49
367.11	37.45
367.31	56.17
367.51	25.75
367.70	42.13
367.90	53.83
368.10	37.45
368.30	65.54
368.49	28.09
368.69	77.24
368.89	121.71
369.09	42.13
369.28	74.90
369.48	49.15
369.68	72.56
369.87	91.28
370.07	23.41
370.27	133.41
370.47	163.84
370.66	351.08
370.86	479.81
371.06	430.66
371.25	433.00
371.45	435.34
371.65	447.04
371.84	475.13
372.04	489.17
372.24	435.34
372.44	538.32
372.63	498.53
372.83	503.22
373.03	543.00
373.22	482.15
373.42	514.92
373.62	447.04
373.81	510.24
374.01	580.45
374.21	561.73
374.40	538.32
374.60	585.13
374.79	599.18
374.99	531.30
375.19	650.67
375.38	517.26
375.58	603.86
375.78	634.29
375.97	557.05
376.17	596.84
376.37	543.00
376.56	636.63
376.76	559.39
376.95	610.88
377.15	620.24
377.35	692.80
377.54	594.50
377.74	568.75
377.93	592.16
378.13	683.44
378.33	622.58
378.52	685.78
378.72	624.92
378.91	671.73
379.11	585.13
379.31	568.75
379.50	664.71
379.70	739.61
379.89	711.52
380.09	737.27
380.28	594.50
380.48	662.37
380.68	624.92
380.87	678.76
381.07	765.36
381.26	725.57
381.46	760.67
381.65	744.29
381.85	699.82
382.04	706.84
382.24	734.93
382.43	746.63
382.63	678.76
382.83	725.57
383.02	674.07
383.22	767.70
383.41	723.23
383.61	760.67
383.80	702.16
384.00	786.42
384.19	798.12
384.39	823.87
384.58	851.96
384.78	837.91
384.97	767.70
385.17	821.53
385.36	866.00
385.56	858.98
385.75	823.87
385.95	835.57
386.14	779.40
386.34	854.30
386.53	917.49
386.72	884.72
386.92	851.96
387.11	936.21
387.31	730.25
387.50	833.23
387.70	933.87
387.89	856.64
388.09	840.25
388.28	854.30
388.48	938.55
388.67	866.00
388.86	929.19
389.06	971.32
389.25	896.43
389.45	997.07
389.64	1001.75
389.84	1076.65
390.03	961.96
390.22	980.68
390.42	1032.18
390.61	957.28
390.81	1001.75
391.00	1025.15
391.19	1020.47
391.39	1076.65
391.58	1048.56
391.78	1025.15
391.97	999.41
392.16	1067.28
392.36	1062.60
392.55	1022.81
392.75	1025.15
392.94	1020.47
393.13	1011.11
393.33	1004.09
393.52	1050.90
393.71	1046.22
393.91	1139.84
394.10	1107.07
394.29	1153.88
394.49	1221.76
394.68	1137.50
394.88	1135.16
395.07	1299.00
395.26	1228.78
395.46	1184.31
395.65	1149.20
395.84	1142.18
396.04	1217.08
396.23	1221.76
396.42	1128.14
396.62	1142.18
396.81	1210.06
397.00	1228.78
397.19	1341.13
397.39	1261.55
397.58	1427.73
397.77	1385.60
397.97	1476.88
398.16	1427.73
398.35	1425.39
398.55	1378.58
398.74	1568.16
398.93	1380.92
399.12	1577.52
399.32	1432.41
399.51	1568.16
399.70	1643.06
399.90	1521.35
400.09	1521.35
400.28	1579.86
400.47	1593.90
400.67	1607.95
400.86	1633.69
401.05	1694.55
401.24	1699.23
401.44	1694.55
401.63	1764.76
401.82	1713.27
402.01	1603.27
402.21	1699.23
402.40	1762.42
402.59	1640.72
402.78	1708.59
402.97	1692.21
403.17	1708.59
403.36	1696.89
403.55	1734.34
403.74	1760.08
403.93	1895.83
404.13	1923.92
404.32	1799.87
404.51	1839.66
404.70	1928.60
404.89	1856.04
405.09	1982.43
405.28	1952.01
405.47	1973.07
405.66	2012.86
405.85	1909.88
406.05	2003.50
406.24	2010.52
406.43	1982.43
406.62	2019.88
406.81	2099.46
407.00	2078.40
407.20	2083.08
407.39	1928.60
407.58	2052.65
407.77	2244.57
407.96	2253.94
408.15	2143.93
408.34	2242.23
408.54	2232.87
408.73	2293.72
408.92	2321.81
409.11	2300.75
409.30	2312.45
409.49	2132.23
409.68	2209.47
409.87	2293.72
410.07	2305.43
410.26	2396.71
410.45	2436.50
410.64	2420.11
410.83	2530.12
411.02	2431.82
411.21	2574.59
411.40	2560.55
411.59	2574.59
411.78	2551.18
411.98	2476.29
412.17	2693.96
412.36	2626.08
412.55	2715.02
412.74	2752.47
412.93	2799.28
413.12	2574.59
413.31	2813.32
413.50	2839.07
413.69	2733.75
413.88	2766.51
414.07	2832.05
414.26	2881.20
414.45	2928.01
414.64	2857.79
414.83	2916.31
415.02	2995.89
415.22	3150.36
415.41	3136.32
415.60	3038.02
415.79	3157.38
415.98	3234.62
416.17	3194.83
416.36	3201.85
416.55	3229.94
416.74	3190.15
416.93	3171.43
417.12	3328.24
417.31	3213.56
417.50	3243.98
417.69	3424.20
417.88	3461.65
418.07	3283.77
418.26	3494.42
418.45	3463.99
418.64	3578.68
418.83	3669.96
419.02	3693.37
419.21	3435.91
419.39	3595.06
419.58	3592.72
419.77	3461.65
419.96	3684.00
420.15	3606.77
420.34	3634.85
420.53	3810.39
420.72	3852.52
420.91	3826.78
421.10	3726.13
421.29	3824.44
421.48	3749.54
421.67	3847.84
421.86	3796.35
422.05	3836.14
422.24	3782.31
422.43	3737.84
422.61	3868.91
422.80	3854.86
422.99	3861.88
423.18	4011.68
423.37	3950.82
423.56	3962.53
423.75	3864.22
423.94	3915.72
424.13	3684.00
424.32	3794.01
424.50	3894.65
424.69	3882.95
424.88	4032.74
425.07	3892.31
425.26	3896.99
425.45	3873.59
425.64	3946.14
425.83	3927.42
426.01	3981.25
426.20	3908.69
426.39	4077.21
426.58	3946.14
426.77	3798.69
426.96	3847.84
427.15	3978.91
427.33	3967.21
427.52	4018.70
427.71	4156.79
427.90	4056.15
428.09	4138.07
428.28	4058.49
428.46	4154.45
428.65	4173.18
428.84	4257.43
429.03	4299.56
429.22	4095.94
429.40	4145.09
429.59	4093.60
429.78	3946.14
429.97	3953.16
430.16	3955.51
430.34	4177.86
430.53	4140.41
430.72	4173.18
430.91	4114.66
431.10	4283.18
431.28	4564.04
431.47	4505.53
431.66	4755.97
431.85	4526.60
432.03	4638.94
432.22	4610.86
432.41	4540.64
432.60	4575.75
432.79	4524.26
432.97	4732.56
433.16	4620.22
433.35	4702.14
433.54	4610.86
433.72	4655.33
433.91	4561.70
434.10	4723.20
434.28	4779.37
434.47	4685.75
434.66	4826.18
434.85	4915.12
435.03	4847.25
435.22	4868.31
435.41	5050.88
435.59	5041.51
435.78	5027.47
435.97	5132.79
436.16	5135.14
436.34	5142.16
436.53	5177.26
436.72	5116.41
436.90	5008.75
437.09	5224.08
437.28	5053.22
437.46	5107.05
437.65	5200.67
437.84	5053.22
438.02	5195.99
438.21	5214.71
438.40	5121.09
438.58	5226.42
438.77	5343.44
438.96	5359.83
439.14	5554.09
439.33	5551.75
439.52	5610.26
439.70	5540.05
439.89	5687.50
440.08	5701.54
440.26	5713.25
440.45	5753.04
440.63	5792.83
440.82	5762.40
441.01	5888.79
441.19	5930.92
441.38	6026.88
441.57	5954.32
441.75	6164.97
441.94	6209.44
442.12	6183.70
442.31	6399.02
442.50	6324.13
442.68	6326.47
442.87	6296.04
443.05	6331.15
443.24	6373.28
443.43	6455.20
443.61	6438.81
443.80	6539.46
443.98	6352.21
444.17	6153.27
444.35	6483.28
444.54	6628.40
444.73	6551.16
444.91	6483.28
445.10	6476.26
445.28	6410.73
445.47	6300.72
445.65	6366.26
445.84	6555.84
446.02	6525.41
446.21	6530.09
446.39	6485.62
446.58	6562.86
446.77	6693.93
446.95	6427.11
447.14	6759.47
447.32	6825.00
447.51	6757.13
447.69	6551.16
447.88	6504.35
448.06	6626.06
448.25	6663.51
448.43	6693.93
448.62	6600.31
448.80	6642.44
448.99	6792.23
449.17	6911.60
449.36	6656.48
449.54	6916.28
449.73	7080.12
449.91	7075.44
450.10	7061.40
450.28	7073.10
450.46	7091.82
450.65	7068.42
450.83	7105.87
451.02	7073.10
451.20	7332.90
451.39	7215.87
451.57	7075.44
451.76	7187.79
451.94	7262.68
452.13	7194.81
452.31	7300.13
452.49	7087.14
452.68	7133.95
452.86	7115.23
453.05	7194.81
453.23	7152.68
453.42	7232.26
453.60	7176.08
453.78	7389.07
453.97	7096.50
454.15	7403.11
454.34	7342.26
454.52	7370.35
454.70	7351.62
454.89	7698.02
455.07	7501.42
455.26	7548.23
455.44	7763.56
455.62	7606.74
455.81	7709.72
455.99	7819.73
456.17	7772.92
456.36	7866.54
456.54	7768.24
456.73	7894.63
456.91	8023.36
457.09	8013.99
457.28	8173.15
457.46	7976.55
457.64	8201.24
457.83	7941.44
458.01	7892.29
458.19	8262.09
458.38	7960.16
458.56	8315.92
458.74	8231.66
458.93	8121.66
459.11	8067.83
459.29	8407.20
459.48	8243.37
459.66	8276.13
459.84	8432.95
460.03	8517.21
460.21	8449.33
460.39	8395.50
460.57	8294.86
460.76	8456.36
460.94	8468.06
461.12	8624.87
461.31	8557.00
461.49	8505.51
461.67	8718.50
461.85	8755.94
462.04	8699.77
462.22	8872.97
462.40	8779.35
462.59	8889.35
462.77	8851.91
462.95	8997.02
463.13	8858.93
463.32	8940.85
463.50	9053.19
463.68	8938.51
463.86	8784.03
464.05	8713.81
464.23	8645.94
464.41	9022.77
464.59	8823.82
464.78	9235.75
464.96	9219.37
465.14	8830.84
465.32	9191.28
465.50	9231.07
465.69	9256.82
465.87	9327.03
466.05	9128.09
466.23	9212.35
466.41	9261.50
466.60	9202.99
466.78	9172.56
466.96	9334.06
467.14	9329.38
467.32	9085.96
467.51	9397.25
467.69	9149.15
467.87	9350.44
468.05	9572.79
468.23	9329.38
468.41	9254.48
468.60	9621.94
468.78	9465.13
468.96	9385.55
469.14	9682.80
469.32	9736.63
469.50	9540.02
469.69	9713.22
469.87	9694.50
470.05	9947.28
470.23	9738.97
470.41	9734.29
470.59	9874.72
470.77	9884.08
470.95	9968.34
471.14	10104.09
471.32	10153.24
471.50	10310.06
471.68	10260.91
471.86	10384.96
472.04	10361.55
472.22	10647.10
472.40	10361.55
472.58	10178.99
472.77	10457.51
472.95	10544.11
473.13	10733.70
473.31	10607.31
473.49	10391.98
473.67	10604.97
473.85	10661.14
474.03	10693.91
474.21	10927.96
474.39	10829.66
474.57	10998.18
474.75	10932.64
474.93	11169.04
475.12	11290.74
475.30	11124.57
475.48	11190.10
475.66	11393.73
475.84	11297.77
476.02	11281.38
476.20	11417.13
476.38	11578.63
476.56	11889.92
476.74	11688.64
476.92	11786.94
477.10	11913.33
477.28	12009.29
477.46	12009.29
477.64	11990.56
477.82	12248.02
478.00	12559.31
478.18	12526.55
478.36	12486.76
478.54	12615.49
478.72	12601.44
478.90	12872.95
479.08	13224.03
479.26	13036.78
479.44	13071.89
479.62	12994.65
479.80	13099.98
479.98	13273.18
480.16	13673.41
480.34	13439.36
480.52	13624.26
480.70	13851.29
480.88	13797.46
481.06	13954.27
481.24	14029.17
481.41	13893.42
481.59	14354.51
481.77	14153.22
481.95	14396.64
482.13	14260.88
482.31	14546.43
482.49	14590.90
482.67	14726.65
482.85	14799.21
483.03	15087.09
483.21	15225.18
483.39	15417.11
483.57	15360.94
483.74	15335.19
483.92	15625.42
484.10	15220.50
484.28	15899.26
484.46	16016.29
484.64	16491.41
484.82	16027.99
485.00	16065.44
485.18	16453.97
485.35	16519.50
485.53	15936.71
485.71	16280.77
485.89	16428.22
486.07	16517.16
486.25	16463.33
486.43	16999.31
486.61	16835.47
486.78	17179.53
486.96	17504.87
487.14	17507.21
487.32	17848.93
487.50	18061.91
487.68	17944.89
487.85	18281.92
488.03	18541.72
488.21	18927.91
488.39	18380.23
488.57	18923.23
488.75	18642.37
488.92	18892.80
489.10	19278.99
489.28	19697.95
489.46	19571.56
489.64	19489.64
489.81	19917.96
489.99	20023.28
490.17	19936.68
490.35	20325.21
490.53	20250.32
490.70	20526.50
490.88	20449.26
491.06	20819.07
491.24	20442.24
491.41	20615.44
491.59	20638.84
491.77	20631.82
491.95	20753.53
492.13	20835.45
492.30	21434.63
492.48	21626.55
492.66	21537.61
492.84	21736.56
493.01	21771.66
493.19	21792.73
493.37	21963.59
493.54	22092.32
493.72	22738.30
493.90	22237.43
494.08	23070.66
494.25	22904.48
494.43	23014.49
494.61	23253.22
494.79	23220.45
494.96	23300.03
495.14	23475.57
495.32	23548.13
495.49	23740.05
495.67	24098.16
495.85	24151.99
496.02	24306.46
496.20	24140.29
496.38	24114.54
496.55	24287.74
496.73	24648.18
496.91	24599.03
497.09	25057.78
497.26	25102.25
497.44	24821.38
497.62	24744.14
497.79	25582.06
497.97	25106.93
498.14	25668.66
498.32	25610.14
498.50	25106.93
498.67	25659.29
498.85	25963.56
499.03	25710.78
499.20	26401.24
499.38	26298.26
499.56	26050.16
499.73	26462.10
499.91	26300.60
500.08	27002.76
500.26	26539.33
500.44	26511.25
500.61	26670.40
500.79	26703.17
500.97	26717.22
501.14	27007.44
501.32	27033.19
501.49	27117.45
501.67	27068.30
501.84	27314.05
502.02	27402.99
502.20	27690.88
502.37	27824.29
502.55	27667.47
502.72	27716.62
502.90	27999.83
503.07	28093.45
503.25	28020.89
503.43	28056.00
503.60	27889.82
503.78	28154.30
503.95	28056.00
504.13	28552.20
504.30	28573.26
504.48	28713.69
504.65	29144.35
504.83	28823.70
505.01	28723.05
505.18	29448.62
505.36	29233.29
505.53	29198.18
505.71	29488.41
505.88	29837.15
506.06	28893.91
506.23	29701.40
506.41	29322.23
506.58	30073.54
506.76	29687.36
506.93	30150.78
507.11	29406.49
507.28	30066.52
507.46	29977.58
507.63	30244.40
507.81	30096.95
507.98	29914.39
508.16	30066.52
508.33	30321.64
508.50	30621.23
508.68	30899.75
508.85	30689.10
509.03	30888.05
509.20	31126.78
509.38	31192.32
509.55	31068.27
509.73	31063.59
509.90	31044.87
510.08	31452.12
510.25	31213.38
510.42	31164.23
510.60	31625.32
510.77	31826.60
510.95	32074.70
511.12	31718.94
511.30	31784.48
511.47	32563.87
511.64	32467.91
511.82	32084.06
511.99	32044.27
512.17	32154.28
512.34	32608.34
512.51	32692.60
512.69	32744.09
512.86	32430.46
513.04	32811.97
513.21	32758.14
513.38	32758.14
513.56	32687.92
513.73	32641.11
513.90	33104.54
514.08	33139.65
514.25	33071.77
514.43	33186.46
514.60	33200.50
514.77	33275.40
514.95	33631.16
515.12	33425.19
515.29	33696.69
515.47	33787.97
515.64	33844.15
515.81	33483.70
515.99	34085.22
516.16	33750.52
516.33	33319.87
516.51	33673.29
516.68	33228.59
516.85	33333.91
517.03	33619.46
517.20	33872.23
517.37	34031.39
517.54	34567.37
517.72	34359.06
517.89	33752.87
518.06	34038.41
518.24	33982.24
518.41	34071.18
518.58	34756.96
518.75	34731.21
518.93	34677.38
519.10	34604.82
519.27	35035.48
519.45	35028.46
519.62	35421.67
519.79	34995.69
519.96	35442.73
520.14	35447.41
520.31	35194.64
520.48	35428.69
520.65	35583.16
520.83	36055.95
521.00	36065.31
521.17	36062.97
521.34	35840.62
521.52	36121.49
521.69	36032.55
521.86	36058.29
522.03	36467.89
522.20	36390.65
522.38	36533.42
522.55	36685.56
522.72	36395.33
522.89	36123.83
523.07	36299.37
523.24	36503.00
523.41	37127.92
523.58	37013.23
523.75	37326.86
523.92	37120.90
524.10	37411.12
524.27	37315.16
524.44	37261.33
524.61	37193.45
524.78	37411.12
524.96	37301.12
525.13	37408.78
525.30	37904.98
525.47	38101.58
525.64	37792.63
525.81	37558.58
525.98	37443.89
526.16	37518.79
526.33	37212.18
526.50	37305.80
526.67	37146.64
526.84	37666.24
527.01	36987.49
527.18	37647.52
527.36	37523.47
527.53	38113.28
527.70	38234.99
527.87	38387.13
528.04	37926.04
528.21	38478.41
528.38	38583.73
528.55	39267.17
528.72	39019.07
528.89	38990.98
529.07	38602.46
529.24	38623.52
529.41	39281.21
529.58	38836.51
529.75	38574.37
529.92	39335.04
530.09	39122.05
530.26	38724.16
530.43	39218.02
530.60	39290.57
530.77	39091.63
530.94	39337.38
531.11	38941.83
531.28	39313.98
531.46	39594.84
531.63	39419.30
531.80	40006.78
531.97	39058.86
532.14	39508.24
532.31	38813.10
532.48	39459.09
532.65	39693.15
532.82	39917.84
532.99	40151.89
533.16	39735.27
533.33	39601.86
533.50	40215.08
533.67	39402.92
533.84	39915.50
534.01	39903.79
534.18	39643.99
534.35	40339.13
534.52	40531.06
534.69	40292.32
534.86	40825.96
535.03	40315.73
535.20	40800.22
535.37	41303.43
535.54	40978.10
535.71	40444.46
535.88	40968.74
536.05	40236.15
536.22	40538.08
536.38	40428.07
536.55	40933.63
536.72	40863.41
536.89	40488.93
537.06	40748.73
537.23	40910.22
537.40	40898.52
537.57	41467.27
537.74	41188.75
537.91	40964.06
538.08	41174.70
538.25	41249.60
538.42	40935.97
538.59	41734.09
538.75	40624.68
538.92	40907.88
539.09	41837.08
539.26	41144.28
539.43	41242.58
539.60	41528.13
539.77	41483.66
539.94	41434.50
540.11	41038.95
540.28	41324.50
540.44	41598.34
540.61	41364.29
540.78	41322.16
540.95	41727.07
541.12	41432.16
541.29	41883.89
541.46	42071.13
541.62	41757.50
541.79	41806.65
541.96	41869.84
542.13	41741.11
542.30	41923.68
542.47	41652.17
542.63	41916.65
542.80	42029.00
542.97	42286.46
543.14	42777.97
543.31	42703.07
543.48	42391.78
543.64	42934.79
543.81	42965.21
543.98	42789.67
544.15	42962.87
544.32	43246.08
544.48	43225.01
544.65	42976.92
544.82	42721.80
544.99	42728.82
545.16	43042.45
545.32	42651.58
545.49	43075.22
545.66	43503.54
545.83	43112.67
546.00	43405.23
546.16	43051.81
546.33	42976.92
546.50	43077.56
546.67	42768.61
546.83	42923.08
547.00	43232.04
547.17	42955.85
547.34	43250.76
547.50	42953.51
547.67	43316.29
547.84	43693.12
548.00	43075.22
548.17	43627.59
548.34	43936.54
548.51	43810.15
548.67	43643.97
548.84	43941.22
549.01	43768.02
549.18	44142.50
549.34	43569.07
549.51	43988.03
549.68	44123.78
549.84	43871.00
550.01	44318.04
550.18	43796.10
550.34	43927.17
550.51	43924.83
550.68	43927.17
550.84	43519.92
551.01	44545.08
551.18	43957.60
551.34	44250.17
551.51	44320.38
551.68	44203.36
551.84	44156.55
552.01	43983.35
552.18	44406.98
552.34	43943.56
552.51	44495.92
552.68	44219.74
552.84	44484.22
553.01	44589.55
553.18	44687.85
553.34	44212.72
553.51	44184.63
553.67	44463.16
553.84	44788.49
554.01	44676.15
554.17	44280.60
554.34	44903.18
554.51	44697.21
554.67	45537.46
554.84	44664.44
555.00	44423.37
555.17	44540.39
555.33	44673.81
555.50	44605.93
555.67	44477.20
555.83	44570.82
556.00	44924.24
556.16	45090.42
556.33	45059.99
556.50	44671.46
556.66	45296.39
556.83	44814.24
556.99	44996.80
557.16	45352.56
557.32	45148.93
557.49	45322.13
557.65	44882.11
557.82	45048.29
557.98	45352.56
558.15	44804.88
558.32	45399.37
558.48	45148.93
558.65	45125.53
558.81	44816.58
558.98	44978.07
559.14	44847.00
559.31	45013.18
559.47	45301.07
559.64	45848.75
559.80	45441.50
559.97	45530.44
560.13	44781.47
560.30	45212.13
560.46	45373.63
560.63	45268.30
560.79	45123.19
560.96	45720.02
561.12	45488.31
561.29	45237.87
561.45	45521.08
561.61	45174.68
561.78	45500.01
561.94	45024.89
562.11	45497.67
562.27	45631.08
562.44	45289.37
562.60	45886.20
562.77	45640.45
562.93	45368.94
563.10	45628.74
563.26	45291.71
563.42	45998.55
563.59	45457.88
563.75	45624.06
563.92	45804.28
564.08	45689.60
564.24	46024.29
564.41	45808.96
564.57	45647.47
564.74	45818.33
564.90	45830.03
565.07	45680.24
565.23	46028.98
565.39	45649.81
565.56	45640.45
565.72	45439.16
565.88	45722.37
566.05	45776.20
566.21	45488.31
566.38	45825.35
566.54	46230.26
566.70	45942.38
566.87	46227.92
567.03	45860.46
567.19	46148.34
567.36	45677.90
567.52	45691.94
567.68	45682.58
567.85	45724.71
568.01	45970.46
568.17	45787.90
568.34	46012.59
568.50	45937.69
568.66	45579.59
568.83	46010.25
568.99	45528.10
569.15	45841.73
569.32	45418.10
569.48	45565.55
569.64	46162.39
569.81	46218.56
569.97	46052.38
570.13	46335.59
570.30	45539.80
570.46	45184.04
570.62	45495.33
570.78	45734.07
570.95	45642.79
571.11	46061.74
571.27	45645.13
571.43	45876.84
571.60	45804.28
571.76	45729.39
571.92	46143.66
572.09	45904.93
572.25	46066.42
572.41	45961.10
572.57	45916.63
572.74	46965.19
572.90	46206.86
573.06	46302.82
573.22	45848.75
573.38	45769.18
573.55	46082.81
573.71	46396.44
573.87	46150.68
574.03	46174.09
574.20	45853.44
574.36	45862.80
574.52	46564.96
574.68	45888.54
574.84	46122.60
575.01	46253.67
575.17	46171.75
575.33	45914.29
575.49	45918.97
575.65	46085.15
575.82	46045.36
575.98	46288.77
576.14	46380.06
576.30	46356.65
576.46	46061.74
576.62	46005.57
576.79	46012.59
576.95	45844.07
577.11	45956.42
577.27	46457.29
577.43	46059.40
577.59	46017.27
577.75	46096.85
577.92	45624.06
578.08	45675.55
578.24	45961.10
578.40	45886.20
578.56	45918.97
578.72	46197.49
578.88	46445.59
579.04	45977.48
579.21	46059.40
579.37	45743.43
579.53	46225.58
579.69	45907.27
579.85	46494.74
580.01	46298.14
580.17	46190.47
580.33	46490.06
580.49	45874.50
580.65	46616.45
580.82	46188.13
580.98	46183.45
581.14	45745.77
581.30	46295.80
581.46	45998.55
581.62	46288.77
581.78	46260.69
581.94	46571.98
582.10	45982.16
582.26	46590.70
582.42	46356.65
582.58	46127.28
582.74	46120.26
582.90	46658.58
583.06	46487.72
583.22	46525.17
583.38	46471.34
583.54	46195.15
583.70	46394.10
583.86	46202.18
584.02	46127.28
584.18	46293.46
584.34	46302.82
584.50	46333.24
584.66	45764.49
584.82	45865.14
584.98	46330.90
585.14	46665.60
585.30	46036.00
585.46	46232.60
585.62	45869.82
585.78	46405.80
585.94	46017.27
586.10	46218.56
586.26	46003.23
586.42	46033.66
586.58	46499.42
586.74	46361.33
586.90	46174.09
587.06	46110.89
587.22	46272.39
587.38	45984.51
587.54	46326.22
587.70	46307.50
587.86	46391.76
588.02	46005.57
588.18	46546.23
588.34	46085.15
588.49	45867.48
588.65	45895.56
588.81	45467.25
588.97	45591.30
589.13	45715.34
589.29	46323.88
589.45	45989.19
589.61	46007.91
589.77	46555.60
589.93	45750.45
