SpectraSuite Data File
++++++++++++++++++++++++++++++++++++
Date: Fri Oct 25 10:44:23 EDT 2013
User: price-jones
Dark Spectrum Present: No
Reference Spectrum Present: No
Number of Sampled Component Spectra: 1
Spectrometers: USB2+H05261
Integration Time (usec): 100000 (USB2+H05261)
Spectra Averaged: 1 (USB2+H05261)
Boxcar Smoothing: 0 (USB2+H05261)
Correct for Electrical Dark: No (USB2+H05261)
Strobe/Lamp Enabled: No (USB2+H05261)
Correct for Detector Non-linearity: No (USB2+H05261)
Correct for Stray Light: No (USB2+H05261)
Number of Pixels in Processed Spectrum: 2048
>>>>>Begin Processed Spectral Data<<<<<
365.73	135.75
365.92	135.75
366.12	135.75
366.32	63.19
366.52	0.00
366.72	102.98
366.91	79.58
367.11	0.00
367.31	14.04
367.51	79.58
367.70	25.75
367.90	37.45
368.10	0.00
368.30	74.90
368.49	56.17
368.69	58.51
368.89	16.38
369.09	56.17
369.28	35.11
369.48	16.38
369.68	30.43
369.87	117.03
370.07	30.43
370.27	81.92
370.47	198.95
370.66	409.59
370.86	433.00
371.06	402.57
371.25	479.81
371.45	447.04
371.65	477.47
371.84	444.70
372.04	390.87
372.24	514.92
372.44	503.22
372.63	566.41
372.83	517.26
373.03	479.81
373.22	512.58
373.42	528.96
373.62	484.49
373.81	540.66
374.01	578.11
374.21	613.22
374.40	624.92
374.60	601.52
374.79	540.66
374.99	594.50
375.19	568.75
375.38	594.50
375.58	610.88
375.78	608.54
375.97	638.97
376.17	638.97
376.37	601.52
376.56	645.99
376.76	627.26
376.95	667.05
377.15	641.31
377.35	610.88
377.54	685.78
377.74	683.44
377.93	650.67
378.13	664.71
378.33	748.97
378.52	657.69
378.72	709.18
378.91	777.06
379.11	641.31
379.31	678.76
379.50	638.97
379.70	690.46
379.89	767.70
380.09	732.59
380.28	674.07
380.48	718.54
380.68	638.97
380.87	725.57
381.07	755.99
381.26	702.16
381.46	770.04
381.65	739.61
381.85	690.46
382.04	765.36
382.24	704.50
382.43	772.38
382.63	706.84
382.83	699.82
383.02	777.06
383.22	784.08
383.41	755.99
383.61	683.44
383.80	777.06
384.00	751.31
384.19	744.29
384.39	844.93
384.58	828.55
384.78	833.23
384.97	826.21
385.17	823.87
385.36	807.48
385.56	819.19
385.75	772.38
385.95	873.02
386.14	903.45
386.34	842.59
386.53	924.51
386.72	891.74
386.92	924.51
387.11	929.19
387.31	814.51
387.50	849.61
387.70	863.66
387.89	887.06
388.09	905.79
388.28	854.30
388.48	889.40
388.67	880.04
388.86	933.87
389.06	1062.60
389.25	1015.79
389.45	1032.18
389.64	971.32
389.84	1048.56
390.03	1100.05
390.22	1165.59
390.42	1025.15
390.61	1104.73
390.81	992.39
391.00	1177.29
391.19	1088.35
391.39	1067.28
391.58	1041.54
391.78	983.02
391.97	1076.65
392.16	1048.56
392.36	1109.41
392.55	1053.24
392.75	1048.56
392.94	987.71
393.13	1090.69
393.33	980.68
393.52	1069.62
393.71	1137.50
393.91	1221.76
394.10	1067.28
394.29	1121.12
394.49	1287.29
394.68	1277.93
394.88	1289.64
395.07	1277.93
395.26	1299.00
395.46	1219.42
395.65	1308.36
395.84	1259.21
396.04	1282.61
396.23	1163.25
396.42	1163.25
396.62	1177.29
396.81	1149.20
397.00	1231.12
397.19	1313.04
397.39	1392.62
397.58	1528.37
397.77	1418.36
397.97	1511.99
398.16	1521.35
398.35	1511.99
398.55	1586.88
398.74	1542.41
398.93	1572.84
399.12	1598.59
399.32	1528.37
399.51	1554.12
399.70	1647.74
399.90	1591.56
400.09	1647.74
400.28	1664.12
400.47	1687.53
400.67	1732.00
400.86	1757.74
401.05	1727.32
401.24	1762.42
401.44	1799.87
401.63	1832.64
401.82	1837.32
402.01	1727.32
402.21	1842.00
402.40	1916.90
402.59	1781.15
402.78	1856.04
402.97	1865.41
403.17	1886.47
403.36	1919.24
403.55	1825.62
403.74	1928.60
403.93	1959.03
404.13	1940.30
404.32	1919.24
404.51	1898.17
404.70	2017.54
404.89	1858.39
405.09	2040.95
405.28	1916.90
405.47	1975.41
405.66	2064.35
405.85	2080.74
406.05	2019.88
406.24	2026.90
406.43	2064.35
406.62	2026.90
406.81	2225.85
407.00	2101.80
407.20	2125.21
407.39	2186.06
407.58	2230.53
407.77	2305.43
407.96	2275.00
408.15	2272.66
408.34	2277.34
408.54	2370.96
408.73	2368.62
408.92	2476.29
409.11	2368.62
409.30	2403.73
409.49	2361.60
409.68	2377.98
409.87	2225.85
410.07	2448.20
410.26	2520.76
410.45	2544.16
410.64	2544.16
410.83	2495.01
411.02	2593.31
411.21	2581.61
411.40	2670.55
411.59	2672.89
411.78	2579.27
411.98	2691.62
412.17	2738.43
412.36	2724.38
412.55	2782.90
412.74	2860.13
412.93	2799.28
413.12	2736.09
413.31	2860.13
413.50	2932.69
413.69	3033.33
413.88	2942.05
414.07	3197.17
414.26	3082.49
414.45	3009.93
414.64	3040.36
414.83	3260.37
415.02	3133.98
415.22	3117.59
415.41	3222.92
415.60	3187.81
415.79	3213.56
415.98	3337.60
416.17	3321.22
416.36	3318.88
416.55	3339.94
416.74	3375.05
416.93	3309.52
417.12	3548.25
417.31	3379.73
417.50	3463.99
417.69	3442.93
417.88	3588.04
418.07	3508.46
418.26	3618.47
418.45	3578.68
418.64	3749.54
418.83	3667.62
419.02	3719.11
419.21	3779.97
419.39	3742.52
419.58	3686.34
419.77	3735.50
419.96	3770.60
420.15	3843.16
420.34	3716.77
420.53	3744.86
420.72	3857.20
420.91	4011.68
421.10	3847.84
421.29	4021.04
421.48	3829.12
421.67	3997.64
421.86	3974.23
422.05	3967.21
422.24	3892.31
422.43	3915.72
422.61	4046.79
422.80	4081.89
422.99	3885.29
423.18	3957.85
423.37	4037.42
423.56	4032.74
423.75	4060.83
423.94	4084.23
424.13	3826.78
424.32	3894.65
424.50	3974.23
424.69	4159.13
424.88	4028.06
425.07	3962.53
425.26	3971.89
425.45	3974.23
425.64	4145.09
425.83	3981.25
426.01	4224.67
426.20	4166.15
426.39	4070.19
426.58	3957.85
426.77	4049.13
426.96	4114.66
427.15	4168.49
427.33	4086.58
427.52	4227.01
427.71	4175.52
427.90	4280.84
428.09	4297.22
428.28	4201.26
428.46	4306.59
428.65	4297.22
428.84	4454.04
429.03	4257.43
429.22	4255.09
429.40	4351.06
429.59	4243.39
429.78	4004.66
429.97	4102.96
430.16	3936.78
430.34	4168.49
430.53	4159.13
430.72	4259.78
430.91	4416.59
431.10	4353.40
431.28	4603.83
431.47	4657.67
431.66	4889.38
431.85	4669.37
432.03	4706.82
432.22	4786.40
432.41	4741.93
432.60	4800.44
432.79	4807.46
432.97	4992.36
433.16	4753.63
433.35	4905.76
433.54	4919.81
433.72	4830.87
433.91	4823.84
434.10	4980.66
434.28	4861.29
434.47	5025.13
434.66	5095.35
434.85	5280.25
435.03	5001.72
435.22	5034.49
435.41	5261.52
435.59	5329.40
435.78	5207.69
435.97	5282.59
436.16	5247.48
436.34	5259.18
436.53	5336.42
436.72	5331.74
436.90	5179.61
437.09	5228.76
437.28	5317.70
437.46	5352.81
437.65	5383.23
437.84	5338.76
438.02	5364.51
438.21	5303.65
438.40	5322.38
438.58	5282.59
438.77	5636.01
438.96	5528.35
439.14	5750.70
439.33	5860.70
439.52	5748.36
439.70	5710.91
439.89	5877.09
440.08	6005.81
440.26	5771.76
440.45	6012.84
440.63	6038.58
440.82	6225.82
441.01	6108.80
441.19	6078.37
441.38	6274.98
441.57	6265.61
441.75	6274.98
441.94	6335.83
442.12	6511.37
442.31	6609.67
442.50	6532.44
442.68	6558.18
442.87	6424.77
443.05	6459.88
443.24	6562.86
443.43	6633.08
443.61	6754.79
443.80	6684.57
443.98	6773.51
444.17	6541.80
444.35	6752.45
444.54	6899.90
444.73	6766.49
444.91	6750.10
445.10	6539.46
445.28	6738.40
445.47	6518.39
445.65	6658.82
445.84	6574.56
446.02	6768.83
446.21	6658.82
446.39	6665.85
446.58	6871.81
446.77	6698.61
446.95	6906.92
447.14	6986.50
447.32	6972.46
447.51	6710.32
447.69	6813.30
447.88	6864.79
448.06	7014.59
448.25	6726.70
448.43	6916.28
448.62	6855.43
448.80	6878.83
448.99	7117.57
449.17	7152.68
449.36	6876.49
449.54	7323.54
449.73	7368.01
449.91	7295.45
450.10	7358.64
450.28	7431.20
450.46	7501.42
450.65	7405.46
450.83	7438.22
451.02	7445.24
451.20	7646.53
451.39	7588.02
451.57	7456.95
451.76	7304.81
451.94	7227.57
452.13	7431.20
452.31	7325.88
452.49	7438.22
452.68	7433.54
452.86	7349.28
453.05	7562.27
453.23	7470.99
453.42	7604.40
453.60	7744.83
453.78	7709.72
453.97	7653.55
454.15	7681.64
454.34	7536.52
454.52	7768.24
454.70	7726.11
454.89	7723.77
455.07	7805.69
455.26	7754.19
455.44	7943.78
455.62	7812.71
455.81	8042.08
455.99	8138.04
456.17	8032.72
456.36	8011.65
456.54	8259.75
456.73	8224.64
456.91	8439.97
457.09	8409.54
457.28	8397.84
457.46	8393.16
457.64	8311.24
457.83	8346.35
458.01	8112.30
458.19	8559.34
458.38	8315.92
458.56	8524.23
458.74	8484.44
458.93	8533.59
459.11	8667.00
459.29	8685.73
459.48	8643.60
459.66	8589.77
459.84	8559.34
460.03	8739.56
460.21	8912.76
460.39	8685.73
460.57	8741.90
460.76	8711.47
460.94	8954.89
461.12	8966.59
461.31	8791.05
461.49	8826.16
461.67	9057.87
461.85	9252.14
462.04	8999.36
462.22	9198.31
462.40	9100.00
462.59	9163.20
462.77	9004.04
462.95	9123.41
463.13	9144.47
463.32	9102.34
463.50	9238.09
463.68	9373.85
463.86	9179.58
464.05	9221.71
464.23	9172.56
464.41	9399.59
464.59	9062.55
464.78	9675.77
464.96	9584.49
465.14	9235.75
465.32	9518.96
465.50	9415.98
465.69	9685.14
465.87	9591.52
466.05	9511.94
466.23	9659.39
466.41	9572.79
466.60	9650.03
466.78	9385.55
466.96	9315.33
467.14	9430.02
467.32	9577.47
467.51	9764.72
467.69	9551.73
467.87	9678.12
468.05	9795.14
468.23	9872.38
468.41	9561.09
468.60	9626.62
468.78	9745.99
468.96	9757.69
469.14	9928.55
469.32	9989.41
469.50	9860.68
469.69	9942.60
469.87	10289.00
470.05	10122.82
470.23	10146.22
470.41	10026.86
470.59	10139.20
470.77	10253.89
470.95	9921.53
471.14	10471.56
471.32	10324.10
471.50	10600.29
471.68	10738.38
471.86	10773.49
472.04	10595.61
472.22	10829.66
472.40	10476.24
472.58	10635.39
472.77	10619.01
472.95	10747.74
473.13	11276.70
473.31	10864.77
473.49	10874.13
473.67	10897.53
473.85	11129.25
474.03	11232.23
474.21	11108.18
474.39	11597.35
474.57	11386.71
474.75	11389.05
474.93	11424.15
475.12	11522.46
475.30	11559.91
475.48	11559.91
475.66	11662.89
475.84	11637.14
476.02	11552.88
476.20	11662.89
476.38	11985.88
476.56	12339.30
476.74	11974.18
476.92	12184.83
477.10	11995.25
477.28	12381.43
477.46	12517.18
477.64	12526.55
477.82	12648.26
478.00	12936.14
478.18	12882.31
478.36	12856.56
478.54	13252.11
478.72	13240.41
478.90	13137.43
479.08	13266.16
479.26	13666.39
479.44	13626.60
479.62	13633.62
479.80	13722.56
479.98	13949.59
480.16	14366.21
480.34	13764.69
480.52	14125.13
480.70	14012.79
480.88	14134.50
481.06	14415.36
481.24	14120.45
481.41	14759.42
481.59	14949.00
481.77	14815.59
481.95	14761.76
482.13	15152.63
482.31	14787.50
482.49	15536.48
482.67	15435.83
482.85	15438.17
483.03	15749.46
483.21	15686.27
483.39	15777.55
483.57	15910.96
483.74	15936.71
483.92	16126.29
484.10	16002.24
484.28	16379.07
484.46	16407.16
484.64	16795.68
484.82	16533.54
485.00	16531.20
485.18	16512.48
485.35	16870.58
485.53	16542.91
485.71	16568.65
485.89	16769.94
486.07	16652.91
486.25	17076.55
486.43	17319.96
486.61	17254.43
486.78	17912.12
486.96	17832.54
487.14	18111.07
487.32	18043.19
487.50	18389.59
487.68	18611.94
487.85	18834.29
488.03	18820.25
488.21	19115.16
488.39	19150.26
488.57	19400.70
488.75	19417.08
488.92	19763.48
489.10	19644.12
489.28	20002.22
489.46	20086.48
489.64	20187.12
489.81	20861.19
489.99	20634.16
490.17	20587.35
490.35	20989.92
490.53	20924.39
490.70	21003.97
490.88	21109.29
491.06	21156.10
491.24	21102.27
491.41	21383.13
491.59	21282.49
491.77	21371.43
491.95	21729.53
492.13	21923.80
492.30	22452.76
492.48	22019.76
492.66	22249.13
492.84	22436.38
493.01	22537.02
493.19	22731.28
493.37	23101.09
493.54	23112.79
493.72	23131.51
493.90	22920.87
494.08	23227.48
494.25	23686.22
494.43	23344.50
494.61	23981.13
494.79	23960.06
494.96	23931.98
495.14	24313.48
495.32	24147.31
495.49	24381.36
495.67	24336.89
495.85	24844.79
496.02	25198.21
496.20	25099.90
496.38	24718.40
496.55	25296.51
496.73	25738.87
496.91	25741.21
497.09	25617.16
497.26	25996.33
497.44	25961.22
497.62	25792.70
497.79	25933.14
497.97	25682.70
498.14	25872.28
498.32	26120.38
498.50	26466.78
498.67	26574.44
498.85	26733.60
499.03	26799.13
499.20	26934.88
499.38	26808.50
499.56	27199.37
499.73	26984.04
499.91	27133.83
500.08	27431.08
500.26	26726.58
500.44	27311.71
500.61	27452.14
500.79	27197.02
500.97	27400.65
501.14	27931.95
501.32	27777.48
501.49	27330.44
501.67	27587.89
501.84	28250.27
502.02	27800.88
502.20	28521.77
502.37	28739.44
502.55	28493.68
502.72	28835.40
502.90	28692.63
503.07	28922.00
503.25	28804.97
503.43	28800.29
503.60	28823.70
503.78	28877.53
503.95	28945.41
504.13	29212.23
504.30	29109.24
504.48	29212.23
504.65	29666.29
504.83	29455.64
505.01	29886.30
505.18	29860.55
505.36	30068.86
505.53	30143.76
505.71	30237.38
505.88	30471.43
506.06	30253.76
506.23	30321.64
506.41	29998.65
506.58	30504.20
506.76	30579.10
506.93	30836.56
507.11	30745.28
507.28	30501.86
507.46	30529.95
507.63	30958.27
507.81	31110.40
507.98	30885.71
508.16	30979.33
508.33	31412.33
508.50	31075.29
508.68	31255.51
508.85	31826.60
509.03	31758.73
509.20	31885.12
509.38	32025.55
509.55	32018.53
509.73	32102.79
509.90	32053.64
510.08	31880.44
510.25	32091.09
510.42	32563.87
510.60	32570.90
510.77	32645.79
510.95	33055.39
511.12	32683.24
511.30	32861.12
511.47	32863.46
511.64	32961.76
511.82	33214.54
511.99	33317.53
512.17	32861.12
512.34	33172.41
512.51	33371.36
512.69	33455.62
512.86	33303.48
513.04	33670.95
513.21	33486.04
513.38	33530.51
513.56	33553.92
513.73	33116.24
513.90	33586.69
514.08	33935.43
514.25	33621.80
514.43	34164.80
514.60	33853.51
514.77	34291.19
514.95	34646.95
515.12	34146.08
515.29	34459.71
515.47	34506.52
515.64	35164.21
515.81	34464.39
515.99	34567.37
516.16	34059.48
516.33	34361.40
516.51	34328.64
516.68	33867.55
516.85	34237.36
517.03	34260.76
517.20	34565.03
517.37	35051.86
517.54	35126.76
517.72	35431.03
517.89	34335.66
518.06	35047.18
518.24	34639.93
518.41	35054.20
518.58	35086.97
518.75	35482.52
518.93	35323.36
519.10	35388.90
519.27	35833.60
519.45	36144.89
519.62	35644.02
519.79	36189.36
519.96	35999.78
520.14	36385.97
520.31	36311.07
520.48	36353.20
520.65	36187.02
520.83	36683.22
521.00	36842.37
521.17	36715.98
521.34	36680.88
521.52	36779.18
521.69	37282.39
521.86	37074.09
522.03	37350.27
522.20	37177.07
522.38	37188.77
522.55	37294.10
522.72	37076.43
522.89	36865.78
523.07	37731.78
523.24	37125.58
523.41	38124.99
523.58	37603.05
523.75	38087.54
523.92	38157.75
524.10	37846.46
524.27	38410.53
524.44	38436.28
524.61	38169.46
524.78	38230.31
524.96	38361.38
525.13	38356.70
525.30	38590.75
525.47	38529.90
525.64	38628.20
525.81	38869.28
525.98	38192.86
526.16	38422.23
526.33	38031.36
526.50	38436.28
526.67	38298.19
526.84	38258.40
527.01	38174.14
527.18	38635.22
527.36	39232.06
527.53	39147.80
527.70	39192.27
527.87	39409.94
528.04	39033.11
528.21	39594.84
528.38	39487.18
528.55	39723.57
528.72	39749.32
528.89	39777.40
529.07	39592.50
529.24	39229.72
529.41	39505.90
529.58	39562.08
529.75	39328.02
529.92	39880.39
530.09	40203.38
530.26	39880.39
530.43	40184.66
530.60	39964.65
530.77	40158.91
530.94	40397.65
531.11	40252.53
531.28	40247.85
531.46	40678.51
531.63	40425.73
531.80	40275.94
531.97	40016.14
532.14	40463.18
532.31	39807.83
532.48	40425.73
532.65	40360.20
532.82	40608.29
532.99	40720.64
533.16	40453.82
533.33	40952.35
533.50	40863.41
533.67	40823.62
533.84	40488.93
534.01	40790.86
534.18	41198.11
534.35	41024.91
534.52	40975.76
534.69	40987.46
534.86	41528.13
535.03	41179.39
535.20	41682.60
535.37	41579.62
535.54	42050.06
535.71	41490.68
535.88	41420.46
536.05	41958.78
536.22	41694.30
536.38	41581.96
536.55	41584.30
536.72	41399.40
536.89	41387.69
537.06	41422.80
537.23	41745.80
537.40	41659.20
537.57	41708.35
537.74	42237.31
537.91	41750.48
538.08	42398.80
538.25	42010.28
538.42	42239.65
538.59	42337.95
538.75	42033.68
538.92	42417.53
539.09	42312.20
539.26	42307.52
539.43	41904.95
539.60	42021.98
539.77	42181.13
539.94	42389.44
540.11	42134.32
540.28	42398.80
540.44	42216.24
540.61	42106.24
540.78	42061.77
540.95	42459.66
541.12	42169.43
541.29	42305.18
541.46	42557.96
541.62	42550.94
541.79	43356.08
541.96	42799.04
542.13	42312.20
542.30	42850.53
542.47	43058.84
542.63	42731.16
542.80	42995.64
542.97	43295.23
543.14	43442.68
543.31	43220.33
543.48	43117.35
543.64	43866.32
543.81	43304.59
543.98	43569.07
544.15	43145.44
544.32	43952.92
544.48	43971.64
544.65	44210.38
544.82	44051.22
544.99	43817.17
545.16	43938.88
545.32	43952.92
545.49	44013.77
545.66	44229.10
545.83	44076.97
546.00	44025.48
546.16	44175.27
546.33	44233.78
546.50	43440.34
546.67	43913.13
546.83	43878.02
547.00	44294.64
547.17	44081.65
547.34	43800.79
547.50	43789.08
547.67	44184.63
547.84	44205.70
548.00	44486.56
548.17	44896.16
548.34	44629.34
548.51	45179.36
548.67	44980.42
548.84	44589.55
549.01	44406.98
549.18	44315.70
549.34	44676.15
549.51	45045.95
549.68	44957.01
549.84	44858.71
550.01	44952.33
550.18	44786.15
550.34	44776.79
550.51	45078.72
550.68	44790.83
550.84	44708.91
551.01	44903.18
551.18	44917.22
551.34	45148.93
551.51	44921.90
551.68	45537.46
551.84	45074.04
552.01	45230.85
552.18	45221.49
552.34	44776.79
552.51	45010.84
552.68	45270.64
552.84	45769.18
553.01	45352.56
553.18	45478.95
553.34	45200.43
553.51	44811.90
553.67	45282.34
553.84	45811.31
554.01	45776.20
554.17	45771.52
554.34	45703.64
554.51	45591.30
554.67	45928.33
554.84	45523.42
555.00	45256.60
555.17	45745.77
555.33	45598.32
555.50	45432.14
555.67	45471.93
555.83	45586.61
556.00	45502.35
556.16	46012.59
556.33	45282.34
556.50	45595.98
556.66	45823.01
556.83	45368.94
556.99	46127.28
557.16	45593.64
557.32	45666.19
557.49	45984.51
557.65	45287.03
557.82	45577.25
557.98	46108.55
558.15	46129.62
558.32	45640.45
558.48	45537.46
558.65	45715.34
558.81	45567.89
558.98	46110.89
559.14	46012.59
559.31	45691.94
559.47	45666.19
559.64	46026.63
559.80	45799.60
559.97	45991.53
560.13	45619.38
560.30	45792.58
560.46	46078.13
560.63	46120.26
560.79	46326.22
560.96	46426.87
561.12	46483.04
561.29	45998.55
561.45	45897.91
561.61	46391.76
561.78	46028.98
561.94	46010.25
562.11	46122.60
562.27	46082.81
562.44	46286.43
562.60	46340.27
562.77	46660.92
562.93	46059.40
563.10	46298.14
563.26	46052.38
563.42	46459.63
563.59	46110.89
563.75	46436.23
563.92	46602.41
564.08	46454.95
564.24	46445.59
564.41	46281.75
564.57	46894.97
564.74	46209.20
564.90	46518.15
565.07	46471.34
565.23	46213.88
565.39	46059.40
565.56	46642.20
565.72	46143.66
565.88	46263.03
566.05	46422.19
566.21	46036.00
566.38	46174.09
566.54	46295.80
566.70	46841.14
566.87	47054.13
567.03	46466.66
567.19	47056.47
567.36	46557.94
567.52	46543.89
567.68	46555.60
567.85	46799.01
568.01	46646.88
568.17	46417.50
568.34	46562.62
568.50	46335.59
568.66	46679.64
568.83	46618.79
568.99	45823.01
569.15	46759.22
569.32	46483.04
569.48	46124.94
569.64	47199.24
569.81	46667.94
569.97	46267.71
570.13	46312.18
570.30	46401.12
570.46	46698.37
570.62	46199.83
570.78	45970.46
570.95	46663.26
571.11	46476.02
571.27	46422.19
571.43	46848.16
571.60	46443.25
571.76	46349.63
571.92	46674.96
572.09	46920.72
572.25	46831.78
572.41	46646.88
572.57	47028.38
572.74	46768.58
572.90	46616.45
573.06	47103.28
573.22	46962.85
573.38	46260.69
573.55	46639.86
573.71	46820.08
573.87	46361.33
574.03	46747.52
574.20	47082.22
574.36	46794.33
574.52	46944.12
574.68	46284.09
574.84	46714.75
575.01	46424.53
575.17	46946.47
575.33	46646.88
575.49	46431.55
575.65	46822.42
575.82	46871.57
575.98	46822.42
576.14	46983.91
576.30	46988.60
576.46	46333.24
576.62	46478.36
576.79	47189.88
576.95	46848.16
577.11	46742.84
577.27	46829.44
577.43	46808.37
577.59	46969.87
577.75	46902.00
577.92	46389.42
578.08	46391.76
578.24	46038.34
578.40	46300.48
578.56	46532.19
578.72	46773.27
578.88	47084.56
579.04	46920.72
579.21	46738.16
579.37	46913.70
579.53	46787.31
579.69	46862.21
579.85	46625.81
580.01	47271.80
580.17	46691.35
580.33	46698.37
580.49	46892.63
580.65	46899.65
580.82	46679.64
580.98	46852.84
581.14	46674.96
581.30	47222.65
581.46	47182.86
581.62	47100.94
581.78	46841.14
581.94	47171.16
582.10	47103.28
582.26	47360.74
582.42	46597.73
582.58	47161.79
582.74	46728.80
582.90	46944.12
583.06	47016.68
583.22	46862.21
583.38	47255.42
583.54	46742.84
583.70	46859.87
583.86	46721.77
584.02	46724.11
584.18	46934.76
584.34	47002.64
584.50	46506.44
584.66	46775.61
584.82	46948.81
584.98	46707.73
585.14	47253.08
585.30	46749.86
585.46	46691.35
585.62	46782.63
585.78	47147.75
585.94	46822.42
586.10	46820.08
586.26	46906.68
586.42	47093.92
586.58	46707.73
586.74	47229.67
586.90	46883.27
587.06	46714.75
587.22	46911.36
587.38	46670.28
587.54	46670.28
587.70	47171.16
587.86	47000.30
588.02	47002.64
588.18	46782.63
588.34	46590.70
588.49	46480.70
588.65	46234.94
588.81	46295.80
588.97	46885.61
589.13	46593.04
589.29	46712.41
589.45	46525.17
589.61	46635.17
589.77	47021.36
589.93	46773.27
