SpectraSuite Data File
++++++++++++++++++++++++++++++++++++
Date: Fri Oct 25 11:26:14 EDT 2013
User: price-jones
Dark Spectrum Present: No
Reference Spectrum Present: No
Number of Sampled Component Spectra: 1
Spectrometers: USB2+H05261
Integration Time (usec): 100000 (USB2+H05261)
Spectra Averaged: 1 (USB2+H05261)
Boxcar Smoothing: 0 (USB2+H05261)
Correct for Electrical Dark: No (USB2+H05261)
Strobe/Lamp Enabled: No (USB2+H05261)
Correct for Detector Non-linearity: No (USB2+H05261)
Correct for Stray Light: No (USB2+H05261)
Number of Pixels in Processed Spectrum: 2048
>>>>>Begin Processed Spectral Data<<<<<
365.73	290.23
365.92	290.23
366.12	290.23
366.32	205.97
366.52	102.98
366.72	180.22
366.91	156.82
367.11	191.92
367.31	107.66
367.51	72.56
367.70	105.32
367.90	147.45
368.10	170.86
368.30	166.18
368.49	156.82
368.69	182.56
368.89	217.67
369.09	110.01
369.28	205.97
369.48	180.22
369.68	243.42
369.87	236.39
370.07	231.71
370.27	245.76
370.47	362.78
370.66	634.29
370.86	692.80
371.06	699.82
371.25	653.01
371.45	617.90
371.65	751.31
371.84	695.14
372.04	702.16
372.24	697.48
372.44	716.20
372.63	685.78
372.83	706.84
373.03	737.27
373.22	774.72
373.42	751.31
373.62	760.67
373.81	723.23
374.01	777.06
374.21	828.55
374.40	823.87
374.60	863.66
374.79	847.27
374.99	821.53
375.19	821.53
375.38	828.55
375.58	746.63
375.78	908.13
375.97	816.85
376.17	952.60
376.37	847.27
376.56	842.59
376.76	844.93
376.95	800.46
377.15	968.98
377.35	887.06
377.54	931.53
377.74	889.40
377.93	870.68
378.13	866.00
378.33	950.26
378.52	924.51
378.72	922.17
378.91	954.94
379.11	924.51
379.31	966.64
379.50	945.58
379.70	994.73
379.89	1046.22
380.09	1025.15
380.28	1022.81
380.48	929.19
380.68	1048.56
380.87	1022.81
381.07	1067.28
381.26	1109.41
381.46	983.02
381.65	1104.73
381.85	1041.54
382.04	1022.81
382.24	973.66
382.43	1081.33
382.63	1039.20
382.83	1020.47
383.02	1071.97
383.22	1032.18
383.41	1109.41
383.61	1053.24
383.80	1095.37
384.00	1123.46
384.19	1088.35
384.39	1144.52
384.58	1132.82
384.78	1158.57
384.97	1167.93
385.17	1160.91
385.36	1200.69
385.56	1107.07
385.75	1142.18
385.95	1142.18
386.14	1196.01
386.34	1205.38
386.53	1210.06
386.72	1165.59
386.92	1296.66
387.11	1303.68
387.31	1219.42
387.50	1284.95
387.70	1205.38
387.89	1221.76
388.09	1336.45
388.28	1322.40
388.48	1273.25
388.67	1263.89
388.86	1219.42
389.06	1352.83
389.25	1277.93
389.45	1394.96
389.64	1383.26
389.84	1434.75
390.03	1362.19
390.22	1425.39
390.42	1369.21
390.61	1401.98
390.81	1413.68
391.00	1392.62
391.19	1476.88
391.39	1434.75
391.58	1416.02
391.78	1493.26
391.97	1469.86
392.16	1397.30
392.36	1455.81
392.55	1460.49
392.75	1563.48
392.94	1488.58
393.13	1521.35
393.33	1558.80
393.52	1497.94
393.71	1399.64
393.91	1497.94
394.10	1547.09
394.29	1598.59
394.49	1544.75
394.68	1685.19
394.88	1682.85
395.07	1664.12
395.26	1621.99
395.46	1682.85
395.65	1692.21
395.84	1631.35
396.04	1799.87
396.23	1666.46
396.42	1710.93
396.62	1717.95
396.81	1741.36
397.00	1713.27
397.19	1874.77
397.39	1846.68
397.58	1778.81
397.77	1825.62
397.97	1811.57
398.16	1692.21
398.35	1856.04
398.55	1790.51
398.74	1907.54
398.93	1902.86
399.12	1923.92
399.32	1827.96
399.51	1959.03
399.70	2033.93
399.90	1987.11
400.09	2012.86
400.28	2120.53
400.47	1975.41
400.67	2157.97
400.86	2094.78
401.05	2146.27
401.24	2132.23
401.44	2244.57
401.63	2094.78
401.82	2179.04
402.01	2015.20
402.21	2188.40
402.40	2073.71
402.59	2115.84
402.78	2146.27
402.97	2209.47
403.17	2146.27
403.36	2260.96
403.55	2279.68
403.74	2300.75
403.93	2370.96
404.13	2427.14
404.32	2317.13
404.51	2389.69
404.70	2469.27
404.89	2317.13
405.09	2452.88
405.28	2389.69
405.47	2427.14
405.66	2385.01
405.85	2485.65
406.05	2490.33
406.24	2572.25
406.43	2485.65
406.62	2586.29
406.81	2609.70
407.00	2560.55
407.20	2544.16
407.39	2637.78
407.58	2724.38
407.77	2806.30
407.96	2825.03
408.15	2768.85
408.34	2827.37
408.54	2925.67
408.73	2803.96
408.92	2668.21
409.11	2867.16
409.30	2855.45
409.49	2958.44
409.68	2932.69
409.87	2951.42
410.07	2970.14
410.26	2979.50
410.45	3040.36
410.64	3115.25
410.83	2979.50
411.02	3073.12
411.21	3038.02
411.40	3279.09
411.59	3197.17
411.78	3164.40
411.98	3136.32
412.17	3222.92
412.36	3152.70
412.55	3407.82
412.74	3365.69
412.93	3272.07
413.12	3349.31
413.31	3496.76
413.50	3513.14
413.69	3487.40
413.88	3592.72
414.07	3471.01
414.26	3581.02
414.45	3576.34
414.64	3548.25
414.83	3772.94
415.02	3765.92
415.22	3693.37
415.41	3768.26
415.60	3817.41
415.79	3817.41
415.98	3864.22
416.17	3824.44
416.36	4049.13
416.55	3815.07
416.74	4039.76
416.93	4014.02
417.12	4140.41
417.31	4231.69
417.50	4180.20
417.69	4332.33
417.88	4227.01
418.07	4257.43
418.26	4138.07
418.45	4194.24
418.64	4447.02
418.83	4318.29
419.02	4351.06
419.21	4606.17
419.39	4496.17
419.58	4465.74
419.77	4428.29
419.96	4449.36
420.15	4601.49
420.34	4585.11
420.53	4559.36
420.72	4772.35
420.91	4531.28
421.10	4805.12
421.29	4896.40
421.48	4725.54
421.67	4683.41
421.86	4683.41
422.05	4734.90
422.24	4786.40
422.43	4985.34
422.61	4833.21
422.80	5034.49
422.99	4873.00
423.18	4959.60
423.37	4912.78
423.56	4978.32
423.75	4865.97
423.94	4788.74
424.13	4524.26
424.32	4674.05
424.50	4828.53
424.69	5057.90
424.88	4985.34
425.07	4968.96
425.26	4903.42
425.45	4952.57
425.64	4812.14
425.83	4910.44
426.01	5102.37
426.20	5137.48
426.39	5011.09
426.58	5011.09
426.77	5071.94
426.96	4950.23
427.15	5118.75
427.33	5174.92
427.52	5273.23
427.71	5144.50
427.90	5135.14
428.09	5301.31
428.28	5322.38
428.46	5355.15
428.65	5369.19
428.84	5406.64
429.03	5441.75
429.22	5345.78
429.40	5261.52
429.59	5430.04
429.78	5203.01
429.97	5165.56
430.16	5408.98
430.34	5535.37
430.53	5640.69
430.72	5607.92
430.91	5582.18
431.10	5589.20
431.28	5607.92
431.47	5804.53
431.66	5738.99
431.85	5659.42
432.03	5734.31
432.22	5919.21
432.41	5830.27
432.60	5856.02
432.79	5856.02
432.97	5991.77
433.16	5989.43
433.35	5858.36
433.54	5966.03
433.72	6242.21
433.91	6125.18
434.10	6113.48
434.28	6113.48
434.47	6204.76
434.66	6104.12
434.85	6195.40
435.03	6347.53
435.22	6319.45
435.41	6511.37
435.59	6382.64
435.78	6335.83
435.97	6490.31
436.16	6286.68
436.34	6289.02
436.53	6450.52
436.72	6537.12
436.90	6413.07
437.09	6576.91
437.28	6352.21
437.46	6530.09
437.65	6707.98
437.84	6810.96
438.02	6733.72
438.21	6731.38
438.40	6640.10
438.58	7059.06
438.77	6953.73
438.96	6953.73
439.14	7012.24
439.33	7171.40
439.52	7267.36
439.70	7164.38
439.89	7248.64
440.08	7407.80
440.26	7248.64
440.45	7300.13
440.63	7365.67
440.82	7414.82
441.01	7478.01
441.19	7438.22
441.38	7531.84
441.57	7679.30
441.75	7691.00
441.94	7892.29
442.12	7892.29
442.31	7737.81
442.50	8018.68
442.68	7939.10
442.87	7852.50
443.05	8121.66
443.24	8060.80
443.43	7948.46
443.61	8229.32
443.80	8341.67
443.98	7850.16
444.17	7903.99
444.35	8140.38
444.54	8287.84
444.73	8124.00
444.91	8205.92
445.10	8418.91
445.28	8294.86
445.47	8159.11
445.65	8409.54
445.84	8358.05
446.02	8369.76
446.21	8299.54
446.39	8421.25
446.58	8411.89
446.77	8423.59
446.95	8201.24
447.14	8444.65
447.32	8578.06
447.51	8421.25
447.69	8456.36
447.88	8339.33
448.06	8409.54
448.25	8446.99
448.43	8491.46
448.62	8451.67
448.80	8484.44
448.99	8547.64
449.17	8695.09
449.36	8613.17
449.54	8683.39
449.73	9123.41
449.91	8933.82
450.10	8889.35
450.28	9186.60
450.46	8938.51
450.65	8748.92
450.83	8879.99
451.02	9027.45
451.20	9011.06
451.39	8936.17
451.57	9132.77
451.76	9081.28
451.94	9130.43
452.13	9088.30
452.31	9121.07
452.49	9135.11
452.68	9385.55
452.86	9202.99
453.05	9324.69
453.23	9453.42
453.42	9254.48
453.60	9554.07
453.78	9371.50
453.97	9268.52
454.15	9317.67
454.34	9397.25
454.52	9472.15
454.70	9577.47
454.89	9687.48
455.07	9708.54
455.26	9753.01
455.44	9856.00
455.62	9755.35
455.81	9713.22
455.99	9991.75
456.17	9907.49
456.36	9844.29
456.54	10054.94
456.73	10214.10
456.91	10319.42
457.09	10532.41
457.28	10422.41
457.46	10176.65
457.64	10384.96
457.83	10534.75
458.01	10190.69
458.19	10707.95
458.38	10427.09
458.56	10726.68
458.74	10525.39
458.93	10576.88
459.11	10644.76
459.29	10588.58
459.48	10764.12
459.66	10820.30
459.84	10752.42
460.03	10967.75
460.21	10846.04
460.39	10759.44
460.57	11091.80
460.76	11021.58
460.94	11171.38
461.12	11110.52
461.31	11185.42
461.49	11061.37
461.67	11147.97
461.85	11239.25
462.04	11225.21
462.22	11798.64
462.40	11419.47
462.59	11515.44
462.77	11480.33
462.95	11613.74
463.13	11506.07
463.32	11576.29
463.50	11595.01
463.68	11564.59
463.86	11765.87
464.05	11639.48
464.23	11960.14
464.41	11793.96
464.59	11538.84
464.78	12006.95
464.96	12016.31
465.14	11843.11
465.32	11845.45
465.50	12198.87
465.69	12266.75
465.87	12086.53
466.05	12184.83
466.23	12217.60
466.41	12154.40
466.60	12491.44
466.78	12037.38
466.96	11999.93
467.14	12297.17
467.32	12175.47
467.51	12430.59
467.69	11992.90
467.87	12482.08
468.05	12409.52
468.23	12498.46
468.41	12559.31
468.60	12299.52
468.78	12746.56
468.96	12498.46
469.14	12615.49
469.32	12842.52
469.50	12617.83
469.69	12842.52
469.87	12973.59
470.05	12994.65
470.23	13198.28
470.41	13064.87
470.59	13287.22
470.77	12952.52
470.95	13238.07
471.14	13266.16
471.32	13135.09
471.50	13717.88
471.68	13439.36
471.86	13488.51
472.04	13687.45
472.22	13734.26
472.40	13617.24
472.58	13802.14
472.77	13731.92
472.95	14169.60
473.13	14457.49
473.31	13980.02
473.49	14228.12
473.67	14005.77
473.85	14195.35
474.03	14707.93
474.21	14537.07
474.39	14771.12
474.57	14623.67
474.75	14743.03
474.93	15005.17
475.12	14665.80
475.30	14967.73
475.48	15094.11
475.66	14998.15
475.84	15037.94
476.02	15356.25
476.20	15391.36
476.38	15428.81
476.56	15623.08
476.74	16049.05
476.92	16074.80
477.10	15686.27
477.28	15864.15
477.46	15864.15
477.64	15967.13
477.82	16339.28
478.00	16973.56
478.18	16575.67
478.36	16833.13
478.54	16924.41
478.72	16896.33
478.90	17036.76
479.08	17303.58
479.26	17570.40
479.44	17490.82
479.62	17970.63
479.80	17731.90
479.98	18090.00
480.16	18689.18
480.34	18134.47
480.52	18728.97
480.70	18796.84
480.88	18279.58
481.06	18721.95
481.24	18735.99
481.41	19040.26
481.59	19197.07
481.77	19218.14
481.95	19403.04
482.13	19468.58
482.31	19351.55
482.49	19695.61
482.67	20105.20
482.85	20350.96
483.03	20744.17
483.21	20699.70
483.39	20793.32
483.57	20730.12
483.74	20893.96
483.92	21018.01
484.10	21053.12
484.28	21528.25
484.46	21741.24
484.64	22588.51
484.82	22136.79
485.00	21996.35
485.18	22731.28
485.35	22855.33
485.53	22459.78
485.71	22579.15
485.89	23241.52
486.07	23054.28
486.25	23342.16
486.43	23417.06
486.61	23573.88
486.78	23833.68
486.96	24020.92
487.14	24404.77
487.32	24414.13
487.50	24858.83
487.68	24812.02
487.85	25226.29
488.03	25324.60
488.21	25860.58
488.39	25441.62
488.57	25837.17
488.75	26146.12
488.92	26246.77
489.10	26483.16
489.28	26607.21
489.46	26759.34
489.64	26995.74
489.81	27281.28
489.99	27964.72
490.17	27630.02
490.35	27831.31
490.53	28034.94
490.70	28341.55
490.88	28107.49
491.06	28500.70
491.24	28765.18
491.41	29069.45
491.59	29247.33
491.77	29214.57
491.95	29518.84
492.13	29467.34
492.30	29425.22
492.48	29296.49
492.66	30022.05
492.84	30103.97
493.01	30822.51
493.19	30665.70
493.37	30733.57
493.54	30995.71
493.72	31349.14
493.90	31335.09
494.08	31473.18
494.25	31913.20
494.43	31613.62
494.61	31992.78
494.79	32411.74
494.96	32343.86
495.14	32060.66
495.32	32842.40
495.49	32973.47
495.67	33149.01
495.85	33556.26
496.02	33560.94
496.20	33830.10
496.38	33549.24
496.55	33556.26
496.73	34876.32
496.91	34092.24
497.09	34677.38
497.26	35021.44
497.44	34675.04
497.62	34991.01
497.79	35959.99
497.97	35339.75
498.14	35648.70
498.32	36343.84
498.50	35739.98
498.67	36369.58
498.85	36051.27
499.03	36596.62
499.20	36428.10
499.38	36247.88
499.56	36847.05
499.73	36945.36
499.91	36706.62
500.08	37528.15
500.26	37132.60
500.44	37205.16
500.61	37652.20
500.79	37792.63
500.97	37993.92
501.14	38157.75
501.32	38218.61
501.49	38171.80
501.67	38581.39
501.84	38869.28
502.02	38806.08
502.20	38923.11
502.37	38515.86
502.55	38562.67
502.72	39440.37
502.90	38937.15
503.07	39426.32
503.25	39475.48
503.43	39353.77
503.60	40128.48
503.78	39580.80
503.95	40048.91
504.13	40411.69
504.30	40659.79
504.48	40226.79
504.65	40587.23
504.83	40903.20
505.01	41106.83
505.18	40870.43
505.36	41296.41
505.53	40928.95
505.71	41148.96
505.88	41394.71
506.06	41045.97
506.23	41790.27
506.41	41722.39
506.58	41881.55
506.76	42000.91
506.93	42209.22
507.11	42117.94
507.28	42272.42
507.46	42405.83
507.63	42302.84
507.81	42660.94
507.98	42696.05
508.16	43012.02
508.33	43433.32
508.50	43250.76
508.68	43173.52
508.85	43866.32
509.03	43540.99
509.20	43847.60
509.38	44177.61
509.55	43882.70
509.73	44093.35
509.90	44266.55
510.08	44306.34
510.25	44212.72
510.42	44465.50
510.60	44645.72
510.77	44875.09
510.95	45272.98
511.12	44996.80
511.30	44739.34
511.47	45160.64
511.64	45294.05
511.82	45165.32
511.99	45160.64
512.17	45703.64
512.34	45619.38
512.51	46003.23
512.69	46230.26
512.86	45867.48
513.04	46705.39
513.21	46204.52
513.38	46513.47
513.56	46426.87
513.73	46689.01
513.90	46766.24
514.08	46670.28
514.25	47009.66
514.43	47203.92
514.60	47178.18
514.77	46974.55
514.95	47543.30
515.12	47290.52
515.29	47299.89
515.47	47660.33
515.64	48006.73
515.81	47716.50
515.99	47929.49
516.16	48404.62
516.33	48381.21
516.51	48430.36
516.68	47908.43
516.85	48486.54
517.03	48615.27
517.20	48776.76
517.37	48685.48
517.54	48849.32
517.72	48521.65
517.89	48636.33
518.06	49123.16
518.24	49312.75
518.41	49378.28
518.58	49343.17
518.75	48774.42
518.93	49160.61
519.10	49366.58
519.27	49378.28
519.45	49970.44
519.62	49490.63
519.79	49822.98
519.96	49766.81
520.14	49867.45
520.31	50113.21
520.48	50047.68
520.65	50000.86
520.83	50478.33
521.00	50499.40
521.17	50178.75
521.34	50536.85
521.52	50705.37
521.69	50340.24
521.86	50473.65
522.03	50934.74
522.20	51051.76
522.38	51349.01
522.55	50717.07
522.72	51206.24
522.89	51374.76
523.07	51449.66
523.24	51175.81
523.41	51360.72
523.58	50960.48
523.75	51746.90
523.92	51700.09
524.10	51849.89
524.27	51842.87
524.44	51770.31
524.61	51976.28
524.78	52037.13
524.96	52037.13
525.13	51849.89
525.30	52163.52
525.47	52385.87
525.64	52128.41
525.81	52308.63
525.98	52076.92
526.16	52596.52
526.33	52240.76
526.50	52472.47
526.67	52545.03
526.84	52701.84
527.01	52465.45
527.18	52598.86
527.36	52748.65
527.53	52758.02
527.70	53148.88
527.87	53111.44
528.04	52926.53
528.21	53116.12
528.38	53057.60
528.55	53235.48
528.72	52931.22
528.89	53329.11
529.07	53254.21
529.24	53116.12
529.41	53523.37
529.58	53441.45
529.75	53591.25
529.92	53469.54
530.09	53504.65
530.26	53804.24
530.43	53790.19
530.60	53661.46
530.77	53567.84
530.94	53804.24
531.11	53993.82
531.28	53837.00
531.46	54129.57
531.63	54136.59
531.80	53958.71
531.97	54443.20
532.14	54260.64
532.31	54003.18
532.48	54499.37
532.65	54279.36
532.82	54321.49
532.99	54653.85
533.16	54316.81
533.33	54698.32
533.50	54712.36
533.67	54827.05
533.84	54426.82
534.01	54822.37
534.18	54782.58
534.35	55058.76
534.52	54770.88
534.69	54915.99
534.86	54948.76
535.03	54920.67
535.20	55014.29
535.37	55213.24
535.54	55339.63
535.71	55098.55
535.88	55386.44
536.05	55515.17
536.22	55234.30
536.38	55288.13
536.55	55330.26
536.72	55421.55
536.89	55213.24
537.06	55402.82
537.23	55470.70
537.40	55243.66
537.57	55529.21
537.74	55468.36
537.91	55557.30
538.08	56048.81
538.25	55791.35
538.42	55580.70
538.59	55962.21
538.75	55487.08
538.92	55938.80
539.09	56097.96
539.26	56009.02
539.43	55845.18
539.60	55828.80
539.77	56147.11
539.94	56399.89
540.11	55959.87
540.28	56334.35
540.44	56296.91
540.61	56102.64
540.78	56292.22
540.95	56193.92
541.12	56322.65
541.29	56179.88
541.46	56332.01
541.62	56327.33
541.79	56453.72
541.96	56198.60
542.13	56502.87
542.30	56533.30
542.47	56896.08
542.63	56580.11
542.80	56755.65
542.97	56975.66
543.14	57141.84
543.31	56882.04
543.48	57043.54
543.64	57340.78
543.81	57305.68
543.98	57118.43
544.15	57205.03
544.32	57308.02
544.48	57408.66
544.65	57265.89
544.82	57303.34
544.99	57071.62
545.16	57453.13
545.32	57361.85
545.49	57528.03
545.66	57722.29
545.83	57467.17
546.00	57565.48
546.16	57581.86
546.33	57528.03
546.50	57333.76
546.67	57577.18
546.83	57467.17
547.00	57567.82
547.17	57563.14
547.34	57506.96
547.50	57872.09
547.67	57911.88
547.84	57790.17
548.00	58017.20
548.17	58106.14
548.34	57766.76
548.51	58000.82
548.67	58047.63
548.84	58042.95
549.01	57928.26
549.18	57965.71
549.34	58005.50
549.51	58061.67
549.68	58253.59
549.84	58206.78
550.01	58300.40
550.18	58056.99
550.34	58323.81
550.51	58157.63
550.68	58323.81
550.84	57872.09
551.01	58412.75
551.18	58330.83
551.34	58382.32
551.51	58321.47
551.68	58595.31
551.84	58316.79
552.01	58468.92
552.18	58473.60
552.34	58581.27
552.51	58564.88
552.68	58377.64
552.84	58387.00
553.01	58812.98
553.18	58475.94
553.34	58700.64
553.51	58770.85
553.67	58609.35
553.84	58883.20
554.01	58768.51
554.17	58639.78
554.34	58871.49
554.51	58754.47
554.67	58766.17
554.84	58731.06
555.00	58869.15
555.17	58695.95
555.33	58880.86
555.50	58525.10
555.67	58719.36
555.83	58883.20
556.00	58915.96
556.16	59117.25
556.33	59009.59
556.50	58972.14
556.66	59044.69
556.83	58951.07
556.99	59245.98
557.16	59358.33
557.32	59208.53
557.49	59435.56
557.65	59100.87
557.82	59231.94
557.98	59367.69
558.15	59306.83
558.32	59423.86
558.48	59213.21
558.65	59360.67
558.81	59194.49
558.98	59583.02
559.14	59302.15
559.31	59276.41
559.47	59456.63
559.64	59449.61
559.80	59360.67
559.97	59611.10
560.13	59531.53
560.30	59384.07
560.46	59648.55
560.63	59465.99
560.79	59594.72
560.96	59573.66
561.12	59615.79
561.29	59536.21
561.45	59704.73
561.61	59711.75
561.78	59697.70
561.94	59622.81
562.11	59664.94
562.27	59683.66
562.44	59863.88
562.60	60165.81
562.77	59877.93
562.93	59894.31
563.10	60116.66
563.26	59866.22
563.42	59969.21
563.59	59875.58
563.75	59980.91
563.92	59774.94
564.08	59533.87
564.24	59882.61
564.41	59891.97
564.57	59929.42
564.74	59990.27
564.90	59980.91
565.07	59882.61
565.23	60023.04
565.39	59861.54
565.56	59973.89
565.72	60004.31
565.88	60009.00
566.05	59927.08
566.21	59835.80
566.38	59973.89
566.54	60186.88
566.70	60189.22
566.87	60275.82
567.03	59943.46
567.19	60374.12
567.36	60294.54
567.52	60158.79
567.68	60189.22
567.85	60107.30
568.01	60369.44
568.17	60104.96
568.34	60364.76
568.50	60004.31
568.66	60233.69
568.83	60231.35
568.99	59894.31
569.15	60437.31
569.32	60151.77
569.48	60168.15
569.64	60331.99
569.81	60317.95
569.97	60179.85
570.13	60250.07
570.30	60140.07
570.46	60327.31
570.62	60294.54
570.78	60406.89
570.95	60362.42
571.11	60418.59
571.27	60172.83
571.43	60413.91
571.60	60456.04
571.76	60390.50
571.92	60399.86
572.09	60449.02
572.25	60493.49
572.41	60374.12
572.57	60465.40
572.74	60694.77
572.90	60493.49
573.06	60484.12
573.22	60470.08
573.38	60481.78
573.55	60350.71
573.71	60783.71
573.87	60601.15
574.03	60353.05
574.20	60472.42
574.36	60320.29
574.52	60519.23
574.68	60488.80
574.84	60507.53
575.01	60647.96
575.17	60626.90
575.33	60397.52
575.49	60301.56
575.65	60528.59
575.82	60680.73
575.98	60540.30
576.14	60823.50
576.30	60547.32
576.46	60666.69
576.62	60629.24
576.79	60587.11
576.95	60622.22
577.11	60629.24
577.27	60683.07
577.43	60509.87
577.59	60631.58
577.75	60537.96
577.92	60395.18
578.08	60537.96
578.24	60610.51
578.40	60762.65
578.56	60690.09
578.72	60729.88
578.88	61048.19
579.04	60760.31
579.21	60781.37
579.37	60743.92
579.53	60825.84
579.69	60437.31
579.85	60650.30
580.01	60837.54
580.17	60566.04
580.33	60779.03
580.49	60882.02
580.65	60769.67
580.82	60774.35
580.98	60697.11
581.14	60699.45
581.30	60863.29
581.46	60718.18
581.62	61017.77
581.78	60610.51
581.94	60891.38
582.10	60685.41
582.26	60708.82
582.42	60420.93
582.58	60999.04
582.74	60678.39
582.90	60769.67
583.06	60715.84
583.22	60692.43
583.38	60795.42
583.54	60910.10
583.70	60835.20
583.86	60942.87
584.02	60657.32
584.18	61015.43
584.34	60790.73
584.50	60853.93
584.66	60608.17
584.82	60692.43
584.98	61034.15
585.14	60914.78
585.30	60779.03
585.46	60949.89
585.62	60818.82
585.78	61001.38
585.94	60640.94
586.10	60816.48
586.26	60879.67
586.42	60931.17
586.58	60872.65
586.74	61137.13
586.90	60870.31
587.06	60882.02
587.22	60968.61
587.38	60823.50
587.54	60942.87
587.70	61181.60
587.86	60891.38
588.02	60982.66
588.18	60898.40
588.34	60924.14
588.49	60750.94
