SpectraSuite Data File
++++++++++++++++++++++++++++++++++++
Date: Fri Oct 25 11:26:38 EDT 2013
User: price-jones
Dark Spectrum Present: No
Reference Spectrum Present: No
Number of Sampled Component Spectra: 1
Spectrometers: USB2+H05261
Integration Time (usec): 100000 (USB2+H05261)
Spectra Averaged: 1 (USB2+H05261)
Boxcar Smoothing: 0 (USB2+H05261)
Correct for Electrical Dark: No (USB2+H05261)
Strobe/Lamp Enabled: No (USB2+H05261)
Correct for Detector Non-linearity: No (USB2+H05261)
Correct for Stray Light: No (USB2+H05261)
Number of Pixels in Processed Spectrum: 2048
>>>>>Begin Processed Spectral Data<<<<<
365.73	248.10
365.92	248.10
366.12	248.10
366.32	227.03
366.52	81.92
366.72	189.58
366.91	133.41
367.11	156.82
367.31	152.13
367.51	149.79
367.70	86.60
367.90	112.35
368.10	105.32
368.30	182.56
368.49	133.41
368.69	128.73
368.89	145.11
369.09	154.48
369.28	128.73
369.48	117.03
369.68	238.73
369.87	241.08
370.07	196.60
370.27	245.76
370.47	301.93
370.66	582.79
370.86	648.33
371.06	655.35
371.25	706.84
371.45	664.71
371.65	723.23
371.84	669.39
372.04	671.73
372.24	746.63
372.44	704.50
372.63	835.57
372.83	777.06
373.03	802.80
373.22	718.54
373.42	781.74
373.62	816.85
373.81	798.12
374.01	777.06
374.21	847.27
374.40	854.30
374.60	840.25
374.79	814.51
374.99	861.32
375.19	866.00
375.38	840.25
375.58	798.12
375.78	833.23
375.97	786.42
376.17	898.77
376.37	805.14
376.56	856.64
376.76	849.61
376.95	844.93
377.15	894.08
377.35	919.83
377.54	851.96
377.74	882.38
377.93	945.58
378.13	957.28
378.33	957.28
378.52	910.47
378.72	976.00
378.91	1034.52
379.11	938.55
379.31	933.87
379.50	896.43
379.70	959.62
379.89	1006.43
380.09	959.62
380.28	961.96
380.48	1013.45
380.68	983.02
380.87	1039.20
381.07	997.07
381.26	1062.60
381.46	1015.79
381.65	959.62
381.85	1025.15
382.04	994.73
382.24	1097.71
382.43	1069.62
382.63	1060.26
382.83	1039.20
383.02	1046.22
383.22	1109.41
383.41	1013.45
383.61	1109.41
383.80	1188.99
384.00	1128.14
384.19	1055.58
384.39	1036.86
384.58	1160.91
384.78	1172.61
384.97	1128.14
385.17	1135.16
385.36	1050.90
385.56	1219.42
385.75	1252.19
385.95	1221.76
386.14	1109.41
386.34	1149.20
386.53	1315.38
386.72	1188.99
386.92	1233.46
387.11	1247.51
387.31	1245.16
387.50	1252.19
387.70	1273.25
387.89	1289.64
388.09	1273.25
388.28	1343.47
388.48	1284.95
388.67	1306.02
388.86	1343.47
389.06	1294.32
389.25	1369.21
389.45	1383.26
389.64	1387.94
389.84	1500.28
390.03	1350.49
390.22	1369.21
390.42	1362.19
390.61	1397.30
390.81	1416.02
391.00	1343.47
391.19	1434.75
391.39	1425.39
391.58	1502.62
391.78	1401.98
391.97	1465.18
392.16	1406.66
392.36	1502.62
392.55	1530.71
392.75	1530.71
392.94	1514.33
393.13	1526.03
393.33	1514.33
393.52	1469.86
393.71	1549.43
393.91	1598.59
394.10	1659.44
394.29	1607.95
394.49	1523.69
394.68	1638.38
394.88	1547.09
395.07	1762.42
395.26	1762.42
395.46	1673.48
395.65	1732.00
395.84	1680.50
396.04	1727.32
396.23	1795.19
396.42	1750.72
396.62	1790.51
396.81	1685.19
397.00	1839.66
397.19	1778.81
397.39	1713.27
397.58	1750.72
397.77	1856.04
397.97	1813.92
398.16	1888.81
398.35	1973.07
398.55	1856.04
398.74	1802.21
398.93	1970.73
399.12	2064.35
399.32	1984.77
399.51	2012.86
399.70	1961.37
399.90	1994.14
400.09	1994.14
400.28	2073.71
400.47	2047.97
400.67	2047.97
400.86	2052.65
401.05	2047.97
401.24	2076.06
401.44	2059.67
401.63	2172.02
401.82	2134.57
402.01	2118.18
402.21	2162.66
402.40	2148.61
402.59	2188.40
402.78	2296.07
402.97	2286.70
403.17	2209.47
403.36	2235.21
403.55	2303.09
403.74	2249.25
403.93	2342.88
404.13	2335.85
404.32	2464.58
404.51	2263.30
404.70	2359.26
404.89	2431.82
405.09	2534.80
405.28	2396.71
405.47	2436.50
405.66	2583.95
405.85	2471.61
406.05	2452.88
406.24	2523.10
406.43	2614.38
406.62	2614.38
406.81	2619.06
407.00	2541.82
407.20	2537.14
407.39	2633.10
407.58	2642.46
407.77	2752.47
407.96	2789.92
408.15	2731.41
408.34	2747.79
408.54	2719.70
408.73	2726.72
408.92	2827.37
409.11	2913.97
409.30	2888.22
409.49	2829.71
409.68	2932.69
409.87	2984.18
410.07	3143.34
410.26	3117.59
410.45	2911.63
410.64	3030.99
410.83	3014.61
411.02	3173.77
411.21	3166.74
411.40	3129.30
411.59	3232.28
411.78	3164.40
411.98	3117.59
412.17	3185.47
412.36	3309.52
412.55	3468.67
412.74	3361.01
412.93	3386.76
413.12	3405.48
413.31	3569.32
413.50	3538.89
413.69	3449.95
413.88	3660.60
414.07	3714.43
414.26	3428.88
414.45	3765.92
414.64	3665.28
414.83	3730.81
415.02	3796.35
415.22	3765.92
415.41	4056.15
415.60	3836.14
415.79	3896.99
415.98	3904.01
416.17	3850.18
416.36	4014.02
416.55	4014.02
416.74	4093.60
416.93	4042.11
417.12	4056.15
417.31	4187.22
417.50	4170.83
417.69	4255.09
417.88	4243.39
418.07	4390.84
418.26	4250.41
418.45	4390.84
418.64	4528.94
418.83	4454.04
419.02	4383.82
419.21	4430.63
419.39	4493.83
419.58	4344.03
419.77	4470.42
419.96	4575.75
420.15	4547.66
420.34	4524.26
420.53	4411.91
420.72	4697.46
420.91	4844.91
421.10	4704.48
421.29	4833.21
421.48	4793.42
421.67	4711.50
421.86	4849.59
422.05	4875.34
422.24	4709.16
422.43	4929.17
422.61	4840.23
422.80	4992.36
422.99	4954.91
423.18	4919.81
423.37	4924.49
423.56	5029.81
423.75	4821.50
423.94	4854.27
424.13	4610.86
424.32	4800.44
424.50	4931.51
424.69	5156.20
424.88	5102.37
425.07	5071.94
425.26	5053.22
425.45	5043.85
425.64	4870.65
425.83	4894.06
426.01	5046.20
426.20	5057.90
426.39	5093.01
426.58	5163.22
426.77	5027.47
426.96	5146.84
427.15	5097.69
427.33	5095.35
427.52	5172.58
427.71	5294.29
427.90	5240.46
428.09	5408.98
428.28	5329.40
428.46	5397.28
428.65	5294.29
428.84	5523.66
429.03	5575.16
429.22	5392.59
429.40	5558.77
429.59	5352.81
429.78	5303.65
429.97	5322.38
430.16	5568.13
430.34	5713.25
430.53	5561.11
430.72	5645.37
430.91	5565.79
431.10	5530.69
431.28	5776.44
431.47	5975.39
431.66	5916.87
431.85	5696.86
432.03	5841.98
432.22	5949.64
432.41	6078.37
432.60	5841.98
432.79	5832.62
432.97	5811.55
433.16	5961.34
433.35	5982.41
433.54	6003.47
433.72	6132.20
433.91	6052.63
434.10	6120.50
434.28	6099.44
434.47	6249.23
434.66	6305.40
434.85	6239.87
435.03	6312.42
435.22	6253.91
435.41	6689.25
435.59	6462.22
435.78	6431.79
435.97	6445.84
436.16	6527.75
436.34	6555.84
436.53	6544.14
436.72	6808.62
436.90	6340.51
437.09	6658.82
437.28	6588.61
437.46	6647.12
437.65	6808.62
437.84	6839.05
438.02	6698.61
438.21	6743.08
438.40	6738.40
438.58	7089.48
438.77	7171.40
438.96	6949.05
439.14	6918.62
439.33	7108.21
439.52	7082.46
439.70	7164.38
439.89	7328.22
440.08	7501.42
440.26	7454.61
440.45	7307.15
440.63	7599.72
440.82	7840.79
441.01	7456.95
441.19	7754.19
441.38	7728.45
441.57	7538.87
441.75	7925.05
441.94	7948.46
442.12	7873.56
442.31	7974.21
442.50	7992.93
442.68	7918.03
442.87	8168.47
443.05	8002.29
443.24	8177.83
443.43	8257.41
443.61	8236.35
443.80	8479.76
443.98	8049.10
444.17	7941.44
444.35	8135.70
444.54	8442.31
444.73	8388.48
444.91	8388.48
445.10	8315.92
445.28	8116.98
445.47	8404.86
445.65	8336.99
445.84	8456.36
446.02	8547.64
446.21	8507.85
446.39	8400.18
446.58	8444.65
446.77	8638.92
446.95	8318.26
447.14	8388.48
447.32	8709.13
447.51	8500.83
447.69	8489.12
447.88	8395.50
448.06	8566.36
448.25	8482.10
448.43	8734.88
448.62	8505.51
448.80	8615.51
448.99	8826.16
449.17	8929.14
449.36	8695.09
449.54	8716.16
449.73	9067.24
449.91	8879.99
450.10	9034.47
450.28	8978.30
450.46	8950.21
450.65	8959.57
450.83	9118.73
451.02	8931.48
451.20	9055.53
451.39	9303.63
451.57	9179.58
451.76	9018.08
451.94	9268.52
452.13	9338.74
452.31	9392.57
452.49	9200.65
452.68	9256.82
452.86	9376.19
453.05	9287.25
453.23	9397.25
453.42	9380.87
453.60	9420.66
453.78	9537.68
453.97	9504.92
454.15	9760.03
454.34	9205.33
454.52	9633.64
454.70	9870.04
454.89	9848.97
455.07	9743.65
455.26	9675.77
455.44	10036.22
455.62	10026.86
455.81	9926.21
455.99	9865.36
456.17	9949.62
456.36	10087.71
456.54	10352.19
456.73	10176.65
456.91	10523.05
457.09	10293.68
457.28	10539.43
457.46	10303.04
457.64	10466.88
457.83	10623.69
458.01	10464.54
458.19	10775.83
458.38	10511.35
458.56	10597.95
458.74	10764.12
458.93	10647.10
459.11	10792.21
459.29	10937.32
459.48	10647.10
459.66	10822.64
459.84	11000.52
460.03	11012.22
460.21	11236.91
460.39	11063.71
460.57	10981.79
460.76	11276.70
460.94	11133.93
461.12	11164.36
461.31	11077.76
461.49	11213.51
461.67	11162.01
461.85	11456.92
462.04	11276.70
462.22	11517.78
462.40	11538.84
462.59	11686.29
462.77	11597.35
462.95	11646.51
463.13	11508.41
463.32	11613.74
463.50	11662.89
463.68	11583.31
463.86	11763.53
464.05	11847.79
464.23	11969.50
464.41	11815.02
464.59	11714.38
464.78	12100.57
464.96	11941.41
465.14	11918.01
465.32	11950.78
465.50	12180.15
465.69	12255.04
465.87	12184.83
466.05	12074.82
466.23	12147.38
466.41	12306.54
466.60	12315.90
466.78	12049.08
466.96	12121.63
467.14	12400.16
467.32	12334.62
467.51	12542.93
467.69	12327.60
467.87	12432.93
468.05	12489.10
468.23	12390.80
468.41	12376.75
468.60	12652.94
468.78	12833.16
468.96	12610.81
469.14	13109.34
469.32	12929.12
469.50	12812.09
469.69	12905.71
469.87	13352.76
470.05	13011.04
470.23	13004.02
470.41	12987.63
470.59	13214.66
470.77	13153.81
470.95	13209.98
471.14	13425.31
471.32	13233.39
471.50	13544.68
471.68	13652.34
471.86	13694.47
472.04	13565.74
472.22	14167.26
472.40	13809.16
472.58	13839.59
472.77	13970.66
472.95	14267.91
473.13	14635.37
473.31	13902.78
473.49	14071.30
473.67	14202.37
473.85	14181.31
474.03	14761.76
474.21	14600.26
474.39	14803.89
474.57	14890.49
474.75	14967.73
474.93	15026.24
475.12	14834.32
475.30	15208.80
475.48	15117.52
475.66	15129.22
475.84	15103.48
476.02	15433.49
476.20	15466.26
476.38	15707.34
476.56	16009.26
476.74	16299.49
476.92	16032.67
477.10	15913.30
477.28	16121.61
477.46	16194.17
477.64	16287.79
477.82	16805.05
478.00	17043.78
478.18	16915.05
478.36	17205.28
478.54	17062.51
478.72	17312.94
478.90	17530.61
479.08	17561.04
479.26	17661.68
479.44	17682.75
479.62	17837.22
479.80	17919.14
479.98	18349.80
480.16	18478.53
480.34	18476.19
480.52	18548.75
480.70	18686.84
480.88	18586.19
481.06	18799.18
481.24	18738.33
481.41	19112.81
481.59	19246.23
481.77	19477.94
481.95	19534.11
482.13	19875.83
482.31	19749.44
482.49	20355.64
482.67	20285.42
482.85	20257.34
483.03	20657.57
483.21	20851.83
483.39	21191.21
483.57	20826.09
483.74	21434.63
483.92	21226.32
484.10	21364.41
484.28	21731.87
484.46	21961.25
484.64	22600.21
484.82	21975.29
485.00	22574.47
485.18	22679.79
485.35	22815.54
485.53	22705.54
485.71	22817.88
485.89	23398.34
486.07	23133.86
486.25	23690.90
486.43	23857.08
486.61	23618.35
486.78	23924.96
486.96	23999.85
487.14	24582.65
487.32	24620.10
487.50	24517.11
487.68	25106.93
487.85	25245.02
488.03	25441.62
488.21	25823.13
488.39	25975.27
488.57	26267.83
488.75	26033.78
488.92	26412.95
489.10	26309.96
489.28	27103.40
489.46	26803.82
489.64	27239.15
489.81	27782.16
489.99	27648.75
490.17	27718.96
490.35	28254.95
490.53	28243.24
490.70	28339.21
490.88	28526.45
491.06	28814.34
491.24	28872.85
491.41	28842.42
491.59	29221.59
491.77	29120.95
491.95	29488.41
492.13	29619.48
492.30	29455.64
492.48	29975.24
492.66	30410.58
492.84	30204.61
493.01	30483.14
493.19	30433.99
493.37	31040.18
493.54	31171.25
493.72	31702.56
493.90	31601.91
494.08	32060.66
494.25	32060.66
494.43	31948.31
494.61	32388.33
494.79	32606.00
494.96	32393.01
495.14	32638.77
495.32	33214.54
495.49	33249.65
495.67	33270.72
495.85	33837.12
496.02	33930.75
496.20	33984.58
496.38	34438.64
496.55	34213.95
496.73	34492.47
496.91	34658.65
497.09	35182.93
497.26	34955.90
497.44	35047.18
497.62	35388.90
497.79	36114.47
497.97	35524.65
498.14	35761.05
498.32	35814.88
498.50	35828.92
498.67	36891.52
498.85	36535.76
499.03	36755.77
499.20	37156.00
499.38	36617.68
499.56	37036.64
499.73	37205.16
499.91	37165.37
500.08	37694.33
500.26	37406.44
500.44	38026.68
500.61	37563.26
500.79	37837.10
500.97	38377.76
501.14	38876.30
501.32	38478.41
501.49	38361.38
501.67	38387.13
501.84	38864.60
502.02	39203.97
502.20	39166.52
502.37	39189.93
502.55	39772.72
502.72	39901.45
502.90	39714.21
503.07	39604.20
503.25	39920.18
503.43	39461.43
503.60	40023.16
503.78	40474.88
503.95	39934.22
504.13	40467.86
504.30	40781.49
504.48	40339.13
504.65	40938.31
504.83	41170.02
505.01	41521.10
505.18	41242.58
505.36	41448.55
505.53	41127.89
505.71	41663.88
505.88	42038.36
506.06	41436.84
506.23	41776.22
506.41	41724.73
506.58	42501.79
506.76	42394.12
506.93	42649.24
507.11	42220.92
507.28	42485.40
507.46	42782.65
507.63	42824.78
507.81	42689.03
507.98	42672.65
508.16	43540.99
508.33	43398.21
508.50	43526.94
508.68	43807.81
508.85	44004.41
509.03	43753.97
509.20	44311.02
509.38	44486.56
509.55	44151.87
509.73	44505.29
509.90	44573.16
510.08	44706.57
510.25	44561.46
510.42	44992.12
510.60	45170.00
510.77	44980.42
510.95	45621.72
511.12	45495.33
511.30	45471.93
511.47	45591.30
511.64	45551.51
511.82	45888.54
511.99	45310.43
512.17	45855.78
512.34	46164.73
512.51	46593.04
512.69	46490.06
512.86	46529.85
513.04	46469.00
513.21	46190.47
513.38	46738.16
513.56	46787.31
513.73	46705.39
513.90	46981.57
514.08	46946.47
514.25	47327.97
514.43	47271.80
514.60	47337.33
514.77	47093.92
514.95	47662.67
515.12	47414.57
515.29	47419.25
515.47	47737.57
515.64	48336.74
515.81	48240.78
515.99	48224.40
516.16	48327.38
516.33	48282.91
516.51	48797.83
516.68	48467.81
516.85	48786.13
517.03	48608.25
517.20	48722.93
517.37	49074.01
517.54	48964.01
517.72	49071.67
517.89	49319.77
518.06	49237.85
518.24	49198.06
518.41	49460.20
518.58	49734.04
518.75	49198.06
518.93	49570.21
519.10	49345.51
519.27	49680.21
519.45	49605.31
519.62	49902.56
519.79	50038.31
519.96	49904.90
520.14	50230.24
520.31	49979.80
520.48	50571.96
520.65	50213.85
520.83	50740.47
521.00	50419.82
521.17	50155.34
521.34	50815.37
521.52	50618.77
521.69	50834.10
521.86	50958.14
522.03	51601.79
522.20	51229.65
522.38	51311.56
522.55	51391.14
522.72	51330.29
522.89	51229.65
523.07	51772.65
523.24	51562.00
523.41	51494.13
523.58	51554.98
523.75	51636.90
523.92	51688.39
524.10	51697.75
524.27	52072.24
524.44	51997.34
524.61	51882.66
524.78	52158.84
524.96	51983.30
525.13	52252.46
525.30	52364.81
525.47	52912.49
525.64	52463.11
525.81	52406.94
525.98	52542.69
526.16	52655.03
526.33	52617.58
526.50	52875.04
526.67	53052.92
526.84	52568.43
527.01	52868.02
527.18	52802.49
527.36	52868.02
527.53	53174.63
527.70	53226.12
527.87	53146.54
528.04	53275.27
528.21	53684.87
528.38	53427.41
528.55	53492.94
528.72	53336.13
528.89	53326.77
529.07	53502.31
529.24	53209.74
529.41	53865.09
529.58	53624.01
529.75	53619.33
529.92	53703.59
530.09	53787.85
530.26	53909.56
530.43	53989.14
530.60	53965.73
530.77	53776.15
530.94	54213.83
531.11	53954.03
531.28	54157.66
531.46	54057.01
531.63	54475.97
531.80	54129.57
531.97	54307.45
532.14	54426.82
532.31	54368.30
532.48	54302.77
532.65	54780.24
532.82	54674.91
532.99	54714.70
533.16	54349.58
533.33	54761.51
533.50	54988.55
533.67	54859.82
533.84	54653.85
534.01	54733.43
534.18	54782.58
534.35	54976.84
534.52	55023.65
534.69	55131.32
534.86	55372.39
535.03	54958.12
535.20	55238.98
535.37	55405.16
535.54	55320.90
535.71	55388.78
535.88	55501.12
536.05	55564.32
536.22	55669.64
536.38	55508.14
536.55	55494.10
536.72	55594.74
536.89	55377.08
537.06	55374.73
537.23	55796.03
537.40	55716.45
537.57	55835.82
537.74	55728.16
537.91	55894.33
538.08	55952.85
538.25	55681.34
538.42	55758.58
538.59	56055.83
538.75	56119.02
538.92	56250.09
539.09	56362.44
539.26	56308.61
539.43	56030.08
539.60	56224.35
539.77	56222.01
539.94	56381.16
540.11	56236.05
540.28	56327.33
540.44	56526.28
540.61	56388.19
540.78	56135.41
540.95	56369.46
541.12	56346.06
541.29	56317.97
541.46	56573.09
541.62	56498.19
541.79	56533.30
541.96	56481.81
542.13	56697.14
542.30	56821.19
542.47	56772.03
542.63	56816.50
542.80	56970.98
542.97	57336.10
543.14	57394.62
543.31	57310.36
543.48	57003.75
543.64	57308.02
543.81	57460.15
543.98	57495.26
544.15	57214.40
544.32	57389.94
544.48	57427.38
544.65	57490.58
544.82	57420.36
544.99	57263.55
545.16	57336.10
545.32	57495.26
545.49	57633.35
545.66	57813.57
545.83	57453.13
546.00	57881.45
546.16	57577.18
546.33	57623.99
546.50	57286.95
546.67	57834.64
546.83	57429.72
547.00	57738.68
547.17	57712.93
547.34	57654.42
547.50	57909.53
547.67	58169.33
547.84	57876.77
548.00	57846.34
548.17	58068.69
548.34	58124.86
548.51	58241.89
548.67	58305.09
548.84	58059.33
549.01	58122.52
549.18	58239.55
549.34	58213.80
549.51	58387.00
549.68	58267.64
549.84	58232.53
550.01	58506.37
550.18	58277.00
550.34	58520.41
550.51	58431.47
550.68	58422.11
550.84	58307.43
551.01	58401.05
551.18	58363.60
551.34	58461.90
551.51	58801.28
551.68	58571.91
551.84	58391.68
552.01	58405.73
552.18	58614.04
552.34	58302.74
552.51	58728.72
552.68	58592.97
552.84	58616.38
553.01	58976.82
553.18	58710.00
553.34	58953.41
553.51	58726.38
553.67	58674.89
553.84	59086.82
554.01	58887.88
554.17	58906.60
554.34	59295.13
554.51	59002.56
554.67	59248.32
554.84	59014.27
555.00	59152.36
555.17	58824.68
555.33	59187.47
555.50	58988.52
555.67	59103.21
555.83	59000.22
556.00	59201.51
556.16	59283.43
556.33	59311.52
556.50	59187.47
556.66	59367.69
556.83	59269.39
556.99	59269.39
557.16	59583.02
557.32	59348.96
557.49	59512.80
557.65	59449.61
557.82	59213.21
557.98	59475.35
558.15	59327.90
558.32	59475.35
558.48	59494.08
558.65	59559.61
558.81	59405.14
558.98	59564.29
559.14	59796.01
559.31	59812.39
559.47	59512.80
559.64	59676.64
559.80	59568.97
559.97	59629.83
560.13	59578.34
560.30	59737.49
560.46	59711.75
560.63	59686.00
560.79	59838.14
560.96	59849.84
561.12	59723.45
561.29	59948.14
561.45	59901.33
561.61	59725.79
561.78	59629.83
561.94	59838.14
562.11	59891.97
562.27	59819.41
562.44	59962.18
562.60	60126.02
562.77	60100.28
562.93	59793.67
563.10	60275.82
563.26	60067.51
563.42	60140.07
563.59	59945.80
563.75	60034.74
563.92	60102.62
564.08	59927.08
564.24	60364.76
564.41	60020.70
564.57	60111.98
564.74	60128.36
564.90	60128.36
565.07	60123.68
565.23	60126.02
565.39	59980.91
565.56	60175.17
565.72	60074.53
565.88	60292.20
566.05	60156.45
566.21	60257.09
566.38	60357.74
566.54	60301.56
566.70	60324.97
566.87	60280.50
567.03	60163.47
567.19	60362.42
567.36	60346.03
567.52	60310.92
567.68	60732.22
567.85	60264.11
568.01	60292.20
568.17	60406.89
568.34	60378.80
568.50	60217.30
568.66	60327.31
568.83	60404.55
568.99	60364.76
569.15	60355.39
569.32	60512.21
569.48	60296.88
569.64	60329.65
569.81	60378.80
569.97	60608.17
570.13	60392.84
570.30	60416.25
570.46	60392.84
570.62	60184.54
570.78	60236.03
570.95	60622.22
571.11	60853.93
571.27	60444.33
571.43	60430.29
571.60	60591.79
571.76	60603.49
571.92	60701.79
572.09	60439.65
572.25	60587.11
572.41	60748.60
572.57	60463.06
572.74	60762.65
572.90	60495.83
573.06	60629.24
573.22	60666.69
573.38	60509.87
573.55	60704.13
573.71	60903.08
573.87	60727.54
574.03	60537.96
574.20	60690.09
574.36	60722.86
574.52	60741.58
574.68	60884.36
574.84	60683.07
575.01	60832.86
575.17	60542.64
575.33	60654.98
575.49	60697.11
575.65	60814.14
575.82	60905.42
575.98	60889.04
576.14	60921.80
576.30	60743.92
576.46	60568.38
576.62	60853.93
576.79	60755.63
576.95	60711.16
577.11	60755.63
577.27	61038.83
577.43	60919.46
577.59	60874.99
577.75	60786.05
577.92	60795.42
578.08	60575.40
578.24	60610.51
578.40	60996.70
578.56	60882.02
578.72	60893.72
578.88	60942.87
579.04	60985.00
579.21	60980.32
579.37	61069.26
579.53	61017.77
579.69	60762.65
579.85	60687.75
580.01	60662.00
580.17	60760.31
580.33	61045.85
580.49	61048.19
580.65	60853.93
580.82	60741.58
580.98	60753.29
581.14	60804.78
581.30	61041.17
581.46	60816.48
581.62	60846.91
581.78	60781.37
581.94	61057.56
582.10	60842.23
582.26	60919.46
582.42	60851.59
582.58	60956.91
582.74	60912.44
582.90	61095.00
583.06	60884.36
583.22	60832.86
583.38	60753.29
583.54	60973.30
583.70	60945.21
583.86	60912.44
584.02	60676.05
584.18	61083.30
584.34	60982.66
584.50	60891.38
584.66	60781.37
584.82	60942.87
584.98	61057.56
585.14	60989.68
585.30	60963.93
585.46	60989.68
585.62	61137.13
585.78	61076.28
585.94	60704.13
586.10	61055.21
586.26	61048.19
586.42	61111.39
586.58	61062.24
586.74	60931.17
586.90	60956.91
587.06	61038.83
587.22	61293.95
587.38	61015.43
587.54	61155.86
587.70	61167.56
587.86	61120.75
588.02	61024.79
588.18	61286.93
588.34	61017.77
588.49	61099.68
