SpectraSuite Data File
++++++++++++++++++++++++++++++++++++
Date: Fri Oct 25 11:23:20 EDT 2013
User: price-jones
Dark Spectrum Present: No
Reference Spectrum Present: No
Number of Sampled Component Spectra: 1
Spectrometers: USB2+H05261
Integration Time (usec): 100000 (USB2+H05261)
Spectra Averaged: 1 (USB2+H05261)
Boxcar Smoothing: 0 (USB2+H05261)
Correct for Electrical Dark: No (USB2+H05261)
Strobe/Lamp Enabled: No (USB2+H05261)
Correct for Detector Non-linearity: No (USB2+H05261)
Correct for Stray Light: No (USB2+H05261)
Number of Pixels in Processed Spectrum: 2048
>>>>>Begin Processed Spectral Data<<<<<
365.73	224.69
365.92	224.69
366.12	224.69
366.32	198.95
366.52	159.16
366.72	128.73
366.91	140.43
367.11	147.45
367.31	53.83
367.51	91.28
367.70	112.35
367.90	177.88
368.10	168.52
368.30	170.86
368.49	100.64
368.69	198.95
368.89	79.58
369.09	107.66
369.28	152.13
369.48	149.79
369.68	133.41
369.87	208.31
370.07	128.73
370.27	266.82
370.47	292.57
370.66	638.97
370.86	650.67
371.06	676.41
371.25	781.74
371.45	695.14
371.65	690.46
371.84	587.47
372.04	676.41
372.24	660.03
372.44	737.27
372.63	697.48
372.83	746.63
373.03	664.71
373.22	760.67
373.42	809.83
373.62	753.65
373.81	720.88
374.01	821.53
374.21	748.97
374.40	887.06
374.60	805.14
374.79	889.40
374.99	830.89
375.19	863.66
375.38	798.12
375.58	784.08
375.78	933.87
375.97	873.02
376.17	912.81
376.37	896.43
376.56	882.38
376.76	873.02
376.95	896.43
377.15	835.57
377.35	917.49
377.54	854.30
377.74	866.00
377.93	849.61
378.13	997.07
378.33	880.04
378.52	891.74
378.72	954.94
378.91	933.87
379.11	880.04
379.31	959.62
379.50	933.87
379.70	1015.79
379.89	966.64
380.09	961.96
380.28	919.83
380.48	978.34
380.68	929.19
380.87	957.28
381.07	997.07
381.26	1062.60
381.46	1074.31
381.65	973.66
381.85	1048.56
382.04	1004.09
382.24	1095.37
382.43	1006.43
382.63	1039.20
382.83	1053.24
383.02	1114.10
383.22	1039.20
383.41	1064.94
383.61	1013.45
383.80	1071.97
384.00	1149.20
384.19	1055.58
384.39	1137.50
384.58	1186.65
384.78	1029.84
384.97	1153.88
385.17	1121.12
385.36	1146.86
385.56	1142.18
385.75	1135.16
385.95	1200.69
386.14	1266.23
386.34	1217.08
386.53	1224.10
386.72	1240.48
386.92	1196.01
387.11	1179.63
387.31	1249.85
387.50	1263.89
387.70	1263.89
387.89	1291.98
388.09	1338.79
388.28	1247.51
388.48	1341.13
388.67	1390.28
388.86	1261.55
389.06	1240.48
389.25	1289.64
389.45	1308.36
389.64	1273.25
389.84	1472.20
390.03	1423.05
390.22	1366.87
390.42	1343.47
390.61	1280.27
390.81	1315.38
391.00	1420.71
391.19	1423.05
391.39	1385.60
391.58	1514.33
391.78	1596.25
391.97	1521.35
392.16	1362.19
392.36	1640.72
392.55	1502.62
392.75	1540.07
392.94	1383.26
393.13	1561.14
393.33	1497.94
393.52	1647.74
393.71	1563.48
393.91	1577.52
394.10	1437.09
394.29	1577.52
394.49	1626.67
394.68	1600.93
394.88	1584.54
395.07	1675.82
395.26	1741.36
395.46	1748.38
395.65	1746.04
395.84	1650.08
396.04	1823.28
396.23	1792.85
396.42	1682.85
396.62	1837.32
396.81	1755.40
397.00	1813.92
397.19	1818.60
397.39	1783.49
397.58	1860.73
397.77	1870.09
397.97	1909.88
398.16	1863.07
398.35	1900.52
398.55	1944.99
398.74	1923.92
398.93	1856.04
399.12	1884.13
399.32	1921.58
399.51	1961.37
399.70	2010.52
399.90	1956.69
400.09	1994.14
400.28	2010.52
400.47	2099.46
400.67	2242.23
400.86	2085.42
401.05	2190.74
401.24	2160.31
401.44	2150.95
401.63	2129.89
401.82	2104.14
402.01	2083.08
402.21	2106.48
402.40	2179.04
402.59	2211.81
402.78	2277.34
402.97	2174.36
403.17	2275.00
403.36	2314.79
403.55	2256.28
403.74	2312.45
403.93	2347.56
404.13	2443.52
404.32	2450.54
404.51	2464.58
404.70	2394.37
404.89	2394.37
405.09	2548.84
405.28	2476.29
405.47	2480.97
405.66	2548.84
405.85	2499.69
406.05	2485.65
406.24	2527.78
406.43	2579.27
406.62	2600.34
406.81	2710.34
407.00	2705.66
407.20	2537.14
407.39	2593.31
407.58	2663.53
407.77	2810.98
407.96	2789.92
408.15	2757.15
408.34	2780.56
408.54	2836.73
408.73	2803.96
408.92	3049.72
409.11	2796.94
409.30	3021.63
409.49	2848.43
409.68	2932.69
409.87	2888.22
410.07	2986.52
410.26	3054.40
410.45	2998.23
410.64	3098.87
410.83	3042.70
411.02	3173.77
411.21	3133.98
411.40	3222.92
411.59	3159.72
411.78	3066.10
411.98	3258.03
412.17	3318.88
412.36	3389.10
412.55	3346.97
412.74	3356.33
412.93	3417.18
413.12	3377.39
413.31	3449.95
413.50	3566.98
413.69	3489.74
413.88	3599.74
414.07	3637.19
414.26	3536.55
414.45	3634.85
414.64	3829.12
414.83	3705.07
415.02	3772.94
415.22	3772.94
415.41	3819.75
415.60	3904.01
415.79	3915.72
415.98	4077.21
416.17	3953.16
416.36	4070.19
416.55	4039.76
416.74	3960.19
416.93	4070.19
417.12	4173.18
417.31	4269.14
417.50	4276.16
417.69	4189.56
417.88	4395.53
418.07	4287.86
418.26	4374.46
418.45	4428.29
418.64	4486.81
418.83	4465.74
419.02	4524.26
419.21	4657.67
419.39	4589.79
419.58	4486.81
419.77	4538.30
419.96	4641.28
420.15	4528.94
420.34	4667.03
420.53	4542.98
420.72	4805.12
420.91	4762.99
421.10	4716.18
421.29	4744.27
421.48	4648.30
421.67	4777.03
421.86	4781.71
422.05	4807.46
422.24	4812.14
422.43	4947.89
422.61	5001.72
422.80	5001.72
422.99	4940.87
423.18	4999.38
423.37	5015.77
423.56	4882.36
423.75	4814.48
423.94	4753.63
424.13	4636.60
424.32	4793.42
424.50	4990.02
424.69	5139.82
424.88	5109.39
425.07	5057.90
425.26	4908.10
425.45	4983.00
425.64	5102.37
425.83	5179.61
426.01	5170.24
426.20	5008.75
426.39	5163.22
426.58	5085.98
426.77	5128.11
426.96	5289.61
427.15	5132.79
427.33	5212.37
427.52	5191.31
427.71	5181.95
427.90	5268.55
428.09	5242.80
428.28	5373.87
428.46	5392.59
428.65	5252.16
428.84	5542.39
429.03	5565.79
429.22	5392.59
429.40	5561.11
429.59	5451.11
429.78	5238.12
429.97	5289.61
430.16	5537.71
430.34	5689.84
430.53	5734.31
430.72	5614.95
430.91	5696.86
431.10	5689.84
431.28	5886.45
431.47	5809.21
431.66	5923.90
431.85	5872.40
432.03	5806.87
432.22	5961.34
432.41	5949.64
432.60	5902.83
432.79	5951.98
432.97	6033.90
433.16	6019.86
433.35	6202.42
433.54	6080.71
433.72	6207.10
433.91	6188.38
434.10	6211.78
434.28	6066.67
434.47	6221.14
434.66	6291.36
434.85	6441.15
435.03	6590.95
435.22	6450.52
435.41	6408.39
435.59	6289.02
435.78	6539.46
435.97	6626.06
436.16	6499.67
436.34	6544.14
436.53	6647.12
436.72	6729.04
436.90	6534.78
437.09	6665.85
437.28	6534.78
437.46	6548.82
437.65	6686.91
437.84	6846.07
438.02	6829.68
438.21	6813.30
438.40	6829.68
438.58	7143.32
438.77	7140.97
438.96	7047.35
439.14	7185.44
439.33	7323.54
439.52	7152.68
439.70	7370.35
439.89	7407.80
440.08	7417.16
440.26	7485.03
440.45	7419.50
440.63	7473.33
440.82	7754.19
441.01	7571.63
441.19	7691.00
441.38	7669.94
441.57	7613.76
441.75	7655.89
441.94	8035.06
442.12	7878.24
442.31	8023.36
442.50	8154.43
442.68	8131.02
442.87	8095.91
443.05	8229.32
443.24	8290.18
443.43	8124.00
443.61	8147.40
443.80	8500.83
443.98	8149.75
444.17	7901.65
444.35	8217.62
444.54	8732.54
444.73	8355.71
444.91	8353.37
445.10	8402.52
445.28	8285.50
445.47	8432.95
445.65	8449.33
445.84	8531.25
446.02	8369.76
446.21	8507.85
446.39	8351.03
446.58	8564.02
446.77	8383.80
446.95	8624.87
447.14	8411.89
447.32	8596.79
447.51	8463.38
447.69	8554.66
447.88	8622.53
448.06	8692.75
448.25	8542.96
448.43	8638.92
448.62	8606.15
448.80	8557.00
448.99	8788.71
449.17	8791.05
449.36	8620.19
449.54	8840.20
449.73	9032.13
449.91	9015.74
450.10	9053.19
450.28	9153.84
450.46	9088.30
450.65	9109.36
450.83	9228.73
451.02	9179.58
451.20	9362.14
451.39	9025.11
451.57	9301.29
451.76	9149.15
451.94	9146.81
452.13	9530.66
452.31	9537.68
452.49	9116.39
452.68	9387.89
452.86	9399.59
453.05	9540.02
453.23	9570.45
453.42	9572.79
453.60	9320.01
453.78	9659.39
453.97	9376.19
454.15	9439.38
454.34	9598.54
454.52	9652.37
454.70	9902.81
454.89	9879.40
455.07	9813.87
455.26	9799.82
455.44	10171.97
455.62	9977.70
455.81	9923.87
455.99	10019.83
456.17	10207.08
456.36	9914.51
456.54	10181.33
456.73	10216.44
456.91	10541.77
457.09	10487.94
457.28	10700.93
457.46	10415.38
457.64	10705.61
457.83	10668.16
458.01	10305.38
458.19	10738.38
458.38	10452.83
458.56	10920.94
458.74	11007.54
458.93	10829.66
459.11	10792.21
459.29	10876.47
459.48	10998.18
459.66	10775.83
459.84	10892.85
460.03	11283.72
460.21	10771.15
460.39	11183.08
460.57	11066.05
460.76	11171.38
460.94	11360.96
461.12	11229.89
461.31	11314.15
461.49	11253.30
461.67	11143.29
461.85	11709.70
462.04	11143.29
462.22	11681.61
462.40	11693.32
462.59	11510.75
462.77	11417.13
462.95	11681.61
463.13	11705.02
463.32	11887.58
463.50	11681.61
463.68	11793.96
463.86	11847.79
464.05	11786.94
464.23	11829.07
464.41	12121.63
464.59	11646.51
464.78	12133.34
464.96	12175.47
465.14	12063.12
465.32	12102.91
465.50	12163.76
465.69	12287.81
465.87	12248.02
466.05	12203.55
466.23	12238.66
466.41	12414.20
466.60	12390.80
466.78	12245.68
466.96	12313.56
467.14	12248.02
467.32	12418.88
467.51	12587.40
467.69	12421.22
467.87	12706.77
468.05	12685.70
468.23	12498.46
468.41	12477.40
468.60	12826.14
468.78	12865.92
468.96	12711.45
469.14	12973.59
469.32	13053.17
469.50	12638.89
469.69	13205.30
469.87	13289.56
470.05	13167.85
470.23	13235.73
470.41	13455.74
470.59	13336.37
470.77	13352.76
470.95	13338.71
471.14	13792.78
471.32	13242.75
471.50	13741.29
471.68	13841.93
471.86	13851.29
472.04	13722.56
472.22	14153.22
472.40	13745.97
472.58	13888.74
472.77	14260.88
472.95	14183.65
473.13	14869.42
473.31	14251.52
473.49	14359.19
473.67	14143.86
473.85	14380.25
474.03	14705.59
474.21	14904.53
474.39	15026.24
474.57	14834.32
474.75	14717.29
474.93	15096.46
475.12	15061.35
475.30	15407.75
475.48	15075.39
475.66	15269.66
475.84	15225.18
476.02	15536.48
476.20	15721.38
476.38	15819.68
476.56	16231.62
476.74	16009.26
476.92	15906.28
477.10	16102.89
477.28	16262.04
477.46	16292.47
477.64	16624.83
477.82	16732.49
478.00	17317.62
478.18	17015.69
478.36	17027.40
478.54	17397.20
478.72	17280.18
478.90	17624.23
479.08	17685.09
479.26	17933.18
479.44	17710.83
479.62	17785.73
479.80	18183.62
479.98	18324.05
480.16	18944.30
480.34	18621.30
480.52	18705.56
480.70	18714.92
480.88	18721.95
481.06	19112.81
481.24	18843.65
481.41	19461.55
481.59	19372.61
481.77	19524.75
481.95	19763.48
482.13	20063.07
482.31	19517.73
482.49	20311.17
482.67	20376.70
482.85	20891.62
483.03	20954.82
483.21	20975.88
483.39	20910.35
483.57	20980.56
483.74	21802.09
483.92	21640.59
484.10	21387.82
484.28	21785.71
484.46	22506.59
484.64	22677.45
484.82	21893.37
485.00	22359.14
485.18	23040.23
485.35	23171.30
485.53	22984.06
485.71	23283.65
485.89	23789.20
486.07	23421.74
486.25	23793.89
486.43	23866.44
486.61	23957.72
486.78	24608.39
486.96	24592.01
487.14	24999.26
487.32	24655.20
487.50	25165.44
487.68	25172.46
487.85	25560.99
488.03	25750.57
488.21	26092.29
488.39	26214.00
488.57	26483.16
488.75	26647.00
488.92	26672.74
489.10	26946.59
489.28	27218.09
489.46	27559.81
489.64	27166.60
489.81	27962.38
489.99	28006.85
490.17	27913.23
490.35	28306.44
490.53	28301.76
490.70	28833.06
490.88	28608.37
491.06	28819.02
491.24	29221.59
491.41	29493.09
491.59	29621.82
491.77	29820.77
491.95	29933.11
492.13	30068.86
492.30	30321.64
492.48	30469.09
492.66	30525.27
492.84	30607.19
493.01	31007.42
493.19	30981.67
493.37	31431.05
493.54	31541.06
493.72	31835.97
493.90	31754.05
494.08	32224.50
494.25	32500.68
494.43	32360.25
494.61	32680.90
494.79	32931.34
494.96	32718.35
495.14	33256.67
495.32	33406.47
495.49	33525.83
495.67	33486.04
495.85	33708.40
496.02	33762.23
496.20	34227.99
496.38	34256.08
496.55	34471.41
496.73	34993.35
496.91	34576.73
497.09	35342.09
497.26	35332.73
497.44	35381.88
497.62	35335.07
497.79	36065.31
497.97	36240.86
498.14	36051.27
498.32	36521.72
498.50	36570.87
498.67	36741.73
498.85	36795.56
499.03	36943.02
499.20	36758.11
499.38	37284.73
499.56	37275.37
499.73	37631.13
499.91	37921.36
500.08	38066.47
500.26	37823.06
500.44	37572.62
500.61	37975.19
500.79	38029.02
500.97	38298.19
501.14	39068.22
501.32	38501.81
501.49	38749.91
501.67	39262.49
501.84	39210.99
502.02	39047.16
502.20	39147.80
502.37	39330.36
502.55	39470.79
502.72	39728.25
502.90	40086.36
503.07	40299.34
503.25	40069.97
503.43	39966.99
503.60	40493.61
503.78	40549.78
503.95	40727.66
504.13	40861.07
504.30	41375.99
504.48	40821.28
504.65	40933.63
504.83	41036.61
505.01	41649.83
505.18	41588.98
505.36	41893.25
505.53	41315.14
505.71	41797.29
505.88	41954.10
506.06	41764.52
506.23	42487.74
506.41	42410.51
506.58	42618.81
506.76	42321.57
506.93	42543.92
507.11	42876.27
507.28	42890.32
507.46	43070.54
507.63	43028.41
507.81	43522.26
507.98	43615.88
508.16	43445.02
508.33	43395.87
508.50	43875.68
508.68	44018.46
508.85	44142.50
509.03	43772.70
509.20	44587.21
509.38	44673.81
509.55	44605.93
509.73	44800.19
509.90	45015.52
510.08	44793.17
510.25	44907.86
510.42	45099.78
510.60	45776.20
510.77	45509.38
510.95	45808.96
511.12	45488.31
511.30	45563.21
511.47	45717.68
511.64	45911.95
511.82	46375.37
511.99	46014.93
512.17	46258.35
512.34	46422.19
512.51	46478.36
512.69	46710.07
512.86	46497.08
513.04	46937.10
513.21	46852.84
513.38	47370.10
513.56	47543.30
513.73	47147.75
513.90	47257.76
514.08	47257.76
514.25	47557.35
514.43	47608.84
514.60	47784.38
514.77	47810.12
514.95	48278.23
515.12	47828.85
515.29	48147.16
515.47	48451.43
515.64	48121.41
515.81	48032.47
515.99	48526.33
516.16	48994.43
516.33	48713.57
516.51	49188.70
516.68	48788.47
516.85	49436.80
517.03	48985.07
517.20	49375.94
517.37	48966.35
517.54	48802.51
517.72	49389.98
517.89	49275.30
518.06	49357.22
518.24	49705.96
518.41	49485.95
518.58	49832.35
518.75	49504.67
518.93	49916.61
519.10	49705.96
519.27	50279.39
519.45	50148.32
519.62	50204.49
519.79	50497.06
519.96	50223.22
520.14	50506.42
520.31	50394.07
520.48	50710.05
520.65	50630.47
520.83	51140.71
521.00	50934.74
521.17	50848.14
521.34	51011.98
521.52	51021.34
521.69	51309.22
521.86	51374.76
522.03	51290.50
522.20	51547.96
522.38	51707.12
522.55	51807.76
522.72	51583.07
522.89	51552.64
523.07	52130.75
523.24	51777.33
523.41	51948.19
523.58	51664.99
523.75	52322.68
523.92	52360.12
524.10	52184.58
524.27	52222.03
524.44	52729.93
524.61	52322.68
524.78	52163.52
524.96	52467.79
525.13	52587.16
525.30	52594.18
525.47	52839.93
525.64	52914.83
525.81	52992.07
525.98	53066.97
526.16	52966.32
526.33	52987.39
526.50	53183.99
526.67	53123.14
526.84	53048.24
527.01	53029.52
527.18	53361.87
527.36	53521.03
527.53	53371.24
527.70	53359.53
527.87	53535.07
528.04	53523.37
528.21	53684.87
528.38	53539.75
528.55	54057.01
528.72	53565.50
528.89	53731.68
529.07	53708.27
529.24	53659.12
529.41	53947.01
529.58	54330.86
529.75	53680.19
529.92	54131.91
530.09	54066.38
530.26	54286.39
530.43	54255.96
530.60	53862.75
530.77	54157.66
530.94	54183.40
531.11	54433.84
531.28	54642.15
531.46	54443.20
531.63	54569.59
531.80	54487.67
531.97	54642.15
532.14	54927.69
532.31	54679.60
532.48	54831.73
532.65	54986.21
532.82	54384.69
532.99	54911.31
533.16	55023.65
533.33	55042.38
533.50	55208.56
533.67	54923.01
533.84	54983.86
534.01	54855.14
534.18	55068.12
534.35	55578.36
534.52	55356.01
534.69	55578.36
534.86	55580.70
535.03	55517.51
535.20	55498.78
535.37	55538.57
535.54	55751.56
535.71	55522.19
535.88	55613.47
536.05	55463.67
536.22	55901.36
536.38	56083.92
536.55	55650.92
536.72	55896.67
536.89	55896.67
537.06	55704.75
537.23	55957.53
537.40	55899.01
537.57	55955.19
537.74	56116.68
537.91	56296.91
538.08	56112.00
538.25	55915.40
538.42	56126.05
538.59	56442.02
538.75	56182.22
538.92	56324.99
539.09	56376.48
539.26	56184.56
539.43	56416.27
539.60	56526.28
539.77	56371.80
539.94	56842.25
540.11	56790.76
540.28	56776.72
540.44	56662.03
540.61	56521.60
540.78	56638.62
540.95	56617.56
541.12	56622.24
541.29	56657.35
541.46	56673.73
541.62	56999.07
541.79	57003.75
541.96	56750.97
542.13	56870.34
542.30	56968.64
542.47	56949.92
542.63	57095.03
542.80	57183.97
542.97	57212.06
543.14	57408.66
543.31	57284.61
543.48	57303.34
543.64	57621.65
543.81	57506.96
543.98	57574.84
544.15	57462.49
544.32	57815.91
544.48	57832.30
544.65	57689.52
544.82	57654.42
544.99	57385.25
545.16	57577.18
545.32	57668.46
545.49	57914.22
545.66	58007.84
545.83	57757.40
546.00	58155.29
546.16	58021.88
546.33	57743.36
546.50	57759.74
546.67	57815.91
546.83	57684.84
547.00	58103.80
547.17	57958.69
547.34	58007.84
547.50	58269.98
547.67	58206.78
547.84	58047.63
548.00	58438.50
548.17	58602.33
548.34	58468.92
548.51	58590.63
548.67	58485.31
548.84	58316.79
549.01	58408.07
549.18	58426.79
549.34	58424.45
549.51	58527.44
549.68	58794.26
549.84	58459.56
550.01	58705.32
550.18	58335.51
550.34	58728.72
550.51	58733.40
550.68	58864.47
550.84	58415.09
551.01	58810.64
551.18	58908.94
551.34	58702.98
551.51	58822.34
551.68	58894.90
551.84	58550.84
552.01	58834.05
552.18	58965.12
552.34	58796.60
552.51	58986.18
552.68	59000.22
552.84	59016.61
553.01	59138.32
553.18	59070.44
553.34	58967.46
553.51	59002.56
553.67	59100.87
553.84	59189.81
554.01	59037.67
554.17	59325.56
554.34	59302.15
554.51	59288.11
554.67	59089.16
554.84	59260.02
555.00	59269.39
555.17	59220.23
555.33	59103.21
555.50	59037.67
555.67	59147.68
555.83	59201.51
556.00	59339.60
556.16	59770.26
556.33	59517.48
556.50	59107.89
556.66	59402.80
556.83	59426.20
556.99	59552.59
557.16	59718.77
557.32	59632.17
557.49	59664.94
557.65	59622.81
557.82	59683.66
557.98	59533.87
558.15	59594.72
558.32	59739.83
558.48	59587.70
558.65	59655.57
558.81	59714.09
558.98	59676.64
559.14	59793.67
559.31	59821.75
559.47	59791.33
559.64	59931.76
559.80	60009.00
559.97	59838.14
560.13	59767.92
560.30	59948.14
560.46	59753.88
560.63	59898.99
560.79	59999.63
560.96	60095.60
561.12	59763.24
561.29	60205.60
561.45	59760.90
561.61	60147.09
561.78	60196.24
561.94	59999.63
562.11	60076.87
562.27	60025.38
562.44	60055.81
562.60	60217.30
562.77	60299.22
562.93	60020.70
563.10	60151.77
563.26	59941.12
563.42	60441.99
563.59	60193.90
563.75	60238.37
563.92	60554.34
564.08	60243.05
564.24	60467.74
564.41	60257.09
564.57	60404.55
564.74	60299.22
564.90	60104.96
565.07	60168.15
565.23	60463.06
565.39	60266.45
565.56	60554.34
565.72	60554.34
565.88	60343.69
566.05	60378.80
566.21	60324.97
566.38	60425.61
566.54	60397.52
566.70	60484.12
566.87	60603.49
567.03	60357.74
567.19	60704.13
567.36	60587.11
567.52	60547.32
567.68	60753.29
567.85	60657.32
568.01	60479.44
568.17	60313.26
568.34	60603.49
568.50	60645.62
568.66	60701.79
568.83	60568.38
568.99	60699.45
569.15	60662.00
569.32	60488.80
569.48	60516.89
569.64	60772.01
569.81	60662.00
569.97	60776.69
570.13	60718.18
570.30	60652.64
570.46	60919.46
570.62	61015.43
570.78	60790.73
570.95	60521.57
571.11	60727.54
571.27	60657.32
571.43	60804.78
571.60	60942.87
571.76	60926.49
571.92	60905.42
572.09	60966.27
572.25	60711.16
572.41	60706.47
572.57	60849.25
572.74	61195.65
572.90	60776.69
573.06	60839.89
573.22	60802.44
573.38	60713.50
573.55	60919.46
573.71	61095.00
573.87	61080.96
574.03	60772.01
574.20	60828.18
574.36	60874.99
574.52	60966.27
574.68	61003.72
574.84	61219.05
575.01	61099.68
575.17	60851.59
575.33	60910.10
575.49	60973.30
575.65	60903.08
575.82	60980.32
575.98	60996.70
576.14	61102.03
576.30	61003.72
576.46	61008.40
576.62	60992.02
576.79	61001.38
576.95	60830.52
577.11	61160.54
577.27	61104.37
577.43	60924.14
577.59	60809.46
577.75	60898.40
577.92	61109.05
578.08	61052.87
578.24	61148.84
578.40	61188.63
578.56	61153.52
578.72	61125.43
578.88	61127.77
579.04	61109.05
579.21	61102.03
579.37	61179.26
579.53	61174.58
579.69	60818.82
579.85	61057.56
580.01	61165.22
580.17	60800.10
580.33	61125.43
580.49	61078.62
580.65	61064.58
580.82	61130.11
580.98	61020.11
581.14	60980.32
581.30	61270.54
581.46	60959.25
581.62	61272.88
581.78	61165.22
581.94	61282.25
582.10	61165.22
582.26	61230.75
582.42	61193.31
582.58	61104.37
582.74	61062.24
582.90	60959.25
583.06	61151.18
583.22	60994.36
583.38	61078.62
583.54	61193.31
583.70	61298.63
583.86	61127.77
584.02	61240.12
584.18	61071.60
584.34	61228.41
584.50	61137.13
584.66	61043.51
584.82	60893.72
584.98	61380.55
585.14	61413.32
585.30	61069.26
585.46	61127.77
585.62	61104.37
585.78	61359.48
585.94	61389.91
586.10	61366.51
586.26	61279.91
586.42	61319.70
586.58	61457.79
586.74	61186.28
586.90	61092.66
587.06	61324.38
587.22	61235.44
587.38	61123.09
587.54	61366.51
587.70	61296.29
587.86	61361.82
588.02	60952.23
588.18	61410.98
588.34	61113.73
588.49	61275.22
