SpectraSuite Data File
++++++++++++++++++++++++++++++++++++
Date: Fri Oct 25 11:23:54 EDT 2013
User: price-jones
Dark Spectrum Present: No
Reference Spectrum Present: No
Number of Sampled Component Spectra: 1
Spectrometers: USB2+H05261
Integration Time (usec): 100000 (USB2+H05261)
Spectra Averaged: 1 (USB2+H05261)
Boxcar Smoothing: 0 (USB2+H05261)
Correct for Electrical Dark: No (USB2+H05261)
Strobe/Lamp Enabled: No (USB2+H05261)
Correct for Detector Non-linearity: No (USB2+H05261)
Correct for Stray Light: No (USB2+H05261)
Number of Pixels in Processed Spectrum: 2048
>>>>>Begin Processed Spectral Data<<<<<
365.73	231.71
365.92	231.71
366.12	231.71
366.32	145.11
366.52	161.50
366.72	135.75
366.91	65.54
367.11	131.07
367.31	63.19
367.51	114.69
367.70	201.29
367.90	112.35
368.10	117.03
368.30	98.30
368.49	135.75
368.69	91.28
368.89	182.56
369.09	166.18
369.28	173.20
369.48	180.22
369.68	189.58
369.87	182.56
370.07	196.60
370.27	198.95
370.47	341.72
370.66	580.45
370.86	547.69
371.06	610.88
371.25	636.63
371.45	601.52
371.65	725.57
371.84	624.92
372.04	734.93
372.24	690.46
372.44	713.86
372.63	692.80
372.83	746.63
373.03	629.60
373.22	732.59
373.42	758.33
373.62	795.78
373.81	807.48
374.01	765.36
374.21	833.23
374.40	765.36
374.60	837.91
374.79	772.38
374.99	798.12
375.19	844.93
375.38	807.48
375.58	910.47
375.78	894.08
375.97	842.59
376.17	812.17
376.37	870.68
376.56	891.74
376.76	837.91
376.95	889.40
377.15	898.77
377.35	905.79
377.54	882.38
377.74	903.45
377.93	908.13
378.13	964.30
378.33	905.79
378.52	929.19
378.72	931.53
378.91	959.62
379.11	826.21
379.31	891.74
379.50	917.49
379.70	980.68
379.89	1022.81
380.09	964.30
380.28	952.60
380.48	917.49
380.68	954.94
380.87	964.30
381.07	1041.54
381.26	997.07
381.46	1015.79
381.65	978.34
381.85	980.68
382.04	1015.79
382.24	1114.10
382.43	1006.43
382.63	1004.09
382.83	1078.99
383.02	1071.97
383.22	1125.80
383.41	1062.60
383.61	1067.28
383.80	1057.92
384.00	1048.56
384.19	1088.35
384.39	1111.75
384.58	1137.50
384.78	1160.91
384.97	1151.54
385.17	1118.78
385.36	1090.69
385.56	1177.29
385.75	1111.75
385.95	1184.31
386.14	1128.14
386.34	1249.85
386.53	1163.25
386.72	1153.88
386.92	1156.22
387.11	1245.16
387.31	1259.21
387.50	1132.82
387.70	1207.72
387.89	1315.38
388.09	1313.04
388.28	1221.76
388.48	1188.99
388.67	1348.15
388.86	1287.29
389.06	1322.40
389.25	1313.04
389.45	1289.64
389.64	1273.25
389.84	1383.26
390.03	1469.86
390.22	1472.20
390.42	1280.27
390.61	1416.02
390.81	1345.81
391.00	1514.33
391.19	1432.41
391.39	1390.28
391.58	1469.86
391.78	1469.86
391.97	1441.77
392.16	1439.43
392.36	1519.01
392.55	1465.18
392.75	1523.69
392.94	1511.99
393.13	1479.22
393.33	1465.18
393.52	1586.88
393.71	1568.16
393.91	1540.07
394.10	1540.07
394.29	1554.12
394.49	1535.39
394.68	1652.42
394.88	1607.95
395.07	1696.89
395.26	1750.72
395.46	1638.38
395.65	1558.80
395.84	1724.97
396.04	1739.02
396.23	1797.53
396.42	1755.40
396.62	1753.06
396.81	1743.70
397.00	1692.21
397.19	1802.21
397.39	1844.34
397.58	1837.32
397.77	1900.52
397.97	1832.64
398.16	1799.87
398.35	1830.30
398.55	1970.73
398.74	1923.92
398.93	1952.01
399.12	1834.98
399.32	1970.73
399.51	2003.50
399.70	2040.95
399.90	2036.27
400.09	2040.95
400.28	2071.37
400.47	1980.09
400.67	2083.08
400.86	2118.18
401.05	2097.12
401.24	2094.78
401.44	2165.00
401.63	2160.31
401.82	2129.89
402.01	2015.20
402.21	2118.18
402.40	2186.06
402.59	2183.72
402.78	2214.15
402.97	2239.89
403.17	2246.91
403.36	2263.30
403.55	2244.57
403.74	2375.64
403.93	2310.11
404.13	2377.98
404.32	2335.85
404.51	2293.72
404.70	2326.49
404.89	2438.84
405.09	2513.74
405.28	2546.50
405.47	2455.22
405.66	2605.02
405.85	2424.80
406.05	2593.31
406.24	2518.42
406.43	2619.06
406.62	2562.89
406.81	2700.98
407.00	2630.76
407.20	2647.15
407.39	2567.57
407.58	2654.17
407.77	2829.71
407.96	2792.26
408.15	2663.53
408.34	2736.09
408.54	2787.58
408.73	2698.64
408.92	2724.38
409.11	2834.39
409.30	2937.37
409.49	2918.65
409.68	2899.92
409.87	3028.65
410.07	2932.69
410.26	3023.97
410.45	3038.02
410.64	3077.80
410.83	3096.53
411.02	3251.00
411.21	3255.69
411.40	3206.53
411.59	3232.28
411.78	3365.69
411.98	3267.39
412.17	3171.43
412.36	3265.05
412.55	3248.66
412.74	3398.46
412.93	3412.50
413.12	3293.13
413.31	3569.32
413.50	3632.51
413.69	3445.27
413.88	3578.68
414.07	3630.17
414.26	3648.90
414.45	3653.58
414.64	3644.21
414.83	3758.90
415.02	3852.52
415.22	3871.25
415.41	3826.78
415.60	3808.05
415.79	3829.12
415.98	3967.21
416.17	3927.42
416.36	4163.81
416.55	3971.89
416.74	4072.53
416.93	4072.53
417.12	4128.70
417.31	4093.60
417.50	4121.68
417.69	4360.42
417.88	4308.93
418.07	4308.93
418.26	4327.65
418.45	4262.12
418.64	4416.59
418.83	4365.10
419.02	4346.37
419.21	4582.77
419.39	4587.45
419.58	4491.49
419.77	4418.93
419.96	4505.53
420.15	4451.70
420.34	4582.77
420.53	4610.86
420.72	4781.71
420.91	4774.69
421.10	4737.24
421.29	4779.37
421.48	4641.28
421.67	4746.61
421.86	4805.12
422.05	4837.89
422.24	4840.23
422.43	5097.69
422.61	4959.60
422.80	4947.89
422.99	4812.14
423.18	4966.62
423.37	5048.54
423.56	4882.36
423.75	4915.12
423.94	4849.59
424.13	4615.54
424.32	4798.10
424.50	4896.40
424.69	5184.29
424.88	5053.22
425.07	4938.53
425.26	4917.47
425.45	4980.66
425.64	4971.30
425.83	5025.13
426.01	4973.64
426.20	5043.85
426.39	5046.20
426.58	5125.77
426.77	5102.37
426.96	5149.18
427.15	4997.04
427.33	5212.37
427.52	4903.42
427.71	5174.92
427.90	5263.86
428.09	5341.10
428.28	5174.92
428.46	5355.15
428.65	5324.72
428.84	5645.37
429.03	5453.45
429.22	5399.62
429.40	5394.93
429.59	5427.70
429.78	5350.46
429.97	5284.93
430.16	5593.88
430.34	5621.97
430.53	5811.55
430.72	5692.18
430.91	5741.33
431.10	5687.50
431.28	5694.52
431.47	5790.49
431.66	5921.56
431.85	5710.91
432.03	5860.70
432.22	6015.18
432.41	5933.26
432.60	5898.15
432.79	6040.92
432.97	5937.94
433.16	6122.84
433.35	6036.24
433.54	6150.93
433.72	6202.42
433.91	6139.23
434.10	6207.10
434.28	6197.74
434.47	6162.63
434.66	6263.27
434.85	6356.90
435.03	6366.26
435.22	6242.21
435.41	6459.88
435.59	6410.73
435.78	6483.28
435.97	6349.87
436.16	6494.99
436.34	6548.82
436.53	6539.46
436.72	6644.78
436.90	6525.41
437.09	6698.61
437.28	6572.22
437.46	6621.38
437.65	6548.82
437.84	6736.06
438.02	6738.40
438.21	6869.47
438.40	6775.85
438.58	7101.19
438.77	7274.38
438.96	6956.07
439.14	7066.08
439.33	7164.38
439.52	7117.57
439.70	7208.85
439.89	7342.26
440.08	7187.79
440.26	7405.46
440.45	7311.83
440.63	7440.56
440.82	7613.76
441.01	7524.82
441.19	7564.61
441.38	7618.44
441.57	7669.94
441.75	7808.03
441.94	8109.96
442.12	8023.36
442.31	8105.28
442.50	8149.75
442.68	8030.38
442.87	7990.59
443.05	8234.00
443.24	8219.96
443.43	8203.58
443.61	8180.17
443.80	8393.16
443.98	7929.74
444.17	7903.99
444.35	8304.22
444.54	8308.90
444.73	8334.65
444.91	8145.06
445.10	8334.65
445.28	8568.70
445.47	8266.77
445.65	8222.30
445.84	8606.15
446.02	8381.46
446.21	8423.59
446.39	8463.38
446.58	8456.36
446.77	8266.77
446.95	8425.93
447.14	8379.12
447.32	8561.68
447.51	8444.65
447.69	8409.54
447.88	8678.71
448.06	8517.21
448.25	8559.34
448.43	8723.18
448.62	8489.12
448.80	8636.58
448.99	8589.77
449.17	8723.18
449.36	8732.54
449.54	8807.44
449.73	8786.37
449.91	9107.02
450.10	9020.42
450.28	9097.66
450.46	9139.79
450.65	9139.79
450.83	9156.18
451.02	9315.33
451.20	9263.84
451.39	9277.88
451.57	8947.87
451.76	9160.86
451.94	9214.69
452.13	9275.54
452.31	9174.90
452.49	9022.77
452.68	9322.35
452.86	9338.74
453.05	9696.84
453.23	9401.93
453.42	9338.74
453.60	9350.44
453.78	9598.54
453.97	9453.42
454.15	9544.70
454.34	9458.10
454.52	9900.47
454.70	9785.78
454.89	9764.72
455.07	9774.08
455.26	9881.74
455.44	9956.64
455.62	9830.25
455.81	9879.40
455.99	9998.77
456.17	10155.58
456.36	9879.40
456.54	10193.03
456.73	10148.56
456.91	10555.82
457.09	10373.25
457.28	10239.84
457.46	10455.17
457.64	10778.17
457.83	10600.29
458.01	10289.00
458.19	10588.58
458.38	10576.88
458.56	10820.30
458.74	10745.40
458.93	10691.57
459.11	10703.27
459.29	10703.27
459.48	10698.59
459.66	10775.83
459.84	11021.58
460.03	11124.57
460.21	10979.45
460.39	10942.00
460.57	11042.65
460.76	10981.79
460.94	11211.17
461.12	11138.61
461.31	11080.10
461.49	11262.66
461.67	11178.40
461.85	11276.70
462.04	11286.06
462.22	11358.62
462.40	11712.04
462.59	11477.99
462.77	11562.25
462.95	11665.23
463.13	11693.32
463.32	11569.27
463.50	11651.19
463.68	11920.35
463.86	11960.14
464.05	11800.98
464.23	11934.39
464.41	12044.40
464.59	11646.51
464.78	12044.40
464.96	11896.94
465.14	11847.79
465.32	12067.80
465.50	12049.08
465.69	12133.34
465.87	12100.57
466.05	12135.68
466.23	12070.14
466.41	12257.39
466.60	12437.61
466.78	12245.68
466.96	12163.76
467.14	12423.56
467.32	12386.12
467.51	12690.38
467.69	12210.57
467.87	12589.74
468.05	12538.25
468.23	12306.54
468.41	12409.52
468.60	12608.47
468.78	12760.60
468.96	12482.08
469.14	12716.13
469.32	12847.20
469.50	12439.95
469.69	13111.68
469.87	12971.25
470.05	13102.32
470.23	13334.03
470.41	13217.01
470.59	13242.75
470.77	13383.18
470.95	13263.82
471.14	13605.53
471.32	13277.86
471.50	13635.96
471.68	13518.93
471.86	13631.28
472.04	13628.94
472.22	14263.22
472.40	14019.81
472.58	14101.73
472.77	13933.21
472.95	14214.07
473.13	14513.66
473.31	14108.75
473.49	14345.14
473.67	14122.79
473.85	14225.78
474.03	14721.97
474.21	14871.76
474.39	14764.10
474.57	14560.47
474.75	15044.96
474.93	15159.65
475.12	15051.99
475.30	15227.53
475.48	15129.22
475.66	15248.59
475.84	15363.28
476.02	15360.94
476.20	15279.02
476.38	15866.49
476.56	15960.11
476.74	15971.82
476.92	15616.05
477.10	15957.77
477.28	16067.78
477.46	16154.38
477.64	16215.23
477.82	16402.47
478.00	16933.78
478.18	16964.20
478.36	16704.40
478.54	17050.80
478.72	17165.49
478.90	17582.10
479.08	17446.35
479.26	17483.80
479.44	17720.20
479.62	17699.13
479.80	18202.35
479.98	18335.76
480.16	18815.57
480.34	18473.85
480.52	18665.77
480.70	18672.79
480.88	18757.05
481.06	18689.18
481.24	18764.07
481.41	19124.52
481.59	19538.79
481.77	19475.60
481.95	19641.78
482.13	19744.76
482.31	19726.04
482.49	20294.79
482.67	20308.83
482.85	20622.46
483.03	20734.81
483.21	20582.67
483.39	21170.15
483.57	20903.32
483.74	21514.20
483.92	21476.76
484.10	21289.51
484.28	21799.75
484.46	22082.95
484.64	22424.67
484.82	22176.58
485.00	22368.50
485.18	22628.30
485.35	23035.55
485.53	22810.86
485.71	23159.60
485.89	23616.01
486.07	23370.25
486.25	23693.24
486.43	23377.27
486.61	23967.09
486.78	24231.57
486.96	24079.43
487.14	24868.19
487.32	24723.08
487.50	25102.25
487.68	24847.13
487.85	25266.08
488.03	25874.62
488.21	26071.23
488.39	26061.87
488.57	26270.17
488.75	26127.40
488.92	26342.73
489.10	26597.85
489.28	26567.42
489.46	26909.14
489.64	27143.19
489.81	27847.69
489.99	27948.34
490.17	27737.69
490.35	28381.34
490.53	28348.57
490.70	28451.55
490.88	28170.69
491.06	28697.31
491.24	29191.16
491.41	29170.10
491.59	29535.22
491.77	29497.77
491.95	29507.13
492.13	30022.05
492.30	30213.98
492.48	29708.42
492.66	30106.31
492.84	30436.33
493.01	30808.47
493.19	30801.45
493.37	31168.91
493.54	31447.44
493.72	31674.47
493.90	31468.50
494.08	31971.72
494.25	31676.81
494.43	31672.13
494.61	32034.91
494.79	32528.77
494.96	32910.27
495.14	32781.54
495.32	33268.37
495.49	33233.27
495.67	33186.46
495.85	33605.41
496.02	33919.04
496.20	34129.69
496.38	34143.74
496.55	34251.40
496.73	34749.93
496.91	34616.52
497.09	34855.26
497.26	34813.13
497.44	34899.73
497.62	35400.60
497.79	36025.53
497.97	35374.86
498.14	35751.68
498.32	35878.07
498.50	36013.82
498.67	36678.54
498.85	36666.83
499.03	36907.91
499.20	36762.79
499.38	36861.10
499.56	36821.31
499.73	37427.51
499.91	37413.46
500.08	37743.48
500.26	37589.00
500.44	37823.06
500.61	37476.66
500.79	37460.27
500.97	38012.64
501.14	38759.27
501.32	38990.98
501.49	38637.56
501.67	38728.84
501.84	38976.94
502.02	39159.50
502.20	39241.42
502.37	39512.92
502.55	39311.64
502.72	39367.81
502.90	39498.88
503.07	39782.09
503.25	40027.84
503.43	39814.85
503.60	40048.91
503.78	40355.52
503.95	40584.89
504.13	40535.74
504.30	40531.06
504.48	41092.79
504.65	40673.83
504.83	40774.47
505.01	41738.77
505.18	41439.18
505.36	41958.78
505.53	41340.88
505.71	41659.20
505.88	41766.86
506.06	41755.16
506.23	42040.70
506.41	41748.14
506.58	42625.84
506.76	42429.23
506.93	42536.90
507.11	42288.80
507.28	42869.25
507.46	42553.28
507.63	42827.12
507.81	43328.00
507.98	43505.88
508.16	43152.46
508.33	43349.06
508.50	43540.99
508.68	43688.44
508.85	43791.42
509.03	43906.11
509.20	44114.42
509.38	44275.91
509.55	44315.70
509.73	44545.08
509.90	44535.71
510.08	44552.10
510.25	44563.80
510.42	44748.70
510.60	45008.50
510.77	45303.41
510.95	45675.55
511.12	45411.07
511.30	44947.65
511.47	45820.67
511.64	45275.32
511.82	45715.34
511.99	45823.01
512.17	46244.30
512.34	45888.54
512.51	46754.54
512.69	46691.35
512.86	46607.09
513.04	46597.73
513.21	46424.53
513.38	46419.84
513.56	46822.42
513.73	46866.89
513.90	46817.74
514.08	46937.10
514.25	47447.34
514.43	47573.73
514.60	47236.69
514.77	47157.11
514.95	47831.19
515.12	47578.41
515.29	47454.36
515.47	47885.02
515.64	48472.49
515.81	47985.66
515.99	48245.46
516.16	48638.67
516.33	48779.10
516.51	48978.05
516.68	48411.64
516.85	48816.55
517.03	48992.09
517.20	49036.56
517.37	48821.23
517.54	48844.64
517.72	49029.54
517.89	48821.23
518.06	49057.63
518.24	49666.17
518.41	49298.70
518.58	49221.47
518.75	49521.05
518.93	49855.75
519.10	49532.76
519.27	49724.68
519.45	49860.43
519.62	49841.71
519.79	50045.33
519.96	50410.46
520.14	50440.89
520.31	50052.36
520.48	50684.30
520.65	50227.90
520.83	50733.45
521.00	50674.94
521.17	50630.47
521.34	50543.87
521.52	50866.86
521.69	50899.63
521.86	50997.93
522.03	51089.21
522.20	51503.49
522.38	51554.98
522.55	51260.07
522.72	51323.27
522.89	51358.38
523.07	51452.00
523.24	51634.56
523.41	51803.08
523.58	51498.81
523.75	51852.23
523.92	51948.19
524.10	52018.41
524.27	52034.79
524.44	52069.90
524.61	52083.94
524.78	52275.87
524.96	52193.95
525.13	52179.90
525.30	52591.84
525.47	52643.33
525.64	52516.94
525.81	52734.61
525.98	52853.98
526.16	52439.70
526.33	52940.58
526.50	53146.54
526.67	53111.44
526.84	53041.22
527.01	52652.69
527.18	52886.74
527.36	53137.18
527.53	53371.24
527.70	53537.41
527.87	53195.70
528.04	53134.84
528.21	53389.96
528.38	53006.11
528.55	53556.14
528.72	53443.79
528.89	53556.14
529.07	53411.02
529.24	53357.19
529.41	53813.60
529.58	53797.21
529.75	53731.68
529.92	53963.39
530.09	53846.36
530.26	53748.06
530.43	54129.57
530.60	54099.14
530.77	53867.43
530.94	54328.52
531.11	54099.14
531.28	54204.47
531.46	54396.39
531.63	54155.32
531.80	54457.24
531.97	54482.99
532.14	54511.08
532.31	54616.40
532.48	54541.50
532.65	54691.30
532.82	54693.64
532.99	54733.43
533.16	54595.34
533.33	54990.89
533.50	55105.57
533.67	54993.23
533.84	54653.85
534.01	55044.72
534.18	54944.08
534.35	55168.77
534.52	54990.89
534.69	55484.74
534.86	55358.35
535.03	55271.75
535.20	55299.84
535.37	55416.86
535.54	55346.65
535.71	55320.90
535.88	55482.40
536.05	55447.29
536.22	55737.52
536.38	55702.41
536.55	55812.41
536.72	55587.72
536.89	55554.96
537.06	55817.10
537.23	55983.27
537.40	55718.79
537.57	55812.41
537.74	55732.84
537.91	56086.26
538.08	56081.58
538.25	55786.67
538.42	55601.77
538.59	56205.62
538.75	56229.03
538.92	56212.65
539.09	56303.93
539.26	56346.06
539.43	56222.01
539.60	56219.67
539.77	56238.39
539.94	56662.03
540.11	56062.85
540.28	56563.73
540.44	56563.73
540.61	56432.66
540.78	56413.93
540.95	56647.99
541.12	56250.09
541.29	56612.88
541.46	56580.11
541.62	56807.14
541.79	56603.52
541.96	56250.09
542.13	56582.45
542.30	56793.10
542.47	56891.40
542.63	56886.72
542.80	56987.36
542.97	57090.35
543.14	57111.41
543.31	57181.63
543.48	57233.12
543.64	57483.56
543.81	57315.04
543.98	57542.07
544.15	57352.49
544.32	57352.49
544.48	57698.89
544.65	57460.15
544.82	57558.45
544.99	57207.37
545.16	57418.02
545.32	57270.57
545.49	58042.95
545.66	57574.84
545.83	57752.72
546.00	57766.76
546.16	57832.30
546.33	57832.30
546.50	57670.80
546.67	57757.40
546.83	57565.48
547.00	57715.27
547.17	57815.91
547.34	58040.60
547.50	58157.63
547.67	58094.44
547.84	58040.60
548.00	57946.98
548.17	58307.43
548.34	58181.04
548.51	58295.72
548.67	58244.23
548.84	58164.65
549.01	58237.21
549.18	58314.45
549.34	58363.60
549.51	58454.88
549.68	58508.71
549.84	58527.44
550.01	58255.93
550.18	58354.24
550.34	58422.11
550.51	58391.68
550.68	58555.52
550.84	58382.32
551.01	58632.76
551.18	58525.10
551.34	58775.53
551.51	58700.64
551.68	58597.65
551.84	58621.06
552.01	58485.31
552.18	58925.33
552.34	58527.44
552.51	58829.37
552.68	58679.57
552.84	58644.46
553.01	58850.43
553.18	58763.83
553.34	58880.86
553.51	58845.75
553.67	58981.50
553.84	58915.96
554.01	58958.09
554.17	59269.39
554.34	59086.82
554.51	58911.28
554.67	59215.55
554.84	59061.08
555.00	59185.13
555.17	59168.74
555.33	59063.42
555.50	58993.20
555.67	59089.16
555.83	59194.49
556.00	59325.56
556.16	59306.83
556.33	59241.30
556.50	59395.77
556.66	59384.07
556.83	59250.66
556.99	59540.89
557.16	59636.85
557.32	59566.63
557.49	59866.22
557.65	59381.73
557.82	59554.93
557.98	59302.15
558.15	59461.31
558.32	59456.63
558.48	59381.73
558.65	59402.80
558.81	59304.49
558.98	59531.53
559.14	59702.38
559.31	59751.54
559.47	59796.01
559.64	59859.20
559.80	59756.22
559.97	60009.00
560.13	59753.88
560.30	59749.20
560.46	59796.01
560.63	59861.54
560.79	59707.07
560.96	59852.18
561.12	60020.70
561.29	60081.55
561.45	60104.96
561.61	59772.60
561.78	59786.64
561.94	59819.41
562.11	59861.54
562.27	59859.20
562.44	60016.02
562.60	60102.62
562.77	59999.63
562.93	59856.86
563.10	60140.07
563.26	59994.95
563.42	60299.22
563.59	60095.60
563.75	60126.02
563.92	60252.41
564.08	60168.15
564.24	60175.17
564.41	60205.60
564.57	60158.79
564.74	60154.11
564.90	60189.22
565.07	60107.30
565.23	60214.96
565.39	60133.04
565.56	60250.07
565.72	60322.63
565.88	60294.54
566.05	60315.61
566.21	60299.22
566.38	60259.43
566.54	60411.57
566.70	60381.14
566.87	60470.08
567.03	60364.76
567.19	60622.22
567.36	60434.97
567.52	60474.76
567.68	60605.83
567.85	60378.80
568.01	60500.51
568.17	60498.17
568.34	60575.40
568.50	60275.82
568.66	60458.38
568.83	60247.73
568.99	60392.84
569.15	60587.11
569.32	60310.92
569.48	60350.71
569.64	60612.85
569.81	60811.80
569.97	60512.21
570.13	60554.34
570.30	60544.98
570.46	60566.04
570.62	60701.79
570.78	60673.71
570.95	60542.64
571.11	60591.79
571.27	60601.15
571.43	60542.64
571.60	60673.71
571.76	60594.13
571.92	60645.62
572.09	60711.16
572.25	60657.32
572.41	60458.38
572.57	60650.30
572.74	60945.21
572.90	60769.67
573.06	60676.05
573.22	60931.17
573.38	60596.47
573.55	60561.36
573.71	60828.18
573.87	60757.97
574.03	60643.28
574.20	60701.79
574.36	60645.62
574.52	60772.01
574.68	60694.77
574.84	61010.74
575.01	60748.60
575.17	60652.64
575.33	60851.59
575.49	60601.15
575.65	60743.92
575.82	61020.11
575.98	60802.44
576.14	61024.79
576.30	60989.68
576.46	60757.97
576.62	60807.12
576.79	60891.38
576.95	60570.72
577.11	60821.16
577.27	60874.99
577.43	60832.86
577.59	60800.10
577.75	60818.82
577.92	60860.95
578.08	60804.78
578.24	61027.13
578.40	61062.24
578.56	60907.76
578.72	61064.58
578.88	61024.79
579.04	60963.93
579.21	60959.25
579.37	60814.14
579.53	60977.98
579.69	60846.91
579.85	60793.07
580.01	60720.52
580.17	60725.20
580.33	60940.53
580.49	61034.15
580.65	61134.79
580.82	60849.25
580.98	61078.62
581.14	60954.57
581.30	60985.00
581.46	61048.19
581.62	61045.85
581.78	60863.29
581.94	61123.09
582.10	61008.40
582.26	61064.58
582.42	61001.38
582.58	60977.98
582.74	60994.36
582.90	61006.06
583.06	61001.38
583.22	60767.33
583.38	60907.76
583.54	61024.79
583.70	61013.08
583.86	61300.97
584.02	60874.99
584.18	61083.30
584.34	61113.73
584.50	61141.81
584.66	61050.53
584.82	60797.76
584.98	61106.71
585.14	61169.90
585.30	60949.89
585.46	61062.24
585.62	61130.11
585.78	61078.62
585.94	60907.76
586.10	61020.11
586.26	60968.61
586.42	61130.11
586.58	61162.88
586.74	61307.99
586.90	61045.85
587.06	61167.56
587.22	61289.27
587.38	61216.71
587.54	61408.64
587.70	61312.67
587.86	60917.12
588.02	61165.22
588.18	61176.92
588.34	61305.65
588.49	60977.98
