SpectraSuite Data File
++++++++++++++++++++++++++++++++++++
Date: Fri Oct 25 11:25:26 EDT 2013
User: price-jones
Dark Spectrum Present: No
Reference Spectrum Present: No
Number of Sampled Component Spectra: 1
Spectrometers: USB2+H05261
Integration Time (usec): 100000 (USB2+H05261)
Spectra Averaged: 1 (USB2+H05261)
Boxcar Smoothing: 0 (USB2+H05261)
Correct for Electrical Dark: No (USB2+H05261)
Strobe/Lamp Enabled: No (USB2+H05261)
Correct for Detector Non-linearity: No (USB2+H05261)
Correct for Stray Light: No (USB2+H05261)
Number of Pixels in Processed Spectrum: 2048
>>>>>Begin Processed Spectral Data<<<<<
365.73	184.90
365.92	184.90
366.12	184.90
366.32	163.84
366.52	135.75
366.72	126.39
366.91	133.41
367.11	156.82
367.31	102.98
367.51	79.58
367.70	138.09
367.90	121.71
368.10	93.62
368.30	180.22
368.49	182.56
368.69	126.39
368.89	140.43
369.09	159.16
369.28	222.35
369.48	203.63
369.68	191.92
369.87	138.09
370.07	198.95
370.27	236.39
370.47	322.99
370.66	580.45
370.86	547.69
371.06	669.39
371.25	716.20
371.45	711.52
371.65	671.73
371.84	674.07
372.04	704.50
372.24	653.01
372.44	678.76
372.63	683.44
372.83	765.36
373.03	758.33
373.22	772.38
373.42	805.14
373.62	772.38
373.81	758.33
374.01	760.67
374.21	781.74
374.40	856.64
374.60	791.10
374.79	837.91
374.99	753.65
375.19	816.85
375.38	802.80
375.58	833.23
375.78	868.34
375.97	861.32
376.17	884.72
376.37	863.66
376.56	912.81
376.76	940.90
376.95	929.19
377.15	828.55
377.35	901.11
377.54	866.00
377.74	830.89
377.93	819.19
378.13	910.47
378.33	971.32
378.52	873.02
378.72	973.66
378.91	931.53
379.11	940.90
379.31	945.58
379.50	915.15
379.70	987.71
379.89	994.73
380.09	968.98
380.28	997.07
380.48	1004.09
380.68	1018.13
380.87	957.28
381.07	1046.22
381.26	1053.24
381.46	1001.75
381.65	1048.56
381.85	997.07
382.04	985.37
382.24	1095.37
382.43	1034.52
382.63	1025.15
382.83	1027.50
383.02	1172.61
383.22	1100.05
383.41	1018.13
383.61	1163.25
383.80	1165.59
384.00	1088.35
384.19	1027.50
384.39	1088.35
384.58	1128.14
384.78	1226.44
384.97	1203.04
385.17	1191.33
385.36	1149.20
385.56	1160.91
385.75	1188.99
385.95	1186.65
386.14	1181.97
386.34	1219.42
386.53	1256.87
386.72	1301.34
386.92	1275.59
387.11	1203.04
387.31	1273.25
387.50	1172.61
387.70	1303.68
387.89	1296.66
388.09	1254.53
388.28	1294.32
388.48	1329.42
388.67	1235.80
388.86	1341.13
389.06	1280.27
389.25	1392.62
389.45	1299.00
389.64	1306.02
389.84	1390.28
390.03	1350.49
390.22	1383.26
390.42	1378.58
390.61	1369.21
390.81	1394.96
391.00	1284.95
391.19	1446.45
391.39	1486.24
391.58	1465.18
391.78	1409.00
391.97	1460.49
392.16	1434.75
392.36	1509.65
392.55	1425.39
392.75	1455.81
392.94	1455.81
393.13	1556.46
393.33	1493.26
393.52	1612.63
393.71	1572.84
393.91	1521.35
394.10	1446.45
394.29	1582.20
394.49	1570.50
394.68	1591.56
394.88	1631.35
395.07	1547.09
395.26	1673.48
395.46	1717.95
395.65	1701.57
395.84	1568.16
396.04	1732.00
396.23	1701.57
396.42	1769.44
396.62	1839.66
396.81	1734.34
397.00	1739.02
397.19	1764.76
397.39	1809.23
397.58	1799.87
397.77	1879.45
397.97	1736.68
398.16	1830.30
398.35	1888.81
398.55	1863.07
398.74	1886.47
398.93	1998.82
399.12	1928.60
399.32	1989.46
399.51	1827.96
399.70	2045.63
399.90	1916.90
400.09	2026.90
400.28	2015.20
400.47	2040.95
400.67	2104.14
400.86	2176.70
401.05	2040.95
401.24	2043.29
401.44	2059.67
401.63	1966.05
401.82	2057.33
402.01	2080.74
402.21	2113.50
402.40	2186.06
402.59	2176.70
402.78	2197.76
402.97	2275.00
403.17	2225.85
403.36	2181.38
403.55	2277.34
403.74	2401.39
403.93	2396.71
404.13	2403.73
404.32	2333.51
404.51	2307.77
404.70	2387.35
404.89	2466.92
405.09	2485.65
405.28	2504.37
405.47	2530.12
405.66	2333.51
405.85	2567.57
406.05	2513.74
406.24	2509.05
406.43	2487.99
406.62	2574.59
406.81	2579.27
407.00	2555.86
407.20	2555.86
407.39	2600.34
407.58	2583.95
407.77	2665.87
407.96	2647.15
408.15	2836.73
408.34	2576.93
408.54	2729.06
408.73	2773.53
408.92	2621.40
409.11	2822.69
409.30	2972.48
409.49	2771.19
409.68	2853.11
409.87	2904.60
410.07	2970.14
410.26	2930.35
410.45	2944.39
410.64	2984.18
410.83	3016.95
411.02	3075.46
411.21	3258.03
411.40	3110.57
411.59	3190.15
411.78	3108.23
411.98	3094.19
412.17	3197.17
412.36	3295.47
412.55	3368.03
412.74	3316.54
412.93	3449.95
413.12	3288.45
413.31	3538.89
413.50	3442.93
413.69	3641.87
413.88	3578.68
414.07	3543.57
414.26	3669.96
414.45	3527.19
414.64	3630.17
414.83	3662.94
415.02	3749.54
415.22	3740.18
415.41	3854.86
415.60	3777.62
415.79	3770.60
415.98	3946.14
416.17	3920.40
416.36	3878.27
416.55	4011.68
416.74	4004.66
416.93	4004.66
417.12	3906.35
417.31	4173.18
417.50	4166.15
417.69	4217.65
417.88	4299.56
418.07	4259.78
418.26	4163.81
418.45	4234.03
418.64	4365.10
418.83	4365.10
419.02	4290.20
419.21	4524.26
419.39	4442.34
419.58	4353.40
419.77	4461.06
419.96	4629.58
420.15	4458.72
420.34	4578.09
420.53	4538.30
420.72	4634.26
420.91	4641.28
421.10	4823.84
421.29	4807.46
421.48	4734.90
421.67	4627.24
421.86	4685.75
422.05	4732.56
422.24	4704.48
422.43	4910.44
422.61	4968.96
422.80	4919.81
422.99	4908.10
423.18	4861.29
423.37	4997.04
423.56	5032.15
423.75	4985.34
423.94	4746.61
424.13	4571.07
424.32	4861.29
424.50	4800.44
424.69	4992.36
424.88	4943.21
425.07	4987.68
425.26	4812.14
425.45	4816.82
425.64	4844.91
425.83	4922.15
426.01	5078.96
426.20	5004.07
426.39	4926.83
426.58	4978.32
426.77	4957.25
426.96	5153.86
427.15	5137.48
427.33	5334.08
427.52	5167.90
427.71	5270.89
427.90	5158.54
428.09	5167.90
428.28	5228.76
428.46	5151.52
428.65	5329.40
428.84	5504.94
429.03	5437.06
429.22	5416.00
429.40	5423.02
429.59	5507.28
429.78	5336.42
429.97	5198.33
430.16	5378.55
430.34	5441.75
430.53	5577.50
430.72	5689.84
430.91	5668.78
431.10	5521.32
431.28	5472.17
431.47	5708.57
431.66	5678.14
431.85	5521.32
432.03	5799.85
432.22	5886.45
432.41	5771.76
432.60	5905.17
432.79	5940.28
432.97	5830.27
433.16	5951.98
433.35	6031.56
433.54	6073.69
433.72	6108.80
433.91	6118.16
434.10	6083.05
434.28	6153.27
434.47	6239.87
434.66	6176.67
434.85	6209.44
435.03	6319.45
435.22	6258.59
435.41	6450.52
435.59	6305.40
435.78	6321.79
435.97	6333.49
436.16	6338.17
436.34	6277.32
436.53	6478.60
436.72	6565.20
436.90	6452.86
437.09	6579.25
437.28	6485.62
437.46	6612.01
437.65	6654.14
437.84	6726.70
438.02	6705.63
438.21	6665.85
438.40	6469.24
438.58	6942.03
438.77	6981.82
438.96	6857.77
439.14	7047.35
439.33	7145.66
439.52	7145.66
439.70	7185.44
439.89	7286.09
440.08	7246.30
440.26	7272.04
440.45	7094.16
440.63	7419.50
440.82	7595.04
441.01	7454.61
441.19	7569.29
441.38	7595.04
441.57	7630.15
441.75	7887.61
441.94	8030.38
442.12	7756.54
442.31	7843.14
442.50	7899.31
442.68	7826.75
442.87	7836.11
443.05	7786.96
443.24	8203.58
443.43	8205.92
443.61	8016.33
443.80	8411.89
443.98	7861.86
444.17	7691.00
444.35	8018.68
444.54	8255.07
444.73	8250.39
444.91	8032.72
445.10	8243.37
445.28	8273.79
445.47	8049.10
445.65	8339.33
445.84	8299.54
446.02	8400.18
446.21	8545.30
446.39	8332.31
446.58	8468.06
446.77	8287.84
446.95	8121.66
447.14	8262.09
447.32	8360.39
447.51	8383.80
447.69	8423.59
447.88	8489.12
448.06	8500.83
448.25	8489.12
448.43	8610.83
448.62	8519.55
448.80	8402.52
448.99	8549.98
449.17	8638.92
449.36	8421.25
449.54	8762.97
449.73	9172.56
449.91	9046.17
450.10	8908.08
450.28	8849.57
450.46	9057.87
450.65	9074.26
450.83	9083.62
451.02	8936.17
451.20	9165.54
451.39	9114.05
451.57	9006.38
451.76	9020.42
451.94	9048.51
452.13	9235.75
452.31	9018.08
452.49	8938.51
452.68	9200.65
452.86	9301.29
453.05	9261.50
453.23	9362.14
453.42	9114.05
453.60	9142.13
453.78	9465.13
453.97	9249.80
454.15	9268.52
454.34	9245.12
454.52	9455.76
454.70	9703.86
454.89	9537.68
455.07	9680.46
455.26	9841.95
455.44	9935.57
455.62	9762.37
455.81	10012.81
455.99	9748.33
456.17	9865.36
456.36	9940.26
456.54	10272.61
456.73	10218.78
456.91	10375.59
457.09	10289.00
457.28	10539.43
457.46	10209.42
457.64	10553.48
457.83	10569.86
458.01	10375.59
458.19	10565.18
458.38	10403.68
458.56	10537.09
458.74	10588.58
458.93	10691.57
459.11	10841.36
459.29	10719.65
459.48	10705.61
459.66	10747.74
459.84	10745.40
460.03	10885.83
460.21	10808.59
460.39	10979.45
460.57	11068.39
460.76	11023.92
460.94	11035.63
461.12	11094.14
461.31	11019.24
461.49	11028.60
461.67	11126.91
461.85	11365.64
462.04	11199.46
462.22	11658.21
462.40	11545.86
462.59	11206.48
462.77	11351.60
462.95	11412.45
463.13	11419.47
463.32	11559.91
463.50	11637.14
463.68	11665.23
463.86	11903.96
464.05	11538.84
464.23	11698.00
464.41	11850.13
464.59	11545.86
464.78	12035.03
464.96	11866.52
465.14	11786.94
465.32	11936.73
465.50	11784.60
465.69	12205.89
465.87	12091.21
466.05	11733.11
466.23	12170.79
466.41	12205.89
466.60	12233.98
466.78	11932.05
466.96	12121.63
467.14	12070.14
467.32	12346.33
467.51	12386.12
467.69	12037.38
467.87	12367.39
468.05	12582.72
468.23	12351.01
468.41	12376.75
468.60	12615.49
468.78	12751.24
468.96	12414.20
469.14	12601.44
469.32	12840.18
469.50	12980.61
469.69	12898.69
469.87	12954.87
470.05	12996.99
470.23	13092.96
470.41	13046.15
470.59	13263.82
470.77	13184.24
470.95	13137.43
471.14	13348.08
471.32	12877.63
471.50	13355.10
471.68	13525.96
471.86	13404.25
472.04	13680.43
472.22	13935.55
472.40	13673.41
472.58	13614.90
472.77	13898.10
472.95	14111.09
473.13	14532.39
473.31	13947.25
473.49	13987.04
473.67	13858.31
473.85	14122.79
474.03	14459.83
474.21	14270.25
474.39	14518.34
474.57	14530.05
474.75	14647.07
474.93	14981.77
475.12	14551.11
475.30	14991.13
475.48	14839.00
475.66	15049.64
475.84	15089.43
476.02	15164.33
476.20	15110.50
476.38	15782.23
476.56	15826.70
476.74	15690.95
476.92	15765.85
477.10	15651.16
477.28	15976.50
477.46	15903.94
477.64	16037.35
477.82	16519.50
478.00	16542.91
478.18	16542.91
478.36	16744.19
478.54	16959.52
478.72	17219.32
478.90	17156.13
479.08	17394.86
479.26	17614.87
479.44	17568.06
479.62	17869.99
479.80	17984.68
479.98	18162.56
480.16	18139.15
480.34	18153.20
480.52	18279.58
480.70	18537.04
480.88	17965.95
481.06	18766.42
481.24	18560.45
481.41	18897.49
481.59	18944.30
481.77	19264.95
481.95	19211.12
482.13	19290.70
482.31	19236.86
482.49	19812.63
482.67	20224.57
482.85	20189.46
483.03	20383.73
483.21	20472.67
483.39	20807.36
483.57	20662.25
483.74	21036.74
483.92	21188.87
484.10	21268.45
484.28	21769.32
484.46	22059.55
484.64	21923.80
484.82	21816.13
485.00	22146.15
485.18	22487.87
485.35	22883.42
485.53	22349.78
485.71	22719.58
485.89	23030.87
486.07	23192.37
486.25	22972.36
486.43	23349.18
486.61	23562.17
486.78	23845.38
486.96	23955.38
487.14	24489.03
487.32	24430.51
487.50	24451.58
487.68	24659.88
487.85	25001.60
488.03	25373.75
488.21	25469.71
488.39	25621.84
488.57	25823.13
488.75	25876.96
488.92	26167.19
489.10	26572.10
489.28	26235.06
489.46	27028.51
489.64	26403.58
489.81	27810.25
489.99	27285.97
490.17	27402.99
490.35	28032.60
490.53	28030.26
490.70	28180.05
490.88	27873.44
491.06	28879.87
491.24	28987.53
491.41	28341.55
491.59	28781.57
491.77	28975.83
491.95	29422.87
492.13	29619.48
492.30	29633.52
492.48	29783.32
492.66	30078.22
492.84	30415.26
493.01	30387.18
493.19	30654.00
493.37	30696.13
493.54	30909.11
493.72	31353.82
493.90	31267.22
494.08	31412.33
494.25	31260.20
494.43	31587.87
494.61	31955.33
494.79	32034.91
494.96	32308.76
495.14	32594.30
495.32	32877.51
495.49	32524.08
495.67	32877.51
495.85	33146.67
496.02	33715.42
496.20	33462.64
496.38	33570.30
496.55	33942.45
496.73	34574.39
496.91	33897.98
497.09	34366.09
497.26	34628.23
497.44	34890.37
497.62	34574.39
497.79	35597.21
497.97	34953.56
498.14	35791.47
498.32	35688.49
498.50	36147.23
498.67	36081.70
498.85	35910.84
499.03	36240.86
499.20	36528.74
499.38	36203.41
499.56	36692.58
499.73	36800.24
499.91	37067.06
500.08	37511.77
500.26	37378.36
500.44	37104.51
500.61	37109.19
500.79	37146.64
500.97	37937.74
501.14	38136.69
501.32	37801.99
501.49	38258.40
501.67	38724.16
501.84	38595.43
502.02	38391.81
502.20	38635.22
502.37	39030.77
502.55	38888.00
502.72	39194.61
502.90	39473.13
503.07	39309.30
503.25	39112.69
503.43	39115.03
503.60	39714.21
503.78	39908.47
503.95	39695.49
504.13	39988.05
504.30	40591.91
504.48	40053.59
504.65	40528.72
504.83	40521.69
505.01	40713.62
505.18	40790.86
505.36	41268.33
505.53	40821.28
505.71	41071.72
505.88	41614.72
506.06	41324.50
506.23	41626.43
506.41	41591.32
506.58	41471.95
506.76	41439.18
506.93	41916.65
507.11	42064.11
507.28	42361.36
507.46	42021.98
507.63	42433.91
507.81	43363.11
507.98	42508.81
508.16	43023.73
508.33	43283.53
508.50	43065.86
508.68	43260.12
508.85	43728.23
509.03	43529.28
509.20	43765.68
509.38	44140.16
509.55	43784.40
509.73	44280.60
509.90	44030.16
510.08	44360.17
510.25	44315.70
510.42	44355.49
510.60	44938.29
510.77	44697.21
510.95	44758.06
511.12	44690.19
511.30	44252.51
511.47	44875.09
511.64	45471.93
511.82	45708.32
511.99	45675.55
512.17	45638.11
512.34	45331.50
512.51	45895.56
512.69	45911.95
512.86	45429.80
513.04	46358.99
513.21	46241.96
513.38	46120.26
513.56	46284.09
513.73	46492.40
513.90	46522.83
514.08	46263.03
514.25	46719.43
514.43	46995.62
514.60	47035.41
514.77	47164.14
514.95	47283.50
515.12	47084.56
515.29	47114.98
515.47	47409.89
515.64	47749.27
515.81	47875.66
515.99	47976.30
516.16	48095.67
516.33	47765.65
516.51	48521.65
516.68	47915.45
516.85	48009.07
517.03	48308.66
517.20	48355.47
517.37	48465.47
517.54	48222.06
517.72	48472.49
517.89	48580.16
518.06	48837.62
518.24	48774.42
518.41	48900.81
518.58	49249.55
518.75	48797.83
518.93	49350.20
519.10	49069.33
519.27	49504.67
519.45	49455.52
519.62	49205.08
519.79	49333.81
519.96	49542.12
520.14	49642.76
520.31	49827.66
520.48	49970.44
520.65	49975.12
520.83	50115.55
521.00	50342.58
521.17	50307.47
521.34	50457.27
521.52	50447.91
521.69	50384.71
521.86	50176.40
522.03	50731.11
522.20	50990.91
522.38	50494.72
522.55	51011.98
522.72	51119.64
522.89	50986.23
523.07	51145.39
523.24	51409.87
523.41	51594.77
523.58	50880.91
523.75	51473.06
523.92	51217.94
524.10	51615.83
524.27	51557.32
524.44	51826.48
524.61	51664.99
524.78	51543.28
524.96	52076.92
525.13	51819.46
525.30	52062.88
525.47	52266.50
525.64	52261.82
525.81	52388.21
525.98	52442.04
526.16	52299.27
526.33	52411.62
526.50	52545.03
526.67	52280.55
526.84	52718.23
527.01	52776.74
527.18	52786.10
527.36	52589.50
527.53	52589.50
527.70	53235.48
527.87	52921.85
528.04	52828.23
528.21	52994.41
528.38	53116.12
528.55	53212.08
528.72	52987.39
528.89	53027.18
529.07	53174.63
529.24	52900.79
529.41	53158.25
529.58	53347.83
529.75	53591.25
529.92	53186.33
530.09	53319.74
530.26	53773.81
530.43	53502.31
530.60	53586.57
530.77	53638.06
530.94	53624.01
531.11	53654.44
531.28	53612.31
531.46	53560.82
531.63	53745.72
531.80	53900.20
531.97	54152.97
532.14	54174.04
532.31	53977.43
532.48	53970.41
532.65	54518.10
532.82	54248.94
532.99	54431.50
533.16	54358.94
533.33	54532.14
533.50	54618.74
533.67	54482.99
533.84	54251.28
534.01	54672.57
534.18	54513.42
534.35	55089.19
534.52	54707.68
534.69	55040.04
534.86	55117.28
535.03	54747.47
535.20	54862.16
535.37	55182.81
535.54	55136.00
535.71	55033.02
535.88	55182.81
536.05	55033.02
536.22	55121.96
536.38	55267.07
536.55	55150.04
536.72	55356.01
536.89	55145.36
537.06	55508.14
537.23	55304.52
537.40	55164.09
537.57	55650.92
537.74	55494.10
537.91	55716.45
538.08	55992.64
538.25	55625.17
538.42	55629.85
538.59	55882.63
538.75	55664.96
538.92	56009.02
539.09	55931.78
539.26	55639.22
539.43	55870.93
539.60	55997.32
539.77	55929.44
539.94	56128.39
540.11	55987.95
540.28	56287.54
540.44	55889.65
540.61	56247.75
540.78	56032.42
540.95	56261.80
541.12	56027.74
541.29	56172.86
541.46	56336.69
541.62	56416.27
541.79	56474.79
541.96	55990.30
542.13	56320.31
542.30	56411.59
542.47	56446.70
542.63	56762.67
542.80	56587.13
542.97	56905.44
543.14	56945.23
543.31	56750.97
543.48	56893.74
543.64	57223.76
543.81	56952.26
543.98	56905.44
544.15	57113.75
544.32	57212.06
544.48	57441.43
544.65	56921.83
544.82	57256.53
544.99	56842.25
545.16	57275.25
545.32	57155.88
545.49	57539.73
545.66	57523.35
545.83	57249.50
546.00	57317.38
546.16	57513.98
546.33	57165.24
546.50	57425.04
546.67	57556.11
546.83	57198.01
547.00	57621.65
547.17	57614.63
547.34	57502.28
547.50	57654.42
547.67	57841.66
547.84	57670.80
548.00	57911.88
548.17	57909.53
548.34	57813.57
548.51	57942.30
548.67	58042.95
548.84	57813.57
549.01	57937.62
549.18	58108.48
549.34	57865.06
549.51	58073.37
549.68	58225.51
549.84	58316.79
550.01	58101.46
550.18	57954.00
550.34	58314.45
550.51	58113.16
550.68	58349.56
550.84	58082.73
551.01	58370.62
551.18	57998.48
551.34	58272.32
551.51	58604.67
551.68	58408.07
551.84	58291.04
552.01	58265.30
552.18	58358.92
552.34	58433.81
552.51	58422.11
552.68	58258.27
552.84	58454.88
553.01	58653.82
553.18	58417.43
553.34	58618.72
553.51	58464.24
553.67	58590.63
553.84	58871.49
554.01	58738.08
554.17	58670.21
554.34	58686.59
554.51	58604.67
554.67	58791.92
554.84	58658.51
555.00	58667.87
555.17	58899.58
555.33	58883.20
555.50	58529.78
555.67	58660.85
555.83	58887.88
556.00	59098.53
556.16	58953.41
556.33	59093.85
556.50	58597.65
556.66	59035.33
556.83	58827.02
556.99	59363.01
557.16	59185.13
557.32	59208.53
557.49	59487.06
557.65	58979.16
557.82	59194.49
557.98	59093.85
558.15	59372.37
558.32	59182.79
558.48	59131.29
558.65	59327.90
558.81	59510.46
558.98	59253.00
559.14	59187.47
559.31	59372.37
559.47	59395.77
559.64	59248.32
559.80	59367.69
559.97	59643.87
560.13	59414.50
560.30	59398.12
560.46	59395.77
560.63	59377.05
560.79	59360.67
560.96	59620.47
561.12	59447.27
561.29	59678.98
561.45	59632.17
561.61	59770.26
561.78	59690.68
561.94	59599.40
562.11	59707.07
562.27	59604.08
562.44	59777.28
562.60	59863.88
562.77	59788.98
562.93	59599.40
563.10	60041.76
563.26	59601.74
563.42	60046.44
563.59	59906.01
563.75	59695.36
563.92	59742.17
564.08	59924.74
564.24	59721.11
564.41	59840.48
564.57	59913.03
564.74	59920.05
564.90	59938.78
565.07	59714.09
565.23	59814.73
565.39	59997.29
565.56	59817.07
565.72	60048.78
565.88	59866.22
566.05	59875.58
566.21	59877.93
566.38	59920.05
566.54	59877.93
566.70	60097.94
566.87	60243.05
567.03	59788.98
567.19	60175.17
567.36	59959.84
567.52	60243.05
567.68	60385.82
567.85	60140.07
568.01	60126.02
568.17	60074.53
568.34	60250.07
568.50	60116.66
568.66	60001.97
568.83	60236.03
568.99	60107.30
569.15	60198.58
569.32	60109.64
569.48	60292.20
569.64	60184.54
569.81	60062.83
569.97	59962.18
570.13	60128.36
570.30	60369.44
570.46	60107.30
570.62	60348.37
570.78	60364.76
570.95	60163.47
571.11	60418.59
571.27	60289.86
571.43	60257.09
571.60	60240.71
571.76	60371.78
571.92	60046.44
572.09	60271.14
572.25	60317.95
572.41	60329.65
572.57	60231.35
572.74	60622.22
572.90	60282.84
573.06	60397.52
573.22	60465.40
573.38	60650.30
573.55	60434.97
573.71	60591.79
573.87	60580.09
574.03	60238.37
574.20	60580.09
574.36	60420.93
574.52	60725.20
574.68	60654.98
574.84	60603.49
575.01	60533.28
575.17	60425.61
575.33	60580.09
575.49	60388.16
575.65	60488.80
575.82	60439.65
575.98	60472.42
576.14	60587.11
576.30	60376.46
576.46	60254.75
576.62	60512.21
576.79	60598.81
576.95	60439.65
577.11	60650.30
577.27	60657.32
577.43	60605.83
577.59	60463.06
577.75	60530.93
577.92	60521.57
578.08	60711.16
578.24	60364.76
578.40	60853.93
578.56	60928.83
578.72	60547.32
578.88	60764.99
579.04	60753.29
579.21	60783.71
579.37	60692.43
579.53	60823.50
579.69	60322.63
579.85	60584.77
580.01	60633.92
580.17	60617.53
580.33	60619.88
580.49	60807.12
580.65	60664.35
580.82	60692.43
580.98	60722.86
581.14	60523.91
581.30	60697.11
581.46	60802.44
581.62	60676.05
581.78	60542.64
581.94	60835.20
582.10	60697.11
582.26	60741.58
582.42	60530.93
582.58	60645.62
582.74	60666.69
582.90	60722.86
583.06	60643.28
583.22	60664.35
583.38	60654.98
583.54	60746.26
583.70	60587.11
583.86	60736.90
584.02	60587.11
584.18	60898.40
584.34	60577.75
584.50	60786.05
584.66	60720.52
584.82	60577.75
584.98	60823.50
585.14	60793.07
585.30	60788.39
585.46	60629.24
585.62	60842.23
585.78	61064.58
585.94	60619.88
586.10	60678.39
586.26	60807.12
586.42	60748.60
586.58	60940.53
586.74	60781.37
586.90	60561.36
587.06	60825.84
587.22	60891.38
587.38	60741.58
587.54	60898.40
587.70	60996.70
587.86	60706.47
588.02	60788.39
588.18	60867.97
588.34	60882.02
588.49	60926.49
