SpectraSuite Data File
++++++++++++++++++++++++++++++++++++
Date: Fri Oct 25 10:47:56 EDT 2013
User: price-jones
Dark Spectrum Present: No
Reference Spectrum Present: No
Number of Sampled Component Spectra: 1
Spectrometers: USB2+H05261
Integration Time (usec): 100000 (USB2+H05261)
Spectra Averaged: 1 (USB2+H05261)
Boxcar Smoothing: 0 (USB2+H05261)
Correct for Electrical Dark: No (USB2+H05261)
Strobe/Lamp Enabled: No (USB2+H05261)
Correct for Detector Non-linearity: No (USB2+H05261)
Correct for Stray Light: No (USB2+H05261)
Number of Pixels in Processed Spectrum: 2048
>>>>>Begin Processed Spectral Data<<<<<
365.73	161.50
365.92	161.50
366.12	161.50
366.32	4.68
366.52	21.06
366.72	39.79
366.91	0.00
367.11	0.00
367.31	86.60
367.51	88.94
367.70	65.54
367.90	28.09
368.10	0.00
368.30	2.34
368.49	65.54
368.69	145.11
368.89	70.22
369.09	91.28
369.28	91.28
369.48	63.19
369.68	117.03
369.87	117.03
370.07	110.01
370.27	110.01
370.47	248.10
370.66	374.49
370.86	404.91
371.06	411.93
371.25	468.11
371.45	472.79
371.65	472.79
371.84	430.66
372.04	505.56
372.24	493.85
372.44	486.83
372.63	503.22
372.83	538.32
373.03	416.62
373.22	451.72
373.42	491.51
373.62	477.47
373.81	510.24
374.01	479.81
374.21	545.34
374.40	594.50
374.60	557.05
374.79	564.07
374.99	550.03
375.19	589.82
375.38	601.52
375.58	533.64
375.78	608.54
375.97	575.77
376.17	594.50
376.37	617.90
376.56	627.26
376.76	578.11
376.95	535.98
377.15	620.24
377.35	662.37
377.54	645.99
377.74	594.50
377.93	528.96
378.13	566.41
378.33	645.99
378.52	608.54
378.72	634.29
378.91	671.73
379.11	615.56
379.31	470.45
379.50	617.90
379.70	648.33
379.89	664.71
380.09	650.67
380.28	580.45
380.48	690.46
380.68	606.20
380.87	575.77
381.07	613.22
381.26	655.35
381.46	648.33
381.65	638.97
381.85	608.54
382.04	690.46
382.24	692.80
382.43	688.12
382.63	671.73
382.83	662.37
383.02	657.69
383.22	650.67
383.41	732.59
383.61	725.57
383.80	746.63
384.00	791.10
384.19	636.63
384.39	763.01
384.58	688.12
384.78	709.18
384.97	744.29
385.17	770.04
385.36	725.57
385.56	833.23
385.75	737.27
385.95	763.01
386.14	798.12
386.34	751.31
386.53	748.97
386.72	835.57
386.92	784.08
387.11	779.40
387.31	830.89
387.50	791.10
387.70	805.14
387.89	819.19
388.09	732.59
388.28	880.04
388.48	828.55
388.67	889.40
388.86	866.00
389.06	898.77
389.25	926.85
389.45	908.13
389.64	800.46
389.84	966.64
390.03	940.90
390.22	887.06
390.42	908.13
390.61	896.43
390.81	912.81
391.00	929.19
391.19	971.32
391.39	950.26
391.58	985.37
391.78	997.07
391.97	959.62
392.16	940.90
392.36	971.32
392.55	1020.47
392.75	1015.79
392.94	990.05
393.13	945.58
393.33	929.19
393.52	926.85
393.71	1069.62
393.91	1020.47
394.10	945.58
394.29	978.34
394.49	990.05
394.68	1128.14
394.88	1090.69
395.07	1139.84
395.26	1130.48
395.46	1121.12
395.65	1177.29
395.84	1125.80
396.04	1217.08
396.23	1088.35
396.42	1109.41
396.62	1102.39
396.81	1053.24
397.00	1179.63
397.19	1198.35
397.39	1240.48
397.58	1198.35
397.77	1249.85
397.97	1165.59
398.16	1252.19
398.35	1221.76
398.55	1224.10
398.74	1439.43
398.93	1444.11
399.12	1366.87
399.32	1313.04
399.51	1392.62
399.70	1369.21
399.90	1352.83
400.09	1355.17
400.28	1334.11
400.47	1493.26
400.67	1479.22
400.86	1502.62
401.05	1427.73
401.24	1425.39
401.44	1481.56
401.63	1476.88
401.82	1549.43
402.01	1511.99
402.21	1448.79
402.40	1554.12
402.59	1549.43
402.78	1544.75
402.97	1490.92
403.17	1486.24
403.36	1568.16
403.55	1666.46
403.74	1647.74
403.93	1586.88
404.13	1586.88
404.32	1626.67
404.51	1645.40
404.70	1710.93
404.89	1638.38
405.09	1790.51
405.28	1764.76
405.47	1720.29
405.66	1755.40
405.85	1713.27
406.05	1671.14
406.24	1797.53
406.43	1874.77
406.62	1942.64
406.81	1916.90
407.00	1748.38
407.20	1804.55
407.39	1764.76
407.58	1968.39
407.77	1830.30
407.96	1877.11
408.15	1933.28
408.34	1909.88
408.54	2064.35
408.73	1963.71
408.92	2064.35
409.11	1961.37
409.30	2017.54
409.49	2087.76
409.68	2026.90
409.87	1994.14
410.07	2115.84
410.26	2111.16
410.45	2097.12
410.64	2083.08
410.83	2085.42
411.02	2197.76
411.21	2251.60
411.40	2223.51
411.59	2300.75
411.78	2186.06
411.98	2265.64
412.17	2373.30
412.36	2492.67
412.55	2352.24
412.74	2401.39
412.93	2480.97
413.12	2504.37
413.31	2537.14
413.50	2518.42
413.69	2476.29
413.88	2523.10
414.07	2466.92
414.26	2597.99
414.45	2621.40
414.64	2745.45
414.83	2600.34
415.02	2736.09
415.22	2649.49
415.41	2782.90
415.60	2740.77
415.79	2818.00
415.98	2960.78
416.17	2981.84
416.36	2846.09
416.55	2810.98
416.74	2909.29
416.93	2942.05
417.12	2928.01
417.31	3030.99
417.50	3103.55
417.69	3115.25
417.88	3150.36
418.07	3030.99
418.26	2998.23
418.45	3047.38
418.64	3183.13
418.83	3227.60
419.02	3159.72
419.21	3080.14
419.39	3272.07
419.58	3166.74
419.77	3302.50
419.96	3300.16
420.15	3412.50
420.34	3290.79
420.53	3255.69
420.72	3246.32
420.91	3316.54
421.10	3403.14
421.29	3548.25
421.48	3400.80
421.67	3410.16
421.86	3372.71
422.05	3442.93
422.24	3482.72
422.43	3344.63
422.61	3412.50
422.80	3421.86
422.99	3538.89
423.18	3487.40
423.37	3651.24
423.56	3358.67
423.75	3571.66
423.94	3361.01
424.13	3279.09
424.32	3330.58
424.50	3595.06
424.69	3602.08
424.88	3534.21
425.07	3604.42
425.26	3578.68
425.45	3485.06
425.64	3370.37
425.83	3566.98
426.01	3644.21
426.20	3426.54
426.39	3681.66
426.58	3592.72
426.77	3569.32
426.96	3625.49
427.15	3538.89
427.33	3681.66
427.52	3581.02
427.71	3618.47
427.90	3698.05
428.09	3674.64
428.28	3693.37
428.46	3861.88
428.65	3850.18
428.84	3871.25
429.03	3782.31
429.22	3686.34
429.40	3953.16
429.59	3815.07
429.78	3705.07
429.97	3667.62
430.16	3688.68
430.34	3747.20
430.53	3859.54
430.72	3815.07
430.91	3815.07
431.10	3868.91
431.28	4002.32
431.47	4058.49
431.66	4177.86
431.85	4074.87
432.03	4238.71
432.22	4194.24
432.41	4196.58
432.60	4219.99
432.79	4348.72
432.97	4337.01
433.16	4210.62
433.35	4222.33
433.54	4306.59
433.72	4269.14
433.91	4322.97
434.10	4280.84
434.28	4203.60
434.47	4334.67
434.66	4510.21
434.85	4444.68
435.03	4442.34
435.22	4390.84
435.41	4664.69
435.59	4383.82
435.78	4573.41
435.97	4603.83
436.16	4472.76
436.34	4627.24
436.53	4652.98
436.72	4709.16
436.90	4585.11
437.09	4753.63
437.28	4561.70
437.46	4449.36
437.65	4734.90
437.84	4772.35
438.02	4723.20
438.21	4727.88
438.40	4627.24
438.58	4837.89
438.77	4884.70
438.96	4870.65
439.14	4959.60
439.33	4908.10
439.52	5156.20
439.70	5146.84
439.89	4980.66
440.08	5128.11
440.26	5142.16
440.45	5247.48
440.63	5149.18
440.82	5366.85
441.01	5226.42
441.19	5352.81
441.38	5540.05
441.57	5394.93
441.75	5483.88
441.94	5547.07
442.12	5535.37
442.31	5664.10
442.50	5657.07
442.68	5549.41
442.87	5647.71
443.05	5572.82
443.24	5729.63
443.43	5769.42
443.61	5895.81
443.80	5980.07
443.98	5598.56
444.17	5483.88
444.35	5715.59
444.54	5982.41
444.73	5841.98
444.91	5736.65
445.10	5921.56
445.28	5809.21
445.47	5874.74
445.65	5867.72
445.84	5825.59
446.02	6003.47
446.21	5928.58
446.39	5893.47
446.58	6076.03
446.77	6148.59
446.95	5755.38
447.14	5907.51
447.32	5874.74
447.51	5996.45
447.69	6031.56
447.88	6129.86
448.06	6069.01
448.25	5919.21
448.43	6143.91
448.62	6200.08
448.80	5975.39
448.99	6150.93
449.17	6181.35
449.36	6073.69
449.54	6270.30
449.73	6277.32
449.91	6487.96
450.10	6267.95
450.28	6321.79
450.46	6312.42
450.65	6368.60
450.83	6363.92
451.02	6267.95
451.20	6448.18
451.39	6415.41
451.57	6480.94
451.76	6406.05
451.94	6352.21
452.13	6640.10
452.31	6420.09
452.49	6310.08
452.68	6502.01
452.86	6504.35
453.05	6576.91
453.23	6504.35
453.42	6670.53
453.60	6572.22
453.78	6525.41
453.97	6576.91
454.15	6796.92
454.34	6462.22
454.52	6810.96
454.70	6778.19
454.89	6946.71
455.07	6780.53
455.26	6883.52
455.44	6932.67
455.62	6869.47
455.81	6970.12
455.99	6930.33
456.17	7148.00
456.36	7145.66
456.54	7265.02
456.73	7166.72
456.91	7178.42
457.09	7208.85
457.28	7360.98
457.46	7318.86
457.64	7480.35
457.83	7192.47
458.01	7339.92
458.19	7449.93
458.38	7236.94
458.56	7396.09
458.74	7632.49
458.93	7368.01
459.11	7527.16
459.29	7421.84
459.48	7447.58
459.66	7370.35
459.84	7676.96
460.03	7810.37
460.21	7630.15
460.39	7770.58
460.57	7623.12
460.76	7702.70
460.94	7871.22
461.12	7847.82
461.31	7840.79
461.49	7625.47
461.67	7674.62
461.85	7857.18
462.04	8009.31
462.22	8439.97
462.40	7964.84
462.59	8037.40
462.77	7927.39
462.95	8028.04
463.13	7920.37
463.32	7822.07
463.50	8152.09
463.68	8245.71
463.86	8006.97
464.05	8072.51
464.23	8009.31
464.41	8248.05
464.59	8091.23
464.78	8283.16
464.96	8187.19
465.14	8142.72
465.32	8168.47
465.50	8374.44
465.69	8484.44
465.87	8287.84
466.05	8308.90
466.23	8402.52
466.41	8486.78
466.60	8372.10
466.78	8423.59
466.96	8430.61
467.14	8540.61
467.32	8526.57
467.51	8585.08
467.69	8283.16
467.87	8470.40
468.05	8615.51
468.23	8372.10
468.41	8531.25
468.60	8578.06
468.78	8659.98
468.96	8573.38
469.14	8638.92
469.32	8828.50
469.50	8517.21
469.69	8854.25
469.87	8837.86
470.05	8854.25
470.23	8844.88
470.41	8915.10
470.59	9060.21
470.77	9018.08
470.95	9097.66
471.14	9200.65
471.32	9032.13
471.50	9221.71
471.68	9404.27
471.86	9380.87
472.04	9224.05
472.22	9469.81
472.40	9317.67
472.58	9291.93
472.77	9605.56
472.95	9376.19
473.13	9870.04
473.31	9664.07
473.49	9727.27
473.67	9490.87
473.85	9666.41
474.03	9886.42
474.21	9909.83
474.39	9958.98
474.57	9905.15
474.75	10017.49
474.93	10139.20
475.12	10200.05
475.30	10413.04
475.48	10221.12
475.66	10356.87
475.84	10485.60
476.02	10387.30
476.20	10565.18
476.38	10560.50
476.56	10927.96
476.74	10867.11
476.92	10754.76
477.10	10523.05
477.28	10920.94
477.46	11140.95
477.64	11021.58
477.82	11206.48
478.00	11520.12
478.18	11349.26
478.36	11421.81
478.54	11426.50
478.72	11573.95
478.90	11688.64
479.08	11864.18
479.26	12025.67
479.44	11847.79
479.62	12231.64
479.80	12276.11
479.98	12135.68
480.16	12325.26
480.34	12358.03
480.52	12517.18
480.70	12437.61
480.88	12526.55
481.06	12549.95
481.24	12446.97
481.41	12833.16
481.59	12994.65
481.77	13018.06
481.95	13085.94
482.13	13317.65
482.31	13046.15
482.49	13350.42
482.67	13586.81
482.85	13429.99
483.03	13701.50
483.21	13769.37
483.39	13935.55
483.57	14064.28
483.74	14143.86
483.92	14333.44
484.10	14319.40
484.28	14406.00
484.46	14738.35
484.64	15147.95
484.82	14483.24
485.00	14726.65
485.18	15374.98
485.35	15192.42
485.53	14941.98
485.71	14991.13
485.89	15272.00
486.07	15164.33
486.25	15328.17
486.43	15543.50
486.61	15651.16
486.78	15892.24
486.96	16016.29
487.14	16217.57
487.32	16011.60
487.50	16599.08
487.68	16788.66
487.85	16823.77
488.03	16812.07
488.21	16964.20
488.39	17032.08
488.57	16968.88
488.75	17551.68
488.92	17156.13
489.10	17696.79
489.28	17769.35
489.46	18019.78
489.64	17862.97
489.81	18623.64
489.99	18394.27
490.17	18590.88
490.35	18469.17
490.53	18541.72
490.70	18974.72
490.88	18780.46
491.06	18909.19
491.24	18888.12
491.41	18946.64
491.59	19616.03
491.77	19302.40
491.95	19222.82
492.13	19782.21
492.30	20006.90
492.48	20210.53
492.66	20091.16
492.84	19960.09
493.01	20013.92
493.19	20173.08
493.37	20489.05
493.54	20540.54
493.72	20671.61
493.90	20706.72
494.08	20987.58
494.25	20877.58
494.43	21233.34
494.61	21422.92
494.79	21486.12
494.96	21415.90
495.14	21706.13
495.32	21951.88
495.49	21731.87
495.67	21919.12
495.85	21666.34
496.02	22436.38
496.20	22544.04
496.38	22352.12
496.55	22522.98
496.73	22764.05
496.91	22761.71
497.09	22838.95
497.26	23129.17
497.44	22792.14
497.62	22958.31
497.79	23213.43
497.97	23236.84
498.14	23583.24
498.32	23721.33
498.50	23623.03
498.67	23988.15
498.85	23686.22
499.03	24126.24
499.20	24294.76
499.38	24395.40
499.56	24025.60
499.73	24400.08
499.91	24507.75
500.08	24631.80
500.26	24397.74
500.44	24662.22
500.61	24938.41
500.79	24507.75
500.97	24992.24
501.14	25628.87
501.32	25170.12
501.49	25317.57
501.67	25151.40
501.84	25586.74
502.02	25228.63
502.20	25750.57
502.37	25640.57
502.55	25888.67
502.72	25905.05
502.90	25923.77
503.07	25752.91
503.25	26176.55
503.43	25935.48
503.60	26195.28
503.78	26054.84
503.95	26747.64
504.13	26331.03
504.30	26490.18
504.48	26515.93
504.65	26923.18
504.83	27026.17
505.01	27122.13
505.18	27049.57
505.36	27498.95
505.53	27016.80
505.71	27351.50
505.88	27356.18
506.06	27014.46
506.23	27377.25
506.41	27075.32
506.58	27222.77
506.76	27845.35
506.93	27756.41
507.11	27828.97
507.28	27953.02
507.46	28034.94
507.63	28016.21
507.81	28467.94
507.98	27976.42
508.16	28425.81
508.33	28402.40
508.50	28580.28
508.68	28716.03
508.85	28802.63
509.03	28903.28
509.20	28842.42
509.38	29167.76
509.55	28975.83
509.73	28912.64
509.90	29315.21
510.08	28957.11
510.25	29294.14
510.42	29525.86
510.60	29415.85
510.77	29603.10
510.95	29883.96
511.12	29455.64
511.30	29975.24
511.47	30089.93
511.64	30506.54
511.82	30174.19
511.99	30092.27
512.17	30169.51
512.34	30031.41
512.51	30309.94
512.69	30558.03
512.86	30895.07
513.04	30829.54
513.21	30321.64
513.38	30583.78
513.56	30874.01
513.73	30466.75
513.90	30756.98
514.08	30796.77
514.25	30890.39
514.43	30843.58
514.60	30876.35
514.77	31178.28
514.95	31304.67
515.12	31234.45
515.29	31419.35
515.47	31714.26
515.64	31976.40
515.81	31379.56
515.99	31821.92
516.16	31723.62
516.33	31700.22
516.51	31709.58
516.68	31751.71
516.85	31583.19
517.03	32063.00
517.20	32444.51
517.37	32322.80
517.54	32182.37
517.72	32341.52
517.89	31639.36
518.06	32428.12
518.24	32023.21
518.41	32170.66
518.58	32556.85
518.75	32655.15
518.93	32814.31
519.10	32465.57
519.27	33031.98
519.45	32622.39
519.62	33104.54
519.79	33031.98
519.96	33298.80
520.14	33441.57
520.31	33209.86
520.48	33521.15
520.65	33394.76
520.83	33558.60
521.00	34031.39
521.17	33528.17
521.34	33757.55
521.52	33598.39
521.69	33694.35
521.86	33879.25
522.03	34054.79
522.20	34153.10
522.38	34583.76
522.55	34260.76
522.72	34209.27
522.89	33696.69
523.07	34513.54
523.24	34101.61
523.41	34363.75
523.58	34740.57
523.75	34981.65
523.92	34899.73
524.10	34806.11
524.27	34796.74
524.44	34843.56
524.61	34693.76
524.78	34705.46
524.96	35103.35
525.13	35587.85
525.30	35416.99
525.47	35204.00
525.64	35054.20
525.81	35562.10
525.98	35374.86
526.16	35601.89
526.33	35491.88
526.50	35386.56
526.67	35318.68
526.84	35707.21
527.01	35185.27
527.18	35473.16
527.36	35791.47
527.53	35573.80
527.70	36156.60
527.87	36250.22
528.04	36470.23
528.21	36264.26
528.38	35807.86
528.55	36184.68
528.72	36781.52
528.89	36755.77
529.07	36437.46
529.24	36053.61
529.41	36610.66
529.58	36032.55
529.75	36678.54
529.92	36388.31
530.09	36772.16
530.26	36973.44
530.43	37205.16
530.60	36886.84
530.77	36566.19
530.94	37186.43
531.11	37120.90
531.28	37340.91
531.46	36898.55
531.63	37521.13
531.80	37036.64
531.97	37127.92
532.14	37411.12
532.31	37331.54
532.48	37322.18
532.65	37422.83
532.82	37495.38
532.99	37780.93
533.16	37565.60
533.33	37699.01
533.50	37579.64
533.67	38117.96
533.84	37989.24
534.01	37755.18
534.18	38099.24
534.35	38316.91
534.52	38005.62
534.69	38356.70
534.86	38169.46
535.03	38031.36
535.20	38057.11
535.37	38150.73
535.54	38721.82
535.71	38134.35
535.88	38799.06
536.05	38476.07
536.22	38354.36
536.38	38731.18
536.55	38670.33
536.72	38593.09
536.89	38572.03
537.06	38691.40
537.23	39068.22
537.40	38672.67
537.57	38953.54
537.74	38714.80
537.91	39016.73
538.08	39051.84
538.25	38422.23
538.42	38855.23
538.59	39133.76
538.75	38873.96
538.92	39278.87
539.09	38988.64
539.26	39379.51
539.43	39426.32
539.60	39150.14
539.77	38953.54
539.94	39182.91
540.11	39571.44
540.28	39356.11
540.44	39557.39
540.61	39342.06
540.78	39009.71
540.95	39810.17
541.12	39412.28
541.29	39599.52
541.46	39632.29
541.62	39611.23
541.79	39915.50
541.96	39658.04
542.13	40245.51
542.30	39976.35
542.47	40353.18
542.63	39608.89
542.80	40084.01
542.97	40629.36
543.14	41071.72
543.31	39842.94
543.48	40435.10
543.64	41132.57
543.81	40758.09
543.98	40636.38
544.15	40598.93
544.32	40751.07
544.48	40952.35
544.65	40945.33
544.82	40928.95
544.99	40638.72
545.16	40727.66
545.32	40802.56
545.49	40961.72
545.66	41045.97
545.83	41144.28
546.00	41493.02
546.16	40793.20
546.33	40854.05
546.50	40767.45
546.67	40935.97
546.83	40914.90
547.00	41071.72
547.17	41010.87
547.34	41280.03
547.50	41439.18
547.67	41656.85
547.84	41486.00
548.00	41720.05
548.17	41909.63
548.34	41481.31
548.51	41792.61
548.67	41610.04
548.84	41806.65
549.01	41624.09
549.18	41792.61
549.34	41528.13
549.51	42068.79
549.68	42225.60
549.84	41888.57
550.01	42096.88
550.18	41893.25
550.34	42251.35
550.51	41794.95
550.68	41654.51
550.84	41551.53
551.01	42543.92
551.18	42059.43
551.34	42157.73
551.51	42157.73
551.68	42192.84
551.84	42260.71
552.01	41998.57
552.18	42197.52
552.34	42136.66
552.51	42136.66
552.68	42417.53
552.84	42429.23
553.01	42628.18
553.18	42148.37
553.34	42337.95
553.51	42366.04
553.67	42506.47
553.84	42918.40
554.01	42787.33
554.17	42864.57
554.34	42784.99
554.51	42546.26
554.67	43012.02
554.84	42997.98
555.00	42534.56
555.17	42913.72
555.33	42986.28
555.50	42726.48
555.67	42953.51
555.83	43035.43
556.00	43058.84
556.16	43646.31
556.33	42981.60
556.50	43203.95
556.66	42712.44
556.83	43091.60
556.99	43377.15
557.16	43342.04
557.32	43068.20
557.49	43508.22
557.65	43166.50
557.82	43138.41
557.98	42916.06
558.15	43536.30
558.32	43185.22
558.48	43643.97
558.65	42923.08
558.81	43381.83
558.98	43358.42
559.14	43430.98
559.31	43292.89
559.47	43613.54
559.64	43775.04
559.80	43796.10
559.97	43412.26
560.13	43442.68
560.30	43515.24
560.46	43318.64
560.63	43388.85
560.79	43971.64
560.96	43889.73
561.12	43704.82
561.29	43419.28
561.45	43704.82
561.61	43559.71
561.78	43639.29
561.94	43463.75
562.11	43955.26
562.27	43688.44
562.44	43578.43
562.60	43943.56
562.77	43798.44
562.93	43936.54
563.10	44025.48
563.26	43337.36
563.42	44041.86
563.59	43674.40
563.75	43756.32
563.92	44062.93
564.08	44135.48
564.24	44259.53
564.41	44121.44
564.57	44060.58
564.74	43875.68
564.90	44116.76
565.07	43831.21
565.23	43550.35
565.39	44217.40
565.56	44252.51
565.72	44336.77
565.88	43863.98
566.05	43901.43
566.21	44055.90
566.38	43936.54
566.54	44032.50
566.70	43852.28
566.87	44655.08
567.03	44133.14
567.19	44931.26
567.36	44294.64
567.52	43838.23
567.68	44212.72
567.85	44304.00
568.01	44435.07
568.17	44044.20
568.34	44332.09
568.50	44381.24
568.66	44236.12
568.83	44247.83
568.99	44037.18
569.15	44289.96
569.32	44128.46
569.48	43927.17
569.64	44697.21
569.81	44772.11
569.97	44278.25
570.13	44208.04
570.30	43878.02
570.46	43992.71
570.62	44311.02
570.78	43892.07
570.95	44093.35
571.11	44554.44
571.27	44580.18
571.43	44421.03
571.60	44753.38
571.76	44299.32
571.92	44271.23
572.09	44538.05
572.25	44477.20
572.41	44156.55
572.57	44460.82
572.74	44907.86
572.90	44648.06
573.06	44722.96
573.22	44849.35
573.38	44526.35
573.55	44322.72
573.71	44552.10
573.87	44334.43
574.03	44374.22
574.20	44753.38
574.36	44280.60
574.52	44591.89
574.68	45010.84
574.84	44643.38
575.01	44584.86
575.17	44643.38
575.33	44392.94
575.49	44189.31
575.65	44776.79
575.82	45258.94
575.98	44238.47
576.14	44802.53
576.30	44748.70
576.46	44163.57
576.62	44128.46
576.79	44376.56
576.95	44135.48
577.11	44304.00
577.27	44626.99
577.43	44879.77
577.59	44708.91
577.75	44392.94
577.92	44327.41
578.08	44528.69
578.24	44439.75
578.40	44402.30
578.56	44601.25
578.72	44683.17
578.88	44875.09
579.04	44509.97
579.21	44130.80
579.37	44027.82
579.53	44493.58
579.69	44505.29
579.85	44514.65
580.01	45109.14
580.17	44397.62
580.33	44839.98
580.49	44762.75
580.65	44734.66
580.82	44713.59
580.98	44664.44
581.14	44514.65
581.30	44645.72
581.46	44493.58
581.62	44992.12
581.78	44329.75
581.94	45078.72
582.10	44641.04
582.26	44938.29
582.42	44619.97
582.58	44800.19
582.74	44837.64
582.90	44765.09
583.06	45048.29
583.22	45095.10
583.38	44779.13
583.54	44968.71
583.70	44612.95
583.86	44982.76
584.02	44362.51
584.18	44931.26
584.34	44683.17
584.50	44725.30
584.66	44795.51
584.82	44463.16
584.98	44772.11
585.14	44673.81
585.30	44444.43
585.46	44755.72
585.62	44423.37
585.78	44350.81
585.94	44238.47
586.10	44535.71
586.26	44547.42
586.42	44580.18
586.58	44629.34
586.74	44772.11
586.90	44587.21
587.06	44884.45
587.22	44910.20
587.38	44296.98
587.54	45125.53
587.70	45106.80
587.86	44861.05
588.02	45188.72
588.18	44987.44
588.34	44603.59
588.49	44816.58
588.65	44519.33
588.81	44245.49
588.97	44746.36
589.13	44973.39
589.29	44751.04
589.45	44727.64
589.61	45006.16
589.77	45289.37
589.93	45010.84
590.08	45525.76
590.24	45141.91
