SpectraSuite Data File
++++++++++++++++++++++++++++++++++++
Date: Fri Oct 25 11:25:57 EDT 2013
User: price-jones
Dark Spectrum Present: No
Reference Spectrum Present: No
Number of Sampled Component Spectra: 1
Spectrometers: USB2+H05261
Integration Time (usec): 100000 (USB2+H05261)
Spectra Averaged: 1 (USB2+H05261)
Boxcar Smoothing: 0 (USB2+H05261)
Correct for Electrical Dark: No (USB2+H05261)
Strobe/Lamp Enabled: No (USB2+H05261)
Correct for Detector Non-linearity: No (USB2+H05261)
Correct for Stray Light: No (USB2+H05261)
Number of Pixels in Processed Spectrum: 2048
>>>>>Begin Processed Spectral Data<<<<<
365.73	255.12
365.92	255.12
366.12	255.12
366.32	166.18
366.52	93.62
366.72	217.67
366.91	117.03
367.11	93.62
367.31	135.75
367.51	159.16
367.70	138.09
367.90	177.88
368.10	173.20
368.30	154.48
368.49	135.75
368.69	222.35
368.89	121.71
369.09	184.90
369.28	154.48
369.48	135.75
369.68	170.86
369.87	201.29
370.07	271.50
370.27	191.92
370.47	315.97
370.66	578.11
370.86	615.56
371.06	617.90
371.25	667.05
371.45	631.94
371.65	608.54
371.84	699.82
372.04	601.52
372.24	763.01
372.44	765.36
372.63	814.51
372.83	800.46
373.03	770.04
373.22	763.01
373.42	800.46
373.62	744.29
373.81	758.33
374.01	739.61
374.21	753.65
374.40	784.08
374.60	844.93
374.79	837.91
374.99	854.30
375.19	884.72
375.38	840.25
375.58	760.67
375.78	922.17
375.97	873.02
376.17	849.61
376.37	830.89
376.56	856.64
376.76	821.53
376.95	849.61
377.15	875.36
377.35	915.15
377.54	877.70
377.74	936.21
377.93	894.08
378.13	910.47
378.33	971.32
378.52	922.17
378.72	971.32
378.91	1006.43
379.11	957.28
379.31	905.79
379.50	950.26
379.70	997.07
379.89	933.87
380.09	1036.86
380.28	896.43
380.48	938.55
380.68	980.68
380.87	957.28
381.07	968.98
381.26	964.30
381.46	1004.09
381.65	1022.81
381.85	1057.92
382.04	1022.81
382.24	1139.84
382.43	1102.39
382.63	1071.97
382.83	1069.62
383.02	1027.50
383.22	1160.91
383.41	1081.33
383.61	1041.54
383.80	1172.61
384.00	1121.12
384.19	1139.84
384.39	1181.97
384.58	1142.18
384.78	1160.91
384.97	1160.91
385.17	1196.01
385.36	1074.31
385.56	1146.86
385.75	1142.18
385.95	1078.99
386.14	1268.57
386.34	1170.27
386.53	1228.78
386.72	1198.35
386.92	1181.97
387.11	1240.48
387.31	1343.47
387.50	1217.08
387.70	1268.57
387.89	1247.51
388.09	1282.61
388.28	1313.04
388.48	1390.28
388.67	1359.85
388.86	1327.08
389.06	1313.04
389.25	1343.47
389.45	1315.38
389.64	1385.60
389.84	1423.05
390.03	1348.15
390.22	1416.02
390.42	1296.66
390.61	1397.30
390.81	1350.49
391.00	1406.66
391.19	1467.52
391.39	1551.78
391.58	1462.83
391.78	1493.26
391.97	1490.92
392.16	1540.07
392.36	1502.62
392.55	1568.16
392.75	1530.71
392.94	1565.82
393.13	1523.69
393.33	1509.65
393.52	1495.60
393.71	1589.22
393.91	1589.22
394.10	1558.80
394.29	1591.56
394.49	1610.29
394.68	1586.88
394.88	1629.01
395.07	1636.03
395.26	1640.72
395.46	1694.55
395.65	1671.14
395.84	1732.00
396.04	1764.76
396.23	1692.21
396.42	1708.59
396.62	1741.36
396.81	1795.19
397.00	1753.06
397.19	1792.85
397.39	1858.39
397.58	1844.34
397.77	1844.34
397.97	1804.55
398.16	1785.83
398.35	1842.00
398.55	1795.19
398.74	1872.43
398.93	1973.07
399.12	1982.43
399.32	1867.75
399.51	1970.73
399.70	2005.84
399.90	1959.03
400.09	1980.09
400.28	2001.16
400.47	1947.33
400.67	2134.57
400.86	2008.18
401.05	1996.48
401.24	2118.18
401.44	2172.02
401.63	2157.97
401.82	2230.53
402.01	2059.67
402.21	2097.12
402.40	2244.57
402.59	2209.47
402.78	2265.64
402.97	2207.13
403.17	2289.04
403.36	2200.10
403.55	2263.30
403.74	2370.96
403.93	2293.72
404.13	2340.54
404.32	2349.90
404.51	2305.43
404.70	2509.05
404.89	2427.14
405.09	2469.27
405.28	2443.52
405.47	2459.90
405.66	2532.46
405.85	2532.46
406.05	2518.42
406.24	2590.97
406.43	2539.48
406.62	2635.44
406.81	2593.31
407.00	2605.02
407.20	2553.52
407.39	2546.50
407.58	2597.99
407.77	2700.98
407.96	2710.34
408.15	2869.50
408.34	2738.43
408.54	2848.43
408.73	2796.94
408.92	2850.77
409.11	2911.63
409.30	2867.16
409.49	2972.48
409.68	2888.22
409.87	2949.08
410.07	3049.72
410.26	2991.20
410.45	2923.33
410.64	3056.74
410.83	3112.91
411.02	3124.62
411.21	3087.17
411.40	3185.47
411.59	3260.37
411.78	3098.87
411.98	3192.49
412.17	3311.86
412.36	3421.86
412.55	3290.79
412.74	3325.90
412.93	3379.73
413.12	3398.46
413.31	3545.91
413.50	3358.67
413.69	3492.08
413.88	3550.59
414.07	3412.50
414.26	3660.60
414.45	3674.64
414.64	3620.81
414.83	3763.58
415.02	3728.47
415.22	3662.94
415.41	3995.29
415.60	3808.05
415.79	3887.63
415.98	3868.91
416.17	3927.42
416.36	3911.04
416.55	4049.13
416.74	3981.25
416.93	4105.30
417.12	4004.66
417.31	4168.49
417.50	4243.39
417.69	4337.01
417.88	4297.22
418.07	4292.54
418.26	4234.03
418.45	4449.36
418.64	4423.61
418.83	4337.01
419.02	4367.44
419.21	4383.82
419.39	4505.53
419.58	4449.36
419.77	4451.70
419.96	4533.62
420.15	4627.24
420.34	4552.34
420.53	4524.26
420.72	4613.20
420.91	4812.14
421.10	4674.05
421.29	4732.56
421.48	4631.92
421.67	4812.14
421.86	4730.22
422.05	4685.75
422.24	4858.95
422.43	4819.16
422.61	4917.47
422.80	5053.22
422.99	4877.68
423.18	4997.04
423.37	4877.68
423.56	4865.97
423.75	4812.14
423.94	4823.84
424.13	4573.41
424.32	4716.18
424.50	5083.64
424.69	5167.90
424.88	5011.09
425.07	4851.93
425.26	4868.31
425.45	4884.70
425.64	4802.78
425.83	4903.42
426.01	5025.13
426.20	5102.37
426.39	5071.94
426.58	5053.22
426.77	5001.72
426.96	5041.51
427.15	5111.73
427.33	5263.86
427.52	5219.39
427.71	5207.69
427.90	5203.01
428.09	5191.31
428.28	5317.70
428.46	5226.42
428.65	5397.28
428.84	5565.79
429.03	5521.32
429.22	5383.23
429.40	5474.51
429.59	5495.58
429.78	5373.87
429.97	5245.14
430.16	5537.71
430.34	5570.48
430.53	5717.93
430.72	5493.24
430.91	5614.95
431.10	5727.29
431.28	5715.59
431.47	5827.93
431.66	5799.85
431.85	5811.55
432.03	5762.40
432.22	5937.94
432.41	5841.98
432.60	5849.00
432.79	5947.30
432.97	5837.30
433.16	5923.90
433.35	5998.79
433.54	6113.48
433.72	6050.28
433.91	6256.25
434.10	6024.54
434.28	6127.52
434.47	6190.72
434.66	6136.88
434.85	6312.42
435.03	6284.34
435.22	6291.36
435.41	6270.30
435.59	6204.76
435.78	6438.81
435.97	6459.88
436.16	6392.00
436.34	6518.39
436.53	6373.28
436.72	6579.25
436.90	6399.02
437.09	6686.91
437.28	6452.86
437.46	6628.40
437.65	6626.06
437.84	6801.60
438.02	6757.13
438.21	6775.85
438.40	6675.21
438.58	6832.02
438.77	7002.88
438.96	6885.86
439.14	7117.57
439.33	7171.40
439.52	7133.95
439.70	7117.57
439.89	7211.19
440.08	7400.77
440.26	7424.18
440.45	7265.02
440.63	7456.95
440.82	7667.60
441.01	7648.87
441.19	7623.12
441.38	7620.78
441.57	7801.01
441.75	7822.07
441.94	8070.17
442.12	7889.95
442.31	8102.93
442.50	7997.61
442.68	7878.24
442.87	8154.43
443.05	8133.36
443.24	8308.90
443.43	8070.17
443.61	8198.90
443.80	8472.74
443.98	7892.29
444.17	7889.95
444.35	8224.64
444.54	8329.97
444.73	8241.03
444.91	8262.09
445.10	8353.37
445.28	8259.75
445.47	8248.05
445.65	8444.65
445.84	8320.60
446.02	8493.80
446.21	8358.05
446.39	8285.50
446.58	8512.53
446.77	8559.34
446.95	8231.66
447.14	8540.61
447.32	8636.58
447.51	8451.67
447.69	8468.06
447.88	8402.52
448.06	8381.46
448.25	8507.85
448.43	8659.98
448.62	8507.85
448.80	8482.10
448.99	8704.45
449.17	9018.08
449.36	8655.30
449.54	8587.43
449.73	8767.65
449.91	8987.66
450.10	8734.88
450.28	9214.69
450.46	9015.74
450.65	9062.55
450.83	9219.37
451.02	9212.35
451.20	9130.43
451.39	9167.88
451.57	9139.79
451.76	9067.24
451.94	8959.57
452.13	9245.12
452.31	9231.07
452.49	9348.10
452.68	9165.54
452.86	9334.06
453.05	9327.03
453.23	9343.42
453.42	9509.60
453.60	9165.54
453.78	9507.26
453.97	9364.48
454.15	9458.10
454.34	9331.72
454.52	9771.74
454.70	9776.42
454.89	9799.82
455.07	9799.82
455.26	9755.35
455.44	10094.73
455.62	9940.26
455.81	9872.38
455.99	9848.97
456.17	10050.26
456.36	9823.23
456.54	10139.20
456.73	10125.16
456.91	10352.19
457.09	10260.91
457.28	10628.37
457.46	10157.92
457.64	10616.67
457.83	10420.06
458.01	10558.16
458.19	10796.89
458.38	10583.90
458.56	10682.20
458.74	10679.86
458.93	10630.71
459.11	10675.18
459.29	10888.17
459.48	10869.45
459.66	10787.53
459.84	10733.70
460.03	10876.47
460.21	10874.13
460.39	11056.69
460.57	11138.61
460.76	11262.66
460.94	11316.49
461.12	11250.96
461.31	11101.16
461.49	11110.52
461.67	11241.59
461.85	11389.05
462.04	11311.81
462.22	11805.66
462.40	11506.07
462.59	11307.13
462.77	11527.14
462.95	11679.27
463.13	11658.21
463.32	11367.98
463.50	11765.87
463.68	11915.67
463.86	11815.02
464.05	11674.59
464.23	11681.61
464.41	11873.54
464.59	11592.67
464.78	12278.45
464.96	11772.89
465.14	12009.29
465.32	12006.95
465.50	11999.93
465.69	12074.82
465.87	12154.40
466.05	12037.38
466.23	12016.31
466.41	12308.88
466.60	12453.99
466.78	11871.20
466.96	12458.67
467.14	12299.52
467.32	12299.52
467.51	12475.06
467.69	12280.79
467.87	12542.93
468.05	12500.80
468.23	12465.69
468.41	12432.93
468.60	12624.85
468.78	12795.71
468.96	12704.43
469.14	12606.13
469.32	12784.01
469.50	12716.13
469.69	12788.69
469.87	12987.63
470.05	12933.80
470.23	13146.79
470.41	13125.72
470.59	13301.26
470.77	13062.53
470.95	13163.17
471.14	13394.89
471.32	13095.30
471.50	13511.91
471.68	13483.83
471.86	13415.95
472.04	13752.99
472.22	13898.10
472.40	13605.53
472.58	13902.78
472.77	14019.81
472.95	14010.45
473.13	14604.94
473.31	14190.67
473.49	14045.55
473.67	14111.09
473.85	14209.39
474.03	14670.48
474.21	14684.52
474.39	14588.56
474.57	14530.05
474.75	15061.35
474.93	14855.38
475.12	14787.50
475.30	15126.88
475.48	14972.41
475.66	15150.29
475.84	14878.79
476.02	15424.13
476.20	15250.93
476.38	15838.41
476.56	15943.73
476.74	15868.83
476.92	15772.87
477.10	15728.40
477.28	16229.27
477.46	16053.73
477.64	16109.91
477.82	16690.36
478.00	16910.37
478.18	16842.50
478.36	16954.84
478.54	17130.38
478.72	17062.51
478.90	17317.62
479.08	17593.81
479.26	17614.87
479.44	17572.74
479.62	17783.39
479.80	17930.84
479.98	18232.77
480.16	18366.18
480.34	18090.00
480.52	18574.49
480.70	18544.06
480.88	18485.55
481.06	18853.02
481.24	18824.93
481.41	19037.92
481.59	19110.47
481.77	19482.62
481.95	19037.92
482.13	19379.64
482.31	19763.48
482.49	20601.40
482.67	20032.65
482.85	20386.07
483.03	20304.15
483.21	20521.82
483.39	20814.38
483.57	20566.29
483.74	20793.32
483.92	21448.67
484.10	20837.79
484.28	21626.55
484.46	21951.88
484.64	22263.18
484.82	21813.79
485.00	22139.13
485.18	22368.50
485.35	22806.18
485.53	22860.01
485.71	22852.99
485.89	23555.15
486.07	23466.21
486.25	23534.09
486.43	23536.43
486.61	23515.36
486.78	23910.91
486.96	24395.40
487.14	24566.26
487.32	24308.80
487.50	24833.08
487.68	24915.00
487.85	25298.85
488.03	25242.68
488.21	25523.54
488.39	26162.51
488.57	25846.54
488.75	26089.95
488.92	26272.51
489.10	26874.03
489.28	26719.56
489.46	26955.95
489.64	27070.64
489.81	27667.47
489.99	27709.60
490.17	27810.25
490.35	28023.23
490.53	28006.85
490.70	28301.76
490.88	28198.77
491.06	28856.46
491.24	28371.97
491.41	28905.62
491.59	28943.06
491.77	29177.12
491.95	29345.64
492.13	29460.32
492.30	29972.90
492.48	30031.41
492.66	29846.51
492.84	30155.46
493.01	30555.69
493.19	30469.09
493.37	30768.68
493.54	30855.28
493.72	31435.74
493.90	31454.46
494.08	31952.99
494.25	31608.93
494.43	31917.89
494.61	32030.23
494.79	32367.27
494.96	32304.07
495.14	32767.50
495.32	33193.48
495.49	32786.22
495.67	32936.02
495.85	33125.60
496.02	33914.36
496.20	33862.87
496.38	33640.52
496.55	33677.97
496.73	34445.66
496.91	34256.08
497.09	34342.68
497.26	34459.71
497.44	34866.96
497.62	34913.77
497.79	35573.80
497.97	35168.89
498.14	35311.66
498.32	36025.53
498.50	35908.50
498.67	36369.58
498.85	36439.80
499.03	36507.68
499.20	36187.02
499.38	36645.77
499.56	36486.61
499.73	36804.92
499.91	37237.92
500.08	37511.77
500.26	36914.93
500.44	37186.43
500.61	37537.51
500.79	37518.79
500.97	38218.61
501.14	38436.28
501.32	38534.58
501.49	38302.87
501.67	38565.01
501.84	38623.52
502.02	38925.45
502.20	38855.23
502.37	38859.91
502.55	38824.81
502.72	39512.92
502.90	39016.73
503.07	39412.28
503.25	39498.88
503.43	39388.88
503.60	40109.76
503.78	40105.08
503.95	39756.34
504.13	40268.92
504.30	40306.37
504.48	40388.28
504.65	40762.77
504.83	41340.88
505.01	41069.38
505.18	40907.88
505.36	41397.06
505.53	40964.06
505.71	41050.66
505.88	41354.93
506.06	41024.91
506.23	41436.84
506.41	41820.69
506.58	41752.82
506.76	41593.66
506.93	42359.02
507.11	42244.33
507.28	42115.60
507.46	42918.40
507.63	42677.33
507.81	43173.52
507.98	42583.71
508.16	43082.24
508.33	43398.21
508.50	43653.33
508.68	43152.46
508.85	43374.81
509.03	43667.37
509.20	43721.21
509.38	44186.97
509.55	43941.22
509.73	44561.46
509.90	44673.81
510.08	44528.69
510.25	44112.08
510.42	45006.16
510.60	44596.57
510.77	44722.96
510.95	45354.90
511.12	44912.54
511.30	45155.96
511.47	45399.37
511.64	45268.30
511.82	45633.42
511.99	45240.21
512.17	45390.01
512.34	45736.41
512.51	46185.79
512.69	46050.04
512.86	46525.17
513.04	46656.24
513.21	46637.51
513.38	46328.56
513.56	46586.02
513.73	46043.02
513.90	47098.60
514.08	46880.93
514.25	47110.30
514.43	47180.52
514.60	47510.53
514.77	47033.07
514.95	47611.18
515.12	47325.63
515.29	47302.23
515.47	47660.33
515.64	47732.89
515.81	47550.32
515.99	47831.19
516.16	48329.72
516.33	48224.40
516.51	48458.45
516.68	48596.54
516.85	48229.08
517.03	48708.89
517.20	48472.49
517.37	48538.03
517.54	48729.95
517.72	48846.98
517.89	49074.01
518.06	48926.56
518.24	48919.54
518.41	48926.56
518.58	49106.78
518.75	48816.55
518.93	49462.54
519.10	48980.39
519.27	49511.69
519.45	49766.81
519.62	49595.95
519.79	49766.81
519.96	50087.46
520.14	50021.93
520.31	50092.15
520.48	50017.25
520.65	49961.08
520.83	50246.62
521.00	50536.85
521.17	50380.03
521.34	50602.38
521.52	50637.49
521.69	50555.57
521.86	50979.21
522.03	50747.50
522.20	51131.34
522.38	51496.47
522.55	51276.46
522.72	50946.44
522.89	50815.37
523.07	51573.70
523.24	51613.49
523.41	51613.49
523.58	51248.37
523.75	51672.01
523.92	51686.05
524.10	51765.63
524.27	52112.03
524.44	52006.70
524.61	51969.26
524.78	52362.46
524.96	51980.96
525.13	52332.04
525.30	52315.65
525.47	52151.82
525.64	52341.40
525.81	52254.80
525.98	52669.08
526.16	52406.94
526.33	52533.32
526.50	52802.49
526.67	52645.67
526.84	52786.10
527.01	52505.24
527.18	52559.07
527.36	52790.78
527.53	53078.67
527.70	53396.98
527.87	52954.62
528.04	52928.87
528.21	53277.61
528.38	53230.80
528.55	53418.05
528.72	53478.90
528.89	53350.17
529.07	53233.14
529.24	53207.40
529.41	53464.86
529.58	53530.39
529.75	53586.57
529.92	53787.85
530.09	53628.69
530.26	53932.96
530.43	53839.34
530.60	53656.78
530.77	53778.49
530.94	54239.57
531.11	54078.08
531.28	54007.86
531.46	54265.32
531.63	54075.74
531.80	54321.49
531.97	54253.62
532.14	54349.58
532.31	54117.87
532.48	54450.22
532.65	54536.82
532.82	54363.62
532.99	54562.57
533.16	54471.29
533.33	54625.76
533.50	54824.71
533.67	54876.20
533.84	54497.03
534.01	54665.55
534.18	55000.25
534.35	55187.49
534.52	54878.54
534.69	55105.57
534.86	55150.04
535.03	54941.74
535.20	55248.35
535.37	55262.39
535.54	55288.13
535.71	55147.70
535.88	55435.59
536.05	55440.27
536.22	55550.27
536.38	55384.10
536.55	55529.21
536.72	55590.06
536.89	55311.54
537.06	55524.53
537.23	55576.02
537.40	55571.34
537.57	55599.43
537.74	55618.15
537.91	55852.20
538.08	55859.23
538.25	55363.03
538.42	55985.61
538.59	56214.99
538.75	55824.12
538.92	56030.08
539.09	56086.26
539.26	55973.91
539.43	55934.12
539.60	56058.17
539.77	56037.11
539.94	56200.94
540.11	56233.71
540.28	56385.85
540.44	56388.19
540.61	56156.47
540.78	56364.78
540.95	56402.23
541.12	56390.53
541.29	56299.25
541.46	56306.27
541.62	56530.96
541.79	56650.33
541.96	56203.28
542.13	56460.74
542.30	56512.23
542.47	56865.66
542.63	56734.59
542.80	56877.36
542.97	56989.70
543.14	57127.80
543.31	57003.75
543.48	57120.77
543.64	57598.24
543.81	57308.02
543.98	57324.40
544.15	57265.89
544.32	57244.82
544.48	57291.63
544.65	57265.89
544.82	57380.57
544.99	57134.82
545.16	57312.70
545.32	57329.08
545.49	57645.05
545.66	57621.65
545.83	57558.45
546.00	57738.68
546.16	57504.62
546.33	57518.67
546.50	57298.65
546.67	57621.65
546.83	57230.78
547.00	57649.74
547.17	57499.94
547.34	57579.52
547.50	57757.40
547.67	57965.71
547.84	57900.17
548.00	58024.22
548.17	58033.58
548.34	58155.29
548.51	57937.62
548.67	57949.32
548.84	58178.70
549.01	58246.57
549.18	58073.37
549.34	58059.33
549.51	58054.65
549.68	58284.02
549.84	58347.21
550.01	58443.18
550.18	58045.29
550.34	58284.02
550.51	58234.87
550.68	58375.30
550.84	58113.16
551.01	58298.06
551.18	58370.62
551.34	58361.26
551.51	58394.03
551.68	58621.06
551.84	58485.31
552.01	58412.75
552.18	58583.61
552.34	58555.52
552.51	58780.21
552.68	58354.24
552.84	58525.10
553.01	58740.42
553.18	58431.47
553.34	58770.85
553.51	58592.97
553.67	58700.64
553.84	58822.34
554.01	58625.74
554.17	58892.56
554.34	59058.74
554.51	58857.45
554.67	58976.82
554.84	58986.18
555.00	58948.73
555.17	58663.19
555.33	58798.94
555.50	58918.31
555.67	58859.79
555.83	58944.05
556.00	59159.38
556.16	59325.56
556.33	59271.73
556.50	59180.45
556.66	59138.32
556.83	58972.14
556.99	59409.82
557.16	59285.77
557.32	59311.52
557.49	59454.29
557.65	59072.78
557.82	59245.98
557.98	59255.34
558.15	59517.48
558.32	59456.63
558.48	59391.09
558.65	59421.52
558.81	59318.54
558.98	59334.92
559.14	59487.06
559.31	59325.56
559.47	59568.97
559.64	59585.36
559.80	59641.53
559.97	59678.98
560.13	59536.21
560.30	59540.89
560.46	59498.76
560.63	59732.81
560.79	59842.82
560.96	59690.68
561.12	59728.13
561.29	59639.19
561.45	59657.91
561.61	59632.17
561.78	59330.24
561.94	59646.21
562.11	59760.90
562.27	59812.39
562.44	59833.46
562.60	60044.10
562.77	59948.14
562.93	59590.04
563.10	60016.02
563.26	59650.89
563.42	60203.26
563.59	59896.65
563.75	59922.40
563.92	59964.52
564.08	59812.39
564.24	60172.83
564.41	59987.93
564.57	59966.87
564.74	59973.89
564.90	60128.36
565.07	59983.25
565.23	59840.48
565.39	59948.14
565.56	60102.62
565.72	60151.77
565.88	60154.11
566.05	59992.61
566.21	60207.94
566.38	60041.76
566.54	60074.53
566.70	60224.32
566.87	60278.16
567.03	59980.91
567.19	60381.14
567.36	60072.19
567.52	60095.60
567.68	60247.73
567.85	60245.39
568.01	60137.72
568.17	60301.56
568.34	60353.05
568.50	60477.10
568.66	60179.85
568.83	60397.52
568.99	60430.29
569.15	60385.82
569.32	60331.99
569.48	60158.79
569.64	60446.68
569.81	60446.68
569.97	60207.94
570.13	60310.92
570.30	60296.88
570.46	60336.67
570.62	60465.40
570.78	60409.23
570.95	60484.12
571.11	60486.46
571.27	60310.92
571.43	60346.03
571.60	60617.53
571.76	60411.57
571.92	60420.93
572.09	60512.21
572.25	60287.52
572.41	60519.23
572.57	60481.78
572.74	60741.58
572.90	60357.74
573.06	60500.51
573.22	60540.30
573.38	60701.79
573.55	60465.40
573.71	60636.26
573.87	60493.49
574.03	60413.91
574.20	60687.75
574.36	60552.00
574.52	60612.85
574.68	60472.42
574.84	60706.47
575.01	60624.56
575.17	60533.28
575.33	60683.07
575.49	60416.25
575.65	60722.86
575.82	60598.81
575.98	60601.15
576.14	60877.33
576.30	60886.70
576.46	60598.81
576.62	60713.50
576.79	60537.96
576.95	60591.79
577.11	60573.06
577.27	60809.46
577.43	60603.49
577.59	60699.45
577.75	60797.76
577.92	60589.45
578.08	60643.28
578.24	60905.42
578.40	60823.50
578.56	60837.54
578.72	60762.65
578.88	60963.93
579.04	60865.63
579.21	60748.60
579.37	60912.44
579.53	60905.42
579.69	60355.39
579.85	60573.06
580.01	60858.61
580.17	60533.28
580.33	60837.54
580.49	60907.76
580.65	60743.92
580.82	60692.43
580.98	60877.33
581.14	60619.88
581.30	60975.64
581.46	60774.35
581.62	60828.18
581.78	60533.28
581.94	60734.56
582.10	60774.35
582.26	60874.99
582.42	60727.54
582.58	60699.45
582.74	60919.46
582.90	60867.97
583.06	60816.48
583.22	60739.24
583.38	60851.59
583.54	60924.14
583.70	60704.13
583.86	60844.57
584.02	60884.36
584.18	61003.72
584.34	60804.78
584.50	60886.70
584.66	60774.35
584.82	60715.84
584.98	61050.53
585.14	61062.24
585.30	60846.91
585.46	60853.93
585.62	61087.98
585.78	60926.49
585.94	60619.88
586.10	60992.02
586.26	60704.13
586.42	60977.98
586.58	61013.08
586.74	61010.74
586.90	60963.93
587.06	60907.76
587.22	61174.58
587.38	60954.57
587.54	61055.21
587.70	61017.77
587.86	60996.70
588.02	60926.49
588.18	61087.98
588.34	60956.91
588.49	60982.66
