SpectraSuite Data File
++++++++++++++++++++++++++++++++++++
Date: Fri Oct 25 11:34:42 EDT 2013
User: price-jones
Dark Spectrum Present: No
Reference Spectrum Present: No
Number of Sampled Component Spectra: 1
Spectrometers: USB2+H05261
Integration Time (usec): 100000 (USB2+H05261)
Spectra Averaged: 1 (USB2+H05261)
Boxcar Smoothing: 0 (USB2+H05261)
Correct for Electrical Dark: No (USB2+H05261)
Strobe/Lamp Enabled: No (USB2+H05261)
Correct for Detector Non-linearity: No (USB2+H05261)
Correct for Stray Light: No (USB2+H05261)
Number of Pixels in Processed Spectrum: 2048
>>>>>Begin Processed Spectral Data<<<<<
365.73	276.18
365.92	276.18
366.12	276.18
366.32	245.76
366.52	182.56
366.72	175.54
366.91	107.66
367.11	189.58
367.31	175.54
367.51	133.41
367.70	175.54
367.90	224.69
368.10	180.22
368.30	177.88
368.49	168.52
368.69	245.76
368.89	212.99
369.09	135.75
369.28	229.37
369.48	273.84
369.68	217.67
369.87	280.86
370.07	294.91
370.27	266.82
370.47	355.76
370.66	433.00
370.86	454.06
371.06	557.05
371.25	521.94
371.45	500.87
371.65	543.00
371.84	543.00
372.04	613.22
372.24	573.43
372.44	526.62
372.63	641.31
372.83	557.05
373.03	538.32
373.22	594.50
373.42	526.62
373.62	510.24
373.81	622.58
374.01	716.20
374.21	683.44
374.40	627.26
374.60	594.50
374.79	615.56
374.99	620.24
375.19	601.52
375.38	636.63
375.58	674.07
375.78	697.48
375.97	678.76
376.17	660.03
376.37	585.13
376.56	709.18
376.76	702.16
376.95	688.12
377.15	617.90
377.35	732.59
377.54	727.91
377.74	688.12
377.93	606.20
378.13	716.20
378.33	725.57
378.52	732.59
378.72	660.03
378.91	702.16
379.11	751.31
379.31	702.16
379.50	653.01
379.70	737.27
379.89	760.67
380.09	737.27
380.28	711.52
380.48	734.93
380.68	807.48
380.87	641.31
381.07	683.44
381.26	767.70
381.46	751.31
381.65	683.44
381.85	751.31
382.04	669.39
382.24	772.38
382.43	739.61
382.63	739.61
382.83	720.88
383.02	870.68
383.22	737.27
383.41	840.25
383.61	858.98
383.80	800.46
384.00	767.70
384.19	706.84
384.39	866.00
384.58	807.48
384.78	898.77
384.97	805.14
385.17	788.76
385.36	798.12
385.56	781.74
385.75	793.44
385.95	880.04
386.14	840.25
386.34	922.17
386.53	856.64
386.72	770.04
386.92	912.81
387.11	870.68
387.31	894.08
387.50	873.02
387.70	812.17
387.89	929.19
388.09	976.00
388.28	866.00
388.48	905.79
388.67	943.24
388.86	898.77
389.06	884.72
389.25	933.87
389.45	926.85
389.64	847.27
389.84	924.51
390.03	926.85
390.22	875.36
390.42	908.13
390.61	971.32
390.81	931.53
391.00	929.19
391.19	1015.79
391.39	976.00
391.58	987.71
391.78	983.02
391.97	1046.22
392.16	912.81
392.36	1041.54
392.55	1060.26
392.75	1064.94
392.94	990.05
393.13	990.05
393.33	1020.47
393.52	1013.45
393.71	1074.31
393.91	1022.81
394.10	978.34
394.29	1050.90
394.49	1071.97
394.68	1118.78
394.88	1130.48
395.07	1055.58
395.26	1109.41
395.46	1097.71
395.65	1064.94
395.84	1107.07
396.04	1174.95
396.23	1121.12
396.42	1081.33
396.62	1198.35
396.81	1156.22
397.00	1191.33
397.19	1266.23
397.39	1104.73
397.58	1214.74
397.77	1191.33
397.97	1224.10
398.16	1228.78
398.35	1198.35
398.55	1280.27
398.74	1256.87
398.93	1282.61
399.12	1299.00
399.32	1221.76
399.51	1280.27
399.70	1268.57
399.90	1238.14
400.09	1270.91
400.28	1296.66
400.47	1336.45
400.67	1406.66
400.86	1357.51
401.05	1308.36
401.24	1322.40
401.44	1364.53
401.63	1392.62
401.82	1329.42
402.01	1406.66
402.21	1355.17
402.40	1376.24
402.59	1373.89
402.78	1434.75
402.97	1437.09
403.17	1507.30
403.36	1526.03
403.55	1409.00
403.74	1481.56
403.93	1572.84
404.13	1554.12
404.32	1565.82
404.51	1547.09
404.70	1577.52
404.89	1497.94
405.09	1577.52
405.28	1523.69
405.47	1605.61
405.66	1645.40
405.85	1582.20
406.05	1610.29
406.24	1643.06
406.43	1626.67
406.62	1687.53
406.81	1790.51
407.00	1572.84
407.20	1591.56
407.39	1673.48
407.58	1694.55
407.77	1809.23
407.96	1717.95
408.15	1825.62
408.34	1692.21
408.54	1844.34
408.73	1858.39
408.92	1867.75
409.11	1806.89
409.30	1863.07
409.49	1893.49
409.68	1942.64
409.87	1919.24
410.07	1834.98
410.26	1959.03
410.45	1914.56
410.64	2078.40
410.83	2040.95
411.02	2012.86
411.21	2157.97
411.40	2078.40
411.59	2106.48
411.78	2080.74
411.98	1956.69
412.17	2115.84
412.36	2207.13
412.55	2148.61
412.74	2279.68
412.93	2228.19
413.12	2223.51
413.31	2438.84
413.50	2291.38
413.69	2270.32
413.88	2289.04
414.07	2363.94
414.26	2450.54
414.45	2441.18
414.64	2342.88
414.83	2399.05
415.02	2445.86
415.22	2532.46
415.41	2513.74
415.60	2443.52
415.79	2565.23
415.98	2661.19
416.17	2715.02
416.36	2637.78
416.55	2565.23
416.74	2583.95
416.93	2668.21
417.12	2780.56
417.31	2677.57
417.50	2684.59
417.69	2729.06
417.88	2785.24
418.07	2696.30
418.26	2771.19
418.45	2843.75
418.64	2822.69
418.83	2813.32
419.02	2874.18
419.21	3009.93
419.39	2984.18
419.58	2951.42
419.77	2803.96
419.96	3009.93
420.15	2937.37
420.34	2885.88
420.53	2953.76
420.72	3021.63
420.91	3098.87
421.10	3084.83
421.29	3157.38
421.48	2988.86
421.67	3112.91
421.86	3239.30
422.05	3115.25
422.24	3225.26
422.43	3094.19
422.61	3124.62
422.80	3241.64
422.99	3194.83
423.18	3346.97
423.37	3283.77
423.56	3262.71
423.75	3232.28
423.94	3171.43
424.13	2965.46
424.32	3105.89
424.50	3215.90
424.69	3197.17
424.88	3234.62
425.07	3150.36
425.26	3176.11
425.45	3248.66
425.64	3115.25
425.83	3279.09
426.01	3309.52
426.20	3344.63
426.39	3405.48
426.58	3152.70
426.77	3281.43
426.96	3361.01
427.15	3412.50
427.33	3372.71
427.52	3471.01
427.71	3442.93
427.90	3382.07
428.09	3400.80
428.28	3529.53
428.46	3398.46
428.65	3398.46
428.84	3684.00
429.03	3627.83
429.22	3393.78
429.40	3468.67
429.59	3468.67
429.78	3473.36
429.97	3485.06
430.16	3646.55
430.34	3646.55
430.53	3691.02
430.72	3679.32
430.91	3688.68
431.10	3705.07
431.28	3805.71
431.47	3857.20
431.66	3824.44
431.85	3747.20
432.03	3964.87
432.22	3829.12
432.41	3901.67
432.60	3784.65
432.79	3906.35
432.97	3878.27
433.16	3901.67
433.35	3850.18
433.54	3918.06
433.72	4058.49
433.91	3941.46
434.10	4009.34
434.28	3868.91
434.47	3985.93
434.66	4056.15
434.85	4072.53
435.03	4119.34
435.22	4133.39
435.41	4248.07
435.59	4142.75
435.78	4117.00
435.97	4152.11
436.16	4154.45
436.34	4154.45
436.53	4114.66
436.72	4297.22
436.90	4198.92
437.09	4329.99
437.28	4224.67
437.46	4196.58
437.65	4397.87
437.84	4372.12
438.02	4318.29
438.21	4447.02
438.40	4465.74
438.58	4542.98
438.77	4449.36
438.96	4554.68
439.14	4603.83
439.33	4732.56
439.52	4622.56
439.70	4730.22
439.89	4765.33
440.08	4798.10
440.26	4854.27
440.45	4683.41
440.63	4870.65
440.82	4957.25
441.01	4795.76
441.19	4863.63
441.38	4873.00
441.57	5001.72
441.75	4929.17
441.94	5123.43
442.12	5151.52
442.31	5184.29
442.50	5111.73
442.68	5027.47
442.87	5327.06
443.05	5228.76
443.24	5266.21
443.43	5275.57
443.61	5235.78
443.80	5357.49
443.98	5207.69
444.17	4987.68
444.35	5158.54
444.54	5411.32
444.73	5350.46
444.91	5266.21
445.10	5261.52
445.28	5373.87
445.47	5385.57
445.65	5336.42
445.84	5565.79
446.02	5563.45
446.21	5352.81
446.39	5303.65
446.58	5392.59
446.77	5605.58
446.95	5390.25
447.14	5416.00
447.32	5554.09
447.51	5493.24
447.69	5385.57
447.88	5523.66
448.06	5350.46
448.25	5441.75
448.43	5472.17
448.62	5500.26
448.80	5486.22
448.99	5614.95
449.17	5572.82
449.36	5472.17
449.54	5518.98
449.73	5661.76
449.91	5743.67
450.10	5834.96
450.28	5771.76
450.46	5849.00
450.65	5659.42
450.83	5820.91
451.02	5888.79
451.20	5825.59
451.39	5795.17
451.57	5937.94
451.76	5888.79
451.94	5755.38
452.13	6057.31
452.31	5954.32
452.49	5865.38
452.68	5914.53
452.86	5921.56
453.05	6076.03
453.23	6073.69
453.42	5774.10
453.60	5837.30
453.78	6296.04
453.97	5940.28
454.15	6230.51
454.34	6052.63
454.52	6069.01
454.70	6120.50
454.89	6174.33
455.07	6410.73
455.26	6389.66
455.44	6347.53
455.62	6406.05
455.81	6265.61
455.99	6450.52
456.17	6277.32
456.36	6408.39
456.54	6494.99
456.73	6408.39
456.91	6827.34
457.09	6504.35
457.28	6771.17
457.46	6626.06
457.64	6637.76
457.83	6551.16
458.01	6410.73
458.19	6729.04
458.38	6768.83
458.56	6719.68
458.74	6808.62
458.93	6916.28
459.11	6871.81
459.29	6853.09
459.48	6867.13
459.66	6881.18
459.84	6855.43
460.03	6904.58
460.21	6942.03
460.39	6958.41
460.57	6911.60
460.76	7028.63
460.94	7073.10
461.12	7192.47
461.31	7169.06
461.49	7122.25
461.67	7082.46
461.85	7192.47
462.04	7246.30
462.22	7749.51
462.40	7276.73
462.59	7370.35
462.77	7262.68
462.95	7297.79
463.13	7368.01
463.32	7328.22
463.50	7520.14
463.68	7470.99
463.86	7372.69
464.05	7351.62
464.23	7489.71
464.41	7456.95
464.59	7412.48
464.78	7499.08
464.96	7527.16
465.14	7569.29
465.32	7777.60
465.50	7478.01
465.69	7630.15
465.87	7726.11
466.05	7510.78
466.23	7775.26
466.41	7756.54
466.60	7822.07
466.78	7805.69
466.96	7803.35
467.14	7810.37
467.32	7651.21
467.51	7908.67
467.69	7709.72
467.87	8070.17
468.05	7925.05
468.23	7808.03
468.41	7903.99
468.60	7901.65
468.78	8063.15
468.96	8046.76
469.14	7978.89
469.32	8149.75
469.50	7927.39
469.69	8257.41
469.87	8222.30
470.05	8271.45
470.23	8154.43
470.41	8325.29
470.59	8456.36
470.77	8100.59
470.95	8458.70
471.14	8571.04
471.32	8198.90
471.50	8545.30
471.68	8617.85
471.86	8652.96
472.04	8627.21
472.22	8730.20
472.40	8571.04
472.58	8807.44
472.77	8723.18
472.95	8671.68
473.13	9179.58
473.31	8898.72
473.49	8975.95
473.67	8835.52
473.85	9034.47
474.03	9247.46
474.21	9177.24
474.39	9277.88
474.57	9254.48
474.75	9373.85
474.93	9427.68
475.12	9362.14
475.30	9547.05
475.48	9437.04
475.66	9352.78
475.84	9565.77
476.02	9638.33
476.20	9682.80
476.38	9912.17
476.56	10134.52
476.74	9923.87
476.92	9734.29
477.10	9898.13
477.28	9949.62
477.46	10223.46
477.64	10242.18
477.82	10228.14
478.00	10604.97
478.18	10501.98
478.36	10434.11
478.54	10724.33
478.72	10757.10
478.90	10787.53
479.08	10956.05
479.26	11054.35
479.44	10895.19
479.62	10675.18
479.80	11030.94
479.98	11398.41
480.16	11655.87
480.34	11400.75
480.52	11496.71
480.70	11321.17
480.88	11428.84
481.06	11658.21
481.24	11882.90
481.41	11838.43
481.59	12201.21
481.77	12131.00
481.95	12257.39
482.13	12194.19
482.31	12355.69
482.49	12414.20
482.67	12351.01
482.85	12716.13
483.03	12659.96
483.21	13039.12
483.39	13099.98
483.57	12940.82
483.74	13280.20
483.92	13315.31
484.10	12938.48
484.28	13577.45
484.46	13907.46
484.64	13839.59
484.82	13767.03
485.00	13823.20
485.18	14214.07
485.35	14188.33
485.53	14047.90
485.71	14424.72
485.89	14623.67
486.07	14438.76
486.25	14700.90
486.43	14764.10
486.61	14752.40
486.78	14960.70
486.96	14853.04
487.14	15154.97
487.32	14995.81
487.50	15393.70
487.68	15594.99
487.85	15566.90
488.03	15978.84
488.21	15875.85
488.39	15627.76
488.57	16100.55
488.75	16081.82
488.92	16739.51
489.10	16304.17
489.28	16636.53
489.46	16472.69
489.64	16524.18
489.81	17039.10
489.99	17074.21
490.17	17121.02
490.35	17226.34
490.53	17626.57
490.70	17467.42
490.88	17298.90
491.06	17771.69
491.24	17905.10
491.41	17813.82
491.59	18118.09
491.77	17987.02
491.95	18302.99
492.13	18286.61
492.30	18494.91
492.48	18707.90
492.66	18693.86
492.84	18630.66
493.01	18864.72
493.19	18824.93
493.37	18920.89
493.54	19080.05
493.72	19466.24
493.90	19487.30
494.08	19393.68
494.25	19812.63
494.43	19637.09
494.61	19976.47
494.79	20039.67
494.96	19896.89
495.14	20166.06
495.32	20414.15
495.49	20372.02
495.67	20996.95
495.85	20606.08
496.02	20772.25
496.20	21064.82
496.38	20936.09
496.55	21205.25
496.73	21142.06
496.91	21099.93
497.09	21589.10
497.26	21324.62
497.44	21715.49
497.62	21682.72
497.79	21790.39
497.97	21472.07
498.14	22324.03
498.32	22279.56
498.50	22019.76
498.67	22518.29
498.85	22361.48
499.03	22682.13
499.20	22595.53
499.38	23047.26
499.56	23054.28
499.73	22860.01
499.91	23236.84
500.08	23445.15
500.26	22773.41
500.44	23648.77
500.61	23646.43
500.79	23229.82
500.97	23550.47
501.14	23821.97
501.32	23763.46
501.49	23693.24
501.67	23735.37
501.84	24273.70
502.02	24311.14
502.20	24091.13
502.37	24435.19
502.55	24465.62
502.72	24189.44
502.90	24393.06
503.07	24046.66
503.25	24580.31
503.43	24285.40
503.60	24671.59
503.78	24856.49
503.95	24549.88
504.13	24790.95
504.30	24987.56
504.48	25130.33
504.65	25205.23
504.83	25488.43
505.01	25329.28
505.18	25638.23
505.36	25811.43
505.53	25635.89
505.71	25537.59
505.88	25507.16
506.06	25448.64
506.23	26038.46
506.41	25832.49
506.58	25991.65
506.76	26534.65
506.93	26263.15
507.11	26092.29
507.28	26291.24
507.46	26623.59
507.63	26354.43
507.81	27044.89
507.98	26345.07
508.16	26703.17
508.33	26843.60
508.50	27091.70
508.68	27136.17
508.85	26909.14
509.03	27168.94
509.20	27248.52
509.38	27452.14
509.55	27583.21
509.73	27470.87
509.90	27398.31
510.08	27297.67
510.25	27704.92
510.42	27417.04
510.60	27924.93
510.77	28142.60
510.95	28318.14
511.12	28147.28
511.30	27990.47
511.47	28147.28
511.64	28318.14
511.82	28402.40
511.99	28353.25
512.17	28519.43
512.34	28800.29
512.51	28559.22
512.69	28919.66
512.86	28830.72
513.04	28802.63
513.21	28938.38
513.38	28968.81
513.56	29460.32
513.73	29345.64
513.90	29240.31
514.08	29436.92
514.25	29977.58
514.43	29649.91
514.60	29708.42
514.77	29551.60
514.95	29825.45
515.12	29846.51
515.29	29694.38
515.47	30183.55
515.64	30724.21
515.81	30038.44
515.99	30204.61
516.16	30536.97
516.33	30419.94
516.51	30277.17
516.68	30527.61
516.85	30703.15
517.03	30822.51
517.20	30883.37
517.37	30696.13
517.54	30562.72
517.72	30803.79
517.89	30923.16
518.06	30766.34
518.24	30979.33
518.41	30923.16
518.58	31426.37
518.75	31063.59
518.93	31477.86
519.10	31424.03
519.27	31662.77
519.45	31580.85
519.62	31737.66
519.79	31810.22
519.96	31590.21
520.14	31978.74
520.31	31299.98
520.48	31938.95
520.65	32135.56
520.83	32140.24
521.00	32498.34
521.17	32093.43
521.34	32191.73
521.52	32397.70
521.69	32474.93
521.86	32844.74
522.03	32650.47
522.20	32704.31
522.38	32830.69
522.55	32734.73
522.72	32556.85
522.89	33085.81
523.07	32938.36
523.24	33385.40
523.41	32842.40
523.58	33158.37
523.75	33401.79
523.92	32905.59
524.10	33532.86
524.27	33654.56
524.44	33553.92
524.61	33860.53
524.78	33635.84
524.96	33710.74
525.13	33926.07
525.30	33888.62
525.47	34181.18
525.64	34040.75
525.81	34387.15
525.98	33895.64
526.16	34220.97
526.33	34202.25
526.50	34132.03
526.67	33914.36
526.84	34651.63
527.01	34485.45
527.18	34359.06
527.36	34630.57
527.53	34527.58
527.70	34993.35
527.87	34962.92
528.04	34756.96
528.21	34948.88
528.38	34628.23
528.55	35047.18
528.72	34824.83
528.89	35051.86
529.07	35044.84
529.24	34721.85
529.41	35150.17
529.58	35082.29
529.75	35398.26
529.92	35594.87
530.09	35424.01
530.26	35662.74
530.43	35154.85
530.60	35084.63
530.77	35178.25
530.94	35775.09
531.11	35470.82
531.28	35627.63
531.46	35370.18
531.63	36013.82
531.80	35793.81
531.97	36112.13
532.14	35999.78
532.31	36252.56
532.48	36507.68
532.65	36332.14
532.82	36278.30
532.99	36243.20
533.16	36070.00
533.33	36299.37
533.50	36343.84
533.67	36418.74
533.84	36428.10
534.01	36421.08
534.18	36493.63
534.35	36744.07
534.52	36971.10
534.69	36928.97
534.86	37296.44
535.03	36690.24
535.20	37237.92
535.37	37343.25
535.54	37076.43
535.71	37214.52
535.88	37038.98
536.05	37139.62
536.22	37376.01
536.38	37249.63
536.55	37219.20
536.72	37848.80
536.89	37247.29
537.06	37710.71
537.23	37457.93
537.40	37532.83
537.57	36952.38
537.74	37298.78
537.91	37942.42
538.08	37694.33
538.25	37607.73
538.42	37570.28
538.59	38190.52
538.75	37677.94
538.92	37771.57
539.09	38096.90
539.26	38117.96
539.43	38160.09
539.60	38380.10
539.77	38377.76
539.94	38494.79
540.11	38658.63
540.28	38361.38
540.44	38263.08
540.61	38181.16
540.78	38625.86
540.95	38181.16
541.12	38628.20
541.29	38457.34
541.46	38534.58
541.62	38597.77
541.79	39150.14
541.96	38494.79
542.13	38770.97
542.30	38686.71
542.47	38562.67
542.63	38885.66
542.80	38747.57
542.97	38892.68
543.14	38995.67
543.31	39122.05
543.48	39182.91
543.64	39746.98
543.81	39543.35
543.98	39768.04
544.15	39370.15
544.32	39512.92
544.48	39868.69
544.65	39578.46
544.82	39651.02
544.99	39356.11
545.16	39786.77
545.32	40144.87
545.49	40252.53
545.66	39908.47
545.83	39873.37
546.00	40285.30
546.16	39798.47
546.33	40282.96
546.50	39833.58
546.67	40395.31
546.83	39735.27
547.00	40205.72
547.17	40336.79
547.34	40257.21
547.50	40641.06
547.67	40439.78
547.84	40458.50
548.00	40402.33
548.17	40919.59
548.34	40861.07
548.51	41076.40
548.67	40636.38
548.84	40940.65
549.01	40540.42
549.18	40744.05
549.34	41186.41
549.51	41006.19
549.68	40940.65
549.84	40683.19
550.01	40996.82
550.18	40793.20
550.34	40942.99
550.51	40947.67
550.68	41170.02
550.84	40957.03
551.01	41394.71
551.18	41329.18
551.34	41511.74
551.51	41237.90
551.68	41270.67
551.84	40966.40
552.01	40886.82
552.18	41209.81
552.34	41429.82
552.51	41144.28
552.68	41535.15
552.84	41120.87
553.01	41855.80
553.18	41251.94
553.34	42005.59
553.51	41228.54
553.67	41745.80
553.84	41874.52
554.01	42026.66
554.17	41392.37
554.34	41801.97
554.51	41846.44
554.67	42176.45
554.84	42263.05
555.00	41670.90
555.17	42410.51
555.33	42141.35
555.50	42148.37
555.67	42508.81
555.83	42113.26
556.00	41993.89
556.16	42600.09
556.33	42586.05
556.50	42445.62
556.66	42220.92
556.83	42457.32
556.99	42560.30
557.16	42820.10
557.32	42541.58
557.49	42649.24
557.65	42377.74
557.82	42543.92
557.98	42419.87
558.15	42885.64
558.32	42508.81
558.48	42316.89
558.65	42344.97
558.81	42621.16
558.98	42550.94
559.14	42363.70
559.31	42738.18
559.47	42476.04
559.64	43084.58
559.80	42777.97
559.97	42909.04
560.13	42665.63
560.30	42948.83
560.46	43180.54
560.63	43491.83
560.79	43009.68
560.96	43423.96
561.12	42990.96
561.29	43295.23
561.45	43129.05
561.61	42981.60
561.78	43157.14
561.94	43555.03
562.11	42965.21
562.27	43402.89
562.44	42937.13
562.60	43297.57
562.77	43625.25
562.93	43126.71
563.10	43196.93
563.26	43201.61
563.42	43426.30
563.59	43346.72
563.75	43590.14
563.92	43222.67
564.08	43208.63
564.24	43400.55
564.41	43140.75
564.57	43606.52
564.74	43353.74
564.90	43115.01
565.07	42780.31
565.23	43246.08
565.39	43274.16
565.56	43480.13
565.72	43388.85
565.88	43718.87
566.05	43833.55
566.21	43494.18
566.38	43533.96
566.54	43533.96
566.70	44013.77
566.87	43363.11
567.03	43470.77
567.19	43875.68
567.36	43725.89
567.52	43665.03
567.68	44392.94
567.85	43899.09
568.01	44299.32
568.17	43800.79
568.34	43655.67
568.50	43662.69
568.66	43510.56
568.83	43920.15
568.99	43578.43
569.15	43981.01
569.32	43950.58
569.48	44091.01
569.64	44348.47
569.81	43990.37
569.97	43910.79
570.13	44198.68
570.30	43903.77
570.46	44201.02
570.62	44046.54
570.78	44189.31
570.95	43875.68
571.11	44091.01
571.27	43564.39
571.43	43688.44
571.60	44055.90
571.76	43983.35
571.92	43761.00
572.09	44226.76
572.25	44158.89
572.41	44378.90
572.57	44491.24
572.74	44467.84
572.90	44086.33
573.06	44240.81
573.22	44362.51
573.38	44416.35
573.55	44149.53
573.71	44257.19
573.87	44465.50
574.03	43880.36
574.20	44311.02
574.36	43950.58
574.52	44147.18
574.68	44156.55
574.84	44458.48
575.01	44528.69
575.17	44563.80
575.33	44304.00
575.49	44629.34
575.65	44460.82
575.82	44385.92
575.98	44315.70
576.14	44577.84
576.30	44549.76
576.46	44376.56
576.62	44322.72
576.79	44147.18
576.95	44479.54
577.11	44390.60
577.27	44329.75
577.43	44177.61
577.59	44657.42
577.75	44285.28
577.92	44259.53
578.08	44491.24
578.24	44552.10
578.40	44629.34
578.56	44671.46
578.72	44388.26
578.88	44114.42
579.04	44046.54
579.21	44545.08
579.37	44311.02
579.53	44320.38
579.69	44175.27
579.85	44636.36
580.01	44556.78
580.17	44816.58
580.33	45284.68
580.49	44601.25
580.65	44479.54
580.82	44378.90
580.98	44315.70
581.14	44549.76
581.30	44622.31
581.46	44130.80
581.62	44381.24
581.78	43941.22
581.94	44926.58
582.10	44755.72
582.26	44549.76
582.42	44751.04
582.58	44657.42
582.74	44767.43
582.90	44680.83
583.06	44971.05
583.22	44465.50
583.38	44811.90
583.54	44942.97
583.70	44584.86
583.86	45247.24
584.02	44533.37
584.18	44839.98
584.34	45148.93
584.50	44875.09
584.66	44643.38
584.82	45261.28
584.98	45420.44
585.14	44889.13
585.30	44816.58
585.46	44669.12
585.62	44818.92
585.78	44872.75
585.94	44205.70
586.10	44566.14
586.26	44561.46
586.42	44889.13
586.58	44715.93
586.74	44921.90
586.90	44807.22
587.06	44776.79
587.22	44907.86
587.38	44882.11
587.54	45291.71
587.70	45240.21
587.86	45022.54
588.02	44694.87
588.18	44708.91
588.34	44886.79
588.49	44783.81
588.65	45041.27
588.81	44683.17
588.97	44872.75
589.13	45071.70
589.29	45090.42
589.45	44718.28
589.61	45289.37
589.77	44804.88
589.93	44797.85
590.08	45525.76
590.24	45090.42
