SpectraSuite Data File
++++++++++++++++++++++++++++++++++++
Date: Fri Oct 25 10:47:36 EDT 2013
User: price-jones
Dark Spectrum Present: No
Reference Spectrum Present: No
Number of Sampled Component Spectra: 1
Spectrometers: USB2+H05261
Integration Time (usec): 100000 (USB2+H05261)
Spectra Averaged: 1 (USB2+H05261)
Boxcar Smoothing: 0 (USB2+H05261)
Correct for Electrical Dark: No (USB2+H05261)
Strobe/Lamp Enabled: No (USB2+H05261)
Correct for Detector Non-linearity: No (USB2+H05261)
Correct for Stray Light: No (USB2+H05261)
Number of Pixels in Processed Spectrum: 2048
>>>>>Begin Processed Spectral Data<<<<<
365.73	156.82
365.92	156.82
366.12	156.82
366.32	131.07
366.52	72.56
366.72	9.36
366.91	46.81
367.11	0.00
367.31	39.79
367.51	0.00
367.70	4.68
367.90	32.77
368.10	0.00
368.30	0.00
368.49	30.43
368.69	72.56
368.89	65.54
369.09	65.54
369.28	51.49
369.48	4.68
369.68	102.98
369.87	112.35
370.07	131.07
370.27	166.18
370.47	191.92
370.66	299.59
370.86	351.08
371.06	395.55
371.25	470.45
371.45	449.38
371.65	496.19
371.84	428.32
372.04	461.09
372.24	468.11
372.44	503.22
372.63	582.79
372.83	486.83
373.03	479.81
373.22	512.58
373.42	512.58
373.62	505.56
373.81	444.70
374.01	528.96
374.21	519.60
374.40	552.37
374.60	531.30
374.79	543.00
374.99	561.73
375.19	557.05
375.38	519.60
375.58	566.41
375.78	601.52
375.97	608.54
376.17	669.39
376.37	568.75
376.56	655.35
376.76	578.11
376.95	582.79
377.15	645.99
377.35	589.82
377.54	489.17
377.74	575.77
377.93	631.94
378.13	627.26
378.33	671.73
378.52	669.39
378.72	688.12
378.91	678.76
379.11	596.84
379.31	613.22
379.50	660.03
379.70	660.03
379.89	650.67
380.09	613.22
380.28	678.76
380.48	657.69
380.68	704.50
380.87	671.73
381.07	741.95
381.26	660.03
381.46	648.33
381.65	617.90
381.85	645.99
382.04	662.37
382.24	692.80
382.43	603.86
382.63	711.52
382.83	767.70
383.02	688.12
383.22	737.27
383.41	674.07
383.61	772.38
383.80	777.06
384.00	725.57
384.19	685.78
384.39	765.36
384.58	655.35
384.78	777.06
384.97	727.91
385.17	667.05
385.36	751.31
385.56	760.67
385.75	798.12
385.95	718.54
386.14	774.72
386.34	770.04
386.53	819.19
386.72	791.10
386.92	798.12
387.11	833.23
387.31	844.93
387.50	748.97
387.70	758.33
387.89	753.65
388.09	784.08
388.28	915.15
388.48	786.42
388.67	905.79
388.86	938.55
389.06	866.00
389.25	805.14
389.45	929.19
389.64	856.64
389.84	931.53
390.03	943.24
390.22	987.71
390.42	823.87
390.61	835.57
390.81	943.24
391.00	964.30
391.19	1034.52
391.39	950.26
391.58	978.34
391.78	1062.60
391.97	1025.15
392.16	1064.94
392.36	957.28
392.55	910.47
392.75	1039.20
392.94	1020.47
393.13	943.24
393.33	1048.56
393.52	971.32
393.71	966.64
393.91	1074.31
394.10	943.24
394.29	1062.60
394.49	1086.01
394.68	1064.94
394.88	1151.54
395.07	1149.20
395.26	1235.80
395.46	1062.60
395.65	1130.48
395.84	1114.10
396.04	1156.22
396.23	1041.54
396.42	1149.20
396.62	1200.69
396.81	1111.75
397.00	1174.95
397.19	1121.12
397.39	1153.88
397.58	1203.04
397.77	1188.99
397.97	1210.06
398.16	1282.61
398.35	1210.06
398.55	1296.66
398.74	1291.98
398.93	1521.35
399.12	1439.43
399.32	1289.64
399.51	1341.13
399.70	1376.24
399.90	1324.74
400.09	1404.32
400.28	1401.98
400.47	1378.58
400.67	1411.34
400.86	1504.96
401.05	1364.53
401.24	1462.83
401.44	1551.78
401.63	1568.16
401.82	1502.62
402.01	1589.22
402.21	1554.12
402.40	1465.18
402.59	1584.54
402.78	1621.99
402.97	1584.54
403.17	1614.97
403.36	1650.08
403.55	1661.78
403.74	1643.06
403.93	1682.85
404.13	1685.19
404.32	1724.97
404.51	1612.63
404.70	1591.56
404.89	1769.44
405.09	1764.76
405.28	1729.66
405.47	1802.21
405.66	1771.79
405.85	1823.28
406.05	1856.04
406.24	1732.00
406.43	1757.74
406.62	1874.77
406.81	1881.79
407.00	1879.45
407.20	1792.85
407.39	1849.02
407.58	1795.19
407.77	1919.24
407.96	1961.37
408.15	1977.75
408.34	1937.96
408.54	1975.41
408.73	1998.82
408.92	2064.35
409.11	2073.71
409.30	2022.22
409.49	1989.46
409.68	2073.71
409.87	2108.82
410.07	2209.47
410.26	2157.97
410.45	2118.18
410.64	2204.78
410.83	2324.15
411.02	2230.53
411.21	2284.36
411.40	2326.49
411.59	2385.01
411.78	2314.79
411.98	2368.62
412.17	2392.03
412.36	2427.14
412.55	2413.09
412.74	2469.27
412.93	2363.94
413.12	2466.92
413.31	2623.74
413.50	2476.29
413.69	2490.33
413.88	2436.50
414.07	2588.63
414.26	2609.70
414.45	2647.15
414.64	2637.78
414.83	2703.32
415.02	2675.23
415.22	2766.51
415.41	2771.19
415.60	2832.05
415.79	2818.00
415.98	2995.89
416.17	2827.37
416.36	2913.97
416.55	2974.82
416.74	2832.05
416.93	2958.44
417.12	3073.12
417.31	3056.74
417.50	2998.23
417.69	3019.29
417.88	3066.10
418.07	3098.87
418.26	3187.81
418.45	3258.03
418.64	3199.51
418.83	3325.90
419.02	3227.60
419.21	3218.24
419.39	3194.83
419.58	3225.26
419.77	3129.30
419.96	3342.28
420.15	3295.47
420.34	3318.88
420.53	3370.37
420.72	3424.20
420.91	3449.95
421.10	3463.99
421.29	3332.92
421.48	3358.67
421.67	3543.57
421.86	3417.18
422.05	3557.61
422.24	3478.04
422.43	3454.63
422.61	3332.92
422.80	3447.61
422.99	3515.48
423.18	3527.19
423.37	3590.38
423.56	3592.72
423.75	3478.04
423.94	3534.21
424.13	3314.20
424.32	3417.18
424.50	3459.31
424.69	3606.77
424.88	3658.26
425.07	3520.17
425.26	3545.91
425.45	3478.04
425.64	3555.27
425.83	3606.77
426.01	3719.11
426.20	3529.53
426.39	3599.74
426.58	3583.36
426.77	3686.34
426.96	3585.70
427.15	3585.70
427.33	3590.38
427.52	3723.79
427.71	3831.46
427.90	3786.99
428.09	3660.60
428.28	3756.56
428.46	3772.94
428.65	3735.50
428.84	3784.65
429.03	3815.07
429.22	3737.84
429.40	3794.01
429.59	3637.19
429.78	3646.55
429.97	3662.94
430.16	3744.86
430.34	3948.48
430.53	3971.89
430.72	3983.59
430.91	3892.31
431.10	3990.61
431.28	4091.26
431.47	4124.02
431.66	4229.35
431.85	4131.05
432.03	4219.99
432.22	4273.82
432.41	4362.76
432.60	4238.71
432.79	4152.11
432.97	4271.48
433.16	4332.33
433.35	4236.37
433.54	4236.37
433.72	4285.52
433.91	4376.80
434.10	4337.01
434.28	4292.54
434.47	4337.01
434.66	4477.44
434.85	4477.44
435.03	4416.59
435.22	4531.28
435.41	4727.88
435.59	4538.30
435.78	4535.96
435.97	4695.11
436.16	4580.43
436.34	4758.31
436.53	4531.28
436.72	4844.91
436.90	4770.01
437.09	4830.87
437.28	4702.14
437.46	4683.41
437.65	4746.61
437.84	4802.78
438.02	4772.35
438.21	4744.27
438.40	4582.77
438.58	4945.55
438.77	5006.41
438.96	4999.38
439.14	5156.20
439.33	5114.07
439.52	5081.30
439.70	5252.16
439.89	5235.78
440.08	5294.29
440.26	5240.46
440.45	5036.83
440.63	5242.80
440.82	5371.53
441.01	5376.21
441.19	5490.90
441.38	5502.60
441.57	5263.86
441.75	5563.45
441.94	5762.40
442.12	5682.82
442.31	5589.20
442.50	5689.84
442.68	5582.18
442.87	5621.97
443.05	5778.78
443.24	5797.51
443.43	5790.49
443.61	5959.00
443.80	5933.26
443.98	5706.23
444.17	5586.86
444.35	5856.02
444.54	6008.16
444.73	5982.41
444.91	5872.40
445.10	5919.21
445.28	5916.87
445.47	5778.78
445.65	5902.83
445.84	5949.64
446.02	5795.17
446.21	5879.43
446.39	5771.76
446.58	6057.31
446.77	5881.77
446.95	5956.66
447.14	6169.65
447.32	6026.88
447.51	5895.81
447.69	5907.51
447.88	6090.07
448.06	6040.92
448.25	6078.37
448.43	6047.94
448.62	6104.12
448.80	5987.09
448.99	6108.80
449.17	6223.48
449.36	6204.76
449.54	6263.27
449.73	6359.24
449.91	6328.81
450.10	6539.46
450.28	6548.82
450.46	6516.05
450.65	6401.37
450.83	6494.99
451.02	6377.96
451.20	6565.20
451.39	6724.36
451.57	6483.28
451.76	6593.29
451.94	6614.35
452.13	6712.66
452.31	6569.88
452.49	6511.37
452.68	6406.05
452.86	6300.72
453.05	6616.69
453.23	6733.72
453.42	6686.91
453.60	6516.05
453.78	6822.66
453.97	6633.08
454.15	6663.51
454.34	6546.48
454.52	6904.58
454.70	6855.43
454.89	6726.70
455.07	6757.13
455.26	6787.55
455.44	6932.67
455.62	6876.49
455.81	6876.49
455.99	6878.83
456.17	7117.57
456.36	7143.32
456.54	7169.06
456.73	7143.32
456.91	7435.88
457.09	7227.57
457.28	7541.21
457.46	7267.36
457.64	7335.24
457.83	7424.18
458.01	7295.45
458.19	7499.08
458.38	7330.56
458.56	7541.21
458.74	7426.52
458.93	7452.27
459.11	7508.44
459.29	7520.14
459.48	7405.46
459.66	7623.12
459.84	7583.34
460.03	7735.47
460.21	7482.69
460.39	7913.35
460.57	7899.31
460.76	7695.68
460.94	8032.72
461.12	8013.99
461.31	7845.48
461.49	7815.05
461.67	7885.26
461.85	8074.85
462.04	7784.62
462.22	8322.94
462.40	8051.44
462.59	8088.89
462.77	8102.93
462.95	8208.26
463.13	8084.21
463.32	8205.92
463.50	8369.76
463.68	8152.09
463.86	8067.83
464.05	8152.09
464.23	8203.58
464.41	8315.92
464.59	8189.53
464.78	8224.64
464.96	8238.69
465.14	8086.55
465.32	8238.69
465.50	8454.02
465.69	8351.03
465.87	8290.18
466.05	8393.16
466.23	8430.61
466.41	8362.73
466.60	8727.86
466.78	8341.67
466.96	8514.87
467.14	8351.03
467.32	8486.78
467.51	8631.90
467.69	8313.58
467.87	8645.94
468.05	8704.45
468.23	8552.32
468.41	8582.74
468.60	8582.74
468.78	8748.92
468.96	8699.77
469.14	8844.88
469.32	8875.31
469.50	8889.35
469.69	9029.79
469.87	8917.44
470.05	9020.42
470.23	9004.04
470.41	8823.82
470.59	9076.60
470.77	9020.42
470.95	9146.81
471.14	9210.01
471.32	9069.58
471.50	9380.87
471.68	9376.19
471.86	9408.95
472.04	9446.40
472.22	9570.45
472.40	9383.21
472.58	9626.62
472.77	9563.43
472.95	9614.92
473.13	10008.13
473.31	9504.92
473.49	9343.42
473.67	9652.37
473.85	9802.16
474.03	10111.11
474.21	9783.44
474.39	10216.44
474.57	9940.26
474.75	10225.80
474.93	10129.84
475.12	10216.44
475.30	10167.29
475.48	10239.84
475.66	10129.84
475.84	10239.84
476.02	10689.23
476.20	10483.26
476.38	10527.73
476.56	10902.22
476.74	10942.00
476.92	10782.85
477.10	10824.98
477.28	11206.48
477.46	10824.98
477.64	11143.29
477.82	11138.61
478.00	11290.74
478.18	11632.46
478.36	11637.14
478.54	11442.88
478.72	11576.29
478.90	11620.76
479.08	11857.15
479.26	12212.92
479.44	12046.74
479.62	11969.50
479.80	12121.63
479.98	12210.57
480.16	12566.34
480.34	12318.24
480.52	12519.53
480.70	12784.01
480.88	12896.35
481.06	12559.31
481.24	12709.11
481.41	12767.62
481.59	13181.90
481.77	13060.19
481.95	13233.39
482.13	13680.43
482.31	13184.24
482.49	13692.13
482.67	13598.51
482.85	13626.60
483.03	13898.10
483.21	14134.50
483.39	14214.07
483.57	14047.90
483.74	14270.25
483.92	14335.78
484.10	14225.78
484.28	14473.87
484.46	14738.35
484.64	14843.68
484.82	14499.62
485.00	14890.49
485.18	15161.99
485.35	15243.91
485.53	14963.04
485.71	15204.12
485.89	15482.64
486.07	15281.36
486.25	15445.20
486.43	15655.84
486.61	15639.46
486.78	16133.31
486.96	16016.29
487.14	16446.94
487.32	16524.18
487.50	16734.83
487.68	16690.36
487.85	16872.92
488.03	17015.69
488.21	17221.66
488.39	16901.01
488.57	17502.53
488.75	17312.94
488.92	17465.08
489.10	17949.57
489.28	17895.74
489.46	17998.72
489.64	17975.31
489.81	18270.22
489.99	18864.72
490.17	18635.35
490.35	18831.95
490.53	18860.04
490.70	18841.31
490.88	18918.55
491.06	19414.74
491.24	18824.93
491.41	19344.53
491.59	18925.57
491.77	19374.95
491.95	19613.69
492.13	19817.32
492.30	19803.27
492.48	19782.21
492.66	20079.46
492.84	20123.93
493.01	20510.11
493.19	20383.73
493.37	20484.37
493.54	20397.77
493.72	20657.57
493.90	20959.50
494.08	20847.15
494.25	20989.92
494.43	21200.57
494.61	21535.27
494.79	21731.87
494.96	21745.92
495.14	21432.29
495.32	21902.73
495.49	21874.65
495.67	22075.93
495.85	22216.36
496.02	22506.59
496.20	22384.88
496.38	22356.80
496.55	22764.05
496.73	23417.06
496.91	23166.62
497.09	23040.23
497.26	23061.30
497.44	23185.35
497.62	23061.30
497.79	23398.34
497.97	23344.50
498.14	23765.80
498.32	23772.82
498.50	23744.73
498.67	23922.62
498.85	24016.24
499.03	24044.32
499.20	24159.01
499.38	24622.44
499.56	24030.28
499.73	24465.62
499.91	24631.80
500.08	24533.50
500.26	24596.69
500.44	25006.28
500.61	25085.86
500.79	25078.84
500.97	24872.87
501.14	25289.49
501.32	25284.81
501.49	25280.13
501.67	25469.71
501.84	25668.66
502.02	25706.10
502.20	25467.37
502.37	26019.74
502.55	25888.67
502.72	26106.34
502.90	26087.61
503.07	25972.92
503.25	26026.76
503.43	26363.79
503.60	26225.70
503.78	26567.42
503.95	26115.70
504.13	26520.61
504.30	26815.52
504.48	26707.85
504.65	27005.10
504.83	27009.78
505.01	27005.10
505.18	27264.90
505.36	27344.48
505.53	27419.38
505.71	27180.64
505.88	27892.16
506.06	27358.52
506.23	27590.24
506.41	27351.50
506.58	27960.04
506.76	27735.35
506.93	28137.92
507.11	27679.18
507.28	28130.90
507.46	28154.30
507.63	28041.96
507.81	28414.10
507.98	28329.84
508.16	28683.27
508.33	28173.03
508.50	28552.20
508.68	28540.49
508.85	28931.36
509.03	28779.23
509.20	29172.44
509.38	29223.93
509.55	29230.95
509.73	29172.44
509.90	29179.46
510.08	29303.51
510.25	29266.06
510.42	29567.99
510.60	29612.46
510.77	29724.80
510.95	29958.86
511.12	29532.88
511.30	29670.97
511.47	30134.40
511.64	30038.44
511.82	30120.35
511.99	30040.78
512.17	30298.23
512.34	30455.05
512.51	30738.26
512.69	30639.95
512.86	30572.08
513.04	30738.26
513.21	30546.33
513.38	30843.58
513.56	30546.33
513.73	30237.38
513.90	31292.96
514.08	31000.40
514.25	31379.56
514.43	31065.93
514.60	30941.88
514.77	31161.89
514.95	31435.74
515.12	31316.37
515.29	31367.86
515.47	31604.25
515.64	31529.36
515.81	31866.39
515.99	32100.45
516.16	31426.37
516.33	31742.35
516.51	31665.11
516.68	32039.59
516.85	31765.75
517.03	32013.85
517.20	32318.12
517.37	32421.10
517.54	32622.39
517.72	32493.66
517.89	32395.35
518.06	32327.48
518.24	32280.67
518.41	32067.68
518.58	32580.26
518.75	32297.05
518.93	32919.63
519.10	32692.60
519.27	32854.10
519.45	33141.99
519.62	32872.82
519.79	33429.87
519.96	33542.22
520.14	33212.20
520.31	33617.11
520.48	33397.10
520.65	33610.09
520.83	34263.10
521.00	34015.01
521.17	33640.52
521.34	33605.41
521.52	33916.70
521.69	34171.82
521.86	34192.89
522.03	34003.30
522.20	34195.23
522.38	34298.21
522.55	34426.94
522.72	34380.13
522.89	34609.50
523.07	34918.45
523.24	34103.95
523.41	34698.44
523.58	34646.95
523.75	35035.48
523.92	35016.75
524.10	34768.66
524.27	35007.39
524.44	34895.05
524.61	35407.62
524.78	35297.62
524.96	35222.72
525.13	35393.58
525.30	35496.56
525.47	35868.71
525.64	35098.67
525.81	35491.88
525.98	35360.81
526.16	35124.42
526.33	35255.49
526.50	35814.88
526.67	35889.77
526.84	35534.01
527.01	35889.77
527.18	35899.14
527.36	36168.30
527.53	36123.83
527.70	36814.29
527.87	36180.00
528.04	36503.00
528.21	36495.97
528.38	36238.51
528.55	36671.51
528.72	36287.67
528.89	36863.44
529.07	36498.31
529.24	36708.96
529.41	36577.89
529.58	36531.08
529.75	36720.66
529.92	37109.19
530.09	36837.69
530.26	37340.91
530.43	37305.80
530.60	37003.87
530.77	36875.14
530.94	36992.17
531.11	36877.48
531.28	37106.85
531.46	37471.98
531.63	37268.35
531.80	37258.99
531.97	37326.86
532.14	37282.39
532.31	37308.14
532.48	37383.04
532.65	37401.76
532.82	37741.14
532.99	37734.12
533.16	37558.58
533.33	38026.68
533.50	37710.71
533.67	37748.16
533.84	38080.52
534.01	38232.65
534.18	38033.71
534.35	38288.82
534.52	38143.71
534.69	38073.49
534.86	38342.66
535.03	38192.86
535.20	38553.30
535.37	38469.04
535.54	38717.14
535.71	38529.90
535.88	38993.32
536.05	38679.69
536.22	38820.13
536.38	38998.01
536.55	38714.80
536.72	38335.63
536.89	38770.97
537.06	38487.77
537.23	38895.02
537.40	38817.78
537.57	38724.16
537.74	38995.67
537.91	39339.72
538.08	39145.46
538.25	38794.38
538.42	39442.71
538.59	39124.40
538.75	38759.27
538.92	39306.96
539.09	39555.05
539.26	39510.58
539.43	39622.93
539.60	39496.54
539.77	39335.04
539.94	39323.34
540.11	39548.03
540.28	39321.00
540.44	39428.66
540.61	39555.05
540.78	39452.07
540.95	39533.99
541.12	39468.45
541.29	39562.08
541.46	39627.61
541.62	39854.64
541.79	40081.67
541.96	39789.11
542.13	39613.57
542.30	39702.51
542.47	39491.86
542.63	40030.18
542.80	39941.24
542.97	40491.27
543.14	41104.49
543.31	40580.21
543.48	40713.62
543.64	40547.44
543.81	40292.32
543.98	40671.49
544.15	40765.11
544.32	40933.63
544.48	40964.06
544.65	41207.47
544.82	41155.98
544.99	40706.60
545.16	40982.78
545.32	41031.93
545.49	41010.87
545.66	41024.91
545.83	41584.30
546.00	41486.00
546.16	41209.81
546.33	41331.52
546.50	41303.43
546.67	41113.85
546.83	40854.05
547.00	41233.22
547.17	41361.95
547.34	41385.35
547.50	41378.33
547.67	41298.75
547.84	41347.90
548.00	41263.64
548.17	42017.30
548.34	41706.01
548.51	41876.86
548.67	41698.98
548.84	41998.57
549.01	41570.25
549.18	41486.00
549.34	41743.45
549.51	42220.92
549.68	42096.88
549.84	42564.98
550.01	42302.84
550.18	42117.94
550.34	41539.83
550.51	42356.67
550.68	42064.11
550.84	41848.78
551.01	42197.52
551.18	42071.13
551.34	42178.79
551.51	42143.69
551.68	42356.67
551.84	42146.03
552.01	42162.41
552.18	42663.28
552.34	41904.95
552.51	42763.93
552.68	42330.93
552.84	42225.60
553.01	42899.68
553.18	42609.45
553.34	42557.96
553.51	42679.67
553.67	42770.95
553.84	43040.11
554.01	42967.55
554.17	43306.93
554.34	43250.76
554.51	42738.18
554.67	42768.61
554.84	42803.72
555.00	42562.64
555.17	42878.61
555.33	43381.83
555.50	42616.47
555.67	43072.88
555.83	43171.18
556.00	42972.24
556.16	43653.33
556.33	43435.66
556.50	42670.31
556.66	43971.64
556.83	42878.61
556.99	43445.02
557.16	43356.08
557.32	43236.72
557.49	43234.38
557.65	42897.34
557.82	42997.98
557.98	43089.26
558.15	43398.21
558.32	43126.71
558.48	43786.74
558.65	43012.02
558.81	43093.94
558.98	43021.39
559.14	43304.59
559.31	43325.66
559.47	43543.33
559.64	43894.41
559.80	43924.83
559.97	43758.66
560.13	43386.51
560.30	43491.83
560.46	43419.28
560.63	43833.55
560.79	43697.80
560.96	43576.09
561.12	43824.19
561.29	43938.88
561.45	43941.22
561.61	43629.93
561.78	43669.72
561.94	43377.15
562.11	43786.74
562.27	43728.23
562.44	44067.61
562.60	43887.39
562.77	43854.62
562.93	43821.85
563.10	43903.77
563.26	43828.87
563.42	44282.94
563.59	43908.45
563.75	44076.97
563.92	44074.63
564.08	44058.24
564.24	44119.10
564.41	43737.59
564.57	43985.69
564.74	44107.40
564.90	44460.82
565.07	43814.83
565.23	44144.84
565.39	43763.34
565.56	44182.29
565.72	44538.05
565.88	44371.88
566.05	43931.86
566.21	44128.46
566.38	43784.40
566.54	44226.76
566.70	44435.07
566.87	44381.24
567.03	44594.23
567.19	44285.28
567.36	44481.88
567.52	44086.33
567.68	44975.73
567.85	44428.05
568.01	44414.01
568.17	43981.01
568.34	44521.67
568.50	44608.27
568.66	44114.42
568.83	44301.66
568.99	44278.25
569.15	44215.06
569.32	44465.50
569.48	44346.13
569.64	44687.85
569.81	44624.65
569.97	44409.32
570.13	44060.58
570.30	43941.22
570.46	44177.61
570.62	44161.23
570.78	43807.81
570.95	43875.68
571.11	44418.69
571.27	44554.44
571.43	44652.74
571.60	44362.51
571.76	44233.78
571.92	44786.15
572.09	44470.18
572.25	44594.23
572.41	44301.66
572.57	44631.68
572.74	44786.15
572.90	44715.93
573.06	44470.18
573.22	44388.26
573.38	44435.07
573.55	44313.36
573.71	44526.35
573.87	44638.70
574.03	44278.25
574.20	44315.70
574.36	44388.26
574.52	45272.98
574.68	44502.95
574.84	44648.06
575.01	44472.52
575.17	44311.02
575.33	44282.94
575.49	44753.38
575.65	44811.90
575.82	45029.57
575.98	44631.68
576.14	44734.66
576.30	44446.77
576.46	44189.31
576.62	44332.09
576.79	44903.18
576.95	44011.43
577.11	44650.40
577.27	44240.81
577.43	44767.43
577.59	44495.92
577.75	44807.22
577.92	44500.61
578.08	44762.75
578.24	44472.52
578.40	44601.25
578.56	44802.53
578.72	44856.37
578.88	44931.26
579.04	44486.56
579.21	44767.43
579.37	44879.77
579.53	44811.90
579.69	44208.04
579.85	44488.90
580.01	44739.34
580.17	44215.06
580.33	44760.40
580.49	44772.11
580.65	44884.45
580.82	45453.20
580.98	44425.71
581.14	44416.35
581.30	44790.83
581.46	44563.80
581.62	44626.99
581.78	44781.47
581.94	44828.28
582.10	44720.62
582.26	44961.69
582.42	45057.65
582.58	44479.54
582.74	44535.71
582.90	44638.70
583.06	44959.35
583.22	44992.12
583.38	45064.67
583.54	44879.77
583.70	44641.04
583.86	44622.31
584.02	44643.38
584.18	44683.17
584.34	45104.46
584.50	45233.19
584.66	44715.93
584.82	44121.44
584.98	44664.44
585.14	44641.04
585.30	44456.14
585.46	44755.72
585.62	44533.37
585.78	44704.23
585.94	44739.34
586.10	44741.68
586.26	44821.26
586.42	44807.22
586.58	44734.66
586.74	45062.33
586.90	44683.17
587.06	44502.95
587.22	45209.79
587.38	44641.04
587.54	45151.27
587.70	44767.43
587.86	45045.95
588.02	45010.84
588.18	44957.01
588.34	44891.48
588.49	44788.49
588.65	44549.76
588.81	44215.06
588.97	44638.70
589.13	44676.15
589.29	44701.89
589.45	44545.08
589.61	44863.39
589.77	45120.85
589.93	44949.99
590.08	44582.52
590.24	45268.30
