SpectraSuite Data File
++++++++++++++++++++++++++++++++++++
Date: Fri Oct 25 11:34:47 EDT 2013
User: price-jones
Dark Spectrum Present: No
Reference Spectrum Present: No
Number of Sampled Component Spectra: 1
Spectrometers: USB2+H05261
Integration Time (usec): 100000 (USB2+H05261)
Spectra Averaged: 1 (USB2+H05261)
Boxcar Smoothing: 0 (USB2+H05261)
Correct for Electrical Dark: No (USB2+H05261)
Strobe/Lamp Enabled: No (USB2+H05261)
Correct for Detector Non-linearity: No (USB2+H05261)
Correct for Stray Light: No (USB2+H05261)
Number of Pixels in Processed Spectrum: 2048
>>>>>Begin Processed Spectral Data<<<<<
365.73	262.14
365.92	262.14
366.12	262.14
366.32	210.65
366.52	163.84
366.72	262.14
366.91	182.56
367.11	175.54
367.31	145.11
367.51	234.05
367.70	189.58
367.90	222.35
368.10	205.97
368.30	161.50
368.49	161.50
368.69	208.31
368.89	203.63
369.09	189.58
369.28	262.14
369.48	234.05
369.68	208.31
369.87	304.27
370.07	248.10
370.27	231.71
370.47	341.72
370.66	528.96
370.86	533.64
371.06	564.07
371.25	599.18
371.45	540.66
371.65	559.39
371.84	578.11
372.04	507.90
372.24	528.96
372.44	559.39
372.63	512.58
372.83	617.90
373.03	594.50
373.22	592.16
373.42	599.18
373.62	603.86
373.81	662.37
374.01	657.69
374.21	622.58
374.40	631.94
374.60	681.10
374.79	681.10
374.99	622.58
375.19	734.93
375.38	648.33
375.58	669.39
375.78	641.31
375.97	730.25
376.17	763.01
376.37	699.82
376.56	697.48
376.76	688.12
376.95	671.73
377.15	683.44
377.35	655.35
377.54	702.16
377.74	622.58
377.93	627.26
378.13	699.82
378.33	711.52
378.52	711.52
378.72	650.67
378.91	709.18
379.11	772.38
379.31	643.65
379.50	667.05
379.70	737.27
379.89	788.76
380.09	702.16
380.28	760.67
380.48	763.01
380.68	645.99
380.87	791.10
381.07	755.99
381.26	833.23
381.46	767.70
381.65	732.59
381.85	795.78
382.04	683.44
382.24	772.38
382.43	828.55
382.63	777.06
382.83	786.42
383.02	779.40
383.22	772.38
383.41	739.61
383.61	770.04
383.80	833.23
384.00	730.25
384.19	770.04
384.39	851.96
384.58	844.93
384.78	870.68
384.97	812.17
385.17	793.44
385.36	816.85
385.56	788.76
385.75	837.91
385.95	898.77
386.14	894.08
386.34	870.68
386.53	835.57
386.72	840.25
386.92	866.00
387.11	866.00
387.31	891.74
387.50	798.12
387.70	837.91
387.89	866.00
388.09	861.32
388.28	898.77
388.48	901.11
388.67	784.08
388.86	964.30
389.06	957.28
389.25	903.45
389.45	882.38
389.64	929.19
389.84	968.98
390.03	1013.45
390.22	997.07
390.42	922.17
390.61	950.26
390.81	966.64
391.00	931.53
391.19	978.34
391.39	1046.22
391.58	1013.45
391.78	983.02
391.97	999.41
392.16	1027.50
392.36	1004.09
392.55	1039.20
392.75	990.05
392.94	1036.86
393.13	1018.13
393.33	997.07
393.52	1013.45
393.71	1046.22
393.91	1034.52
394.10	945.58
394.29	1034.52
394.49	1121.12
394.68	1128.14
394.88	983.02
395.07	1160.91
395.26	1001.75
395.46	1086.01
395.65	1146.86
395.84	1135.16
396.04	1193.67
396.23	1165.59
396.42	1165.59
396.62	1139.84
396.81	1212.40
397.00	1165.59
397.19	1203.04
397.39	1118.78
397.58	1270.91
397.77	1156.22
397.97	1280.27
398.16	1210.06
398.35	1193.67
398.55	1235.80
398.74	1263.89
398.93	1254.53
399.12	1198.35
399.32	1219.42
399.51	1343.47
399.70	1327.08
399.90	1270.91
400.09	1322.40
400.28	1336.45
400.47	1331.76
400.67	1350.49
400.86	1226.44
401.05	1245.16
401.24	1401.98
401.44	1315.38
401.63	1369.21
401.82	1317.72
402.01	1378.58
402.21	1348.15
402.40	1430.07
402.59	1495.60
402.78	1472.20
402.97	1530.71
403.17	1530.71
403.36	1465.18
403.55	1519.01
403.74	1441.77
403.93	1577.52
404.13	1572.84
404.32	1516.67
404.51	1495.60
404.70	1600.93
404.89	1497.94
405.09	1579.86
405.28	1593.90
405.47	1568.16
405.66	1610.29
405.85	1659.44
406.05	1584.54
406.24	1680.50
406.43	1659.44
406.62	1736.68
406.81	1865.41
407.00	1664.12
407.20	1706.25
407.39	1748.38
407.58	1746.04
407.77	1816.26
407.96	1809.23
408.15	1818.60
408.34	1774.13
408.54	1825.62
408.73	1863.07
408.92	1750.72
409.11	1839.66
409.30	1858.39
409.49	1881.79
409.68	1898.17
409.87	1820.94
410.07	1909.88
410.26	1968.39
410.45	1963.71
410.64	1998.82
410.83	1949.67
411.02	2015.20
411.21	2101.80
411.40	2024.56
411.59	2176.70
411.78	2017.54
411.98	2179.04
412.17	2101.80
412.36	2190.74
412.55	2272.66
412.74	2333.51
412.93	2197.76
413.12	2246.91
413.31	2277.34
413.50	2305.43
413.69	2321.81
413.88	2403.73
414.07	2307.77
414.26	2485.65
414.45	2471.61
414.64	2387.35
414.83	2509.05
415.02	2534.80
415.22	2464.58
415.41	2429.48
415.60	2434.16
415.79	2530.12
415.98	2651.83
416.17	2626.08
416.36	2574.59
416.55	2752.47
416.74	2658.85
416.93	2647.15
417.12	2775.88
417.31	2754.81
417.50	2654.17
417.69	2731.41
417.88	2703.32
418.07	2773.53
418.26	2850.77
418.45	2738.43
418.64	2944.39
418.83	2778.22
419.02	2810.98
419.21	2885.88
419.39	2972.48
419.58	2850.77
419.77	2885.88
419.96	3019.29
420.15	3063.76
420.34	2979.50
420.53	3045.04
420.72	3077.80
420.91	3042.70
421.10	3035.67
421.29	3119.93
421.48	3019.29
421.67	3155.04
421.86	3136.32
422.05	3126.96
422.24	3089.51
422.43	3136.32
422.61	3059.08
422.80	3339.94
422.99	3187.81
423.18	3234.62
423.37	3297.81
423.56	3241.64
423.75	3124.62
423.94	3141.00
424.13	3063.76
424.32	3133.98
424.50	3318.88
424.69	3323.56
424.88	3356.33
425.07	3148.02
425.26	3180.79
425.45	3335.26
425.64	3382.07
425.83	3260.37
426.01	3246.32
426.20	3246.32
426.39	3435.91
426.58	3330.58
426.77	3272.07
426.96	3236.96
427.15	3449.95
427.33	3398.46
427.52	3375.05
427.71	3417.18
427.90	3389.10
428.09	3370.37
428.28	3503.78
428.46	3435.91
428.65	3590.38
428.84	3637.19
429.03	3604.42
429.22	3499.10
429.40	3543.57
429.59	3611.45
429.78	3398.46
429.97	3339.94
430.16	3639.53
430.34	3562.30
430.53	3571.66
430.72	3674.64
430.91	3749.54
431.10	3700.39
431.28	3786.99
431.47	3889.97
431.66	3754.22
431.85	3765.92
432.03	3859.54
432.22	3904.01
432.41	3836.14
432.60	3840.82
432.79	4049.13
432.97	3829.12
433.16	3920.40
433.35	3871.25
433.54	4060.83
433.72	4102.96
433.91	3988.27
434.10	4002.32
434.28	4077.21
434.47	4023.38
434.66	4159.13
434.85	4030.40
435.03	4053.81
435.22	4107.64
435.41	4166.15
435.59	4173.18
435.78	4154.45
435.97	4117.00
436.16	4119.34
436.34	4023.38
436.53	4182.54
436.72	4337.01
436.90	4231.69
437.09	4311.27
437.28	4224.67
437.46	4325.31
437.65	4215.30
437.84	4486.81
438.02	4486.81
438.21	4514.89
438.40	4306.59
438.58	4521.92
438.77	4650.64
438.96	4498.51
439.14	4503.19
439.33	4662.35
439.52	4718.52
439.70	4559.36
439.89	4833.21
440.08	4758.31
440.26	4753.63
440.45	4966.62
440.63	4732.56
440.82	4936.19
441.01	4833.21
441.19	4835.55
441.38	4957.25
441.57	5074.28
441.75	5048.54
441.94	5247.48
442.12	5137.48
442.31	5291.95
442.50	5104.71
442.68	5287.27
442.87	5266.21
443.05	5266.21
443.24	5109.39
443.43	5181.95
443.61	5322.38
443.80	5504.94
443.98	5167.90
444.17	4980.66
444.35	5200.67
444.54	5387.91
444.73	5226.42
444.91	5163.22
445.10	5350.46
445.28	5364.51
445.47	5345.78
445.65	5380.89
445.84	5371.53
446.02	5516.64
446.21	5369.19
446.39	5322.38
446.58	5413.66
446.77	5411.32
446.95	5247.48
447.14	5289.61
447.32	5362.17
447.51	5507.28
447.69	5460.47
447.88	5575.16
448.06	5518.98
448.25	5476.85
448.43	5661.76
448.62	5324.72
448.80	5570.48
448.99	5507.28
449.17	5495.58
449.36	5472.17
449.54	5640.69
449.73	5699.20
449.91	5877.09
450.10	5804.53
450.28	5806.87
450.46	5720.27
450.65	5729.63
450.83	5692.18
451.02	5680.48
451.20	5933.26
451.39	5738.99
451.57	5872.40
451.76	5764.74
451.94	5849.00
452.13	6029.22
452.31	6008.16
452.49	5926.24
452.68	5942.62
452.86	5895.81
453.05	6015.18
453.23	6005.81
453.42	6113.48
453.60	6136.88
453.78	6174.33
453.97	5980.07
454.15	6223.48
454.34	6008.16
454.52	6122.84
454.70	6225.82
454.89	6239.87
455.07	6202.42
455.26	6277.32
455.44	6253.91
455.62	6406.05
455.81	6518.39
455.99	6455.20
456.17	6314.77
456.36	6464.56
456.54	6380.30
456.73	6562.86
456.91	6675.21
457.09	6520.73
457.28	6745.42
457.46	6574.56
457.64	6602.65
457.83	6616.69
458.01	6717.34
458.19	6789.89
458.38	6686.91
458.56	6862.45
458.74	6764.15
458.93	6897.56
459.11	6768.83
459.29	6850.75
459.48	6862.45
459.66	6920.96
459.84	7002.88
460.03	6988.84
460.21	7140.97
460.39	7063.74
460.57	6937.35
460.76	7117.57
460.94	7250.98
461.12	7152.68
461.31	7269.70
461.49	6895.22
461.67	7005.22
461.85	7187.79
462.04	7105.87
462.22	7346.94
462.40	7379.71
462.59	7379.71
462.77	7269.70
462.95	7452.27
463.13	7435.88
463.32	7456.95
463.50	7382.05
463.68	7316.51
463.86	7391.41
464.05	7351.62
464.23	7398.43
464.41	7609.08
464.59	7435.88
464.78	7847.82
464.96	7573.97
465.14	7515.46
465.32	7878.24
465.50	7712.07
465.69	7707.38
465.87	7688.66
466.05	7646.53
466.23	7639.51
466.41	7786.96
466.60	7955.48
466.78	7887.61
466.96	7847.82
467.14	7695.68
467.32	7765.90
467.51	7896.97
467.69	7538.87
467.87	7707.38
468.05	7812.71
468.23	7758.88
468.41	7922.71
468.60	7918.03
468.78	8154.43
468.96	7892.29
469.14	7918.03
469.32	8163.79
469.50	7831.43
469.69	8198.90
469.87	8063.15
470.05	8292.52
470.23	8367.42
470.41	8304.22
470.59	8336.99
470.77	8257.41
470.95	8346.35
471.14	8538.27
471.32	8205.92
471.50	8601.47
471.68	8393.16
471.86	8655.30
472.04	8617.85
472.22	8870.63
472.40	8634.24
472.58	8774.67
472.77	8606.15
472.95	8821.48
473.13	8924.46
473.31	8688.07
473.49	8933.82
473.67	8884.67
473.85	8849.57
474.03	9186.60
474.21	9125.75
474.39	9404.27
474.57	9174.90
474.75	9479.17
474.93	9397.25
475.12	9380.87
475.30	9621.94
475.48	9605.56
475.66	9528.32
475.84	9694.50
476.02	9547.05
476.20	9617.26
476.38	9666.41
476.56	10076.01
476.74	10068.98
476.92	9958.98
477.10	9905.15
477.28	9977.70
477.46	9907.49
477.64	10083.03
477.82	10438.79
478.00	10473.90
478.18	10459.85
478.36	10574.54
478.54	10616.67
478.72	10689.23
478.90	10714.97
479.08	10979.45
479.26	11229.89
479.44	11218.19
479.62	11138.61
479.80	11288.40
479.98	11089.46
480.16	11620.76
480.34	11365.64
480.52	11449.90
480.70	11531.82
480.88	11578.63
481.06	11707.36
481.24	11728.42
481.41	12013.97
481.59	11981.20
481.77	11957.80
481.95	12058.44
482.13	12285.47
482.31	12325.26
482.49	12566.34
482.67	12547.61
482.85	12751.24
483.03	12954.87
483.21	12861.24
483.39	13116.36
483.57	12954.87
483.74	13092.96
483.92	12980.61
484.10	13015.72
484.28	13401.91
484.46	13500.21
484.64	13699.16
484.82	13657.03
485.00	13596.17
485.18	14066.62
485.35	14216.41
485.53	14155.56
485.71	14251.52
485.89	14501.96
486.07	14516.00
486.25	14623.67
486.43	14574.52
486.61	14721.97
486.78	14883.47
486.96	14754.74
487.14	14913.89
487.32	15047.30
487.50	15164.33
487.68	15660.52
487.85	15482.64
488.03	15779.89
488.21	15889.90
488.39	15817.34
488.57	15983.52
488.75	16313.53
488.92	16547.59
489.10	16465.67
489.28	16484.39
489.46	16842.50
489.64	16624.83
489.81	16821.43
489.99	16699.72
490.17	17092.93
490.35	17322.30
490.53	17336.35
490.70	17593.81
490.88	17551.68
491.06	17706.15
491.24	17905.10
491.41	17975.31
491.59	18118.09
491.77	18192.98
491.95	18443.42
492.13	18347.46
492.30	18609.60
492.48	18504.28
492.66	18508.96
492.84	18801.52
493.01	18897.49
493.19	19126.86
493.37	19133.88
493.54	19288.35
493.72	19396.02
493.90	19358.57
494.08	19761.14
494.25	19669.86
494.43	19768.16
494.61	19840.72
494.79	20027.96
494.96	20170.74
495.14	20320.53
495.32	20294.79
495.49	20123.93
495.67	20339.26
495.85	20758.21
496.02	20638.84
496.20	20858.85
496.38	20725.44
496.55	21055.46
496.73	21713.15
496.91	21369.09
497.09	21467.39
497.26	21542.29
497.44	21434.63
497.62	21322.28
497.79	21937.84
497.97	21589.10
498.14	22113.38
498.32	22408.29
498.50	22230.41
498.67	22317.01
498.85	22017.42
499.03	22600.21
499.20	22824.90
499.38	22623.62
499.56	22899.80
499.73	22953.63
499.91	23304.71
500.08	23180.67
500.26	23241.52
500.44	23222.80
500.61	23206.41
500.79	23194.71
500.97	23655.79
501.14	24070.07
501.32	23997.51
501.49	23646.43
501.67	23894.53
501.84	24271.36
502.02	23845.38
502.20	24346.25
502.37	24364.98
502.55	24037.30
502.72	24203.48
502.90	24102.84
503.07	24383.70
503.25	24456.26
503.43	24418.81
503.60	24699.67
503.78	24893.94
503.95	24819.04
504.13	24907.98
504.30	24938.41
504.48	25048.41
504.65	25160.76
504.83	25373.75
505.01	25921.43
505.18	25319.92
505.36	25392.47
505.53	25355.02
505.71	25656.95
505.88	25773.98
506.06	25921.43
506.23	26352.09
506.41	25818.45
506.58	26108.68
506.76	26244.43
506.93	26333.37
507.11	26403.58
507.28	26525.29
507.46	26448.05
507.63	26363.79
507.81	26881.05
507.98	26595.51
508.16	26492.52
508.33	26794.45
508.50	26623.59
508.68	26984.04
508.85	27009.78
509.03	27061.27
509.20	27150.21
509.38	27601.94
509.55	27475.55
509.73	27323.41
509.90	27510.66
510.08	27662.79
510.25	27683.86
510.42	27749.39
510.60	28467.94
510.77	27889.82
510.95	27751.73
511.12	28442.19
511.30	28355.59
511.47	28414.10
511.64	28474.96
511.82	28772.21
511.99	28142.60
512.17	28491.34
512.34	28215.16
512.51	28631.77
512.69	28669.22
512.86	29008.60
513.04	29057.75
513.21	29083.50
513.38	29247.33
513.56	29053.07
513.73	29228.61
513.90	29525.86
514.08	29240.31
514.25	29890.98
514.43	29546.92
514.60	29827.79
514.77	29806.72
514.95	29858.21
515.12	29546.92
515.29	29656.93
515.47	29989.28
515.64	30029.07
515.81	29855.87
515.99	30249.08
516.16	30501.86
516.33	30188.23
516.51	30375.47
516.68	30501.86
516.85	30333.34
517.03	30567.40
517.20	30707.83
517.37	30820.17
517.54	30902.09
517.72	31033.16
517.89	30995.71
518.06	31157.21
518.24	31126.78
518.41	30721.87
518.58	31218.07
518.75	31072.95
518.93	31297.64
519.10	31407.65
519.27	31037.84
519.45	31393.61
519.62	31819.58
519.79	31545.74
519.96	31667.45
520.14	31737.66
520.31	31550.42
520.48	32102.79
520.65	32107.47
520.83	32151.94
521.00	32439.82
521.17	31892.14
521.34	32315.78
521.52	32374.29
521.69	32275.99
521.86	32498.34
522.03	32687.92
522.20	32868.14
522.38	33326.89
522.55	32961.76
522.72	32711.33
522.89	32973.47
523.07	33212.20
523.24	32802.61
523.41	33511.79
523.58	32985.17
523.75	33560.94
523.92	33118.58
524.10	33666.27
524.27	33256.67
524.44	33457.96
524.61	33476.68
524.78	33668.61
524.96	33893.30
525.13	34068.84
525.30	33773.93
525.47	33701.37
525.64	33621.80
525.81	34174.16
525.98	34223.31
526.16	34075.86
526.33	33879.25
526.50	34438.64
526.67	34094.58
526.84	34499.50
527.01	34522.90
527.18	34679.72
527.36	34419.92
527.53	34696.10
527.70	34991.01
527.87	34838.87
528.04	34649.29
528.21	34796.74
528.38	34827.17
528.55	34885.68
528.72	34998.03
528.89	34663.33
529.07	34988.67
529.24	35049.52
529.41	35391.24
529.58	35089.31
529.75	35335.07
529.92	35555.08
530.09	35157.19
530.26	35302.30
530.43	35328.05
530.60	35079.95
530.77	35503.59
530.94	35629.98
531.11	35627.63
531.28	35887.43
531.46	35819.56
531.63	36079.36
531.80	36306.39
531.97	36385.97
532.14	35803.17
532.31	35812.54
532.48	36411.71
532.65	36217.45
532.82	35840.62
532.99	36322.77
533.16	36343.84
533.33	36144.89
533.50	36180.00
533.67	36776.84
533.84	36465.55
534.01	36435.12
534.18	36666.83
534.35	36847.05
534.52	37038.98
534.69	37031.96
534.86	37053.02
535.03	36664.49
535.20	37214.52
535.37	36758.11
535.54	37376.01
535.71	37165.37
535.88	37188.77
536.05	36882.16
536.22	37385.38
536.38	37399.42
536.55	37764.54
536.72	37055.36
536.89	37132.60
537.06	37443.89
537.23	37846.46
537.40	37504.74
537.57	37675.60
537.74	37347.93
537.91	37766.88
538.08	37797.31
538.25	37909.66
538.42	38085.20
538.59	38052.43
538.75	38061.79
538.92	38127.33
539.09	38302.87
539.26	38307.55
539.43	38157.75
539.60	38150.73
539.77	37956.47
539.94	38422.23
540.11	38511.17
540.28	38309.89
540.44	38316.91
540.61	38345.00
540.78	38403.51
540.95	38347.34
541.12	38440.96
541.29	38314.57
541.46	38499.47
541.62	38759.27
541.79	38885.66
541.96	38541.60
542.13	38478.41
542.30	39145.46
542.47	38752.25
542.63	39035.45
542.80	39126.74
542.97	39126.74
543.14	39564.42
543.31	39255.46
543.48	39810.17
543.64	39770.38
543.81	39526.97
543.98	39349.09
544.15	39669.74
544.32	39529.31
544.48	39976.35
544.65	39730.59
544.82	39641.65
544.99	39861.66
545.16	39548.03
545.32	39758.68
545.49	40540.42
545.66	40315.73
545.83	40123.80
546.00	39988.05
546.16	40348.50
546.33	40367.22
546.50	39875.71
546.67	40069.97
546.83	39585.48
547.00	40299.34
547.17	40130.83
547.34	40322.75
547.50	40442.12
547.67	40673.83
547.84	40587.23
548.00	40552.12
548.17	40671.49
548.34	40385.94
548.51	40907.88
548.67	40636.38
548.84	40861.07
549.01	40362.54
549.18	40671.49
549.34	40505.31
549.51	41074.06
549.68	41099.81
549.84	40879.80
550.01	41425.14
550.18	40767.45
550.34	41113.85
550.51	40886.82
550.68	41331.52
550.84	40655.11
551.01	41329.18
551.18	41057.68
551.34	41001.50
551.51	41078.74
551.68	41172.36
551.84	41141.94
552.01	40959.38
552.18	40989.80
552.34	41226.20
552.51	41577.28
552.68	40964.06
552.84	41687.28
553.01	41556.21
553.18	41528.13
553.34	41291.73
553.51	41181.73
553.67	41523.44
553.84	41858.14
554.01	41663.88
554.17	41649.83
554.34	42021.98
554.51	41743.45
554.67	41837.08
554.84	42089.85
555.00	41851.12
555.17	41907.29
555.33	42115.60
555.50	42167.09
555.67	42335.61
555.83	41900.27
556.00	42349.65
556.16	42740.52
556.33	42146.03
556.50	42366.04
556.66	42574.34
556.83	42483.06
556.99	42747.54
557.16	42960.53
557.32	42841.17
557.49	42834.14
557.65	42394.12
557.82	42747.54
557.98	42628.18
558.15	42300.50
558.32	42906.70
558.48	42110.92
558.65	42623.50
558.81	42590.73
558.98	42696.05
559.14	42927.77
559.31	42504.13
559.47	42824.78
559.64	43044.79
559.80	42756.91
559.97	42946.49
560.13	42602.43
560.30	42974.58
560.46	42745.20
560.63	43229.69
560.79	42906.70
560.96	43000.32
561.12	43021.39
561.29	43232.04
561.45	43152.46
561.61	43196.93
561.78	42918.40
561.94	42951.17
562.11	43548.01
562.27	42895.00
562.44	43124.37
562.60	43262.46
562.77	43367.79
562.93	42747.54
563.10	43438.00
563.26	43206.29
563.42	43344.38
563.59	42871.59
563.75	43129.05
563.92	43562.05
564.08	43103.31
564.24	43508.22
564.41	43213.31
564.57	43419.28
564.74	43604.18
564.90	43175.86
565.07	43653.33
565.23	43510.56
565.39	43468.43
565.56	43201.61
565.72	43548.01
565.88	43714.19
566.05	43562.05
566.21	43337.36
566.38	43753.97
566.54	43842.92
566.70	43433.32
566.87	43669.72
567.03	43311.61
567.19	43779.72
567.36	43522.26
567.52	43681.42
567.68	44025.48
567.85	43887.39
568.01	43737.59
568.17	43838.23
568.34	44135.48
568.50	43681.42
568.66	43351.40
568.83	44076.97
568.99	44280.60
569.15	43807.81
569.32	43873.34
569.48	43627.59
569.64	44346.13
569.81	43824.19
569.97	44088.67
570.13	44446.77
570.30	43852.28
570.46	43812.49
570.62	43814.83
570.78	44296.98
570.95	44046.54
571.11	44399.96
571.27	44135.48
571.43	44130.80
571.60	44399.96
571.76	43931.86
571.92	43763.34
572.09	43995.05
572.25	44177.61
572.41	43952.92
572.57	44142.50
572.74	44535.71
572.90	44205.70
573.06	44318.04
573.22	44083.99
573.38	44395.28
573.55	44493.58
573.71	44767.43
573.87	44463.16
574.03	44055.90
574.20	44343.79
574.36	44240.81
574.52	43828.87
574.68	44341.45
574.84	44315.70
575.01	44662.10
575.17	44364.85
575.33	44446.77
575.49	44519.33
575.65	44512.31
575.82	44238.47
575.98	44282.94
576.14	45038.93
576.30	44619.97
576.46	44711.25
576.62	44629.34
576.79	44725.30
576.95	44463.16
577.11	44406.98
577.27	44519.33
577.43	44467.84
577.59	44343.79
577.75	44325.07
577.92	44037.18
578.08	44818.92
578.24	44428.05
578.40	44931.26
578.56	44680.83
578.72	44552.10
578.88	44516.99
579.04	44498.26
579.21	44385.92
579.37	44519.33
579.53	44114.42
579.69	44233.78
579.85	44266.55
580.01	44711.25
580.17	44643.38
580.33	44762.75
580.49	44538.05
580.65	44545.08
580.82	44060.58
580.98	44313.36
581.14	44179.95
581.30	44917.22
581.46	44095.69
581.62	44481.88
581.78	44006.75
581.94	44299.32
582.10	44793.17
582.26	44870.41
582.42	44734.66
582.58	44563.80
582.74	44680.83
582.90	44582.52
583.06	44577.84
583.22	44594.23
583.38	44507.63
583.54	44439.75
583.70	44856.37
583.86	45095.10
584.02	44715.93
584.18	44638.70
584.34	44814.24
584.50	44914.88
584.66	44966.37
584.82	44692.53
584.98	44739.34
585.14	44603.59
585.30	44219.74
585.46	45048.29
585.62	44421.03
585.78	44774.45
585.94	44430.39
586.10	44598.91
586.26	44729.98
586.42	44680.83
586.58	44776.79
586.74	44552.10
586.90	44348.47
587.06	44790.83
587.22	45308.09
587.38	44573.16
587.54	44526.35
587.70	44584.86
587.86	44786.15
588.02	45036.59
588.18	44816.58
588.34	44739.34
588.49	44966.37
588.65	44268.89
588.81	45062.33
588.97	44949.99
589.13	44830.62
589.29	44978.07
589.45	45256.60
589.61	44767.43
589.77	44842.32
589.93	45045.95
590.08	44800.19
590.24	45450.86
