SpectraSuite Data File
++++++++++++++++++++++++++++++++++++
Date: Fri Oct 25 11:23:12 EDT 2013
User: price-jones
Dark Spectrum Present: No
Reference Spectrum Present: No
Number of Sampled Component Spectra: 1
Spectrometers: USB2+H05261
Integration Time (usec): 100000 (USB2+H05261)
Spectra Averaged: 1 (USB2+H05261)
Boxcar Smoothing: 0 (USB2+H05261)
Correct for Electrical Dark: No (USB2+H05261)
Strobe/Lamp Enabled: No (USB2+H05261)
Correct for Detector Non-linearity: No (USB2+H05261)
Correct for Stray Light: No (USB2+H05261)
Number of Pixels in Processed Spectrum: 2048
>>>>>Begin Processed Spectral Data<<<<<
365.73	294.91
365.92	294.91
366.12	294.91
366.32	133.41
366.52	102.98
366.72	126.39
366.91	154.48
367.11	126.39
367.31	152.13
367.51	135.75
367.70	65.54
367.90	212.99
368.10	74.90
368.30	93.62
368.49	128.73
368.69	135.75
368.89	201.29
369.09	79.58
369.28	201.29
369.48	91.28
369.68	241.08
369.87	147.45
370.07	208.31
370.27	245.76
370.47	313.63
370.66	552.37
370.86	550.03
371.06	627.26
371.25	709.18
371.45	580.45
371.65	624.92
371.84	690.46
372.04	732.59
372.24	791.10
372.44	720.88
372.63	746.63
372.83	744.29
373.03	777.06
373.22	753.65
373.42	751.31
373.62	770.04
373.81	725.57
374.01	858.98
374.21	777.06
374.40	814.51
374.60	802.80
374.79	835.57
374.99	793.44
375.19	842.59
375.38	868.34
375.58	772.38
375.78	863.66
375.97	821.53
376.17	917.49
376.37	828.55
376.56	889.40
376.76	896.43
376.95	880.04
377.15	861.32
377.35	840.25
377.54	882.38
377.74	882.38
377.93	968.98
378.13	873.02
378.33	959.62
378.52	884.72
378.72	936.21
378.91	987.71
379.11	940.90
379.31	863.66
379.50	903.45
379.70	959.62
379.89	971.32
380.09	959.62
380.28	971.32
380.48	1027.50
380.68	997.07
380.87	1025.15
381.07	1041.54
381.26	1043.88
381.46	1036.86
381.65	976.00
381.85	1046.22
382.04	1032.18
382.24	1076.65
382.43	1053.24
382.63	1001.75
382.83	990.05
383.02	1074.31
383.22	1123.46
383.41	1102.39
383.61	1142.18
383.80	1128.14
384.00	1078.99
384.19	1097.71
384.39	1153.88
384.58	1125.80
384.78	1067.28
384.97	1116.44
385.17	1109.41
385.36	1142.18
385.56	1261.55
385.75	1174.95
385.95	1200.69
386.14	1184.31
386.34	1174.95
386.53	1331.76
386.72	1231.12
386.92	1259.21
387.11	1228.78
387.31	1242.82
387.50	1282.61
387.70	1191.33
387.89	1277.93
388.09	1296.66
388.28	1329.42
388.48	1301.34
388.67	1280.27
388.86	1355.17
389.06	1313.04
389.25	1299.00
389.45	1455.81
389.64	1355.17
389.84	1313.04
390.03	1387.94
390.22	1345.81
390.42	1380.92
390.61	1352.83
390.81	1411.34
391.00	1551.78
391.19	1355.17
391.39	1511.99
391.58	1493.26
391.78	1437.09
391.97	1507.30
392.16	1476.88
392.36	1472.20
392.55	1465.18
392.75	1621.99
392.94	1605.61
393.13	1497.94
393.33	1551.78
393.52	1481.56
393.71	1605.61
393.91	1572.84
394.10	1629.01
394.29	1551.78
394.49	1554.12
394.68	1708.59
394.88	1603.27
395.07	1729.66
395.26	1603.27
395.46	1741.36
395.65	1748.38
395.84	1837.32
396.04	1771.79
396.23	1666.46
396.42	1746.04
396.62	1820.94
396.81	1825.62
397.00	1764.76
397.19	1820.94
397.39	1776.47
397.58	1769.44
397.77	1846.68
397.97	1905.20
398.16	1898.17
398.35	1912.22
398.55	1916.90
398.74	1884.13
398.93	2047.97
399.12	1921.58
399.32	1853.70
399.51	1952.01
399.70	2019.88
399.90	1991.80
400.09	2069.03
400.28	2038.61
400.47	2157.97
400.67	2029.24
400.86	2064.35
401.05	2132.23
401.24	2118.18
401.44	2104.14
401.63	2221.17
401.82	2139.25
402.01	2169.68
402.21	2197.76
402.40	2214.15
402.59	2239.89
402.78	2157.97
402.97	2244.57
403.17	2359.26
403.36	2260.96
403.55	2286.70
403.74	2277.34
403.93	2345.22
404.13	2366.28
404.32	2382.67
404.51	2408.41
404.70	2366.28
404.89	2403.73
405.09	2471.61
405.28	2502.03
405.47	2523.10
405.66	2544.16
405.85	2612.04
406.05	2441.18
406.24	2569.91
406.43	2487.99
406.62	2719.70
406.81	2691.62
407.00	2661.19
407.20	2602.68
407.39	2677.57
407.58	2670.55
407.77	2806.30
407.96	2768.85
408.15	2712.68
408.34	2696.30
408.54	2843.75
408.73	2818.00
408.92	2874.18
409.11	2792.26
409.30	2902.26
409.49	2988.86
409.68	3033.33
409.87	2785.24
410.07	3028.65
410.26	3101.21
410.45	3049.72
410.64	2981.84
410.83	3129.30
411.02	3122.27
411.21	3187.81
411.40	3283.77
411.59	3328.24
411.78	3335.26
411.98	3187.81
412.17	3246.32
412.36	3361.01
412.55	3438.25
412.74	3386.76
412.93	3485.06
413.12	3353.99
413.31	3644.21
413.50	3473.36
413.69	3545.91
413.88	3588.04
414.07	3641.87
414.26	3684.00
414.45	3716.77
414.64	3651.24
414.83	3749.54
415.02	3728.47
415.22	3763.58
415.41	3824.44
415.60	3861.88
415.79	3922.74
415.98	3894.65
416.17	4077.21
416.36	4021.04
416.55	3948.48
416.74	4128.70
416.93	4037.42
417.12	4112.32
417.31	4215.30
417.50	4187.22
417.69	4152.11
417.88	4393.19
418.07	4318.29
418.26	4372.12
418.45	4346.37
418.64	4395.53
418.83	4479.79
419.02	4432.97
419.21	4650.64
419.39	4610.86
419.58	4594.47
419.77	4355.74
419.96	4491.49
420.15	4601.49
420.34	4552.34
420.53	4622.56
420.72	4690.43
420.91	4660.01
421.10	4835.55
421.29	4863.63
421.48	4788.74
421.67	4849.59
421.86	4870.65
422.05	4781.71
422.24	4877.68
422.43	4854.27
422.61	4994.70
422.80	4994.70
422.99	5015.77
423.18	5022.79
423.37	5055.56
423.56	4980.66
423.75	4952.57
423.94	4954.91
424.13	4795.76
424.32	4753.63
424.50	4990.02
424.69	5174.92
424.88	5158.54
425.07	4917.47
425.26	4882.36
425.45	4938.53
425.64	5008.75
425.83	5060.24
426.01	5153.86
426.20	5071.94
426.39	5210.03
426.58	5078.96
426.77	5111.73
426.96	5268.55
427.15	5107.05
427.33	5289.61
427.52	5095.35
427.71	5132.79
427.90	5472.17
428.09	5366.85
428.28	5453.45
428.46	5362.17
428.65	5416.00
428.84	5565.79
429.03	5469.83
429.22	5416.00
429.40	5441.75
429.59	5495.58
429.78	5434.72
429.97	5416.00
430.16	5551.75
430.34	5717.93
430.53	5743.67
430.72	5685.16
430.91	5593.88
431.10	5652.39
431.28	5750.70
431.47	6019.86
431.66	5891.13
431.85	5823.25
432.03	6047.94
432.22	6108.80
432.41	5863.04
432.60	6064.33
432.79	5949.64
432.97	6045.60
433.16	5998.79
433.35	6057.31
433.54	6197.74
433.72	6148.59
433.91	6108.80
434.10	6125.18
434.28	6179.01
434.47	6113.48
434.66	6293.70
434.85	6160.29
435.03	6443.49
435.22	6431.79
435.41	6541.80
435.59	6497.33
435.78	6656.48
435.97	6490.31
436.16	6516.05
436.34	6602.65
436.53	6588.61
436.72	6895.22
436.90	6558.18
437.09	6700.95
437.28	6670.53
437.46	6707.98
437.65	6562.86
437.84	6717.34
438.02	6782.87
438.21	6881.18
438.40	6658.82
438.58	7045.01
438.77	6998.20
438.96	6909.26
439.14	7239.28
439.33	7087.14
439.52	7232.26
439.70	7201.83
439.89	7396.09
440.08	7482.69
440.26	7293.11
440.45	7386.73
440.63	7536.52
440.82	7801.01
441.01	7588.02
441.19	7801.01
441.38	7672.28
441.57	7777.60
441.75	7847.82
441.94	7985.91
442.12	8107.62
442.31	8126.34
442.50	8231.66
442.68	7943.78
442.87	7922.71
443.05	8236.35
443.24	8212.94
443.43	8131.02
443.61	8297.20
443.80	8507.85
443.98	8135.70
444.17	7960.16
444.35	8243.37
444.54	8334.65
444.73	8442.31
444.91	8348.69
445.10	8344.01
445.28	8430.61
445.47	8290.18
445.65	8376.78
445.84	8500.83
446.02	8702.11
446.21	8449.33
446.39	8507.85
446.58	8636.58
446.77	8456.36
446.95	8243.37
447.14	8311.24
447.32	8674.03
447.51	8416.57
447.69	8376.78
447.88	8596.79
448.06	8704.45
448.25	8535.93
448.43	8718.50
448.62	8582.74
448.80	8798.07
448.99	8709.13
449.17	8889.35
449.36	8730.20
449.54	8912.76
449.73	9064.89
449.91	9121.07
450.10	8964.25
450.28	9268.52
450.46	9020.42
450.65	9029.79
450.83	9366.82
451.02	9078.94
451.20	9202.99
451.39	9217.03
451.57	9261.50
451.76	9130.43
451.94	9280.22
452.13	9441.72
452.31	9479.17
452.49	9392.57
452.68	9521.30
452.86	9364.48
453.05	9504.92
453.23	9483.85
453.42	9572.79
453.60	9437.04
453.78	9767.06
453.97	9626.62
454.15	9516.62
454.34	9554.07
454.52	9696.84
454.70	9760.03
454.89	9947.28
455.07	9989.41
455.26	9790.46
455.44	9996.43
455.62	9942.60
455.81	10047.92
455.99	9989.41
456.17	10064.30
456.36	10015.15
456.54	10363.89
456.73	10399.00
456.91	10778.17
457.09	10553.48
457.28	10677.52
457.46	10171.97
457.64	10635.39
457.83	10693.91
458.01	10534.75
458.19	10754.76
458.38	10633.05
458.56	10839.02
458.74	10633.05
458.93	10743.06
459.11	10761.78
459.29	10986.47
459.48	10981.79
459.66	10937.32
459.84	11103.50
460.03	11047.33
460.21	11096.48
460.39	11016.90
460.57	11063.71
460.76	11133.93
460.94	11297.77
461.12	11267.34
461.31	11119.89
461.49	11129.25
461.67	11276.70
461.85	11463.94
462.04	11372.66
462.22	11510.75
462.40	11712.04
462.59	11597.35
462.77	11840.77
462.95	11887.58
463.13	11803.32
463.32	11808.00
463.50	12004.61
463.68	11960.14
463.86	11627.78
464.05	11896.94
464.23	11838.43
464.41	12056.10
464.59	11726.08
464.78	12166.10
464.96	12163.76
465.14	12140.36
465.32	12299.52
465.50	12383.77
465.69	12432.93
465.87	12367.39
466.05	12248.02
466.23	12393.14
466.41	12678.68
466.60	12690.38
466.78	12393.14
466.96	12313.56
467.14	12472.71
467.32	12341.64
467.51	12978.27
467.69	12276.11
467.87	12472.71
468.05	12486.76
468.23	12615.49
468.41	12582.72
468.60	12564.00
468.78	12865.92
468.96	12758.26
469.14	12994.65
469.32	13221.69
469.50	12613.15
469.69	13074.23
469.87	13240.41
470.05	13240.41
470.23	13352.76
470.41	13284.88
470.59	13584.47
470.77	13139.77
470.95	13434.68
471.14	13928.53
471.32	13322.33
471.50	13362.12
471.68	13458.08
471.86	13741.29
472.04	13954.27
472.22	14176.62
472.40	13991.72
472.58	13820.86
472.77	14113.43
472.95	14310.04
473.13	14581.54
473.31	14139.18
473.49	14331.10
473.67	14368.55
473.85	14487.92
474.03	14747.72
474.21	14759.42
474.39	15166.67
474.57	14930.28
474.75	14890.49
474.93	15180.71
475.12	15178.37
475.30	15300.08
475.48	15255.61
475.66	15335.19
475.84	15239.23
476.02	15541.16
476.20	15529.45
476.38	15885.22
476.56	16009.26
476.74	16217.57
476.92	16037.35
477.10	16252.68
477.28	16238.64
477.46	16428.22
477.64	16547.59
477.82	16725.47
478.00	17090.59
478.18	17128.04
478.36	17209.96
478.54	17439.33
478.72	17195.92
478.90	17649.98
479.08	17839.56
479.26	17851.27
479.44	17900.42
479.62	18078.30
479.80	18298.31
479.98	18214.05
480.16	18670.45
480.34	18551.09
480.52	18972.38
480.70	19014.51
480.88	18537.04
481.06	18735.99
481.24	19133.88
481.41	19337.51
481.59	19798.59
481.77	19999.88
481.95	19915.62
482.13	20009.24
482.31	19896.89
482.49	20500.75
482.67	20421.17
482.85	20636.50
483.03	20926.73
483.21	20786.30
483.39	21240.36
483.57	21149.08
483.74	21032.05
483.92	21769.32
484.10	21495.48
484.28	22143.81
484.46	22272.54
484.64	22246.79
484.82	22410.63
485.00	22768.73
485.18	22944.27
485.35	23171.30
485.53	23117.47
485.71	23211.09
485.89	23889.85
486.07	23756.44
486.25	23742.39
486.43	23676.86
486.61	24095.82
486.78	23988.15
486.96	24458.60
487.14	24886.92
487.32	24727.76
487.50	25448.64
487.68	25401.83
487.85	25373.75
488.03	26045.48
488.21	25963.56
488.39	25865.26
488.57	26544.02
488.75	26473.80
488.92	26731.26
489.10	27012.12
489.28	26920.84
489.46	27505.98
489.64	27716.62
489.81	27859.40
489.99	27871.10
490.17	27845.35
490.35	28430.49
490.53	28191.75
490.70	28896.25
490.88	28496.02
491.06	29116.26
491.24	29488.41
491.41	29504.79
491.59	29575.01
491.77	29680.33
491.95	30092.27
492.13	30387.18
492.30	30258.45
492.48	30314.62
492.66	30373.13
492.84	30726.55
493.01	31122.10
493.19	30546.33
493.37	31510.63
493.54	31524.68
493.72	31882.78
493.90	31763.41
494.08	32102.79
494.25	32512.38
494.43	32294.71
494.61	32472.59
494.79	32629.41
494.96	33027.30
495.14	33261.35
495.32	33455.62
495.49	33270.72
495.67	33928.41
495.85	33839.47
496.02	33785.63
496.20	34630.57
496.38	34176.50
496.55	34506.52
496.73	35365.49
496.91	35061.22
497.09	35262.51
497.26	35241.45
497.44	35119.74
497.62	35899.14
497.79	36147.23
497.97	35381.88
498.14	36503.00
498.32	36503.00
498.50	36362.56
498.67	36830.67
498.85	36978.12
499.03	36788.54
499.20	36830.67
499.38	37202.82
499.56	37769.22
499.73	37450.91
499.91	37694.33
500.08	37993.92
500.26	37596.03
500.44	37933.06
500.61	38667.99
500.79	37947.11
500.97	38880.98
501.14	39037.80
501.32	39033.11
501.49	39152.48
501.67	38822.47
501.84	39196.95
502.02	39136.10
502.20	39702.51
502.37	39161.84
502.55	39821.87
502.72	39562.08
502.90	40378.92
503.07	39908.47
503.25	40334.45
503.43	40086.36
503.60	40453.82
503.78	40460.84
503.95	40568.51
504.13	40947.67
504.30	41261.30
504.48	40875.12
504.65	41113.85
504.83	41471.95
505.01	41406.42
505.18	41497.70
505.36	42370.72
505.53	41631.11
505.71	41996.23
505.88	42298.16
506.06	41963.46
506.23	42127.30
506.41	42050.06
506.58	42204.54
506.76	42579.03
506.93	43115.01
507.11	42618.81
507.28	43129.05
507.46	43098.62
507.63	43349.06
507.81	43725.89
507.98	43686.10
508.16	42890.32
508.33	43768.02
508.50	44086.33
508.68	43943.56
508.85	44144.84
509.03	44055.90
509.20	44315.70
509.38	44587.21
509.55	44458.48
509.73	44875.09
509.90	44882.11
510.08	45127.87
510.25	44605.93
510.42	44732.32
510.60	45125.53
510.77	45661.51
510.95	46227.92
511.12	46040.68
511.30	45743.43
511.47	46000.89
511.64	46003.23
511.82	46050.04
511.99	45958.76
512.17	46239.62
512.34	45949.40
512.51	46616.45
512.69	46925.40
512.86	47114.98
513.04	47250.74
513.21	46644.54
513.38	46815.40
513.56	47370.10
513.73	46979.23
513.90	47440.32
514.08	46885.61
514.25	47360.74
514.43	47739.91
514.60	48011.41
514.77	48046.52
514.95	48032.47
515.12	47824.17
515.29	48184.61
515.47	48411.64
515.64	48999.12
515.81	48172.91
515.99	48830.60
516.16	48488.88
516.33	49071.67
516.51	48790.81
516.68	48720.59
516.85	49001.46
517.03	49207.42
517.20	49294.02
517.37	49474.24
517.54	49558.50
517.72	49516.37
517.89	49712.98
518.06	49570.21
518.24	49698.94
518.41	50064.06
518.58	49602.97
518.75	49602.97
518.93	49979.80
519.10	49612.34
519.27	50171.72
519.45	49986.82
519.62	50440.89
519.79	50234.92
519.96	50251.30
520.14	50396.42
520.31	50497.06
520.48	50768.56
520.65	50586.00
520.83	51058.79
521.00	51049.42
521.17	50782.60
521.34	51077.51
521.52	51206.24
521.69	51171.13
521.86	51255.39
522.03	51522.21
522.20	51466.04
522.38	51688.39
522.55	51629.88
522.72	51866.27
522.89	51814.78
523.07	51990.32
523.24	51936.49
523.41	52083.94
523.58	51934.15
523.75	52175.22
523.92	52170.54
524.10	52006.70
524.27	52348.42
524.44	52074.58
524.61	52442.04
524.78	52451.41
524.96	52495.88
525.13	52872.70
525.30	53055.26
525.47	53050.58
525.64	52640.99
525.81	53029.52
525.98	53036.54
526.16	52898.45
526.33	53095.05
526.50	53329.11
526.67	53394.64
526.84	53380.60
527.01	53125.48
527.18	53169.95
527.36	53226.12
527.53	53258.89
527.70	53764.45
527.87	53822.96
528.04	53478.90
528.21	53380.60
528.38	53689.55
528.55	53928.28
528.72	53605.29
528.89	53900.20
529.07	53949.35
529.24	53815.94
529.41	53996.16
529.58	53963.39
529.75	54099.14
529.92	54035.95
530.09	54073.40
530.26	54150.63
530.43	54092.12
530.60	54152.97
530.77	54054.67
530.94	54365.96
531.11	54443.20
531.28	54241.92
531.46	54667.89
531.63	54394.05
531.80	54429.16
531.97	54595.34
532.14	55030.68
532.31	54836.41
532.48	54913.65
532.65	55028.34
532.82	54951.10
532.99	55126.64
533.16	54660.87
533.33	55213.24
533.50	55372.39
533.67	55227.28
533.84	54855.14
534.01	55128.98
534.18	55248.35
534.35	55419.20
534.52	55569.00
534.69	55634.53
534.86	55583.04
535.03	55365.37
535.20	55365.37
535.37	55632.19
535.54	55594.74
535.71	55271.75
535.88	55594.74
536.05	55760.92
536.22	55664.96
536.38	55955.19
536.55	55945.83
536.72	56119.02
536.89	55863.91
537.06	55891.99
537.23	55987.95
537.40	55980.93
537.57	55931.78
537.74	56041.79
537.91	56133.07
538.08	56095.62
538.25	55901.36
538.42	56172.86
538.59	56444.36
538.75	56032.42
538.92	56149.45
539.09	56470.11
539.26	56507.55
539.43	56355.42
539.60	56289.88
539.77	56390.53
539.94	56601.18
540.11	56509.89
540.28	56884.38
540.44	56919.49
540.61	56765.01
540.78	56633.94
540.95	56659.69
541.12	56612.88
541.29	56631.60
541.46	56662.03
541.62	56830.55
541.79	56865.66
541.96	56755.65
542.13	56863.32
542.30	57256.53
542.47	57130.14
542.63	57080.98
542.80	57085.67
542.97	57359.51
543.14	57523.35
543.31	57326.74
543.48	57446.11
543.64	57689.52
543.81	57579.52
543.98	57546.75
544.15	57661.44
544.32	57577.18
544.48	57839.32
544.65	57525.69
544.82	57907.19
544.99	57556.11
545.16	57680.16
545.32	57429.72
545.49	57937.62
545.66	57822.93
545.83	58071.03
546.00	58003.16
546.16	58049.97
546.33	57811.23
546.50	57733.99
546.67	57923.58
546.83	57684.84
547.00	58113.16
547.17	57879.11
547.34	58068.69
547.50	58274.66
547.67	58295.72
547.84	58185.72
548.00	58300.40
548.17	58246.57
548.34	58309.77
548.51	58564.88
548.67	58426.79
548.84	58375.30
549.01	58436.16
549.18	58326.15
549.34	58585.95
549.51	58522.76
549.68	58787.24
549.84	58539.14
550.01	58616.38
550.18	58408.07
550.34	58569.57
550.51	58719.36
550.68	58520.41
550.84	58305.09
551.01	58794.26
551.18	58529.78
551.34	58920.65
551.51	58656.17
551.68	58791.92
551.84	58712.34
552.01	58763.83
552.18	58967.46
552.34	58827.02
552.51	59063.42
552.68	58948.73
552.84	59093.85
553.01	59341.94
553.18	59178.10
553.34	59049.38
553.51	58979.16
553.67	59079.80
553.84	59166.40
554.01	59157.04
554.17	59180.45
554.34	59213.21
554.51	59121.93
554.67	59393.43
554.84	59229.60
555.00	59180.45
555.17	59044.69
555.33	59465.99
555.50	58997.88
555.67	59311.52
555.83	59304.49
556.00	59306.83
556.16	59702.38
556.33	59377.05
556.50	59475.35
556.66	59564.29
556.83	59384.07
556.99	59592.38
557.16	59730.47
557.32	59643.87
557.49	59686.00
557.65	59770.26
557.82	59702.38
557.98	59620.47
558.15	59632.17
558.32	59456.63
558.48	59807.71
558.65	59671.96
558.81	59714.09
558.98	59906.01
559.14	59781.96
559.31	59814.73
559.47	59969.21
559.64	60055.81
559.80	59992.61
559.97	59896.65
560.13	59763.24
560.30	60111.98
560.46	60039.42
560.63	59973.89
560.79	59997.29
560.96	60163.47
561.12	59927.08
561.29	60128.36
561.45	60104.96
561.61	60079.21
561.78	60119.00
561.94	60083.89
562.11	60039.42
562.27	60013.68
562.44	60062.83
562.60	60339.01
562.77	60413.91
562.93	60350.71
563.10	60275.82
563.26	60076.87
563.42	60257.09
563.59	60264.11
563.75	60320.29
563.92	60343.69
564.08	60247.73
564.24	60409.23
564.41	60268.79
564.57	60301.56
564.74	60310.92
564.90	60498.17
565.07	60264.11
565.23	60315.61
565.39	60327.31
565.56	60561.36
565.72	60430.29
565.88	60217.30
566.05	60467.74
566.21	60477.10
566.38	60420.93
566.54	60743.92
566.70	60605.83
566.87	60582.43
567.03	60285.18
567.19	60594.13
567.36	60481.78
567.52	60495.83
567.68	60736.90
567.85	60507.53
568.01	60694.77
568.17	60411.57
568.34	60676.05
568.50	60678.39
568.66	60617.53
568.83	60779.03
568.99	60505.19
569.15	60566.04
569.32	60713.50
569.48	60776.69
569.64	60617.53
569.81	60605.83
569.97	60701.79
570.13	60605.83
570.30	60704.13
570.46	60856.27
570.62	60779.03
570.78	60671.37
570.95	60781.37
571.11	60921.80
571.27	60844.57
571.43	60619.88
571.60	60907.76
571.76	60800.10
571.92	61048.19
572.09	60917.12
572.25	60942.87
572.41	60858.61
572.57	60952.23
572.74	60977.98
572.90	60856.27
573.06	60734.56
573.22	60676.05
573.38	60800.10
573.55	60739.24
573.71	61048.19
573.87	60963.93
574.03	60757.97
574.20	61087.98
574.36	60842.23
574.52	61066.92
574.68	60886.70
574.84	60919.46
575.01	60949.89
575.17	60985.00
575.33	60905.42
575.49	60975.64
575.65	60781.37
575.82	61085.64
575.98	61130.11
576.14	61104.37
576.30	61050.53
576.46	61183.94
576.62	60956.91
576.79	60975.64
576.95	60956.91
577.11	61153.52
577.27	61027.13
577.43	61244.80
577.59	60912.44
577.75	61022.45
577.92	60898.40
578.08	61055.21
578.24	61106.71
578.40	61076.28
578.56	61174.58
578.72	60999.04
578.88	61118.41
579.04	61347.78
579.21	61146.50
579.37	61394.59
579.53	61293.95
579.69	60956.91
579.85	61102.03
580.01	60996.70
580.17	60926.49
580.33	61125.43
580.49	61172.24
580.65	61137.13
580.82	61106.71
580.98	61179.26
581.14	61083.30
581.30	61179.26
581.46	61183.94
581.62	61186.28
581.78	61263.52
581.94	61237.78
582.10	61087.98
582.26	61190.97
582.42	61080.96
582.58	61263.52
582.74	61029.47
582.90	61160.54
583.06	61155.86
583.22	61146.50
583.38	61212.03
583.54	61523.32
583.70	61289.27
583.86	61137.13
584.02	61008.40
584.18	61205.01
584.34	61296.29
584.50	61092.66
584.66	60994.36
584.82	61113.73
584.98	61471.83
585.14	61176.92
585.30	61148.84
585.46	61200.33
585.62	61137.13
585.78	61549.07
585.94	61085.64
586.10	61244.80
586.26	61289.27
586.42	61481.19
586.58	61286.93
586.74	61197.99
586.90	61216.71
587.06	61244.80
587.22	61303.31
587.38	61186.28
587.54	61300.97
587.70	61513.96
587.86	61570.13
588.02	61144.16
588.18	61432.04
588.34	61413.32
588.49	61223.73
