SpectraSuite Data File
++++++++++++++++++++++++++++++++++++
Date: Fri Oct 25 11:33:33 EDT 2013
User: price-jones
Dark Spectrum Present: No
Reference Spectrum Present: No
Number of Sampled Component Spectra: 1
Spectrometers: USB2+H05261
Integration Time (usec): 100000 (USB2+H05261)
Spectra Averaged: 1 (USB2+H05261)
Boxcar Smoothing: 0 (USB2+H05261)
Correct for Electrical Dark: No (USB2+H05261)
Strobe/Lamp Enabled: No (USB2+H05261)
Correct for Detector Non-linearity: No (USB2+H05261)
Correct for Stray Light: No (USB2+H05261)
Number of Pixels in Processed Spectrum: 2048
>>>>>Begin Processed Spectral Data<<<<<
365.73	238.73
365.92	238.73
366.12	238.73
366.32	203.63
366.52	145.11
366.72	189.58
366.91	245.76
367.11	133.41
367.31	124.05
367.51	124.05
367.70	163.84
367.90	208.31
368.10	124.05
368.30	234.05
368.49	262.14
368.69	107.66
368.89	170.86
369.09	201.29
369.28	154.48
369.48	166.18
369.68	241.08
369.87	203.63
370.07	266.82
370.27	234.05
370.47	346.40
370.66	519.60
370.86	505.56
371.06	543.00
371.25	559.39
371.45	596.84
371.65	503.22
371.84	465.77
372.04	531.30
372.24	622.58
372.44	585.13
372.63	571.09
372.83	624.92
373.03	596.84
373.22	585.13
373.42	566.41
373.62	629.60
373.81	657.69
374.01	608.54
374.21	702.16
374.40	655.35
374.60	741.95
374.79	692.80
374.99	643.65
375.19	603.86
375.38	617.90
375.58	706.84
375.78	744.29
375.97	653.01
376.17	685.78
376.37	613.22
376.56	669.39
376.76	622.58
376.95	620.24
377.15	667.05
377.35	648.33
377.54	667.05
377.74	650.67
377.93	702.16
378.13	751.31
378.33	725.57
378.52	702.16
378.72	678.76
378.91	711.52
379.11	716.20
379.31	767.70
379.50	716.20
379.70	748.97
379.89	732.59
380.09	711.52
380.28	723.23
380.48	739.61
380.68	741.95
380.87	699.82
381.07	720.88
381.26	723.23
381.46	809.83
381.65	788.76
381.85	781.74
382.04	861.32
382.24	765.36
382.43	741.95
382.63	704.50
382.83	744.29
383.02	746.63
383.22	802.80
383.41	725.57
383.61	858.98
383.80	837.91
384.00	795.78
384.19	798.12
384.39	765.36
384.58	788.76
384.78	847.27
384.97	849.61
385.17	826.21
385.36	828.55
385.56	788.76
385.75	861.32
385.95	807.48
386.14	915.15
386.34	905.79
386.53	910.47
386.72	851.96
386.92	882.38
387.11	912.81
387.31	896.43
387.50	952.60
387.70	889.40
387.89	873.02
388.09	910.47
388.28	891.74
388.48	910.47
388.67	985.37
388.86	889.40
389.06	933.87
389.25	919.83
389.45	968.98
389.64	856.64
389.84	1029.84
390.03	964.30
390.22	889.40
390.42	980.68
390.61	929.19
390.81	966.64
391.00	999.41
391.19	992.39
391.39	976.00
391.58	966.64
391.78	959.62
391.97	1041.54
392.16	1032.18
392.36	1043.88
392.55	1081.33
392.75	1032.18
392.94	1060.26
393.13	1107.07
393.33	1022.81
393.52	1048.56
393.71	1121.12
393.91	1090.69
394.10	1057.92
394.29	1130.48
394.49	1144.52
394.68	1160.91
394.88	1123.46
395.07	1095.37
395.26	1041.54
395.46	1118.78
395.65	1207.72
395.84	1102.39
396.04	1160.91
396.23	1142.18
396.42	1179.63
396.62	1205.38
396.81	1200.69
397.00	1282.61
397.19	1240.48
397.39	1273.25
397.58	1273.25
397.77	1219.42
397.97	1259.21
398.16	1331.76
398.35	1235.80
398.55	1217.08
398.74	1263.89
398.93	1336.45
399.12	1334.11
399.32	1357.51
399.51	1343.47
399.70	1301.34
399.90	1324.74
400.09	1423.05
400.28	1357.51
400.47	1380.92
400.67	1413.68
400.86	1444.11
401.05	1451.13
401.24	1453.47
401.44	1460.49
401.63	1409.00
401.82	1380.92
402.01	1441.77
402.21	1427.73
402.40	1380.92
402.59	1376.24
402.78	1488.58
402.97	1474.54
403.17	1509.65
403.36	1547.09
403.55	1619.65
403.74	1577.52
403.93	1561.14
404.13	1551.78
404.32	1638.38
404.51	1603.27
404.70	1629.01
404.89	1664.12
405.09	1741.36
405.28	1741.36
405.47	1671.14
405.66	1647.74
405.85	1732.00
406.05	1753.06
406.24	1657.10
406.43	1706.25
406.62	1802.21
406.81	1727.32
407.00	1748.38
407.20	1767.10
407.39	1757.74
407.58	1856.04
407.77	1804.55
407.96	1809.23
408.15	1895.83
408.34	1935.62
408.54	1919.24
408.73	1865.41
408.92	1963.71
409.11	1944.99
409.30	1989.46
409.49	2008.18
409.68	1952.01
409.87	2094.78
410.07	2069.03
410.26	2050.31
410.45	2045.63
410.64	2078.40
410.83	2064.35
411.02	2153.29
411.21	2263.30
411.40	2132.23
411.59	2174.36
411.78	2223.51
411.98	2125.21
412.17	2277.34
412.36	2202.44
412.55	2356.92
412.74	2431.82
412.93	2340.54
413.12	2328.83
413.31	2436.50
413.50	2296.07
413.69	2424.80
413.88	2450.54
414.07	2448.20
414.26	2443.52
414.45	2457.56
414.64	2516.08
414.83	2537.14
415.02	2579.27
415.22	2647.15
415.41	2546.50
415.60	2597.99
415.79	2696.30
415.98	2698.64
416.17	2693.96
416.36	2780.56
416.55	2782.90
416.74	2813.32
416.93	2810.98
417.12	2846.09
417.31	2925.67
417.50	2885.88
417.69	2909.29
417.88	2972.48
418.07	2874.18
418.26	2946.73
418.45	2951.42
418.64	3063.76
418.83	3054.40
419.02	3162.06
419.21	3047.38
419.39	2981.84
419.58	3159.72
419.77	3105.89
419.96	3157.38
420.15	3178.45
420.34	3021.63
420.53	3178.45
420.72	3225.26
420.91	3215.90
421.10	3220.58
421.29	3349.31
421.48	3260.37
421.67	3316.54
421.86	3389.10
422.05	3351.65
422.24	3229.94
422.43	3281.43
422.61	3330.58
422.80	3398.46
422.99	3398.46
423.18	3314.20
423.37	3468.67
423.56	3304.84
423.75	3424.20
423.94	3361.01
424.13	3138.66
424.32	3283.77
424.50	3431.23
424.69	3375.05
424.88	3524.85
425.07	3407.82
425.26	3382.07
425.45	3314.20
425.64	3513.14
425.83	3471.01
426.01	3506.12
426.20	3562.30
426.39	3620.81
426.58	3506.12
426.77	3489.74
426.96	3445.27
427.15	3524.85
427.33	3566.98
427.52	3613.79
427.71	3651.24
427.90	3662.94
428.09	3480.38
428.28	3779.97
428.46	3733.15
428.65	3758.90
428.84	3768.26
429.03	3665.28
429.22	3707.41
429.40	3808.05
429.59	3779.97
429.78	3574.00
429.97	3644.21
430.16	3726.13
430.34	3892.31
430.53	3782.31
430.72	3845.50
430.91	3744.86
431.10	3768.26
431.28	3978.91
431.47	3988.27
431.66	4149.77
431.85	3918.06
432.03	3964.87
432.22	4032.74
432.41	4074.87
432.60	3957.85
432.79	4133.39
432.97	4114.66
433.16	4119.34
433.35	4086.58
433.54	4238.71
433.72	4234.03
433.91	4105.30
434.10	4152.11
434.28	4037.42
434.47	4196.58
434.66	4341.69
434.85	4379.14
435.03	4329.99
435.22	4285.52
435.41	4496.17
435.59	4400.21
435.78	4465.74
435.97	4437.66
436.16	4442.34
436.34	4353.40
436.53	4381.48
436.72	4484.47
436.90	4475.10
437.09	4341.69
437.28	4486.81
437.46	4617.88
437.65	4423.61
437.84	4451.70
438.02	4671.71
438.21	4690.43
438.40	4603.83
438.58	4671.71
438.77	4758.31
438.96	4615.54
439.14	4926.83
439.33	4830.87
439.52	5053.22
439.70	4760.65
439.89	5039.17
440.08	4975.98
440.26	5102.37
440.45	5172.58
440.63	5081.30
440.82	5235.78
441.01	5067.26
441.19	5270.89
441.38	5240.46
441.57	5254.50
441.75	5233.44
441.94	5455.79
442.12	5275.57
442.31	5362.17
442.50	5371.53
442.68	5479.19
442.87	5308.34
443.05	5467.49
443.24	5607.92
443.43	5500.26
443.61	5579.84
443.80	5748.36
443.98	5570.48
444.17	5364.51
444.35	5556.43
444.54	5586.86
444.73	5661.76
444.91	5673.46
445.10	5729.63
445.28	5556.43
445.47	5729.63
445.65	5593.88
445.84	5827.93
446.02	5710.91
446.21	5703.89
446.39	5657.07
446.58	5867.72
446.77	5720.27
446.95	5551.75
447.14	5638.35
447.32	5792.83
447.51	5867.72
447.69	5799.85
447.88	5673.46
448.06	5806.87
448.25	5895.81
448.43	5760.06
448.62	5832.62
448.80	5877.09
448.99	5893.47
449.17	5970.71
449.36	5675.80
449.54	5802.19
449.73	5912.19
449.91	6054.97
450.10	5998.79
450.28	6176.67
450.46	6188.38
450.65	6108.80
450.83	6115.82
451.02	6188.38
451.20	6242.21
451.39	6127.52
451.57	6127.52
451.76	6143.91
451.94	6111.14
452.13	6239.87
452.31	6235.19
452.49	6136.88
452.68	6176.67
452.86	6340.51
453.05	6352.21
453.23	6490.31
453.42	6331.15
453.60	6277.32
453.78	6338.17
453.97	6384.98
454.15	6527.75
454.34	6459.88
454.52	6473.92
454.70	6494.99
454.89	6544.14
455.07	6654.14
455.26	6602.65
455.44	6693.93
455.62	6726.70
455.81	6530.09
455.99	6602.65
456.17	6686.91
456.36	6593.29
456.54	6764.15
456.73	7007.56
456.91	7148.00
457.09	6965.43
457.28	7133.95
457.46	6960.75
457.64	7082.46
457.83	7117.57
458.01	6927.99
458.19	7276.73
458.38	7164.38
458.56	6939.69
458.74	7066.08
458.93	7300.13
459.11	7445.24
459.29	7353.96
459.48	7269.70
459.66	7265.02
459.84	7321.20
460.03	7419.50
460.21	7438.22
460.39	7405.46
460.57	7414.82
460.76	7379.71
460.94	7346.94
461.12	7573.97
461.31	7653.55
461.49	7384.39
461.67	7693.34
461.85	7695.68
462.04	7463.97
462.22	8128.68
462.40	7838.45
462.59	7693.34
462.77	7808.03
462.95	7829.09
463.13	7770.58
463.32	7943.78
463.50	7946.12
463.68	7789.30
463.86	7815.05
464.05	7894.63
464.23	7749.51
464.41	8156.77
464.59	7941.44
464.78	8109.96
464.96	8287.84
465.14	7932.08
465.32	8042.08
465.50	8241.03
465.69	8116.98
465.87	8058.46
466.05	8145.06
466.23	8156.77
466.41	8231.66
466.60	8395.50
466.78	8145.06
466.96	8184.85
467.14	8250.39
467.32	8107.62
467.51	8259.75
467.69	8355.71
467.87	8238.69
468.05	8372.10
468.23	8241.03
468.41	8344.01
468.60	8568.70
468.78	8610.83
468.96	8498.49
469.14	8622.53
469.32	8655.30
469.50	8484.44
469.69	8538.27
469.87	8777.01
470.05	8482.10
470.23	8793.39
470.41	8762.97
470.59	8851.91
470.77	8872.97
470.95	8828.50
471.14	8961.91
471.32	8615.51
471.50	8954.89
471.68	9083.62
471.86	9146.81
472.04	9076.60
472.22	9224.05
472.40	9167.88
472.58	9465.13
472.77	9324.69
472.95	9376.19
473.13	9521.30
473.31	9430.02
473.49	9427.68
473.67	9509.60
473.85	9528.32
474.03	9790.46
474.21	9612.58
474.39	9626.62
474.57	9872.38
474.75	10036.22
474.93	9933.23
475.12	9865.36
475.30	10125.16
475.48	10061.96
475.66	10050.26
475.84	9877.06
476.02	10188.35
476.20	10108.77
476.38	10333.47
476.56	10532.41
476.74	10651.78
476.92	10338.15
477.10	10417.72
477.28	10588.58
477.46	10668.16
477.64	10656.46
477.82	10995.84
478.00	11192.44
478.18	10883.49
478.36	11080.10
478.54	11424.15
478.72	11447.56
478.90	11524.80
479.08	11672.25
479.26	11487.35
479.44	11534.16
479.62	11543.52
479.80	11824.39
479.98	11723.74
480.16	12074.82
480.34	12002.27
480.52	12514.84
480.70	12170.79
480.88	12360.37
481.06	12283.13
481.24	12257.39
481.41	12706.77
481.59	12823.80
481.77	12989.97
481.95	12947.84
482.13	13088.28
482.31	12856.56
482.49	13420.63
482.67	13404.25
482.85	13296.58
483.03	13523.62
483.21	13717.88
483.39	13912.14
483.57	13774.05
483.74	14057.26
483.92	13926.19
484.10	13785.76
484.28	14193.01
484.46	14614.30
484.64	14721.97
484.82	14394.29
485.00	14525.36
485.18	14855.38
485.35	15501.37
485.53	14904.53
485.71	15169.01
485.89	15688.61
486.07	15255.61
486.25	15480.30
486.43	15590.31
486.61	15494.35
486.78	15609.03
486.96	15796.28
487.14	16208.21
487.32	16156.72
487.50	16374.39
487.68	16521.84
487.85	16547.59
488.03	16540.57
488.21	17015.69
488.39	16893.99
488.57	17167.83
488.75	17184.21
488.92	17685.09
489.10	17783.39
489.28	17720.20
489.46	17600.83
489.64	17600.83
489.81	18125.11
489.99	18071.28
490.17	18047.87
490.35	18267.88
490.53	18197.67
490.70	18415.34
490.88	18651.73
491.06	18897.49
491.24	18881.10
491.41	19187.71
491.59	19295.38
491.77	19349.21
491.95	19545.81
492.13	19583.26
492.30	19616.03
492.48	19679.22
492.66	19789.23
492.84	19866.47
493.01	20100.52
493.19	20194.14
493.37	20395.43
493.54	20407.13
493.72	20622.46
493.90	20650.55
494.08	20835.45
494.25	20776.94
494.43	21097.59
494.61	21010.99
494.79	21474.42
494.96	21521.23
495.14	21455.69
495.32	21837.20
495.49	21830.18
495.67	21844.22
495.85	21762.30
496.02	22338.07
496.20	22534.68
496.38	22677.45
496.55	22576.81
496.73	23033.21
496.91	22850.65
497.09	22771.07
497.26	22735.96
497.44	22778.09
497.62	23035.55
497.79	23555.15
497.97	23147.90
498.14	23346.84
498.32	23974.11
498.50	23396.00
498.67	23810.27
498.85	23957.72
499.03	24128.58
499.20	24159.01
499.38	24362.64
499.56	23953.04
499.73	24589.67
499.91	24449.24
500.08	24482.00
500.26	24624.78
500.44	24765.21
500.61	24599.03
500.79	24655.20
500.97	25179.48
501.14	25256.72
501.32	25172.46
501.49	25380.77
501.67	25315.23
501.84	25654.61
502.02	25315.23
502.20	26047.82
502.37	26047.82
502.55	25507.16
502.72	25855.90
502.90	26001.01
503.07	25614.82
503.25	26401.24
503.43	25853.56
503.60	26281.88
503.78	26265.49
503.95	26242.09
504.13	26962.97
504.30	26429.33
504.48	26586.15
504.65	26733.60
504.83	26881.05
505.01	27122.13
505.18	27421.72
505.36	27316.39
505.53	26988.72
505.71	27342.14
505.88	27744.71
506.06	26693.81
506.23	27412.35
506.41	27206.39
506.58	27606.62
506.76	27543.42
506.93	28121.54
507.11	28126.22
507.28	28381.34
507.46	28109.83
507.63	28400.06
507.81	28638.80
507.98	28453.89
508.16	28180.05
508.33	28339.21
508.50	28409.42
508.68	28624.75
508.85	29060.09
509.03	28823.70
509.20	29106.90
509.38	29193.50
509.55	29259.04
509.73	29310.53
509.90	29556.28
510.08	30008.01
510.25	28973.49
510.42	29518.84
510.60	29378.40
510.77	29888.64
510.95	30141.42
511.12	30113.33
511.30	29575.01
511.47	30347.39
511.64	30110.99
511.82	30443.35
511.99	30251.42
512.17	30476.12
512.34	30529.95
512.51	30749.96
512.69	30937.20
512.86	30948.90
513.04	31173.60
513.21	31019.12
513.38	30967.63
513.56	31440.42
513.73	31288.28
513.90	30843.58
514.08	31204.02
514.25	31243.81
514.43	31641.70
514.60	31732.98
514.77	31484.89
514.95	32070.02
515.12	31620.64
515.29	31789.16
515.47	31646.38
515.64	31529.36
515.81	32020.87
515.99	32198.75
516.16	32208.11
516.33	31915.54
516.51	32367.27
516.68	32301.73
516.85	31981.08
517.03	32833.04
517.20	32575.58
517.37	32486.64
517.54	32865.80
517.72	32804.95
517.89	32774.52
518.06	32769.84
518.24	33069.43
518.41	33436.89
518.58	33060.07
518.75	33235.61
518.93	32947.72
519.10	33476.68
519.27	33376.04
519.45	33329.23
519.62	33336.25
519.79	33816.06
519.96	33703.71
520.14	33666.27
520.31	33919.04
520.48	34387.15
520.65	34071.18
520.83	34567.37
521.00	34396.51
521.17	34520.56
521.34	34684.40
521.52	34991.01
521.69	34256.08
521.86	34806.11
522.03	34742.91
522.20	35150.17
522.38	34766.32
522.55	35208.68
522.72	34972.28
522.89	35054.20
523.07	35253.15
523.24	35601.89
523.41	35330.39
523.58	35115.06
523.75	35440.39
523.92	35732.96
524.10	35908.50
524.27	35590.19
524.44	36072.34
524.61	35770.41
524.78	35927.22
524.96	35948.29
525.13	36154.26
525.30	36151.91
525.47	36231.49
525.64	36032.55
525.81	36325.11
525.98	36465.55
526.16	36385.97
526.33	36130.85
526.50	36919.61
526.67	36538.10
526.84	36374.27
527.01	36442.14
527.18	36580.23
527.36	36828.33
527.53	36535.76
527.70	37090.47
527.87	37193.45
528.04	37125.58
528.21	37083.45
528.38	37228.56
528.55	37607.73
528.72	37347.93
528.89	37347.93
529.07	37055.36
529.24	37008.55
529.41	37811.35
529.58	37282.39
529.75	37354.95
529.92	37394.74
530.09	37816.04
530.26	37617.09
530.43	37865.19
530.60	37897.95
530.77	37392.40
530.94	37748.16
531.11	37876.89
531.28	37965.83
531.46	38188.18
531.63	37935.40
531.80	38199.88
531.97	38501.81
532.14	38321.59
532.31	38417.55
532.48	38515.86
532.65	38492.45
532.82	38651.61
532.99	38602.46
533.16	38583.73
533.33	38974.60
533.50	38515.86
533.67	38904.38
533.84	38876.30
534.01	39051.84
534.18	38726.50
534.35	39335.04
534.52	38794.38
534.69	39503.56
534.86	39393.56
535.03	39438.03
535.20	39409.94
535.37	39360.79
535.54	39754.00
535.71	40009.12
535.88	39931.88
536.05	39807.83
536.22	39821.87
536.38	39548.03
536.55	39641.65
536.72	39491.86
536.89	39833.58
537.06	39969.33
537.23	40039.54
537.40	39714.21
537.57	39629.95
537.74	40041.88
537.91	40289.98
538.08	39924.86
538.25	40289.98
538.42	40556.80
538.59	40236.15
538.75	39981.03
538.92	40840.01
539.09	40533.40
539.26	40390.62
539.43	40472.54
539.60	40879.80
539.77	40903.20
539.94	40722.98
540.11	40704.26
540.28	41202.79
540.44	40863.41
540.61	41383.01
540.78	40765.11
540.95	40755.75
541.12	41045.97
541.29	41090.44
541.46	41151.30
541.62	40849.37
541.79	40886.82
541.96	40886.82
542.13	40610.64
542.30	40914.90
542.47	41476.63
542.63	41797.29
542.80	41392.37
542.97	42073.47
543.14	41956.44
543.31	41574.94
543.48	41617.07
543.64	42211.56
543.81	42176.45
543.98	41656.85
544.15	42230.29
544.32	42045.38
544.48	42579.03
544.65	42403.49
544.82	42185.82
544.99	41890.91
545.16	42548.60
545.32	42263.05
545.49	43131.39
545.66	42644.56
545.83	42354.33
546.00	42960.53
546.16	42993.30
546.33	42419.87
546.50	42431.57
546.67	43037.77
546.83	42202.20
547.00	42363.70
547.17	42607.11
547.34	42904.36
547.50	42546.26
547.67	43227.35
547.84	42986.28
548.00	43297.57
548.17	43365.45
548.34	43285.87
548.51	43370.13
548.67	43473.11
548.84	43337.36
549.01	43243.74
549.18	43281.19
549.34	43346.72
549.51	43393.53
549.68	43452.05
549.84	43660.35
550.01	43718.87
550.18	43110.33
550.34	43868.66
550.51	44062.93
550.68	43861.64
550.84	43318.64
551.01	43971.64
551.18	43552.69
551.34	43931.86
551.51	44072.29
551.68	43995.05
551.84	43590.14
552.01	43501.20
552.18	44130.80
552.34	43791.42
552.51	44002.07
552.68	44156.55
552.84	44381.24
553.01	44385.92
553.18	44069.95
553.34	44296.98
553.51	44512.31
553.67	44135.48
553.84	44692.53
554.01	44423.37
554.17	44285.28
554.34	44919.56
554.51	44383.58
554.67	44748.70
554.84	44509.97
555.00	44687.85
555.17	44985.10
555.33	44605.93
555.50	44509.97
555.67	44847.00
555.83	44388.26
556.00	44507.63
556.16	45153.62
556.33	45144.25
556.50	44996.80
556.66	44619.97
556.83	44404.64
556.99	45296.39
557.16	45308.09
557.32	45373.63
557.49	45296.39
557.65	45055.31
557.82	45371.28
557.98	44893.82
558.15	45069.36
558.32	45151.27
558.48	45162.98
558.65	44797.85
558.81	45130.21
558.98	45158.30
559.14	45322.13
559.31	45406.39
559.47	45649.81
559.64	45401.71
559.80	45191.06
559.97	45460.23
560.13	45663.85
560.30	45382.99
560.46	45804.28
560.63	45624.06
560.79	46106.21
560.96	45918.97
561.12	45673.21
561.29	45542.14
561.45	45895.56
561.61	45661.51
561.78	45848.75
561.94	45727.05
562.11	45567.89
562.27	45755.13
562.44	45380.65
562.60	46036.00
562.77	46028.98
562.93	45638.11
563.10	45710.66
563.26	45687.26
563.42	46007.91
563.59	45940.04
563.75	45991.53
563.92	46014.93
564.08	45729.39
564.24	46363.67
564.41	45897.91
564.57	46197.49
564.74	46375.37
564.90	45766.84
565.07	45942.38
565.23	46225.58
565.39	45993.87
565.56	46314.52
565.72	46021.95
565.88	46099.19
566.05	46272.39
566.21	46719.43
566.38	46239.62
566.54	46611.77
566.70	46246.65
566.87	46258.35
567.03	46440.91
567.19	46899.65
567.36	46167.07
567.52	46621.13
567.68	46401.12
567.85	46777.95
568.01	46536.87
568.17	46185.79
568.34	46590.70
568.50	46457.29
568.66	45858.12
568.83	46576.66
568.99	46630.49
569.15	46646.88
569.32	46651.56
569.48	46461.97
569.64	46494.74
569.81	46740.50
569.97	46670.28
570.13	46773.27
570.30	46731.14
570.46	46904.34
570.62	46843.48
570.78	46766.24
570.95	46712.41
571.11	46705.39
571.27	46485.38
571.43	46630.49
571.60	46522.83
571.76	46256.01
571.92	46726.46
572.09	46487.72
572.25	46967.53
572.41	46745.18
572.57	46410.48
572.74	47374.78
572.90	47028.38
573.06	46946.47
573.22	47019.02
573.38	47143.07
573.55	47105.62
573.71	47157.11
573.87	47150.09
574.03	46871.57
574.20	46934.76
574.36	47398.19
574.52	47129.03
574.68	46766.24
574.84	47171.16
575.01	47398.19
575.17	47220.31
575.33	47107.96
575.49	46932.42
575.65	47049.45
575.82	46995.62
575.98	46876.25
576.14	47030.72
576.30	47292.86
576.46	47100.94
576.62	46724.11
576.79	47250.74
576.95	47171.16
577.11	47239.03
577.27	47426.28
577.43	46878.59
577.59	47054.13
577.75	47044.77
577.92	46667.94
578.08	46789.65
578.24	46925.40
578.40	47194.56
578.56	47299.89
578.72	46803.69
578.88	47288.18
579.04	47014.34
579.21	46979.23
579.37	46834.12
579.53	47232.01
579.69	47037.75
579.85	47269.46
580.01	47203.92
580.17	47236.69
580.33	47423.93
580.49	47323.29
580.65	47271.80
580.82	47227.33
580.98	47061.15
581.14	47150.09
581.30	47510.53
581.46	47288.18
581.62	46976.89
581.78	47129.03
581.94	47892.04
582.10	46894.97
582.26	47114.98
582.42	47201.58
582.58	47435.64
582.74	47203.92
582.90	47187.54
583.06	47330.31
583.22	47189.88
583.38	47639.26
583.54	47714.16
583.70	47435.64
583.86	47398.19
584.02	47498.83
584.18	47751.61
584.34	47150.09
584.50	47657.99
584.66	47679.05
584.82	46974.55
584.98	47964.60
585.14	47569.05
585.30	47468.40
585.46	47152.43
585.62	47185.20
585.78	47606.50
585.94	47180.52
586.10	47342.02
586.26	47159.45
586.42	47510.53
586.58	47498.83
586.74	47232.01
586.90	47304.57
587.06	47379.46
587.22	47313.93
587.38	47409.89
587.54	47707.14
587.70	47800.76
587.86	47672.03
588.02	47428.62
588.18	47590.11
588.34	47702.46
588.49	47924.81
588.65	47313.93
588.81	47753.95
588.97	47772.67
589.13	47540.96
589.29	47615.86
589.45	47931.83
589.61	47519.90
589.77	47613.52
589.93	47611.18
590.08	47739.91
