SpectraSuite Data File
++++++++++++++++++++++++++++++++++++
Date: Fri Oct 25 10:47:54 EDT 2013
User: price-jones
Dark Spectrum Present: No
Reference Spectrum Present: No
Number of Sampled Component Spectra: 1
Spectrometers: USB2+H05261
Integration Time (usec): 100000 (USB2+H05261)
Spectra Averaged: 1 (USB2+H05261)
Boxcar Smoothing: 0 (USB2+H05261)
Correct for Electrical Dark: No (USB2+H05261)
Strobe/Lamp Enabled: No (USB2+H05261)
Correct for Detector Non-linearity: No (USB2+H05261)
Correct for Stray Light: No (USB2+H05261)
Number of Pixels in Processed Spectrum: 2048
>>>>>Begin Processed Spectral Data<<<<<
365.73	140.43
365.92	140.43
366.12	140.43
366.32	65.54
366.52	58.51
366.72	21.06
366.91	105.32
367.11	0.00
367.31	51.49
367.51	23.41
367.70	53.83
367.90	28.09
368.10	4.68
368.30	105.32
368.49	42.13
368.69	14.04
368.89	4.68
369.09	74.90
369.28	105.32
369.48	77.24
369.68	100.64
369.87	145.11
370.07	135.75
370.27	205.97
370.47	222.35
370.66	341.72
370.86	461.09
371.06	484.49
371.25	498.53
371.45	447.04
371.65	479.81
371.84	433.00
372.04	493.85
372.24	486.83
372.44	404.91
372.63	437.68
372.83	484.49
373.03	493.85
373.22	500.87
373.42	566.41
373.62	566.41
373.81	493.85
374.01	566.41
374.21	596.84
374.40	543.00
374.60	606.20
374.79	589.82
374.99	620.24
375.19	538.32
375.38	519.60
375.58	540.66
375.78	617.90
375.97	521.94
376.17	580.45
376.37	566.41
376.56	580.45
376.76	603.86
376.95	519.60
377.15	631.94
377.35	573.43
377.54	653.01
377.74	547.69
377.93	685.78
378.13	603.86
378.33	702.16
378.52	599.18
378.72	636.63
378.91	620.24
379.11	674.07
379.31	624.92
379.50	606.20
379.70	648.33
379.89	653.01
380.09	638.97
380.28	620.24
380.48	669.39
380.68	671.73
380.87	713.86
381.07	690.46
381.26	657.69
381.46	688.12
381.65	699.82
381.85	702.16
382.04	660.03
382.24	732.59
382.43	690.46
382.63	716.20
382.83	753.65
383.02	781.74
383.22	732.59
383.41	774.72
383.61	744.29
383.80	772.38
384.00	669.39
384.19	706.84
384.39	821.53
384.58	760.67
384.78	730.25
384.97	807.48
385.17	737.27
385.36	739.61
385.56	795.78
385.75	741.95
385.95	779.40
386.14	802.80
386.34	746.63
386.53	730.25
386.72	744.29
386.92	837.91
387.11	868.34
387.31	784.08
387.50	798.12
387.70	844.93
387.89	833.23
388.09	770.04
388.28	908.13
388.48	870.68
388.67	898.77
388.86	882.38
389.06	802.80
389.25	842.59
389.45	938.55
389.64	870.68
389.84	954.94
390.03	1011.11
390.22	931.53
390.42	908.13
390.61	950.26
390.81	922.17
391.00	917.49
391.19	1006.43
391.39	964.30
391.58	1039.20
391.78	1036.86
391.97	985.37
392.16	994.73
392.36	990.05
392.55	945.58
392.75	891.74
392.94	1015.79
393.13	1034.52
393.33	961.96
393.52	1020.47
393.71	1008.77
393.91	1055.58
394.10	994.73
394.29	1078.99
394.49	980.68
394.68	1102.39
394.88	1146.86
395.07	1149.20
395.26	1160.91
395.46	1078.99
395.65	1125.80
395.84	1174.95
396.04	1114.10
396.23	1156.22
396.42	1062.60
396.62	1172.61
396.81	1198.35
397.00	1172.61
397.19	1212.40
397.39	1198.35
397.58	1296.66
397.77	1186.65
397.97	1242.82
398.16	1289.64
398.35	1263.89
398.55	1261.55
398.74	1315.38
398.93	1378.58
399.12	1266.23
399.32	1249.85
399.51	1366.87
399.70	1308.36
399.90	1418.36
400.09	1434.75
400.28	1385.60
400.47	1444.11
400.67	1430.07
400.86	1453.47
401.05	1432.41
401.24	1460.49
401.44	1399.64
401.63	1493.26
401.82	1458.15
402.01	1458.15
402.21	1507.30
402.40	1563.48
402.59	1488.58
402.78	1589.22
402.97	1586.88
403.17	1519.01
403.36	1673.48
403.55	1605.61
403.74	1659.44
403.93	1610.29
404.13	1638.38
404.32	1746.04
404.51	1696.89
404.70	1760.08
404.89	1652.42
405.09	1701.57
405.28	1724.97
405.47	1732.00
405.66	1673.48
405.85	1638.38
406.05	1753.06
406.24	1764.76
406.43	1675.82
406.62	1823.28
406.81	1797.53
407.00	1771.79
407.20	1877.11
407.39	1912.22
407.58	1874.77
407.77	1984.77
407.96	1980.09
408.15	2059.67
408.34	1998.82
408.54	1959.03
408.73	2026.90
408.92	2101.80
409.11	2047.97
409.30	2106.48
409.49	2080.74
409.68	1980.09
409.87	2033.93
410.07	2104.14
410.26	2099.46
410.45	2139.25
410.64	2186.06
410.83	2237.55
411.02	2204.78
411.21	2284.36
411.40	2249.25
411.59	2286.70
411.78	2338.20
411.98	2368.62
412.17	2324.15
412.36	2307.77
412.55	2326.49
412.74	2424.80
412.93	2427.14
413.12	2401.39
413.31	2520.76
413.50	2441.18
413.69	2448.20
413.88	2565.23
414.07	2480.97
414.26	2605.02
414.45	2626.08
414.64	2698.64
414.83	2581.61
415.02	2651.83
415.22	2724.38
415.41	2691.62
415.60	2719.70
415.79	2876.52
415.98	2843.75
416.17	2981.84
416.36	2789.92
416.55	2965.46
416.74	2832.05
416.93	3012.27
417.12	2855.45
417.31	3007.59
417.50	2892.90
417.69	3152.70
417.88	3030.99
418.07	3159.72
418.26	3070.78
418.45	3094.19
418.64	3131.64
418.83	3218.24
419.02	3141.00
419.21	3255.69
419.39	3157.38
419.58	3152.70
419.77	3115.25
419.96	3141.00
420.15	3258.03
420.34	3108.23
420.53	3234.62
420.72	3283.77
420.91	3396.12
421.10	3361.01
421.29	3405.48
421.48	3323.56
421.67	3405.48
421.86	3454.63
422.05	3344.63
422.24	3471.01
422.43	3543.57
422.61	3501.44
422.80	3494.42
422.99	3536.55
423.18	3578.68
423.37	3637.19
423.56	3520.17
423.75	3557.61
423.94	3513.14
424.13	3302.50
424.32	3311.86
424.50	3433.57
424.69	3681.66
424.88	3585.70
425.07	3433.57
425.26	3576.34
425.45	3550.59
425.64	3541.23
425.83	3597.40
426.01	3447.61
426.20	3578.68
426.39	3599.74
426.58	3583.36
426.77	3611.45
426.96	3609.11
427.15	3644.21
427.33	3763.58
427.52	3623.15
427.71	3754.22
427.90	3798.69
428.09	3705.07
428.28	3665.28
428.46	3761.24
428.65	3819.75
428.84	3976.57
429.03	3955.51
429.22	3737.84
429.40	3815.07
429.59	3742.52
429.78	3611.45
429.97	3777.62
430.16	3838.48
430.34	3789.33
430.53	3978.91
430.72	3831.46
430.91	3936.78
431.10	3854.86
431.28	4154.45
431.47	4023.38
431.66	4201.26
431.85	4119.34
432.03	4180.20
432.22	4257.43
432.41	4039.76
432.60	4182.54
432.79	4217.65
432.97	4301.90
433.16	4299.56
433.35	4205.94
433.54	4173.18
433.72	4252.75
433.91	4313.61
434.10	4285.52
434.28	4236.37
434.47	4362.76
434.66	4479.79
434.85	4355.74
435.03	4524.26
435.22	4491.49
435.41	4784.06
435.59	4491.49
435.78	4629.58
435.97	4706.82
436.16	4449.36
436.34	4645.96
436.53	4636.60
436.72	4753.63
436.90	4550.00
437.09	4695.11
437.28	4517.23
437.46	4716.18
437.65	4622.56
437.84	4828.53
438.02	4716.18
438.21	4664.69
438.40	4751.29
438.58	4786.40
438.77	4861.29
438.96	4809.80
439.14	5015.77
439.33	5001.72
439.52	5097.69
439.70	5177.26
439.89	5011.09
440.08	4973.64
440.26	5233.44
440.45	5158.54
440.63	5191.31
440.82	5378.55
441.01	5341.10
441.19	5345.78
441.38	5516.64
441.57	5420.68
441.75	5497.92
441.94	5647.71
442.12	5591.54
442.31	5636.01
442.50	5713.25
442.68	5668.78
442.87	5701.54
443.05	5607.92
443.24	5778.78
443.43	5631.33
443.61	6061.99
443.80	5858.36
443.98	5769.42
444.17	5603.24
444.35	5834.96
444.54	5839.64
444.73	5909.85
444.91	5846.66
445.10	5830.27
445.28	5781.12
445.47	5647.71
445.65	5706.23
445.84	5795.17
446.02	5839.64
446.21	5846.66
446.39	5905.17
446.58	5973.05
446.77	5973.05
446.95	5954.32
447.14	6019.86
447.32	5966.03
447.51	5853.68
447.69	5884.11
447.88	6010.50
448.06	6064.33
448.25	6045.60
448.43	5959.00
448.62	5781.12
448.80	5867.72
448.99	6078.37
449.17	6101.78
449.36	6099.44
449.54	6223.48
449.73	6160.29
449.91	6441.15
450.10	6319.45
450.28	6384.98
450.46	6459.88
450.65	6342.85
450.83	6558.18
451.02	6363.92
451.20	6455.20
451.39	6443.49
451.57	6434.13
451.76	6380.30
451.94	6420.09
452.13	6499.67
452.31	6513.71
452.49	6368.60
452.68	6544.14
452.86	6450.52
453.05	6579.25
453.23	6443.49
453.42	6602.65
453.60	6691.59
453.78	6796.92
453.97	6623.72
454.15	6548.82
454.34	6682.23
454.52	6803.94
454.70	6738.40
454.89	6974.80
455.07	7033.31
455.26	6916.28
455.44	6984.16
455.62	6932.67
455.81	6864.79
455.99	6995.86
456.17	7056.72
456.36	7056.72
456.54	7126.93
456.73	7199.49
456.91	7269.70
457.09	7267.36
457.28	7508.44
457.46	7152.68
457.64	7152.68
457.83	7372.69
458.01	7215.87
458.19	7492.05
458.38	7414.82
458.56	7328.22
458.74	7541.21
458.93	7447.58
459.11	7543.55
459.29	7489.71
459.48	7403.11
459.66	7447.58
459.84	7545.89
460.03	7552.91
460.21	7712.07
460.39	7599.72
460.57	7740.15
460.76	7691.00
460.94	7845.48
461.12	7852.50
461.31	7775.26
461.49	7751.85
461.67	7763.56
461.85	7796.32
462.04	7873.56
462.22	8336.99
462.40	8201.24
462.59	7875.90
462.77	7985.91
462.95	8156.77
463.13	8070.17
463.32	8037.40
463.50	8093.57
463.68	8067.83
463.86	8091.23
464.05	8070.17
464.23	7875.90
464.41	8306.56
464.59	8009.31
464.78	8109.96
464.96	8252.73
465.14	8217.62
465.32	8217.62
465.50	8306.56
465.69	8521.89
465.87	8388.48
466.05	8451.67
466.23	8376.78
466.41	8208.26
466.60	8528.91
466.78	8348.69
466.96	8299.54
467.14	8306.56
467.32	8486.78
467.51	8638.92
467.69	8166.13
467.87	8573.38
468.05	8713.81
468.23	8430.61
468.41	8484.44
468.60	8652.96
468.78	8634.24
468.96	8561.68
469.14	8814.46
469.32	8835.52
469.50	8535.93
469.69	8872.97
469.87	8819.14
470.05	8985.32
470.23	8915.10
470.41	8812.12
470.59	9081.28
470.77	8908.08
470.95	9060.21
471.14	9242.78
471.32	9076.60
471.50	9085.96
471.68	9191.28
471.86	9308.31
472.04	9521.30
472.22	9645.35
472.40	9205.33
472.58	9399.59
472.77	9493.21
472.95	9591.52
473.13	9809.19
473.31	9645.35
473.49	9336.40
473.67	9556.41
473.85	9769.40
474.03	9865.36
474.21	9757.69
474.39	10045.58
474.57	9944.94
474.75	10108.77
474.93	10120.48
475.12	10064.30
475.30	10436.45
475.48	10092.39
475.66	10399.00
475.84	10125.16
476.02	10413.04
476.20	10506.66
476.38	10546.45
476.56	10747.74
476.74	10836.68
476.92	10759.44
477.10	10633.05
477.28	10916.26
477.46	11023.92
477.64	11269.68
477.82	11243.93
478.00	11564.59
478.18	11536.50
478.36	11496.71
478.54	11597.35
478.72	11609.06
478.90	11852.47
479.08	12002.27
479.26	11728.42
479.44	11873.54
479.62	12053.76
479.80	11985.88
479.98	12182.49
480.16	12409.52
480.34	12222.28
480.52	12365.05
480.70	12514.84
480.88	12383.77
481.06	12751.24
481.24	12608.47
481.41	12996.99
481.59	13149.13
481.77	13146.79
481.95	13238.07
482.13	13415.95
482.31	13205.30
482.49	13504.89
482.67	13479.15
482.85	13673.41
483.03	13774.05
483.21	13741.29
483.39	13926.19
483.57	13916.83
483.74	14356.85
483.92	14466.85
484.10	13881.72
484.28	14188.33
484.46	14539.41
484.64	14993.47
484.82	14572.18
485.00	14604.94
485.18	14888.15
485.35	15002.83
485.53	15082.41
485.71	14831.97
485.89	15304.76
486.07	15332.85
486.25	15255.61
486.43	15531.80
486.61	15548.18
486.78	15592.65
486.96	16046.71
487.14	16285.45
487.32	16224.59
487.50	16189.49
487.68	16823.77
487.85	16702.06
488.03	16870.58
488.21	17235.70
488.39	17032.08
488.57	17221.66
488.75	17003.99
488.92	17649.98
489.10	17453.37
489.28	17991.70
489.46	18242.14
489.64	17830.20
489.81	18471.51
489.99	18333.42
490.17	18490.23
490.35	18441.08
490.53	18541.72
490.70	18775.78
490.88	18773.44
491.06	19180.69
491.24	19119.84
491.41	19040.26
491.59	18979.40
491.77	19281.33
491.95	19426.45
492.13	19482.62
492.30	19814.98
492.48	20147.33
492.66	19988.18
492.84	19875.83
493.01	19983.49
493.19	19981.15
493.37	20592.03
493.54	20648.21
493.72	20580.33
493.90	21048.44
494.08	21296.53
494.25	21144.40
494.43	21090.57
494.61	21413.56
494.79	21200.57
494.96	21427.60
495.14	21413.56
495.32	22022.10
495.49	21937.84
495.67	21752.94
495.85	21965.93
496.02	22176.58
496.20	22342.75
496.38	22298.28
496.55	22403.61
496.73	22775.75
496.91	22724.26
497.09	22948.95
497.26	23379.61
497.44	23035.55
497.62	23002.78
497.79	23433.44
497.97	23417.06
498.14	23456.85
498.32	23744.73
498.50	23548.13
498.67	23623.03
498.85	23936.66
499.03	23985.81
499.20	23992.83
499.38	24215.18
499.56	24552.22
499.73	24526.47
499.91	24641.16
500.08	25219.27
500.26	24453.92
500.44	24486.68
500.61	24599.03
500.79	24676.27
500.97	25369.07
501.14	25242.68
501.32	25242.68
501.49	25195.87
501.67	25558.65
501.84	25172.46
502.02	25413.54
502.20	25472.05
502.37	25701.42
502.55	25745.89
502.72	25757.60
502.90	25937.82
503.07	26087.61
503.25	26061.87
503.43	26075.91
503.60	26111.02
503.78	26223.36
503.95	26576.78
504.13	26302.94
504.30	26649.34
504.48	26459.76
504.65	26742.96
504.83	26998.08
505.01	26934.88
505.18	27103.40
505.36	27262.56
505.53	26960.63
505.71	27613.64
505.88	27714.28
506.06	27295.33
506.23	27307.03
506.41	27262.56
506.58	27828.97
506.76	27941.32
506.93	28203.46
507.11	27847.69
507.28	27716.62
507.46	27564.49
507.63	28121.54
507.81	28315.80
507.98	27800.88
508.16	28266.65
508.33	28636.45
508.50	28570.92
508.68	28503.04
508.85	29034.35
509.03	29069.45
509.20	28936.04
509.38	29205.20
509.55	29624.16
509.73	29053.07
509.90	29067.11
510.08	29024.98
510.25	29139.67
510.42	29429.90
510.60	29539.90
510.77	29699.06
510.95	29820.77
511.12	29486.07
511.30	29853.53
511.47	29919.07
511.64	29919.07
511.82	30038.44
511.99	30204.61
512.17	30202.27
512.34	30183.55
512.51	30221.00
512.69	30368.45
512.86	30356.75
513.04	30600.16
513.21	30607.19
513.38	30492.50
513.56	30485.48
513.73	30501.86
513.90	30969.97
514.08	30913.80
514.25	30785.07
514.43	31206.36
514.60	31260.20
514.77	30984.01
514.95	31386.58
515.12	31094.02
515.29	31096.36
515.47	31857.03
515.64	31910.86
515.81	31534.04
515.99	31611.28
516.16	31775.11
516.33	31545.74
516.51	31948.31
516.68	31620.64
516.85	31480.21
517.03	31587.87
517.20	31903.84
517.37	32233.86
517.54	32421.10
517.72	32301.73
517.89	32299.39
518.06	32341.52
518.24	32140.24
518.41	32407.06
518.58	32191.73
518.75	32385.99
518.93	32517.06
519.10	32804.95
519.27	32917.29
519.45	32842.40
519.62	33041.34
519.79	33329.23
519.96	33354.97
520.14	33560.94
520.31	33104.54
520.48	33247.31
520.65	33525.83
520.83	33556.26
521.00	33750.52
521.17	33771.59
521.34	33687.33
521.52	33841.81
521.69	34031.39
521.86	34363.75
522.03	33696.69
522.20	34050.11
522.38	34176.50
522.55	34487.79
522.72	34338.00
522.89	34307.57
523.07	34597.80
523.24	34677.38
523.41	34480.77
523.58	34668.02
523.75	34649.29
523.92	34869.30
524.10	34682.06
524.27	35330.39
524.44	35122.08
524.61	34834.19
524.78	35367.84
524.96	35079.95
525.13	35180.59
525.30	35236.77
525.47	36091.06
525.64	35056.54
525.81	35875.73
525.98	35571.46
526.16	35084.63
526.33	35033.14
526.50	35552.74
526.67	35482.52
526.84	34983.99
527.01	35524.65
527.18	35725.94
527.36	35833.60
527.53	35789.13
527.70	36224.47
527.87	36409.37
528.04	36091.06
528.21	36254.90
528.38	36205.75
528.55	36591.94
528.72	36121.49
528.89	36634.06
529.07	36290.01
529.24	36327.45
529.41	36493.63
529.58	36332.14
529.75	36823.65
529.92	36830.67
530.09	36924.29
530.26	37207.50
530.43	37006.21
530.60	36318.09
530.77	37060.04
530.94	36896.20
531.11	37060.04
531.28	37469.64
531.46	37247.29
531.63	37383.04
531.80	37193.45
531.97	37235.58
532.14	37310.48
532.31	36945.36
532.48	37684.97
532.65	37717.73
532.82	37659.22
532.99	37581.98
533.16	37659.22
533.33	37460.27
533.50	37755.18
533.67	37731.78
533.84	37539.85
534.01	37652.20
534.18	37982.21
534.35	38504.15
534.52	37830.08
534.69	38333.29
534.86	38223.29
535.03	38174.14
535.20	38438.62
535.37	38532.24
535.54	38607.14
535.71	38553.30
535.88	38059.45
536.05	38132.01
536.22	38792.04
536.38	38604.80
536.55	38862.26
536.72	38604.80
536.89	38663.31
537.06	38366.06
537.23	39030.77
537.40	38436.28
537.57	38541.60
537.74	38621.18
537.91	39344.41
538.08	38925.45
538.25	39115.03
538.42	39044.82
538.59	39122.05
538.75	38918.43
538.92	38885.66
539.09	39227.38
539.26	39716.55
539.43	39349.09
539.60	39210.99
539.77	39225.04
539.94	39257.81
540.11	39328.02
540.28	39791.45
540.44	39171.21
540.61	39641.65
540.78	39159.50
540.95	39349.09
541.12	39866.34
541.29	39632.29
541.46	39517.60
541.62	40278.28
541.79	39929.54
541.96	39189.93
542.13	39824.22
542.30	39945.92
542.47	39835.92
542.63	40318.07
542.80	40334.45
542.97	40198.70
543.14	40701.92
543.31	40437.44
543.48	40430.41
543.64	40973.42
543.81	40790.86
543.98	40687.87
544.15	40739.36
544.32	41041.29
544.48	41350.24
544.65	40751.07
544.82	40589.57
544.99	40402.33
545.16	40891.50
545.32	40762.77
545.49	40889.16
545.66	41141.94
545.83	40964.06
546.00	41265.99
546.16	41261.30
546.33	40954.69
546.50	40905.54
546.67	41471.95
546.83	40608.29
547.00	41001.50
547.17	41060.02
547.34	41031.93
547.50	41406.42
547.67	41603.02
547.84	41404.08
548.00	41741.11
548.17	41930.70
548.34	41130.23
548.51	41921.34
548.67	41663.88
548.84	41954.10
549.01	41570.25
549.18	41694.30
549.34	41560.89
549.51	42094.53
549.68	41930.70
549.84	42066.45
550.01	41944.74
550.18	41909.63
550.34	42115.60
550.51	42190.50
550.68	41949.42
550.84	41553.87
551.01	42227.95
551.18	42431.57
551.34	41738.77
551.51	42000.91
551.68	42546.26
551.84	42293.48
552.01	41759.84
552.18	41923.68
552.34	42038.36
552.51	42443.27
552.68	42525.19
552.84	42597.75
553.01	42342.63
553.18	42852.87
553.34	42703.07
553.51	42134.32
553.67	42417.53
553.84	42850.53
554.01	42820.10
554.17	42515.83
554.34	43002.66
554.51	43030.75
554.67	43035.43
554.84	42354.33
555.00	42525.19
555.17	42710.10
555.33	42810.74
555.50	42583.71
555.67	42948.83
555.83	43143.09
556.00	43173.52
556.16	43246.08
556.33	42981.60
556.50	43330.34
556.66	42763.93
556.83	42473.70
556.99	43615.88
557.16	43662.69
557.32	43063.52
557.49	43098.62
557.65	42738.18
557.82	43339.70
557.98	43313.95
558.15	43164.16
558.32	43725.89
558.48	42892.66
558.65	43072.88
558.81	43248.42
558.98	43009.68
559.14	43220.33
559.31	43271.82
559.47	43552.69
559.64	43379.49
559.80	43697.80
559.97	43620.56
560.13	43199.27
560.30	43604.18
560.46	43913.13
560.63	43709.50
560.79	43597.16
560.96	43894.41
561.12	44280.60
561.29	44051.22
561.45	43770.36
561.61	43866.32
561.78	43643.97
561.94	43346.72
562.11	43721.21
562.27	43812.49
562.44	43662.69
562.60	44055.90
562.77	44114.42
562.93	44002.07
563.10	43859.30
563.26	43686.10
563.42	43849.94
563.59	44121.44
563.75	43845.26
563.92	44034.84
564.08	43959.94
564.24	44065.27
564.41	43789.08
564.57	43648.65
564.74	43676.74
564.90	43737.59
565.07	43934.20
565.23	43601.84
565.39	44044.20
565.56	44362.51
565.72	43868.66
565.88	43973.98
566.05	43901.43
566.21	43957.60
566.38	43856.96
566.54	43814.83
566.70	44308.68
566.87	44472.52
567.03	44313.36
567.19	44622.31
567.36	44435.07
567.52	43983.35
567.68	44201.02
567.85	44128.46
568.01	44280.60
568.17	43990.37
568.34	44409.32
568.50	43840.57
568.66	44301.66
568.83	44259.53
568.99	43643.97
569.15	44011.43
569.32	44280.60
569.48	44243.15
569.64	44715.93
569.81	44425.71
569.97	44243.15
570.13	44484.22
570.30	44100.37
570.46	44474.86
570.62	43889.73
570.78	44282.94
570.95	43997.39
571.11	44161.23
571.27	44023.14
571.43	44444.43
571.60	44823.60
571.76	44615.29
571.92	44376.56
572.09	44423.37
572.25	44547.42
572.41	44643.38
572.57	44123.78
572.74	44994.46
572.90	44952.33
573.06	44264.21
573.22	44591.89
573.38	44538.05
573.55	44545.08
573.71	44994.46
573.87	44638.70
574.03	44645.72
574.20	44631.68
574.36	44421.03
574.52	44243.15
574.68	44619.97
574.84	44786.15
575.01	44451.45
575.17	44854.03
575.33	44011.43
575.49	44364.85
575.65	44968.71
575.82	44545.08
575.98	44573.16
576.14	45057.65
576.30	44694.87
576.46	44306.34
576.62	44315.70
576.79	44650.40
576.95	44416.35
577.11	44278.25
577.27	44594.23
577.43	45216.81
577.59	44397.62
577.75	44402.30
577.92	44444.43
578.08	44201.02
578.24	44016.11
578.40	44704.23
578.56	44346.13
578.72	44357.83
578.88	44549.76
579.04	45013.18
579.21	44554.44
579.37	44566.14
579.53	44430.39
579.69	44156.55
579.85	44311.02
580.01	44610.61
580.17	44603.59
580.33	44828.28
580.49	44666.78
580.65	44631.68
580.82	44687.85
580.98	44411.67
581.14	44589.55
581.30	44802.53
581.46	44762.75
581.62	44868.07
581.78	44617.63
581.94	44835.30
582.10	44790.83
582.26	44804.88
582.42	44605.93
582.58	44495.92
582.74	44245.49
582.90	44788.49
583.06	44900.84
583.22	44680.83
583.38	44727.64
583.54	44706.57
583.70	44802.53
583.86	44500.61
584.02	44774.45
584.18	44896.16
584.34	45036.59
584.50	44659.76
584.66	44493.58
584.82	44465.50
584.98	45141.91
585.14	44294.64
585.30	44091.01
585.46	44989.78
585.62	44371.88
585.78	44907.86
585.94	44250.17
586.10	44793.17
586.26	44800.19
586.42	44889.13
586.58	44807.22
586.74	44896.16
586.90	44872.75
587.06	44697.21
587.22	44912.54
587.38	44959.35
587.54	44715.93
587.70	45382.99
587.86	44896.16
588.02	44556.78
588.18	44865.73
588.34	44701.89
588.49	44486.56
588.65	44706.57
588.81	44048.88
588.97	44582.52
589.13	44603.59
589.29	44596.57
589.45	44732.32
589.61	45006.16
589.77	44985.10
589.93	44610.61
590.08	44935.95
590.24	44870.41
