SpectraSuite Data File
++++++++++++++++++++++++++++++++++++
Date: Fri Oct 25 11:24:04 EDT 2013
User: price-jones
Dark Spectrum Present: No
Reference Spectrum Present: No
Number of Sampled Component Spectra: 1
Spectrometers: USB2+H05261
Integration Time (usec): 100000 (USB2+H05261)
Spectra Averaged: 1 (USB2+H05261)
Boxcar Smoothing: 0 (USB2+H05261)
Correct for Electrical Dark: No (USB2+H05261)
Strobe/Lamp Enabled: No (USB2+H05261)
Correct for Detector Non-linearity: No (USB2+H05261)
Correct for Stray Light: No (USB2+H05261)
Number of Pixels in Processed Spectrum: 2048
>>>>>Begin Processed Spectral Data<<<<<
365.73	182.56
365.92	182.56
366.12	182.56
366.32	166.18
366.52	93.62
366.72	135.75
366.91	93.62
367.11	91.28
367.31	147.45
367.51	119.37
367.70	105.32
367.90	70.22
368.10	91.28
368.30	159.16
368.49	105.32
368.69	124.05
368.89	147.45
369.09	114.69
369.28	173.20
369.48	177.88
369.68	154.48
369.87	184.90
370.07	245.76
370.27	231.71
370.47	341.72
370.66	554.71
370.86	608.54
371.06	655.35
371.25	676.41
371.45	599.18
371.65	774.72
371.84	732.59
372.04	706.84
372.24	695.14
372.44	723.23
372.63	734.93
372.83	837.91
373.03	793.44
373.22	676.41
373.42	844.93
373.62	716.20
373.81	924.51
374.01	781.74
374.21	798.12
374.40	828.55
374.60	802.80
374.79	868.34
374.99	863.66
375.19	823.87
375.38	819.19
375.58	786.42
375.78	891.74
375.97	861.32
376.17	891.74
376.37	802.80
376.56	781.74
376.76	896.43
376.95	847.27
377.15	924.51
377.35	847.27
377.54	901.11
377.74	919.83
377.93	889.40
378.13	898.77
378.33	910.47
378.52	933.87
378.72	1027.50
378.91	983.02
379.11	1008.77
379.31	973.66
379.50	915.15
379.70	1039.20
379.89	947.92
380.09	983.02
380.28	997.07
380.48	983.02
380.68	954.94
380.87	997.07
381.07	1018.13
381.26	1062.60
381.46	1128.14
381.65	1008.77
381.85	1121.12
382.04	1121.12
382.24	1086.01
382.43	1064.94
382.63	1090.69
382.83	1069.62
383.02	1074.31
383.22	1097.71
383.41	1025.15
383.61	1172.61
383.80	1146.86
384.00	1137.50
384.19	1048.56
384.39	1081.33
384.58	1114.10
384.78	1151.54
384.97	1135.16
385.17	1156.22
385.36	1151.54
385.56	1167.93
385.75	1221.76
385.95	1191.33
386.14	1224.10
386.34	1181.97
386.53	1174.95
386.72	1259.21
386.92	1249.85
387.11	1210.06
387.31	1268.57
387.50	1338.79
387.70	1226.44
387.89	1284.95
388.09	1289.64
388.28	1287.29
388.48	1418.36
388.67	1383.26
388.86	1378.58
389.06	1306.02
389.25	1299.00
389.45	1296.66
389.64	1411.34
389.84	1420.71
390.03	1249.85
390.22	1348.15
390.42	1338.79
390.61	1355.17
390.81	1411.34
391.00	1455.81
391.19	1462.83
391.39	1481.56
391.58	1544.75
391.78	1476.88
391.97	1488.58
392.16	1507.30
392.36	1530.71
392.55	1458.15
392.75	1504.96
392.94	1528.37
393.13	1533.05
393.33	1504.96
393.52	1460.49
393.71	1577.52
393.91	1666.46
394.10	1563.48
394.29	1558.80
394.49	1629.01
394.68	1621.99
394.88	1640.72
395.07	1666.46
395.26	1689.87
395.46	1671.14
395.65	1685.19
395.84	1806.89
396.04	1783.49
396.23	1790.51
396.42	1736.68
396.62	1811.57
396.81	1916.90
397.00	1713.27
397.19	1856.04
397.39	1834.98
397.58	1863.07
397.77	1839.66
397.97	1837.32
398.16	1816.26
398.35	1947.33
398.55	1834.98
398.74	1947.33
398.93	1980.09
399.12	1952.01
399.32	1916.90
399.51	1935.62
399.70	2083.08
399.90	2008.18
400.09	1959.03
400.28	2097.12
400.47	1909.88
400.67	2134.57
400.86	2120.53
401.05	2076.06
401.24	2099.46
401.44	2111.16
401.63	2118.18
401.82	2120.53
402.01	2141.59
402.21	2043.29
402.40	2223.51
402.59	2270.32
402.78	2303.09
402.97	2179.04
403.17	2326.49
403.36	2279.68
403.55	2275.00
403.74	2499.69
403.93	2366.28
404.13	2443.52
404.32	2326.49
404.51	2291.38
404.70	2406.07
404.89	2368.62
405.09	2452.88
405.28	2502.03
405.47	2377.98
405.66	2422.45
405.85	2462.24
406.05	2558.21
406.24	2649.49
406.43	2663.53
406.62	2682.25
406.81	2668.21
407.00	2647.15
407.20	2572.25
407.39	2616.72
407.58	2708.00
407.77	2750.13
407.96	2853.11
408.15	2754.81
408.34	2759.49
408.54	2825.03
408.73	2773.53
408.92	2820.35
409.11	2949.08
409.30	2857.79
409.49	3026.31
409.68	2949.08
409.87	2963.12
410.07	2942.05
410.26	2993.55
410.45	2913.97
410.64	3045.04
410.83	3225.26
411.02	3152.70
411.21	3232.28
411.40	3103.55
411.59	3335.26
411.78	3056.74
411.98	3150.36
412.17	3218.24
412.36	3293.13
412.55	3276.75
412.74	3538.89
412.93	3494.42
413.12	3489.74
413.31	3538.89
413.50	3463.99
413.69	3487.40
413.88	3550.59
414.07	3674.64
414.26	3599.74
414.45	3646.55
414.64	3705.07
414.83	3824.44
415.02	3714.43
415.22	3908.69
415.41	3901.67
415.60	3838.48
415.79	3974.23
415.98	3943.80
416.17	3939.12
416.36	4109.98
416.55	4067.85
416.74	4074.87
416.93	4063.17
417.12	4037.42
417.31	4077.21
417.50	4124.02
417.69	4184.88
417.88	4252.75
418.07	4259.78
418.26	4369.78
418.45	4444.68
418.64	4458.72
418.83	4500.85
419.02	4432.97
419.21	4524.26
419.39	4547.66
419.58	4503.19
419.77	4568.73
419.96	4648.30
420.15	4681.07
420.34	4624.90
420.53	4592.13
420.72	4706.82
420.91	4620.22
421.10	4741.93
421.29	4793.42
421.48	4777.03
421.67	4877.68
421.86	4863.63
422.05	5074.28
422.24	4868.31
422.43	4887.04
422.61	4819.16
422.80	4919.81
422.99	5149.18
423.18	4968.96
423.37	5107.05
423.56	4957.25
423.75	4833.21
423.94	4840.23
424.13	4631.92
424.32	4821.50
424.50	4919.81
424.69	5004.07
424.88	5158.54
425.07	5048.54
425.26	4873.00
425.45	4943.21
425.64	4854.27
425.83	5102.37
426.01	5097.69
426.20	5097.69
426.39	5074.28
426.58	5191.31
426.77	5001.72
426.96	5109.39
427.15	5123.43
427.33	5259.18
427.52	5296.63
427.71	5439.40
427.90	5158.54
428.09	5329.40
428.28	5366.85
428.46	5296.63
428.65	5240.46
428.84	5626.65
429.03	5516.64
429.22	5500.26
429.40	5432.38
429.59	5502.60
429.78	5263.86
429.97	5254.50
430.16	5490.90
430.34	5738.99
430.53	5715.59
430.72	5689.84
430.91	5607.92
431.10	5563.45
431.28	5837.30
431.47	5902.83
431.66	5914.53
431.85	5722.61
432.03	5809.21
432.22	5982.41
432.41	5937.94
432.60	5984.75
432.79	5916.87
432.97	6015.18
433.16	6183.70
433.35	5973.05
433.54	6122.84
433.72	6179.01
433.91	6214.12
434.10	6132.20
434.28	6279.66
434.47	6321.79
434.66	6232.85
434.85	6417.75
435.03	6258.59
435.22	6127.52
435.41	6480.94
435.59	6530.09
435.78	6333.49
435.97	6434.13
436.16	6406.05
436.34	6436.47
436.53	6452.86
436.72	6775.85
436.90	6420.09
437.09	6726.70
437.28	6604.99
437.46	6752.45
437.65	6518.39
437.84	6633.08
438.02	6789.89
438.21	6663.51
438.40	6719.68
438.58	7152.68
438.77	6860.11
438.96	6881.18
439.14	7101.19
439.33	7087.14
439.52	7185.44
439.70	7143.32
439.89	7321.20
440.08	7363.33
440.26	7311.83
440.45	7265.02
440.63	7665.25
440.82	7590.36
441.01	7426.52
441.19	7618.44
441.38	7723.77
441.57	7796.32
441.75	7850.16
441.94	8053.78
442.12	8002.29
442.31	8102.93
442.50	8203.58
442.68	7950.80
442.87	8177.83
443.05	8060.80
443.24	8147.40
443.43	8245.71
443.61	8168.47
443.80	8486.78
443.98	8149.75
444.17	7957.82
444.35	8332.31
444.54	8388.48
444.73	8444.65
444.91	8358.05
445.10	8407.20
445.28	8393.16
445.47	8215.28
445.65	8470.40
445.84	8514.87
446.02	8428.27
446.21	8458.70
446.39	8421.25
446.58	8627.21
446.77	8414.23
446.95	8369.76
447.14	8432.95
447.32	8547.64
447.51	8470.40
447.69	8507.85
447.88	8617.85
448.06	8709.13
448.25	8758.28
448.43	8706.79
448.62	8479.76
448.80	8379.12
448.99	8723.18
449.17	8865.95
449.36	8559.34
449.54	8889.35
449.73	9071.92
449.91	8999.36
450.10	9198.31
450.28	9163.20
450.46	9132.77
450.65	9053.19
450.83	9050.85
451.02	9050.85
451.20	9156.18
451.39	9252.14
451.57	9100.00
451.76	9298.95
451.94	9242.78
452.13	9378.53
452.31	9371.50
452.49	9156.18
452.68	9401.93
452.86	9448.74
453.05	9516.62
453.23	9425.34
453.42	9338.74
453.60	9350.44
453.78	9722.59
453.97	9392.57
454.15	9738.97
454.34	9650.03
454.52	9652.37
454.70	9645.35
454.89	9799.82
455.07	9760.03
455.26	9872.38
455.44	9949.62
455.62	9870.04
455.81	10132.18
455.99	10099.41
456.17	10078.35
456.36	9907.49
456.54	10242.18
456.73	10356.87
456.91	10445.81
457.09	10396.66
457.28	10663.48
457.46	10368.57
457.64	10682.20
457.83	10689.23
458.01	10424.75
458.19	10848.38
458.38	10434.11
458.56	10824.98
458.74	10834.34
458.93	10733.70
459.11	10604.97
459.29	10764.12
459.48	10888.17
459.66	10738.38
459.84	11101.16
460.03	11140.95
460.21	10972.43
460.39	10949.03
460.57	11265.00
460.76	11150.31
460.94	11126.91
461.12	11367.98
461.31	11353.94
461.49	11279.04
461.67	11208.83
461.85	11342.24
462.04	11239.25
462.22	11431.18
462.40	11726.08
462.59	11623.10
462.77	11550.54
462.95	11786.94
463.13	11616.08
463.32	11850.13
463.50	11698.00
463.68	11728.42
463.86	11793.96
464.05	11765.87
464.23	11873.54
464.41	11880.56
464.59	11861.84
464.78	12322.92
464.96	12133.34
465.14	11845.45
465.32	12245.68
465.50	12063.12
465.69	12269.09
465.87	12290.15
466.05	12180.15
466.23	12353.35
466.41	12187.17
466.60	12585.06
466.78	12278.45
466.96	12248.02
467.14	12353.35
467.32	12243.34
467.51	12624.85
467.69	11997.59
467.87	12725.49
468.05	12540.59
468.23	12341.64
468.41	12772.30
468.60	12505.48
468.78	12643.57
468.96	12531.23
469.14	12849.54
469.32	12978.27
469.50	12814.43
469.69	13179.56
469.87	13214.66
470.05	13160.83
470.23	13226.37
470.41	13116.36
470.59	13434.68
470.77	13308.29
470.95	13343.39
471.14	13799.80
471.32	13287.22
471.50	13818.52
471.68	13617.24
471.86	13621.92
472.04	13771.71
472.22	14146.20
472.40	13638.30
472.58	13879.38
472.77	14015.13
472.95	14012.79
473.13	14473.87
473.31	14001.08
473.49	14286.63
473.67	14373.23
473.85	14281.95
474.03	14628.35
474.21	14672.82
474.39	14972.41
474.57	14677.50
474.75	15068.37
474.93	15063.69
475.12	15220.50
475.30	15117.52
475.48	15180.71
475.66	15520.09
475.84	15206.46
476.02	15634.78
476.20	15665.21
476.38	15789.25
476.56	16245.66
476.74	16313.53
476.92	16175.44
477.10	15878.19
477.28	16334.60
477.46	16236.30
477.64	16643.55
477.82	16718.45
478.00	17303.58
478.18	16814.41
478.36	16966.54
478.54	17310.60
478.72	17364.43
478.90	17640.62
479.08	17586.79
479.26	17809.14
479.44	18015.10
479.62	18078.30
479.80	18633.00
479.98	18164.90
480.16	18817.91
480.34	18256.18
480.52	18527.68
480.70	18679.82
480.88	18534.70
481.06	19159.63
481.24	18923.23
481.41	19480.28
481.59	19358.57
481.77	19763.48
481.95	19658.16
482.13	20177.76
482.31	19688.59
482.49	20189.46
482.67	20292.44
482.85	20421.17
483.03	20861.19
483.21	20769.91
483.39	21158.44
483.57	21008.65
483.74	21191.21
483.92	21462.71
484.10	21516.54
484.28	21816.13
484.46	22143.81
484.64	22427.01
484.82	21862.94
485.00	22595.53
485.18	22937.25
485.35	23208.75
485.53	22974.70
485.71	23222.80
485.89	23847.72
486.07	23005.13
486.25	23339.82
486.43	23793.89
486.61	24182.42
486.78	24189.44
486.96	24402.43
487.14	24753.51
487.32	24503.07
487.50	24606.05
487.68	25352.68
487.85	25413.54
488.03	25671.00
488.21	26249.11
488.39	26199.96
488.57	25975.27
488.75	26342.73
488.92	26534.65
489.10	26885.73
489.28	27047.23
489.46	27225.11
489.64	27063.61
489.81	27381.93
489.99	27613.64
490.17	27997.49
490.35	28383.68
490.53	28081.75
490.70	28547.51
490.88	28687.95
491.06	29137.33
491.24	29174.78
491.41	29226.27
491.59	29357.34
491.77	29528.20
491.95	29701.40
492.13	29902.68
492.30	29963.54
492.48	30457.39
492.66	30300.58
492.84	30155.46
493.01	30785.07
493.19	30820.17
493.37	31122.10
493.54	31559.78
493.72	31482.55
493.90	31658.09
494.08	31777.45
494.25	32233.86
494.43	31988.10
494.61	32713.67
494.79	32905.59
494.96	32423.44
495.14	32854.10
495.32	33331.57
495.49	33479.02
495.67	33277.74
495.85	33979.90
496.02	33771.59
496.20	34017.35
496.38	34284.17
496.55	34536.94
496.73	34808.45
496.91	34766.32
497.09	35218.04
497.26	35236.77
497.44	35079.95
497.62	35651.04
497.79	35838.28
497.97	35658.06
498.14	35950.63
498.32	36226.81
498.50	36589.59
498.67	37053.02
498.85	36861.10
499.03	36884.50
499.20	36847.05
499.38	36865.78
499.56	37170.05
499.73	37542.19
499.91	37724.75
500.08	37663.90
500.26	37916.68
500.44	38068.81
500.61	37792.63
500.79	38277.12
500.97	38677.35
501.14	38422.23
501.32	38658.63
501.49	38672.67
501.67	38906.73
501.84	39203.97
502.02	38855.23
502.20	39208.65
502.37	39772.72
502.55	39442.71
502.72	39449.73
502.90	39887.41
503.07	39992.73
503.25	39742.30
503.43	40004.44
503.60	40048.91
503.78	40643.40
503.95	40952.35
504.13	40722.98
504.30	40694.89
504.48	40793.20
504.65	40950.01
504.83	40966.40
505.01	41467.27
505.18	41481.31
505.36	41759.84
505.53	41572.60
505.71	42033.68
505.88	41970.49
506.06	41418.12
506.23	42085.17
506.41	42014.96
506.58	41970.49
506.76	42492.43
506.93	42838.83
507.11	42408.17
507.28	42628.18
507.46	42686.69
507.63	43332.68
507.81	43763.34
507.98	43239.06
508.16	43798.44
508.33	43768.02
508.50	43906.11
508.68	44130.80
508.85	44268.89
509.03	44004.41
509.20	44116.76
509.38	44369.54
509.55	44540.39
509.73	44526.35
509.90	44692.53
510.08	44531.03
510.25	44982.76
510.42	45024.89
510.60	45617.04
510.77	45628.74
510.95	45553.85
511.12	45471.93
511.30	45900.25
511.47	45663.85
511.64	45722.37
511.82	45958.76
511.99	45663.85
512.17	46148.34
512.34	46141.32
512.51	46471.34
512.69	46710.07
512.86	46569.64
513.04	46965.19
513.21	47164.14
513.38	46866.89
513.56	47157.11
513.73	47131.37
513.90	47360.74
514.08	47180.52
514.25	47487.13
514.43	47533.94
514.60	47594.79
514.77	47728.20
514.95	48130.78
515.12	47875.66
515.29	47580.75
515.47	48172.91
515.64	48336.74
515.81	48437.39
515.99	48013.75
516.16	48664.42
516.33	48727.61
516.51	48612.93
516.68	48678.46
516.85	48753.36
517.03	49265.94
517.20	49006.14
517.37	48643.35
517.54	48809.53
517.72	49251.89
517.89	49092.74
518.06	49368.92
518.24	49315.09
518.41	49797.24
518.58	49633.40
518.75	49755.11
518.93	49715.32
519.10	49696.59
519.27	50127.25
519.45	50054.70
519.62	50258.32
519.79	50071.08
519.96	50230.24
520.14	50417.48
520.31	50445.57
520.48	50609.40
520.65	50658.56
520.83	50927.72
521.00	50642.17
521.17	50806.01
521.34	50885.59
521.52	50988.57
521.69	51180.49
521.86	51337.31
522.03	51189.86
522.20	51267.09
522.38	51765.63
522.55	51962.23
522.72	51639.24
522.89	51526.89
523.07	51870.95
523.24	51695.41
523.41	51985.64
523.58	51325.61
523.75	51892.02
523.92	52308.63
524.10	52170.54
524.27	52332.04
524.44	52123.73
524.61	52294.59
524.78	52669.08
524.96	52254.80
525.13	52559.07
525.30	52732.27
525.47	52687.80
525.64	52708.86
525.81	52765.04
525.98	52882.06
526.16	52568.43
526.33	52666.73
526.50	53155.91
526.67	52753.33
526.84	53333.79
527.01	52818.87
527.18	53022.50
527.36	53059.94
527.53	53003.77
527.70	53673.16
527.87	53546.78
528.04	53483.58
528.21	53481.24
528.38	53616.99
528.55	53893.18
528.72	53443.79
528.89	53628.69
529.07	53897.86
529.24	53771.47
529.41	54024.25
529.58	54014.88
529.75	53799.55
529.92	54026.59
530.09	53996.16
530.26	54244.26
530.43	54190.42
530.60	54216.17
530.77	54141.27
530.94	54368.30
531.11	54302.77
531.28	54152.97
531.46	54522.78
531.63	54548.53
531.80	54466.61
531.97	54607.04
532.14	54843.43
532.31	54464.27
532.48	54665.55
532.65	54698.32
532.82	54838.75
532.99	54864.50
533.16	54848.11
533.33	54745.13
533.50	55203.88
533.67	54897.27
533.84	54906.63
534.01	55018.97
534.18	55192.17
534.35	55540.91
534.52	55199.19
534.69	55171.11
534.86	55461.33
535.03	55250.69
535.20	55533.89
535.37	55084.51
535.54	55592.40
535.71	55538.57
535.88	55760.92
536.05	55641.56
536.22	55906.04
536.38	55899.01
536.55	55749.22
536.72	55723.47
536.89	55863.91
537.06	55936.46
537.23	55884.97
537.40	55695.39
537.57	55927.10
537.74	55964.55
537.91	56076.90
538.08	56161.15
538.25	55931.78
538.42	55966.89
538.59	56339.04
538.75	56273.50
538.92	56236.05
539.09	56317.97
539.26	56390.53
539.43	56563.73
539.60	56432.66
539.77	56390.53
539.94	56760.33
540.11	56516.92
540.28	56610.54
540.44	56720.54
540.61	56582.45
540.78	56582.45
540.95	56493.51
541.12	56645.65
541.29	56683.09
541.46	56650.33
541.62	56676.07
541.79	56938.21
541.96	56575.43
542.13	56818.84
542.30	56779.06
542.47	56949.92
542.63	57132.48
542.80	57076.30
542.97	57188.65
543.14	57375.89
543.31	57389.94
543.48	57240.14
543.64	57722.29
543.81	57511.64
543.98	57443.77
544.15	57403.98
544.32	57492.92
544.48	57666.12
544.65	57689.52
544.82	57511.64
544.99	57518.67
545.16	57635.69
545.32	57647.39
545.49	57937.62
545.66	57904.85
545.83	57900.17
546.00	57851.02
546.16	57982.09
546.33	57794.85
546.50	57659.10
546.67	58064.01
546.83	57380.57
547.00	57911.88
547.17	57921.24
547.34	57883.79
547.50	58101.46
547.67	58204.44
547.84	58038.26
548.00	58302.74
548.17	58464.24
548.34	58232.53
548.51	58365.94
548.67	58354.24
548.84	58197.42
549.01	58485.31
549.18	58335.51
549.34	58379.98
549.51	58328.49
549.68	58590.63
549.84	58438.50
550.01	58599.99
550.18	58506.37
550.34	58485.31
550.51	58787.24
550.68	58590.63
550.84	58363.60
551.01	58698.30
551.18	58457.22
551.34	58831.71
551.51	58665.53
551.68	58787.24
551.84	58670.21
552.01	58536.80
552.18	58784.90
552.34	58672.55
552.51	58733.40
552.68	58618.72
552.84	58796.60
553.01	58887.88
553.18	58908.94
553.34	59168.74
553.51	59002.56
553.67	58976.82
553.84	59152.36
554.01	59004.91
554.17	59379.39
554.34	59213.21
554.51	59091.51
554.67	59231.94
554.84	59363.01
555.00	58997.88
555.17	59344.28
555.33	59267.05
555.50	58955.75
555.67	59264.70
555.83	59164.06
556.00	59206.19
556.16	59456.63
556.33	59468.33
556.50	59444.93
556.66	59671.96
556.83	59248.32
556.99	59571.32
557.16	59552.59
557.32	59774.94
557.49	59625.15
557.65	59517.48
557.82	59763.24
557.98	59470.67
558.15	59498.76
558.32	59529.19
558.48	59636.85
558.65	59536.21
558.81	59566.63
558.98	59639.19
559.14	59882.61
559.31	59777.28
559.47	59845.16
559.64	59934.10
559.80	60020.70
559.97	60027.72
560.13	59812.39
560.30	59856.86
560.46	59831.11
560.63	60072.19
560.79	59891.97
560.96	60083.89
561.12	60058.15
561.29	59997.29
561.45	59957.50
561.61	59973.89
561.78	59997.29
561.94	60076.87
562.11	59758.56
562.27	60088.57
562.44	60140.07
562.60	60107.30
562.77	60144.75
562.93	59922.40
563.10	60088.57
563.26	59992.61
563.42	60334.33
563.59	60264.11
563.75	60123.68
563.92	60261.77
564.08	60076.87
564.24	60331.99
564.41	60229.01
564.57	60273.48
564.74	60502.85
564.90	60484.12
565.07	60123.68
565.23	60268.79
565.39	60158.79
565.56	60404.55
565.72	60287.52
565.88	60425.61
566.05	60261.77
566.21	60067.51
566.38	60182.19
566.54	60266.45
566.70	60456.04
566.87	60540.30
567.03	60432.63
567.19	60559.02
567.36	60498.17
567.52	60378.80
567.68	60683.07
567.85	60523.91
568.01	60488.80
568.17	60479.44
568.34	60549.66
568.50	60411.57
568.66	60479.44
568.83	60650.30
568.99	60432.63
569.15	60650.30
569.32	60453.70
569.48	60449.02
569.64	60570.72
569.81	60500.51
569.97	60378.80
570.13	60617.53
570.30	60561.36
570.46	60732.22
570.62	60699.45
570.78	60533.28
570.95	60626.90
571.11	60725.20
571.27	60704.13
571.43	60650.30
571.60	60748.60
571.76	60542.64
571.92	60907.76
572.09	60741.58
572.25	60830.52
572.41	60697.11
572.57	60828.18
572.74	60947.55
572.90	60795.42
573.06	60797.76
573.22	60549.66
573.38	60633.92
573.55	60872.65
573.71	60921.80
573.87	60739.24
574.03	60629.24
574.20	60757.97
574.36	60884.36
574.52	60842.23
574.68	60942.87
574.84	61052.87
575.01	60776.69
575.17	60760.31
575.33	60863.29
575.49	60776.69
575.65	60947.55
575.82	60996.70
575.98	60987.34
576.14	61144.16
576.30	61020.11
576.46	60886.70
576.62	60877.33
576.79	60821.16
576.95	60769.67
577.11	60851.59
577.27	60994.36
577.43	60832.86
577.59	60605.83
577.75	60992.02
577.92	60790.73
578.08	60956.91
578.24	61087.98
578.40	60940.53
578.56	60945.21
578.72	61062.24
578.88	61254.16
579.04	61183.94
579.21	61179.26
579.37	61015.43
579.53	61338.42
579.69	60802.44
579.85	60917.12
580.01	60987.34
580.17	60863.29
580.33	61188.63
580.49	61087.98
580.65	60996.70
580.82	61076.28
580.98	60919.46
581.14	61029.47
581.30	61165.22
581.46	61179.26
581.62	61090.32
581.78	60975.64
581.94	61181.60
582.10	60846.91
582.26	60959.25
582.42	61176.92
582.58	61087.98
582.74	60989.68
582.90	61027.13
583.06	61097.34
583.22	60945.21
583.38	60769.67
583.54	61155.86
583.70	60921.80
583.86	61291.61
584.02	60985.00
584.18	61017.77
584.34	61062.24
584.50	61008.40
584.66	61057.56
584.82	60970.96
584.98	61200.33
585.14	61244.80
585.30	60947.55
585.46	61169.90
585.62	61169.90
585.78	61207.35
585.94	60720.52
586.10	60860.95
586.26	61167.56
586.42	61300.97
586.58	61162.88
586.74	61214.37
586.90	61092.66
587.06	61197.99
587.22	61310.33
587.38	61169.90
587.54	61319.70
587.70	61394.59
587.86	61193.31
588.02	61176.92
588.18	61422.68
588.34	61261.18
588.49	61197.99
