SpectraSuite Data File
++++++++++++++++++++++++++++++++++++
Date: Fri Oct 25 11:26:10 EDT 2013
User: price-jones
Dark Spectrum Present: No
Reference Spectrum Present: No
Number of Sampled Component Spectra: 1
Spectrometers: USB2+H05261
Integration Time (usec): 100000 (USB2+H05261)
Spectra Averaged: 1 (USB2+H05261)
Boxcar Smoothing: 0 (USB2+H05261)
Correct for Electrical Dark: No (USB2+H05261)
Strobe/Lamp Enabled: No (USB2+H05261)
Correct for Detector Non-linearity: No (USB2+H05261)
Correct for Stray Light: No (USB2+H05261)
Number of Pixels in Processed Spectrum: 2048
>>>>>Begin Processed Spectral Data<<<<<
365.73	198.95
365.92	198.95
366.12	198.95
366.32	147.45
366.52	203.63
366.72	212.99
366.91	154.48
367.11	138.09
367.31	161.50
367.51	189.58
367.70	147.45
367.90	159.16
368.10	156.82
368.30	107.66
368.49	145.11
368.69	166.18
368.89	140.43
369.09	156.82
369.28	170.86
369.48	145.11
369.68	173.20
369.87	194.26
370.07	163.84
370.27	299.59
370.47	404.91
370.66	496.19
370.86	582.79
371.06	636.63
371.25	725.57
371.45	638.97
371.65	725.57
371.84	667.05
372.04	727.91
372.24	692.80
372.44	758.33
372.63	741.95
372.83	779.40
373.03	786.42
373.22	875.36
373.42	833.23
373.62	755.99
373.81	802.80
374.01	788.76
374.21	777.06
374.40	791.10
374.60	809.83
374.79	847.27
374.99	833.23
375.19	866.00
375.38	835.57
375.58	884.72
375.78	882.38
375.97	910.47
376.17	912.81
376.37	936.21
376.56	894.08
376.76	877.70
376.95	915.15
377.15	858.98
377.35	929.19
377.54	912.81
377.74	903.45
377.93	910.47
378.13	866.00
378.33	938.55
378.52	947.92
378.72	954.94
378.91	917.49
379.11	947.92
379.31	924.51
379.50	903.45
379.70	978.34
379.89	1006.43
380.09	1034.52
380.28	1025.15
380.48	1006.43
380.68	992.39
380.87	1011.11
381.07	968.98
381.26	1050.90
381.46	1067.28
381.65	1034.52
381.85	1128.14
382.04	1076.65
382.24	1029.84
382.43	959.62
382.63	1043.88
382.83	1062.60
383.02	1088.35
383.22	1104.73
383.41	1111.75
383.61	1086.01
383.80	1142.18
384.00	1104.73
384.19	1109.41
384.39	1207.72
384.58	1151.54
384.78	1118.78
384.97	1165.59
385.17	1125.80
385.36	1203.04
385.56	1254.53
385.75	1130.48
385.95	1214.74
386.14	1181.97
386.34	1172.61
386.53	1174.95
386.72	1247.51
386.92	1242.82
387.11	1240.48
387.31	1322.40
387.50	1294.32
387.70	1282.61
387.89	1296.66
388.09	1198.35
388.28	1322.40
388.48	1401.98
388.67	1282.61
388.86	1329.42
389.06	1380.92
389.25	1336.45
389.45	1350.49
389.64	1364.53
389.84	1444.11
390.03	1416.02
390.22	1465.18
390.42	1380.92
390.61	1352.83
390.81	1420.71
391.00	1441.77
391.19	1446.45
391.39	1317.72
391.58	1528.37
391.78	1434.75
391.97	1497.94
392.16	1451.13
392.36	1497.94
392.55	1598.59
392.75	1547.09
392.94	1514.33
393.13	1474.54
393.33	1533.05
393.52	1528.37
393.71	1540.07
393.91	1633.69
394.10	1556.46
394.29	1706.25
394.49	1561.14
394.68	1586.88
394.88	1626.67
395.07	1596.25
395.26	1659.44
395.46	1621.99
395.65	1720.29
395.84	1671.14
396.04	1753.06
396.23	1727.32
396.42	1729.66
396.62	1788.17
396.81	1844.34
397.00	1811.57
397.19	1905.20
397.39	1750.72
397.58	1849.02
397.77	1785.83
397.97	1799.87
398.16	1884.13
398.35	2024.56
398.55	1856.04
398.74	1919.24
398.93	1923.92
399.12	2057.33
399.32	1877.11
399.51	1830.30
399.70	1909.88
399.90	1863.07
400.09	1963.71
400.28	2050.31
400.47	2012.86
400.67	2080.74
400.86	2012.86
401.05	1994.14
401.24	2092.44
401.44	2134.57
401.63	2097.12
401.82	2169.68
402.01	2165.00
402.21	2150.95
402.40	2111.16
402.59	2235.21
402.78	2326.49
402.97	2300.75
403.17	2211.81
403.36	2136.91
403.55	2225.85
403.74	2396.71
403.93	2347.56
404.13	2333.51
404.32	2303.09
404.51	2403.73
404.70	2347.56
404.89	2408.41
405.09	2462.24
405.28	2502.03
405.47	2399.05
405.66	2504.37
405.85	2560.55
406.05	2537.14
406.24	2525.44
406.43	2600.34
406.62	2693.96
406.81	2649.49
407.00	2663.53
407.20	2546.50
407.39	2541.82
407.58	2619.06
407.77	2761.83
407.96	2843.75
408.15	2759.49
408.34	2820.35
408.54	2881.20
408.73	2857.79
408.92	2841.41
409.11	2993.55
409.30	2710.34
409.49	2911.63
409.68	2967.80
409.87	2871.84
410.07	2951.42
410.26	3075.46
410.45	2984.18
410.64	3038.02
410.83	3066.10
411.02	3162.06
411.21	3047.38
411.40	3180.79
411.59	3234.62
411.78	3239.30
411.98	3136.32
412.17	3204.19
412.36	3178.45
412.55	3295.47
412.74	3302.50
412.93	3314.20
413.12	3379.73
413.31	3541.23
413.50	3386.76
413.69	3342.28
413.88	3655.92
414.07	3499.10
414.26	3651.24
414.45	3599.74
414.64	3578.68
414.83	3714.43
415.02	3742.52
415.22	3875.93
415.41	3819.75
415.60	3873.59
415.79	3850.18
415.98	3749.54
416.17	4046.79
416.36	3918.06
416.55	3850.18
416.74	4070.19
416.93	4007.00
417.12	4271.48
417.31	4170.83
417.50	4114.66
417.69	4210.62
417.88	4287.86
418.07	4145.09
418.26	4259.78
418.45	4287.86
418.64	4341.69
418.83	4430.63
419.02	4201.26
419.21	4472.76
419.39	4369.78
419.58	4503.19
419.77	4559.36
419.96	4491.49
420.15	4564.04
420.34	4510.21
420.53	4716.18
420.72	4634.26
420.91	4699.80
421.10	4638.94
421.29	4657.67
421.48	4741.93
421.67	4615.54
421.86	4833.21
422.05	4793.42
422.24	4711.50
422.43	4858.95
422.61	4919.81
422.80	4835.55
422.99	4954.91
423.18	4999.38
423.37	5036.83
423.56	4959.60
423.75	4835.55
423.94	4844.91
424.13	4599.15
424.32	4781.71
424.50	4999.38
424.69	5212.37
424.88	4978.32
425.07	5001.72
425.26	4959.60
425.45	4959.60
425.64	4891.72
425.83	4973.64
426.01	4964.28
426.20	4985.34
426.39	5149.18
426.58	5048.54
426.77	5114.07
426.96	5078.96
427.15	5069.60
427.33	5165.56
427.52	5177.26
427.71	5303.65
427.90	5093.01
428.09	5217.05
428.28	5474.51
428.46	5289.61
428.65	5310.68
428.84	5394.93
429.03	5467.49
429.22	5167.90
429.40	5453.45
429.59	5605.58
429.78	5364.51
429.97	5343.44
430.16	5427.70
430.34	5572.82
430.53	5624.31
430.72	5671.12
430.91	5673.46
431.10	5589.20
431.28	5631.33
431.47	5636.01
431.66	5788.14
431.85	5750.70
432.03	5767.08
432.22	5900.49
432.41	5844.32
432.60	5994.11
432.79	6031.56
432.97	5930.92
433.16	6003.47
433.35	5879.43
433.54	6036.24
433.72	6097.10
433.91	6050.28
434.10	6150.93
434.28	6104.12
434.47	6195.40
434.66	6218.80
434.85	6370.94
435.03	6277.32
435.22	6284.34
435.41	6523.07
435.59	6314.77
435.78	6382.64
435.97	6415.41
436.16	6321.79
436.34	6541.80
436.53	6560.52
436.72	6658.82
436.90	6485.62
437.09	6445.84
437.28	6530.09
437.46	6588.61
437.65	6539.46
437.84	6787.55
438.02	6771.17
438.21	6698.61
438.40	6541.80
438.58	7101.19
438.77	7021.61
438.96	6939.69
439.14	7110.55
439.33	7075.44
439.52	7143.32
439.70	7344.60
439.89	7344.60
440.08	7328.22
440.26	7353.96
440.45	7222.89
440.63	7360.98
440.82	7599.72
441.01	7419.50
441.19	7602.06
441.38	7740.15
441.57	7637.17
441.75	7737.81
441.94	7754.19
442.12	8006.97
442.31	7955.48
442.50	8086.55
442.68	7971.86
442.87	8145.06
443.05	8173.15
443.24	8039.74
443.43	7936.76
443.61	8205.92
443.80	8226.98
443.98	8102.93
444.17	7836.11
444.35	8219.96
444.54	8280.82
444.73	8304.22
444.91	8283.16
445.10	8273.79
445.28	8304.22
445.47	8138.04
445.65	8351.03
445.84	8575.72
446.02	8308.90
446.21	8348.69
446.39	8402.52
446.58	8468.06
446.77	8519.55
446.95	8175.49
447.14	8425.93
447.32	8573.38
447.51	8430.61
447.69	8519.55
447.88	8423.59
448.06	8430.61
448.25	8456.36
448.43	8695.09
448.62	8596.79
448.80	8582.74
448.99	8692.75
449.17	8865.95
449.36	8697.43
449.54	8758.28
449.73	8919.78
449.91	8891.70
450.10	9022.77
450.28	8966.59
450.46	8968.93
450.65	9006.38
450.83	8882.33
451.02	9046.17
451.20	9263.84
451.39	9020.42
451.57	9277.88
451.76	8999.36
451.94	9275.54
452.13	9312.99
452.31	9221.71
452.49	9188.94
452.68	9254.48
452.86	9020.42
453.05	9376.19
453.23	9451.08
453.42	9296.61
453.60	9107.02
453.78	9586.83
453.97	9486.19
454.15	9467.47
454.34	9411.29
454.52	9668.75
454.70	9554.07
454.89	9551.73
455.07	9825.57
455.26	9743.65
455.44	9827.91
455.62	9935.57
455.81	9727.27
455.99	9811.53
456.17	10080.69
456.36	10094.73
456.54	10019.83
456.73	10090.05
456.91	10279.63
457.09	10197.71
457.28	10640.08
457.46	10319.42
457.64	10581.56
457.83	10361.55
458.01	10485.60
458.19	10892.85
458.38	10581.56
458.56	10560.50
458.74	10682.20
458.93	10558.16
459.11	10846.04
459.29	10689.23
459.48	10799.23
459.66	10881.15
459.84	10942.00
460.03	11190.10
460.21	10799.23
460.39	11030.94
460.57	10670.50
460.76	11281.38
460.94	11068.39
461.12	11201.80
461.31	11187.76
461.49	11021.58
461.67	11098.82
461.85	11365.64
462.04	10899.87
462.22	11997.59
462.40	11604.38
462.59	11218.19
462.77	11372.66
462.95	11363.30
463.13	11573.95
463.32	11667.57
463.50	11616.08
463.68	11763.53
463.86	11915.67
464.05	11707.36
464.23	11571.61
464.41	11901.62
464.59	11583.31
464.78	12070.14
464.96	11885.24
465.14	11899.28
465.32	11756.51
465.50	12102.91
465.69	11943.75
465.87	12140.36
466.05	12173.13
466.23	12292.49
466.41	12189.51
466.60	12208.23
466.78	12194.19
466.96	12123.98
467.14	12079.50
467.32	12383.77
467.51	12407.18
467.69	12182.49
467.87	12348.67
468.05	12744.22
468.23	12519.53
468.41	12393.14
468.60	12510.16
468.78	12652.94
468.96	12566.34
469.14	12655.28
469.32	13006.36
469.50	12372.07
469.69	13001.68
469.87	13078.91
470.05	12975.93
470.23	13041.46
470.41	13083.59
470.59	13481.49
470.77	13146.79
470.95	13025.08
471.14	13493.19
471.32	13238.07
471.50	13678.09
471.68	13324.67
471.86	13642.98
472.04	13675.75
472.22	13914.48
472.40	13650.00
472.58	13841.93
472.77	13928.53
472.95	14127.47
473.13	14555.79
473.31	13898.10
473.49	14038.53
473.67	14148.54
473.85	14340.46
474.03	14499.62
474.21	14480.89
474.39	14771.12
474.57	14684.52
474.75	14717.29
474.93	14775.80
475.12	14895.17
475.30	15049.64
475.48	15059.01
475.66	15021.56
475.84	15215.82
476.02	15213.48
476.20	15307.10
476.38	15548.18
476.56	15941.39
476.74	16168.42
476.92	15861.81
477.10	15583.29
477.28	16170.76
477.46	16231.62
477.64	16191.83
477.82	16690.36
478.00	16971.22
478.18	16702.06
478.36	16947.82
478.54	17151.45
478.72	17025.06
478.90	17596.15
479.08	17525.93
479.26	17514.23
479.44	17483.80
479.62	17762.33
479.80	18094.68
479.98	18050.21
480.16	18501.93
480.34	18579.17
480.52	18298.31
480.70	18508.96
480.88	18405.97
481.06	18621.30
481.24	18794.50
481.41	18686.84
481.59	19183.03
481.77	19562.20
481.95	19651.14
482.13	19744.76
482.31	19513.05
482.49	20137.97
482.67	20212.87
482.85	20332.23
483.03	20411.81
483.21	20629.48
483.39	20905.66
483.57	20765.23
483.74	21184.19
483.92	21322.28
484.10	21118.65
484.28	22120.40
484.46	22012.74
484.64	22338.07
484.82	22043.17
485.00	22197.64
485.18	22490.21
485.35	22988.74
485.53	22689.15
485.71	23124.49
485.89	23520.04
486.07	23164.28
486.25	23236.84
486.43	23658.14
486.61	23688.56
486.78	23946.02
486.96	24306.46
487.14	24580.31
487.32	24608.39
487.50	24694.99
487.68	24919.68
487.85	25116.29
488.03	25287.15
488.21	25795.04
488.39	25755.26
488.57	25970.58
488.75	25891.01
488.92	26225.70
489.10	26675.09
489.28	26775.73
489.46	26824.88
489.64	26834.24
489.81	27733.01
489.99	27599.60
490.17	27695.56
490.35	27770.46
490.53	28276.01
490.70	28170.69
490.88	28393.04
491.06	28701.99
491.24	28301.76
491.41	29223.93
491.59	29308.19
491.77	29289.46
491.95	29462.66
492.13	29809.06
492.30	29883.96
492.48	29743.53
492.66	30176.53
492.84	30565.06
493.01	30747.62
493.19	30787.41
493.37	30937.20
493.54	31290.62
493.72	31218.07
493.90	31208.70
494.08	31714.26
494.25	31730.64
494.43	31505.95
494.61	32219.81
494.79	31983.42
494.96	32357.91
495.14	32650.47
495.32	33036.66
495.49	33156.03
495.67	33163.05
495.85	33305.82
496.02	33397.10
496.20	33748.18
496.38	33867.55
496.55	34000.96
496.73	34726.53
496.91	34263.10
497.09	34763.98
497.26	34733.55
497.44	35077.61
497.62	35110.38
497.79	35873.39
497.97	35576.14
498.14	36023.19
498.32	35920.20
498.50	35959.99
498.67	36376.61
498.85	36383.63
499.03	36856.42
499.20	36989.83
499.38	37092.81
499.56	36912.59
499.73	36825.99
499.91	36875.14
500.08	37661.56
500.26	37165.37
500.44	37251.97
500.61	37621.77
500.79	37904.98
500.97	38370.74
501.14	38232.65
501.32	38651.61
501.49	38117.96
501.67	38232.65
501.84	38609.48
502.02	38670.33
502.20	39030.77
502.37	39344.41
502.55	39185.25
502.72	38895.02
502.90	39360.79
503.07	39489.52
503.25	39761.02
503.43	39447.39
503.60	40156.57
503.78	39957.63
503.95	40257.21
504.13	40294.66
504.30	40669.15
504.48	40217.43
504.65	41071.72
504.83	40715.96
505.01	41076.40
505.18	40673.83
505.36	41523.44
505.53	40910.22
505.71	41500.04
505.88	41652.17
506.06	41296.41
506.23	41696.64
506.41	41851.12
506.58	41881.55
506.76	41806.65
506.93	42366.04
507.11	41778.56
507.28	42506.47
507.46	42810.74
507.63	42717.12
507.81	42976.92
507.98	42803.72
508.16	42932.45
508.33	43147.78
508.50	43250.76
508.68	43683.76
508.85	43625.25
509.03	43466.09
509.20	43538.65
509.38	44451.45
509.55	44119.10
509.73	44495.92
509.90	44100.37
510.08	44634.02
510.25	44280.60
510.42	44708.91
510.60	45013.18
510.77	45268.30
510.95	45422.78
511.12	45235.53
511.30	44825.94
511.47	45434.48
511.64	45205.11
511.82	45586.61
511.99	45769.18
512.17	45881.52
512.34	45469.59
512.51	46174.09
512.69	46103.87
512.86	46211.54
513.04	46454.95
513.21	46571.98
513.38	46927.74
513.56	46880.93
513.73	46220.90
513.90	46995.62
514.08	47014.34
514.25	46789.65
514.43	46876.25
514.60	47370.10
514.77	47547.98
514.95	48013.75
515.12	47363.08
515.29	47262.44
515.47	47721.18
515.64	48559.09
515.81	47445.00
515.99	47999.71
516.16	48463.13
516.33	47995.03
516.51	48633.99
516.68	48605.91
516.85	48470.15
517.03	48755.70
517.20	48460.79
517.37	48765.06
517.54	48736.98
517.72	48744.00
517.89	48980.39
518.06	49322.11
518.24	49287.00
518.41	48825.92
518.58	49256.57
518.75	49020.18
518.93	49460.20
519.10	49221.47
519.27	49495.31
519.45	49722.34
519.62	50047.68
519.79	49518.71
519.96	50028.95
520.14	50106.19
520.31	49832.35
520.48	50471.31
520.65	50136.62
520.83	50117.89
521.00	50808.35
521.17	50398.76
521.34	50532.17
521.52	50520.46
521.69	50553.23
521.86	50873.88
522.03	50464.29
522.20	51311.56
522.38	51412.21
522.55	51220.28
522.72	51246.03
522.89	51103.26
523.07	51636.90
523.24	51192.20
523.41	51447.32
523.58	51269.43
523.75	51620.52
523.92	52114.37
524.10	52051.17
524.27	52013.73
524.44	51936.49
524.61	51936.49
524.78	51973.94
524.96	51973.94
525.13	52121.39
525.30	52224.37
525.47	52294.59
525.64	52470.13
525.81	52163.52
525.98	52303.95
526.16	52446.72
526.33	52446.72
526.50	52683.12
526.67	52519.28
526.84	52868.02
527.01	52949.94
527.18	52587.16
527.36	53139.52
527.53	52875.04
527.70	52921.85
527.87	53151.23
528.04	53202.72
528.21	53244.85
528.38	53329.11
528.55	53319.74
528.72	53425.07
528.89	53549.12
529.07	53277.61
529.24	53155.91
529.41	53558.48
529.58	53303.36
529.75	53741.04
529.92	53474.22
530.09	53670.82
530.26	53982.12
530.43	53804.24
530.60	53544.44
530.77	53741.04
530.94	53872.11
531.11	53722.32
531.28	53911.90
531.46	54031.27
531.63	53858.07
531.80	53951.69
531.97	54213.83
532.14	54204.47
532.31	54639.81
532.48	54370.64
532.65	54525.12
532.82	54419.80
532.99	54429.16
533.16	54433.84
533.33	54571.93
533.50	54822.37
533.67	54712.36
533.84	54679.60
534.01	54733.43
534.18	54756.83
534.35	55222.60
534.52	54873.86
534.69	55014.29
534.86	55220.26
535.03	54700.66
535.20	55243.66
535.37	55323.24
535.54	55124.30
535.71	55138.34
535.88	55178.13
536.05	55444.95
536.22	55639.22
536.38	55475.38
536.55	55393.46
536.72	55253.03
536.89	55440.27
537.06	55681.34
537.23	55557.30
537.40	55337.29
537.57	55370.05
537.74	55540.91
537.91	56009.02
538.08	55903.70
538.25	55709.43
538.42	55657.94
538.59	55929.44
538.75	55882.63
538.92	56126.05
539.09	56060.51
539.26	55938.80
539.43	55824.12
539.60	56100.30
539.77	56196.26
539.94	56383.51
540.11	56161.15
540.28	56362.44
540.44	56306.27
540.61	56322.65
540.78	56179.88
540.95	56198.60
541.12	56479.47
541.29	56542.66
541.46	56479.47
541.62	56353.08
541.79	56582.45
541.96	56313.29
542.13	56666.71
542.30	56254.78
542.47	56753.31
542.63	56685.43
542.80	56809.48
542.97	56970.98
543.14	57158.22
543.31	56879.70
543.48	57036.51
543.64	57420.36
543.81	57324.40
543.98	57088.01
544.15	57279.93
544.32	57333.76
544.48	57350.15
544.65	57343.12
544.82	57387.60
544.99	57387.60
545.16	57256.53
545.32	57347.81
545.49	57448.45
545.66	57535.05
545.83	57694.21
546.00	57778.46
546.16	57605.26
546.33	57523.35
546.50	57329.08
546.67	57652.08
546.83	57312.70
547.00	57481.22
547.17	57418.02
547.34	57694.21
547.50	57942.30
547.67	58059.33
547.84	57841.66
548.00	58192.74
548.17	58019.54
548.34	58040.60
548.51	58099.12
548.67	58351.90
548.84	58106.14
549.01	57932.94
549.18	58129.54
549.34	58113.16
549.51	58269.98
549.68	58192.74
549.84	58356.58
550.01	58269.98
550.18	58152.95
550.34	58340.19
550.51	58370.62
550.68	57876.77
550.84	58059.33
551.01	58618.72
551.18	58372.96
551.34	58581.27
551.51	58585.95
551.68	58370.62
551.84	58522.76
552.01	58384.66
552.18	58422.11
552.34	58281.68
552.51	58548.50
552.68	58372.96
552.84	58513.39
553.01	58794.26
553.18	58794.26
553.34	58862.13
553.51	58642.12
553.67	58595.31
553.84	58756.81
554.01	58798.94
554.17	58878.52
554.34	58796.60
554.51	58834.05
554.67	58944.05
554.84	58976.82
555.00	58852.77
555.17	59004.91
555.33	59084.48
555.50	58871.49
555.67	59089.16
555.83	58925.33
556.00	58815.32
556.16	59168.74
556.33	59192.15
556.50	58958.09
556.66	59114.91
556.83	59035.33
556.99	59531.53
557.16	59601.74
557.32	59405.14
557.49	59540.89
557.65	59391.09
557.82	59288.11
557.98	59332.58
558.15	59470.67
558.32	59512.80
558.48	59451.95
558.65	59327.90
558.81	59430.88
558.98	59566.63
559.14	59475.35
559.31	59465.99
559.47	59554.93
559.64	59716.43
559.80	59629.83
559.97	59774.94
560.13	59430.88
560.30	59639.19
560.46	59735.15
560.63	59697.70
560.79	59554.93
560.96	59889.63
561.12	59852.18
561.29	59674.30
561.45	59709.41
561.61	59629.83
561.78	60069.85
561.94	59800.69
562.11	59363.01
562.27	59636.85
562.44	59908.35
562.60	60144.75
562.77	59929.42
562.93	59793.67
563.10	60130.70
563.26	59812.39
563.42	60111.98
563.59	59927.08
563.75	59678.98
563.92	59812.39
564.08	59814.73
564.24	60109.64
564.41	60009.00
564.57	60048.78
564.74	59936.44
564.90	59966.87
565.07	59810.05
565.23	60097.94
565.39	60119.00
565.56	60039.42
565.72	59985.59
565.88	60074.53
566.05	60100.28
566.21	60111.98
566.38	60111.98
566.54	60158.79
566.70	60404.55
566.87	60299.22
567.03	59894.31
567.19	60198.58
567.36	60271.14
567.52	60198.58
567.68	60329.65
567.85	60439.65
568.01	60601.15
568.17	60055.81
568.34	60182.19
568.50	60123.68
568.66	60317.95
568.83	60449.02
568.99	60245.39
569.15	60444.33
569.32	60500.51
569.48	60416.25
569.64	60322.63
569.81	60467.74
569.97	60193.90
570.13	60287.52
570.30	60381.14
570.46	60378.80
570.62	60444.33
570.78	60566.04
570.95	60376.46
571.11	60301.56
571.27	60285.18
571.43	60434.97
571.60	60441.99
571.76	60561.36
571.92	60486.46
572.09	60477.10
572.25	60395.18
572.41	60441.99
572.57	60378.80
572.74	60610.51
572.90	60479.44
573.06	60477.10
573.22	60556.68
573.38	60491.15
573.55	60647.96
573.71	60629.24
573.87	60669.03
574.03	60463.06
574.20	60839.89
574.36	60575.40
574.52	60823.50
574.68	60725.20
574.84	60701.79
575.01	60561.36
575.17	60699.45
575.33	60559.02
575.49	60528.59
575.65	60573.06
575.82	60647.96
575.98	60514.55
576.14	60823.50
576.30	60683.07
576.46	60678.39
576.62	60629.24
576.79	60584.77
576.95	60605.83
577.11	60701.79
577.27	60685.41
577.43	60767.33
577.59	60713.50
577.75	60601.15
577.92	60542.64
578.08	60601.15
578.24	60647.96
578.40	60982.66
578.56	60924.14
578.72	60610.51
578.88	60905.42
579.04	60860.95
579.21	60882.02
579.37	60977.98
579.53	60900.74
579.69	60516.89
579.85	60741.58
580.01	60732.22
580.17	60718.18
580.33	60889.04
580.49	60828.18
580.65	60844.57
580.82	60645.62
580.98	60713.50
581.14	60657.32
581.30	60893.72
581.46	60760.31
581.62	60938.19
581.78	60769.67
581.94	61066.92
582.10	60900.74
582.26	60842.23
582.42	60889.04
582.58	60683.07
582.74	60617.53
582.90	60903.08
583.06	60772.01
583.22	60683.07
583.38	61041.17
583.54	60884.36
583.70	60912.44
583.86	60992.02
584.02	60928.83
584.18	61013.08
584.34	60973.30
584.50	60945.21
584.66	60802.44
584.82	60783.71
584.98	61151.18
585.14	61071.60
585.30	60762.65
585.46	60795.42
585.62	60825.84
585.78	60867.97
585.94	60821.16
586.10	61106.71
586.26	60914.78
586.42	61095.00
586.58	60975.64
586.74	61045.85
586.90	61073.94
587.06	61031.81
587.22	61134.79
587.38	60999.04
587.54	61076.28
587.70	61247.14
587.86	61031.81
588.02	61057.56
588.18	61116.07
588.34	61087.98
