SpectraSuite Data File
++++++++++++++++++++++++++++++++++++
Date: Fri Oct 25 10:43:42 EDT 2013
User: price-jones
Dark Spectrum Present: No
Reference Spectrum Present: No
Number of Sampled Component Spectra: 1
Spectrometers: USB2+H05261
Integration Time (usec): 100000 (USB2+H05261)
Spectra Averaged: 1 (USB2+H05261)
Boxcar Smoothing: 0 (USB2+H05261)
Correct for Electrical Dark: No (USB2+H05261)
Strobe/Lamp Enabled: No (USB2+H05261)
Correct for Detector Non-linearity: No (USB2+H05261)
Correct for Stray Light: No (USB2+H05261)
Number of Pixels in Processed Spectrum: 2048
>>>>>Begin Processed Spectral Data<<<<<
365.73	196.60
365.92	196.60
366.12	196.60
366.32	25.75
366.52	4.68
366.72	35.11
366.91	28.09
367.11	79.58
367.31	60.85
367.51	30.43
367.70	0.00
367.90	44.47
368.10	63.19
368.30	0.00
368.49	56.17
368.69	42.13
368.89	58.51
369.09	14.04
369.28	39.79
369.48	105.32
369.68	28.09
369.87	32.77
370.07	117.03
370.27	126.39
370.47	177.88
370.66	367.46
370.86	379.17
371.06	465.77
371.25	491.51
371.45	437.68
371.65	451.72
371.84	402.57
372.04	416.62
372.24	402.57
372.44	526.62
372.63	582.79
372.83	447.04
373.03	470.45
373.22	477.47
373.42	552.37
373.62	550.03
373.81	592.16
374.01	512.58
374.21	498.53
374.40	519.60
374.60	564.07
374.79	608.54
374.99	580.45
375.19	631.94
375.38	491.51
375.58	524.28
375.78	589.82
375.97	664.71
376.17	601.52
376.37	578.11
376.56	655.35
376.76	641.31
376.95	564.07
377.15	606.20
377.35	713.86
377.54	667.05
377.74	622.58
377.93	648.33
378.13	608.54
378.33	566.41
378.52	660.03
378.72	699.82
378.91	702.16
379.11	641.31
379.31	547.69
379.50	592.16
379.70	800.46
379.89	699.82
380.09	720.88
380.28	650.67
380.48	676.41
380.68	739.61
380.87	711.52
381.07	706.84
381.26	706.84
381.46	662.37
381.65	688.12
381.85	718.54
382.04	727.91
382.24	662.37
382.43	755.99
382.63	730.25
382.83	723.23
383.02	748.97
383.22	784.08
383.41	695.14
383.61	795.78
383.80	774.72
384.00	798.12
384.19	779.40
384.39	837.91
384.58	704.50
384.78	805.14
384.97	800.46
385.17	779.40
385.36	795.78
385.56	837.91
385.75	772.38
385.95	788.76
386.14	823.87
386.34	828.55
386.53	898.77
386.72	887.06
386.92	861.32
387.11	854.30
387.31	884.72
387.50	924.51
387.70	910.47
387.89	830.89
388.09	837.91
388.28	863.66
388.48	894.08
388.67	835.57
388.86	936.21
389.06	936.21
389.25	1041.54
389.45	901.11
389.64	959.62
389.84	1020.47
390.03	1029.84
390.22	966.64
390.42	1109.41
390.61	1036.86
390.81	1034.52
391.00	1039.20
391.19	994.73
391.39	1064.94
391.58	1093.03
391.78	1025.15
391.97	1041.54
392.16	938.55
392.36	976.00
392.55	1078.99
392.75	994.73
392.94	938.55
393.13	940.90
393.33	1034.52
393.52	1022.81
393.71	1156.22
393.91	1151.54
394.10	1123.46
394.29	1034.52
394.49	1196.01
394.68	1224.10
394.88	1198.35
395.07	1252.19
395.26	1210.06
395.46	1224.10
395.65	1238.14
395.84	1277.93
396.04	1254.53
396.23	1158.57
396.42	1217.08
396.62	1212.40
396.81	1207.72
397.00	1242.82
397.19	1287.29
397.39	1345.81
397.58	1385.60
397.77	1324.74
397.97	1416.02
398.16	1439.43
398.35	1514.33
398.55	1500.28
398.74	1490.92
398.93	1540.07
399.12	1516.67
399.32	1568.16
399.51	1610.29
399.70	1577.52
399.90	1519.01
400.09	1556.46
400.28	1722.63
400.47	1575.18
400.67	1652.42
400.86	1619.65
401.05	1682.85
401.24	1764.76
401.44	1795.19
401.63	1708.59
401.82	1771.79
402.01	1783.49
402.21	1724.97
402.40	1783.49
402.59	1764.76
402.78	1748.38
402.97	1757.74
403.17	1846.68
403.36	1804.55
403.55	1982.43
403.74	1813.92
403.93	1926.26
404.13	1921.58
404.32	1886.47
404.51	1905.20
404.70	2054.99
404.89	1902.86
405.09	1980.09
405.28	1956.69
405.47	1886.47
405.66	1935.62
405.85	1933.28
406.05	2033.93
406.24	1902.86
406.43	2104.14
406.62	2036.27
406.81	2069.03
407.00	2019.88
407.20	2001.16
407.39	2141.59
407.58	2172.02
407.77	2207.13
407.96	2202.44
408.15	2162.66
408.34	2157.97
408.54	2249.25
408.73	2298.41
408.92	2246.91
409.11	2204.78
409.30	2296.07
409.49	2389.69
409.68	2385.01
409.87	2356.92
410.07	2392.03
410.26	2328.83
410.45	2340.54
410.64	2413.09
410.83	2530.12
411.02	2516.08
411.21	2705.66
411.40	2672.89
411.59	2700.98
411.78	2628.42
411.98	2654.17
412.17	2717.36
412.36	2642.46
412.55	2672.89
412.74	2752.47
412.93	2778.22
413.12	2649.49
413.31	2920.99
413.50	2892.90
413.69	2944.39
413.88	2944.39
414.07	2883.54
414.26	2991.20
414.45	2965.46
414.64	3012.27
414.83	3101.21
415.02	3096.53
415.22	3204.19
415.41	3052.06
415.60	3157.38
415.79	3344.63
415.98	3363.35
416.17	3243.98
416.36	3208.87
416.55	3218.24
416.74	3288.45
416.93	3243.98
417.12	3222.92
417.31	3550.59
417.50	3246.32
417.69	3480.38
417.88	3435.91
418.07	3473.36
418.26	3391.44
418.45	3550.59
418.64	3592.72
418.83	3609.11
419.02	3646.55
419.21	3815.07
419.39	3585.70
419.58	3524.85
419.77	3665.28
419.96	3644.21
420.15	3784.65
420.34	3581.02
420.53	3803.37
420.72	3819.75
420.91	3880.61
421.10	3927.42
421.29	3946.14
421.48	3927.42
421.67	4044.45
421.86	3906.35
422.05	3847.84
422.24	3859.54
422.43	3861.88
422.61	3920.40
422.80	3999.98
422.99	3985.93
423.18	3964.87
423.37	4049.13
423.56	3908.69
423.75	3978.91
423.94	3824.44
424.13	3714.43
424.32	3871.25
424.50	3875.93
424.69	4105.30
424.88	4058.49
425.07	3871.25
425.26	3953.16
425.45	4009.34
425.64	3896.99
425.83	4011.68
426.01	4189.56
426.20	3854.86
426.39	4016.36
426.58	4051.47
426.77	4035.08
426.96	3957.85
427.15	3932.10
427.33	4042.11
427.52	4194.24
427.71	4177.86
427.90	4072.53
428.09	4234.03
428.28	4276.16
428.46	4177.86
428.65	4173.18
428.84	4388.50
429.03	4297.22
429.22	4152.11
429.40	4306.59
429.59	4187.22
429.78	4023.38
429.97	3873.59
430.16	3852.52
430.34	4109.98
430.53	4161.47
430.72	4311.27
430.91	4100.62
431.10	4278.50
431.28	4566.39
431.47	4657.67
431.66	4657.67
431.85	4592.13
432.03	4664.69
432.22	4690.43
432.41	4631.92
432.60	4711.50
432.79	4737.24
432.97	4634.26
433.16	4784.06
433.35	4669.37
433.54	4585.11
433.72	4777.03
433.91	4798.10
434.10	4624.90
434.28	4844.91
434.47	4842.57
434.66	4938.53
434.85	4903.42
435.03	4844.91
435.22	4905.76
435.41	5083.64
435.59	5118.75
435.78	5186.63
435.97	5420.68
436.16	5015.77
436.34	5327.06
436.53	5109.39
436.72	5373.87
436.90	5107.05
437.09	5298.97
437.28	5125.77
437.46	5263.86
437.65	5226.42
437.84	5203.01
438.02	5205.35
438.21	5401.96
438.40	5256.84
438.58	5294.29
438.77	5446.43
438.96	5439.40
439.14	5600.90
439.33	5610.26
439.52	5830.27
439.70	5628.99
439.89	5621.97
440.08	5753.04
440.26	5827.93
440.45	5626.65
440.63	5956.66
440.82	5966.03
441.01	6019.86
441.19	6113.48
441.38	6176.67
441.57	6223.48
441.75	6307.74
441.94	6319.45
442.12	6347.53
442.31	6431.79
442.50	6466.90
442.68	6324.13
442.87	6310.08
443.05	6265.61
443.24	6504.35
443.43	6303.06
443.61	6366.26
443.80	6647.12
443.98	6347.53
444.17	6321.79
444.35	6595.63
444.54	6792.23
444.73	6534.78
444.91	6628.40
445.10	6579.25
445.28	6483.28
445.47	6506.69
445.65	6504.35
445.84	6541.80
446.02	6583.93
446.21	6750.10
446.39	6684.57
446.58	6761.81
446.77	6665.85
446.95	6633.08
447.14	6729.04
447.32	6775.85
447.51	6773.51
447.69	6843.73
447.88	6860.11
448.06	6817.98
448.25	6761.81
448.43	6773.51
448.62	6820.32
448.80	6871.81
448.99	6869.47
449.17	6836.70
449.36	6642.44
449.54	6956.07
449.73	7105.87
449.91	7171.40
450.10	7150.34
450.28	7293.11
450.46	7335.24
450.65	7274.38
450.83	7232.26
451.02	7382.05
451.20	7360.98
451.39	7328.22
451.57	7304.81
451.76	7155.02
451.94	7323.54
452.13	7297.79
452.31	7131.61
452.49	7098.84
452.68	7185.44
452.86	7243.96
453.05	7485.03
453.23	7297.79
453.42	7234.60
453.60	7447.58
453.78	7543.55
453.97	7447.58
454.15	7307.15
454.34	7239.28
454.52	7470.99
454.70	7470.99
454.89	7707.38
455.07	7637.17
455.26	7651.21
455.44	7777.60
455.62	7765.90
455.81	7765.90
455.99	7922.71
456.17	7908.67
456.36	7899.31
456.54	7978.89
456.73	8152.09
456.91	8245.71
457.09	8159.11
457.28	8311.24
457.46	8294.86
457.64	8315.92
457.83	8084.21
458.01	8053.78
458.19	8290.18
458.38	8196.56
458.56	8430.61
458.74	8276.13
458.93	8266.77
459.11	8313.58
459.29	8353.37
459.48	8222.30
459.66	8510.19
459.84	8241.03
460.03	8517.21
460.21	8643.60
460.39	8704.45
460.57	8458.70
460.76	8702.11
460.94	8793.39
461.12	8674.03
461.31	8779.35
461.49	8643.60
461.67	8559.34
461.85	8858.93
462.04	8816.80
462.22	9458.10
462.40	8915.10
462.59	8915.10
462.77	9195.96
462.95	9011.06
463.13	8894.04
463.32	8936.17
463.50	9224.05
463.68	9095.32
463.86	9015.74
464.05	9193.62
464.23	8980.64
464.41	9121.07
464.59	8791.05
464.78	9298.95
464.96	9247.46
465.14	9123.41
465.32	9305.97
465.50	9441.72
465.69	9533.00
465.87	9427.68
466.05	9298.95
466.23	9004.04
466.41	9146.81
466.60	9418.32
466.78	9530.66
466.96	9369.16
467.14	9378.53
467.32	9345.76
467.51	9554.07
467.69	9160.86
467.87	9589.17
468.05	9589.17
468.23	9537.68
468.41	9561.09
468.60	9633.64
468.78	9727.27
468.96	9696.84
469.14	9502.58
469.32	10024.51
469.50	9476.83
469.69	9881.74
469.87	9851.31
470.05	10031.54
470.23	9884.08
470.41	9710.88
470.59	9921.53
470.77	9926.21
470.95	10047.92
471.14	10068.98
471.32	10122.82
471.50	10197.71
471.68	10331.12
471.86	10399.00
472.04	10417.72
472.22	10684.55
472.40	10303.04
472.58	10656.46
472.77	10588.58
472.95	10696.25
473.13	11033.29
473.31	10553.48
473.49	10621.35
473.67	10665.82
473.85	10855.40
474.03	10937.32
474.21	11023.92
474.39	11129.25
474.57	11180.74
474.75	11377.34
474.93	11293.08
475.12	11286.06
475.30	11454.58
475.48	11363.30
475.66	11253.30
475.84	11236.91
476.02	11370.32
476.20	11386.71
476.38	11866.52
476.56	12107.59
476.74	11953.12
476.92	11824.39
477.10	11866.52
477.28	11950.78
477.46	12372.07
477.64	12327.60
477.82	12493.78
478.00	12776.98
478.18	12617.83
478.36	12634.21
478.54	12931.46
478.72	12695.07
478.90	13022.74
479.08	13022.74
479.26	13376.16
479.44	13226.37
479.62	13247.43
479.80	13376.16
479.98	13383.18
480.16	13682.77
480.34	13507.23
480.52	13593.83
480.70	13975.34
480.88	13937.89
481.06	14026.83
481.24	13886.40
481.41	14277.27
481.59	14637.71
481.77	14726.65
481.95	14459.83
482.13	14773.46
482.31	14803.89
482.49	14885.81
482.67	14977.09
482.85	15178.37
483.03	15538.82
483.21	15508.39
483.39	15414.77
483.57	15611.37
483.74	15658.18
483.92	15735.42
484.10	15508.39
484.28	16135.65
484.46	16137.99
484.64	16624.83
484.82	16208.21
485.00	16353.32
485.18	16718.45
485.35	16397.79
485.53	16137.99
485.71	16407.16
485.89	16823.77
486.07	16659.93
486.25	16760.58
486.43	17104.64
486.61	17247.41
486.78	17467.42
486.96	17497.84
487.14	17642.96
487.32	17699.13
487.50	18061.91
487.68	18476.19
487.85	18513.64
488.03	18487.89
488.21	18948.98
488.39	18593.22
488.57	18506.62
488.75	18611.94
488.92	19197.07
489.10	19133.88
489.28	19393.68
489.46	19819.66
489.64	19894.55
489.81	19941.36
489.99	20313.51
490.17	20477.35
490.35	20606.08
490.53	20521.82
490.70	20547.56
490.88	20856.51
491.06	20943.11
491.24	20648.21
491.41	20849.49
491.59	21212.28
491.77	20989.92
491.95	21207.59
492.13	21345.69
492.30	21755.28
492.48	22073.59
492.66	21851.24
492.84	21996.35
493.01	22417.65
493.19	22118.06
493.37	22436.38
493.54	22317.01
493.72	22438.72
493.90	22906.82
494.08	22778.09
494.25	23164.28
494.43	23241.52
494.61	23672.18
494.79	23889.85
494.96	23709.63
495.14	23889.85
495.32	23805.59
495.49	23924.96
495.67	23747.08
495.85	24648.18
496.02	24240.93
496.20	24460.94
496.38	24957.13
496.55	24683.29
496.73	24961.81
496.91	25046.07
497.09	25174.80
497.26	25266.08
497.44	25497.80
497.62	25408.86
497.79	25596.10
497.97	25261.40
498.14	25717.81
498.32	25844.20
498.50	25832.49
498.67	26169.53
498.85	26167.19
499.03	26661.04
499.20	26600.19
499.38	26387.20
499.56	26242.09
499.73	26647.00
499.91	26485.50
500.08	27072.98
500.26	26742.96
500.44	26457.42
500.61	26625.93
500.79	26614.23
500.97	26981.70
501.14	27339.80
501.32	27300.01
501.49	27063.61
501.67	27218.09
501.84	27814.93
502.02	27529.38
502.20	27751.73
502.37	27910.89
502.55	27880.46
502.72	28308.78
502.90	28070.04
503.07	27882.80
503.25	28334.53
503.43	28224.52
503.60	28393.04
503.78	28133.24
503.95	28264.31
504.13	28549.85
504.30	28683.27
504.48	29113.92
504.65	28732.42
504.83	29125.63
505.01	29479.05
505.18	29530.54
505.36	29628.84
505.53	29652.25
505.71	29900.34
505.88	30029.07
506.06	29640.54
506.23	29577.35
506.41	29654.59
506.58	30071.20
506.76	30277.17
506.93	29930.77
507.11	29977.58
507.28	30331.00
507.46	29965.88
507.63	30258.45
507.81	30359.09
507.98	30551.01
508.16	30827.20
508.33	30785.07
508.50	30820.17
508.68	30852.94
508.85	31442.76
509.03	31208.70
509.20	31199.34
509.38	31082.31
509.55	31559.78
509.73	31126.78
509.90	31866.39
510.08	31527.02
510.25	31592.55
510.42	31761.07
510.60	31826.60
510.77	31908.52
510.95	32369.61
511.12	32203.43
511.30	31974.06
511.47	32617.71
511.64	32575.58
511.82	32797.93
511.99	32149.60
512.17	32453.87
512.34	32545.15
512.51	32659.84
512.69	32751.12
512.86	32952.40
513.04	32903.25
513.21	33165.39
513.38	32978.15
513.56	33031.98
513.73	32896.23
513.90	33507.11
514.08	33362.00
514.25	33146.67
514.43	33139.65
514.60	33500.09
514.77	33434.55
514.95	33862.87
515.12	33195.82
515.29	33872.23
515.47	33991.60
515.64	34263.10
515.81	34033.73
515.99	33841.81
516.16	33862.87
516.33	33802.02
516.51	33783.29
516.68	33422.85
516.85	33268.37
517.03	33518.81
517.20	33862.87
517.37	34534.60
517.54	34522.90
517.72	34471.41
517.89	34099.26
518.06	34370.77
518.24	34316.93
518.41	34445.66
518.58	34682.06
518.75	34700.78
518.93	35016.75
519.10	34801.43
519.27	34974.63
519.45	35349.11
519.62	35634.66
519.79	35662.74
519.96	35611.25
520.14	35590.19
520.31	35690.83
520.48	35859.35
520.65	35833.60
520.83	36229.15
521.00	36020.84
521.17	35901.48
521.34	36034.89
521.52	36535.76
521.69	35868.71
521.86	36510.02
522.03	36655.13
522.20	36804.92
522.38	36577.89
522.55	36381.29
522.72	36332.14
522.89	36570.87
523.07	36809.61
523.24	36818.97
523.41	37060.04
523.58	36940.68
523.75	37434.53
523.92	37495.38
524.10	37312.82
524.27	37408.78
524.44	37626.45
524.61	37502.40
524.78	37596.03
524.96	37565.60
525.13	37607.73
525.30	37975.19
525.47	37848.80
525.64	38073.49
525.81	38019.66
525.98	37727.10
526.16	37530.49
526.33	37418.14
526.50	37198.13
526.67	37727.10
526.84	37647.52
527.01	37701.35
527.18	37876.89
527.36	38387.13
527.53	38469.04
527.70	38696.08
527.87	38202.22
528.04	38370.74
528.21	38597.77
528.38	38602.46
528.55	39309.30
528.72	38731.18
528.89	39185.25
529.07	38864.60
529.24	39124.40
529.41	39175.89
529.58	39119.71
529.75	38972.26
529.92	39292.91
530.09	38967.58
530.26	39533.99
530.43	39505.90
530.60	39281.21
530.77	39351.43
530.94	39482.50
531.11	39487.18
531.28	39398.24
531.46	39995.07
531.63	39744.64
531.80	39988.05
531.97	39573.78
532.14	39915.50
532.31	39325.68
532.48	39218.02
532.65	39653.36
532.82	39943.58
532.99	39592.50
533.16	39938.90
533.33	40149.55
533.50	40093.38
533.67	40032.52
533.84	40107.42
534.01	40498.29
534.18	40095.72
534.35	40315.73
534.52	40245.51
534.69	40509.99
534.86	40699.58
535.03	40481.91
535.20	41003.85
535.37	41223.86
535.54	41242.58
535.71	40645.74
535.88	40797.88
536.05	40828.30
536.22	41223.86
536.38	41359.61
536.55	40381.26
536.72	40884.48
536.89	40776.81
537.06	41027.25
537.23	41532.81
537.40	41574.94
537.57	41322.16
537.74	41436.84
537.91	41483.66
538.08	41476.63
538.25	41191.09
538.42	41916.65
538.59	41413.44
538.75	41359.61
538.92	41696.64
539.09	41366.63
539.26	41593.66
539.43	41603.02
539.60	41757.50
539.77	41125.55
539.94	41656.85
540.11	41621.75
540.28	41797.29
540.44	41837.08
540.61	41743.45
540.78	41109.17
540.95	41432.16
541.12	41605.36
541.29	41647.49
541.46	41972.83
541.62	42230.29
541.79	42286.46
541.96	41808.99
542.13	42068.79
542.30	42148.37
542.47	42167.09
542.63	42148.37
542.80	42216.24
542.97	42653.92
543.14	42909.04
543.31	42508.81
543.48	42939.47
543.64	43217.99
543.81	43402.89
543.98	43187.56
544.15	43145.44
544.32	43187.56
544.48	43590.14
544.65	43402.89
544.82	43253.10
544.99	43253.10
545.16	42738.18
545.32	43044.79
545.49	43379.49
545.66	43655.67
545.83	43510.56
546.00	43449.70
546.16	43175.86
546.33	42646.90
546.50	43452.05
546.67	43206.29
546.83	43672.06
547.00	43517.58
547.17	43828.87
547.34	43110.33
547.50	43737.59
547.67	43681.42
547.84	43810.15
548.00	43807.81
548.17	44032.50
548.34	43971.64
548.51	44376.56
548.67	43885.04
548.84	44208.04
549.01	44044.20
549.18	43880.36
549.34	43978.67
549.51	43915.47
549.68	44362.51
549.84	44282.94
550.01	44432.73
550.18	44266.55
550.34	44156.55
550.51	43737.59
550.68	44151.87
550.84	43636.95
551.01	43985.69
551.18	44105.06
551.34	44306.34
551.51	44495.92
551.68	44830.62
551.84	44486.56
552.01	44423.37
552.18	44296.98
552.34	44325.07
552.51	44355.49
552.68	44385.92
552.84	44430.39
553.01	44739.34
553.18	44390.60
553.34	44931.26
553.51	44573.16
553.67	44666.78
553.84	44648.06
554.01	45069.36
554.17	45237.87
554.34	45092.76
554.51	44975.73
554.67	45125.53
554.84	44865.73
555.00	44715.93
555.17	44559.12
555.33	44793.17
555.50	45411.07
555.67	44966.37
555.83	44893.82
556.00	45034.25
556.16	45413.41
556.33	45118.51
556.50	44996.80
556.66	44818.92
556.83	44994.46
556.99	45212.13
557.16	44774.45
557.32	45263.62
557.49	45270.64
557.65	45148.93
557.82	45645.13
557.98	45312.77
558.15	45277.66
558.32	44666.78
558.48	45193.40
558.65	45322.13
558.81	45045.95
558.98	45062.33
559.14	45432.14
559.31	45319.79
559.47	45280.00
559.64	45111.49
559.80	45052.97
559.97	45432.14
560.13	45090.42
560.30	45811.31
560.46	45666.19
560.63	45755.13
560.79	45771.52
560.96	45633.42
561.12	45116.17
561.29	45038.93
561.45	45237.87
561.61	45301.07
561.78	45359.58
561.94	45478.95
562.11	45382.99
562.27	45635.77
562.44	45600.66
562.60	45773.86
562.77	46178.77
562.93	45759.81
563.10	45633.42
563.26	45586.61
563.42	46274.73
563.59	45420.44
563.75	46094.51
563.92	45757.47
564.08	46064.08
564.24	46494.74
564.41	45834.71
564.57	46066.42
564.74	45956.42
564.90	46000.89
565.07	46134.30
565.23	46038.34
565.39	45502.35
565.56	45872.16
565.72	46061.74
565.88	45935.35
566.05	45668.53
566.21	45844.07
566.38	46134.30
566.54	46050.04
566.70	46361.33
566.87	46586.02
567.03	45989.19
567.19	46396.44
567.36	46454.95
567.52	45794.92
567.68	46387.08
567.85	45713.00
568.01	46153.02
568.17	45830.03
568.34	46073.45
568.50	46094.51
568.66	45837.05
568.83	46068.76
568.99	45961.10
569.15	45591.30
569.32	45680.24
569.48	46227.92
569.64	46508.79
569.81	46174.09
569.97	45776.20
570.13	46169.41
570.30	45886.20
570.46	45649.81
570.62	45485.97
570.78	45598.32
570.95	45698.96
571.11	45834.71
571.27	45984.51
571.43	45923.65
571.60	45921.31
571.76	46110.89
571.92	46110.89
572.09	46071.10
572.25	46167.07
572.41	46366.01
572.57	46621.13
572.74	46253.67
572.90	46351.97
573.06	46153.02
573.22	46206.86
573.38	45757.47
573.55	45708.32
573.71	46906.68
573.87	46405.80
574.03	46742.84
574.20	46501.76
574.36	46202.18
574.52	46623.47
574.68	46181.11
574.84	46445.59
575.01	46124.94
575.17	46216.22
575.33	45984.51
575.49	45937.69
575.65	46024.29
575.82	46560.28
575.98	45895.56
576.14	46183.45
576.30	46813.05
576.46	46073.45
576.62	45837.05
576.79	46178.77
576.95	45921.31
577.11	46284.09
577.27	46597.73
577.43	46000.89
577.59	45860.46
577.75	46106.21
577.92	45713.00
578.08	45897.91
578.24	45717.68
578.40	45975.14
578.56	46190.47
578.72	46131.96
578.88	46316.86
579.04	46260.69
579.21	46213.88
579.37	45682.58
579.53	46649.22
579.69	46286.43
579.85	46248.99
580.01	46251.33
580.17	46230.26
580.33	46429.21
580.49	46529.85
580.65	46644.54
580.82	46099.19
580.98	46232.60
581.14	46543.89
581.30	46298.14
581.46	46354.31
581.62	46564.96
581.78	45977.48
581.94	46782.63
582.10	46513.47
582.26	46471.34
582.42	46445.59
582.58	46958.17
582.74	46553.26
582.90	46618.79
583.06	46756.88
583.22	46499.42
583.38	46394.10
583.54	46363.67
583.70	46712.41
583.86	46426.87
584.02	46506.44
584.18	46171.75
584.34	46534.53
584.50	46127.28
584.66	45897.91
584.82	46050.04
584.98	46571.98
585.14	46117.92
585.30	46307.50
585.46	46160.05
585.62	45914.29
585.78	46078.13
585.94	46160.05
586.10	46307.50
586.26	46115.58
586.42	46223.24
586.58	46536.87
586.74	46309.84
586.90	46328.56
587.06	46457.29
587.22	46696.03
587.38	46129.62
587.54	46944.12
587.70	46515.81
587.86	46461.97
588.02	46377.72
588.18	46583.68
588.34	46450.27
588.49	45778.54
588.65	45464.91
588.81	46155.36
588.97	46038.34
589.13	45823.01
589.29	45958.76
589.45	46164.73
589.61	46281.75
589.77	46546.23
589.93	46452.61
