SpectraSuite Data File
++++++++++++++++++++++++++++++++++++
Date: Fri Oct 25 10:47:49 EDT 2013
User: price-jones
Dark Spectrum Present: No
Reference Spectrum Present: No
Number of Sampled Component Spectra: 1
Spectrometers: USB2+H05261
Integration Time (usec): 100000 (USB2+H05261)
Spectra Averaged: 1 (USB2+H05261)
Boxcar Smoothing: 0 (USB2+H05261)
Correct for Electrical Dark: No (USB2+H05261)
Strobe/Lamp Enabled: No (USB2+H05261)
Correct for Detector Non-linearity: No (USB2+H05261)
Correct for Stray Light: No (USB2+H05261)
Number of Pixels in Processed Spectrum: 2048
>>>>>Begin Processed Spectral Data<<<<<
365.73	110.01
365.92	110.01
366.12	110.01
366.32	95.96
366.52	65.54
366.72	51.49
366.91	60.85
367.11	60.85
367.31	81.92
367.51	51.49
367.70	0.00
367.90	88.94
368.10	0.00
368.30	44.47
368.49	37.45
368.69	7.02
368.89	18.72
369.09	0.00
369.28	91.28
369.48	60.85
369.68	124.05
369.87	110.01
370.07	98.30
370.27	152.13
370.47	166.18
370.66	404.91
370.86	416.62
371.06	449.38
371.25	454.06
371.45	451.72
371.65	507.90
371.84	461.09
372.04	489.17
372.24	507.90
372.44	484.49
372.63	538.32
372.83	559.39
373.03	493.85
373.22	566.41
373.42	421.30
373.62	559.39
373.81	454.06
374.01	496.19
374.21	559.39
374.40	482.15
374.60	564.07
374.79	571.09
374.99	535.98
375.19	489.17
375.38	500.87
375.58	559.39
375.78	561.73
375.97	573.43
376.17	657.69
376.37	507.90
376.56	737.27
376.76	573.43
376.95	554.71
377.15	634.29
377.35	608.54
377.54	631.94
377.74	587.47
377.93	517.26
378.13	692.80
378.33	615.56
378.52	657.69
378.72	606.20
378.91	571.09
379.11	575.77
379.31	613.22
379.50	526.62
379.70	664.71
379.89	610.88
380.09	690.46
380.28	690.46
380.48	690.46
380.68	660.03
380.87	564.07
381.07	622.58
381.26	737.27
381.46	702.16
381.65	678.76
381.85	699.82
382.04	681.10
382.24	793.44
382.43	711.52
382.63	667.05
382.83	615.56
383.02	648.33
383.22	805.14
383.41	655.35
383.61	702.16
383.80	704.50
384.00	685.78
384.19	798.12
384.39	819.19
384.58	737.27
384.78	849.61
384.97	737.27
385.17	681.10
385.36	711.52
385.56	816.85
385.75	763.01
385.95	760.67
386.14	807.48
386.34	737.27
386.53	727.91
386.72	819.19
386.92	791.10
387.11	819.19
387.31	856.64
387.50	786.42
387.70	793.44
387.89	847.27
388.09	840.25
388.28	866.00
388.48	793.44
388.67	912.81
388.86	898.77
389.06	912.81
389.25	938.55
389.45	851.96
389.64	908.13
389.84	896.43
390.03	917.49
390.22	952.60
390.42	889.40
390.61	877.70
390.81	922.17
391.00	926.85
391.19	952.60
391.39	936.21
391.58	961.96
391.78	976.00
391.97	1004.09
392.16	976.00
392.36	1032.18
392.55	999.41
392.75	1048.56
392.94	985.37
393.13	1053.24
393.33	954.94
393.52	1046.22
393.71	1109.41
393.91	1013.45
394.10	1050.90
394.29	1107.07
394.49	1086.01
394.68	1102.39
394.88	1118.78
395.07	1219.42
395.26	1125.80
395.46	1146.86
395.65	1186.65
395.84	1149.20
396.04	1151.54
396.23	1153.88
396.42	1198.35
396.62	1160.91
396.81	1203.04
397.00	1170.27
397.19	1093.03
397.39	1170.27
397.58	1277.93
397.77	1228.78
397.97	1249.85
398.16	1291.98
398.35	1259.21
398.55	1296.66
398.74	1406.66
398.93	1385.60
399.12	1366.87
399.32	1303.68
399.51	1371.55
399.70	1420.71
399.90	1357.51
400.09	1331.76
400.28	1430.07
400.47	1387.94
400.67	1458.15
400.86	1451.13
401.05	1533.05
401.24	1521.35
401.44	1476.88
401.63	1514.33
401.82	1453.47
402.01	1451.13
402.21	1544.75
402.40	1535.39
402.59	1619.65
402.78	1556.46
402.97	1537.73
403.17	1689.87
403.36	1633.69
403.55	1549.43
403.74	1509.65
403.93	1568.16
404.13	1750.72
404.32	1774.13
404.51	1689.87
404.70	1720.29
404.89	1750.72
405.09	1717.95
405.28	1699.23
405.47	1614.97
405.66	1722.63
405.85	1767.10
406.05	1825.62
406.24	1874.77
406.43	1818.60
406.62	1764.76
406.81	1811.57
407.00	1907.54
407.20	1809.23
407.39	1832.64
407.58	1778.81
407.77	2022.22
407.96	2008.18
408.15	1982.43
408.34	1923.92
408.54	1886.47
408.73	1996.48
408.92	2017.54
409.11	2097.12
409.30	2141.59
409.49	1968.39
409.68	2012.86
409.87	2092.44
410.07	2125.21
410.26	2153.29
410.45	2040.95
410.64	2232.87
410.83	2150.95
411.02	2139.25
411.21	2291.38
411.40	2221.17
411.59	2483.31
411.78	2352.24
411.98	2260.96
412.17	2347.56
412.36	2385.01
412.55	2394.37
412.74	2349.90
412.93	2342.88
413.12	2420.11
413.31	2539.48
413.50	2469.27
413.69	2576.93
413.88	2443.52
414.07	2616.72
414.26	2668.21
414.45	2459.90
414.64	2705.66
414.83	2712.68
415.02	2708.00
415.22	2733.75
415.41	2818.00
415.60	2839.07
415.79	2855.45
415.98	2869.50
416.17	2916.31
416.36	2883.54
416.55	2965.46
416.74	2916.31
416.93	2920.99
417.12	2930.35
417.31	3021.63
417.50	3045.04
417.69	3122.27
417.88	3038.02
418.07	3005.25
418.26	3007.59
418.45	3169.09
418.64	3236.96
418.83	3105.89
419.02	3229.94
419.21	3300.16
419.39	3133.98
419.58	3218.24
419.77	3260.37
419.96	3190.15
420.15	3361.01
420.34	3328.24
420.53	3276.75
420.72	3400.80
420.91	3459.31
421.10	3428.88
421.29	3485.06
421.48	3419.52
421.67	3508.46
421.86	3487.40
422.05	3524.85
422.24	3492.08
422.43	3389.10
422.61	3545.91
422.80	3543.57
422.99	3588.04
423.18	3595.06
423.37	3597.40
423.56	3564.64
423.75	3424.20
423.94	3494.42
424.13	3384.41
424.32	3449.95
424.50	3648.90
424.69	3562.30
424.88	3655.92
425.07	3590.38
425.26	3506.12
425.45	3599.74
425.64	3466.33
425.83	3627.83
426.01	3688.68
426.20	3721.45
426.39	3576.34
426.58	3513.14
426.77	3590.38
426.96	3625.49
427.15	3506.12
427.33	3634.85
427.52	3801.03
427.71	3653.58
427.90	3726.13
428.09	3786.99
428.28	3763.58
428.46	3674.64
428.65	3655.92
428.84	3896.99
429.03	3915.72
429.22	3672.30
429.40	3885.29
429.59	3796.35
429.78	3730.81
429.97	3515.48
430.16	3768.26
430.34	3709.75
430.53	3908.69
430.72	4030.40
430.91	3908.69
431.10	3850.18
431.28	4035.08
431.47	4119.34
431.66	4329.99
431.85	4037.42
432.03	4051.47
432.22	4227.01
432.41	4182.54
432.60	4121.68
432.79	4271.48
432.97	4266.80
433.16	4344.03
433.35	4208.28
433.54	4257.43
433.72	4299.56
433.91	4304.25
434.10	4341.69
434.28	4149.77
434.47	4325.31
434.66	4496.17
434.85	4573.41
435.03	4421.27
435.22	4498.51
435.41	4629.58
435.59	4650.64
435.78	4755.97
435.97	4674.05
436.16	4440.00
436.34	4638.94
436.53	4519.57
436.72	4788.74
436.90	4571.07
437.09	4830.87
437.28	4613.20
437.46	4667.03
437.65	4613.20
437.84	4559.36
438.02	4695.11
438.21	4662.35
438.40	4718.52
438.58	4973.64
438.77	4854.27
438.96	4725.54
439.14	5100.03
439.33	5156.20
439.52	5277.91
439.70	5095.35
439.89	5018.11
440.08	5228.76
440.26	5298.97
440.45	5254.50
440.63	5308.34
440.82	5334.08
441.01	5387.91
441.19	5404.30
441.38	5411.32
441.57	5460.47
441.75	5558.77
441.94	5666.44
442.12	5703.89
442.31	5731.97
442.50	5628.99
442.68	5600.90
442.87	5638.35
443.05	5645.37
443.24	5884.11
443.43	5647.71
443.61	5823.25
443.80	6029.22
443.98	5781.12
444.17	5659.42
444.35	5834.96
444.54	5973.05
444.73	5980.07
444.91	5923.90
445.10	5935.60
445.28	5816.23
445.47	5708.57
445.65	5753.04
445.84	5785.80
446.02	5933.26
446.21	5799.85
446.39	5996.45
446.58	6054.97
446.77	5963.68
446.95	5881.77
447.14	6087.73
447.32	6085.39
447.51	5902.83
447.69	6026.88
447.88	6125.18
448.06	6022.20
448.25	6101.78
448.43	6078.37
448.62	6094.76
448.80	6099.44
448.99	6085.39
449.17	6139.23
449.36	6094.76
449.54	5996.45
449.73	6469.24
449.91	6354.55
450.10	6471.58
450.28	6602.65
450.46	6326.47
450.65	6497.33
450.83	6310.08
451.02	6415.41
451.20	6502.01
451.39	6480.94
451.57	6628.40
451.76	6450.52
451.94	6331.15
452.13	6633.08
452.31	6431.79
452.49	6516.05
452.68	6569.88
452.86	6544.14
453.05	6705.63
453.23	6757.13
453.42	6574.56
453.60	6466.90
453.78	6761.81
453.97	6834.36
454.15	6665.85
454.34	6707.98
454.52	6754.79
454.70	6817.98
454.89	6806.28
455.07	6820.32
455.26	6897.56
455.44	6986.50
455.62	6864.79
455.81	6986.50
455.99	7026.29
456.17	6888.20
456.36	7101.19
456.54	7176.08
456.73	7180.76
456.91	7379.71
457.09	7122.25
457.28	7339.92
457.46	7295.45
457.64	7281.41
457.83	7295.45
458.01	7155.02
458.19	7405.46
458.38	7435.88
458.56	7466.31
458.74	7351.62
458.93	7421.84
459.11	7599.72
459.29	7482.69
459.48	7674.62
459.66	7454.61
459.84	7581.00
460.03	7747.17
460.21	7583.34
460.39	7681.64
460.57	7693.34
460.76	7873.56
460.94	7791.64
461.12	7662.91
461.31	7943.78
461.49	7866.54
461.67	7796.32
461.85	7936.76
462.04	8013.99
462.22	8327.63
462.40	7971.86
462.59	8224.64
462.77	7889.95
462.95	8042.08
463.13	8044.42
463.32	8170.81
463.50	8177.83
463.68	8182.51
463.86	8109.96
464.05	8107.62
464.23	8109.96
464.41	8301.88
464.59	8168.47
464.78	8234.00
464.96	8372.10
465.14	8212.94
465.32	8175.49
465.50	8367.42
465.69	8500.83
465.87	8484.44
466.05	8479.76
466.23	8465.72
466.41	8299.54
466.60	8479.76
466.78	8383.80
466.96	8365.07
467.14	8222.30
467.32	8580.40
467.51	8716.16
467.69	8470.40
467.87	8601.47
468.05	8716.16
468.23	8514.87
468.41	8540.61
468.60	8690.41
468.78	8875.31
468.96	8683.39
469.14	8870.63
469.32	8924.46
469.50	8828.50
469.69	8915.10
469.87	9217.03
470.05	9027.45
470.23	8905.74
470.41	9144.47
470.59	9055.53
470.77	9179.58
470.95	9097.66
471.14	9275.54
471.32	9062.55
471.50	9348.10
471.68	9266.18
471.86	9415.98
472.04	9301.29
472.22	9643.01
472.40	9305.97
472.58	9287.25
472.77	9472.15
472.95	9563.43
473.13	9778.76
473.31	9568.11
473.49	9467.47
473.67	9455.76
473.85	9874.72
474.03	9930.89
474.21	10106.43
474.39	10174.31
474.57	10066.64
474.75	10167.29
474.93	10171.97
475.12	10043.24
475.30	10150.90
475.48	10001.11
475.66	10274.95
475.84	10441.13
476.02	10253.89
476.20	10387.30
476.38	10773.49
476.56	11047.33
476.74	10665.82
476.92	10766.46
477.10	10771.15
477.28	11049.67
477.46	10977.11
477.64	11215.85
477.82	11358.62
478.00	11356.28
478.18	11386.71
478.36	11323.51
478.54	11517.78
478.72	11524.80
478.90	11803.32
479.08	11726.08
479.26	11562.25
479.44	11819.71
479.62	11910.99
479.80	12348.67
479.98	12269.09
480.16	12461.01
480.34	12479.74
480.52	12409.52
480.70	12341.64
480.88	12402.50
481.06	12762.94
481.24	12496.12
481.41	12996.99
481.59	13071.89
481.77	12996.99
481.95	13221.69
482.13	13212.32
482.31	13317.65
482.49	13605.53
482.67	13596.17
482.85	13453.40
483.03	13619.58
483.21	13930.87
483.39	14080.66
483.57	13989.38
483.74	14235.14
483.92	14310.04
484.10	14150.88
484.28	14455.15
484.46	14834.32
484.64	15129.22
484.82	15110.50
485.00	14630.69
485.18	15133.90
485.35	15337.53
485.53	14918.57
485.71	15014.54
485.89	15307.10
486.07	15007.52
486.25	15241.57
486.43	15676.91
486.61	15592.65
486.78	15868.83
486.96	16346.30
487.14	16210.55
487.32	16191.83
487.50	16381.41
487.68	16524.18
487.85	17006.33
488.03	17027.40
488.21	17097.61
488.39	17090.59
488.57	17039.10
488.75	17207.62
488.92	17680.41
489.10	17785.73
489.28	17872.33
489.46	18038.51
489.64	18057.23
489.81	18382.57
489.99	18588.53
490.17	18403.63
490.35	18743.01
490.53	18707.90
490.70	18834.29
490.88	19276.65
491.06	19513.05
491.24	19321.12
491.41	19033.24
491.59	19257.93
491.77	19044.94
491.95	19623.05
492.13	19779.87
492.30	19964.77
492.48	19981.15
492.66	20081.80
492.84	20353.30
493.01	20343.94
493.19	20222.23
493.37	20589.69
493.54	20404.79
493.72	20790.98
493.90	21060.14
494.08	21331.64
494.25	21432.29
494.43	21486.12
494.61	21231.00
494.79	21652.30
494.96	21558.67
495.14	21549.31
495.32	21795.07
495.49	21919.12
495.67	21666.34
495.85	22253.81
496.02	22565.10
496.20	22321.69
496.38	22438.72
496.55	22721.92
496.73	23080.02
496.91	22724.26
497.09	23140.88
497.26	23461.53
497.44	23417.06
497.62	23477.91
497.79	23601.96
497.97	23381.95
498.14	23515.36
498.32	23885.17
498.50	23922.62
498.67	23889.85
498.85	23997.51
499.03	24173.05
499.20	23960.06
499.38	24184.76
499.56	24744.14
499.73	24271.36
499.91	24807.34
500.08	25039.05
500.26	24573.28
500.44	24694.99
500.61	24950.11
500.79	24561.58
500.97	25146.72
501.14	25448.64
501.32	25649.93
501.49	25387.79
501.67	25319.92
501.84	25598.44
502.02	25612.48
502.20	25537.59
502.37	25879.30
502.55	25860.58
502.72	26298.26
502.90	25979.95
503.07	25788.02
503.25	25972.92
503.43	26094.63
503.60	26281.88
503.78	26324.01
503.95	26277.19
504.13	26583.80
504.30	26471.46
504.48	26492.52
504.65	27089.36
504.83	27035.53
505.01	27566.83
505.18	26953.61
505.36	27220.43
505.53	27171.28
505.71	27283.62
505.88	27744.71
506.06	27400.65
506.23	27484.91
506.41	27573.85
506.58	27978.76
506.76	27742.37
506.93	28072.39
507.11	27899.19
507.28	28023.23
507.46	28173.03
507.63	28311.12
507.81	28348.57
507.98	28418.78
508.16	28528.79
508.33	28540.49
508.50	28814.34
508.68	28914.98
508.85	29261.38
509.03	28985.19
509.20	28903.28
509.38	29273.08
509.55	29317.55
509.73	29530.54
509.90	29153.71
510.08	29029.66
510.25	29479.05
510.42	29415.85
510.60	29523.52
510.77	29717.78
510.95	29659.27
511.12	29685.01
511.30	29947.15
511.47	30050.14
511.64	30176.53
511.82	30419.94
511.99	29869.92
512.17	30321.64
512.34	30192.91
512.51	30436.33
512.69	30792.09
512.86	30747.62
513.04	30838.90
513.21	31274.24
513.38	31030.82
513.56	30801.45
513.73	30803.79
513.90	30934.86
514.08	31056.57
514.25	30991.03
514.43	31143.17
514.60	31098.70
514.77	31040.18
514.95	31512.97
515.12	31512.97
515.29	31082.31
515.47	31840.65
515.64	32339.18
515.81	31262.54
515.99	31917.89
516.16	31826.60
516.33	31716.60
516.51	32020.87
516.68	31952.99
516.85	31309.35
517.03	31910.86
517.20	32128.53
517.37	32266.63
517.54	32547.49
517.72	32528.77
517.89	32245.56
518.06	32484.30
518.24	32404.72
518.41	32959.42
518.58	32638.77
518.75	32854.10
518.93	32898.57
519.10	33001.55
519.27	32863.46
519.45	32987.51
519.62	33336.25
519.79	32992.19
519.96	33167.73
520.14	33795.00
520.31	33331.57
520.48	33303.48
520.65	33394.76
520.83	34050.11
521.00	33703.71
521.17	33539.88
521.34	33621.80
521.52	33865.21
521.69	33902.66
521.86	34188.21
522.03	34204.59
522.20	33956.49
522.38	34525.24
522.55	34635.25
522.72	34323.96
522.89	34033.73
523.07	34450.35
523.24	34508.86
523.41	34768.66
523.58	34623.54
523.75	35590.19
523.92	35129.10
524.10	35166.55
524.27	34780.36
524.44	35040.16
524.61	35119.74
524.78	35398.26
524.96	35442.73
525.13	35225.06
525.30	35772.75
525.47	35660.40
525.64	35658.06
525.81	35632.32
525.98	35901.48
526.16	35208.68
526.33	35346.77
526.50	36032.55
526.67	35969.35
526.84	35658.06
527.01	35601.89
527.18	35690.83
527.36	36004.46
527.53	36072.34
527.70	36456.18
527.87	36362.56
528.04	36378.95
528.21	36458.52
528.38	36329.80
528.55	36659.81
528.72	36659.81
528.89	36861.10
529.07	36907.91
529.24	36257.24
529.41	36580.23
529.58	36769.82
529.75	36463.21
529.92	36978.12
530.09	36828.33
530.26	37036.64
530.43	36774.50
530.60	37298.78
530.77	36989.83
530.94	37350.27
531.11	36996.85
531.28	37296.44
531.46	37467.30
531.63	37729.44
531.80	37460.27
531.97	37572.62
532.14	37581.98
532.31	37603.05
532.48	37464.96
532.65	37993.92
532.82	37848.80
532.99	37818.38
533.16	37759.86
533.33	37720.07
533.50	37923.70
533.67	37610.07
533.84	37794.97
534.01	38124.99
534.18	38515.86
534.35	38553.30
534.52	38204.56
534.69	38438.62
534.86	38122.65
535.03	38211.59
535.20	38579.05
535.37	38880.98
535.54	38955.88
535.71	38464.36
535.88	38597.77
536.05	38473.73
536.22	39089.29
536.38	38616.50
536.55	38588.41
536.72	38916.09
536.89	38513.52
537.06	38660.97
537.23	39187.59
537.40	38752.25
537.57	38553.30
537.74	39000.35
537.91	39159.50
538.08	39131.42
538.25	39028.43
538.42	39498.88
538.59	39438.03
538.75	39068.22
538.92	39379.51
539.09	39746.98
539.26	39611.23
539.43	39955.29
539.60	39786.77
539.77	39295.25
539.94	39800.81
540.11	39653.36
540.28	39981.03
540.44	39686.12
540.61	39636.97
540.78	39510.58
540.95	39473.13
541.12	39690.80
541.29	40212.74
541.46	39463.77
541.62	39849.96
541.79	39906.13
541.96	39730.59
542.13	39693.15
542.30	39974.01
542.47	40018.48
542.63	40032.52
542.80	39983.37
542.97	40776.81
543.14	40978.10
543.31	40488.93
543.48	40666.81
543.64	41048.32
543.81	40966.40
543.98	40793.20
544.15	40879.80
544.32	41200.45
544.48	41361.95
544.65	41001.50
544.82	40994.48
544.99	40531.06
545.16	41078.74
545.32	40900.86
545.49	40961.72
545.66	41429.82
545.83	41244.92
546.00	41958.78
546.16	41186.41
546.33	41347.90
546.50	41069.38
546.67	41195.77
546.83	40828.30
547.00	41518.76
547.17	41148.96
547.34	41310.46
547.50	41727.07
547.67	41708.35
547.84	41460.25
548.00	42040.70
548.17	41808.99
548.34	41698.98
548.51	41834.74
548.67	41921.34
548.84	41963.46
549.01	42012.62
549.18	42057.09
549.34	42068.79
549.51	42064.11
549.68	42373.06
549.84	42101.56
550.01	42501.79
550.18	42003.25
550.34	42103.90
550.51	42359.02
550.68	42150.71
550.84	42007.94
551.01	42443.27
551.18	42504.13
551.34	41909.63
551.51	42408.17
551.68	42164.75
551.84	42253.69
552.01	42710.10
552.18	42328.59
552.34	42241.99
552.51	42543.92
552.68	42256.03
552.84	42649.24
553.01	42993.30
553.18	42522.85
553.34	42604.77
553.51	42230.29
553.67	42555.62
553.84	43185.22
554.01	42703.07
554.17	42923.08
554.34	43070.54
554.51	43115.01
554.67	43119.69
554.84	43126.71
555.00	42679.67
555.17	42525.19
555.33	43203.95
555.50	42866.91
555.67	42848.19
555.83	42644.56
556.00	43274.16
556.16	43833.55
556.33	43426.30
556.50	43147.78
556.66	43220.33
556.83	43222.67
556.99	43618.22
557.16	43569.07
557.32	43288.21
557.49	43164.16
557.65	43243.74
557.82	43386.51
557.98	43564.39
558.15	43594.82
558.32	43367.79
558.48	43402.89
558.65	43512.90
558.81	43171.18
558.98	43529.28
559.14	43742.27
559.31	43606.52
559.47	43700.14
559.64	44065.27
559.80	43871.00
559.97	44055.90
560.13	43320.98
560.30	43569.07
560.46	43419.28
560.63	43634.61
560.79	43896.75
560.96	43828.87
561.12	43716.53
561.29	43672.06
561.45	43672.06
561.61	43988.03
561.78	43751.63
561.94	43889.73
562.11	43711.84
562.27	43721.21
562.44	43981.01
562.60	44074.63
562.77	44306.34
562.93	43934.20
563.10	44240.81
563.26	43833.55
563.42	44074.63
563.59	43812.49
563.75	44062.93
563.92	44395.28
564.08	44126.12
564.24	44509.97
564.41	44245.49
564.57	44137.82
564.74	43955.26
564.90	44566.14
565.07	44294.64
565.23	44102.71
565.39	44013.77
565.56	44444.43
565.72	44313.36
565.88	43934.20
566.05	44343.79
566.21	44449.11
566.38	44467.84
566.54	44376.56
566.70	44446.77
566.87	44570.82
567.03	44477.20
567.19	44556.78
567.36	44140.16
567.52	43997.39
567.68	44580.18
567.85	43882.70
568.01	44491.24
568.17	44346.13
568.34	44500.61
568.50	44573.16
568.66	44037.18
568.83	44470.18
568.99	44011.43
569.15	44392.94
569.32	44222.08
569.48	44348.47
569.64	44622.31
569.81	44725.30
569.97	44704.23
570.13	44521.67
570.30	44100.37
570.46	44280.60
570.62	44301.66
570.78	44198.68
570.95	44013.77
571.11	44584.86
571.27	44507.63
571.43	44875.09
571.60	44692.53
571.76	44559.12
571.92	44060.58
572.09	44488.90
572.25	44528.69
572.41	44329.75
572.57	44692.53
572.74	45244.90
572.90	44856.37
573.06	44257.19
573.22	44432.73
573.38	44648.06
573.55	44549.76
573.71	45022.54
573.87	44240.81
574.03	44240.81
574.20	44568.48
574.36	44282.94
574.52	44556.78
574.68	44678.49
574.84	44676.15
575.01	44617.63
575.17	44512.31
575.33	44406.98
575.49	44346.13
575.65	45099.78
575.82	45251.92
575.98	44610.61
576.14	45233.19
576.30	44657.42
576.46	44549.76
576.62	44907.86
576.79	44638.70
576.95	44224.42
577.11	44699.55
577.27	45298.73
577.43	45326.81
577.59	44521.67
577.75	44758.06
577.92	44404.64
578.08	44210.38
578.24	44687.85
578.40	44657.42
578.56	44669.12
578.72	44566.14
578.88	44729.98
579.04	44669.12
579.21	44509.97
579.37	44739.34
579.53	44591.89
579.69	44989.78
579.85	44643.38
580.01	44788.49
580.17	44980.42
580.33	44938.29
580.49	44854.03
580.65	44701.89
580.82	45282.34
580.98	45228.51
581.14	44608.27
581.30	44999.14
581.46	44568.48
581.62	45235.53
581.78	44982.76
581.94	44678.49
582.10	44924.24
582.26	45099.78
582.42	44889.13
582.58	44430.39
582.74	44519.33
582.90	44949.99
583.06	45123.19
583.22	44865.73
583.38	45436.82
583.54	44987.44
583.70	44816.58
583.86	44893.82
584.02	44765.09
584.18	44818.92
584.34	45043.61
584.50	45031.91
584.66	44722.96
584.82	44636.36
584.98	44978.07
585.14	44989.78
585.30	44657.42
585.46	44786.15
585.62	44772.11
585.78	44744.02
585.94	44411.67
586.10	44783.81
586.26	44722.96
586.42	45127.87
586.58	45069.36
586.74	44844.66
586.90	44701.89
587.06	44694.87
587.22	44783.81
587.38	44708.91
587.54	45177.02
587.70	45029.57
587.86	44645.72
588.02	44832.96
588.18	45258.94
588.34	45310.43
588.49	44891.48
588.65	44858.71
588.81	44715.93
588.97	44144.84
589.13	44715.93
589.29	45216.81
589.45	44839.98
589.61	45319.79
589.77	45404.05
589.93	45134.89
590.08	45167.66
590.24	45270.64
