SpectraSuite Data File
++++++++++++++++++++++++++++++++++++
Date: Fri Oct 25 10:48:02 EDT 2013
User: price-jones
Dark Spectrum Present: No
Reference Spectrum Present: No
Number of Sampled Component Spectra: 1
Spectrometers: USB2+H05261
Integration Time (usec): 100000 (USB2+H05261)
Spectra Averaged: 1 (USB2+H05261)
Boxcar Smoothing: 0 (USB2+H05261)
Correct for Electrical Dark: No (USB2+H05261)
Strobe/Lamp Enabled: No (USB2+H05261)
Correct for Detector Non-linearity: No (USB2+H05261)
Correct for Stray Light: No (USB2+H05261)
Number of Pixels in Processed Spectrum: 2048
>>>>>Begin Processed Spectral Data<<<<<
365.73	149.79
365.92	149.79
366.12	149.79
366.32	107.66
366.52	39.79
366.72	60.85
366.91	39.79
367.11	102.98
367.31	100.64
367.51	60.85
367.70	56.17
367.90	63.19
368.10	100.64
368.30	88.94
368.49	119.37
368.69	81.92
368.89	37.45
369.09	105.32
369.28	28.09
369.48	60.85
369.68	124.05
369.87	95.96
370.07	138.09
370.27	128.73
370.47	154.48
370.66	297.25
370.86	475.13
371.06	433.00
371.25	397.89
371.45	400.23
371.65	454.06
371.84	465.77
372.04	463.43
372.24	510.24
372.44	475.13
372.63	461.09
372.83	477.47
373.03	519.60
373.22	566.41
373.42	540.66
373.62	535.98
373.81	547.69
374.01	482.15
374.21	543.00
374.40	601.52
374.60	603.86
374.79	533.64
374.99	596.84
375.19	599.18
375.38	592.16
375.58	559.39
375.78	641.31
375.97	599.18
376.17	561.73
376.37	517.26
376.56	538.32
376.76	585.13
376.95	547.69
377.15	624.92
377.35	645.99
377.54	585.13
377.74	596.84
377.93	606.20
378.13	596.84
378.33	596.84
378.52	636.63
378.72	620.24
378.91	580.45
379.11	582.79
379.31	594.50
379.50	634.29
379.70	624.92
379.89	575.77
380.09	596.84
380.28	643.65
380.48	643.65
380.68	645.99
380.87	669.39
381.07	641.31
381.26	709.18
381.46	594.50
381.65	727.91
381.85	718.54
382.04	709.18
382.24	699.82
382.43	697.48
382.63	624.92
382.83	727.91
383.02	662.37
383.22	688.12
383.41	725.57
383.61	720.88
383.80	713.86
384.00	669.39
384.19	713.86
384.39	760.67
384.58	648.33
384.78	763.01
384.97	741.95
385.17	795.78
385.36	739.61
385.56	788.76
385.75	723.23
385.95	716.20
386.14	709.18
386.34	763.01
386.53	828.55
386.72	765.36
386.92	823.87
387.11	788.76
387.31	779.40
387.50	814.51
387.70	833.23
387.89	847.27
388.09	830.89
388.28	800.46
388.48	805.14
388.67	931.53
388.86	945.58
389.06	840.25
389.25	868.34
389.45	786.42
389.64	926.85
389.84	889.40
390.03	844.93
390.22	952.60
390.42	835.57
390.61	851.96
390.81	880.04
391.00	926.85
391.19	1022.81
391.39	952.60
391.58	964.30
391.78	959.62
391.97	933.87
392.16	976.00
392.36	990.05
392.55	844.93
392.75	985.37
392.94	891.74
393.13	1004.09
393.33	990.05
393.52	994.73
393.71	1018.13
393.91	1018.13
394.10	976.00
394.29	1029.84
394.49	1062.60
394.68	1102.39
394.88	1139.84
395.07	1086.01
395.26	1088.35
395.46	1076.65
395.65	1095.37
395.84	1160.91
396.04	1090.69
396.23	1116.44
396.42	1074.31
396.62	1172.61
396.81	1046.22
397.00	1071.97
397.19	1130.48
397.39	1071.97
397.58	1200.69
397.77	1160.91
397.97	1221.76
398.16	1238.14
398.35	1350.49
398.55	1268.57
398.74	1313.04
398.93	1310.70
399.12	1390.28
399.32	1324.74
399.51	1338.79
399.70	1259.21
399.90	1336.45
400.09	1364.53
400.28	1441.77
400.47	1380.92
400.67	1406.66
400.86	1462.83
401.05	1476.88
401.24	1521.35
401.44	1411.34
401.63	1476.88
401.82	1455.81
402.01	1455.81
402.21	1523.69
402.40	1458.15
402.59	1530.71
402.78	1577.52
402.97	1582.20
403.17	1540.07
403.36	1556.46
403.55	1650.08
403.74	1551.78
403.93	1659.44
404.13	1654.76
404.32	1652.42
404.51	1551.78
404.70	1701.57
404.89	1743.70
405.09	1727.32
405.28	1722.63
405.47	1673.48
405.66	1607.95
405.85	1650.08
406.05	1732.00
406.24	1692.21
406.43	1722.63
406.62	1764.76
406.81	1853.70
407.00	1809.23
407.20	1771.79
407.39	1706.25
407.58	1799.87
407.77	1877.11
407.96	1916.90
408.15	1802.21
408.34	2033.93
408.54	1909.88
408.73	1867.75
408.92	1926.26
409.11	2083.08
409.30	2015.20
409.49	2022.22
409.68	1987.11
409.87	1996.48
410.07	2125.21
410.26	2155.63
410.45	2024.56
410.64	2146.27
410.83	2195.42
411.02	2153.29
411.21	2223.51
411.40	2181.38
411.59	2277.34
411.78	2134.57
411.98	2235.21
412.17	2359.26
412.36	2324.15
412.55	2284.36
412.74	2352.24
412.93	2303.09
413.12	2427.14
413.31	2420.11
413.50	2373.30
413.69	2413.09
413.88	2487.99
414.07	2553.52
414.26	2497.35
414.45	2457.56
414.64	2614.38
414.83	2649.49
415.02	2647.15
415.22	2640.12
415.41	2712.68
415.60	2822.69
415.79	2745.45
415.98	2885.88
416.17	2752.47
416.36	2738.43
416.55	2698.64
416.74	2839.07
416.93	2890.56
417.12	2930.35
417.31	2942.05
417.50	2970.14
417.69	2925.67
417.88	3040.36
418.07	3075.46
418.26	3082.49
418.45	3080.14
418.64	3091.85
418.83	3236.96
419.02	3122.27
419.21	3061.42
419.39	3108.23
419.58	3215.90
419.77	3124.62
419.96	3290.79
420.15	3290.79
420.34	3159.72
420.53	3300.16
420.72	3522.51
420.91	3330.58
421.10	3335.26
421.29	3260.37
421.48	3349.31
421.67	3456.97
421.86	3454.63
422.05	3375.05
422.24	3314.20
422.43	3456.97
422.61	3321.22
422.80	3468.67
422.99	3531.87
423.18	3475.70
423.37	3506.12
423.56	3447.61
423.75	3461.65
423.94	3496.76
424.13	3236.96
424.32	3356.33
424.50	3524.85
424.69	3618.47
424.88	3578.68
425.07	3368.03
425.26	3349.31
425.45	3361.01
425.64	3389.10
425.83	3377.39
426.01	3527.19
426.20	3545.91
426.39	3496.76
426.58	3473.36
426.77	3730.81
426.96	3501.44
427.15	3566.98
427.33	3669.96
427.52	3571.66
427.71	3623.15
427.90	3602.08
428.09	3700.39
428.28	3758.90
428.46	3702.73
428.65	3824.44
428.84	3794.01
429.03	3866.56
429.22	3721.45
429.40	3613.79
429.59	3843.16
429.78	3552.93
429.97	3616.13
430.16	3761.24
430.34	3723.79
430.53	3873.59
430.72	3782.31
430.91	3882.95
431.10	3875.93
431.28	3981.25
431.47	4088.92
431.66	4131.05
431.85	3990.61
432.03	4182.54
432.22	4329.99
432.41	4217.65
432.60	4227.01
432.79	4112.32
432.97	4187.22
433.16	3957.85
433.35	4152.11
433.54	4140.41
433.72	4152.11
433.91	4145.09
434.10	4093.60
434.28	4322.97
434.47	4348.72
434.66	4262.12
434.85	4360.42
435.03	4507.87
435.22	4337.01
435.41	4435.32
435.59	4468.08
435.78	4491.49
435.97	4414.25
436.16	4489.15
436.34	4582.77
436.53	4561.70
436.72	4622.56
436.90	4411.91
437.09	4540.64
437.28	4425.95
437.46	4678.73
437.65	4589.79
437.84	4599.15
438.02	4561.70
438.21	4568.73
438.40	4603.83
438.58	4873.00
438.77	4912.78
438.96	4727.88
439.14	4929.17
439.33	4992.36
439.52	4805.12
439.70	4961.94
439.89	4947.89
440.08	5018.11
440.26	5043.85
440.45	4997.04
440.63	5210.03
440.82	5355.15
441.01	5130.45
441.19	5151.52
441.38	5362.17
441.57	5341.10
441.75	5308.34
441.94	5537.71
442.12	5540.05
442.31	5603.24
442.50	5579.84
442.68	5474.51
442.87	5455.79
443.05	5570.48
443.24	5689.84
443.43	5699.20
443.61	5584.52
443.80	5771.76
443.98	5591.54
444.17	5434.72
444.35	5870.06
444.54	5844.32
444.73	5717.93
444.91	5781.12
445.10	5715.59
445.28	5671.12
445.47	5664.10
445.65	5605.58
445.84	5919.21
446.02	5853.68
446.21	5825.59
446.39	5753.04
446.58	6019.86
446.77	5727.29
446.95	5724.95
447.14	5947.30
447.32	5966.03
447.51	5717.93
447.69	5790.49
447.88	5767.08
448.06	5860.70
448.25	5942.62
448.43	5853.68
448.62	5909.85
448.80	5928.58
448.99	6111.14
449.17	6080.71
449.36	5898.15
449.54	6090.07
449.73	6160.29
449.91	6132.20
450.10	6188.38
450.28	6263.27
450.46	6197.74
450.65	6279.66
450.83	6324.13
451.02	6438.81
451.20	6455.20
451.39	6443.49
451.57	6506.69
451.76	6314.77
451.94	6258.59
452.13	6574.56
452.31	6406.05
452.49	6314.77
452.68	6291.36
452.86	6239.87
453.05	6408.39
453.23	6590.95
453.42	6366.26
453.60	6455.20
453.78	6572.22
453.97	6487.96
454.15	6579.25
454.34	6485.62
454.52	6546.48
454.70	6530.09
454.89	6691.59
455.07	6691.59
455.26	6813.30
455.44	6780.53
455.62	6773.51
455.81	6729.04
455.99	6843.73
456.17	6965.43
456.36	6715.00
456.54	7012.24
456.73	7019.27
456.91	7138.63
457.09	7122.25
457.28	7309.49
457.46	7014.59
457.64	7126.93
457.83	7220.55
458.01	6963.09
458.19	7524.82
458.38	7185.44
458.56	7412.48
458.74	7260.34
458.93	7262.68
459.11	7269.70
459.29	7442.90
459.48	7321.20
459.66	7368.01
459.84	7513.12
460.03	7620.78
460.21	7520.14
460.39	7445.24
460.57	7588.02
460.76	7634.83
460.94	7756.54
461.12	7630.15
461.31	7637.17
461.49	7555.25
461.67	7686.32
461.85	7866.54
462.04	7733.13
462.22	8234.00
462.40	7824.41
462.59	7824.41
462.77	7779.94
462.95	7786.96
463.13	7826.75
463.32	7964.84
463.50	8044.42
463.68	8109.96
463.86	7955.48
464.05	7840.79
464.23	7843.14
464.41	7995.27
464.59	7999.95
464.78	8245.71
464.96	7950.80
465.14	8114.64
465.32	8269.11
465.50	8112.30
465.69	8390.82
465.87	7997.61
466.05	8194.22
466.23	8189.53
466.41	8044.42
466.60	8524.23
466.78	8187.19
466.96	8336.99
467.14	8159.11
467.32	8418.91
467.51	8367.42
467.69	8245.71
467.87	8519.55
468.05	8542.96
468.23	8458.70
468.41	8446.99
468.60	8308.90
468.78	8414.23
468.96	8519.55
469.14	8587.43
469.32	8819.14
469.50	8498.49
469.69	8683.39
469.87	8676.37
470.05	8720.84
470.23	8720.84
470.41	8690.41
470.59	8952.55
470.77	8709.13
470.95	8879.99
471.14	9085.96
471.32	9018.08
471.50	9259.16
471.68	9095.32
471.86	9207.67
472.04	9228.73
472.22	9341.08
472.40	9184.26
472.58	9125.75
472.77	9341.08
472.95	9495.55
473.13	9659.39
473.31	9556.41
473.49	9530.66
473.67	9373.85
473.85	9535.34
474.03	9685.14
474.21	9853.66
474.39	9998.77
474.57	9830.25
474.75	9909.83
474.93	10160.27
475.12	9848.97
475.30	9944.94
475.48	9937.91
475.66	9996.43
475.84	10193.03
476.02	10335.81
476.20	10174.31
476.38	10476.24
476.56	10511.35
476.74	10532.41
476.92	10422.41
477.10	10663.48
477.28	10637.73
477.46	10693.91
477.64	10771.15
477.82	11059.03
478.00	11382.03
478.18	11009.88
478.36	11138.61
478.54	11515.44
478.72	11358.62
478.90	11393.73
479.08	11674.59
479.26	11918.01
479.44	12032.69
479.62	11779.92
479.80	11896.94
479.98	12114.61
480.16	12353.35
480.34	12004.61
480.52	12374.41
480.70	12329.94
480.88	12290.15
481.06	12475.06
481.24	12407.18
481.41	12655.28
481.59	12674.00
481.77	12975.93
481.95	12938.48
482.13	12800.39
482.31	13039.12
482.49	13411.27
482.67	13437.02
482.85	13659.37
483.03	13600.85
483.21	13699.16
483.39	13898.10
483.57	13958.96
483.74	14190.67
483.92	14211.73
484.10	13987.04
484.28	14349.82
484.46	14471.53
484.64	14988.79
484.82	14621.33
485.00	14654.09
485.18	15007.52
485.35	15138.58
485.53	14789.85
485.71	14703.25
485.89	15213.48
486.07	15199.44
486.25	15094.11
486.43	15304.76
486.61	15475.62
486.78	15946.07
486.96	15704.99
487.14	15955.43
487.32	15946.07
487.50	16325.24
487.68	16643.55
487.85	16559.29
488.03	16868.24
488.21	16924.41
488.39	16559.29
488.57	17144.42
488.75	16985.27
488.92	17259.11
489.10	17392.52
489.28	17579.76
489.46	17792.75
489.64	17612.53
489.81	18045.53
489.99	18101.70
490.17	18190.64
490.35	18485.55
490.53	18272.56
490.70	18537.04
490.88	18389.59
491.06	18860.04
491.24	18979.40
491.41	18981.74
491.59	19058.98
491.77	18906.85
491.95	19222.82
492.13	19747.10
492.30	19487.30
492.48	19676.88
492.66	19534.11
492.84	19503.68
493.01	19789.23
493.19	19868.81
493.37	19990.52
493.54	20428.20
493.72	20484.37
493.90	20638.84
494.08	20608.42
494.25	20987.58
494.43	21008.65
494.61	21158.44
494.79	21048.44
494.96	21308.24
495.14	21186.53
495.32	21539.95
495.49	21713.15
495.67	21825.50
495.85	21869.97
496.02	21750.60
496.20	21825.50
496.38	22354.46
496.55	22106.36
496.73	22953.63
496.91	22293.60
497.09	22663.41
497.26	22707.88
497.44	22604.89
497.62	22867.03
497.79	23035.55
497.97	22806.18
498.14	23335.14
498.32	23700.26
498.50	23433.44
498.67	23630.05
498.85	23747.08
499.03	23939.00
499.20	23894.53
499.38	23861.76
499.56	24231.57
499.73	23798.57
499.91	24308.80
500.08	24437.53
500.26	24219.86
500.44	24254.97
500.61	24116.88
500.79	24463.28
500.97	24559.24
501.14	24863.51
501.32	24514.77
501.49	25195.87
501.67	24992.24
501.84	25394.81
502.02	25310.55
502.20	25296.51
502.37	25628.87
502.55	25458.01
502.72	25640.57
502.90	25460.35
503.07	25610.14
503.25	25497.80
503.43	25724.83
503.60	25783.34
503.78	25982.29
503.95	25944.84
504.13	25928.45
504.30	26394.22
504.48	26176.55
504.65	26593.17
504.83	26511.25
505.01	26803.82
505.18	26822.54
505.36	26848.29
505.53	26965.31
505.71	27110.43
505.88	27143.19
506.06	26766.37
506.23	27236.81
506.41	27215.75
506.58	27377.25
506.76	27531.72
506.93	27501.29
507.11	27585.55
507.28	27541.08
507.46	27363.20
507.63	27735.35
507.81	27967.06
507.98	27894.50
508.16	28074.73
508.33	27868.76
508.50	28369.63
508.68	28383.68
508.85	28678.58
509.03	28386.02
509.20	28608.37
509.38	28833.06
509.55	28507.72
509.73	28589.64
509.90	28945.41
510.08	28659.86
510.25	29067.11
510.42	29310.53
510.60	29277.76
510.77	29142.01
510.95	29509.47
511.12	28994.56
511.30	29352.66
511.47	29776.30
511.64	29640.54
511.82	29507.13
511.99	29799.70
512.17	30059.50
512.34	29830.13
512.51	29972.90
512.69	30518.25
512.86	29748.21
513.04	30419.94
513.21	30127.38
513.38	30321.64
513.56	30363.77
513.73	30532.29
513.90	31131.47
514.08	30160.14
514.25	30937.20
514.43	31108.06
514.60	31068.27
514.77	31197.00
514.95	30848.26
515.12	31138.49
515.29	31346.79
515.47	31555.10
515.64	31512.97
515.81	31421.69
515.99	31442.76
516.16	31407.65
516.33	31440.42
516.51	31562.12
516.68	31110.40
516.85	31386.58
517.03	31807.88
517.20	31990.44
517.37	31604.25
517.54	31896.82
517.72	31807.88
517.89	32163.64
518.06	31796.18
518.24	32093.43
518.41	31798.52
518.58	32423.44
518.75	32037.25
518.93	32156.62
519.10	32322.80
519.27	32425.78
519.45	32760.48
519.62	32842.40
519.79	33127.94
519.96	32758.14
520.14	33198.16
520.31	32905.59
520.48	33404.13
520.65	33151.35
520.83	32961.76
521.00	33479.02
521.17	33612.43
521.34	33160.71
521.52	33642.86
521.69	33701.37
521.86	33734.14
522.03	33909.68
522.20	33811.38
522.38	33811.38
522.55	34197.57
522.72	34281.83
522.89	33991.60
523.07	34057.14
523.24	33757.55
523.41	34436.30
523.58	34164.80
523.75	34506.52
523.92	34462.05
524.10	34789.72
524.27	34572.05
524.44	34525.24
524.61	34955.90
524.78	34881.00
524.96	34892.71
525.13	35283.58
525.30	35414.65
525.47	35133.78
525.64	35232.08
525.81	35201.66
525.98	35023.78
526.16	35365.49
526.33	34855.26
526.50	35342.09
526.67	35421.67
526.84	35360.81
527.01	35641.68
527.18	35674.45
527.36	35992.76
527.53	35672.10
527.70	36105.10
527.87	36215.11
528.04	35833.60
528.21	36065.31
528.38	35683.81
528.55	36165.96
528.72	36144.89
528.89	36327.45
529.07	35793.81
529.24	36465.55
529.41	36463.21
529.58	36486.61
529.75	36463.21
529.92	36547.47
530.09	36425.76
530.26	36748.75
530.43	36666.83
530.60	36278.30
530.77	36837.69
530.94	36945.36
531.11	36517.04
531.28	36793.22
531.46	37116.22
531.63	37661.56
531.80	36655.13
531.97	36837.69
532.14	37041.32
532.31	36996.85
532.48	36844.71
532.65	37001.53
532.82	36849.39
532.99	38017.32
533.16	37209.84
533.33	37390.06
533.50	37776.25
533.67	37589.00
533.84	37614.75
534.01	37633.47
534.18	37570.28
534.35	37895.61
534.52	37551.56
534.69	37780.93
534.86	37752.84
535.03	37977.53
535.20	37867.53
535.37	38244.35
535.54	38047.75
535.71	38347.34
535.88	38057.11
536.05	38148.39
536.22	38066.47
536.38	37928.38
536.55	38368.40
536.72	38260.74
536.89	37783.27
537.06	38197.54
537.23	38511.17
537.40	38527.56
537.57	38745.23
537.74	38497.13
537.91	38990.98
538.08	38803.74
538.25	38330.95
538.42	38370.74
538.59	39033.11
538.75	38792.04
538.92	38752.25
539.09	38649.27
539.26	38745.23
539.43	39452.07
539.60	39152.48
539.77	38902.04
539.94	39225.04
540.11	38890.34
540.28	38646.93
540.44	39445.05
540.61	39028.43
540.78	38932.47
540.95	39253.12
541.12	39278.87
541.29	39541.01
541.46	39374.83
541.62	39578.46
541.79	39585.48
541.96	39459.09
542.13	39611.23
542.30	39908.47
542.47	39494.20
542.63	39929.54
542.80	40289.98
542.97	40065.29
543.14	40182.32
543.31	40264.24
543.48	40245.51
543.64	40666.81
543.81	40673.83
543.98	40652.76
544.15	40304.02
544.32	40835.33
544.48	40722.98
544.65	40542.76
544.82	40889.16
544.99	40156.57
545.16	40549.78
545.32	40545.10
545.49	40568.51
545.66	40371.90
545.83	40753.41
546.00	40921.93
546.16	40755.75
546.33	41146.62
546.50	40339.13
546.67	40933.63
546.83	40636.38
547.00	40563.82
547.17	40966.40
547.34	41109.17
547.50	41336.20
547.67	41366.63
547.84	41010.87
548.00	41343.22
548.17	41572.60
548.34	41244.92
548.51	41631.11
548.67	41619.41
548.84	41301.09
549.01	41106.83
549.18	41500.04
549.34	41652.17
549.51	41537.49
549.68	41535.15
549.84	41818.35
550.01	41907.29
550.18	41748.14
550.34	41600.68
550.51	41942.40
550.68	41549.19
550.84	41237.90
551.01	42021.98
551.18	41900.27
551.34	41729.41
551.51	41989.21
551.68	41951.76
551.84	42155.39
552.01	42050.06
552.18	42263.05
552.34	42026.66
552.51	42602.43
552.68	42239.65
552.84	42188.16
553.01	42586.05
553.18	42047.72
553.34	42293.48
553.51	42106.24
553.67	42246.67
553.84	42572.00
554.01	42351.99
554.17	42068.79
554.34	42389.44
554.51	42485.40
554.67	42684.35
554.84	42609.45
555.00	42216.24
555.17	42508.81
555.33	42593.07
555.50	42611.79
555.67	42738.18
555.83	42878.61
556.00	42567.32
556.16	43274.16
556.33	42974.58
556.50	42993.30
556.66	43337.36
556.83	42674.99
556.99	43061.18
557.16	43072.88
557.32	42852.87
557.49	43012.02
557.65	43051.81
557.82	42770.95
557.98	42960.53
558.15	42892.66
558.32	43269.48
558.48	42869.25
558.65	43306.93
558.81	42899.68
558.98	43583.12
559.14	43208.63
559.31	43217.99
559.47	42962.87
559.64	43320.98
559.80	43700.14
559.97	43615.88
560.13	43056.50
560.30	42913.72
560.46	43325.66
560.63	42794.36
560.79	43873.34
560.96	43435.66
561.12	43622.90
561.29	43447.36
561.45	43480.13
561.61	43351.40
561.78	43489.49
561.94	43606.52
562.11	43512.90
562.27	43192.25
562.44	43346.72
562.60	43800.79
562.77	43580.78
562.93	43526.94
563.10	43796.10
563.26	43686.10
563.42	44069.95
563.59	43578.43
563.75	43718.87
563.92	43791.42
564.08	43517.58
564.24	44076.97
564.41	43807.81
564.57	43854.62
564.74	43587.80
564.90	43749.29
565.07	43725.89
565.23	43599.50
565.39	43763.34
565.56	43669.72
565.72	43716.53
565.88	43611.20
566.05	43482.47
566.21	43606.52
566.38	43318.64
566.54	43821.85
566.70	44023.14
566.87	44254.85
567.03	43936.54
567.19	44334.43
567.36	43782.06
567.52	43852.28
567.68	44067.61
567.85	43826.53
568.01	44114.42
568.17	43976.33
568.34	44098.03
568.50	44329.75
568.66	43910.79
568.83	43751.63
568.99	43791.42
569.15	43810.15
569.32	43604.18
569.48	44198.68
569.64	44374.22
569.81	44406.98
569.97	43894.41
570.13	43957.60
570.30	44240.81
570.46	43847.60
570.62	43920.15
570.78	43824.19
570.95	43807.81
571.11	44376.56
571.27	44186.97
571.43	44184.63
571.60	44172.93
571.76	44126.12
571.92	44435.07
572.09	43997.39
572.25	43735.25
572.41	43901.43
572.57	44212.72
572.74	44779.13
572.90	44332.09
573.06	44299.32
573.22	44016.11
573.38	44348.47
573.55	44067.61
573.71	44514.65
573.87	44182.29
574.03	44107.40
574.20	44318.04
574.36	44299.32
574.52	44140.16
574.68	44360.17
574.84	44285.28
575.01	44446.77
575.17	44531.03
575.33	43988.03
575.49	44542.74
575.65	44727.64
575.82	44603.59
575.98	44657.42
576.14	44371.88
576.30	44154.21
576.46	44055.90
576.62	44217.40
576.79	44069.95
576.95	43739.93
577.11	44425.71
577.27	44004.41
577.43	44446.77
577.59	43885.04
577.75	44500.61
577.92	43660.35
578.08	43901.43
578.24	44271.23
578.40	43840.57
578.56	44327.41
578.72	44526.35
578.88	44383.58
579.04	44074.63
579.21	44378.90
579.37	43934.20
579.53	44301.66
579.69	44130.80
579.85	44390.60
580.01	44292.30
580.17	44516.99
580.33	44858.71
580.49	45024.89
580.65	44591.89
580.82	44947.65
580.98	44926.58
581.14	44058.24
581.30	45029.57
581.46	44809.56
581.62	44327.41
581.78	44722.96
581.94	44638.70
582.10	44336.77
582.26	44512.31
582.42	44268.89
582.58	44533.37
582.74	44006.75
582.90	44509.97
583.06	44952.33
583.22	44531.03
583.38	44753.38
583.54	44570.82
583.70	44622.31
583.86	44271.23
584.02	44198.68
584.18	44428.05
584.34	44179.95
584.50	44645.72
584.66	44460.82
584.82	44502.95
584.98	44811.90
585.14	44479.54
585.30	44404.64
585.46	44456.14
585.62	44619.97
585.78	44739.34
585.94	44453.79
586.10	44446.77
586.26	44378.90
586.42	44631.68
586.58	44388.26
586.74	44669.12
586.90	44498.26
587.06	44259.53
587.22	44722.96
587.38	44624.65
587.54	44959.35
587.70	44926.58
587.86	44465.50
588.02	44432.73
588.18	45116.17
588.34	44566.14
588.49	44626.99
588.65	44439.75
588.81	44399.96
588.97	44254.85
589.13	44598.91
589.29	44608.27
589.45	44715.93
589.61	44865.73
589.77	44847.00
589.93	44692.53
590.08	44776.79
590.24	45067.02
