SpectraSuite Data File
++++++++++++++++++++++++++++++++++++
Date: Fri Oct 25 11:34:27 EDT 2013
User: price-jones
Dark Spectrum Present: No
Reference Spectrum Present: No
Number of Sampled Component Spectra: 1
Spectrometers: USB2+H05261
Integration Time (usec): 100000 (USB2+H05261)
Spectra Averaged: 1 (USB2+H05261)
Boxcar Smoothing: 0 (USB2+H05261)
Correct for Electrical Dark: No (USB2+H05261)
Strobe/Lamp Enabled: No (USB2+H05261)
Correct for Detector Non-linearity: No (USB2+H05261)
Correct for Stray Light: No (USB2+H05261)
Number of Pixels in Processed Spectrum: 2048
>>>>>Begin Processed Spectral Data<<<<<
365.73	280.86
365.92	280.86
366.12	280.86
366.32	205.97
366.52	203.63
366.72	255.12
366.91	126.39
367.11	84.26
367.31	177.88
367.51	152.13
367.70	182.56
367.90	126.39
368.10	159.16
368.30	182.56
368.49	187.24
368.69	217.67
368.89	180.22
369.09	182.56
369.28	252.78
369.48	177.88
369.68	259.80
369.87	273.84
370.07	220.01
370.27	285.55
370.47	315.97
370.66	461.09
370.86	535.98
371.06	489.17
371.25	512.58
371.45	531.30
371.65	543.00
371.84	543.00
372.04	514.92
372.24	552.37
372.44	568.75
372.63	575.77
372.83	627.26
373.03	510.24
373.22	564.07
373.42	592.16
373.62	641.31
373.81	580.45
374.01	631.94
374.21	709.18
374.40	732.59
374.60	657.69
374.79	631.94
374.99	592.16
375.19	634.29
375.38	610.88
375.58	615.56
375.78	704.50
375.97	753.65
376.17	713.86
376.37	685.78
376.56	711.52
376.76	678.76
376.95	662.37
377.15	732.59
377.35	685.78
377.54	697.48
377.74	662.37
377.93	690.46
378.13	725.57
378.33	706.84
378.52	695.14
378.72	793.44
378.91	676.41
379.11	758.33
379.31	748.97
379.50	664.71
379.70	734.93
379.89	765.36
380.09	678.76
380.28	678.76
380.48	765.36
380.68	702.16
380.87	629.60
381.07	798.12
381.26	645.99
381.46	772.38
381.65	816.85
381.85	786.42
382.04	751.31
382.24	723.23
382.43	870.68
382.63	720.88
382.83	676.41
383.02	704.50
383.22	770.04
383.41	685.78
383.61	779.40
383.80	835.57
384.00	840.25
384.19	795.78
384.39	809.83
384.58	748.97
384.78	791.10
384.97	819.19
385.17	767.70
385.36	791.10
385.56	793.44
385.75	840.25
385.95	868.34
386.14	858.98
386.34	830.89
386.53	905.79
386.72	809.83
386.92	894.08
387.11	863.66
387.31	889.40
387.50	826.21
387.70	851.96
387.89	940.90
388.09	823.87
388.28	842.59
388.48	861.32
388.67	938.55
388.86	961.96
389.06	924.51
389.25	887.06
389.45	849.61
389.64	917.49
389.84	894.08
390.03	924.51
390.22	929.19
390.42	990.05
390.61	945.58
390.81	929.19
391.00	983.02
391.19	959.62
391.39	917.49
391.58	973.66
391.78	987.71
391.97	1107.07
392.16	973.66
392.36	1074.31
392.55	1114.10
392.75	1043.88
392.94	1039.20
393.13	1032.18
393.33	924.51
393.52	1144.52
393.71	1018.13
393.91	1018.13
394.10	1053.24
394.29	1081.33
394.49	1025.15
394.68	1067.28
394.88	1193.67
395.07	1177.29
395.26	1100.05
395.46	1111.75
395.65	1071.97
395.84	1151.54
396.04	1165.59
396.23	1039.20
396.42	1109.41
396.62	1203.04
396.81	1146.86
397.00	1146.86
397.19	1203.04
397.39	1139.84
397.58	1224.10
397.77	1174.95
397.97	1275.59
398.16	1231.12
398.35	1210.06
398.55	1270.91
398.74	1219.42
398.93	1242.82
399.12	1256.87
399.32	1240.48
399.51	1235.80
399.70	1315.38
399.90	1200.69
400.09	1369.21
400.28	1317.72
400.47	1266.23
400.67	1329.42
400.86	1399.64
401.05	1324.74
401.24	1446.45
401.44	1390.28
401.63	1406.66
401.82	1345.81
402.01	1348.15
402.21	1453.47
402.40	1465.18
402.59	1406.66
402.78	1397.30
402.97	1401.98
403.17	1600.93
403.36	1533.05
403.55	1380.92
403.74	1511.99
403.93	1572.84
404.13	1603.27
404.32	1617.31
404.51	1514.33
404.70	1600.93
404.89	1537.73
405.09	1675.82
405.28	1633.69
405.47	1640.72
405.66	1523.69
405.85	1652.42
406.05	1629.01
406.24	1717.95
406.43	1607.95
406.62	1727.32
406.81	1652.42
407.00	1703.91
407.20	1668.80
407.39	1694.55
407.58	1769.44
407.77	1881.79
407.96	1788.17
408.15	1856.04
408.34	1785.83
408.54	1849.02
408.73	1757.74
408.92	1820.94
409.11	1874.77
409.30	1952.01
409.49	1921.58
409.68	1952.01
409.87	1940.30
410.07	1956.69
410.26	2003.50
410.45	2087.76
410.64	1984.77
410.83	1982.43
411.02	2036.27
411.21	2183.72
411.40	2083.08
411.59	2064.35
411.78	2129.89
411.98	2148.61
412.17	2153.29
412.36	2143.93
412.55	2148.61
412.74	2321.81
412.93	2284.36
413.12	2218.83
413.31	2289.04
413.50	2422.45
413.69	2333.51
413.88	2375.64
414.07	2347.56
414.26	2464.58
414.45	2396.71
414.64	2502.03
414.83	2462.24
415.02	2422.45
415.22	2487.99
415.41	2647.15
415.60	2579.27
415.79	2541.82
415.98	2616.72
416.17	2616.72
416.36	2593.31
416.55	2626.08
416.74	2661.19
416.93	2609.70
417.12	2719.70
417.31	2768.85
417.50	2771.19
417.69	2913.97
417.88	2780.56
418.07	2787.58
418.26	2825.03
418.45	2867.16
418.64	2876.52
418.83	2871.84
419.02	2906.95
419.21	2981.84
419.39	2979.50
419.58	2897.58
419.77	2972.48
419.96	2965.46
420.15	2937.37
420.34	3019.29
420.53	3056.74
420.72	3061.42
420.91	3063.76
421.10	3236.96
421.29	3232.28
421.48	2995.89
421.67	3049.72
421.86	3084.83
422.05	3096.53
422.24	3220.58
422.43	3272.07
422.61	3119.93
422.80	3379.73
422.99	3133.98
423.18	3309.52
423.37	3302.50
423.56	3276.75
423.75	3396.12
423.94	3363.35
424.13	2995.89
424.32	3021.63
424.50	3272.07
424.69	3316.54
424.88	3365.69
425.07	3295.47
425.26	3330.58
425.45	3321.22
425.64	3337.60
425.83	3253.34
426.01	3311.86
426.20	3403.14
426.39	3414.84
426.58	3290.79
426.77	3126.96
426.96	3431.23
427.15	3407.82
427.33	3510.80
427.52	3346.97
427.71	3391.44
427.90	3508.46
428.09	3557.61
428.28	3440.59
428.46	3581.02
428.65	3538.89
428.84	3625.49
429.03	3674.64
429.22	3557.61
429.40	3698.05
429.59	3527.19
429.78	3510.80
429.97	3501.44
430.16	3669.96
430.34	3695.71
430.53	3721.45
430.72	3798.69
430.91	3836.14
431.10	3632.51
431.28	3648.90
431.47	3791.67
431.66	4056.15
431.85	3644.21
432.03	3721.45
432.22	3887.63
432.41	3918.06
432.60	3948.48
432.79	3955.51
432.97	3922.74
433.16	3920.40
433.35	3889.97
433.54	3906.35
433.72	4114.66
433.91	4056.15
434.10	4058.49
434.28	4049.13
434.47	4084.23
434.66	4119.34
434.85	4231.69
435.03	4175.52
435.22	4114.66
435.41	4208.28
435.59	4299.56
435.78	4248.07
435.97	4203.60
436.16	4280.84
436.34	4257.43
436.53	4332.33
436.72	4252.75
436.90	4175.52
437.09	4390.84
437.28	4311.27
437.46	4454.04
437.65	4442.34
437.84	4493.83
438.02	4278.50
438.21	4432.97
438.40	4362.76
438.58	4526.60
438.77	4667.03
438.96	4723.20
439.14	4629.58
439.33	4603.83
439.52	4720.86
439.70	4734.90
439.89	4767.67
440.08	4727.88
440.26	4807.46
440.45	4837.89
440.63	4868.31
440.82	4940.87
441.01	4896.40
441.19	4919.81
441.38	5078.96
441.57	5130.45
441.75	5034.49
441.94	5303.65
442.12	5146.84
442.31	5207.69
442.50	5132.79
442.68	5095.35
442.87	5420.68
443.05	5320.04
443.24	5411.32
443.43	5275.57
443.61	5542.39
443.80	5526.00
443.98	5252.16
444.17	4978.32
444.35	5224.08
444.54	5650.05
444.73	5308.34
444.91	5451.11
445.10	5294.29
445.28	5348.12
445.47	5305.99
445.65	5509.62
445.84	5397.28
446.02	5614.95
446.21	5453.45
446.39	5373.87
446.58	5547.07
446.77	5533.03
446.95	5488.56
447.14	5584.52
447.32	5696.86
447.51	5469.83
447.69	5605.58
447.88	5530.69
448.06	5518.98
448.25	5472.17
448.43	5544.73
448.62	5472.17
448.80	5600.90
448.99	5621.97
449.17	5682.82
449.36	5675.80
449.54	5687.50
449.73	5776.44
449.91	5774.10
450.10	5844.32
450.28	5720.27
450.46	5947.30
450.65	5870.06
450.83	5823.25
451.02	5968.37
451.20	5893.47
451.39	5886.45
451.57	5755.38
451.76	5989.43
451.94	5909.85
452.13	6031.56
452.31	6001.13
452.49	5907.51
452.68	6150.93
452.86	6022.20
453.05	6099.44
453.23	6216.46
453.42	6136.88
453.60	6073.69
453.78	6237.53
453.97	5940.28
454.15	6064.33
454.34	6277.32
454.52	6239.87
454.70	6211.78
454.89	6394.34
455.07	6300.72
455.26	6380.30
455.44	6574.56
455.62	6396.68
455.81	6342.85
455.99	6445.84
456.17	6497.33
456.36	6345.19
456.54	6417.75
456.73	6771.17
456.91	6892.88
457.09	6719.68
457.28	6825.00
457.46	6703.29
457.64	6771.17
457.83	6773.51
458.01	6689.25
458.19	6693.93
458.38	6768.83
458.56	6820.32
458.74	6820.32
458.93	6810.96
459.11	6890.54
459.29	6885.86
459.48	6925.65
459.66	6993.52
459.84	7026.29
460.03	7164.38
460.21	7190.13
460.39	6942.03
460.57	7124.59
460.76	7178.42
460.94	7206.51
461.12	7208.85
461.31	7248.64
461.49	7192.47
461.67	7204.17
461.85	7365.67
462.04	7183.10
462.22	7726.11
462.40	7386.73
462.59	7468.65
462.77	7456.95
462.95	7534.18
463.13	7604.40
463.32	7461.63
463.50	7517.80
463.68	7651.21
463.86	7683.98
464.05	7611.42
464.23	7449.93
464.41	7609.08
464.59	7503.76
464.78	7796.32
464.96	7669.94
465.14	7634.83
465.32	7782.28
465.50	7733.13
465.69	7779.94
465.87	7882.92
466.05	7721.43
466.23	7672.28
466.41	7880.58
466.60	8067.83
466.78	7925.05
466.96	7798.66
467.14	8011.65
467.32	7950.80
467.51	7927.39
467.69	7925.05
467.87	7815.05
468.05	8021.02
468.23	7988.25
468.41	8138.04
468.60	8063.15
468.78	8011.65
468.96	8042.08
469.14	8276.13
469.32	8351.03
469.50	8184.85
469.69	8367.42
469.87	8152.09
470.05	8439.97
470.23	8376.78
470.41	8306.56
470.59	8360.39
470.77	8287.84
470.95	8528.91
471.14	8650.62
471.32	8542.96
471.50	8578.06
471.68	8594.45
471.86	8734.88
472.04	8802.75
472.22	8781.69
472.40	8720.84
472.58	8968.93
472.77	8990.00
472.95	9011.06
473.13	9179.58
473.31	9025.11
473.49	9039.15
473.67	9001.70
473.85	9144.47
474.03	9221.71
474.21	9355.12
474.39	9500.23
474.57	9493.21
474.75	9362.14
474.93	9591.52
475.12	9479.17
475.30	9645.35
475.48	9535.34
475.66	9764.72
475.84	9568.11
476.02	9872.38
476.20	9944.94
476.38	10050.26
476.56	9998.77
476.74	9937.91
476.92	10104.09
477.10	10001.11
477.28	9900.47
477.46	10167.29
477.64	10490.28
477.82	10693.91
478.00	10537.09
478.18	10492.62
478.36	10565.18
478.54	10794.55
478.72	10698.59
478.90	10974.77
479.08	11080.10
479.26	11159.67
479.44	11154.99
479.62	11321.17
479.80	11651.19
479.98	11571.61
480.16	11716.72
480.34	11557.57
480.52	11838.43
480.70	11627.78
480.88	11719.06
481.06	11737.79
481.24	11800.98
481.41	12166.10
481.59	12126.32
481.77	12355.69
481.95	12322.92
482.13	12449.31
482.31	12294.83
482.49	12727.83
482.67	12620.17
482.85	12894.01
483.03	13062.53
483.21	13034.44
483.39	13486.17
483.57	13011.04
483.74	13385.52
483.92	13385.52
484.10	13263.82
484.28	13516.59
484.46	13738.94
484.64	13994.06
484.82	13816.18
485.00	13987.04
485.18	14298.33
485.35	14398.98
485.53	14288.97
485.71	14693.88
485.89	14750.06
486.07	14375.57
486.25	14665.80
486.43	15178.37
486.61	14799.21
486.78	14892.83
486.96	15169.01
487.14	15503.71
487.32	15414.77
487.50	15613.71
487.68	15637.12
487.85	15948.41
488.03	15819.68
488.21	16119.27
488.39	16088.84
488.57	16205.87
488.75	16489.07
488.92	16542.91
489.10	16725.47
489.28	16746.53
489.46	16774.62
489.64	17074.21
489.81	17462.74
489.99	17390.18
490.17	17406.56
490.35	17596.15
490.53	17614.87
490.70	18038.51
490.88	17455.72
491.06	18127.45
491.24	17841.90
491.41	18125.11
491.59	18412.99
491.77	18094.68
491.95	18562.79
492.13	18686.84
492.30	18923.23
492.48	18600.24
492.66	18726.63
492.84	18934.93
493.01	19159.63
493.19	19152.60
493.37	19433.47
493.54	19381.98
493.72	19400.70
493.90	19826.68
494.08	19936.68
494.25	19791.57
494.43	19924.98
494.61	20077.12
494.79	20065.41
494.96	20381.38
495.14	20648.21
495.32	20538.20
495.49	20744.17
495.67	20910.35
495.85	20982.90
496.02	21067.16
496.20	20889.28
496.38	20975.88
496.55	21415.90
496.73	22017.42
496.91	21706.13
497.09	21783.37
497.26	21944.86
497.44	22031.46
497.62	22082.95
497.79	22394.25
497.97	21720.17
498.14	22356.80
498.32	22766.39
498.50	22604.89
498.67	22712.56
498.85	22693.83
499.03	22934.91
499.20	23304.71
499.38	23171.30
499.56	22981.72
499.73	23337.48
499.91	23377.27
500.08	23737.71
500.26	23363.23
500.44	23718.99
500.61	23885.17
500.79	23253.22
500.97	23910.91
501.14	24091.13
501.32	23978.79
501.49	24142.63
501.67	24400.08
501.84	24212.84
502.02	24531.15
502.20	24687.97
502.37	24533.50
502.55	24690.31
502.72	24900.96
502.90	24372.00
503.07	24678.61
503.25	24980.54
503.43	24741.80
503.60	25249.70
503.78	25163.10
503.95	25085.86
504.13	25312.89
504.30	25523.54
504.48	25703.76
504.65	25518.86
504.83	25678.02
505.01	25853.56
505.18	26167.19
505.36	26256.13
505.53	25928.45
505.71	26471.46
505.88	25916.75
506.06	25947.18
506.23	26302.94
506.41	26094.63
506.58	26267.83
506.76	26534.65
506.93	26874.03
507.11	26600.19
507.28	26747.64
507.46	26728.92
507.63	26754.66
507.81	27145.53
507.98	27136.17
508.16	26951.27
508.33	27367.88
508.50	27332.78
508.68	27302.35
508.85	27550.45
509.03	27126.81
509.20	27695.56
509.38	27709.60
509.55	27864.08
509.73	27988.13
509.90	27786.84
510.08	27962.38
510.25	28210.48
510.42	28318.14
510.60	27997.49
510.77	28233.88
510.95	28891.57
511.12	28503.04
511.30	28552.20
511.47	28900.94
511.64	28723.05
511.82	28996.90
511.99	29102.22
512.17	29062.43
512.34	28931.36
512.51	29310.53
512.69	29577.35
512.86	29013.28
513.04	29486.07
513.21	29617.14
513.38	29750.55
513.56	29963.54
513.73	29366.70
513.90	29642.88
514.08	29521.18
514.25	30466.75
514.43	30134.40
514.60	30438.67
514.77	30270.15
514.95	30471.43
515.12	30230.36
515.29	30611.87
515.47	30724.21
515.64	30824.86
515.81	30672.72
515.99	30328.66
516.16	31026.14
516.33	30565.06
516.51	31328.07
516.68	30686.76
516.85	31199.34
517.03	31358.50
517.20	31285.94
517.37	31028.48
517.54	30972.31
517.72	31379.56
517.89	31384.24
518.06	31562.12
518.24	31417.01
518.41	31503.61
518.58	31772.77
518.75	31307.01
518.93	31936.61
519.10	31791.50
519.27	31796.18
519.45	31999.80
519.62	32051.30
519.79	32245.56
519.96	32346.20
520.14	32350.88
520.31	32318.12
520.48	32697.28
520.65	32275.99
520.83	32666.86
521.00	32931.34
521.17	32264.28
521.34	32762.82
521.52	32882.19
521.69	33074.11
521.86	33139.65
522.03	33184.12
522.20	33015.60
522.38	33528.17
522.55	33439.23
522.72	33369.02
522.89	33469.66
523.07	33497.75
523.24	33713.08
523.41	33563.28
523.58	33652.22
523.75	34007.98
523.92	33331.57
524.10	33586.69
524.27	33855.85
524.44	34017.35
524.61	34139.05
524.78	34220.97
524.96	34396.51
525.13	34651.63
525.30	34515.88
525.47	34644.61
525.64	34401.19
525.81	34953.56
525.98	34998.03
526.16	34623.54
526.33	34466.73
526.50	34944.20
526.67	34766.32
526.84	34747.59
527.01	34815.47
527.18	34934.84
527.36	35299.96
527.53	34906.75
527.70	35136.12
527.87	35358.47
528.04	35157.19
528.21	35782.11
528.38	35402.94
528.55	35721.26
528.72	35545.72
528.89	35571.46
529.07	35660.40
529.24	35475.50
529.41	35629.98
529.58	36252.56
529.75	35597.21
529.92	36013.82
530.09	35768.07
530.26	36098.08
530.43	35842.96
530.60	36065.31
530.77	35693.17
530.94	36715.98
531.11	35978.72
531.28	36259.58
531.46	36409.37
531.63	36163.62
531.80	36123.83
531.97	36477.25
532.14	36390.65
532.31	36566.19
532.48	36421.08
532.65	37078.77
532.82	36650.45
532.99	37006.21
533.16	36622.36
533.33	37184.09
533.50	36811.95
533.67	37038.98
533.84	36680.88
534.01	36973.44
534.18	37088.13
534.35	37439.21
534.52	37401.76
534.69	37221.54
534.86	37530.49
535.03	37429.85
535.20	37551.56
535.37	37439.21
535.54	37989.24
535.71	37511.77
535.88	37680.28
536.05	38197.54
536.22	37652.20
536.38	37841.78
536.55	37968.17
536.72	37703.69
536.89	37926.04
537.06	38157.75
537.23	38146.05
537.40	37921.36
537.57	38213.93
537.74	38139.03
537.91	38263.08
538.08	38293.50
538.25	37872.21
538.42	38630.54
538.59	38782.68
538.75	38431.60
538.92	38895.02
539.09	38574.37
539.26	38639.90
539.43	39019.07
539.60	38895.02
539.77	39173.55
539.94	38586.07
540.11	38979.28
540.28	38873.96
540.44	39110.35
540.61	39009.71
540.78	38955.88
540.95	38990.98
541.12	38677.35
541.29	38803.74
541.46	39250.78
541.62	39199.29
541.79	39253.12
541.96	38869.28
542.13	39220.36
542.30	39470.79
542.47	39442.71
542.63	39412.28
542.80	39669.74
542.97	39754.00
543.14	39573.78
543.31	39786.77
543.48	39473.13
543.64	40233.81
543.81	39697.83
543.98	40226.79
544.15	40069.97
544.32	40156.57
544.48	40479.57
544.65	39707.19
544.82	40081.67
544.99	40390.62
545.16	40479.57
545.32	40371.90
545.49	40762.77
545.66	41001.50
545.83	40495.95
546.00	40907.88
546.16	40458.50
546.33	40790.86
546.50	40182.32
546.67	40697.24
546.83	40449.14
547.00	40582.55
547.17	40947.67
547.34	40744.05
547.50	41153.64
547.67	41411.10
547.84	41031.93
548.00	41425.14
548.17	41333.86
548.34	41174.70
548.51	41153.64
548.67	41076.40
548.84	41406.42
549.01	40900.86
549.18	41298.75
549.34	41631.11
549.51	41343.22
549.68	41888.57
549.84	41448.55
550.01	41886.23
550.18	41050.66
550.34	41106.83
550.51	41762.18
550.68	41874.52
550.84	41727.07
551.01	41951.76
551.18	41979.85
551.34	41486.00
551.51	42157.73
551.68	42115.60
551.84	41832.39
552.01	41965.81
552.18	42026.66
552.34	41991.55
552.51	42202.20
552.68	42174.11
552.84	42328.59
553.01	42342.63
553.18	42323.91
553.34	42363.70
553.51	42202.20
553.67	42305.18
553.84	42611.79
554.01	42216.24
554.17	42700.73
554.34	42646.90
554.51	42614.13
554.67	42836.48
554.84	42597.75
555.00	42689.03
555.17	42506.47
555.33	42841.17
555.50	42670.31
555.67	42876.27
555.83	42639.88
556.00	43028.41
556.16	43143.09
556.33	42932.45
556.50	42983.94
556.66	42906.70
556.83	42895.00
556.99	43693.12
557.16	43372.47
557.32	42850.53
557.49	43515.24
557.65	42845.85
557.82	42925.42
557.98	42988.62
558.15	42925.42
558.32	43124.37
558.48	43178.20
558.65	43136.07
558.81	43140.75
558.98	42932.45
559.14	43201.61
559.31	43330.34
559.47	43290.55
559.64	43150.12
559.80	43133.73
559.97	43129.05
560.13	43077.56
560.30	43203.95
560.46	43550.35
560.63	43915.47
560.79	43576.09
560.96	44289.96
561.12	43531.62
561.29	43545.67
561.45	43372.47
561.61	43524.60
561.78	43676.74
561.94	43564.39
562.11	43763.34
562.27	43789.08
562.44	43662.69
562.60	43625.25
562.77	44102.71
562.93	43356.08
563.10	44009.09
563.26	43185.22
563.42	44027.82
563.59	43220.33
563.75	43676.74
563.92	43892.07
564.08	44020.80
564.24	44416.35
564.41	43943.56
564.57	44172.93
564.74	43840.57
564.90	43821.85
565.07	43688.44
565.23	44098.03
565.39	43828.87
565.56	44289.96
565.72	44048.88
565.88	44205.70
566.05	44245.49
566.21	44133.14
566.38	44037.18
566.54	44189.31
566.70	44617.63
566.87	44177.61
567.03	44196.34
567.19	44304.00
567.36	44261.87
567.52	44657.42
567.68	44701.89
567.85	44186.97
568.01	44320.38
568.17	44451.45
568.34	44479.54
568.50	44765.09
568.66	44385.92
568.83	44287.62
568.99	44189.31
569.15	44542.74
569.32	44203.36
569.48	44437.41
569.64	45017.86
569.81	44612.95
569.97	44868.07
570.13	44802.53
570.30	44430.39
570.46	44835.30
570.62	44577.84
570.78	44341.45
570.95	44832.96
571.11	44870.41
571.27	44385.92
571.43	44446.77
571.60	44626.99
571.76	44687.85
571.92	44509.97
572.09	44694.87
572.25	44425.71
572.41	44626.99
572.57	44722.96
572.74	45226.17
572.90	44617.63
573.06	44755.72
573.22	44629.34
573.38	45331.50
573.55	45006.16
573.71	45371.28
573.87	45186.38
574.03	44491.24
574.20	45172.34
574.36	45113.83
574.52	45031.91
574.68	45317.45
574.84	45247.24
575.01	45478.95
575.17	45132.55
575.33	44935.95
575.49	44589.55
575.65	45382.99
575.82	45052.97
575.98	45336.18
576.14	45191.06
576.30	45258.94
576.46	44973.39
576.62	45074.04
576.79	44905.52
576.95	44559.12
577.11	45088.08
577.27	45198.09
577.43	44994.46
577.59	45055.31
577.75	44788.49
577.92	44657.42
578.08	45050.63
578.24	45137.23
578.40	45675.55
578.56	45392.35
578.72	45382.99
578.88	45275.32
579.04	45158.30
579.21	45256.60
579.37	45343.20
579.53	44968.71
579.69	45134.89
579.85	45214.47
580.01	45074.04
580.17	44903.18
580.33	45088.08
580.49	45329.16
580.65	45083.40
580.82	45200.43
580.98	44790.83
581.14	44465.50
581.30	45104.46
581.46	45158.30
581.62	45340.86
581.78	45226.17
581.94	44952.33
582.10	45092.76
582.26	45371.28
582.42	45235.53
582.58	44971.05
582.74	45521.08
582.90	45551.51
583.06	45195.74
583.22	45476.61
583.38	45881.52
583.54	44945.31
583.70	45284.68
583.86	45336.18
584.02	45123.19
584.18	45343.20
584.34	45413.41
584.50	45485.97
584.66	45064.67
584.82	45565.55
584.98	45364.26
585.14	45862.80
585.30	45254.26
585.46	45345.54
585.62	45200.43
585.78	45184.04
585.94	45038.93
586.10	45240.21
586.26	45214.47
586.42	45074.04
586.58	45975.14
586.74	45647.47
586.90	45380.65
587.06	45144.25
587.22	45668.53
587.38	45067.02
587.54	45603.00
587.70	45794.92
587.86	45570.23
588.02	45315.11
588.18	45500.01
588.34	45174.68
588.49	45500.01
588.65	45397.03
588.81	45319.79
588.97	45460.23
589.13	45722.37
589.29	45408.73
589.45	45930.67
589.61	45544.48
589.77	45542.14
589.93	45724.71
590.08	45532.78
