SpectraSuite Data File
++++++++++++++++++++++++++++++++++++
Date: Fri Oct 25 11:26:12 EDT 2013
User: price-jones
Dark Spectrum Present: No
Reference Spectrum Present: No
Number of Sampled Component Spectra: 1
Spectrometers: USB2+H05261
Integration Time (usec): 100000 (USB2+H05261)
Spectra Averaged: 1 (USB2+H05261)
Boxcar Smoothing: 0 (USB2+H05261)
Correct for Electrical Dark: No (USB2+H05261)
Strobe/Lamp Enabled: No (USB2+H05261)
Correct for Detector Non-linearity: No (USB2+H05261)
Correct for Stray Light: No (USB2+H05261)
Number of Pixels in Processed Spectrum: 2048
>>>>>Begin Processed Spectral Data<<<<<
365.73	177.88
365.92	177.88
366.12	177.88
366.32	166.18
366.52	128.73
366.72	205.97
366.91	135.75
367.11	177.88
367.31	133.41
367.51	138.09
367.70	131.07
367.90	191.92
368.10	131.07
368.30	81.92
368.49	168.52
368.69	147.45
368.89	156.82
369.09	133.41
369.28	156.82
369.48	140.43
369.68	161.50
369.87	203.63
370.07	229.37
370.27	264.48
370.47	322.99
370.66	601.52
370.86	624.92
371.06	697.48
371.25	755.99
371.45	702.16
371.65	734.93
371.84	723.23
372.04	676.41
372.24	683.44
372.44	723.23
372.63	772.38
372.83	781.74
373.03	699.82
373.22	751.31
373.42	674.07
373.62	779.40
373.81	767.70
374.01	830.89
374.21	805.14
374.40	833.23
374.60	760.67
374.79	861.32
374.99	842.59
375.19	812.17
375.38	802.80
375.58	837.91
375.78	802.80
375.97	847.27
376.17	896.43
376.37	898.77
376.56	908.13
376.76	898.77
376.95	800.46
377.15	887.06
377.35	866.00
377.54	896.43
377.74	898.77
377.93	896.43
378.13	901.11
378.33	908.13
378.52	924.51
378.72	926.85
378.91	950.26
379.11	933.87
379.31	940.90
379.50	917.49
379.70	1022.81
379.89	1018.13
380.09	990.05
380.28	1027.50
380.48	961.96
380.68	973.66
380.87	959.62
381.07	994.73
381.26	1132.82
381.46	1067.28
381.65	1132.82
381.85	1053.24
382.04	976.00
382.24	1050.90
382.43	1032.18
382.63	1071.97
382.83	1076.65
383.02	1032.18
383.22	1130.48
383.41	1109.41
383.61	1083.67
383.80	1200.69
384.00	1062.60
384.19	1095.37
384.39	1144.52
384.58	1144.52
384.78	1135.16
384.97	1090.69
385.17	1207.72
385.36	1125.80
385.56	1144.52
385.75	1165.59
385.95	1153.88
386.14	1221.76
386.34	1160.91
386.53	1259.21
386.72	1151.54
386.92	1128.14
387.11	1254.53
387.31	1160.91
387.50	1203.04
387.70	1245.16
387.89	1219.42
388.09	1224.10
388.28	1249.85
388.48	1343.47
388.67	1327.08
388.86	1338.79
389.06	1327.08
389.25	1308.36
389.45	1214.74
389.64	1451.13
389.84	1432.41
390.03	1425.39
390.22	1434.75
390.42	1397.30
390.61	1327.08
390.81	1366.87
391.00	1313.04
391.19	1430.07
391.39	1341.13
391.58	1540.07
391.78	1514.33
391.97	1483.90
392.16	1469.86
392.36	1472.20
392.55	1554.12
392.75	1540.07
392.94	1521.35
393.13	1551.78
393.33	1591.56
393.52	1530.71
393.71	1493.26
393.91	1582.20
394.10	1568.16
394.29	1607.95
394.49	1540.07
394.68	1659.44
394.88	1579.86
395.07	1671.14
395.26	1621.99
395.46	1713.27
395.65	1671.14
395.84	1722.63
396.04	1804.55
396.23	1769.44
396.42	1727.32
396.62	1792.85
396.81	1778.81
397.00	1825.62
397.19	1769.44
397.39	1764.76
397.58	1750.72
397.77	1781.15
397.97	1830.30
398.16	1895.83
398.35	1977.75
398.55	1905.20
398.74	1813.92
398.93	1877.11
399.12	2031.58
399.32	1930.94
399.51	1912.22
399.70	1935.62
399.90	1916.90
400.09	2038.61
400.28	1996.48
400.47	1973.07
400.67	2043.29
400.86	2136.91
401.05	2005.84
401.24	2097.12
401.44	2190.74
401.63	2076.06
401.82	2092.44
402.01	2085.42
402.21	2150.95
402.40	2104.14
402.59	2078.40
402.78	2174.36
402.97	2284.36
403.17	2211.81
403.36	2293.72
403.55	2251.60
403.74	2300.75
403.93	2434.16
404.13	2328.83
404.32	2396.71
404.51	2443.52
404.70	2399.05
404.89	2492.67
405.09	2441.18
405.28	2415.43
405.47	2473.95
405.66	2457.56
405.85	2490.33
406.05	2368.62
406.24	2523.10
406.43	2539.48
406.62	2527.78
406.81	2752.47
407.00	2612.04
407.20	2523.10
407.39	2654.17
407.58	2686.94
407.77	2670.55
407.96	2658.85
408.15	2729.06
408.34	2743.11
408.54	2738.43
408.73	2731.41
408.92	2906.95
409.11	2764.17
409.30	2834.39
409.49	2846.09
409.68	2942.05
409.87	2918.65
410.07	2977.16
410.26	3005.25
410.45	2972.48
410.64	2984.18
410.83	2892.90
411.02	3059.08
411.21	3117.59
411.40	3157.38
411.59	3283.77
411.78	3141.00
411.98	3276.75
412.17	3328.24
412.36	3337.60
412.55	3318.88
412.74	3351.65
412.93	3400.80
413.12	3295.47
413.31	3562.30
413.50	3311.86
413.69	3431.23
413.88	3562.30
414.07	3609.11
414.26	3538.89
414.45	3789.33
414.64	3639.53
414.83	3712.09
415.02	3815.07
415.22	3857.20
415.41	3960.19
415.60	3789.33
415.79	3873.59
415.98	3974.23
416.17	3843.16
416.36	4072.53
416.55	4098.28
416.74	4046.79
416.93	4035.08
417.12	4044.45
417.31	4292.54
417.50	4072.53
417.69	4297.22
417.88	4184.88
418.07	4170.83
418.26	4222.33
418.45	4325.31
418.64	4528.94
418.83	4390.84
419.02	4393.19
419.21	4407.23
419.39	4554.68
419.58	4533.62
419.77	4540.64
419.96	4650.64
420.15	4603.83
420.34	4631.92
420.53	4571.07
420.72	4725.54
420.91	4674.05
421.10	4709.16
421.29	4767.67
421.48	4571.07
421.67	4650.64
421.86	4884.70
422.05	4772.35
422.24	4770.01
422.43	4781.71
422.61	4784.06
422.80	5027.47
422.99	4917.47
423.18	4910.44
423.37	4964.28
423.56	4821.50
423.75	4929.17
423.94	4833.21
424.13	4634.26
424.32	4662.35
424.50	5041.51
424.69	4983.00
424.88	5018.11
425.07	4901.08
425.26	4966.62
425.45	4968.96
425.64	4964.28
425.83	4910.44
426.01	5018.11
426.20	5048.54
426.39	5043.85
426.58	4917.47
426.77	5034.49
426.96	5214.71
427.15	4968.96
427.33	5130.45
427.52	5125.77
427.71	5139.82
427.90	5266.21
428.09	5383.23
428.28	5315.36
428.46	5287.27
428.65	5259.18
428.84	5413.66
429.03	5514.30
429.22	5380.89
429.40	5488.56
429.59	5416.00
429.78	5231.10
429.97	5322.38
430.16	5444.09
430.34	5451.11
430.53	5607.92
430.72	5755.38
430.91	5579.84
431.10	5701.54
431.28	5617.29
431.47	5881.77
431.66	5841.98
431.85	5696.86
432.03	5987.09
432.22	5881.77
432.41	5881.77
432.60	5851.34
432.79	5977.73
432.97	5996.45
433.16	6061.99
433.35	5956.66
433.54	6143.91
433.72	6101.78
433.91	5991.77
434.10	6120.50
434.28	6164.97
434.47	6080.71
434.66	6052.63
434.85	6296.04
435.03	6420.09
435.22	6422.43
435.41	6328.81
435.59	6382.64
435.78	6345.19
435.97	6478.60
436.16	6260.93
436.34	6392.00
436.53	6574.56
436.72	6429.45
436.90	6422.43
437.09	6593.29
437.28	6464.56
437.46	6480.94
437.65	6527.75
437.84	6700.95
438.02	6614.35
438.21	6787.55
438.40	6600.31
438.58	6967.77
438.77	6942.03
438.96	6850.75
439.14	6998.20
439.33	6998.20
439.52	7283.75
439.70	7166.72
439.89	7243.96
440.08	7346.94
440.26	7391.41
440.45	7176.08
440.63	7368.01
440.82	7496.74
441.01	7517.80
441.19	7602.06
441.38	7693.34
441.57	7770.58
441.75	7845.48
441.94	7772.92
442.12	7908.67
442.31	8100.59
442.50	7922.71
442.68	8021.02
442.87	7955.48
443.05	8187.19
443.24	8084.21
443.43	7889.95
443.61	8166.13
443.80	8423.59
443.98	8173.15
444.17	7756.54
444.35	8088.89
444.54	8369.76
444.73	8294.86
444.91	8421.25
445.10	8634.24
445.28	8255.07
445.47	8266.77
445.65	8416.57
445.84	8542.96
446.02	8404.86
446.21	8411.89
446.39	8285.50
446.58	8428.27
446.77	8479.76
446.95	8311.24
447.14	8285.50
447.32	8493.80
447.51	8390.82
447.69	8325.29
447.88	8475.08
448.06	8479.76
448.25	8500.83
448.43	8498.49
448.62	8554.66
448.80	8547.64
448.99	8507.85
449.17	8669.34
449.36	8615.51
449.54	8926.80
449.73	8968.93
449.91	9280.22
450.10	8915.10
450.28	8863.61
450.46	9022.77
450.65	9029.79
450.83	8980.64
451.02	8842.54
451.20	8821.48
451.39	9015.74
451.57	9053.19
451.76	9107.02
451.94	9085.96
452.13	9305.97
452.31	9308.31
452.49	9139.79
452.68	9453.42
452.86	9493.21
453.05	9355.12
453.23	9415.98
453.42	9312.99
453.60	9289.59
453.78	9472.15
453.97	9352.78
454.15	9308.31
454.34	9437.04
454.52	9598.54
454.70	9717.90
454.89	9610.24
455.07	9886.42
455.26	9802.16
455.44	9680.46
455.62	9802.16
455.81	10092.39
455.99	9858.34
456.17	9860.68
456.36	9902.81
456.54	10200.05
456.73	9998.77
456.91	10232.82
457.09	10193.03
457.28	10504.32
457.46	10150.90
457.64	10399.00
457.83	10640.08
458.01	10314.74
458.19	10593.26
458.38	10635.39
458.56	10593.26
458.74	10478.58
458.93	10595.61
459.11	10700.93
459.29	10553.48
459.48	10951.37
459.66	10658.80
459.84	10911.58
460.03	10888.17
460.21	10899.87
460.39	10934.98
460.57	10939.66
460.76	10986.47
460.94	11052.01
461.12	11026.26
461.31	11087.12
461.49	11272.02
461.67	10942.00
461.85	11466.28
462.04	11229.89
462.22	11742.47
462.40	11506.07
462.59	11342.24
462.77	11470.97
462.95	11421.81
463.13	11283.72
463.32	11508.41
463.50	11831.41
463.68	11948.43
463.86	11700.34
464.05	11625.44
464.23	11555.22
464.41	11918.01
464.59	11489.69
464.78	11950.78
464.96	12095.89
465.14	11812.68
465.32	12123.98
465.50	12086.53
465.69	11964.82
465.87	11871.20
466.05	12067.80
466.23	12030.35
466.41	12229.30
466.60	12383.77
466.78	11999.93
466.96	12180.15
467.14	12353.35
467.32	12264.41
467.51	12535.91
467.69	12119.29
467.87	12353.35
468.05	12264.41
468.23	12360.37
468.41	12556.97
468.60	12423.56
468.78	12439.95
468.96	12737.20
469.14	13001.68
469.32	12865.92
469.50	12449.31
469.69	12957.21
469.87	13081.25
470.05	12910.40
470.23	13135.09
470.41	13221.69
470.59	13298.92
470.77	13062.53
470.95	13256.79
471.14	13507.23
471.32	13043.81
471.50	13486.17
471.68	13324.67
471.86	13462.76
472.04	13537.66
472.22	13928.53
472.40	13757.67
472.58	13647.66
472.77	14075.98
472.95	14075.98
473.13	14558.13
473.31	14057.26
473.49	14188.33
473.67	14031.51
473.85	14204.71
474.03	14497.28
474.21	14485.58
474.39	14663.46
474.57	14572.18
474.75	14705.59
474.93	14902.19
475.12	15054.33
475.30	15068.37
475.48	15035.60
475.66	15115.18
475.84	15192.42
476.02	15538.82
476.20	15171.35
476.38	15515.41
476.56	16119.27
476.74	15833.72
476.92	15929.69
477.10	15737.76
477.28	16095.86
477.46	15957.77
477.64	16313.53
477.82	16519.50
478.00	16809.73
478.18	16561.63
478.36	16510.14
478.54	17025.06
478.72	17003.99
478.90	17319.96
479.08	17500.19
479.26	17483.80
479.44	17287.20
479.62	17841.90
479.80	18045.53
479.98	18026.81
480.16	18368.52
480.34	18324.05
480.52	18574.49
480.70	18427.04
480.88	18384.91
481.06	18567.47
481.24	18759.39
481.41	19016.85
481.59	19335.17
481.77	19545.81
481.95	19513.05
482.13	19599.65
482.31	19295.38
482.49	19922.64
482.67	19868.81
482.85	20479.69
483.03	20685.65
483.21	20725.44
483.39	20683.31
483.57	20769.91
483.74	20992.26
483.92	21146.74
484.10	21329.30
484.28	21476.76
484.46	21837.20
484.64	22204.66
484.82	21556.33
485.00	22267.86
485.18	22614.26
485.35	22480.85
485.53	22515.95
485.71	22951.29
485.89	23264.92
486.07	23283.65
486.25	23405.36
486.43	23009.81
486.61	23545.79
486.78	24224.54
486.96	23943.68
487.14	24559.24
487.32	23845.38
487.50	24629.46
487.68	24966.49
487.85	25305.87
488.03	25411.20
488.21	25750.57
488.39	25692.06
488.57	25568.01
488.75	26188.25
488.92	26366.13
489.10	26342.73
489.28	26621.25
489.46	27047.23
489.64	26906.80
489.81	27765.78
489.99	27594.92
490.17	27513.00
490.35	27812.59
490.53	28002.17
490.70	28114.52
490.88	28268.99
491.06	28924.34
491.24	28538.15
491.41	28858.81
491.59	28959.45
491.77	29371.38
491.95	29472.03
492.13	29263.72
492.30	29916.73
492.48	29872.26
492.66	29869.92
492.84	30356.75
493.01	30747.62
493.19	30410.58
493.37	30841.24
493.54	31250.83
493.72	31058.91
493.90	31323.39
494.08	31449.78
494.25	31679.15
494.43	31917.89
494.61	31985.76
494.79	32432.80
494.96	32283.01
495.14	32699.62
495.32	32950.06
495.49	33083.47
495.67	33001.55
495.85	33268.37
496.02	33539.88
496.20	33684.99
496.38	33706.05
496.55	34183.52
496.73	34778.02
496.91	34167.14
497.09	34637.59
497.26	35012.07
497.44	34991.01
497.62	35253.15
497.79	35735.30
497.97	35667.42
498.14	35632.32
498.32	35739.98
498.50	36151.91
498.67	36355.54
498.85	35857.01
499.03	36603.64
499.20	36388.31
499.38	36720.66
499.56	36821.31
499.73	36591.94
499.91	37195.79
500.08	37654.54
500.26	37570.28
500.44	37500.06
500.61	37581.98
500.79	37804.33
500.97	37869.87
501.14	38466.70
501.32	38471.39
501.49	38433.94
501.67	38471.39
501.84	38506.49
502.02	38321.59
502.20	38925.45
502.37	38983.96
502.55	38958.22
502.72	39407.60
502.90	39234.40
503.07	39709.53
503.25	39473.13
503.43	39723.57
503.60	40076.99
503.78	39950.60
503.95	39892.09
504.13	40444.46
504.30	40765.11
504.48	40210.40
504.65	40765.11
504.83	40383.60
505.01	41256.62
505.18	41008.53
505.36	41434.50
505.53	41268.33
505.71	41509.40
505.88	41163.00
506.06	41373.65
506.23	41624.09
506.41	41570.25
506.58	41794.95
506.76	41823.03
506.93	42082.83
507.11	42036.02
507.28	42087.51
507.46	42417.53
507.63	42351.99
507.81	43068.20
507.98	42883.30
508.16	42955.85
508.33	43079.90
508.50	43175.86
508.68	43611.20
508.85	43269.48
509.03	43274.16
509.20	43662.69
509.38	44266.55
509.55	43920.15
509.73	44168.25
509.90	44203.36
510.08	44472.52
510.25	44589.55
510.42	44341.45
510.60	44484.22
510.77	44938.29
510.95	45287.03
511.12	45364.26
511.30	44781.47
511.47	44996.80
511.64	45216.81
511.82	45705.98
511.99	45537.46
512.17	45867.48
512.34	45820.67
512.51	45820.67
512.69	46244.30
512.86	46272.39
513.04	46660.92
513.21	46164.73
513.38	46691.35
513.56	46700.71
513.73	46314.52
513.90	46763.90
514.08	47000.30
514.25	46719.43
514.43	47161.79
514.60	46967.53
514.77	47093.92
514.95	47547.98
515.12	47592.45
515.29	47454.36
515.47	47262.44
515.64	48081.63
515.81	47480.11
515.99	47789.06
516.16	47952.90
516.33	48023.11
516.51	48636.33
516.68	48362.49
516.85	48643.35
517.03	48673.78
517.20	48842.30
517.37	48421.00
517.54	48685.48
517.72	48250.14
517.89	48786.13
518.06	49043.59
518.24	49113.80
518.41	49301.04
518.58	49130.19
518.75	48964.01
518.93	49546.80
519.10	49200.40
519.27	49488.29
519.45	49694.25
519.62	49647.44
519.79	49649.78
519.96	49612.34
520.14	49942.35
520.31	49701.28
520.48	50167.04
520.65	50047.68
520.83	50307.47
521.00	50312.16
521.17	50204.49
521.34	50864.52
521.52	50632.81
521.69	50883.25
521.86	50791.97
522.03	50787.28
522.20	51166.45
522.38	51159.43
522.55	51040.06
522.72	51136.02
522.89	51246.03
523.07	51482.42
523.24	51430.93
523.41	51487.10
523.58	51257.73
523.75	51578.39
523.92	51714.14
524.10	52016.07
524.27	51714.14
524.44	51805.42
524.61	51894.36
524.78	52222.03
524.96	52334.38
525.13	52011.38
525.30	52198.63
525.47	52282.89
525.64	52303.95
525.81	52172.88
525.98	52715.89
526.16	52437.36
526.33	52582.48
526.50	53029.52
526.67	52772.06
526.84	52807.17
527.01	52704.18
527.18	52769.72
527.36	52657.37
527.53	52776.74
527.70	53284.64
527.87	53504.65
528.04	53097.39
528.21	53532.73
528.38	53333.79
528.55	53303.36
528.72	53310.38
528.89	53249.53
529.07	53279.96
529.24	53420.39
529.41	53518.69
529.58	53469.54
529.75	53558.48
529.92	53635.72
530.09	53633.38
530.26	53893.18
530.43	53839.34
530.60	53834.66
530.77	53904.88
530.94	53956.37
531.11	53783.17
531.28	53965.73
531.46	53722.32
531.63	54045.31
531.80	54169.36
531.97	54333.20
532.14	54223.19
532.31	54143.61
532.48	54262.98
532.65	54218.51
532.82	54562.57
532.99	54380.01
533.16	54347.24
533.33	54660.87
533.50	54810.67
533.67	54703.00
533.84	54855.14
534.01	54915.99
534.18	54838.75
534.35	55112.59
534.52	54738.11
534.69	55021.31
534.86	55238.98
535.03	54831.73
535.20	55079.83
535.37	55028.34
535.54	55023.65
535.71	54993.23
535.88	55124.30
536.05	55224.94
536.22	55260.05
536.38	55597.09
536.55	55395.80
536.72	55297.50
536.89	55222.60
537.06	55414.52
537.23	55636.87
537.40	55374.73
537.57	55599.43
537.74	55583.04
537.91	55866.25
538.08	55587.72
538.25	55487.08
538.42	55852.20
538.59	55777.31
538.75	55763.26
538.92	55931.78
539.09	55920.08
539.26	55901.36
539.43	55831.14
539.60	56170.52
539.77	56179.88
539.94	56416.27
540.11	56308.61
540.28	56090.94
540.44	56491.17
540.61	56413.93
540.78	55994.98
540.95	56353.08
541.12	56048.81
541.29	56243.07
541.46	56044.13
541.62	56561.39
541.79	56336.69
541.96	56034.77
542.13	56456.06
542.30	56612.88
542.47	56919.49
542.63	56516.92
542.80	56839.91
542.97	56938.21
543.14	57027.15
543.31	56924.17
543.48	57125.46
543.64	57366.53
543.81	57055.24
543.98	57205.03
544.15	57212.06
544.32	57305.68
544.48	57352.49
544.65	57116.09
544.82	57359.51
544.99	57116.09
545.16	57158.22
545.32	57553.77
545.49	57546.75
545.66	57588.88
545.83	57516.32
546.00	57563.14
546.16	57523.35
546.33	57261.21
546.50	57446.11
546.67	57408.66
546.83	57162.90
547.00	57638.03
547.17	57586.54
547.34	57797.19
547.50	57546.75
547.67	57982.09
547.84	57827.62
548.00	57921.24
548.17	57780.81
548.34	57909.53
548.51	58089.76
548.67	58038.26
548.84	57984.43
549.01	58078.05
549.18	58089.76
549.34	58277.00
549.51	58131.89
549.68	58312.11
549.84	58155.29
550.01	58232.53
550.18	58192.74
550.34	58487.65
550.51	58269.98
550.68	58108.48
550.84	58089.76
551.01	58426.79
551.18	58431.47
551.34	58452.54
551.51	58576.59
551.68	58422.11
551.84	58429.13
552.01	58277.00
552.18	58452.54
552.34	58459.56
552.51	58452.54
552.68	58485.31
552.84	58461.90
553.01	58712.34
553.18	58824.68
553.34	58684.25
553.51	58728.72
553.67	58658.51
553.84	58869.15
554.01	58803.62
554.17	58904.26
554.34	59107.89
554.51	58822.34
554.67	58946.39
554.84	58946.39
555.00	58691.27
555.17	59023.63
555.33	58883.20
555.50	58805.96
555.67	58674.89
555.83	58960.44
556.00	59058.74
556.16	59217.89
556.33	59257.68
556.50	59231.94
556.66	59054.06
556.83	58995.54
556.99	58871.49
557.16	59470.67
557.32	59400.46
557.49	59592.38
557.65	59196.83
557.82	59098.53
557.98	59379.39
558.15	59082.14
558.32	59393.43
558.48	59185.13
558.65	59355.99
558.81	59409.82
558.98	59468.33
559.14	59519.82
559.31	59522.16
559.47	59554.93
559.64	59498.76
559.80	59564.29
559.97	59723.45
560.13	59536.21
560.30	59566.63
560.46	59749.20
560.63	59538.55
560.79	59671.96
560.96	59599.40
561.12	59877.93
561.29	59725.79
561.45	59693.02
561.61	59781.96
561.78	59576.00
561.94	59599.40
562.11	59669.62
562.27	59819.41
562.44	59966.87
562.60	60121.34
562.77	59873.24
562.93	59798.35
563.10	59934.10
563.26	59924.74
563.42	60285.18
563.59	59742.17
563.75	60018.36
563.92	60018.36
564.08	59835.80
564.24	60046.44
564.41	59742.17
564.57	59962.18
564.74	59838.14
564.90	59929.42
565.07	60048.78
565.23	59866.22
565.39	59941.12
565.56	60093.25
565.72	59915.37
565.88	60130.70
566.05	60154.11
566.21	59870.90
566.38	60018.36
566.54	60207.94
566.70	60229.01
566.87	60376.46
567.03	60144.75
567.19	60142.41
567.36	60111.98
567.52	60140.07
567.68	60453.70
567.85	60144.75
568.01	60402.21
568.17	60133.04
568.34	60514.55
568.50	60261.77
568.66	60357.74
568.83	60507.53
568.99	60198.58
569.15	60301.56
569.32	60261.77
569.48	60266.45
569.64	60360.08
569.81	60331.99
569.97	60156.45
570.13	60392.84
570.30	60065.17
570.46	60322.63
570.62	60308.58
570.78	60217.30
570.95	60355.39
571.11	60533.28
571.27	60261.77
571.43	60296.88
571.60	60654.98
571.76	60577.75
571.92	60444.33
572.09	60364.76
572.25	60339.01
572.41	60339.01
572.57	60547.32
572.74	60690.09
572.90	60521.57
573.06	60526.25
573.22	60612.85
573.38	60470.08
573.55	60502.85
573.71	60554.34
573.87	60645.62
574.03	60509.87
574.20	60292.20
574.36	60516.89
574.52	60746.26
574.68	60680.73
574.84	60509.87
575.01	60643.28
575.17	60711.16
575.33	60643.28
575.49	60570.72
575.65	60573.06
575.82	60601.15
575.98	60692.43
576.14	60858.61
576.30	60727.54
576.46	60521.57
576.62	60479.44
576.79	60666.69
576.95	60444.33
577.11	60662.00
577.27	60509.87
577.43	60755.63
577.59	60626.90
577.75	60837.54
577.92	60544.98
578.08	60610.51
578.24	60774.35
578.40	60830.52
578.56	60748.60
578.72	60701.79
578.88	60914.78
579.04	60952.23
579.21	60795.42
579.37	60734.56
579.53	61134.79
579.69	60484.12
579.85	60615.19
580.01	60713.50
580.17	60591.79
580.33	60832.86
580.49	60699.45
580.65	60690.09
580.82	60858.61
580.98	60676.05
581.14	60701.79
581.30	60823.50
581.46	60636.26
581.62	60804.78
581.78	60837.54
581.94	60844.57
582.10	61038.83
582.26	60720.52
582.42	60849.25
582.58	60907.76
582.74	60783.71
582.90	60830.52
583.06	60814.14
583.22	60650.30
583.38	60912.44
583.54	60516.89
583.70	60711.16
583.86	60725.20
584.02	60743.92
584.18	60879.67
584.34	60760.31
584.50	60999.04
584.66	60741.58
584.82	60858.61
584.98	60914.78
585.14	60882.02
585.30	60952.23
585.46	60945.21
585.62	60884.36
585.78	61125.43
585.94	60802.44
586.10	60954.57
586.26	60750.94
586.42	60961.59
586.58	61038.83
586.74	61017.77
586.90	60945.21
587.06	60757.97
587.22	61073.94
587.38	60926.49
587.54	61073.94
587.70	61146.50
587.86	60970.96
588.02	60989.68
588.18	61216.71
588.34	61076.28
588.49	60940.53
