SpectraSuite Data File
++++++++++++++++++++++++++++++++++++
Date: Fri Oct 25 11:22:56 EDT 2013
User: price-jones
Dark Spectrum Present: No
Reference Spectrum Present: No
Number of Sampled Component Spectra: 1
Spectrometers: USB2+H05261
Integration Time (usec): 100000 (USB2+H05261)
Spectra Averaged: 1 (USB2+H05261)
Boxcar Smoothing: 0 (USB2+H05261)
Correct for Electrical Dark: No (USB2+H05261)
Strobe/Lamp Enabled: No (USB2+H05261)
Correct for Detector Non-linearity: No (USB2+H05261)
Correct for Stray Light: No (USB2+H05261)
Number of Pixels in Processed Spectrum: 2048
>>>>>Begin Processed Spectral Data<<<<<
365.73	294.91
365.92	294.91
366.12	294.91
366.32	117.03
366.52	145.11
366.72	170.86
366.91	74.90
367.11	147.45
367.31	93.62
367.51	70.22
367.70	49.15
367.90	152.13
368.10	107.66
368.30	124.05
368.49	112.35
368.69	194.26
368.89	112.35
369.09	177.88
369.28	184.90
369.48	187.24
369.68	180.22
369.87	110.01
370.07	131.07
370.27	210.65
370.47	320.65
370.66	606.20
370.86	617.90
371.06	613.22
371.25	667.05
371.45	662.37
371.65	622.58
371.84	711.52
372.04	744.29
372.24	671.73
372.44	697.48
372.63	709.18
372.83	751.31
373.03	711.52
373.22	751.31
373.42	802.80
373.62	770.04
373.81	882.38
374.01	814.51
374.21	720.88
374.40	788.76
374.60	833.23
374.79	784.08
374.99	807.48
375.19	884.72
375.38	826.21
375.58	844.93
375.78	936.21
375.97	880.04
376.17	873.02
376.37	849.61
376.56	926.85
376.76	835.57
376.95	760.67
377.15	894.08
377.35	931.53
377.54	880.04
377.74	938.55
377.93	922.17
378.13	830.89
378.33	940.90
378.52	952.60
378.72	947.92
378.91	908.13
379.11	889.40
379.31	936.21
379.50	1013.45
379.70	1011.11
379.89	938.55
380.09	933.87
380.28	957.28
380.48	994.73
380.68	1027.50
380.87	980.68
381.07	971.32
381.26	1064.94
381.46	1043.88
381.65	1067.28
381.85	1060.26
382.04	1018.13
382.24	1041.54
382.43	1048.56
382.63	1050.90
382.83	1170.27
383.02	1090.69
383.22	1186.65
383.41	1097.71
383.61	1130.48
383.80	1153.88
384.00	1123.46
384.19	1125.80
384.39	1174.95
384.58	1135.16
384.78	1158.57
384.97	1139.84
385.17	1186.65
385.36	1219.42
385.56	1196.01
385.75	1142.18
385.95	1266.23
386.14	1268.57
386.34	1184.31
386.53	1221.76
386.72	1174.95
386.92	1160.91
387.11	1299.00
387.31	1275.59
387.50	1228.78
387.70	1205.38
387.89	1256.87
388.09	1259.21
388.28	1198.35
388.48	1280.27
388.67	1263.89
388.86	1277.93
389.06	1348.15
389.25	1371.55
389.45	1338.79
389.64	1378.58
389.84	1420.71
390.03	1385.60
390.22	1416.02
390.42	1406.66
390.61	1322.40
390.81	1392.62
391.00	1483.90
391.19	1472.20
391.39	1509.65
391.58	1460.49
391.78	1507.30
391.97	1486.24
392.16	1516.67
392.36	1554.12
392.55	1607.95
392.75	1558.80
392.94	1575.18
393.13	1568.16
393.33	1605.61
393.52	1516.67
393.71	1647.74
393.91	1584.54
394.10	1533.05
394.29	1561.14
394.49	1582.20
394.68	1617.31
394.88	1654.76
395.07	1710.93
395.26	1720.29
395.46	1638.38
395.65	1575.18
395.84	1732.00
396.04	1827.96
396.23	1806.89
396.42	1748.38
396.62	1736.68
396.81	1692.21
397.00	1863.07
397.19	1909.88
397.39	1736.68
397.58	1856.04
397.77	1739.02
397.97	1837.32
398.16	1811.57
398.35	1930.94
398.55	1865.41
398.74	1902.86
398.93	1942.64
399.12	1970.73
399.32	1961.37
399.51	1912.22
399.70	2040.95
399.90	2071.37
400.09	2031.58
400.28	2073.71
400.47	2083.08
400.67	2132.23
400.86	2176.70
401.05	2174.36
401.24	2090.10
401.44	2101.80
401.63	2214.15
401.82	2197.76
402.01	2223.51
402.21	2157.97
402.40	2197.76
402.59	2200.10
402.78	2207.13
402.97	2246.91
403.17	2186.06
403.36	2169.68
403.55	2464.58
403.74	2335.85
403.93	2469.27
404.13	2356.92
404.32	2373.30
404.51	2326.49
404.70	2394.37
404.89	2466.92
405.09	2408.41
405.28	2499.69
405.47	2548.84
405.66	2457.56
405.85	2602.68
406.05	2537.14
406.24	2504.37
406.43	2703.32
406.62	2616.72
406.81	2693.96
407.00	2616.72
407.20	2628.42
407.39	2602.68
407.58	2815.66
407.77	2789.92
407.96	2818.00
408.15	2700.98
408.34	2869.50
408.54	2822.69
408.73	2825.03
408.92	2818.00
409.11	2888.22
409.30	2974.82
409.49	2977.16
409.68	2958.44
409.87	2883.54
410.07	3052.06
410.26	3026.31
410.45	3012.27
410.64	3105.89
410.83	3087.17
411.02	3133.98
411.21	3293.13
411.40	3204.19
411.59	3281.43
411.78	3096.53
411.98	3183.13
412.17	3283.77
412.36	3302.50
412.55	3375.05
412.74	3389.10
412.93	3440.59
413.12	3510.80
413.31	3616.13
413.50	3471.01
413.69	3550.59
413.88	3611.45
414.07	3428.88
414.26	3534.21
414.45	3592.72
414.64	3646.55
414.83	3777.62
415.02	3850.18
415.22	3707.41
415.41	3915.72
415.60	3925.08
415.79	4023.38
415.98	3955.51
416.17	4039.76
416.36	4131.05
416.55	4140.41
416.74	4046.79
416.93	4121.68
417.12	4264.46
417.31	4304.25
417.50	4283.18
417.69	4407.23
417.88	4362.76
418.07	4332.33
418.26	4332.33
418.45	4381.48
418.64	4477.44
418.83	4514.89
419.02	4383.82
419.21	4514.89
419.39	4711.50
419.58	4540.64
419.77	4545.32
419.96	4510.21
420.15	4652.98
420.34	4681.07
420.53	4627.24
420.72	4674.05
420.91	4809.80
421.10	4873.00
421.29	4720.86
421.48	4718.52
421.67	4816.82
421.86	4875.34
422.05	4870.65
422.24	4720.86
422.43	4858.95
422.61	4851.93
422.80	4971.30
422.99	5043.85
423.18	5116.41
423.37	5078.96
423.56	5029.81
423.75	4847.25
423.94	4903.42
424.13	4575.75
424.32	4858.95
424.50	4938.53
424.69	5062.58
424.88	5093.01
425.07	5130.45
425.26	5022.79
425.45	5013.43
425.64	5107.05
425.83	5008.75
426.01	5146.84
426.20	4940.87
426.39	5137.48
426.58	5130.45
426.77	5186.63
426.96	5158.54
427.15	5179.61
427.33	5198.33
427.52	5139.82
427.71	5210.03
427.90	5352.81
428.09	5469.83
428.28	5371.53
428.46	5345.78
428.65	5266.21
428.84	5497.92
429.03	5446.43
429.22	5530.69
429.40	5434.72
429.59	5572.82
429.78	5425.36
429.97	5226.42
430.16	5612.60
430.34	5846.66
430.53	5596.22
430.72	5659.42
430.91	5586.86
431.10	5809.21
431.28	5767.08
431.47	5832.62
431.66	6003.47
431.85	5746.02
432.03	5867.72
432.22	5998.79
432.41	5916.87
432.60	5954.32
432.79	5949.64
432.97	5951.98
433.16	6141.57
433.35	6012.84
433.54	6204.76
433.72	6066.67
433.91	6150.93
434.10	6267.95
434.28	6157.95
434.47	6326.47
434.66	6305.40
434.85	6342.85
435.03	6441.15
435.22	6307.74
435.41	6392.00
435.59	6574.56
435.78	6565.20
435.97	6590.95
436.16	6483.28
436.34	6530.09
436.53	6551.16
436.72	6562.86
436.90	6443.49
437.09	6743.08
437.28	6672.87
437.46	6700.95
437.65	6602.65
437.84	6712.66
438.02	6906.92
438.21	6960.75
438.40	6810.96
438.58	7016.93
438.77	6916.28
438.96	6991.18
439.14	7155.02
439.33	7199.49
439.52	7187.79
439.70	7300.13
439.89	7265.02
440.08	7632.49
440.26	7379.71
440.45	7417.16
440.63	7358.64
440.82	7637.17
441.01	7569.29
441.19	7641.85
441.38	7864.20
441.57	7789.30
441.75	7829.09
441.94	8212.94
442.12	8056.12
442.31	7950.80
442.50	8311.24
442.68	8166.13
442.87	8095.91
443.05	8100.59
443.24	8313.58
443.43	8219.96
443.61	8191.88
443.80	8449.33
443.98	8205.92
444.17	7868.88
444.35	8201.24
444.54	8456.36
444.73	8208.26
444.91	8587.43
445.10	8472.74
445.28	8486.78
445.47	8444.65
445.65	8255.07
445.84	8648.28
446.02	8451.67
446.21	8430.61
446.39	8561.68
446.58	8762.97
446.77	8580.40
446.95	8341.67
447.14	8376.78
447.32	8549.98
447.51	8402.52
447.69	8446.99
447.88	8650.62
448.06	8631.90
448.25	8723.18
448.43	8624.87
448.62	8786.37
448.80	8599.13
448.99	8877.65
449.17	8748.92
449.36	8837.86
449.54	8901.06
449.73	9004.04
449.91	8978.30
450.10	9167.88
450.28	9144.47
450.46	9100.00
450.65	9097.66
450.83	9205.33
451.02	9130.43
451.20	9252.14
451.39	9060.21
451.57	9137.45
451.76	9273.20
451.94	9245.12
452.13	9462.79
452.31	9275.54
452.49	9233.41
452.68	9343.42
452.86	9554.07
453.05	9444.06
453.23	9530.66
453.42	9425.34
453.60	9504.92
453.78	9729.61
453.97	9600.88
454.15	9624.28
454.34	9401.93
454.52	9645.35
454.70	9736.63
454.89	9895.78
455.07	9863.02
455.26	9907.49
455.44	10017.49
455.62	9769.40
455.81	9980.04
455.99	10169.63
456.17	10092.39
456.36	10127.50
456.54	10483.26
456.73	10148.56
456.91	10658.80
457.09	10527.73
457.28	10630.71
457.46	10588.58
457.64	10595.61
457.83	10490.28
458.01	10726.68
458.19	10846.04
458.38	10647.10
458.56	11016.90
458.74	10860.09
458.93	10960.73
459.11	10888.17
459.29	10794.55
459.48	10803.91
459.66	10920.94
459.84	10981.79
460.03	11232.23
460.21	11145.63
460.39	11049.67
460.57	11431.18
460.76	11044.99
460.94	11520.12
461.12	11178.40
461.31	11433.52
461.49	11201.80
461.67	11201.80
461.85	11648.85
462.04	11499.05
462.22	11763.53
462.40	11742.47
462.59	11485.01
462.77	11534.16
462.95	11651.19
463.13	11768.21
463.32	11543.52
463.50	11690.98
463.68	12112.27
463.86	12049.08
464.05	11744.81
464.23	11873.54
464.41	11798.64
464.59	11824.39
464.78	12313.56
464.96	11997.59
465.14	12002.27
465.32	12142.70
465.50	12161.42
465.69	12313.56
465.87	11985.88
466.05	12383.77
466.23	12318.24
466.41	12524.21
466.60	12765.28
466.78	12313.56
466.96	12306.54
467.14	12418.88
467.32	12458.67
467.51	12566.34
467.69	12152.06
467.87	12601.44
468.05	12664.64
468.23	12552.29
468.41	12608.47
468.60	12784.01
468.78	13025.08
468.96	12564.00
469.14	13011.04
469.32	13085.94
469.50	12992.31
469.69	13195.94
469.87	13043.81
470.05	13006.36
470.23	13188.92
470.41	13153.81
470.59	13561.06
470.77	13317.65
470.95	13341.05
471.14	13720.22
471.32	13415.95
471.50	13703.84
471.68	13760.01
471.86	13743.63
472.04	13572.77
472.22	14134.50
472.40	13949.59
472.58	14134.50
472.77	14139.18
472.95	14333.44
473.13	14544.09
473.31	14185.99
473.49	14436.42
473.67	14363.87
473.85	14513.66
474.03	14717.29
474.21	14923.26
474.39	15147.95
474.57	14782.82
474.75	15154.97
474.93	15248.59
475.12	15089.43
475.30	15571.58
475.48	15234.55
475.66	15325.83
475.84	15250.93
476.02	15389.02
476.20	15403.07
476.38	15882.88
476.56	16358.00
476.74	16027.99
476.92	16086.50
477.10	15906.28
477.28	16493.76
477.46	16198.85
477.64	16812.07
477.82	16659.93
478.00	17146.76
478.18	16800.37
478.36	17092.93
478.54	17114.00
478.72	17446.35
478.90	17720.20
479.08	17930.84
479.26	17767.01
479.44	17862.97
479.62	18129.79
479.80	18420.02
479.98	18345.12
480.16	18604.92
480.34	18391.93
480.52	18513.64
480.70	18429.38
480.88	18682.16
481.06	18867.06
481.24	18775.78
481.41	19206.44
481.59	19571.56
481.77	19630.07
481.95	19871.15
482.13	19913.28
482.31	19548.15
482.49	20196.48
482.67	20123.93
482.85	20690.34
483.03	20753.53
483.21	21151.42
483.39	21249.72
483.57	21446.33
483.74	21418.24
483.92	21310.58
484.10	21448.67
484.28	21731.87
484.46	21928.48
484.64	22682.13
484.82	22075.93
485.00	22696.17
485.18	23000.44
485.35	23028.53
485.53	22934.91
485.71	23548.13
485.89	23927.30
486.07	23421.74
486.25	23728.35
486.43	24189.44
486.61	24077.09
486.78	24446.90
486.96	24666.91
487.14	24886.92
487.32	24884.58
487.50	25046.07
487.68	25415.88
487.85	25387.79
488.03	25720.15
488.21	26143.78
488.39	26075.91
488.57	26015.05
488.75	26757.00
488.92	26441.03
489.10	26771.05
489.28	26834.24
489.46	27737.69
489.64	27454.48
489.81	28041.96
489.99	27660.45
490.17	28268.99
490.35	28486.66
490.53	28311.12
490.70	28748.80
490.88	28430.49
491.06	28725.39
491.24	29008.60
491.41	29097.54
491.59	29792.68
491.77	29530.54
491.95	29633.52
492.13	30356.75
492.30	30408.24
492.48	30319.30
492.66	30689.10
492.84	30831.88
493.01	31461.48
493.19	31171.25
493.37	31325.73
493.54	31276.58
493.72	31749.37
493.90	31800.86
494.08	31957.67
494.25	32549.83
494.43	32402.38
494.61	32687.92
494.79	32999.21
494.96	32844.74
495.14	32870.48
495.32	33560.94
495.49	33214.54
495.67	33640.52
495.85	33993.94
496.02	34202.25
496.20	34249.06
496.38	34375.45
496.55	34356.72
496.73	35040.16
496.91	35211.02
497.09	35063.57
497.26	35225.06
497.44	35431.03
497.62	35419.33
497.79	36327.45
497.97	36034.89
498.14	36418.74
498.32	36837.69
498.50	36596.62
498.67	36900.89
498.85	36793.22
499.03	37605.39
499.20	37116.22
499.38	37368.99
499.56	37055.36
499.73	37567.94
499.91	37853.48
500.08	38108.60
500.26	37574.96
500.44	37989.24
500.61	38405.85
500.79	38220.95
500.97	38462.02
501.14	39103.33
501.32	39042.48
501.49	38876.30
501.67	39316.32
501.84	39342.06
502.02	39152.48
502.20	39608.89
502.37	39613.57
502.55	39398.24
502.72	39576.12
502.90	40058.27
503.07	39824.22
503.25	40182.32
503.43	40758.09
503.60	40142.53
503.78	40460.84
503.95	40390.62
504.13	40893.84
504.30	41146.62
504.48	40423.39
504.65	41209.81
504.83	41394.71
505.01	41481.31
505.18	41521.10
505.36	42136.66
505.53	41883.89
505.71	41846.44
505.88	42059.43
506.06	42265.39
506.23	42583.71
506.41	42319.23
506.58	42195.18
506.76	42885.64
506.93	43047.13
507.11	42433.91
507.28	42953.51
507.46	43248.42
507.63	43330.34
507.81	43854.62
507.98	43330.34
508.16	43590.14
508.33	43650.99
508.50	44259.53
508.68	43271.82
508.85	44453.79
509.03	44189.31
509.20	44645.72
509.38	44781.47
509.55	45165.32
509.73	45179.36
509.90	44650.40
510.08	44755.72
510.25	44889.13
510.42	45247.24
510.60	45794.92
510.77	45354.90
510.95	45881.52
511.12	45727.05
511.30	45092.76
511.47	46028.98
511.64	45986.85
511.82	46251.33
511.99	46134.30
512.17	46143.66
512.34	46511.13
512.51	46887.95
512.69	46780.29
512.86	46799.01
513.04	46958.17
513.21	47147.75
513.38	47000.30
513.56	47075.19
513.73	47236.69
513.90	47398.19
514.08	47601.82
514.25	47957.58
514.43	47702.46
514.60	47653.31
514.77	47540.96
514.95	47800.76
515.12	48114.39
515.29	48119.07
515.47	48093.33
515.64	48641.01
515.81	48353.13
515.99	48732.29
516.16	48598.88
516.33	48680.80
516.51	49270.62
516.68	49022.52
516.85	48994.43
517.03	48889.11
517.20	49397.01
517.37	49404.03
517.54	49457.86
517.72	49291.68
517.89	49539.78
518.06	49521.05
518.24	49855.75
518.41	49712.98
518.58	49811.28
518.75	49523.40
518.93	50108.53
519.10	50131.93
519.27	50279.39
519.45	50211.51
519.62	50302.79
519.79	50564.93
519.96	50239.60
520.14	50422.16
520.31	50656.21
520.48	50569.61
520.65	50918.35
520.83	51353.69
521.00	51103.26
521.17	51016.66
521.34	51185.18
521.52	51330.29
521.69	51110.28
521.86	51341.99
522.03	51501.15
522.20	51559.66
522.38	51770.31
522.55	51583.07
522.72	51707.12
522.89	51693.07
523.07	52102.67
523.24	51679.03
523.41	51819.46
523.58	51753.93
523.75	52552.05
523.92	52257.14
524.10	52207.99
524.27	52505.24
524.44	52233.74
524.61	52500.56
524.78	52563.75
524.96	52378.85
525.13	52678.44
525.30	52910.15
525.47	53052.92
525.64	52622.26
525.81	53174.63
525.98	52748.65
526.16	53088.03
526.33	53151.23
526.50	53345.49
526.67	52853.98
526.84	53256.55
527.01	53055.26
527.18	53298.68
527.36	53174.63
527.53	53544.44
527.70	53532.73
527.87	53656.78
528.04	53404.00
528.21	53539.75
528.38	53343.15
528.55	53879.13
528.72	53539.75
528.89	53829.98
529.07	53771.47
529.24	53771.47
529.41	54087.44
529.58	53982.12
529.75	53930.62
529.92	54485.33
530.09	54052.33
530.26	54234.89
530.43	54234.89
530.60	53928.28
530.77	54188.08
530.94	54590.66
531.11	54321.49
531.28	54391.71
531.46	54482.99
531.63	54501.71
531.80	54742.79
531.97	54520.44
532.14	54787.26
532.31	54614.06
532.48	54892.58
532.65	54976.84
532.82	54827.05
532.99	55199.19
533.16	54878.54
533.33	54923.01
533.50	55386.44
533.67	54965.14
533.84	55028.34
534.01	55161.75
534.18	55384.10
534.35	55583.04
534.52	55503.46
534.69	55571.34
534.86	55377.08
535.03	55367.71
535.20	55482.40
535.37	55580.70
535.54	55648.58
535.71	55501.12
535.88	55662.62
536.05	55613.47
536.22	55908.38
536.38	55962.21
536.55	56107.32
536.72	55859.23
536.89	55987.95
537.06	55756.24
537.23	56259.46
537.40	55922.42
537.57	56107.32
537.74	56039.45
537.91	56184.56
538.08	56212.65
538.25	56135.41
538.42	56037.11
538.59	56589.47
538.75	56322.65
538.92	56037.11
539.09	56741.61
539.26	56427.98
539.43	56507.55
539.60	56416.27
539.77	56442.02
539.94	56741.61
540.11	56624.58
540.28	56765.01
540.44	56584.79
540.61	56512.23
540.78	56573.09
540.95	56608.20
541.12	56610.54
541.29	56910.13
541.46	56875.02
541.62	56823.53
541.79	56935.87
541.96	56757.99
542.13	56858.63
542.30	56797.78
542.47	56940.55
542.63	57097.37
542.80	57144.18
542.97	57368.87
543.14	57403.98
543.31	57481.22
543.48	57296.31
543.64	57675.48
543.81	57633.35
543.98	57439.09
544.15	57506.96
544.32	57968.05
544.48	57832.30
544.65	57549.09
544.82	57680.16
544.99	57633.35
545.16	57801.87
545.32	57663.78
545.49	57881.45
545.66	57977.41
545.83	58038.26
546.00	57965.71
546.16	57972.73
546.33	57872.09
546.50	57888.47
546.67	57909.53
546.83	57715.27
547.00	58017.20
547.17	58127.20
547.34	58075.71
547.50	58265.30
547.67	58489.99
547.84	58150.61
548.00	58398.71
548.17	58412.75
548.34	58347.21
548.51	58625.74
548.67	58635.10
548.84	58379.98
549.01	58328.49
549.18	58534.46
549.34	58450.20
549.51	58534.46
549.68	58543.82
549.84	58681.91
550.01	58511.05
550.18	58564.88
550.34	58698.30
550.51	58791.92
550.68	58887.88
550.84	58419.77
551.01	58712.34
551.18	58705.32
551.34	58721.70
551.51	58759.15
551.68	58890.22
551.84	58922.99
552.01	58894.90
552.18	59105.55
552.34	58712.34
552.51	58969.80
552.68	58939.37
552.84	58967.46
553.01	59318.54
553.18	58953.41
553.34	59121.93
553.51	58908.94
553.67	59016.61
553.84	59224.92
554.01	59175.76
554.17	59318.54
554.34	59379.39
554.51	59234.28
554.67	59398.12
554.84	59353.65
555.00	59098.53
555.17	59175.76
555.33	59440.24
555.50	59283.43
555.67	59260.02
555.83	59327.90
556.00	59442.59
556.16	59559.61
556.33	59508.12
556.50	59313.86
556.66	59508.12
556.83	59463.65
556.99	59597.06
557.16	59583.02
557.32	59723.45
557.49	59697.70
557.65	59655.57
557.82	59571.32
557.98	59601.74
558.15	59573.66
558.32	59730.47
558.48	59629.83
558.65	59636.85
558.81	59718.77
558.98	59725.79
559.14	59906.01
559.31	59969.21
559.47	59674.30
559.64	60032.40
559.80	59976.23
559.97	60060.49
560.13	59962.18
560.30	59760.90
560.46	60212.62
560.63	60111.98
560.79	60060.49
560.96	60095.60
561.12	60142.41
561.29	59980.91
561.45	60046.44
561.61	60046.44
561.78	59983.25
561.94	60210.28
562.11	60102.62
562.27	60292.20
562.44	60243.05
562.60	60060.49
562.77	60329.65
562.93	60013.68
563.10	60214.96
563.26	60121.34
563.42	60376.46
563.59	60367.10
563.75	60151.77
563.92	60229.01
564.08	60371.78
564.24	60397.52
564.41	60353.05
564.57	60362.42
564.74	60200.92
564.90	60339.01
565.07	60128.36
565.23	60516.89
565.39	60315.61
565.56	60526.25
565.72	60378.80
565.88	60587.11
566.05	60495.83
566.21	60193.90
566.38	60472.42
566.54	60577.75
566.70	60523.91
566.87	60713.50
567.03	60299.22
567.19	60821.16
567.36	60608.17
567.52	60521.57
567.68	60907.76
567.85	60420.93
568.01	60629.24
568.17	60584.77
568.34	60671.37
568.50	60563.70
568.66	60362.42
568.83	60544.98
568.99	60570.72
569.15	60610.51
569.32	60680.73
569.48	60458.38
569.64	60757.97
569.81	60797.76
569.97	60439.65
570.13	60657.32
570.30	60807.12
570.46	60692.43
570.62	60776.69
570.78	60669.03
570.95	60842.23
571.11	60755.63
571.27	60692.43
571.43	60919.46
571.60	60823.50
571.76	60762.65
571.92	60772.01
572.09	60907.76
572.25	60760.31
572.41	60650.30
572.57	60830.52
572.74	61078.62
572.90	60987.34
573.06	60746.26
573.22	60917.12
573.38	60786.05
573.55	60839.89
573.71	61205.01
573.87	60907.76
574.03	60917.12
574.20	60921.80
574.36	60870.31
574.52	61125.43
574.68	60994.36
574.84	61151.18
575.01	60970.96
575.17	60853.93
575.33	60970.96
575.49	61087.98
575.65	61041.17
575.82	61193.31
575.98	60966.27
576.14	61102.03
576.30	61111.39
576.46	60966.27
576.62	60966.27
576.79	61029.47
576.95	60781.37
577.11	61064.58
577.27	61010.74
577.43	61130.11
577.59	60949.89
577.75	60963.93
577.92	60905.42
578.08	61001.38
578.24	61050.53
578.40	61256.50
578.56	61244.80
578.72	61073.94
578.88	61312.67
579.04	61216.71
579.21	61167.56
579.37	61099.68
579.53	61214.37
579.69	60844.57
579.85	61092.66
580.01	61188.63
580.17	60940.53
580.33	61226.07
580.49	61207.35
580.65	61071.60
580.82	60989.68
580.98	61113.73
581.14	60889.04
581.30	61261.18
581.46	61364.17
581.62	61111.39
581.78	60893.72
581.94	61347.78
582.10	61153.52
582.26	61209.69
582.42	61176.92
582.58	61151.18
582.74	61050.53
582.90	61247.14
583.06	61013.08
583.22	60882.02
583.38	61420.34
583.54	61251.82
583.70	61272.88
583.86	61425.02
584.02	61179.26
584.18	61272.88
584.34	61085.64
584.50	61242.46
584.66	61165.22
584.82	60952.23
584.98	61317.35
585.14	61174.58
585.30	61183.94
585.46	61146.50
585.62	61017.77
585.78	61324.38
585.94	61123.09
586.10	61387.57
586.26	61146.50
586.42	61378.21
586.58	61345.44
586.74	61272.88
586.90	61293.95
587.06	61179.26
587.22	61324.38
587.38	61256.50
587.54	61588.86
587.70	61588.86
587.86	61441.40
588.02	61448.42
588.18	61485.87
588.34	61183.94
588.49	61277.57
