SpectraSuite Data File
++++++++++++++++++++++++++++++++++++
Date: Fri Oct 25 10:47:43 EDT 2013
User: price-jones
Dark Spectrum Present: No
Reference Spectrum Present: No
Number of Sampled Component Spectra: 1
Spectrometers: USB2+H05261
Integration Time (usec): 100000 (USB2+H05261)
Spectra Averaged: 1 (USB2+H05261)
Boxcar Smoothing: 0 (USB2+H05261)
Correct for Electrical Dark: No (USB2+H05261)
Strobe/Lamp Enabled: No (USB2+H05261)
Correct for Detector Non-linearity: No (USB2+H05261)
Correct for Stray Light: No (USB2+H05261)
Number of Pixels in Processed Spectrum: 2048
>>>>>Begin Processed Spectral Data<<<<<
365.73	121.71
365.92	121.71
366.12	121.71
366.32	105.32
366.52	0.00
366.72	91.28
366.91	114.69
367.11	30.43
367.31	25.75
367.51	0.00
367.70	63.19
367.90	86.60
368.10	18.72
368.30	11.70
368.49	100.64
368.69	23.41
368.89	16.38
369.09	9.36
369.28	0.00
369.48	51.49
369.68	53.83
369.87	121.71
370.07	28.09
370.27	168.52
370.47	187.24
370.66	365.12
370.86	430.66
371.06	407.25
371.25	475.13
371.45	479.81
371.65	409.59
371.84	465.77
372.04	418.96
372.24	528.96
372.44	482.15
372.63	428.32
372.83	507.90
373.03	449.38
373.22	496.19
373.42	454.06
373.62	514.92
373.81	496.19
374.01	482.15
374.21	540.66
374.40	526.62
374.60	580.45
374.79	596.84
374.99	634.29
375.19	638.97
375.38	582.79
375.58	526.62
375.78	521.94
375.97	533.64
376.17	664.71
376.37	575.77
376.56	608.54
376.76	528.96
376.95	566.41
377.15	613.22
377.35	624.92
377.54	587.47
377.74	535.98
377.93	571.09
378.13	545.34
378.33	653.01
378.52	615.56
378.72	566.41
378.91	657.69
379.11	624.92
379.31	585.13
379.50	557.05
379.70	650.67
379.89	610.88
380.09	650.67
380.28	657.69
380.48	601.52
380.68	582.79
380.87	657.69
381.07	732.59
381.26	730.25
381.46	645.99
381.65	655.35
381.85	641.31
382.04	713.86
382.24	720.88
382.43	718.54
382.63	660.03
382.83	770.04
383.02	725.57
383.22	671.73
383.41	711.52
383.61	709.18
383.80	779.40
384.00	835.57
384.19	760.67
384.39	727.91
384.58	746.63
384.78	814.51
384.97	812.17
385.17	800.46
385.36	730.25
385.56	760.67
385.75	767.70
385.95	737.27
386.14	774.72
386.34	767.70
386.53	798.12
386.72	770.04
386.92	858.98
387.11	786.42
387.31	917.49
387.50	800.46
387.70	760.67
387.89	866.00
388.09	774.72
388.28	805.14
388.48	840.25
388.67	807.48
388.86	891.74
389.06	858.98
389.25	898.77
389.45	973.66
389.64	936.21
389.84	861.32
390.03	896.43
390.22	990.05
390.42	964.30
390.61	828.55
390.81	1015.79
391.00	884.72
391.19	985.37
391.39	968.98
391.58	924.51
391.78	1015.79
391.97	898.77
392.16	945.58
392.36	1086.01
392.55	983.02
392.75	1015.79
392.94	896.43
393.13	926.85
393.33	954.94
393.52	976.00
393.71	1100.05
393.91	1034.52
394.10	1050.90
394.29	1067.28
394.49	1057.92
394.68	1146.86
394.88	1100.05
395.07	1025.15
395.26	1132.82
395.46	1048.56
395.65	1090.69
395.84	1221.76
396.04	1151.54
396.23	1050.90
396.42	1043.88
396.62	1071.97
396.81	1100.05
397.00	1071.97
397.19	1125.80
397.39	1233.46
397.58	1144.52
397.77	1181.97
397.97	1235.80
398.16	1240.48
398.35	1270.91
398.55	1205.38
398.74	1282.61
398.93	1324.74
399.12	1275.59
399.32	1282.61
399.51	1263.89
399.70	1409.00
399.90	1315.38
400.09	1425.39
400.28	1493.26
400.47	1383.26
400.67	1500.28
400.86	1444.11
401.05	1364.53
401.24	1493.26
401.44	1500.28
401.63	1521.35
401.82	1507.30
402.01	1540.07
402.21	1481.56
402.40	1504.96
402.59	1502.62
402.78	1504.96
402.97	1563.48
403.17	1596.25
403.36	1458.15
403.55	1540.07
403.74	1612.63
403.93	1614.97
404.13	1624.33
404.32	1650.08
404.51	1607.95
404.70	1696.89
404.89	1687.53
405.09	1727.32
405.28	1636.03
405.47	1708.59
405.66	1771.79
405.85	1785.83
406.05	1781.15
406.24	1760.08
406.43	1762.42
406.62	1783.49
406.81	1895.83
407.00	1760.08
407.20	1781.15
407.39	1816.26
407.58	1872.43
407.77	1954.35
407.96	2010.52
408.15	2094.78
408.34	1809.23
408.54	1933.28
408.73	1959.03
408.92	1966.05
409.11	2108.82
409.30	2003.50
409.49	2003.50
409.68	2132.23
409.87	2012.86
410.07	2052.65
410.26	2118.18
410.45	2122.87
410.64	2165.00
410.83	2139.25
411.02	2218.83
411.21	2244.57
411.40	2127.55
411.59	2242.23
411.78	2310.11
411.98	2270.32
412.17	2326.49
412.36	2237.55
412.55	2401.39
412.74	2406.07
412.93	2387.35
413.12	2387.35
413.31	2471.61
413.50	2422.45
413.69	2450.54
413.88	2593.31
414.07	2572.25
414.26	2593.31
414.45	2562.89
414.64	2593.31
414.83	2672.89
415.02	2654.17
415.22	2682.25
415.41	2813.32
415.60	2834.39
415.79	2715.02
415.98	2810.98
416.17	2871.84
416.36	2874.18
416.55	2794.60
416.74	2738.43
416.93	2960.78
417.12	2764.17
417.31	2928.01
417.50	3009.93
417.69	3042.70
417.88	3096.53
418.07	3038.02
418.26	2979.50
418.45	3045.04
418.64	3176.11
418.83	3129.30
419.02	3038.02
419.21	3288.45
419.39	3234.62
419.58	3131.64
419.77	3169.09
419.96	3337.60
420.15	3304.84
420.34	3274.41
420.53	3358.67
420.72	3459.31
420.91	3349.31
421.10	3499.10
421.29	3309.52
421.48	3365.69
421.67	3379.73
421.86	3279.09
422.05	3316.54
422.24	3473.36
422.43	3351.65
422.61	3417.18
422.80	3478.04
422.99	3398.46
423.18	3379.73
423.37	3529.53
423.56	3445.27
423.75	3552.93
423.94	3531.87
424.13	3279.09
424.32	3393.78
424.50	3520.17
424.69	3456.97
424.88	3569.32
425.07	3478.04
425.26	3361.01
425.45	3452.29
425.64	3489.74
425.83	3524.85
426.01	3438.25
426.20	3634.85
426.39	3536.55
426.58	3576.34
426.77	3691.02
426.96	3466.33
427.15	3674.64
427.33	3662.94
427.52	3669.96
427.71	3672.30
427.90	3735.50
428.09	3686.34
428.28	3763.58
428.46	3925.08
428.65	3786.99
428.84	3857.20
429.03	3824.44
429.22	3714.43
429.40	3859.54
429.59	3597.40
429.78	3623.15
429.97	3709.75
430.16	3789.33
430.34	3688.68
430.53	3733.15
430.72	3906.35
430.91	3822.09
431.10	3925.08
431.28	4035.08
431.47	4063.17
431.66	4227.01
431.85	4044.45
432.03	4014.02
432.22	4252.75
432.41	4126.36
432.60	4124.02
432.79	4163.81
432.97	4198.92
433.16	4189.56
433.35	4222.33
433.54	4135.73
433.72	4255.09
433.91	4346.37
434.10	4248.07
434.28	4238.71
434.47	4372.12
434.66	4355.74
434.85	4348.72
435.03	4475.10
435.22	4397.87
435.41	4655.33
435.59	4505.53
435.78	4369.78
435.97	4540.64
436.16	4676.39
436.34	4489.15
436.53	4568.73
436.72	4629.58
436.90	4531.28
437.09	4709.16
437.28	4592.13
437.46	4760.65
437.65	4566.39
437.84	4690.43
438.02	4863.63
438.21	4622.56
438.40	4601.49
438.58	4880.02
438.77	4821.50
438.96	4835.55
439.14	4922.15
439.33	4973.64
439.52	4987.68
439.70	5186.63
439.89	5158.54
440.08	5181.95
440.26	5184.29
440.45	4971.30
440.63	5305.99
440.82	5343.44
441.01	5076.62
441.19	5556.43
441.38	5294.29
441.57	5376.21
441.75	5570.48
441.94	5596.22
442.12	5586.86
442.31	5624.31
442.50	5537.71
442.68	5638.35
442.87	5619.63
443.05	5647.71
443.24	5788.14
443.43	5636.01
443.61	5764.74
443.80	5895.81
443.98	5577.50
444.17	5558.77
444.35	5582.18
444.54	5877.09
444.73	5809.21
444.91	5755.38
445.10	5654.73
445.28	5781.12
445.47	5874.74
445.65	5771.76
445.84	5661.76
446.02	5858.36
446.21	5849.00
446.39	5818.57
446.58	5947.30
446.77	5879.43
446.95	5942.62
447.14	5912.19
447.32	5874.74
447.51	6005.81
447.69	6038.58
447.88	5879.43
448.06	5834.96
448.25	6015.18
448.43	5898.15
448.62	6012.84
448.80	5909.85
448.99	6087.73
449.17	5994.11
449.36	6087.73
449.54	6230.51
449.73	6342.85
449.91	6270.30
450.10	6403.71
450.28	6359.24
450.46	6305.40
450.65	6335.83
450.83	6293.70
451.02	6317.11
451.20	6328.81
451.39	6307.74
451.57	6286.68
451.76	6300.72
451.94	6583.93
452.13	6541.80
452.31	6307.74
452.49	6324.13
452.68	6469.24
452.86	6429.45
453.05	6590.95
453.23	6656.48
453.42	6569.88
453.60	6249.23
453.78	6691.59
453.97	6469.24
454.15	6576.91
454.34	6534.78
454.52	6745.42
454.70	6864.79
454.89	6768.83
455.07	6602.65
455.26	6832.02
455.44	6918.62
455.62	6773.51
455.81	6988.84
455.99	6946.71
456.17	6726.70
456.36	6839.05
456.54	6984.16
456.73	7166.72
456.91	7239.28
457.09	7206.51
457.28	7414.82
457.46	7070.76
457.64	7143.32
457.83	7110.55
458.01	7077.78
458.19	7470.99
458.38	7356.30
458.56	7328.22
458.74	7358.64
458.93	7466.31
459.11	7461.63
459.29	7433.54
459.48	7391.41
459.66	7440.56
459.84	7487.37
460.03	7662.91
460.21	7611.42
460.39	7478.01
460.57	7410.14
460.76	7452.27
460.94	7618.44
461.12	7793.98
461.31	7709.72
461.49	7536.52
461.67	7798.66
461.85	7772.92
462.04	7676.96
462.22	8271.45
462.40	7950.80
462.59	8011.65
462.77	7969.52
462.95	8109.96
463.13	8049.10
463.32	8021.02
463.50	8116.98
463.68	7999.95
463.86	8028.04
464.05	7819.73
464.23	8011.65
464.41	7981.23
464.59	8025.70
464.78	8091.23
464.96	8203.58
465.14	8032.72
465.32	8292.52
465.50	8102.93
465.69	8322.94
465.87	8234.00
466.05	8273.79
466.23	8248.05
466.41	8362.73
466.60	8475.08
466.78	8098.25
466.96	8250.39
467.14	8461.04
467.32	8435.29
467.51	8580.40
467.69	8477.42
467.87	8351.03
468.05	8685.73
468.23	8545.30
468.41	8442.31
468.60	8484.44
468.78	8430.61
468.96	8526.57
469.14	8727.86
469.32	8777.01
469.50	8500.83
469.69	8798.07
469.87	8748.92
470.05	8884.67
470.23	8727.86
470.41	8999.36
470.59	8964.25
470.77	8844.88
470.95	9043.83
471.14	9111.71
471.32	8823.82
471.50	9149.15
471.68	9247.46
471.86	9275.54
472.04	9259.16
472.22	9731.95
472.40	9411.29
472.58	9310.65
472.77	9315.33
472.95	9685.14
473.13	9610.24
473.31	9521.30
473.49	9535.34
473.67	9408.95
473.85	9617.26
474.03	9851.31
474.21	9973.02
474.39	10298.36
474.57	9928.55
474.75	10043.24
474.93	10080.69
475.12	9982.38
475.30	10115.80
475.48	10127.50
475.66	10190.69
475.84	9968.34
476.02	10321.76
476.20	10497.30
476.38	10525.39
476.56	10923.28
476.74	10661.14
476.92	10808.59
477.10	10689.23
477.28	10944.34
477.46	10801.57
477.64	10920.94
477.82	11185.42
478.00	11489.69
478.18	11330.53
478.36	11482.67
478.54	11330.53
478.72	11332.87
478.90	11604.38
479.08	11712.04
479.26	11742.47
479.44	11775.24
479.62	11903.96
479.80	12067.80
479.98	12121.63
480.16	12451.65
480.34	12292.49
480.52	12351.01
480.70	12594.42
480.88	12374.41
481.06	12610.81
481.24	12475.06
481.41	12835.50
481.59	13020.40
481.77	13163.17
481.95	12936.14
482.13	12856.56
482.31	13153.81
482.49	13179.56
482.67	13682.77
482.85	13479.15
483.03	13427.65
483.21	13839.59
483.39	13724.90
483.57	14092.37
483.74	14047.90
483.92	13832.57
484.10	14092.37
484.28	14295.99
484.46	14448.13
484.64	14949.00
484.82	14305.35
485.00	14658.78
485.18	14895.17
485.35	15059.01
485.53	14941.98
485.71	15016.88
485.89	15286.04
486.07	15098.80
486.25	15295.40
486.43	15543.50
486.61	15754.15
486.78	15733.08
486.96	16121.61
487.14	15859.47
487.32	15880.53
487.50	16472.69
487.68	16365.03
487.85	16727.81
488.03	16734.83
488.21	16996.97
488.39	16978.25
488.57	17043.78
488.75	17114.00
488.92	17563.38
489.10	17769.35
489.28	17408.90
489.46	17743.60
489.64	17724.88
489.81	18115.75
489.99	18249.16
490.17	18216.39
490.35	18670.45
490.53	18443.42
490.70	18530.02
490.88	18548.75
491.06	18998.13
491.24	18979.40
491.41	19040.26
491.59	19089.41
491.77	18963.02
491.95	19487.30
492.13	19475.60
492.30	19803.27
492.48	19906.26
492.66	20156.69
492.84	19775.19
493.01	20114.56
493.19	20105.20
493.37	20020.94
493.54	20194.14
493.72	20629.48
493.90	20655.23
494.08	20964.18
494.25	21254.40
494.43	21123.33
494.61	21436.97
494.79	21113.97
494.96	20975.88
495.14	21446.33
495.32	21652.30
495.49	21649.96
495.67	21879.33
495.85	22120.40
496.02	22230.41
496.20	22218.71
496.38	22047.85
496.55	22471.48
496.73	22824.90
496.91	22466.80
497.09	22684.47
497.26	22731.28
497.44	23157.26
497.62	23218.11
497.79	23494.30
497.97	23075.34
498.14	22967.68
498.32	23592.60
498.50	23644.09
498.67	23761.12
498.85	23482.59
499.03	24116.88
499.20	24112.20
499.38	23992.83
499.56	24250.29
499.73	24016.24
499.91	24407.11
500.08	24556.90
500.26	24219.86
500.44	24907.98
500.61	24458.60
500.79	24531.15
500.97	24807.34
501.14	25240.34
501.32	24774.57
501.49	24753.51
501.67	25481.41
501.84	25179.48
502.02	25462.69
502.20	25497.80
502.37	25539.93
502.55	25184.16
502.72	25696.74
502.90	25715.47
503.07	25872.28
503.25	25626.53
503.43	25954.20
503.60	26132.08
503.78	26244.43
503.95	26029.10
504.13	25965.90
504.30	26675.09
504.48	26590.83
504.65	26597.85
504.83	26642.32
505.01	26967.65
505.18	26670.40
505.36	27372.57
505.53	27215.75
505.71	27300.01
505.88	27414.69
506.06	26925.52
506.23	27510.66
506.41	27475.55
506.58	27475.55
506.76	27538.74
506.93	27353.84
507.11	27412.35
507.28	28077.07
507.46	27543.42
507.63	27960.04
507.81	28032.60
507.98	27791.52
508.16	28023.23
508.33	28264.31
508.50	28215.16
508.68	28542.83
508.85	28931.36
509.03	28615.39
509.20	28781.57
509.38	29156.05
509.55	28699.65
509.73	29167.76
509.90	28718.37
510.08	29036.69
510.25	29048.39
510.42	29336.27
510.60	29301.17
510.77	29142.01
510.95	29425.22
511.12	29481.39
511.30	29610.12
511.47	29956.52
511.64	29979.92
511.82	30096.95
511.99	30068.86
512.17	29935.45
512.34	29834.81
512.51	30356.75
512.69	30532.29
512.86	30452.71
513.04	30955.93
513.21	30546.33
513.38	30433.99
513.56	30682.08
513.73	30642.29
513.90	30866.98
514.08	30597.82
514.25	31012.10
514.43	30644.63
514.60	30979.33
514.77	30939.54
514.95	31449.78
515.12	31213.38
515.29	31424.03
515.47	31576.17
515.64	31711.92
515.81	31424.03
515.99	31519.99
516.16	31639.36
516.33	31421.69
516.51	31583.19
516.68	31351.48
516.85	31730.64
517.03	31777.45
517.20	31676.81
517.37	31721.28
517.54	32259.60
517.72	32184.71
517.89	32072.36
518.06	31896.82
518.24	31737.66
518.41	32063.00
518.58	31770.43
518.75	32336.84
518.93	32481.95
519.10	32290.03
519.27	32620.05
519.45	32802.61
519.62	32765.16
519.79	33064.75
519.96	33088.15
520.14	33525.83
520.31	33064.75
520.48	33329.23
520.65	33214.54
520.83	33530.51
521.00	33535.20
521.17	33223.90
521.34	33596.05
521.52	33804.36
521.69	33766.91
521.86	33652.22
522.03	33949.47
522.20	33858.19
522.38	33970.54
522.55	34242.04
522.72	34015.01
522.89	33722.44
523.07	34422.26
523.24	33647.54
523.41	34689.08
523.58	34277.15
523.75	34948.88
523.92	34480.77
524.10	34780.36
524.27	34632.91
524.44	34829.51
524.61	35112.72
524.78	35306.98
524.96	35164.21
525.13	35211.02
525.30	35112.72
525.47	35185.27
525.64	35330.39
525.81	35112.72
525.98	35325.71
526.16	35377.20
526.33	34873.98
526.50	35756.36
526.67	35138.46
526.84	35379.54
527.01	35084.63
527.18	35875.73
527.36	35711.89
527.53	36098.08
527.70	36187.02
527.87	36046.59
528.04	35424.01
528.21	36025.53
528.38	35941.27
528.55	35803.17
528.72	36545.12
528.89	36575.55
529.07	36760.45
529.24	36311.07
529.41	36683.22
529.58	36086.38
529.75	36231.49
529.92	36669.17
530.09	36711.30
530.26	36776.84
530.43	36865.78
530.60	36638.75
530.77	37132.60
530.94	36961.74
531.11	36905.57
531.28	37038.98
531.46	37188.77
531.63	37022.59
531.80	36914.93
531.97	37179.41
532.14	37163.03
532.31	36603.64
532.48	37003.87
532.65	37275.37
532.82	37560.92
532.99	37507.08
533.16	37010.89
533.33	37188.77
533.50	37453.25
533.67	37666.24
533.84	37511.77
534.01	37652.20
534.18	37865.19
534.35	38139.03
534.52	38188.18
534.69	37968.17
534.86	38234.99
535.03	38129.67
535.20	38134.35
535.37	38728.84
535.54	38373.08
535.71	38361.38
535.88	38106.26
536.05	38431.60
536.22	38206.90
536.38	38569.69
536.55	38234.99
536.72	38670.33
536.89	38134.35
537.06	38251.38
537.23	38660.97
537.40	38541.60
537.57	38766.29
537.74	38550.96
537.91	39220.36
538.08	39077.58
538.25	38387.13
538.42	38878.64
538.59	38986.30
538.75	38511.17
538.92	39009.71
539.09	39168.87
539.26	38983.96
539.43	39597.18
539.60	39117.37
539.77	39210.99
539.94	39084.61
540.11	39068.22
540.28	38981.62
540.44	39250.78
540.61	39210.99
540.78	39374.83
540.95	39543.35
541.12	39365.47
541.29	39461.43
541.46	39363.13
541.62	39643.99
541.79	40105.08
541.96	39660.38
542.13	39718.89
542.30	39552.71
542.47	39887.41
542.63	39707.19
542.80	40268.92
542.97	40212.74
543.14	40432.75
543.31	40446.80
543.48	40645.74
543.64	40840.01
543.81	40591.91
543.98	40505.31
544.15	40135.51
544.32	40498.29
544.48	40629.36
544.65	41123.21
544.82	40676.17
544.99	40147.21
545.16	41008.53
545.32	40502.97
545.49	41074.06
545.66	40711.28
545.83	41226.20
546.00	41120.87
546.16	41177.04
546.33	41067.04
546.50	40442.12
546.67	40849.37
546.83	40177.64
547.00	41177.04
547.17	40790.86
547.34	40891.50
547.50	41268.33
547.67	41656.85
547.84	40816.60
548.00	41273.01
548.17	41481.31
548.34	41448.55
548.51	41701.32
548.67	41551.53
548.84	41553.87
549.01	41701.32
549.18	41626.43
549.34	42073.47
549.51	42021.98
549.68	41794.95
549.84	41565.57
550.01	42052.41
550.18	41778.56
550.34	42057.09
550.51	41588.98
550.68	41801.97
550.84	41591.32
551.01	42139.00
551.18	41954.10
551.34	42117.94
551.51	42209.22
551.68	42480.72
551.84	42511.15
552.01	42202.20
552.18	42164.75
552.34	41738.77
552.51	42597.75
552.68	42218.58
552.84	42628.18
553.01	42564.98
553.18	42501.79
553.34	42232.63
553.51	42454.98
553.67	42394.12
553.84	42635.20
554.01	42653.92
554.17	42611.79
554.34	42995.64
554.51	42347.31
554.67	43005.00
554.84	42464.34
555.00	42403.49
555.17	42394.12
555.33	42731.16
555.50	42843.51
555.67	42518.17
555.83	42906.70
556.00	43115.01
556.16	43091.60
556.33	43089.26
556.50	42845.85
556.66	43112.67
556.83	42843.51
556.99	43117.35
557.16	43014.37
557.32	43044.79
557.49	43377.15
557.65	42667.97
557.82	42953.51
557.98	43234.38
558.15	43206.29
558.32	43337.36
558.48	42997.98
558.65	42920.74
558.81	42955.85
558.98	43173.52
559.14	43225.01
559.31	43313.95
559.47	42913.72
559.64	43461.41
559.80	43728.23
559.97	43524.60
560.13	43302.25
560.30	43208.63
560.46	43409.92
560.63	43489.49
560.79	43728.23
560.96	43445.02
561.12	43498.86
561.29	43545.67
561.45	43812.49
561.61	43742.27
561.78	43393.53
561.94	43433.32
562.11	43871.00
562.27	43473.11
562.44	43538.65
562.60	44032.50
562.77	43676.74
562.93	43742.27
563.10	43695.46
563.26	43531.62
563.42	43931.86
563.59	43332.68
563.75	43852.28
563.92	43835.89
564.08	44032.50
564.24	44058.24
564.41	44126.12
564.57	43660.35
564.74	43599.50
564.90	44261.87
565.07	44128.46
565.23	44039.52
565.39	43700.14
565.56	44697.21
565.72	43959.94
565.88	43819.51
566.05	44023.14
566.21	43828.87
566.38	43814.83
566.54	43908.45
566.70	44046.54
566.87	44641.04
567.03	44409.32
567.19	44294.64
567.36	44264.21
567.52	43768.02
567.68	44425.71
567.85	44065.27
568.01	43856.96
568.17	44184.63
568.34	44299.32
568.50	44069.95
568.66	44020.80
568.83	44418.69
568.99	43662.69
569.15	43789.08
569.32	44133.14
569.48	44357.83
569.64	44133.14
569.81	44318.04
569.97	44133.14
570.13	44357.83
570.30	43842.92
570.46	43929.51
570.62	43927.17
570.78	44107.40
570.95	44205.70
571.11	44435.07
571.27	44271.23
571.43	44217.40
571.60	44411.67
571.76	44116.76
571.92	43894.41
572.09	44367.20
572.25	44243.15
572.41	44205.70
572.57	44271.23
572.74	44657.42
572.90	44142.50
573.06	44439.75
573.22	44137.82
573.38	44416.35
573.55	44299.32
573.71	44446.77
573.87	44205.70
574.03	43690.78
574.20	44348.47
574.36	44004.41
574.52	44692.53
574.68	44388.26
574.84	44149.53
575.01	44357.83
575.17	44161.23
575.33	44154.21
575.49	43983.35
575.65	44741.68
575.82	44758.06
575.98	44254.85
576.14	44807.22
576.30	44404.64
576.46	44121.44
576.62	44432.73
576.79	44158.89
576.95	44161.23
577.11	44271.23
577.27	44601.25
577.43	44292.30
577.59	44062.93
577.75	44502.95
577.92	44313.36
578.08	44404.64
578.24	44170.59
578.40	44210.38
578.56	44343.79
578.72	44439.75
578.88	44458.48
579.04	44804.88
579.21	44657.42
579.37	44299.32
579.53	44315.70
579.69	44114.42
579.85	44566.14
580.01	45076.38
580.17	44369.54
580.33	44882.11
580.49	44573.16
580.65	44678.49
580.82	44678.49
580.98	44746.36
581.14	44626.99
581.30	44793.17
581.46	44479.54
581.62	44631.68
581.78	44449.11
581.94	44556.78
582.10	44582.52
582.26	44816.58
582.42	45067.02
582.58	44493.58
582.74	44411.67
582.90	44905.52
583.06	44774.45
583.22	44849.35
583.38	44568.48
583.54	44425.71
583.70	44715.93
583.86	44402.30
584.02	44402.30
584.18	44430.39
584.34	44692.53
584.50	44961.69
584.66	44182.29
584.82	44968.71
584.98	44790.83
585.14	45102.12
585.30	44442.09
585.46	44552.10
585.62	44308.68
585.78	44428.05
585.94	44327.41
586.10	44589.55
586.26	44449.11
586.42	44898.50
586.58	45038.93
586.74	44938.29
586.90	44957.01
587.06	44346.13
587.22	44624.65
587.38	44535.71
587.54	44893.82
587.70	44526.35
587.86	45251.92
588.02	44793.17
588.18	44905.52
588.34	44243.15
588.49	44332.09
588.65	44346.13
588.81	44423.37
588.97	44596.57
589.13	44470.18
589.29	44776.79
589.45	44746.36
589.61	44786.15
589.77	45261.28
589.93	44870.41
590.08	44617.63
590.24	44959.35
