SpectraSuite Data File
++++++++++++++++++++++++++++++++++++
Date: Fri Oct 25 10:44:22 EDT 2013
User: price-jones
Dark Spectrum Present: No
Reference Spectrum Present: No
Number of Sampled Component Spectra: 1
Spectrometers: USB2+H05261
Integration Time (usec): 100000 (USB2+H05261)
Spectra Averaged: 1 (USB2+H05261)
Boxcar Smoothing: 0 (USB2+H05261)
Correct for Electrical Dark: No (USB2+H05261)
Strobe/Lamp Enabled: No (USB2+H05261)
Correct for Detector Non-linearity: No (USB2+H05261)
Correct for Stray Light: No (USB2+H05261)
Number of Pixels in Processed Spectrum: 2048
>>>>>Begin Processed Spectral Data<<<<<
365.73	117.03
365.92	117.03
366.12	117.03
366.32	93.62
366.52	67.88
366.72	84.26
366.91	18.72
367.11	49.15
367.31	9.36
367.51	0.00
367.70	74.90
367.90	39.79
368.10	0.00
368.30	42.13
368.49	100.64
368.69	42.13
368.89	49.15
369.09	67.88
369.28	81.92
369.48	25.75
369.68	128.73
369.87	110.01
370.07	37.45
370.27	72.56
370.47	212.99
370.66	397.89
370.86	463.43
371.06	376.83
371.25	503.22
371.45	458.74
371.65	458.74
371.84	440.02
372.04	498.53
372.24	500.87
372.44	510.24
372.63	554.71
372.83	543.00
373.03	512.58
373.22	468.11
373.42	489.17
373.62	629.60
373.81	554.71
374.01	524.28
374.21	524.28
374.40	610.88
374.60	592.16
374.79	533.64
374.99	568.75
375.19	676.41
375.38	662.37
375.58	648.33
375.78	662.37
375.97	601.52
376.17	709.18
376.37	552.37
376.56	664.71
376.76	531.30
376.95	634.29
377.15	650.67
377.35	676.41
377.54	657.69
377.74	620.24
377.93	655.35
378.13	671.73
378.33	739.61
378.52	671.73
378.72	664.71
378.91	662.37
379.11	674.07
379.31	692.80
379.50	638.97
379.70	699.82
379.89	711.52
380.09	631.94
380.28	645.99
380.48	734.93
380.68	669.39
380.87	732.59
381.07	671.73
381.26	774.72
381.46	755.99
381.65	770.04
381.85	678.76
382.04	711.52
382.24	788.76
382.43	791.10
382.63	667.05
382.83	784.08
383.02	802.80
383.22	734.93
383.41	683.44
383.61	760.67
383.80	763.01
384.00	880.04
384.19	755.99
384.39	828.55
384.58	793.44
384.78	828.55
384.97	807.48
385.17	863.66
385.36	758.33
385.56	727.91
385.75	725.57
385.95	786.42
386.14	912.81
386.34	875.36
386.53	1025.15
386.72	861.32
386.92	922.17
387.11	978.34
387.31	940.90
387.50	903.45
387.70	952.60
387.89	854.30
388.09	950.26
388.28	950.26
388.48	926.85
388.67	924.51
388.86	985.37
389.06	978.34
389.25	1020.47
389.45	1050.90
389.64	1006.43
389.84	1004.09
390.03	985.37
390.22	1069.62
390.42	1015.79
390.61	1060.26
390.81	1081.33
391.00	1111.75
391.19	1074.31
391.39	1069.62
391.58	1064.94
391.78	1069.62
391.97	1055.58
392.16	1137.50
392.36	1102.39
392.55	1011.11
392.75	1057.92
392.94	1060.26
393.13	1041.54
393.33	1013.45
393.52	1170.27
393.71	1139.84
393.91	1156.22
394.10	1118.78
394.29	1109.41
394.49	1217.08
394.68	1284.95
394.88	1282.61
395.07	1242.82
395.26	1331.76
395.46	1287.29
395.65	1341.13
395.84	1242.82
396.04	1261.55
396.23	1205.38
396.42	1156.22
396.62	1240.48
396.81	1249.85
397.00	1270.91
397.19	1308.36
397.39	1448.79
397.58	1394.96
397.77	1355.17
397.97	1455.81
398.16	1481.56
398.35	1551.78
398.55	1472.20
398.74	1558.80
398.93	1542.41
399.12	1612.63
399.32	1565.82
399.51	1673.48
399.70	1610.29
399.90	1624.33
400.09	1631.35
400.28	1633.69
400.47	1600.93
400.67	1720.29
400.86	1713.27
401.05	1666.46
401.24	1746.04
401.44	1774.13
401.63	1783.49
401.82	1872.43
402.01	1788.17
402.21	1802.21
402.40	1914.56
402.59	1781.15
402.78	1900.52
402.97	1844.34
403.17	1877.11
403.36	1818.60
403.55	1891.15
403.74	1905.20
403.93	1893.49
404.13	1902.86
404.32	1853.70
404.51	1919.24
404.70	2071.37
404.89	2017.54
405.09	2052.65
405.28	2064.35
405.47	2010.52
405.66	2054.99
405.85	1987.11
406.05	2125.21
406.24	2153.29
406.43	2012.86
406.62	2267.98
406.81	2246.91
407.00	2169.68
407.20	2129.89
407.39	2200.10
407.58	2303.09
407.77	2263.30
407.96	2265.64
408.15	2242.23
408.34	2349.90
408.54	2373.30
408.73	2296.07
408.92	2530.12
409.11	2399.05
409.30	2478.63
409.49	2338.20
409.68	2401.39
409.87	2293.72
410.07	2413.09
410.26	2448.20
410.45	2424.80
410.64	2558.21
410.83	2574.59
411.02	2506.71
411.21	2686.94
411.40	2630.76
411.59	2703.32
411.78	2663.53
411.98	2715.02
412.17	2827.37
412.36	2773.53
412.55	2839.07
412.74	2829.71
412.93	2970.14
413.12	2799.28
413.31	2930.35
413.50	2878.86
413.69	3028.65
413.88	2974.82
414.07	2881.20
414.26	3021.63
414.45	3126.96
414.64	3124.62
414.83	3101.21
415.02	3185.47
415.22	3194.83
415.41	3335.26
415.60	3166.74
415.79	3353.99
415.98	3318.88
416.17	3321.22
416.36	3281.43
416.55	3286.11
416.74	3358.67
416.93	3281.43
417.12	3265.05
417.31	3543.57
417.50	3419.52
417.69	3562.30
417.88	3538.89
418.07	3510.80
418.26	3613.79
418.45	3590.38
418.64	3688.68
418.83	3662.94
419.02	3606.77
419.21	3850.18
419.39	3686.34
419.58	3527.19
419.77	3688.68
419.96	3801.03
420.15	3824.44
420.34	3758.90
420.53	3810.39
420.72	3981.25
420.91	3854.86
421.10	4084.23
421.29	4049.13
421.48	4004.66
421.67	4023.38
421.86	4023.38
422.05	4042.11
422.24	3803.37
422.43	3796.35
422.61	4021.04
422.80	4023.38
422.99	4046.79
423.18	4060.83
423.37	4060.83
423.56	4088.92
423.75	4025.72
423.94	3904.01
424.13	3817.41
424.32	3929.76
424.50	4002.32
424.69	4119.34
424.88	4088.92
425.07	4112.32
425.26	3971.89
425.45	3962.53
425.64	4107.64
425.83	4058.49
426.01	4175.52
426.20	4067.85
426.39	4138.07
426.58	4004.66
426.77	4058.49
426.96	4084.23
427.15	4112.32
427.33	4142.75
427.52	4191.90
427.71	4243.39
427.90	4283.18
428.09	4337.01
428.28	4297.22
428.46	4358.08
428.65	4325.31
428.84	4367.44
429.03	4421.27
429.22	4191.90
429.40	4219.99
429.59	4395.53
429.78	4117.00
429.97	4063.17
430.16	4070.19
430.34	4236.37
430.53	4313.61
430.72	4456.38
430.91	4332.33
431.10	4414.25
431.28	4573.41
431.47	4741.93
431.66	4732.56
431.85	4739.58
432.03	4727.88
432.22	4863.63
432.41	4777.03
432.60	4880.02
432.79	4814.48
432.97	5022.79
433.16	4784.06
433.35	4671.71
433.54	4833.21
433.72	4880.02
433.91	4987.68
434.10	4851.93
434.28	4943.21
434.47	5018.11
434.66	5043.85
434.85	5074.28
435.03	5186.63
435.22	5095.35
435.41	5149.18
435.59	5158.54
435.78	5231.10
435.97	5181.95
436.16	5301.31
436.34	5495.58
436.53	5263.86
436.72	5460.47
436.90	5298.97
437.09	5341.10
437.28	5130.45
437.46	5277.91
437.65	5355.15
437.84	5362.17
438.02	5266.21
438.21	5427.70
438.40	5479.19
438.58	5472.17
438.77	5551.75
438.96	5589.20
439.14	5671.12
439.33	5776.44
439.52	5776.44
439.70	5921.56
439.89	5937.94
440.08	5933.26
440.26	5919.21
440.45	5767.08
440.63	6031.56
440.82	6333.49
441.01	6188.38
441.19	6338.17
441.38	6300.72
441.57	6249.23
441.75	6270.30
441.94	6436.47
442.12	6506.69
442.31	6548.82
442.50	6649.46
442.68	6417.75
442.87	6572.22
443.05	6544.14
443.24	6607.33
443.43	6558.18
443.61	6729.04
443.80	6731.38
443.98	6647.12
444.17	6443.49
444.35	6710.32
444.54	6857.77
444.73	6754.79
444.91	6686.91
445.10	6647.12
445.28	6747.76
445.47	6581.59
445.65	6834.36
445.84	6698.61
446.02	6768.83
446.21	6750.10
446.39	6775.85
446.58	6899.90
446.77	6951.39
446.95	6953.73
447.14	7045.01
447.32	7023.95
447.51	6794.58
447.69	6609.67
447.88	6815.64
448.06	6942.03
448.25	6967.77
448.43	6913.94
448.62	7019.27
448.80	7014.59
448.99	7119.91
449.17	7180.76
449.36	7108.21
449.54	7155.02
449.73	7283.75
449.91	7288.43
450.10	7302.47
450.28	7571.63
450.46	7482.69
450.65	7377.37
450.83	7499.08
451.02	7368.01
451.20	7595.04
451.39	7517.80
451.57	7480.35
451.76	7222.89
451.94	7445.24
452.13	7501.42
452.31	7585.68
452.49	7501.42
452.68	7349.28
452.86	7260.34
453.05	7749.51
453.23	7653.55
453.42	7585.68
453.60	7620.78
453.78	7646.53
453.97	7749.51
454.15	7557.59
454.34	7585.68
454.52	7761.22
454.70	7798.66
454.89	7819.73
455.07	7892.29
455.26	7866.54
455.44	7941.44
455.62	8189.53
455.81	7953.14
455.99	7985.91
456.17	8091.23
456.36	8077.19
456.54	8187.19
456.73	8128.68
456.91	8372.10
457.09	8500.83
457.28	8580.40
457.46	8353.37
457.64	8524.23
457.83	8278.47
458.01	8269.11
458.19	8620.19
458.38	8454.02
458.56	8493.80
458.74	8477.42
458.93	8671.68
459.11	8681.05
459.29	8519.55
459.48	8627.21
459.66	8341.67
459.84	8596.79
460.03	8671.68
460.21	8898.72
460.39	8650.62
460.57	8865.95
460.76	8842.54
460.94	8959.57
461.12	8919.78
461.31	8805.10
461.49	8985.32
461.67	8945.53
461.85	9097.66
462.04	9013.40
462.22	9165.54
462.40	9195.96
462.59	9198.31
462.77	9100.00
462.95	9411.29
463.13	9198.31
463.32	9214.69
463.50	9460.45
463.68	9336.40
463.86	9373.85
464.05	9135.11
464.23	9125.75
464.41	9256.82
464.59	9170.22
464.78	9451.08
464.96	9521.30
465.14	9404.27
465.32	9504.92
465.50	9530.66
465.69	9647.69
465.87	9434.70
466.05	9593.86
466.23	9385.55
466.41	9547.05
466.60	9951.96
466.78	9544.70
466.96	9685.14
467.14	9467.47
467.32	9600.88
467.51	9579.81
467.69	9675.77
467.87	9575.13
468.05	9834.93
468.23	9769.40
468.41	9729.61
468.60	9748.33
468.78	9982.38
468.96	9715.56
469.14	10061.96
469.32	10127.50
469.50	9966.00
469.69	10019.83
469.87	9949.62
470.05	10218.78
470.23	10080.69
470.41	9905.15
470.59	10113.45
470.77	10113.45
470.95	10338.15
471.14	10310.06
471.32	10211.76
471.50	10656.46
471.68	10504.32
471.86	10644.76
472.04	10705.61
472.22	10951.37
472.40	10492.62
472.58	10644.76
472.77	10871.79
472.95	10960.73
473.13	11066.05
473.31	10869.45
473.49	10930.30
473.67	10899.87
473.85	11091.80
474.03	11328.19
474.21	11410.11
474.39	11297.77
474.57	11459.26
474.75	11417.13
474.93	11529.48
475.12	11426.50
475.30	11599.70
475.48	11541.18
475.66	11646.51
475.84	11477.99
476.02	11861.84
476.20	11843.11
476.38	11868.86
476.56	12269.09
476.74	12152.06
476.92	12065.46
477.10	12191.85
477.28	12388.46
477.46	12470.37
477.64	12582.72
477.82	12739.54
478.00	12699.75
478.18	12912.74
478.36	13039.12
478.54	13184.24
478.72	13165.51
478.90	13233.39
479.08	13277.86
479.26	13345.73
479.44	13603.19
479.62	13650.00
479.80	13722.56
479.98	13909.80
480.16	14092.37
480.34	14120.45
480.52	14047.90
480.70	14321.74
480.88	13984.70
481.06	14572.18
481.24	14284.29
481.41	14686.86
481.59	14864.74
481.77	14995.81
481.95	14658.78
482.13	14995.81
482.31	15019.22
482.49	15323.49
482.67	15541.16
482.85	15597.33
483.03	15833.72
483.21	15658.18
483.39	15775.21
483.57	15843.09
483.74	15901.60
483.92	16212.89
484.10	15964.79
484.28	16095.86
484.46	16325.24
484.64	16741.85
484.82	16678.66
485.00	16681.00
485.18	16809.73
485.35	17043.78
485.53	16486.73
485.71	16552.27
485.89	16746.53
486.07	16840.15
486.25	17114.00
486.43	17408.90
486.61	17280.18
486.78	17811.48
486.96	17923.82
487.14	18382.57
487.32	18207.03
487.50	18424.70
487.68	18766.42
487.85	18672.79
488.03	19000.47
488.21	19110.47
488.39	19042.60
488.57	19410.06
488.75	19288.35
488.92	19365.59
489.10	20257.34
489.28	19864.13
489.46	20215.21
489.64	19943.70
489.81	20685.65
489.99	20718.42
490.17	20776.94
490.35	20933.75
490.53	20936.09
490.70	21116.31
490.88	20994.61
491.06	21301.22
491.24	21345.69
491.41	21252.06
491.59	21366.75
491.77	21465.05
491.95	21621.87
492.13	21703.79
492.30	22141.47
492.48	22300.62
492.66	22375.52
492.84	22293.60
493.01	22684.47
493.19	22525.32
493.37	23035.55
493.54	22927.89
493.72	23164.28
493.90	23365.57
494.08	23278.97
494.25	24034.96
494.43	23934.32
494.61	24137.94
494.79	24311.14
494.96	24203.48
495.14	24229.23
495.32	24386.04
495.49	24636.48
495.67	24397.74
495.85	24477.32
496.02	25025.01
496.20	25205.23
496.38	24840.11
496.55	25057.78
496.73	26022.08
496.91	25785.68
497.09	25743.55
497.26	25764.62
497.44	25881.64
497.62	25645.25
497.79	26251.45
497.97	25886.32
498.14	26419.97
498.32	26316.98
498.50	26576.78
498.67	26859.99
498.85	27101.06
499.03	26988.72
499.20	26958.29
499.38	27164.26
499.56	27080.00
499.73	27110.43
499.91	27187.66
500.08	26939.57
500.26	27220.43
500.44	27440.44
500.61	27061.27
500.79	27290.65
500.97	27213.41
501.14	27901.53
501.32	27641.73
501.49	28233.88
501.67	27861.74
501.84	28187.07
502.02	28240.90
502.20	28648.16
502.37	28606.03
502.55	28290.06
502.72	28673.90
502.90	28924.34
503.07	28699.65
503.25	28858.81
503.43	28634.11
503.60	28629.43
503.78	28692.63
503.95	28690.29
504.13	29326.91
504.30	29074.13
504.48	29343.30
504.65	29668.63
504.83	30071.20
505.01	29853.53
505.18	29809.06
505.36	30307.60
505.53	30551.01
505.71	30389.52
505.88	30607.19
506.06	30506.54
506.23	30202.27
506.41	30457.39
506.58	30382.49
506.76	30494.84
506.93	31009.76
507.11	30665.70
507.28	30991.03
507.46	30785.07
507.63	30951.24
507.81	31178.28
507.98	30916.14
508.16	31014.44
508.33	31466.16
508.50	31515.31
508.68	31728.30
508.85	31845.33
509.03	31620.64
509.20	31931.93
509.38	32210.45
509.55	31915.54
509.73	31606.59
509.90	32053.64
510.08	31931.93
510.25	31868.73
510.42	32430.46
510.60	32390.67
510.77	32648.13
510.95	32664.52
511.12	32488.98
511.30	32905.59
511.47	33024.96
511.64	32877.51
511.82	32989.85
511.99	33069.43
512.17	32828.35
512.34	33720.10
512.51	33177.09
512.69	33488.38
512.86	33614.77
513.04	33598.39
513.21	33897.98
513.38	33373.70
513.56	33675.63
513.73	33624.14
513.90	33670.95
514.08	34239.70
514.25	33830.10
514.43	33830.10
514.60	34038.41
514.77	34223.31
514.95	34499.50
515.12	34440.98
515.29	34728.87
515.47	34808.45
515.64	35019.10
515.81	34274.80
515.99	34611.84
516.16	34782.70
516.33	34117.99
516.51	34265.44
516.68	33900.32
516.85	34398.85
517.03	34345.02
517.20	34845.90
517.37	34981.65
517.54	35311.66
517.72	35138.46
517.89	34656.31
518.06	35054.20
518.24	34953.56
518.41	35054.20
518.58	35515.29
518.75	35660.40
518.93	35793.81
519.10	35758.70
519.27	35725.94
519.45	35922.54
519.62	36416.40
519.79	36037.23
519.96	35999.78
520.14	36224.47
520.31	36341.50
520.48	36474.91
520.65	36460.87
520.83	37083.45
521.00	36758.11
521.17	36842.37
521.34	36421.08
521.52	36734.71
521.69	37263.67
521.86	37303.46
522.03	37479.00
522.20	37378.36
522.38	37350.27
522.55	37088.13
522.72	37277.71
522.89	36935.99
523.07	37366.65
523.24	37127.92
523.41	37645.18
523.58	37392.40
523.75	38146.05
523.92	37989.24
524.10	38778.00
524.27	38363.72
524.44	38419.89
524.61	37970.51
524.78	38569.69
524.96	38335.63
525.13	38263.08
525.30	38401.17
525.47	38773.31
525.64	38389.47
525.81	38349.68
525.98	38562.67
526.16	38029.02
526.33	37872.21
526.50	38225.63
526.67	37912.00
526.84	38394.15
527.01	38066.47
527.18	38742.89
527.36	39243.76
527.53	39028.43
527.70	39482.50
527.87	39019.07
528.04	39077.58
528.21	39468.45
528.38	39608.89
528.55	39821.87
528.72	39768.04
528.89	39955.29
529.07	39613.57
529.24	39489.52
529.41	39510.58
529.58	39541.01
529.75	39433.35
529.92	39838.26
530.09	40002.10
530.26	40053.59
530.43	40376.58
530.60	40336.79
530.77	40128.48
530.94	40161.25
531.11	40203.38
531.28	40100.40
531.46	40559.14
531.63	40339.13
531.80	40285.30
531.97	39835.92
532.14	40353.18
532.31	40114.44
532.48	40360.20
532.65	40430.41
532.82	40348.50
532.99	40451.48
533.16	40453.82
533.33	40783.83
533.50	40765.11
533.67	40875.12
533.84	40741.71
534.01	40928.95
534.18	40903.20
534.35	41315.14
534.52	40924.27
534.69	41500.04
534.86	41041.29
535.03	41289.39
535.20	41727.07
535.37	41867.50
535.54	41923.68
535.71	41696.64
535.88	41954.10
536.05	41427.48
536.22	41787.92
536.38	41504.72
536.55	41626.43
536.72	41691.96
536.89	41855.80
537.06	41717.71
537.23	41862.82
537.40	41670.90
537.57	42019.64
537.74	41724.73
537.91	42096.88
538.08	42279.44
538.25	41787.92
538.42	41928.36
538.59	42344.97
538.75	41900.27
538.92	42092.19
539.09	42239.65
539.26	42075.81
539.43	42293.48
539.60	42513.49
539.77	41904.95
539.94	42597.75
540.11	41923.68
540.28	42249.01
540.44	42370.72
540.61	42223.26
540.78	42281.78
540.95	42684.35
541.12	42223.26
541.29	42522.85
541.46	42380.08
541.62	43119.69
541.79	42855.21
541.96	42307.52
542.13	42958.19
542.30	42806.06
542.47	42810.74
542.63	43016.71
542.80	43323.32
542.97	43440.34
543.14	43772.70
543.31	43318.64
543.48	43421.62
543.64	43990.37
543.81	44172.93
543.98	43894.41
544.15	43658.01
544.32	43887.39
544.48	44027.82
544.65	43941.22
544.82	43791.42
544.99	43566.73
545.16	44074.63
545.32	43882.70
545.49	44271.23
545.66	44381.24
545.83	44018.46
546.00	44404.64
546.16	44119.10
546.33	43807.81
546.50	43833.55
546.67	44051.22
546.83	43793.76
547.00	43992.71
547.17	43693.12
547.34	44025.48
547.50	44877.43
547.67	44364.85
547.84	43739.93
548.00	44325.07
548.17	44341.45
548.34	44725.30
548.51	44767.43
548.67	44477.20
548.84	44463.16
549.01	44732.32
549.18	45017.86
549.34	44629.34
549.51	44924.24
549.68	44999.14
549.84	44643.38
550.01	44842.32
550.18	44320.38
550.34	44767.43
550.51	44837.64
550.68	44968.71
550.84	44727.64
551.01	44898.50
551.18	44753.38
551.34	45268.30
551.51	45216.81
551.68	45375.97
551.84	45179.36
552.01	44947.65
552.18	45219.15
552.34	45078.72
552.51	45188.72
552.68	45109.14
552.84	46094.51
553.01	45471.93
553.18	44863.39
553.34	45734.07
553.51	45074.04
553.67	45652.15
553.84	45951.74
554.01	45420.44
554.17	45890.88
554.34	45755.13
554.51	45301.07
554.67	45511.72
554.84	45673.21
555.00	45595.98
555.17	45743.43
555.33	45263.62
555.50	45312.77
555.67	45504.70
555.83	45415.76
556.00	45713.00
556.16	45972.80
556.33	45647.47
556.50	45738.75
556.66	45970.46
556.83	45474.27
556.99	46202.18
557.16	46012.59
557.32	45624.06
557.49	45984.51
557.65	45626.40
557.82	45607.68
557.98	46171.75
558.15	45621.72
558.32	45780.88
558.48	45759.81
558.65	46026.63
558.81	45235.53
558.98	45731.73
559.14	45818.33
559.31	45830.03
559.47	46005.57
559.64	46391.76
559.80	46066.42
559.97	46333.24
560.13	46213.88
560.30	46068.76
560.46	45848.75
560.63	46258.35
560.79	46426.87
560.96	46473.68
561.12	46204.52
561.29	46461.97
561.45	46429.21
561.61	46389.42
561.78	46078.13
561.94	46316.86
562.11	45902.59
562.27	46005.57
562.44	46309.84
562.60	46600.07
562.77	46232.60
562.93	46417.50
563.10	46754.54
563.26	46424.53
563.42	46525.17
563.59	46389.42
563.75	46607.09
563.92	46363.67
564.08	46780.29
564.24	46958.17
564.41	46649.22
564.57	46050.04
564.74	46279.41
564.90	46571.98
565.07	46143.66
565.23	46611.77
565.39	46398.78
565.56	46216.22
565.72	46429.21
565.88	46326.22
566.05	46347.29
566.21	46267.71
566.38	46387.08
566.54	46944.12
566.70	46564.96
566.87	46777.95
567.03	46494.74
567.19	46899.65
567.36	46550.91
567.52	46859.87
567.68	46478.36
567.85	46412.82
568.01	46403.46
568.17	46478.36
568.34	46749.86
568.50	46681.98
568.66	46497.08
568.83	46841.14
568.99	46497.08
569.15	46918.38
569.32	46422.19
569.48	46223.24
569.64	46714.75
569.81	46848.16
569.97	47037.75
570.13	46621.13
570.30	46681.98
570.46	46443.25
570.62	46366.01
570.78	46012.59
570.95	46597.73
571.11	46990.94
571.27	46274.73
571.43	46408.14
571.60	46581.34
571.76	47187.54
571.92	46438.57
572.09	46312.18
572.25	46754.54
572.41	46557.94
572.57	46829.44
572.74	47412.23
572.90	46677.30
573.06	46719.43
573.22	47227.33
573.38	47012.00
573.55	46459.63
573.71	47117.32
573.87	46597.73
574.03	46616.45
574.20	46976.89
574.36	46646.88
574.52	46607.09
574.68	46948.81
574.84	46696.03
575.01	46497.08
575.17	46705.39
575.33	46422.19
575.49	46674.96
575.65	46768.58
575.82	46815.40
575.98	46799.01
576.14	46918.38
576.30	47143.07
576.46	46838.80
576.62	46859.87
576.79	46766.24
576.95	46450.27
577.11	47147.75
577.27	46913.70
577.43	46883.27
577.59	46965.19
577.75	46429.21
577.92	46342.61
578.08	46759.22
578.24	46962.85
578.40	46646.88
578.56	46948.81
578.72	46731.14
578.88	47145.41
579.04	46749.86
579.21	46571.98
579.37	47302.23
579.53	46440.91
579.69	46815.40
579.85	46829.44
580.01	46911.36
580.17	46681.98
580.33	46824.76
580.49	46862.21
580.65	47147.75
580.82	46710.07
580.98	46897.31
581.14	46887.95
581.30	47075.19
581.46	46990.94
581.62	46862.21
581.78	46754.54
581.94	47089.24
582.10	46806.03
582.26	46740.50
582.42	47292.86
582.58	46890.29
582.74	46630.49
582.90	46923.06
583.06	47515.22
583.22	47112.64
583.38	46862.21
583.54	47323.29
583.70	46588.36
583.86	46909.02
584.02	46724.11
584.18	47035.41
584.34	47653.31
584.50	46946.47
584.66	46548.57
584.82	46742.84
584.98	47232.01
585.14	47028.38
585.30	46951.15
585.46	47194.56
585.62	46724.11
585.78	46719.43
585.94	46719.43
586.10	46880.93
586.26	47049.45
586.42	47126.69
586.58	47423.93
586.74	46799.01
586.90	46733.48
587.06	46791.99
587.22	46717.09
587.38	46902.00
587.54	47189.88
587.70	47323.29
587.86	46813.05
588.02	47082.22
588.18	46902.00
588.34	46600.07
588.49	46436.23
588.65	46295.80
588.81	46005.57
588.97	46422.19
589.13	46199.83
589.29	46461.97
589.45	46766.24
589.61	46803.69
589.77	46717.09
