SpectraSuite Data File
++++++++++++++++++++++++++++++++++++
Date: Fri Oct 25 11:25:41 EDT 2013
User: price-jones
Dark Spectrum Present: No
Reference Spectrum Present: No
Number of Sampled Component Spectra: 1
Spectrometers: USB2+H05261
Integration Time (usec): 100000 (USB2+H05261)
Spectra Averaged: 1 (USB2+H05261)
Boxcar Smoothing: 0 (USB2+H05261)
Correct for Electrical Dark: No (USB2+H05261)
Strobe/Lamp Enabled: No (USB2+H05261)
Correct for Detector Non-linearity: No (USB2+H05261)
Correct for Stray Light: No (USB2+H05261)
Number of Pixels in Processed Spectrum: 2048
>>>>>Begin Processed Spectral Data<<<<<
365.73	271.50
365.92	271.50
366.12	271.50
366.32	145.11
366.52	91.28
366.72	168.52
366.91	117.03
367.11	81.92
367.31	88.94
367.51	131.07
367.70	140.43
367.90	196.60
368.10	145.11
368.30	135.75
368.49	182.56
368.69	156.82
368.89	208.31
369.09	166.18
369.28	138.09
369.48	126.39
369.68	189.58
369.87	215.33
370.07	212.99
370.27	227.03
370.47	395.55
370.66	571.09
370.86	608.54
371.06	699.82
371.25	730.25
371.45	669.39
371.65	617.90
371.84	748.97
372.04	643.65
372.24	702.16
372.44	737.27
372.63	702.16
372.83	674.07
373.03	709.18
373.22	765.36
373.42	737.27
373.62	734.93
373.81	823.87
374.01	866.00
374.21	816.85
374.40	779.40
374.60	809.83
374.79	819.19
374.99	830.89
375.19	851.96
375.38	877.70
375.58	919.83
375.78	903.45
375.97	858.98
376.17	826.21
376.37	863.66
376.56	866.00
376.76	901.11
376.95	903.45
377.15	847.27
377.35	917.49
377.54	898.77
377.74	772.38
377.93	823.87
378.13	894.08
378.33	887.06
378.52	938.55
378.72	912.81
378.91	966.64
379.11	947.92
379.31	898.77
379.50	964.30
379.70	1006.43
379.89	1008.77
380.09	961.96
380.28	994.73
380.48	987.71
380.68	992.39
380.87	999.41
381.07	1064.94
381.26	992.39
381.46	1050.90
381.65	966.64
381.85	1011.11
382.04	1060.26
382.24	1097.71
382.43	1081.33
382.63	1043.88
382.83	1046.22
383.02	1116.44
383.22	1041.54
383.41	1039.20
383.61	990.05
383.80	1111.75
384.00	1149.20
384.19	1135.16
384.39	1060.26
384.58	1142.18
384.78	1186.65
384.97	1142.18
385.17	1165.59
385.36	1118.78
385.56	1233.46
385.75	1240.48
385.95	1170.27
386.14	1198.35
386.34	1177.29
386.53	1142.18
386.72	1163.25
386.92	1240.48
387.11	1245.16
387.31	1217.08
387.50	1256.87
387.70	1303.68
387.89	1186.65
388.09	1170.27
388.28	1324.74
388.48	1261.55
388.67	1359.85
388.86	1263.89
389.06	1233.46
389.25	1315.38
389.45	1329.42
389.64	1306.02
389.84	1394.96
390.03	1343.47
390.22	1348.15
390.42	1371.55
390.61	1343.47
390.81	1446.45
391.00	1373.89
391.19	1462.83
391.39	1406.66
391.58	1404.32
391.78	1418.36
391.97	1476.88
392.16	1455.81
392.36	1497.94
392.55	1575.18
392.75	1469.86
392.94	1589.22
393.13	1483.90
393.33	1556.46
393.52	1446.45
393.71	1572.84
393.91	1563.48
394.10	1535.39
394.29	1643.06
394.49	1589.22
394.68	1626.67
394.88	1678.16
395.07	1701.57
395.26	1624.33
395.46	1736.68
395.65	1785.83
395.84	1739.02
396.04	1792.85
396.23	1708.59
396.42	1881.79
396.62	1795.19
396.81	1741.36
397.00	1764.76
397.19	1741.36
397.39	1724.97
397.58	1778.81
397.77	1792.85
397.97	1881.79
398.16	1825.62
398.35	1970.73
398.55	1849.02
398.74	1893.49
398.93	2003.50
399.12	1874.77
399.32	1888.81
399.51	1919.24
399.70	1998.82
399.90	1966.05
400.09	1996.48
400.28	2054.99
400.47	2094.78
400.67	1949.67
400.86	2033.93
401.05	2111.16
401.24	2136.91
401.44	2150.95
401.63	2157.97
401.82	2167.34
402.01	2087.76
402.21	2186.06
402.40	2202.44
402.59	2207.13
402.78	2148.61
402.97	2146.27
403.17	2382.67
403.36	2200.10
403.55	2239.89
403.74	2303.09
403.93	2370.96
404.13	2317.13
404.32	2328.83
404.51	2300.75
404.70	2424.80
404.89	2396.71
405.09	2469.27
405.28	2457.56
405.47	2417.77
405.66	2385.01
405.85	2605.02
406.05	2434.16
406.24	2654.17
406.43	2490.33
406.62	2588.63
406.81	2623.74
407.00	2579.27
407.20	2490.33
407.39	2518.42
407.58	2588.63
407.77	2656.51
407.96	2799.28
408.15	2803.96
408.34	2555.86
408.54	2876.52
408.73	2738.43
408.92	2803.96
409.11	2789.92
409.30	2825.03
409.49	2827.37
409.68	2832.05
409.87	3021.63
410.07	3038.02
410.26	2967.80
410.45	2988.86
410.64	2998.23
410.83	3063.76
411.02	3112.91
411.21	3096.53
411.40	3150.36
411.59	3148.02
411.78	3148.02
411.98	3173.77
412.17	3337.60
412.36	3227.60
412.55	3323.56
412.74	3227.60
412.93	3363.35
413.12	3351.65
413.31	3447.61
413.50	3499.10
413.69	3400.80
413.88	3513.14
414.07	3576.34
414.26	3541.23
414.45	3588.04
414.64	3686.34
414.83	3686.34
415.02	3754.22
415.22	3812.73
415.41	3833.80
415.60	3866.56
415.79	3866.56
415.98	3925.08
416.17	4072.53
416.36	3899.33
416.55	3941.46
416.74	4032.74
416.93	3899.33
417.12	4112.32
417.31	4142.75
417.50	4147.43
417.69	4189.56
417.88	4362.76
418.07	4297.22
418.26	4411.91
418.45	4327.65
418.64	4486.81
418.83	4386.16
419.02	4468.08
419.21	4468.08
419.39	4411.91
419.58	4358.08
419.77	4397.87
419.96	4535.96
420.15	4503.19
420.34	4507.87
420.53	4699.80
420.72	4645.96
420.91	4603.83
421.10	4767.67
421.29	4807.46
421.48	4557.02
421.67	4772.35
421.86	4770.01
422.05	4837.89
422.24	4737.24
422.43	4709.16
422.61	4798.10
422.80	4973.64
422.99	5027.47
423.18	4978.32
423.37	5041.51
423.56	4924.49
423.75	4922.15
423.94	4891.72
424.13	4601.49
424.32	4636.60
424.50	4854.27
424.69	5064.92
424.88	5121.09
425.07	4861.29
425.26	5004.07
425.45	5149.18
425.64	5062.58
425.83	4873.00
426.01	5029.81
426.20	5109.39
426.39	5020.45
426.58	5025.13
426.77	5132.79
426.96	5146.84
427.15	5231.10
427.33	5165.56
427.52	4910.44
427.71	5242.80
427.90	5308.34
428.09	5247.48
428.28	5348.12
428.46	5376.21
428.65	5423.02
428.84	5441.75
429.03	5343.44
429.22	5408.98
429.40	5298.97
429.59	5404.30
429.78	5348.12
429.97	5277.91
430.16	5533.03
430.34	5628.99
430.53	5657.07
430.72	5680.48
430.91	5785.80
431.10	5561.11
431.28	5640.69
431.47	6005.81
431.66	5825.59
431.85	5832.62
432.03	5797.51
432.22	6040.92
432.41	5919.21
432.60	5858.36
432.79	5949.64
432.97	6040.92
433.16	6015.18
433.35	5771.76
433.54	6120.50
433.72	6106.46
433.91	6207.10
434.10	5973.05
434.28	5937.94
434.47	6045.60
434.66	6148.59
434.85	6363.92
435.03	6188.38
435.22	6174.33
435.41	6480.94
435.59	6363.92
435.78	6303.06
435.97	6497.33
436.16	6296.04
436.34	6274.98
436.53	6445.84
436.72	6623.72
436.90	6548.82
437.09	6562.86
437.28	6513.71
437.46	6553.50
437.65	6621.38
437.84	6745.42
438.02	6946.71
438.21	6665.85
438.40	6642.44
438.58	6932.67
438.77	6918.62
438.96	6890.54
439.14	7126.93
439.33	7166.72
439.52	7122.25
439.70	7138.63
439.89	7316.51
440.08	7307.15
440.26	7323.54
440.45	7375.03
440.63	7506.10
440.82	7658.23
441.01	7353.96
441.19	7627.81
441.38	7578.65
441.57	7646.53
441.75	7763.56
441.94	7983.57
442.12	7892.29
442.31	7892.29
442.50	8077.19
442.68	7892.29
442.87	8222.30
443.05	8219.96
443.24	8226.98
443.43	8203.58
443.61	8105.28
443.80	8329.97
443.98	8079.53
444.17	7784.62
444.35	8116.98
444.54	8234.00
444.73	8198.90
444.91	8100.59
445.10	8395.50
445.28	8318.26
445.47	8393.16
445.65	8360.39
445.84	8304.22
446.02	8414.23
446.21	8418.91
446.39	8341.67
446.58	8484.44
446.77	8397.84
446.95	8201.24
447.14	8250.39
447.32	8702.11
447.51	8362.73
447.69	8461.04
447.88	8353.37
448.06	8397.84
448.25	8372.10
448.43	8538.27
448.62	8461.04
448.80	8505.51
448.99	8629.56
449.17	8720.84
449.36	8610.83
449.54	8711.47
449.73	8828.50
449.91	8737.22
450.10	8823.82
450.28	8943.19
450.46	9008.72
450.65	9083.62
450.83	9053.19
451.02	8954.89
451.20	9109.36
451.39	8990.00
451.57	9238.09
451.76	9022.77
451.94	9116.39
452.13	9324.69
452.31	9247.46
452.49	9163.20
452.68	9261.50
452.86	9212.35
453.05	9378.53
453.23	9371.50
453.42	9397.25
453.60	9200.65
453.78	9437.04
453.97	9472.15
454.15	9657.05
454.34	9544.70
454.52	9561.09
454.70	9394.91
454.89	9628.96
455.07	9689.82
455.26	9776.42
455.44	9818.55
455.62	9937.91
455.81	9942.60
455.99	9905.15
456.17	10153.24
456.36	10094.73
456.54	10310.06
456.73	10127.50
456.91	10359.21
457.09	10406.02
457.28	10466.88
457.46	10244.52
457.64	10399.00
457.83	10466.88
458.01	10176.65
458.19	10780.51
458.38	10436.45
458.56	10714.97
458.74	11005.20
458.93	10820.30
459.11	10630.71
459.29	10761.78
459.48	10815.62
459.66	10714.97
459.84	10843.70
460.03	11089.46
460.21	10881.15
460.39	10855.40
460.57	10888.17
460.76	11042.65
460.94	11089.46
461.12	11108.18
461.31	11094.14
461.49	11157.33
461.67	11073.07
461.85	11386.71
462.04	11257.98
462.22	11667.57
462.40	11337.56
462.59	11494.37
462.77	11503.73
462.95	11515.44
463.13	11573.95
463.32	11630.12
463.50	11564.59
463.68	11655.87
463.86	11616.08
464.05	11527.14
464.23	11845.45
464.41	11808.00
464.59	11634.80
464.78	11962.48
464.96	11903.96
465.14	11899.28
465.32	11913.33
465.50	12011.63
465.69	12065.46
465.87	12182.49
466.05	11992.90
466.23	12248.02
466.41	12116.95
466.60	12453.99
466.78	12381.43
466.96	12203.55
467.14	12231.64
467.32	12329.94
467.51	12631.87
467.69	11997.59
467.87	12482.08
468.05	12657.62
468.23	12255.04
468.41	12262.07
468.60	12453.99
468.78	12769.96
468.96	12561.66
469.14	12823.80
469.32	12985.29
469.50	12578.04
469.69	12980.61
469.87	12884.65
470.05	13083.59
470.23	13083.59
470.41	13212.32
470.59	13247.43
470.77	13273.18
470.95	13259.13
471.14	13284.88
471.32	12863.58
471.50	13490.85
471.68	13406.59
471.86	13699.16
472.04	13678.09
472.22	13937.89
472.40	13600.85
472.58	14120.45
472.77	13699.16
472.95	14061.94
473.13	14572.18
473.31	13980.02
473.49	14197.69
473.67	14019.81
473.85	14312.38
474.03	14583.88
474.21	14499.62
474.39	14881.13
474.57	14490.26
474.75	15016.88
474.93	14974.75
475.12	15002.83
475.30	15194.76
475.48	15073.05
475.66	14939.64
475.84	14963.04
476.02	15129.22
476.20	15197.10
476.38	15651.16
476.56	16067.78
476.74	15803.30
476.92	15700.31
477.10	15714.36
477.28	15719.04
477.46	16044.37
477.64	16222.25
477.82	16409.50
478.00	16999.31
478.18	16585.04
478.36	16713.77
478.54	17121.02
478.72	16844.84
478.90	17331.67
479.08	17467.42
479.26	17980.00
479.44	17425.29
479.62	17755.30
479.80	17984.68
479.98	17804.46
480.16	18813.23
480.34	18448.10
480.52	18483.21
480.70	18703.22
480.88	18405.97
481.06	18597.90
481.24	18778.12
481.41	18892.80
481.59	19047.28
481.77	19330.48
481.95	19431.13
482.13	19704.97
482.31	19587.94
482.49	20105.20
482.67	19782.21
482.85	20191.80
483.03	20704.38
483.21	20470.33
483.39	20875.24
483.57	20950.14
483.74	20805.02
483.92	21341.00
484.10	21345.69
484.28	21811.45
484.46	22059.55
484.64	22178.92
484.82	21642.93
485.00	22199.98
485.18	22457.44
485.35	23065.98
485.53	22918.53
485.71	23091.73
485.89	23185.35
486.07	23175.98
486.25	23145.56
486.43	23498.98
486.61	23807.93
486.78	23702.61
486.96	23702.61
487.14	24606.05
487.32	24833.08
487.50	24734.78
487.68	24819.04
487.85	24886.92
488.03	25404.17
488.21	25663.97
488.39	25481.41
488.57	25778.66
488.75	26043.14
488.92	26560.40
489.10	26377.84
489.28	26745.30
489.46	27117.45
489.64	27290.65
489.81	27480.23
489.99	27527.04
490.17	27480.23
490.35	27934.29
490.53	28252.61
490.70	28603.69
490.88	28278.35
491.06	28680.92
491.24	28964.13
491.41	28533.47
491.59	28882.21
491.77	29221.59
491.95	29195.84
492.13	29427.56
492.30	29652.25
492.48	29876.94
492.66	30078.22
492.84	30120.35
493.01	30387.18
493.19	30223.34
493.37	30829.54
493.54	30721.87
493.72	31583.19
493.90	31332.75
494.08	31370.20
494.25	31894.48
494.43	31835.97
494.61	32053.64
494.79	32428.12
494.96	32170.66
495.14	32657.49
495.32	33230.93
495.49	33294.12
495.67	33277.74
495.85	33256.67
496.02	33619.46
496.20	34160.12
496.38	33975.22
496.55	33858.19
496.73	34478.43
496.91	34726.53
497.09	34108.63
497.26	34834.19
497.44	34651.63
497.62	34771.00
497.79	35496.56
497.97	35304.64
498.14	35531.67
498.32	35995.10
498.50	36046.59
498.67	36362.56
498.85	36439.80
499.03	36479.59
499.20	36229.15
499.38	36545.12
499.56	36697.26
499.73	37010.89
499.91	37277.71
500.08	37462.61
500.26	37270.69
500.44	37460.27
500.61	37809.01
500.79	38007.96
500.97	38054.77
501.14	38436.28
501.32	38335.63
501.49	38579.05
501.67	38785.02
501.84	38742.89
502.02	38499.47
502.20	38939.49
502.37	38953.54
502.55	39227.38
502.72	39234.40
502.90	39716.55
503.07	39548.03
503.25	39702.51
503.43	39494.20
503.60	40046.57
503.78	40165.93
503.95	40304.02
504.13	40116.78
504.30	40879.80
504.48	40322.75
504.65	40421.05
504.83	40783.83
505.01	40828.30
505.18	40928.95
505.36	41301.09
505.53	41144.28
505.71	41294.07
505.88	41736.43
506.06	41647.49
506.23	41673.24
506.41	41577.28
506.58	42057.09
506.76	42192.84
506.93	42525.19
507.11	42223.26
507.28	42555.62
507.46	42398.80
507.63	43168.84
507.81	42742.86
507.98	42801.38
508.16	43122.03
508.33	43400.55
508.50	43131.39
508.68	43194.59
508.85	43674.40
509.03	43786.74
509.20	43459.07
509.38	44442.09
509.55	43995.05
509.73	44133.14
509.90	44755.72
510.08	44425.71
510.25	44243.15
510.42	44594.23
510.60	45153.62
510.77	45085.74
510.95	45240.21
511.12	45301.07
511.30	44872.75
511.47	45312.77
511.64	45268.30
511.82	45914.29
511.99	45247.24
512.17	45993.87
512.34	45808.96
512.51	46438.57
512.69	46478.36
512.86	46398.78
513.04	46590.70
513.21	46204.52
513.38	46391.76
513.56	46667.94
513.73	46461.97
513.90	46932.42
514.08	46401.12
514.25	47173.50
514.43	46857.52
514.60	46953.49
514.77	47119.66
514.95	47840.55
515.12	47814.80
515.29	47215.63
515.47	47679.05
515.64	48055.88
515.81	47657.99
515.99	47899.06
516.16	48470.15
516.33	48009.07
516.51	48500.58
516.68	48184.61
516.85	48229.08
517.03	48776.76
517.20	48554.41
517.37	48444.41
517.54	48797.83
517.72	48657.40
517.89	49155.93
518.06	48835.28
518.24	49277.64
518.41	49221.47
518.58	49076.35
518.75	49095.08
518.93	49425.09
519.10	49310.41
519.27	50014.91
519.45	49895.54
519.62	49888.52
519.79	49727.02
519.96	50042.99
520.14	49925.97
520.31	49670.85
520.48	50415.14
520.65	50078.10
520.83	50312.16
521.00	50475.99
521.17	50314.50
521.34	50581.32
521.52	50726.43
521.69	50660.90
521.86	50717.07
522.03	51047.08
522.20	51257.73
522.38	51519.87
522.55	51145.39
522.72	51217.94
522.89	51061.13
523.07	51484.76
523.24	51231.99
523.41	51746.90
523.58	51356.03
523.75	51786.69
523.92	51650.94
524.10	51503.49
524.27	51718.82
524.44	51868.61
524.61	52105.01
524.78	51959.89
524.96	51854.57
525.13	52067.56
525.30	52334.38
525.47	52509.92
525.64	52278.21
525.81	52179.90
525.98	52790.78
526.16	52451.41
526.33	52383.53
526.50	52947.60
526.67	52783.76
526.84	52865.68
527.01	52608.22
527.18	52938.24
527.36	52484.17
527.53	52924.19
527.70	53109.10
527.87	53102.07
528.04	53111.44
528.21	53361.87
528.38	53277.61
528.55	53258.89
528.72	53411.02
528.89	53127.82
529.07	53237.83
529.24	53448.47
529.41	53411.02
529.58	53572.52
529.75	53399.32
529.92	53818.28
530.09	53605.29
530.26	54014.88
530.43	53982.12
530.60	53453.15
530.77	53602.95
530.94	53968.07
531.11	54052.33
531.28	54152.97
531.46	54195.10
531.63	54192.76
531.80	53921.26
531.97	54199.79
532.14	54511.08
532.31	54759.17
532.48	54508.74
532.65	54532.14
532.82	54424.48
532.99	54756.83
533.16	54419.80
533.33	54597.68
533.50	54822.37
533.67	54630.44
533.84	54646.83
534.01	54939.39
534.18	54841.09
534.35	55449.63
534.52	54892.58
534.69	54932.37
534.86	55377.08
535.03	54958.12
535.20	55033.02
535.37	55473.04
535.54	54878.54
535.71	54930.03
535.88	55313.88
536.05	55292.82
536.22	55671.98
536.38	55262.39
536.55	55290.48
536.72	55508.14
536.89	55426.23
537.06	55547.93
537.23	55641.56
537.40	55592.40
537.57	55765.60
537.74	55760.92
537.91	55887.31
538.08	55955.19
538.25	55763.26
538.42	55348.99
538.59	56079.24
538.75	55398.14
538.92	56067.53
539.09	56324.99
539.26	55941.14
539.43	55812.41
539.60	55962.21
539.77	56397.55
539.94	56423.29
540.11	56222.01
540.28	56243.07
540.44	56467.76
540.61	56442.02
540.78	56458.40
540.95	56285.20
541.12	56353.08
541.29	56095.62
541.46	56446.70
541.62	56573.09
541.79	56781.40
541.96	56294.56
542.13	56451.38
542.30	56493.51
542.47	56582.45
542.63	56683.09
542.80	56788.42
542.97	57003.75
543.14	56914.81
543.31	56989.70
543.48	57090.35
543.64	57471.85
543.81	57298.65
543.98	57198.01
544.15	57270.57
544.32	57322.06
544.48	57352.49
544.65	57364.19
544.82	57275.25
544.99	57195.67
545.16	57434.41
545.32	57350.15
545.49	57513.98
545.66	57839.32
545.83	57546.75
546.00	57619.31
546.16	57518.67
546.33	57298.65
546.50	57272.91
546.67	57787.83
546.83	57359.51
547.00	57673.14
547.17	57478.88
547.34	57600.58
547.50	57991.45
547.67	58019.54
547.84	57925.92
548.00	57729.31
548.17	58071.03
548.34	57954.00
548.51	58188.06
548.67	58143.59
548.84	58068.69
549.01	57958.69
549.18	58241.89
549.34	58085.07
549.51	58206.78
549.68	58253.59
549.84	58291.04
550.01	58410.41
550.18	58298.06
550.34	58403.39
550.51	58230.19
550.68	58272.32
550.84	58108.48
551.01	58497.01
551.18	58520.41
551.34	58436.16
551.51	58401.05
551.68	58504.03
551.84	58686.59
552.01	58499.35
552.18	58609.35
552.34	58419.77
552.51	58632.76
552.68	58494.67
552.84	58426.79
553.01	58997.88
553.18	58557.86
553.34	58660.85
553.51	58834.05
553.67	58482.97
553.84	59000.22
554.01	58960.44
554.17	58918.31
554.34	59065.76
554.51	59126.61
554.67	58988.52
554.84	58829.37
555.00	58901.92
555.17	58920.65
555.33	59016.61
555.50	58852.77
555.67	59054.06
555.83	59035.33
556.00	59056.40
556.16	59199.17
556.33	59114.91
556.50	59245.98
556.66	59320.88
556.83	59025.97
556.99	59138.32
557.16	59475.35
557.32	59470.67
557.49	59552.59
557.65	59185.13
557.82	59140.66
557.98	59238.96
558.15	59458.97
558.32	59358.33
558.48	59290.45
558.65	59292.79
558.81	59487.06
558.98	59590.04
559.14	59524.50
559.31	59573.66
559.47	59442.59
559.64	59550.25
559.80	59503.44
559.97	59554.93
560.13	59372.37
560.30	59732.81
560.46	59700.04
560.63	59634.51
560.79	59840.48
560.96	59634.51
561.12	59966.87
561.29	59653.23
561.45	59545.57
561.61	59606.42
561.78	59517.48
561.94	59625.15
562.11	59538.55
562.27	59901.33
562.44	59798.35
562.60	59798.35
562.77	60097.94
562.93	59777.28
563.10	59863.88
563.26	59793.67
563.42	60245.39
563.59	59917.71
563.75	59618.13
563.92	59962.18
564.08	59784.30
564.24	59875.58
564.41	60156.45
564.57	60088.57
564.74	60182.19
564.90	60191.56
565.07	59936.44
565.23	59910.69
565.39	59969.21
565.56	60140.07
565.72	60168.15
565.88	60011.34
566.05	60109.64
566.21	59943.46
566.38	60046.44
566.54	60090.91
566.70	60324.97
566.87	60186.88
567.03	60083.89
567.19	60186.88
567.36	59985.59
567.52	60086.23
567.68	60427.95
567.85	60266.45
568.01	60268.79
568.17	60252.41
568.34	60362.42
568.50	60165.81
568.66	60303.90
568.83	60360.08
568.99	60224.32
569.15	60135.38
569.32	60423.27
569.48	60336.67
569.64	60477.10
569.81	60493.49
569.97	60353.05
570.13	60388.16
570.30	60252.41
570.46	60320.29
570.62	60310.92
570.78	60467.74
570.95	60161.13
571.11	60423.27
571.27	60303.90
571.43	60392.84
571.60	60563.70
571.76	60467.74
571.92	60552.00
572.09	60456.04
572.25	60570.72
572.41	60411.57
572.57	60481.78
572.74	60643.28
572.90	60488.80
573.06	60456.04
573.22	60495.83
573.38	60673.71
573.55	60556.68
573.71	60706.47
573.87	60603.49
574.03	60362.42
574.20	60619.88
574.36	60631.58
574.52	60844.57
574.68	60640.94
574.84	60704.13
575.01	60612.85
575.17	60669.03
575.33	60472.42
575.49	60521.57
575.65	60748.60
575.82	60748.60
575.98	60416.25
576.14	60912.44
576.30	60977.98
576.46	60647.96
576.62	60619.88
576.79	60502.85
576.95	60631.58
577.11	60954.57
577.27	60638.60
577.43	60842.23
577.59	60591.79
577.75	60591.79
577.92	60502.85
578.08	60762.65
578.24	60615.19
578.40	60959.25
578.56	60694.77
578.72	60753.29
578.88	60884.36
579.04	60732.22
579.21	60886.70
579.37	60846.91
579.53	60842.23
579.69	60544.98
579.85	60589.45
580.01	60727.54
580.17	60608.17
580.33	60823.50
580.49	60896.06
580.65	60907.76
580.82	60839.89
580.98	60732.22
581.14	60591.79
581.30	60956.91
581.46	60903.08
581.62	60669.03
581.78	60580.09
581.94	60746.26
582.10	60800.10
582.26	60774.35
582.42	60821.16
582.58	60830.52
582.74	60905.42
582.90	60886.70
583.06	60860.95
583.22	60615.19
583.38	60823.50
583.54	60781.37
583.70	60753.29
583.86	60823.50
584.02	60919.46
584.18	61092.66
584.34	60795.42
584.50	60816.48
584.66	60844.57
584.82	60823.50
584.98	61104.37
585.14	60839.89
585.30	60788.39
585.46	61027.13
585.62	60772.01
585.78	60996.70
585.94	60746.26
586.10	60954.57
586.26	61015.43
586.42	61029.47
586.58	60795.42
586.74	61029.47
586.90	60905.42
587.06	60788.39
587.22	60966.27
587.38	61066.92
587.54	61080.96
587.70	61153.52
587.86	60914.78
588.02	60900.74
588.18	60987.34
588.34	60832.86
588.49	60879.67
