SpectraSuite Data File
++++++++++++++++++++++++++++++++++++
Date: Fri Oct 25 11:34:28 EDT 2013
User: price-jones
Dark Spectrum Present: No
Reference Spectrum Present: No
Number of Sampled Component Spectra: 1
Spectrometers: USB2+H05261
Integration Time (usec): 100000 (USB2+H05261)
Spectra Averaged: 1 (USB2+H05261)
Boxcar Smoothing: 0 (USB2+H05261)
Correct for Electrical Dark: No (USB2+H05261)
Strobe/Lamp Enabled: No (USB2+H05261)
Correct for Detector Non-linearity: No (USB2+H05261)
Correct for Stray Light: No (USB2+H05261)
Number of Pixels in Processed Spectrum: 2048
>>>>>Begin Processed Spectral Data<<<<<
365.73	236.39
365.92	236.39
366.12	236.39
366.32	140.43
366.52	131.07
366.72	236.39
366.91	166.18
367.11	163.84
367.31	229.37
367.51	180.22
367.70	145.11
367.90	245.76
368.10	241.08
368.30	175.54
368.49	189.58
368.69	203.63
368.89	210.65
369.09	140.43
369.28	142.77
369.48	217.67
369.68	208.31
369.87	341.72
370.07	278.52
370.27	334.70
370.47	248.10
370.66	458.74
370.86	528.96
371.06	624.92
371.25	564.07
371.45	449.38
371.65	550.03
371.84	528.96
372.04	543.00
372.24	524.28
372.44	594.50
372.63	578.11
372.83	634.29
373.03	634.29
373.22	535.98
373.42	620.24
373.62	592.16
373.81	662.37
374.01	667.05
374.21	566.41
374.40	641.31
374.60	608.54
374.79	669.39
374.99	627.26
375.19	711.52
375.38	627.26
375.58	594.50
375.78	657.69
375.97	692.80
376.17	702.16
376.37	685.78
376.56	718.54
376.76	690.46
376.95	667.05
377.15	697.48
377.35	674.07
377.54	730.25
377.74	706.84
377.93	730.25
378.13	655.35
378.33	812.17
378.52	681.10
378.72	671.73
378.91	711.52
379.11	622.58
379.31	760.67
379.50	744.29
379.70	692.80
379.89	678.76
380.09	706.84
380.28	683.44
380.48	685.78
380.68	685.78
380.87	709.18
381.07	720.88
381.26	774.72
381.46	786.42
381.65	763.01
381.85	774.72
382.04	798.12
382.24	767.70
382.43	795.78
382.63	830.89
382.83	741.95
383.02	809.83
383.22	844.93
383.41	814.51
383.61	713.86
383.80	828.55
384.00	732.59
384.19	791.10
384.39	774.72
384.58	840.25
384.78	809.83
384.97	826.21
385.17	800.46
385.36	901.11
385.56	812.17
385.75	861.32
385.95	887.06
386.14	894.08
386.34	767.70
386.53	802.80
386.72	830.89
386.92	828.55
387.11	873.02
387.31	800.46
387.50	830.89
387.70	887.06
387.89	807.48
388.09	976.00
388.28	844.93
388.48	807.48
388.67	889.40
388.86	926.85
389.06	943.24
389.25	964.30
389.45	968.98
389.64	908.13
389.84	973.66
390.03	880.04
390.22	936.21
390.42	943.24
390.61	1004.09
390.81	868.34
391.00	947.92
391.19	980.68
391.39	994.73
391.58	950.26
391.78	938.55
391.97	919.83
392.16	992.39
392.36	997.07
392.55	1029.84
392.75	1046.22
392.94	952.60
393.13	947.92
393.33	1018.13
393.52	1015.79
393.71	1076.65
393.91	1013.45
394.10	1015.79
394.29	1086.01
394.49	1018.13
394.68	1160.91
394.88	1107.07
395.07	1167.93
395.26	1153.88
395.46	1083.67
395.65	1114.10
395.84	1128.14
396.04	1158.57
396.23	1196.01
396.42	1200.69
396.62	1184.31
396.81	1205.38
397.00	1146.86
397.19	1191.33
397.39	1196.01
397.58	1109.41
397.77	1118.78
397.97	1196.01
398.16	1245.16
398.35	1266.23
398.55	1116.44
398.74	1263.89
398.93	1315.38
399.12	1299.00
399.32	1217.08
399.51	1203.04
399.70	1296.66
399.90	1224.10
400.09	1385.60
400.28	1238.14
400.47	1296.66
400.67	1364.53
400.86	1348.15
401.05	1322.40
401.24	1352.83
401.44	1451.13
401.63	1352.83
401.82	1423.05
402.01	1432.41
402.21	1430.07
402.40	1458.15
402.59	1411.34
402.78	1444.11
402.97	1369.21
403.17	1423.05
403.36	1479.22
403.55	1535.39
403.74	1432.41
403.93	1523.69
404.13	1418.36
404.32	1563.48
404.51	1516.67
404.70	1561.14
404.89	1582.20
405.09	1526.03
405.28	1603.27
405.47	1582.20
405.66	1575.18
405.85	1727.32
406.05	1600.93
406.24	1614.97
406.43	1764.76
406.62	1788.17
406.81	1692.21
407.00	1614.97
407.20	1764.76
407.39	1675.82
407.58	1806.89
407.77	1816.26
407.96	1729.66
408.15	1727.32
408.34	1839.66
408.54	1818.60
408.73	1818.60
408.92	1886.47
409.11	1996.48
409.30	1921.58
409.49	1933.28
409.68	1961.37
409.87	1996.48
410.07	2099.46
410.26	2026.90
410.45	2022.22
410.64	1954.35
410.83	1935.62
411.02	2073.71
411.21	2073.71
411.40	2031.58
411.59	2031.58
411.78	2155.63
411.98	2078.40
412.17	2132.23
412.36	2129.89
412.55	2310.11
412.74	2342.88
412.93	2260.96
413.12	2200.10
413.31	2370.96
413.50	2347.56
413.69	2267.98
413.88	2267.98
414.07	2349.90
414.26	2298.41
414.45	2410.75
414.64	2466.92
414.83	2450.54
415.02	2576.93
415.22	2513.74
415.41	2546.50
415.60	2567.57
415.79	2590.97
415.98	2649.49
416.17	2567.57
416.36	2572.25
416.55	2607.36
416.74	2693.96
416.93	2700.98
417.12	2736.09
417.31	2724.38
417.50	2691.62
417.69	2689.28
417.88	2796.94
418.07	2897.58
418.26	2740.77
418.45	2876.52
418.64	3119.93
418.83	3030.99
419.02	2895.24
419.21	2913.97
419.39	2967.80
419.58	2951.42
419.77	2930.35
419.96	2942.05
420.15	3023.97
420.34	3105.89
420.53	3098.87
420.72	3141.00
420.91	3105.89
421.10	3155.04
421.29	3087.17
421.48	3082.49
421.67	3096.53
421.86	3213.56
422.05	3162.06
422.24	3283.77
422.43	3206.53
422.61	3148.02
422.80	3138.66
422.99	3269.73
423.18	3276.75
423.37	3452.29
423.56	3222.92
423.75	3391.44
423.94	3241.64
424.13	3119.93
424.32	3124.62
424.50	3260.37
424.69	3368.03
424.88	3295.47
425.07	3246.32
425.26	3232.28
425.45	3269.73
425.64	3295.47
425.83	3365.69
426.01	3463.99
426.20	3321.22
426.39	3279.09
426.58	3274.41
426.77	3318.88
426.96	3279.09
427.15	3307.18
427.33	3456.97
427.52	3428.88
427.71	3485.06
427.90	3501.44
428.09	3536.55
428.28	3461.65
428.46	3480.38
428.65	3534.21
428.84	3599.74
429.03	3686.34
429.22	3506.12
429.40	3660.60
429.59	3583.36
429.78	3562.30
429.97	3578.68
430.16	3674.64
430.34	3726.13
430.53	3857.20
430.72	3751.88
430.91	3815.07
431.10	3646.55
431.28	3768.26
431.47	3852.52
431.66	3716.77
431.85	3934.44
432.03	3911.04
432.22	3861.88
432.41	3964.87
432.60	3997.64
432.79	3803.37
432.97	3978.91
433.16	4018.70
433.35	3815.07
433.54	4007.00
433.72	3946.14
433.91	3960.19
434.10	4030.40
434.28	4009.34
434.47	4030.40
434.66	4131.05
434.85	4046.79
435.03	4177.86
435.22	4168.49
435.41	4231.69
435.59	4166.15
435.78	4285.52
435.97	4292.54
436.16	4173.18
436.34	4301.90
436.53	4327.65
436.72	4346.37
436.90	4201.26
437.09	4276.16
437.28	4287.86
437.46	4381.48
437.65	4386.16
437.84	4454.04
438.02	4376.80
438.21	4355.74
438.40	4313.61
438.58	4505.53
438.77	4585.11
438.96	4601.49
439.14	4695.11
439.33	4739.58
439.52	4781.71
439.70	4624.90
439.89	4737.24
440.08	4875.34
440.26	4833.21
440.45	4793.42
440.63	4858.95
440.82	4987.68
441.01	4833.21
441.19	4837.89
441.38	4997.04
441.57	5022.79
441.75	5064.92
441.94	5046.20
442.12	5203.01
442.31	5008.75
442.50	5226.42
442.68	5146.84
442.87	5210.03
443.05	5186.63
443.24	5343.44
443.43	5305.99
443.61	5245.14
443.80	5432.38
443.98	5315.36
444.17	5107.05
444.35	5315.36
444.54	5380.89
444.73	5371.53
444.91	5378.55
445.10	5376.21
445.28	5434.72
445.47	5275.57
445.65	5434.72
445.84	5483.88
446.02	5523.66
446.21	5530.69
446.39	5427.70
446.58	5453.45
446.77	5376.21
446.95	5411.32
447.14	5416.00
447.32	5582.18
447.51	5444.09
447.69	5551.75
447.88	5493.24
448.06	5446.43
448.25	5437.06
448.43	5544.73
448.62	5486.22
448.80	5596.22
448.99	5586.86
449.17	5753.04
449.36	5598.56
449.54	5619.63
449.73	5818.57
449.91	5760.06
450.10	5811.55
450.28	5928.58
450.46	5891.13
450.65	5736.65
450.83	5839.64
451.02	5760.06
451.20	5909.85
451.39	5902.83
451.57	5870.06
451.76	5760.06
451.94	5937.94
452.13	5923.90
452.31	5912.19
452.49	6111.14
452.68	6047.94
452.86	6024.54
453.05	6174.33
453.23	6171.99
453.42	6033.90
453.60	6012.84
453.78	6242.21
453.97	6099.44
454.15	6019.86
454.34	6174.33
454.52	6216.46
454.70	6221.14
454.89	6265.61
455.07	6370.94
455.26	6363.92
455.44	6392.00
455.62	6494.99
455.81	6436.47
455.99	6588.61
456.17	6572.22
456.36	6562.86
456.54	6422.43
456.73	6628.40
456.91	6719.68
457.09	6810.96
457.28	6822.66
457.46	6516.05
457.64	6874.15
457.83	6869.47
458.01	6691.59
458.19	7009.90
458.38	6829.68
458.56	6916.28
458.74	6937.35
458.93	6832.02
459.11	6939.69
459.29	6960.75
459.48	6839.05
459.66	6876.49
459.84	6991.18
460.03	7246.30
460.21	7084.80
460.39	6862.45
460.57	7162.04
460.76	7150.34
460.94	7346.94
461.12	7220.55
461.31	7059.06
461.49	6965.43
461.67	7133.95
461.85	7398.43
462.04	7368.01
462.22	7588.02
462.40	7506.10
462.59	7496.74
462.77	7454.61
462.95	7431.20
463.13	7454.61
463.32	7501.42
463.50	7691.00
463.68	7557.59
463.86	7609.08
464.05	7412.48
464.23	7590.36
464.41	7714.41
464.59	7517.80
464.78	7859.52
464.96	7805.69
465.14	7557.59
465.32	7740.15
465.50	7896.97
465.69	7742.49
465.87	7761.22
466.05	7892.29
466.23	7906.33
466.41	7801.01
466.60	7908.67
466.78	7843.14
466.96	7707.38
467.14	7873.56
467.32	7847.82
467.51	8009.31
467.69	7695.68
467.87	7992.93
468.05	8187.19
468.23	7885.26
468.41	7981.23
468.60	8030.38
468.78	8257.41
468.96	7964.84
469.14	8149.75
469.32	8222.30
469.50	8191.88
469.69	8208.26
469.87	8313.58
470.05	8241.03
470.23	8423.59
470.41	8381.46
470.59	8346.35
470.77	8299.54
470.95	8299.54
471.14	8718.50
471.32	8479.76
471.50	8416.57
471.68	8549.98
471.86	8695.09
472.04	8587.43
472.22	9036.81
472.40	8582.74
472.58	8887.01
472.77	8737.22
472.95	8905.74
473.13	9212.35
473.31	9128.09
473.49	8959.57
473.67	9050.85
473.85	9195.96
474.03	9226.39
474.21	9224.05
474.39	9446.40
474.57	9446.40
474.75	9486.19
474.93	9673.43
475.12	9554.07
475.30	9596.20
475.48	9645.35
475.66	9767.06
475.84	9675.77
476.02	9605.56
476.20	9818.55
476.38	10031.54
476.56	10270.27
476.74	9912.17
476.92	10019.83
477.10	9975.36
477.28	10200.05
477.46	10204.74
477.64	10366.23
477.82	10560.50
478.00	10743.06
478.18	10509.01
478.36	10820.30
478.54	11005.20
478.72	11014.56
478.90	10958.39
479.08	11232.23
479.26	11164.36
479.44	11108.18
479.62	11419.47
479.80	11384.37
479.98	11707.36
480.16	11611.40
480.34	11508.41
480.52	11737.79
480.70	11702.68
480.88	11281.38
481.06	11836.09
481.24	12011.63
481.41	12243.34
481.59	12538.25
481.77	12397.82
481.95	12472.71
482.13	12470.37
482.31	12313.56
482.49	12910.40
482.67	12819.11
482.85	12865.92
483.03	13123.38
483.21	13088.28
483.39	13259.13
483.57	13081.25
483.74	13413.61
483.92	13319.99
484.10	13373.82
484.28	13558.72
484.46	13748.31
484.64	13984.70
484.82	13860.65
485.00	14026.83
485.18	14190.67
485.35	14471.53
485.53	14342.80
485.71	14265.57
485.89	14747.72
486.07	14663.46
486.25	14745.38
486.43	14878.79
486.61	14956.02
486.78	15293.06
486.96	14956.02
487.14	15417.11
487.32	15349.23
487.50	15524.77
487.68	15655.84
487.85	15875.85
488.03	15948.41
488.21	16119.27
488.39	15976.50
488.57	16496.10
488.75	16444.60
488.92	16844.84
489.10	16795.68
489.28	16746.53
489.46	17128.04
489.64	17018.04
489.81	17116.34
489.99	17263.79
490.17	17415.93
490.35	17523.59
490.53	17762.33
490.70	17944.89
490.88	17638.28
491.06	18310.01
491.24	18127.45
491.41	18295.97
491.59	18073.62
491.77	18335.76
491.95	18642.37
492.13	18754.71
492.30	18813.23
492.48	19140.90
492.66	19026.21
492.84	18998.13
493.01	19124.52
493.19	19185.37
493.37	19346.87
493.54	19634.75
493.72	19555.18
493.90	19843.06
494.08	19871.15
494.25	20203.50
494.43	19990.52
494.61	20180.10
494.79	20360.32
494.96	20210.53
495.14	20545.22
495.32	20610.76
495.49	20767.57
495.67	20627.14
495.85	21060.14
496.02	21118.65
496.20	21132.70
496.38	21144.40
496.55	21308.24
496.73	21827.84
496.91	21696.77
497.09	21909.75
497.26	21928.48
497.44	21928.48
497.62	22221.05
497.79	22436.38
497.97	22281.90
498.14	22572.13
498.32	22642.34
498.50	22632.98
498.67	22878.74
498.85	22995.76
499.03	22860.01
499.20	22965.34
499.38	22857.67
499.56	23393.65
499.73	23435.78
499.91	23403.02
500.08	23386.63
500.26	23405.36
500.44	23646.43
500.61	23491.96
500.79	23644.09
500.97	23988.15
501.14	23950.70
501.32	24287.74
501.49	24156.67
501.67	24308.80
501.84	24219.86
502.02	24400.08
502.20	24589.67
502.37	24238.59
502.55	24678.61
502.72	24868.19
502.90	24521.79
503.07	24769.89
503.25	24905.64
503.43	24269.01
503.60	24847.13
503.78	25551.63
503.95	25427.58
504.13	25230.98
504.30	25135.01
504.48	25369.07
504.65	25750.57
504.83	25926.11
505.01	25874.62
505.18	25825.47
505.36	26239.75
505.53	25869.94
505.71	25937.82
505.88	26422.31
506.06	26209.32
506.23	26635.30
506.41	26209.32
506.58	26728.92
506.76	26307.62
506.93	26792.11
507.11	26611.89
507.28	26532.31
507.46	26848.29
507.63	27005.10
507.81	26703.17
507.98	26930.20
508.16	27264.90
508.33	27419.38
508.50	27339.80
508.68	27414.69
508.85	27716.62
509.03	27803.22
509.20	27775.14
509.38	28065.36
509.55	28173.03
509.73	27852.38
509.90	27974.08
510.08	28367.29
510.25	28393.04
510.42	28016.21
510.60	28617.73
510.77	28460.91
510.95	29252.02
511.12	28386.02
511.30	28999.24
511.47	29085.84
511.64	28643.48
511.82	28950.09
511.99	29067.11
512.17	29020.30
512.34	29493.09
512.51	29280.10
512.69	29514.16
512.86	29305.85
513.04	29720.12
513.21	29652.25
513.38	29663.95
513.56	29839.49
513.73	29472.03
513.90	29797.36
514.08	30010.35
514.25	30008.01
514.43	29874.60
514.60	30546.33
514.77	30649.32
514.95	30265.47
515.12	29989.28
515.29	30635.27
515.47	30611.87
515.64	30644.63
515.81	30295.89
515.99	30864.64
516.16	31063.59
516.33	31030.82
516.51	30972.31
516.68	30735.92
516.85	30794.43
517.03	31070.61
517.20	31225.09
517.37	31189.98
517.54	31307.01
517.72	31140.83
517.89	31498.93
518.06	31805.54
518.24	31590.21
518.41	31658.09
518.58	31573.83
518.75	31295.30
518.93	31737.66
519.10	31920.23
519.27	32123.85
519.45	31756.39
519.62	31974.06
519.79	32187.05
519.96	32250.24
520.14	32133.21
520.31	32156.62
520.48	32105.13
520.65	32496.00
520.83	32919.63
521.00	32929.00
521.17	32898.57
521.34	33151.35
521.52	33109.22
521.69	33125.60
521.86	32968.79
522.03	33043.68
522.20	33172.41
522.38	33659.24
522.55	33523.49
522.72	33266.03
522.89	33652.22
523.07	33677.97
523.24	33479.02
523.41	34038.41
523.58	33378.38
523.75	33883.94
523.92	33879.25
524.10	33869.89
524.27	34073.52
524.44	33926.07
524.61	34117.99
524.78	33785.63
524.96	34185.86
525.13	34728.87
525.30	34426.94
525.47	34536.94
525.64	34721.85
525.81	34937.18
525.98	34796.74
526.16	34768.66
526.33	34808.45
526.50	35098.67
526.67	34820.15
526.84	34918.45
527.01	35117.40
527.18	35311.66
527.36	34768.66
527.53	35007.39
527.70	35828.92
527.87	35681.47
528.04	35353.79
528.21	35367.84
528.38	35491.88
528.55	35821.90
528.72	35803.17
528.89	35388.90
529.07	35508.27
529.24	35833.60
529.41	35768.07
529.58	35807.86
529.75	35510.61
529.92	35782.11
530.09	35803.17
530.26	36039.57
530.43	35957.65
530.60	35784.45
530.77	36107.44
530.94	36411.71
531.11	35880.41
531.28	35943.61
531.46	36048.93
531.63	36011.48
531.80	35978.72
531.97	36617.68
532.14	36753.43
532.31	36367.24
532.48	36945.36
532.65	37275.37
532.82	36542.78
532.99	36744.07
533.16	36992.17
533.33	37104.51
533.50	36996.85
533.67	36680.88
533.84	36999.19
534.01	37326.86
534.18	37097.49
534.35	37326.86
534.52	37134.94
534.69	38005.62
534.86	37251.97
535.03	37385.38
535.20	37254.31
535.37	37750.50
535.54	37773.91
535.71	37551.56
535.88	37614.75
536.05	37750.50
536.22	37383.04
536.38	38061.79
536.55	38033.71
536.72	38045.41
536.89	37862.85
537.06	38230.31
537.23	38314.57
537.40	37839.44
537.57	38040.73
537.74	37879.23
537.91	38476.07
538.08	38504.15
538.25	38366.06
538.42	38415.21
538.59	38888.00
538.75	38384.79
538.92	38827.15
539.09	38766.29
539.26	38602.46
539.43	38560.33
539.60	38738.21
539.77	39016.73
539.94	39426.32
540.11	38948.85
540.28	39030.77
540.44	38717.14
540.61	39222.70
540.78	38792.04
540.95	39030.77
541.12	38990.98
541.29	39246.10
541.46	39061.20
541.62	39012.05
541.79	39744.64
541.96	39744.64
542.13	39250.78
542.30	39206.31
542.47	39999.76
542.63	39423.98
542.80	39557.39
542.97	39927.20
543.14	40325.09
543.31	40060.61
543.48	40023.16
543.64	40779.15
543.81	40383.60
543.98	39978.69
544.15	39976.35
544.32	40570.85
544.48	40612.98
544.65	40432.75
544.82	40341.47
544.99	39824.22
545.16	40722.98
545.32	40481.91
545.49	40921.93
545.66	40818.94
545.83	40704.26
546.00	40528.72
546.16	40467.86
546.33	40526.38
546.50	40360.20
546.67	40687.87
546.83	40493.61
547.00	41191.09
547.17	40774.47
547.34	40615.32
547.50	41134.92
547.67	41450.89
547.84	40931.29
548.00	41284.71
548.17	41294.07
548.34	41476.63
548.51	41439.18
548.67	41160.66
548.84	41294.07
549.01	41317.48
549.18	41280.03
549.34	41478.97
549.51	41432.16
549.68	41696.64
549.84	41645.15
550.01	41404.08
550.18	41141.94
550.34	41411.10
550.51	42176.45
550.68	42089.85
550.84	41617.07
551.01	41958.78
551.18	41525.78
551.34	42181.13
551.51	41633.45
551.68	41670.90
551.84	41635.79
552.01	41509.40
552.18	42059.43
552.34	41993.89
552.51	42155.39
552.68	42188.16
552.84	42026.66
553.01	42131.98
553.18	42108.58
553.34	42536.90
553.51	41930.70
553.67	42288.80
553.84	42176.45
554.01	42597.75
554.17	42389.44
554.34	42693.71
554.51	42209.22
554.67	42597.75
554.84	42656.26
555.00	42775.63
555.17	42756.91
555.33	42579.03
555.50	42494.77
555.67	42562.64
555.83	42857.55
556.00	43012.02
556.16	43250.76
556.33	42855.21
556.50	43161.82
556.66	42808.40
556.83	42906.70
556.99	42986.28
557.16	43316.29
557.32	43423.96
557.49	43346.72
557.65	43227.35
557.82	43215.65
557.98	43489.49
558.15	43793.76
558.32	43093.94
558.48	42990.96
558.65	43227.35
558.81	42909.04
558.98	43103.31
559.14	43452.05
559.31	42960.53
559.47	43379.49
559.64	43330.34
559.80	43533.96
559.97	43924.83
560.13	43225.01
560.30	43571.41
560.46	43505.88
560.63	44018.46
560.79	43791.42
560.96	43906.11
561.12	43660.35
561.29	43892.07
561.45	43529.28
561.61	42841.17
561.78	43627.59
561.94	43461.41
562.11	43739.93
562.27	43894.41
562.44	43672.06
562.60	44205.70
562.77	43896.75
562.93	43725.89
563.10	44083.99
563.26	44053.56
563.42	44390.60
563.59	43913.13
563.75	43915.47
563.92	43962.28
564.08	44114.42
564.24	44362.51
564.41	43784.40
564.57	44198.68
564.74	44044.20
564.90	43580.78
565.07	43714.19
565.23	44069.95
565.39	44229.10
565.56	44381.24
565.72	43915.47
565.88	44093.35
566.05	44137.82
566.21	44350.81
566.38	44292.30
566.54	44425.71
566.70	43976.33
566.87	44388.26
567.03	44051.22
567.19	44425.71
567.36	44498.26
567.52	44545.08
567.68	44587.21
567.85	44577.84
568.01	44172.93
568.17	44369.54
568.34	44304.00
568.50	44381.24
568.66	44498.26
568.83	44467.84
568.99	44334.43
569.15	44524.01
569.32	44505.29
569.48	44399.96
569.64	44851.69
569.81	44399.96
569.97	44652.74
570.13	44650.40
570.30	44137.82
570.46	44456.14
570.62	44598.91
570.78	44882.11
570.95	44610.61
571.11	44872.75
571.27	44737.00
571.43	45029.57
571.60	44477.20
571.76	44753.38
571.92	44444.43
572.09	44968.71
572.25	44816.58
572.41	44699.55
572.57	45301.07
572.74	45160.64
572.90	45141.91
573.06	44725.30
573.22	44741.68
573.38	45315.11
573.55	45069.36
573.71	45081.06
573.87	44896.16
574.03	44788.49
574.20	45102.12
574.36	44891.48
574.52	44760.40
574.68	45436.82
574.84	45242.56
575.01	45289.37
575.17	45298.73
575.33	45059.99
575.49	45074.04
575.65	45277.66
575.82	44479.54
575.98	44982.76
576.14	45411.07
576.30	45415.76
576.46	45308.09
576.62	45155.96
576.79	45401.71
576.95	44865.73
577.11	44818.92
577.27	44928.92
577.43	45088.08
577.59	45200.43
577.75	45045.95
577.92	44596.57
578.08	45198.09
578.24	45310.43
578.40	45167.66
578.56	45375.97
578.72	45244.90
578.88	45411.07
579.04	45406.39
579.21	45298.73
579.37	45361.92
579.53	45275.32
579.69	44966.37
579.85	45148.93
580.01	45406.39
580.17	44861.05
580.33	45532.78
580.49	45390.01
580.65	45387.67
580.82	45174.68
580.98	44816.58
581.14	45092.76
581.30	45184.04
581.46	45223.83
581.62	45146.59
581.78	44783.81
581.94	45443.84
582.10	45593.64
582.26	45450.86
582.42	45319.79
582.58	45411.07
582.74	45738.75
582.90	45507.04
583.06	45694.28
583.22	45205.11
583.38	44954.67
583.54	45570.23
583.70	45581.93
583.86	45397.03
584.02	45324.47
584.18	45368.94
584.34	45591.30
584.50	45219.15
584.66	45446.18
584.82	45471.93
584.98	45603.00
585.14	45429.80
585.30	45191.06
585.46	45848.75
585.62	45294.05
585.78	45331.50
585.94	45481.29
586.10	45427.46
586.26	44837.64
586.42	45298.73
586.58	45698.96
586.74	45429.80
586.90	45230.85
587.06	44971.05
587.22	45450.86
587.38	45385.33
587.54	45727.05
587.70	45668.53
587.86	45698.96
588.02	45418.10
588.18	45280.00
588.34	45970.46
588.49	45799.60
588.65	45577.25
588.81	45296.39
588.97	45909.61
589.13	45457.88
589.29	45818.33
589.45	45851.09
589.61	45607.68
589.77	45918.97
589.93	45523.42
590.08	45600.66
