SpectraSuite Data File
++++++++++++++++++++++++++++++++++++
Date: Fri Oct 25 10:47:35 EDT 2013
User: price-jones
Dark Spectrum Present: No
Reference Spectrum Present: No
Number of Sampled Component Spectra: 1
Spectrometers: USB2+H05261
Integration Time (usec): 100000 (USB2+H05261)
Spectra Averaged: 1 (USB2+H05261)
Boxcar Smoothing: 0 (USB2+H05261)
Correct for Electrical Dark: No (USB2+H05261)
Strobe/Lamp Enabled: No (USB2+H05261)
Correct for Detector Non-linearity: No (USB2+H05261)
Correct for Stray Light: No (USB2+H05261)
Number of Pixels in Processed Spectrum: 2048
>>>>>Begin Processed Spectral Data<<<<<
365.73	156.82
365.92	156.82
366.12	156.82
366.32	46.81
366.52	70.22
366.72	152.13
366.91	88.94
367.11	58.51
367.31	14.04
367.51	65.54
367.70	7.02
367.90	79.58
368.10	49.15
368.30	70.22
368.49	23.41
368.69	114.69
368.89	72.56
369.09	117.03
369.28	74.90
369.48	81.92
369.68	77.24
369.87	114.69
370.07	145.11
370.27	156.82
370.47	142.77
370.66	318.31
370.86	444.70
371.06	423.64
371.25	514.92
371.45	409.59
371.65	528.96
371.84	425.98
372.04	468.11
372.24	468.11
372.44	564.07
372.63	540.66
372.83	535.98
373.03	524.28
373.22	493.85
373.42	498.53
373.62	484.49
373.81	524.28
374.01	503.22
374.21	524.28
374.40	566.41
374.60	603.86
374.79	599.18
374.99	580.45
375.19	585.13
375.38	524.28
375.58	505.56
375.78	575.77
375.97	578.11
376.17	655.35
376.37	521.94
376.56	512.58
376.76	543.00
376.95	582.79
377.15	643.65
377.35	629.60
377.54	643.65
377.74	653.01
377.93	552.37
378.13	664.71
378.33	589.82
378.52	608.54
378.72	636.63
378.91	655.35
379.11	681.10
379.31	648.33
379.50	629.60
379.70	636.63
379.89	669.39
380.09	608.54
380.28	613.22
380.48	620.24
380.68	580.45
380.87	645.99
381.07	650.67
381.26	709.18
381.46	645.99
381.65	657.69
381.85	589.82
382.04	681.10
382.24	713.86
382.43	622.58
382.63	774.72
382.83	667.05
383.02	713.86
383.22	690.46
383.41	681.10
383.61	758.33
383.80	765.36
384.00	788.76
384.19	622.58
384.39	753.65
384.58	763.01
384.78	779.40
384.97	753.65
385.17	809.83
385.36	720.88
385.56	725.57
385.75	772.38
385.95	784.08
386.14	732.59
386.34	777.06
386.53	739.61
386.72	748.97
386.92	894.08
387.11	802.80
387.31	723.23
387.50	795.78
387.70	777.06
387.89	837.91
388.09	786.42
388.28	823.87
388.48	816.85
388.67	837.91
388.86	866.00
389.06	798.12
389.25	901.11
389.45	933.87
389.64	847.27
389.84	915.15
390.03	915.15
390.22	870.68
390.42	894.08
390.61	985.37
390.81	943.24
391.00	903.45
391.19	964.30
391.39	964.30
391.58	968.98
391.78	940.90
391.97	1008.77
392.16	976.00
392.36	1006.43
392.55	1004.09
392.75	1062.60
392.94	1046.22
393.13	940.90
393.33	917.49
393.52	940.90
393.71	1036.86
393.91	971.32
394.10	987.71
394.29	1027.50
394.49	1027.50
394.68	1027.50
394.88	1109.41
395.07	1179.63
395.26	1193.67
395.46	1158.57
395.65	1048.56
395.84	1081.33
396.04	1156.22
396.23	1184.31
396.42	1160.91
396.62	1123.46
396.81	1207.72
397.00	1076.65
397.19	1177.29
397.39	1170.27
397.58	1200.69
397.77	1188.99
397.97	1294.32
398.16	1306.02
398.35	1320.06
398.55	1252.19
398.74	1343.47
398.93	1350.49
399.12	1371.55
399.32	1378.58
399.51	1322.40
399.70	1418.36
399.90	1397.30
400.09	1387.94
400.28	1406.66
400.47	1430.07
400.67	1570.50
400.86	1493.26
401.05	1479.22
401.24	1458.15
401.44	1476.88
401.63	1401.98
401.82	1486.24
402.01	1430.07
402.21	1495.60
402.40	1523.69
402.59	1605.61
402.78	1549.43
402.97	1586.88
403.17	1600.93
403.36	1612.63
403.55	1629.01
403.74	1671.14
403.93	1668.80
404.13	1680.50
404.32	1577.52
404.51	1572.84
404.70	1645.40
404.89	1654.76
405.09	1762.42
405.28	1715.61
405.47	1767.10
405.66	1739.02
405.85	1703.91
406.05	1724.97
406.24	1717.95
406.43	1870.09
406.62	1797.53
406.81	1856.04
407.00	1769.44
407.20	1781.15
407.39	1788.17
407.58	1853.70
407.77	1909.88
407.96	1879.45
408.15	2052.65
408.34	1884.13
408.54	2045.63
408.73	1959.03
408.92	1998.82
409.11	2076.06
409.30	2108.82
409.49	1963.71
409.68	2038.61
409.87	2043.29
410.07	2010.52
410.26	2111.16
410.45	2104.14
410.64	2207.13
410.83	2186.06
411.02	2157.97
411.21	2174.36
411.40	2211.81
411.59	2431.82
411.78	2263.30
411.98	2370.96
412.17	2345.22
412.36	2352.24
412.55	2434.16
412.74	2406.07
412.93	2530.12
413.12	2525.44
413.31	2609.70
413.50	2478.63
413.69	2523.10
413.88	2569.91
414.07	2530.12
414.26	2609.70
414.45	2644.81
414.64	2665.87
414.83	2759.49
415.02	2663.53
415.22	2752.47
415.41	2806.30
415.60	2726.72
415.79	2761.83
415.98	2923.33
416.17	2750.13
416.36	2874.18
416.55	2918.65
416.74	2843.75
416.93	2834.39
417.12	2899.92
417.31	2965.46
417.50	2916.31
417.69	3084.83
417.88	3103.55
418.07	3042.70
418.26	2979.50
418.45	3052.06
418.64	3148.02
418.83	3262.71
419.02	3166.74
419.21	3131.64
419.39	3215.90
419.58	3091.85
419.77	3108.23
419.96	3220.58
420.15	3412.50
420.34	3286.11
420.53	3302.50
420.72	3330.58
420.91	3379.73
421.10	3393.78
421.29	3475.70
421.48	3426.54
421.67	3459.31
421.86	3365.69
422.05	3435.91
422.24	3417.18
422.43	3445.27
422.61	3475.70
422.80	3466.33
422.99	3466.33
423.18	3574.00
423.37	3559.95
423.56	3515.48
423.75	3440.59
423.94	3466.33
424.13	3314.20
424.32	3393.78
424.50	3501.44
424.69	3616.13
424.88	3613.79
425.07	3534.21
425.26	3583.36
425.45	3510.80
425.64	3524.85
425.83	3463.99
426.01	3595.06
426.20	3681.66
426.39	3669.96
426.58	3674.64
426.77	3616.13
426.96	3698.05
427.15	3541.23
427.33	3684.00
427.52	3735.50
427.71	3672.30
427.90	3679.32
428.09	3808.05
428.28	3761.24
428.46	3784.65
428.65	3744.86
428.84	3894.65
429.03	3868.91
429.22	3772.94
429.40	3786.99
429.59	3950.82
429.78	3609.11
429.97	3648.90
430.16	3674.64
430.34	3819.75
430.53	3871.25
430.72	4011.68
430.91	3861.88
431.10	3894.65
431.28	3971.89
431.47	4205.94
431.66	4044.45
431.85	3918.06
432.03	4262.12
432.22	4257.43
432.41	4243.39
432.60	4215.30
432.79	4114.66
432.97	4320.63
433.16	4255.09
433.35	4126.36
433.54	4297.22
433.72	4255.09
433.91	4187.22
434.10	4320.63
434.28	4283.18
434.47	4430.63
434.66	4222.33
434.85	4416.59
435.03	4599.15
435.22	4454.04
435.41	4568.73
435.59	4418.93
435.78	4592.13
435.97	4545.32
436.16	4545.32
436.34	4442.34
436.53	4554.68
436.72	4683.41
436.90	4449.36
437.09	4575.75
437.28	4704.48
437.46	4744.27
437.65	4734.90
437.84	4622.56
438.02	4695.11
438.21	4788.74
438.40	4594.47
438.58	4959.60
438.77	4947.89
438.96	4873.00
439.14	4978.32
439.33	5097.69
439.52	4985.34
439.70	5104.71
439.89	5212.37
440.08	5125.77
440.26	5184.29
440.45	5181.95
440.63	5352.81
440.82	5296.63
441.01	5385.57
441.19	5383.23
441.38	5401.96
441.57	5373.87
441.75	5432.38
441.94	5596.22
442.12	5509.62
442.31	5741.33
442.50	5584.52
442.68	5671.12
442.87	5741.33
443.05	5696.86
443.24	5837.30
443.43	5659.42
443.61	5790.49
443.80	5898.15
443.98	5863.04
444.17	5628.99
444.35	5827.93
444.54	6019.86
444.73	5802.19
444.91	5830.27
445.10	5858.36
445.28	5884.11
445.47	5701.54
445.65	5823.25
445.84	5940.28
446.02	5865.38
446.21	5846.66
446.39	5867.72
446.58	5984.75
446.77	6024.54
446.95	5851.34
447.14	5959.00
447.32	6104.12
447.51	5996.45
447.69	5928.58
447.88	5926.24
448.06	5989.43
448.25	6080.71
448.43	6087.73
448.62	6094.76
448.80	5891.13
448.99	6132.20
449.17	6251.57
449.36	6054.97
449.54	6111.14
449.73	6342.85
449.91	6497.33
450.10	6317.11
450.28	6384.98
450.46	6366.26
450.65	6485.62
450.83	6471.58
451.02	6401.37
451.20	6443.49
451.39	6406.05
451.57	6626.06
451.76	6539.46
451.94	6567.54
452.13	6537.12
452.31	6539.46
452.49	6384.98
452.68	6630.74
452.86	6604.99
453.05	6562.86
453.23	6670.53
453.42	6530.09
453.60	6586.27
453.78	6544.14
453.97	6509.03
454.15	6628.40
454.34	6476.26
454.52	6878.83
454.70	6764.15
454.89	6876.49
455.07	6822.66
455.26	6841.39
455.44	6981.82
455.62	6616.69
455.81	6801.60
455.99	7016.93
456.17	7019.27
456.36	7035.65
456.54	7194.81
456.73	7129.27
456.91	7201.83
457.09	7323.54
457.28	7239.28
457.46	7112.89
457.64	7368.01
457.83	7290.77
458.01	7337.58
458.19	7466.31
458.38	7227.57
458.56	7349.28
458.74	7590.36
458.93	7330.56
459.11	7557.59
459.29	7585.68
459.48	7508.44
459.66	7719.09
459.84	7543.55
460.03	7648.87
460.21	7789.30
460.39	7665.25
460.57	7627.81
460.76	7758.88
460.94	7758.88
461.12	7882.92
461.31	7775.26
461.49	7801.01
461.67	7742.49
461.85	7840.79
462.04	7721.43
462.22	8482.10
462.40	8084.21
462.59	7815.05
462.77	7889.95
462.95	7920.37
463.13	8114.64
463.32	8102.93
463.50	8079.53
463.68	8152.09
463.86	8042.08
464.05	7969.52
464.23	8035.06
464.41	8318.26
464.59	7948.46
464.78	8414.23
464.96	8100.59
465.14	8128.68
465.32	8358.05
465.50	8379.12
465.69	8407.20
465.87	8393.16
466.05	8271.45
466.23	8334.65
466.41	8390.82
466.60	8561.68
466.78	8372.10
466.96	8311.24
467.14	8332.31
467.32	8578.06
467.51	8379.12
467.69	8514.87
467.87	8489.12
468.05	8592.11
468.23	8617.85
468.41	8446.99
468.60	8674.03
468.78	8688.07
468.96	8695.09
469.14	8592.11
469.32	8793.39
469.50	8795.73
469.69	8786.37
469.87	8901.06
470.05	8973.61
470.23	8926.80
470.41	8863.61
470.59	8990.00
470.77	8980.64
470.95	9027.45
471.14	9331.72
471.32	9015.74
471.50	9245.12
471.68	9259.16
471.86	9233.41
472.04	9483.85
472.22	9643.01
472.40	9226.39
472.58	9486.19
472.77	9336.40
472.95	9507.26
473.13	9628.96
473.31	9570.45
473.49	9549.39
473.67	9804.50
473.85	9743.65
474.03	9774.08
474.21	9729.61
474.39	10249.21
474.57	10092.39
474.75	9940.26
474.93	10080.69
475.12	10108.77
475.30	10293.68
475.48	10202.40
475.66	10354.53
475.84	10296.02
476.02	10314.74
476.20	10441.13
476.38	10630.71
476.56	10499.64
476.74	10656.46
476.92	10712.63
477.10	10761.78
477.28	10869.45
477.46	10881.15
477.64	11056.69
477.82	11194.78
478.00	11328.19
478.18	11398.41
478.36	11335.21
478.54	11634.80
478.72	11557.57
478.90	11730.76
479.08	11651.19
479.26	11929.71
479.44	12086.53
479.62	12119.29
479.80	12018.65
479.98	12461.01
480.16	12465.69
480.34	12219.94
480.52	12484.42
480.70	12519.53
480.88	12449.31
481.06	12666.98
481.24	12573.36
481.41	12711.45
481.59	12903.37
481.77	13270.84
481.95	13247.43
482.13	13104.66
482.31	13441.70
482.49	13528.30
482.67	13654.69
482.85	13610.22
483.03	13774.05
483.21	13872.36
483.39	14228.12
483.57	14033.85
483.74	14328.76
483.92	14303.01
484.10	14054.92
484.28	14558.13
484.46	14785.16
484.64	15037.94
484.82	14431.74
485.00	14719.63
485.18	15316.47
485.35	15288.38
485.53	14913.89
485.71	15300.08
485.89	15283.70
486.07	14951.34
486.25	15620.74
486.43	15836.06
486.61	15777.55
486.78	15740.10
486.96	15910.96
487.14	16123.95
487.32	16355.66
487.50	16374.39
487.68	16791.00
487.85	16964.20
488.03	16816.75
488.21	17011.01
488.39	17151.45
488.57	17195.92
488.75	17291.88
488.92	17530.61
489.10	17752.96
489.28	17792.75
489.46	18024.47
489.64	17886.37
489.81	18380.23
489.99	18427.04
490.17	18553.43
490.35	18754.71
490.53	18750.03
490.70	18944.30
490.88	18712.58
491.06	19103.45
491.24	19119.84
491.41	19082.39
491.59	19154.94
491.77	18904.51
491.95	19339.85
492.13	19410.06
492.30	19520.07
492.48	19920.30
492.66	20144.99
492.84	20004.56
493.01	20299.47
493.19	20027.96
493.37	20446.92
493.54	20467.98
493.72	20617.78
493.90	20774.60
494.08	21209.93
494.25	21542.29
494.43	21212.28
494.61	21493.14
494.79	21408.88
494.96	21509.52
495.14	21537.61
495.32	21703.79
495.49	21764.64
495.67	21865.28
495.85	22108.70
496.02	22057.21
496.20	22452.76
496.38	22185.94
496.55	22696.17
496.73	22998.10
496.91	22878.74
497.09	22867.03
497.26	22789.80
497.44	22874.06
497.62	23466.21
497.79	23115.13
497.97	23110.45
498.14	23625.37
498.32	23679.20
498.50	23503.66
498.67	24088.79
498.85	23836.02
499.03	24271.36
499.20	24105.18
499.38	24353.27
499.56	24299.44
499.73	24547.54
499.91	24601.37
500.08	24444.56
500.26	24318.17
500.44	24676.27
500.61	24996.92
500.79	24500.73
500.97	25076.50
501.14	25137.35
501.32	25153.74
501.49	25142.03
501.67	24807.34
501.84	25493.12
502.02	25373.75
502.20	25586.74
502.37	25652.27
502.55	25799.73
502.72	25858.24
502.90	25912.07
503.07	26073.57
503.25	26036.12
503.43	26101.65
503.60	26197.62
503.78	26349.75
503.95	26073.57
504.13	26625.93
504.30	26668.06
504.48	26466.78
504.65	26679.77
504.83	26965.31
505.01	27063.61
505.18	27395.97
505.36	27182.98
505.53	27049.57
505.71	27267.24
505.88	27625.34
506.06	27470.87
506.23	27438.10
506.41	27218.09
506.58	27957.70
506.76	27618.32
506.93	27938.97
507.11	28098.13
507.28	27838.33
507.46	28009.19
507.63	27913.23
507.81	27894.50
507.98	28034.94
508.16	28608.37
508.33	28442.19
508.50	28701.99
508.68	28460.91
508.85	28943.06
509.03	28863.49
509.20	28973.49
509.38	28947.75
509.55	29387.77
509.73	29247.33
509.90	29479.05
510.08	29053.07
510.25	29263.72
510.42	29418.19
510.60	29518.84
510.77	29439.26
510.95	29441.60
511.12	29605.44
511.30	29734.17
511.47	30218.66
511.64	30012.69
511.82	30167.16
511.99	29916.73
512.17	30148.44
512.34	30092.27
512.51	31005.08
512.69	30501.86
512.86	30583.78
513.04	30651.66
513.21	31297.64
513.38	30316.96
513.56	30551.01
513.73	30735.92
513.90	31033.16
514.08	30984.01
514.25	31028.48
514.43	31115.08
514.60	31126.78
514.77	31262.54
514.95	31475.52
515.12	31311.69
515.29	31419.35
515.47	31737.66
515.64	31964.70
515.81	31461.48
515.99	31674.47
516.16	31906.18
516.33	31803.20
516.51	31831.29
516.68	31435.74
516.85	31674.47
517.03	31604.25
517.20	31894.48
517.37	32217.47
517.54	32278.33
517.72	32311.10
517.89	32390.67
518.06	32121.51
518.24	32549.83
518.41	32418.76
518.58	32063.00
518.75	32472.59
518.93	32856.44
519.10	32589.62
519.27	32910.27
519.45	32917.29
519.62	33247.31
519.79	32844.74
519.96	33556.26
520.14	33097.52
520.31	33062.41
520.48	33717.76
520.65	33605.41
520.83	33511.79
521.00	34066.50
521.17	33472.00
521.34	33647.54
521.52	33787.97
521.69	33729.46
521.86	33930.75
522.03	34031.39
522.20	33961.17
522.38	34436.30
522.55	34279.49
522.72	34424.60
522.89	34146.08
523.07	34679.72
523.24	34235.02
523.41	34321.62
523.58	34541.63
523.75	34714.83
523.92	34230.33
524.10	34822.49
524.27	35035.48
524.44	35082.29
524.61	34848.24
524.78	35012.07
524.96	35204.00
525.13	34862.28
525.30	35611.25
525.47	35459.12
525.64	35571.46
525.81	35168.89
525.98	35950.63
526.16	35419.33
526.33	35302.30
526.50	35868.71
526.67	35639.34
526.84	35571.46
527.01	35707.21
527.18	35686.15
527.36	35896.80
527.53	35707.21
527.70	36507.68
527.87	36493.63
528.04	36095.74
528.21	36093.40
528.38	36287.67
528.55	36364.90
528.72	36222.13
528.89	36861.10
529.07	36362.56
529.24	36357.88
529.41	36318.09
529.58	36367.24
529.75	36332.14
529.92	37230.90
530.09	36774.50
530.26	36552.15
530.43	37361.97
530.60	36500.65
530.77	37020.25
530.94	37156.00
531.11	36748.75
531.28	37471.98
531.46	37256.65
531.63	37394.74
531.80	37329.20
531.97	37500.06
532.14	37228.56
532.31	37539.85
532.48	37511.77
532.65	37181.75
532.82	37315.16
532.99	37816.04
533.16	37577.30
533.33	37525.81
533.50	37827.74
533.67	37790.29
533.84	37151.32
534.01	38082.86
534.18	37834.76
534.35	38242.01
534.52	37869.87
534.69	38047.75
534.86	38244.35
535.03	37848.80
535.20	38471.39
535.37	38557.99
535.54	38635.22
535.71	38340.32
535.88	38473.73
536.05	38726.50
536.22	38462.02
536.38	38244.35
536.55	38522.88
536.72	38775.66
536.89	38321.59
537.06	38740.55
537.23	38995.67
537.40	39110.35
537.57	39089.29
537.74	38892.68
537.91	39000.35
538.08	38993.32
538.25	38623.52
538.42	38934.81
538.59	39393.56
538.75	39386.54
538.92	39201.63
539.09	39218.02
539.26	39171.21
539.43	39536.33
539.60	38927.79
539.77	39393.56
539.94	39438.03
540.11	39388.88
540.28	39367.81
540.44	39477.82
540.61	39452.07
540.78	39480.16
540.95	39454.41
541.12	39337.38
541.29	39384.19
541.46	39271.85
541.62	40039.54
541.79	40009.12
541.96	39772.72
542.13	39976.35
542.30	39641.65
542.47	40179.98
542.63	39634.63
542.80	39770.38
542.97	40399.99
543.14	40914.90
543.31	40435.10
543.48	40451.48
543.64	41125.55
543.81	40858.73
543.98	40748.73
544.15	40622.34
544.32	40779.15
544.48	40961.72
544.65	40987.46
544.82	40940.65
544.99	40872.78
545.16	40847.03
545.32	40432.75
545.49	40877.46
545.66	40847.03
545.83	41450.89
546.00	40917.25
546.16	41413.44
546.33	41074.06
546.50	40872.78
546.67	40924.27
546.83	40987.46
547.00	40914.90
547.17	41223.86
547.34	41177.04
547.50	41361.95
547.67	41801.97
547.84	41621.75
548.00	41640.47
548.17	41902.61
548.34	41617.07
548.51	41635.79
548.67	41806.65
548.84	41769.20
549.01	41818.35
549.18	41612.38
549.34	41823.03
549.51	42101.56
549.68	41858.14
549.84	41832.39
550.01	41989.21
550.18	41778.56
550.34	41806.65
550.51	41909.63
550.68	41996.23
550.84	41509.40
551.01	42202.20
551.18	41752.82
551.34	41741.11
551.51	42272.42
551.68	42307.52
551.84	41972.83
552.01	42099.22
552.18	42256.03
552.34	42057.09
552.51	42419.87
552.68	42218.58
552.84	42506.47
553.01	42600.09
553.18	42572.00
553.34	42307.52
553.51	42398.80
553.67	42703.07
553.84	42766.27
554.01	43271.82
554.17	42986.28
554.34	42677.33
554.51	42382.42
554.67	43536.30
554.84	43274.16
555.00	42293.48
555.17	42473.70
555.33	42728.82
555.50	43217.99
555.67	42515.83
555.83	42895.00
556.00	43105.65
556.16	43466.09
556.33	43157.14
556.50	43342.04
556.66	43150.12
556.83	42965.21
556.99	43379.49
557.16	43026.07
557.32	43154.80
557.49	43611.20
557.65	42969.90
557.82	43201.61
557.98	43253.10
558.15	43285.87
558.32	43014.37
558.48	43086.92
558.65	43393.53
558.81	43061.18
558.98	43292.89
559.14	43320.98
559.31	43189.91
559.47	43449.70
559.64	43737.59
559.80	43999.73
559.97	43564.39
560.13	43115.01
560.30	42866.91
560.46	43868.66
560.63	43634.61
560.79	44149.53
560.96	43672.06
561.12	43859.30
561.29	43538.65
561.45	43775.04
561.61	43931.86
561.78	44062.93
561.94	43814.83
562.11	43697.80
562.27	43845.26
562.44	43688.44
562.60	44018.46
562.77	43896.75
562.93	43650.99
563.10	43838.23
563.26	43805.47
563.42	43817.17
563.59	43716.53
563.75	43665.03
563.92	43847.60
564.08	43885.04
564.24	44004.41
564.41	43868.66
564.57	44289.96
564.74	43690.78
564.90	43950.58
565.07	43845.26
565.23	43945.90
565.39	43620.56
565.56	44399.96
565.72	43442.68
565.88	44264.21
566.05	43913.13
566.21	43849.94
566.38	43842.92
566.54	43838.23
566.70	44130.80
566.87	44493.58
567.03	43753.97
567.19	44453.79
567.36	43892.07
567.52	44151.87
567.68	44376.56
567.85	44327.41
568.01	44622.31
568.17	44589.55
568.34	44652.74
568.50	44652.74
568.66	43952.92
568.83	44409.32
568.99	44350.81
569.15	43929.51
569.32	44072.29
569.48	44341.45
569.64	44446.77
569.81	44341.45
569.97	44072.29
570.13	44105.06
570.30	44280.60
570.46	43798.44
570.62	43910.79
570.78	44236.12
570.95	43995.05
571.11	44378.90
571.27	43899.09
571.43	44404.64
571.60	44580.18
571.76	44215.06
571.92	44376.56
572.09	44179.95
572.25	44259.53
572.41	44282.94
572.57	44622.31
572.74	44912.54
572.90	44395.28
573.06	44893.82
573.22	44914.88
573.38	44226.76
573.55	44058.24
573.71	44498.26
573.87	44411.67
574.03	44301.66
574.20	44498.26
574.36	44165.91
574.52	44561.46
574.68	44748.70
574.84	44285.28
575.01	44275.91
575.17	44271.23
575.33	44460.82
575.49	44521.67
575.65	44839.98
575.82	44676.15
575.98	44528.69
576.14	44708.91
576.30	44720.62
576.46	44158.89
576.62	44643.38
576.79	44369.54
576.95	44582.52
577.11	44418.69
577.27	44535.71
577.43	44737.00
577.59	44928.92
577.75	44910.20
577.92	44233.78
578.08	44095.69
578.24	44591.89
578.40	44547.42
578.56	45151.27
578.72	44385.92
578.88	44636.36
579.04	44587.21
579.21	44751.04
579.37	44399.96
579.53	44416.35
579.69	44512.31
579.85	44678.49
580.01	44797.85
580.17	44847.00
580.33	45031.91
580.49	44882.11
580.65	44753.38
580.82	44865.73
580.98	44360.17
581.14	44271.23
581.30	44584.86
581.46	44687.85
581.62	44917.22
581.78	44587.21
581.94	45062.33
582.10	44708.91
582.26	45263.62
582.42	44411.67
582.58	44910.20
582.74	44573.16
582.90	44634.02
583.06	44889.13
583.22	44687.85
583.38	45116.17
583.54	44898.50
583.70	44732.32
583.86	44280.60
584.02	44416.35
584.18	44540.39
584.34	44612.95
584.50	44540.39
584.66	44488.90
584.82	44524.01
584.98	44802.53
585.14	44655.08
585.30	44498.26
585.46	44179.95
585.62	44491.24
585.78	44865.73
585.94	44175.27
586.10	44535.71
586.26	44598.91
586.42	44964.03
586.58	44788.49
586.74	44919.56
586.90	44694.87
587.06	44598.91
587.22	44828.28
587.38	44421.03
587.54	44961.69
587.70	45277.66
587.86	44811.90
588.02	45401.71
588.18	45038.93
588.34	44671.46
588.49	44404.64
588.65	44715.93
588.81	44458.48
588.97	44823.60
589.13	44622.31
589.29	44423.37
589.45	44835.30
589.61	44858.71
589.77	45223.83
589.93	45162.98
590.08	44783.81
590.24	44971.05
