SpectraSuite Data File
++++++++++++++++++++++++++++++++++++
Date: Fri Oct 25 11:34:06 EDT 2013
User: price-jones
Dark Spectrum Present: No
Reference Spectrum Present: No
Number of Sampled Component Spectra: 1
Spectrometers: USB2+H05261
Integration Time (usec): 100000 (USB2+H05261)
Spectra Averaged: 1 (USB2+H05261)
Boxcar Smoothing: 0 (USB2+H05261)
Correct for Electrical Dark: No (USB2+H05261)
Strobe/Lamp Enabled: No (USB2+H05261)
Correct for Detector Non-linearity: No (USB2+H05261)
Correct for Stray Light: No (USB2+H05261)
Number of Pixels in Processed Spectrum: 2048
>>>>>Begin Processed Spectral Data<<<<<
365.73	245.76
365.92	245.76
366.12	245.76
366.32	145.11
366.52	180.22
366.72	180.22
366.91	163.84
367.11	154.48
367.31	142.77
367.51	222.35
367.70	205.97
367.90	149.79
368.10	173.20
368.30	229.37
368.49	105.32
368.69	217.67
368.89	161.50
369.09	133.41
369.28	234.05
369.48	170.86
369.68	189.58
369.87	220.01
370.07	299.59
370.27	255.12
370.47	318.31
370.66	519.60
370.86	528.96
371.06	512.58
371.25	559.39
371.45	557.05
371.65	587.47
371.84	517.26
372.04	559.39
372.24	624.92
372.44	550.03
372.63	671.73
372.83	631.94
373.03	568.75
373.22	608.54
373.42	622.58
373.62	561.73
373.81	526.62
374.01	500.87
374.21	664.71
374.40	662.37
374.60	648.33
374.79	587.47
374.99	622.58
375.19	648.33
375.38	662.37
375.58	613.22
375.78	678.76
375.97	692.80
376.17	667.05
376.37	777.06
376.56	671.73
376.76	662.37
376.95	645.99
377.15	692.80
377.35	704.50
377.54	695.14
377.74	631.94
377.93	657.69
378.13	690.46
378.33	674.07
378.52	690.46
378.72	720.88
378.91	788.76
379.11	718.54
379.31	702.16
379.50	678.76
379.70	758.33
379.89	730.25
380.09	641.31
380.28	690.46
380.48	732.59
380.68	718.54
380.87	753.65
381.07	702.16
381.26	758.33
381.46	809.83
381.65	755.99
381.85	746.63
382.04	741.95
382.24	774.72
382.43	746.63
382.63	744.29
382.83	833.23
383.02	826.21
383.22	844.93
383.41	793.44
383.61	837.91
383.80	772.38
384.00	854.30
384.19	784.08
384.39	849.61
384.58	849.61
384.78	837.91
384.97	828.55
385.17	800.46
385.36	901.11
385.56	873.02
385.75	936.21
385.95	814.51
386.14	851.96
386.34	805.14
386.53	844.93
386.72	791.10
386.92	809.83
387.11	903.45
387.31	847.27
387.50	877.70
387.70	889.40
387.89	894.08
388.09	727.91
388.28	964.30
388.48	823.87
388.67	945.58
388.86	973.66
389.06	926.85
389.25	968.98
389.45	957.28
389.64	950.26
389.84	973.66
390.03	971.32
390.22	1022.81
390.42	959.62
390.61	868.34
390.81	952.60
391.00	990.05
391.19	1067.28
391.39	1001.75
391.58	980.68
391.78	945.58
391.97	1018.13
392.16	1006.43
392.36	1020.47
392.55	1062.60
392.75	985.37
392.94	1055.58
393.13	1053.24
393.33	1001.75
393.52	1034.52
393.71	1036.86
393.91	1071.97
394.10	1137.50
394.29	1118.78
394.49	1095.37
394.68	1095.37
394.88	1046.22
395.07	1097.71
395.26	1097.71
395.46	1062.60
395.65	1102.39
395.84	1198.35
396.04	1299.00
396.23	1160.91
396.42	1013.45
396.62	1165.59
396.81	1205.38
397.00	1203.04
397.19	1186.65
397.39	1193.67
397.58	1179.63
397.77	1146.86
397.97	1334.11
398.16	1270.91
398.35	1231.12
398.55	1235.80
398.74	1203.04
398.93	1345.81
399.12	1373.89
399.32	1203.04
399.51	1350.49
399.70	1366.87
399.90	1406.66
400.09	1341.13
400.28	1404.32
400.47	1338.79
400.67	1373.89
400.86	1345.81
401.05	1394.96
401.24	1404.32
401.44	1462.83
401.63	1507.30
401.82	1432.41
402.01	1469.86
402.21	1416.02
402.40	1469.86
402.59	1437.09
402.78	1467.52
402.97	1516.67
403.17	1406.66
403.36	1425.39
403.55	1535.39
403.74	1633.69
403.93	1558.80
404.13	1643.06
404.32	1610.29
404.51	1600.93
404.70	1612.63
404.89	1561.14
405.09	1680.50
405.28	1664.12
405.47	1603.27
405.66	1591.56
405.85	1753.06
406.05	1696.89
406.24	1680.50
406.43	1753.06
406.62	1753.06
406.81	1823.28
407.00	1612.63
407.20	1720.29
407.39	1764.76
407.58	1832.64
407.77	1818.60
407.96	1907.54
408.15	1874.77
408.34	1813.92
408.54	1846.68
408.73	1809.23
408.92	1954.35
409.11	1825.62
409.30	1944.99
409.49	1973.07
409.68	2031.58
409.87	1898.17
410.07	1940.30
410.26	2076.06
410.45	2010.52
410.64	2174.36
410.83	2036.27
411.02	2059.67
411.21	2094.78
411.40	2045.63
411.59	2167.34
411.78	2183.72
411.98	2108.82
412.17	2160.31
412.36	2270.32
412.55	2260.96
412.74	2413.09
412.93	2317.13
413.12	2277.34
413.31	2466.92
413.50	2275.00
413.69	2375.64
413.88	2403.73
414.07	2406.07
414.26	2424.80
414.45	2466.92
414.64	2492.67
414.83	2401.39
415.02	2588.63
415.22	2621.40
415.41	2553.52
415.60	2590.97
415.79	2726.72
415.98	2656.51
416.17	2693.96
416.36	2677.57
416.55	2597.99
416.74	2827.37
416.93	2686.94
417.12	2747.79
417.31	2766.51
417.50	2937.37
417.69	2949.08
417.88	2878.86
418.07	2876.52
418.26	2857.79
418.45	2850.77
418.64	3005.25
418.83	2946.73
419.02	2967.80
419.21	3110.57
419.39	3119.93
419.58	3164.40
419.77	2995.89
419.96	3012.27
420.15	3103.55
420.34	3042.70
420.53	3150.36
420.72	3098.87
420.91	3187.81
421.10	3241.64
421.29	3194.83
421.48	3185.47
421.67	3183.13
421.86	3176.11
422.05	3227.60
422.24	3325.90
422.43	3295.47
422.61	3330.58
422.80	3321.22
422.99	3349.31
423.18	3438.25
423.37	3471.01
423.56	3351.65
423.75	3318.88
423.94	3276.75
424.13	3164.40
424.32	3187.81
424.50	3452.29
424.69	3370.37
424.88	3478.04
425.07	3375.05
425.26	3307.18
425.45	3398.46
425.64	3475.70
425.83	3438.25
426.01	3449.95
426.20	3356.33
426.39	3368.03
426.58	3503.78
426.77	3286.11
426.96	3431.23
427.15	3440.59
427.33	3414.84
427.52	3534.21
427.71	3574.00
427.90	3499.10
428.09	3583.36
428.28	3585.70
428.46	3529.53
428.65	3503.78
428.84	3822.09
429.03	3709.75
429.22	3665.28
429.40	3698.05
429.59	3590.38
429.78	3503.78
429.97	3599.74
430.16	3653.58
430.34	3684.00
430.53	3789.33
430.72	3857.20
430.91	3812.73
431.10	3749.54
431.28	3772.94
431.47	3894.65
431.66	3896.99
431.85	3918.06
432.03	4037.42
432.22	4086.58
432.41	3985.93
432.60	3948.48
432.79	4032.74
432.97	4145.09
433.16	4119.34
433.35	4035.08
433.54	4025.72
433.72	4250.41
433.91	4173.18
434.10	4119.34
434.28	4264.46
434.47	4180.20
434.66	4184.88
434.85	4269.14
435.03	4255.09
435.22	4154.45
435.41	4461.06
435.59	4227.01
435.78	4255.09
435.97	4313.61
436.16	4332.33
436.34	4318.29
436.53	4367.44
436.72	4461.06
436.90	4451.70
437.09	4395.53
437.28	4292.54
437.46	4449.36
437.65	4507.87
437.84	4461.06
438.02	4423.61
438.21	4615.54
438.40	4489.15
438.58	4645.96
438.77	4762.99
438.96	4690.43
439.14	4699.80
439.33	4821.50
439.52	4706.82
439.70	4753.63
439.89	4762.99
440.08	4964.28
440.26	4835.55
440.45	4910.44
440.63	4868.31
440.82	5093.01
441.01	4980.66
441.19	5149.18
441.38	5174.92
441.57	5238.12
441.75	5233.44
441.94	5305.99
442.12	5186.63
442.31	5348.12
442.50	5242.80
442.68	5303.65
442.87	5268.55
443.05	5490.90
443.24	5458.13
443.43	5516.64
443.61	5497.92
443.80	5465.15
443.98	5378.55
444.17	5118.75
444.35	5521.32
444.54	5500.26
444.73	5579.84
444.91	5561.11
445.10	5558.77
445.28	5493.24
445.47	5441.75
445.65	5380.89
445.84	5659.42
446.02	5687.50
446.21	5593.88
446.39	5427.70
446.58	5778.78
446.77	5682.82
446.95	5598.56
447.14	5619.63
447.32	5792.83
447.51	5701.54
447.69	5741.33
447.88	5673.46
448.06	5607.92
448.25	5600.90
448.43	5755.38
448.62	5509.62
448.80	5678.14
448.99	5734.31
449.17	5748.36
449.36	5823.25
449.54	5841.98
449.73	5905.17
449.91	5935.60
450.10	5987.09
450.28	6094.76
450.46	6024.54
450.65	6090.07
450.83	6106.46
451.02	5942.62
451.20	6090.07
451.39	5930.92
451.57	5923.90
451.76	5893.47
451.94	6073.69
452.13	6289.02
452.31	6225.82
452.49	6204.76
452.68	6392.00
452.86	6143.91
453.05	6265.61
453.23	6459.88
453.42	6303.06
453.60	6150.93
453.78	6424.77
453.97	6169.65
454.15	6277.32
454.34	6291.36
454.52	6457.54
454.70	6279.66
454.89	6326.47
455.07	6520.73
455.26	6478.60
455.44	6422.43
455.62	6469.24
455.81	6427.11
455.99	6724.36
456.17	6424.77
456.36	6630.74
456.54	6803.94
456.73	6815.64
456.91	6740.74
457.09	6906.92
457.28	6974.80
457.46	6998.20
457.64	6843.73
457.83	6853.09
458.01	7052.03
458.19	7033.31
458.38	6953.73
458.56	6902.24
458.74	7119.91
458.93	7012.24
459.11	7110.55
459.29	7225.23
459.48	6888.20
459.66	7131.61
459.84	7262.68
460.03	7412.48
460.21	7103.53
460.39	7353.96
460.57	7454.61
460.76	7269.70
460.94	7442.90
461.12	7325.88
461.31	7426.52
461.49	7239.28
461.67	7295.45
461.85	7545.89
462.04	7501.42
462.22	7742.49
462.40	7693.34
462.59	7597.38
462.77	7803.35
462.95	7604.40
463.13	7674.62
463.32	7562.27
463.50	7616.10
463.68	7845.48
463.86	7784.62
464.05	7824.41
464.23	7681.64
464.41	7824.41
464.59	7726.11
464.78	7983.57
464.96	7768.24
465.14	7784.62
465.32	7864.20
465.50	7932.08
465.69	7978.89
465.87	8013.99
466.05	7868.88
466.23	7943.78
466.41	8049.10
466.60	8168.47
466.78	7873.56
466.96	8131.02
467.14	7971.86
467.32	8226.98
467.51	8093.57
467.69	8060.80
467.87	8203.58
468.05	8226.98
468.23	8023.36
468.41	8198.90
468.60	8259.75
468.78	8243.37
468.96	8269.11
469.14	8465.72
469.32	8549.98
469.50	8329.97
469.69	8435.29
469.87	8592.11
470.05	8613.17
470.23	8547.64
470.41	8681.05
470.59	8617.85
470.77	8650.62
470.95	8702.11
471.14	8826.16
471.32	8688.07
471.50	8877.65
471.68	8800.41
471.86	8971.27
472.04	9202.99
472.22	9160.86
472.40	8896.38
472.58	9022.77
472.77	9146.81
472.95	9404.27
473.13	9441.72
473.31	9336.40
473.49	9355.12
473.67	9315.33
473.85	9273.20
474.03	9678.12
474.21	9694.50
474.39	9638.33
474.57	9640.67
474.75	9565.77
474.93	10001.11
475.12	9638.33
475.30	9750.67
475.48	9884.08
475.66	9736.63
475.84	9907.49
476.02	10040.90
476.20	10047.92
476.38	10246.87
476.56	10413.04
476.74	10314.74
476.92	10272.61
477.10	10134.52
477.28	10654.12
477.46	10499.64
477.64	10359.21
477.82	10714.97
478.00	10810.93
478.18	10764.12
478.36	10942.00
478.54	11014.56
478.72	11002.86
478.90	11485.01
479.08	11257.98
479.26	11435.86
479.44	11384.37
479.62	11499.05
479.80	11559.91
479.98	11679.27
480.16	11880.56
480.34	11765.87
480.52	12175.47
480.70	12102.91
480.88	12205.89
481.06	12203.55
481.24	12065.46
481.41	12325.26
481.59	12465.69
481.77	12807.41
481.95	12528.89
482.13	12882.31
482.31	12699.75
482.49	13020.40
482.67	13090.62
482.85	13231.05
483.03	13432.33
483.21	13341.05
483.39	13453.40
483.57	13174.88
483.74	13640.64
483.92	13956.61
484.10	13802.14
484.28	14026.83
484.46	14380.25
484.64	14291.31
484.82	13987.04
485.00	14253.86
485.18	14689.20
485.35	14567.49
485.53	14834.32
485.71	14630.69
485.89	15033.26
486.07	15023.90
486.25	14970.07
486.43	15112.84
486.61	15194.76
486.78	15564.56
486.96	15613.71
487.14	16006.92
487.32	15599.67
487.50	16116.93
487.68	15915.64
487.85	16236.30
488.03	16456.31
488.21	16547.59
488.39	16531.20
488.57	16732.49
488.75	16716.11
488.92	17130.38
489.10	16992.29
489.28	17214.64
489.46	17303.58
489.64	17298.90
489.81	17750.62
489.99	17748.28
490.17	17661.68
490.35	18120.43
490.53	18080.64
490.70	18527.68
490.88	18136.81
491.06	18302.99
491.24	18501.93
491.41	18544.06
491.59	18892.80
491.77	18857.70
491.95	18927.91
492.13	19124.52
492.30	18970.04
492.48	19222.82
492.66	19461.55
492.84	19337.51
493.01	19889.87
493.19	19468.58
493.37	20130.95
493.54	19955.41
493.72	20245.63
493.90	20114.56
494.08	20224.57
494.25	20650.55
494.43	20563.95
494.61	20627.14
494.79	20725.44
494.96	20844.81
495.14	20905.66
495.32	21132.70
495.49	20943.11
495.67	21434.63
495.85	21420.58
496.02	21553.99
496.20	21727.19
496.38	21706.13
496.55	22188.28
496.73	22361.48
496.91	22321.69
497.09	22324.03
497.26	22553.40
497.44	22412.97
497.62	22686.81
497.79	23040.23
497.97	22979.38
498.14	23208.75
498.32	23161.94
498.50	23145.56
498.67	23358.55
498.85	23047.26
499.03	23630.05
499.20	23555.15
499.38	23772.82
499.56	23562.17
499.73	23894.53
499.91	23999.85
500.08	24503.07
500.26	24505.41
500.44	24367.32
500.61	24524.13
500.79	24032.62
500.97	24545.20
501.14	24936.07
501.32	24606.05
501.49	24933.73
501.67	24732.44
501.84	25102.25
502.02	25071.82
502.20	25123.31
502.37	25357.36
502.55	25256.72
502.72	25291.83
502.90	25479.07
503.07	25472.05
503.25	25504.82
503.43	25551.63
503.60	25558.65
503.78	26026.76
503.95	25757.60
504.13	25799.73
504.30	26167.19
504.48	26209.32
504.65	26529.97
504.83	26726.58
505.01	26647.00
505.18	26749.98
505.36	26820.20
505.53	26621.25
505.71	26951.27
505.88	26890.41
506.06	26499.55
506.23	27065.96
506.41	27164.26
506.58	26948.93
506.76	27601.94
506.93	27405.33
507.11	27271.92
507.28	27529.38
507.46	27346.82
507.63	27646.41
507.81	27721.30
507.98	27459.16
508.16	27644.07
508.33	28074.73
508.50	27934.29
508.68	27960.04
508.85	28596.67
509.03	28465.60
509.20	28701.99
509.38	28652.84
509.55	28657.52
509.73	28577.94
509.90	28819.02
510.08	28673.90
510.25	28739.44
510.42	28795.61
510.60	29001.58
510.77	29186.48
510.95	29441.60
511.12	29289.46
511.30	29366.70
511.47	29514.16
511.64	29205.20
511.82	29956.52
511.99	29509.47
512.17	29989.28
512.34	29500.11
512.51	29972.90
512.69	30457.39
512.86	30199.93
513.04	30274.83
513.21	30204.61
513.38	30555.69
513.56	30438.67
513.73	30412.92
513.90	30614.21
514.08	30431.65
514.25	30843.58
514.43	31131.47
514.60	30967.63
514.77	31438.08
514.95	31377.22
515.12	30909.11
515.29	31091.68
515.47	31166.57
515.64	31480.21
515.81	31541.06
515.99	31213.38
516.16	31555.10
516.33	31725.96
516.51	31894.48
516.68	31892.14
516.85	31927.25
517.03	32229.18
517.20	31831.29
517.37	31875.76
517.54	32154.28
517.72	32053.64
517.89	32409.40
518.06	32187.05
518.24	32285.35
518.41	32367.27
518.58	32442.17
518.75	32364.93
518.93	32526.42
519.10	32891.55
519.27	32865.80
519.45	32945.38
519.62	32751.12
519.79	32980.49
519.96	33383.06
520.14	33275.40
520.31	33139.65
520.48	33268.37
520.65	33237.95
520.83	33890.96
521.00	33516.47
521.17	33785.63
521.34	33579.67
521.52	33591.37
521.69	33689.67
521.86	34125.01
522.03	33951.81
522.20	34209.27
522.38	34237.36
522.55	34197.57
522.72	34099.26
522.89	34508.86
523.07	34768.66
523.24	34419.92
523.41	34632.91
523.58	34394.17
523.75	34820.15
523.92	34766.32
524.10	34930.16
524.27	34609.50
524.44	34780.36
524.61	35388.90
524.78	34850.58
524.96	35498.91
525.13	34979.31
525.30	35283.58
525.47	35339.75
525.64	35393.58
525.81	35564.44
525.98	35400.60
526.16	35812.54
526.33	35620.61
526.50	35885.09
526.67	35531.67
526.84	35627.63
527.01	35615.93
527.18	35622.95
527.36	36077.02
527.53	36172.98
527.70	36615.34
527.87	36474.91
528.04	36140.21
528.21	36318.09
528.38	35950.63
528.55	36453.84
528.72	36657.47
528.89	36184.68
529.07	36580.23
529.24	36872.80
529.41	36950.04
529.58	36921.95
529.75	36598.96
529.92	36968.76
530.09	36587.25
530.26	36844.71
530.43	36739.39
530.60	36872.80
530.77	36650.45
530.94	37111.53
531.11	37212.18
531.28	37214.52
531.46	37329.20
531.63	37532.83
531.80	37228.56
531.97	37511.77
532.14	37638.15
532.31	37518.79
532.48	37457.93
532.65	38045.41
532.82	37762.20
532.99	37893.27
533.16	37876.89
533.33	37614.75
533.50	37989.24
533.67	37996.26
533.84	37963.49
534.01	38047.75
534.18	38237.33
534.35	38286.48
534.52	38211.59
534.69	38740.55
534.86	38457.34
535.03	38323.93
535.20	38274.78
535.37	38586.07
535.54	38756.93
535.71	38270.10
535.88	38572.03
536.05	38843.53
536.22	39023.75
536.38	38597.77
536.55	38810.76
536.72	39285.89
536.89	38642.24
537.06	38983.96
537.23	38932.47
537.40	38679.69
537.57	39044.82
537.74	38576.71
537.91	39309.30
538.08	39061.20
538.25	38820.13
538.42	39302.28
538.59	39632.29
538.75	38866.94
538.92	39728.25
539.09	39641.65
539.26	39772.72
539.43	39412.28
539.60	39583.14
539.77	39723.57
539.94	40264.24
540.11	39901.45
540.28	39807.83
540.44	40004.44
540.61	39927.20
540.78	40044.23
540.95	39662.72
541.12	39761.02
541.29	39739.96
541.46	39990.39
541.62	40304.02
541.79	40643.40
541.96	39814.85
542.13	40397.65
542.30	40240.83
542.47	40289.98
542.63	40519.35
542.80	40746.39
542.97	41020.23
543.14	40973.42
543.31	40978.10
543.48	40699.58
543.64	41432.16
543.81	41235.56
543.98	40971.08
544.15	40987.46
544.32	41338.54
544.48	41614.72
544.65	41057.68
544.82	41106.83
544.99	41237.90
545.16	41450.89
545.32	41720.05
545.49	41698.98
545.66	41771.54
545.83	41722.39
546.00	41565.57
546.16	42014.96
546.33	41666.22
546.50	41303.43
546.67	41544.51
546.83	41401.74
547.00	41755.16
547.17	41628.77
547.34	41811.33
547.50	41926.02
547.67	42581.37
547.84	41858.14
548.00	42361.36
548.17	42749.88
548.34	42600.09
548.51	42223.26
548.67	42492.43
548.84	42216.24
549.01	42220.92
549.18	42216.24
549.34	42646.90
549.51	42667.97
549.68	42270.08
549.84	42375.40
550.01	42866.91
550.18	42188.16
550.34	42490.09
550.51	42986.28
550.68	42532.22
550.84	43115.01
551.01	43285.87
551.18	43166.50
551.34	43140.75
551.51	43089.26
551.68	42995.64
551.84	43105.65
552.01	43339.70
552.18	43213.31
552.34	43161.82
552.51	42831.80
552.68	42742.86
552.84	43143.09
553.01	42815.42
553.18	43077.56
553.34	43438.00
553.51	43487.15
553.67	43349.06
553.84	43452.05
554.01	43435.66
554.17	43379.49
554.34	43358.42
554.51	43178.20
554.67	44114.42
554.84	43627.59
555.00	43426.30
555.17	43452.05
555.33	44257.19
555.50	43482.47
555.67	44086.33
555.83	43622.90
556.00	44034.84
556.16	44769.77
556.33	44212.72
556.50	44177.61
556.66	43913.13
556.83	43761.00
556.99	44130.80
557.16	44067.61
557.32	44348.47
557.49	44446.77
557.65	44208.04
557.82	44467.84
557.98	44399.96
558.15	43966.96
558.32	44154.21
558.48	43943.56
558.65	44528.69
558.81	44039.52
558.98	44727.64
559.14	44184.63
559.31	44116.76
559.47	44189.31
559.64	44809.56
559.80	44624.65
559.97	44802.53
560.13	44051.22
560.30	44474.86
560.46	44856.37
560.63	44350.81
560.79	44411.67
560.96	44896.16
561.12	44898.50
561.29	45118.51
561.45	45006.16
561.61	44933.60
561.78	44582.52
561.94	44884.45
562.11	44631.68
562.27	44828.28
562.44	44996.80
562.60	44638.70
562.77	45055.31
562.93	44879.77
563.10	45436.82
563.26	44729.98
563.42	45434.48
563.59	44919.56
563.75	44980.42
563.92	45202.77
564.08	44715.93
564.24	45312.77
564.41	45284.68
564.57	45139.57
564.74	44914.88
564.90	45146.59
565.07	44818.92
565.23	45123.19
565.39	45221.49
565.56	45553.85
565.72	44961.69
565.88	45408.73
566.05	45408.73
566.21	45123.19
566.38	45029.57
566.54	44999.14
566.70	45289.37
566.87	45539.80
567.03	45174.68
567.19	45497.67
567.36	45401.71
567.52	45240.21
567.68	45858.12
567.85	45422.78
568.01	45780.88
568.17	45198.09
568.34	45462.57
568.50	45404.05
568.66	45308.09
568.83	45507.04
568.99	45542.14
569.15	45455.54
569.32	45673.21
569.48	45626.40
569.64	45893.22
569.81	45689.60
569.97	45626.40
570.13	45612.36
570.30	45628.74
570.46	45624.06
570.62	45904.93
570.78	45879.18
570.95	45523.42
571.11	45933.01
571.27	45577.25
571.43	45535.12
571.60	45668.53
571.76	45394.69
571.92	45787.90
572.09	45865.14
572.25	45663.85
572.41	45425.12
572.57	45937.69
572.74	46354.31
572.90	46003.23
573.06	46239.62
573.22	45916.63
573.38	46036.00
573.55	45755.13
573.71	46658.58
573.87	45804.28
574.03	46000.89
574.20	45895.56
574.36	46195.15
574.52	46335.59
574.68	46045.36
574.84	46358.99
575.01	46335.59
575.17	46028.98
575.33	46155.36
575.49	46307.50
575.65	45909.61
575.82	46347.29
575.98	45982.16
576.14	45937.69
576.30	46527.51
576.46	46438.57
576.62	45876.84
576.79	46124.94
576.95	45570.23
577.11	45900.25
577.27	46026.63
577.43	46424.53
577.59	46515.81
577.75	45705.98
577.92	45476.61
578.08	45848.75
578.24	46380.06
578.40	46473.68
578.56	46169.41
578.72	46136.64
578.88	46321.54
579.04	46319.20
579.21	46417.50
579.37	46005.57
579.53	46487.72
579.69	46124.94
579.85	45837.05
580.01	46326.22
580.17	46068.76
580.33	46363.67
580.49	46293.46
580.65	46368.35
580.82	46225.58
580.98	46312.18
581.14	46089.83
581.30	46642.20
581.46	46256.01
581.62	46473.68
581.78	46307.50
581.94	46085.15
582.10	46099.19
582.26	46485.38
582.42	46686.67
582.58	46686.67
582.74	46223.24
582.90	46546.23
583.06	46665.60
583.22	46064.08
583.38	46628.15
583.54	46656.24
583.70	46302.82
583.86	46461.97
584.02	46340.27
584.18	46234.94
584.34	46143.66
584.50	46759.22
584.66	46902.00
584.82	46272.39
584.98	46454.95
585.14	46799.01
585.30	46293.46
585.46	46478.36
585.62	46260.69
585.78	46731.14
585.94	45642.79
586.10	46438.57
586.26	46284.09
586.42	46490.06
586.58	46637.51
586.74	46288.77
586.90	46335.59
587.06	46457.29
587.22	46569.64
587.38	46258.35
587.54	46553.26
587.70	46894.97
587.86	46717.09
588.02	46459.63
588.18	46373.03
588.34	46270.05
588.49	46426.87
588.65	46660.92
588.81	46377.72
588.97	46525.17
589.13	46471.34
589.29	46408.14
589.45	46822.42
589.61	46967.53
589.77	46983.91
589.93	46763.90
590.08	47386.49
