SpectraSuite Data File
++++++++++++++++++++++++++++++++++++
Date: Fri Oct 25 11:33:35 EDT 2013
User: price-jones
Dark Spectrum Present: No
Reference Spectrum Present: No
Number of Sampled Component Spectra: 1
Spectrometers: USB2+H05261
Integration Time (usec): 100000 (USB2+H05261)
Spectra Averaged: 1 (USB2+H05261)
Boxcar Smoothing: 0 (USB2+H05261)
Correct for Electrical Dark: No (USB2+H05261)
Strobe/Lamp Enabled: No (USB2+H05261)
Correct for Detector Non-linearity: No (USB2+H05261)
Correct for Stray Light: No (USB2+H05261)
Number of Pixels in Processed Spectrum: 2048
>>>>>Begin Processed Spectral Data<<<<<
365.73	252.78
365.92	252.78
366.12	252.78
366.32	210.65
366.52	205.97
366.72	196.60
366.91	138.09
367.11	140.43
367.31	182.56
367.51	142.77
367.70	166.18
367.90	236.39
368.10	175.54
368.30	191.92
368.49	166.18
368.69	159.16
368.89	187.24
369.09	255.12
369.28	210.65
369.48	210.65
369.68	152.13
369.87	234.05
370.07	210.65
370.27	280.86
370.47	315.97
370.66	517.26
370.86	514.92
371.06	538.32
371.25	561.73
371.45	550.03
371.65	517.26
371.84	596.84
372.04	585.13
372.24	578.11
372.44	531.30
372.63	599.18
372.83	650.67
373.03	568.75
373.22	580.45
373.42	681.10
373.62	585.13
373.81	638.97
374.01	655.35
374.21	692.80
374.40	624.92
374.60	650.67
374.79	690.46
374.99	655.35
375.19	716.20
375.38	648.33
375.58	620.24
375.78	653.01
375.97	669.39
376.17	725.57
376.37	606.20
376.56	634.29
376.76	709.18
376.95	676.41
377.15	669.39
377.35	713.86
377.54	699.82
377.74	657.69
377.93	629.60
378.13	732.59
378.33	746.63
378.52	648.33
378.72	746.63
378.91	727.91
379.11	636.63
379.31	713.86
379.50	725.57
379.70	798.12
379.89	720.88
380.09	671.73
380.28	720.88
380.48	744.29
380.68	730.25
380.87	823.87
381.07	725.57
381.26	744.29
381.46	671.73
381.65	802.80
381.85	753.65
382.04	830.89
382.24	774.72
382.43	786.42
382.63	805.14
382.83	692.80
383.02	863.66
383.22	849.61
383.41	844.93
383.61	849.61
383.80	866.00
384.00	924.51
384.19	786.42
384.39	840.25
384.58	760.67
384.78	812.17
384.97	835.57
385.17	788.76
385.36	826.21
385.56	823.87
385.75	807.48
385.95	777.06
386.14	926.85
386.34	870.68
386.53	917.49
386.72	842.59
386.92	786.42
387.11	873.02
387.31	987.71
387.50	1015.79
387.70	940.90
387.89	936.21
388.09	912.81
388.28	987.71
388.48	830.89
388.67	961.96
388.86	950.26
389.06	973.66
389.25	985.37
389.45	966.64
389.64	1029.84
389.84	973.66
390.03	971.32
390.22	880.04
390.42	905.79
390.61	966.64
390.81	1018.13
391.00	933.87
391.19	1046.22
391.39	1046.22
391.58	1083.67
391.78	1027.50
391.97	1008.77
392.16	971.32
392.36	1074.31
392.55	1034.52
392.75	1001.75
392.94	1022.81
393.13	1076.65
393.33	1011.11
393.52	1043.88
393.71	1060.26
393.91	1081.33
394.10	1116.44
394.29	1104.73
394.49	1088.35
394.68	1123.46
394.88	1116.44
395.07	1086.01
395.26	1146.86
395.46	1163.25
395.65	1263.89
395.84	1116.44
396.04	1205.38
396.23	1081.33
396.42	1233.46
396.62	1160.91
396.81	1184.31
397.00	1212.40
397.19	1268.57
397.39	1210.06
397.58	1256.87
397.77	1198.35
397.97	1242.82
398.16	1308.36
398.35	1275.59
398.55	1231.12
398.74	1247.51
398.93	1385.60
399.12	1385.60
399.32	1313.04
399.51	1273.25
399.70	1373.89
399.90	1345.81
400.09	1336.45
400.28	1327.08
400.47	1380.92
400.67	1322.40
400.86	1441.77
401.05	1427.73
401.24	1479.22
401.44	1439.43
401.63	1516.67
401.82	1465.18
402.01	1425.39
402.21	1462.83
402.40	1511.99
402.59	1586.88
402.78	1533.05
402.97	1467.52
403.17	1549.43
403.36	1516.67
403.55	1558.80
403.74	1624.33
403.93	1535.39
404.13	1565.82
404.32	1612.63
404.51	1643.06
404.70	1647.74
404.89	1626.67
405.09	1650.08
405.28	1579.86
405.47	1629.01
405.66	1720.29
405.85	1776.47
406.05	1657.10
406.24	1708.59
406.43	1746.04
406.62	1699.23
406.81	1849.02
407.00	1797.53
407.20	1825.62
407.39	1785.83
407.58	1769.44
407.77	1851.36
407.96	1872.43
408.15	1881.79
408.34	1778.81
408.54	1935.62
408.73	1930.94
408.92	1973.07
409.11	1952.01
409.30	1991.80
409.49	1961.37
409.68	1909.88
409.87	2062.01
410.07	2040.95
410.26	1987.11
410.45	2040.95
410.64	1980.09
410.83	2118.18
411.02	2249.25
411.21	2167.34
411.40	2047.97
411.59	2183.72
411.78	2186.06
411.98	2293.72
412.17	2284.36
412.36	2277.34
412.55	2345.22
412.74	2321.81
412.93	2389.69
413.12	2324.15
413.31	2347.56
413.50	2401.39
413.69	2438.84
413.88	2471.61
414.07	2457.56
414.26	2399.05
414.45	2555.86
414.64	2520.76
414.83	2619.06
415.02	2612.04
415.22	2661.19
415.41	2696.30
415.60	2752.47
415.79	2633.10
415.98	2696.30
416.17	2597.99
416.36	2686.94
416.55	2750.13
416.74	2731.41
416.93	2757.15
417.12	2850.77
417.31	2820.35
417.50	2761.83
417.69	3035.67
417.88	2925.67
418.07	2909.29
418.26	2986.52
418.45	2935.03
418.64	2930.35
418.83	3089.51
419.02	2935.03
419.21	3166.74
419.39	3258.03
419.58	3073.12
419.77	3019.29
419.96	3164.40
420.15	3077.80
420.34	3122.27
420.53	3164.40
420.72	3145.68
420.91	3283.77
421.10	3211.22
421.29	3328.24
421.48	3300.16
421.67	3290.79
421.86	3260.37
422.05	3346.97
422.24	3281.43
422.43	3440.59
422.61	3403.14
422.80	3454.63
422.99	3459.31
423.18	3466.33
423.37	3524.85
423.56	3412.50
423.75	3316.54
423.94	3386.76
424.13	3255.69
424.32	3255.69
424.50	3286.11
424.69	3494.42
424.88	3522.51
425.07	3424.20
425.26	3428.88
425.45	3318.88
425.64	3515.48
425.83	3456.97
426.01	3368.03
426.20	3419.52
426.39	3407.82
426.58	3529.53
426.77	3508.46
426.96	3536.55
427.15	3449.95
427.33	3569.32
427.52	3524.85
427.71	3646.55
427.90	3634.85
428.09	3700.39
428.28	3679.32
428.46	3761.24
428.65	3712.09
428.84	3707.41
429.03	3981.25
429.22	3641.87
429.40	3721.45
429.59	3758.90
429.78	3726.13
429.97	3667.62
430.16	3733.15
430.34	3810.39
430.53	3854.86
430.72	3946.14
430.91	3901.67
431.10	3808.05
431.28	4007.00
431.47	4067.85
431.66	3913.38
431.85	4030.40
432.03	4198.92
432.22	4112.32
432.41	4021.04
432.60	4049.13
432.79	3960.19
432.97	4049.13
433.16	4229.35
433.35	4011.68
433.54	4032.74
433.72	4219.99
433.91	4147.43
434.10	4138.07
434.28	4215.30
434.47	4320.63
434.66	4259.78
434.85	4306.59
435.03	4414.25
435.22	4318.29
435.41	4386.16
435.59	4250.41
435.78	4493.83
435.97	4355.74
436.16	4329.99
436.34	4306.59
436.53	4379.14
436.72	4418.93
436.90	4416.59
437.09	4479.79
437.28	4395.53
437.46	4400.21
437.65	4594.47
437.84	4704.48
438.02	4589.79
438.21	4711.50
438.40	4645.96
438.58	4751.29
438.77	4641.28
438.96	4667.03
439.14	4791.08
439.33	4943.21
439.52	4842.57
439.70	5008.75
439.89	5006.41
440.08	4973.64
440.26	4884.70
440.45	5039.17
440.63	5139.82
440.82	5050.88
441.01	5125.77
441.19	5074.28
441.38	5355.15
441.57	5268.55
441.75	5249.82
441.94	5266.21
442.12	5411.32
442.31	5479.19
442.50	5476.85
442.68	5563.45
442.87	5490.90
443.05	5488.56
443.24	5554.09
443.43	5514.30
443.61	5626.65
443.80	5804.53
443.98	5359.83
444.17	5252.16
444.35	5696.86
444.54	5495.58
444.73	5542.39
444.91	5619.63
445.10	5680.48
445.28	5720.27
445.47	5680.48
445.65	5720.27
445.84	5827.93
446.02	5865.38
446.21	5795.17
446.39	5577.50
446.58	5905.17
446.77	5736.65
446.95	5614.95
447.14	5636.01
447.32	5860.70
447.51	5654.73
447.69	5802.19
447.88	5818.57
448.06	5872.40
448.25	5844.32
448.43	5717.93
448.62	5717.93
448.80	5657.07
448.99	5792.83
449.17	5947.30
449.36	5832.62
449.54	5944.96
449.73	6061.99
449.91	6183.70
450.10	6139.23
450.28	6164.97
450.46	6312.42
450.65	6104.12
450.83	6242.21
451.02	6108.80
451.20	6005.81
451.39	6214.12
451.57	6069.01
451.76	6204.76
451.94	6209.44
452.13	6265.61
452.31	6319.45
452.49	6193.06
452.68	6354.55
452.86	6218.80
453.05	6331.15
453.23	6403.71
453.42	6319.45
453.60	6305.40
453.78	6249.23
453.97	6373.28
454.15	6359.24
454.34	6354.55
454.52	6541.80
454.70	6644.78
454.89	6586.27
455.07	6623.72
455.26	6590.95
455.44	6661.16
455.62	6630.74
455.81	6661.16
455.99	6780.53
456.17	6747.76
456.36	6654.14
456.54	6899.90
456.73	6726.70
456.91	6963.09
457.09	7040.33
457.28	7049.69
457.46	7197.15
457.64	6953.73
457.83	7075.44
458.01	6946.71
458.19	7208.85
458.38	7110.55
458.56	7180.76
458.74	7276.73
458.93	7126.93
459.11	7227.57
459.29	7178.42
459.48	7070.76
459.66	7400.77
459.84	7438.22
460.03	7295.45
460.21	7293.11
460.39	7382.05
460.57	7279.07
460.76	7475.67
460.94	7569.29
461.12	7470.99
461.31	7672.28
461.49	7585.68
461.67	7466.31
461.85	7595.04
462.04	7555.25
462.22	8044.42
462.40	7744.83
462.59	7765.90
462.77	7674.62
462.95	7737.81
463.13	7606.74
463.32	7705.04
463.50	7906.33
463.68	7866.54
463.86	7810.37
464.05	7796.32
464.23	7925.05
464.41	8023.36
464.59	7847.82
464.78	8067.83
464.96	7976.55
465.14	7824.41
465.32	8067.83
465.50	8142.72
465.69	8222.30
465.87	7974.21
466.05	8194.22
466.23	8238.69
466.41	8149.75
466.60	8016.33
466.78	8131.02
466.96	8322.94
467.14	8212.94
467.32	8236.35
467.51	8482.10
467.69	8135.70
467.87	8421.25
468.05	8402.52
468.23	8521.89
468.41	8346.35
468.60	8514.87
468.78	8657.64
468.96	8379.12
469.14	8554.66
469.32	8779.35
469.50	8533.59
469.69	8760.63
469.87	8730.20
470.05	8760.63
470.23	8926.80
470.41	8648.28
470.59	8868.29
470.77	8849.57
470.95	8959.57
471.14	9104.68
471.32	8751.26
471.50	9109.36
471.68	8912.76
471.86	9095.32
472.04	9158.52
472.22	9247.46
472.40	9095.32
472.58	9116.39
472.77	9219.37
472.95	9516.62
473.13	9722.59
473.31	9301.29
473.49	9320.01
473.67	9294.27
473.85	9544.70
474.03	9809.19
474.21	9783.44
474.39	9799.82
474.57	9802.16
474.75	9907.49
474.93	10073.67
475.12	9935.57
475.30	10057.28
475.48	10003.45
475.66	10101.75
475.84	10209.42
476.02	10080.69
476.20	10181.33
476.38	10487.94
476.56	10607.31
476.74	10541.77
476.92	10511.35
477.10	10551.14
477.28	10581.56
477.46	10719.65
477.64	10724.33
477.82	10956.05
478.00	11311.81
478.18	11143.29
478.36	11166.70
478.54	11398.41
478.72	11496.71
478.90	11414.79
479.08	11459.26
479.26	11609.06
479.44	11744.81
479.62	11915.67
479.80	12042.06
479.98	12184.83
480.16	12437.61
480.34	12212.92
480.52	12203.55
480.70	12182.49
480.88	11990.56
481.06	12379.09
481.24	12631.87
481.41	12678.68
481.59	12690.38
481.77	12723.15
481.95	12634.21
482.13	13055.51
482.31	13097.64
482.49	13247.43
482.67	13341.05
482.85	13378.50
483.03	13439.36
483.21	13694.47
483.39	13980.02
483.57	13671.07
483.74	14047.90
483.92	14071.30
484.10	14113.43
484.28	14068.96
484.46	14590.90
484.64	14771.12
484.82	14696.22
485.00	14682.18
485.18	15077.73
485.35	14991.13
485.53	15049.64
485.71	14867.08
485.89	15309.44
486.07	15651.16
486.25	15449.88
486.43	15585.63
486.61	15770.53
486.78	15910.96
486.96	15887.56
487.14	15976.50
487.32	16229.27
487.50	16343.96
487.68	16505.46
487.85	16685.68
488.03	16765.26
488.21	16863.56
488.39	17123.36
488.57	16975.91
488.75	17275.49
488.92	17209.96
489.10	17472.10
489.28	17664.02
489.46	17790.41
489.64	17951.91
489.81	18209.37
489.99	18092.34
490.17	18125.11
490.35	18225.75
490.53	18237.45
490.70	18595.56
490.88	18670.45
491.06	18766.42
491.24	18773.44
491.41	18689.18
491.59	19159.63
491.77	19346.87
491.95	19391.34
492.13	19606.67
492.30	19538.79
492.48	19693.27
492.66	19747.10
492.84	19751.78
493.01	20081.80
493.19	20077.12
493.37	20130.95
493.54	20404.79
493.72	20917.37
493.90	21057.80
494.08	20940.77
494.25	21130.36
494.43	21245.04
494.61	21064.82
494.79	21149.08
494.96	21205.25
495.14	21551.65
495.32	21846.56
495.49	21855.92
495.67	21544.63
495.85	21933.16
496.02	22064.23
496.20	22382.54
496.38	22281.90
496.55	22396.59
496.73	23051.94
496.91	22595.53
497.09	23187.69
497.26	23009.81
497.44	22925.55
497.62	23023.85
497.79	23459.19
497.97	23073.00
498.14	23604.30
498.32	23817.29
498.50	23948.36
498.67	23784.52
498.85	24025.60
499.03	23857.08
499.20	23969.43
499.38	23992.83
499.56	24549.88
499.73	24437.53
499.91	24673.93
500.08	24734.78
500.26	24704.35
500.44	24943.09
500.61	25235.66
500.79	24954.79
500.97	24732.44
501.14	25462.69
501.32	25399.49
501.49	25441.62
501.67	25135.01
501.84	25708.44
502.02	25511.84
502.20	25338.64
502.37	25518.86
502.55	25898.03
502.72	26019.74
502.90	26080.59
503.07	25797.38
503.25	26080.59
503.43	25916.75
503.60	26300.60
503.78	26616.57
503.95	26380.18
504.13	26597.85
504.30	26810.84
504.48	26300.60
504.65	26574.44
504.83	26738.28
505.01	27246.18
505.18	27190.00
505.36	27321.07
505.53	26871.69
505.71	27585.55
505.88	27585.55
506.06	27405.33
506.23	27513.00
506.41	27674.49
506.58	28067.70
506.76	27754.07
506.93	28149.62
507.11	27770.46
507.28	27967.06
507.46	28290.06
507.63	28098.13
507.81	28203.46
507.98	28505.38
508.16	28463.25
508.33	28683.27
508.50	28961.79
508.68	28437.51
508.85	29081.16
509.03	28657.52
509.20	28748.80
509.38	29324.57
509.55	29186.48
509.73	29350.32
509.90	29387.77
510.08	29486.07
510.25	29434.58
510.42	29469.69
510.60	29790.34
510.77	29603.10
510.95	30286.53
511.12	29949.50
511.30	29783.32
511.47	30096.95
511.64	30167.16
511.82	30345.05
511.99	30778.04
512.17	30345.05
512.34	30712.51
512.51	30787.41
512.69	30934.86
512.86	30520.59
513.04	31206.36
513.21	30494.84
513.38	31204.02
513.56	31152.53
513.73	30962.95
513.90	31262.54
514.08	30859.96
514.25	31405.31
514.43	31725.96
514.60	31480.21
514.77	31887.46
514.95	32102.79
515.12	31534.04
515.29	31885.12
515.47	32161.30
515.64	32119.17
515.81	31967.04
515.99	32243.22
516.16	32634.09
516.33	32514.72
516.51	32474.93
516.68	32833.04
516.85	32231.52
517.03	32807.29
517.20	32704.31
517.37	32701.96
517.54	32842.40
517.72	32940.70
517.89	32891.55
518.06	33083.47
518.24	33228.59
518.41	32697.28
518.58	33373.70
518.75	32940.70
518.93	33596.05
519.10	33310.50
519.27	33830.10
519.45	33619.46
519.62	33472.00
519.79	33897.98
519.96	33972.88
520.14	34263.10
520.31	33532.86
520.48	34309.91
520.65	33907.34
520.83	34265.44
521.00	34614.18
521.17	34593.12
521.34	34326.30
521.52	34265.44
521.69	34747.59
521.86	34726.53
522.03	34965.26
522.20	34583.76
522.38	35398.26
522.55	34810.79
522.72	34983.99
522.89	34967.60
523.07	35468.48
523.24	34955.90
523.41	35363.15
523.58	35086.97
523.75	35576.14
523.92	34876.32
524.10	35693.17
524.27	35433.37
524.44	35793.81
524.61	35934.24
524.78	35604.23
524.96	36432.78
525.13	35917.86
525.30	36191.70
525.47	36617.68
525.64	36013.82
525.81	36215.11
525.98	36517.04
526.16	35756.36
526.33	36357.88
526.50	36666.83
526.67	36243.20
526.84	37165.37
527.01	36446.82
527.18	36727.69
527.36	37188.77
527.53	36926.63
527.70	37137.28
527.87	37378.36
528.04	37060.04
528.21	37106.85
528.38	37221.54
528.55	37368.99
528.72	36804.92
528.89	37312.82
529.07	36994.51
529.24	37268.35
529.41	37457.93
529.58	37773.91
529.75	37598.37
529.92	37418.14
530.09	37816.04
530.26	37743.48
530.43	37940.08
530.60	37322.18
530.77	37464.96
530.94	37858.17
531.11	37958.81
531.28	38195.20
531.46	37745.82
531.63	38134.35
531.80	37921.36
531.97	38487.77
532.14	38162.43
532.31	38160.09
532.48	38480.75
532.65	38520.54
532.82	39002.69
532.99	38693.74
533.16	38209.25
533.33	39105.67
533.50	38714.80
533.67	38415.21
533.84	38422.23
534.01	38623.52
534.18	38993.32
534.35	38897.36
534.52	39309.30
534.69	39501.22
534.86	39199.29
535.03	38983.96
535.20	39253.12
535.37	39606.55
535.54	40002.10
535.71	39285.89
535.88	39529.31
536.05	39433.35
536.22	39660.38
536.38	39796.13
536.55	39653.36
536.72	39737.62
536.89	39625.27
537.06	39721.23
537.23	40126.14
537.40	39828.90
537.57	39742.30
537.74	39775.06
537.91	39805.49
538.08	40084.01
538.25	40023.16
538.42	40369.56
538.59	40512.33
538.75	40233.81
538.92	40226.79
539.09	40535.74
539.26	40381.26
539.43	40608.29
539.60	40540.42
539.77	40491.27
539.94	41127.89
540.11	40495.95
540.28	40823.62
540.44	40343.81
540.61	40779.15
540.78	40711.28
540.95	40957.03
541.12	40961.72
541.29	40830.65
541.46	41230.88
541.62	41167.68
541.79	41123.21
541.96	40914.90
542.13	41074.06
542.30	41060.02
542.47	40973.42
542.63	41160.66
542.80	41109.17
542.97	41467.27
543.14	41462.59
543.31	42017.30
543.48	41794.95
543.64	42101.56
543.81	42036.02
543.98	42092.19
544.15	41926.02
544.32	42103.90
544.48	42307.52
544.65	42323.91
544.82	42291.14
544.99	41888.57
545.16	42319.23
545.32	42122.62
545.49	42497.11
545.66	42916.06
545.83	42457.32
546.00	42429.23
546.16	42513.49
546.33	42387.10
546.50	42445.62
546.67	43119.69
546.83	42120.28
547.00	42820.10
547.17	42436.25
547.34	42349.65
547.50	42780.31
547.67	42904.36
547.84	43147.78
548.00	43264.80
548.17	43728.23
548.34	43136.07
548.51	43367.79
548.67	43159.48
548.84	43044.79
549.01	43196.93
549.18	43009.68
549.34	43421.62
549.51	43356.08
549.68	43889.73
549.84	43522.26
550.01	43543.33
550.18	43435.66
550.34	43636.95
550.51	43908.45
550.68	43494.18
550.84	43192.25
551.01	44189.31
551.18	43835.89
551.34	43461.41
551.51	43927.17
551.68	43842.92
551.84	44156.55
552.01	43981.01
552.18	44336.77
552.34	43665.03
552.51	44175.27
552.68	43426.30
552.84	44533.37
553.01	44062.93
553.18	43721.21
553.34	44081.65
553.51	44215.06
553.67	44203.36
553.84	44648.06
554.01	44128.46
554.17	44046.54
554.34	44467.84
554.51	44699.55
554.67	44648.06
554.84	44662.10
555.00	44631.68
555.17	44626.99
555.33	44854.03
555.50	44308.68
555.67	44252.51
555.83	44563.80
556.00	45170.00
556.16	45195.74
556.33	44797.85
556.50	45038.93
556.66	44959.35
556.83	44720.62
556.99	45553.85
557.16	45024.89
557.32	45144.25
557.49	45078.72
557.65	44814.24
557.82	45141.91
557.98	44954.67
558.15	45298.73
558.32	45340.86
558.48	44985.10
558.65	45263.62
558.81	45455.54
558.98	45059.99
559.14	45799.60
559.31	45485.97
559.47	45457.88
559.64	45373.63
559.80	45205.11
559.97	45443.84
560.13	45125.53
560.30	45378.31
560.46	45982.16
560.63	45509.38
560.79	45331.50
560.96	45649.81
561.12	46026.63
561.29	46036.00
561.45	45614.70
561.61	45879.18
561.78	45621.72
561.94	45230.85
562.11	45492.99
562.27	45680.24
562.44	45977.48
562.60	45827.69
562.77	46124.94
562.93	45954.08
563.10	46176.43
563.26	45970.46
563.42	46288.77
563.59	45556.19
563.75	45595.98
563.92	45691.94
564.08	46312.18
564.24	46190.47
564.41	45935.35
564.57	45497.67
564.74	46087.49
564.90	45626.40
565.07	46174.09
565.23	45804.28
565.39	46246.65
565.56	46354.31
565.72	45591.30
565.88	46377.72
566.05	45783.22
566.21	46323.88
566.38	46513.47
566.54	46232.60
566.70	46197.49
566.87	46527.51
567.03	46089.83
567.19	46419.84
567.36	46197.49
567.52	46358.99
567.68	46256.01
567.85	46394.10
568.01	46607.09
568.17	46131.96
568.34	46717.09
568.50	46590.70
568.66	46337.93
568.83	46529.85
568.99	46244.30
569.15	46649.22
569.32	46469.00
569.48	46550.91
569.64	47014.34
569.81	46450.27
569.97	46759.22
570.13	46815.40
570.30	46251.33
570.46	46412.82
570.62	46693.69
570.78	46424.53
570.95	46696.03
571.11	46726.46
571.27	46902.00
571.43	46714.75
571.60	46583.68
571.76	46401.12
571.92	46408.14
572.09	46745.18
572.25	46864.55
572.41	46223.24
572.57	46993.28
572.74	47147.75
572.90	46831.78
573.06	46508.79
573.22	46756.88
573.38	46995.62
573.55	46679.64
573.71	47061.15
573.87	47129.03
574.03	47079.88
574.20	47103.28
574.36	46761.56
574.52	46719.43
574.68	46958.17
574.84	47508.19
575.01	47421.59
575.17	47302.23
575.33	46902.00
575.49	46473.68
575.65	47070.51
575.82	46983.91
575.98	46883.27
576.14	47105.62
576.30	47620.54
576.46	46796.67
576.62	46815.40
576.79	46363.67
576.95	47040.09
577.11	47119.66
577.27	47114.98
577.43	47246.05
577.59	47126.69
577.75	46782.63
577.92	46871.57
578.08	47208.61
578.24	46735.82
578.40	47262.44
578.56	47290.52
578.72	47002.64
578.88	47487.13
579.04	47489.47
579.21	47360.74
579.37	47086.90
579.53	47061.15
579.69	47075.19
579.85	47103.28
580.01	47552.66
580.17	46799.01
580.33	47150.09
580.49	47339.68
580.65	47367.76
580.82	47573.73
580.98	47002.64
581.14	46894.97
581.30	47545.64
581.46	46923.06
581.62	47653.31
581.78	46791.99
581.94	47334.99
582.10	47281.16
582.26	47503.51
582.42	47386.49
582.58	47267.12
582.74	47136.05
582.90	47224.99
583.06	47412.23
583.22	47154.77
583.38	47187.54
583.54	47117.32
583.70	47409.89
583.86	47578.41
584.02	47370.10
584.18	47618.20
584.34	47072.85
584.50	47342.02
584.66	47330.31
584.82	47611.18
584.98	47892.04
585.14	47566.71
585.30	47065.83
585.46	46876.25
585.62	47447.34
585.78	47547.98
585.94	47250.74
586.10	47131.37
586.26	46990.94
586.42	47297.55
586.58	47271.80
586.74	47519.90
586.90	47360.74
587.06	47292.86
587.22	47402.87
587.38	47157.11
587.54	47538.62
587.70	47473.09
587.86	47613.52
588.02	47236.69
588.18	47503.51
588.34	47264.78
588.49	47145.41
588.65	47639.26
588.81	47526.92
588.97	47580.75
589.13	47351.38
589.29	47580.75
589.45	47555.00
589.61	47522.24
589.77	48137.80
589.93	47505.85
