SpectraSuite Data File
++++++++++++++++++++++++++++++++++++
Date: Fri Oct 25 11:25:37 EDT 2013
User: price-jones
Dark Spectrum Present: No
Reference Spectrum Present: No
Number of Sampled Component Spectra: 1
Spectrometers: USB2+H05261
Integration Time (usec): 100000 (USB2+H05261)
Spectra Averaged: 1 (USB2+H05261)
Boxcar Smoothing: 0 (USB2+H05261)
Correct for Electrical Dark: No (USB2+H05261)
Strobe/Lamp Enabled: No (USB2+H05261)
Correct for Detector Non-linearity: No (USB2+H05261)
Correct for Stray Light: No (USB2+H05261)
Number of Pixels in Processed Spectrum: 2048
>>>>>Begin Processed Spectral Data<<<<<
365.73	238.73
365.92	238.73
366.12	238.73
366.32	145.11
366.52	119.37
366.72	175.54
366.91	184.90
367.11	147.45
367.31	107.66
367.51	142.77
367.70	170.86
367.90	107.66
368.10	117.03
368.30	138.09
368.49	133.41
368.69	154.48
368.89	128.73
369.09	107.66
369.28	168.52
369.48	222.35
369.68	252.78
369.87	182.56
370.07	198.95
370.27	262.14
370.47	416.62
370.66	507.90
370.86	540.66
371.06	608.54
371.25	676.41
371.45	674.07
371.65	664.71
371.84	676.41
372.04	723.23
372.24	758.33
372.44	767.70
372.63	767.70
372.83	709.18
373.03	751.31
373.22	795.78
373.42	791.10
373.62	770.04
373.81	716.20
374.01	765.36
374.21	858.98
374.40	856.64
374.60	863.66
374.79	748.97
374.99	887.06
375.19	896.43
375.38	835.57
375.58	823.87
375.78	940.90
375.97	840.25
376.17	933.87
376.37	826.21
376.56	901.11
376.76	884.72
376.95	861.32
377.15	905.79
377.35	856.64
377.54	919.83
377.74	903.45
377.93	950.26
378.13	908.13
378.33	985.37
378.52	961.96
378.72	992.39
378.91	978.34
379.11	961.96
379.31	945.58
379.50	858.98
379.70	1006.43
379.89	924.51
380.09	936.21
380.28	1048.56
380.48	1020.47
380.68	931.53
380.87	978.34
381.07	1078.99
381.26	1048.56
381.46	1062.60
381.65	1034.52
381.85	1095.37
382.04	1111.75
382.24	1074.31
382.43	1064.94
382.63	1153.88
382.83	1036.86
383.02	1158.57
383.22	1146.86
383.41	1001.75
383.61	1135.16
383.80	1149.20
384.00	1125.80
384.19	1212.40
384.39	1142.18
384.58	1088.35
384.78	1191.33
384.97	1046.22
385.17	1083.67
385.36	1144.52
385.56	1121.12
385.75	1153.88
385.95	1158.57
386.14	1212.40
386.34	1228.78
386.53	1270.91
386.72	1207.72
386.92	1310.70
387.11	1210.06
387.31	1277.93
387.50	1170.27
387.70	1245.16
387.89	1254.53
388.09	1249.85
388.28	1275.59
388.48	1331.76
388.67	1373.89
388.86	1338.79
389.06	1287.29
389.25	1345.81
389.45	1362.19
389.64	1317.72
389.84	1418.36
390.03	1390.28
390.22	1397.30
390.42	1420.71
390.61	1409.00
390.81	1394.96
391.00	1434.75
391.19	1455.81
391.39	1329.42
391.58	1474.54
391.78	1521.35
391.97	1500.28
392.16	1497.94
392.36	1514.33
392.55	1507.30
392.75	1526.03
392.94	1551.78
393.13	1526.03
393.33	1504.96
393.52	1537.73
393.71	1607.95
393.91	1621.99
394.10	1668.80
394.29	1771.79
394.49	1596.25
394.68	1589.22
394.88	1516.67
395.07	1636.03
395.26	1643.06
395.46	1673.48
395.65	1717.95
395.84	1636.03
396.04	1753.06
396.23	1757.74
396.42	1732.00
396.62	1809.23
396.81	1755.40
397.00	1732.00
397.19	1804.55
397.39	1776.47
397.58	1820.94
397.77	1778.81
397.97	1799.87
398.16	1870.09
398.35	1870.09
398.55	1851.36
398.74	1825.62
398.93	1907.54
399.12	1926.26
399.32	2012.86
399.51	1935.62
399.70	2024.56
399.90	1881.79
400.09	2022.22
400.28	2069.03
400.47	2092.44
400.67	2108.82
400.86	2010.52
401.05	2218.83
401.24	2085.42
401.44	2062.01
401.63	2136.91
401.82	2260.96
402.01	2097.12
402.21	2132.23
402.40	2040.95
402.59	2127.55
402.78	2211.81
402.97	2289.04
403.17	2225.85
403.36	2209.47
403.55	2307.77
403.74	2298.41
403.93	2356.92
404.13	2289.04
404.32	2455.22
404.51	2485.65
404.70	2455.22
404.89	2335.85
405.09	2480.97
405.28	2469.27
405.47	2354.58
405.66	2546.50
405.85	2490.33
406.05	2548.84
406.24	2511.39
406.43	2511.39
406.62	2612.04
406.81	2572.25
407.00	2548.84
407.20	2600.34
407.39	2686.94
407.58	2715.02
407.77	2682.25
407.96	2679.91
408.15	2722.04
408.34	2715.02
408.54	2771.19
408.73	2684.59
408.92	2761.83
409.11	2792.26
409.30	2822.69
409.49	2806.30
409.68	2902.26
409.87	2956.10
410.07	2995.89
410.26	2892.90
410.45	2942.05
410.64	2956.10
410.83	2965.46
411.02	3108.23
411.21	3063.76
411.40	3148.02
411.59	3286.11
411.78	3197.17
411.98	3218.24
412.17	3229.94
412.36	3311.86
412.55	3288.45
412.74	3339.94
412.93	3344.63
413.12	3253.34
413.31	3459.31
413.50	3478.04
413.69	3480.38
413.88	3609.11
414.07	3581.02
414.26	3499.10
414.45	3597.40
414.64	3534.21
414.83	3592.72
415.02	3857.20
415.22	3733.15
415.41	3871.25
415.60	3789.33
415.79	3836.14
415.98	3871.25
416.17	3913.38
416.36	3887.63
416.55	4065.51
416.74	4063.17
416.93	3976.57
417.12	4081.89
417.31	4245.73
417.50	4224.67
417.69	4276.16
417.88	4196.58
418.07	4404.89
418.26	4231.69
418.45	4217.65
418.64	4407.23
418.83	4365.10
419.02	4320.63
419.21	4589.79
419.39	4566.39
419.58	4507.87
419.77	4329.99
419.96	4449.36
420.15	4566.39
420.34	4505.53
420.53	4479.79
420.72	4557.02
420.91	4524.26
421.10	4585.11
421.29	4737.24
421.48	4709.16
421.67	4823.84
421.86	4657.67
422.05	4751.29
422.24	4802.78
422.43	4734.90
422.61	4753.63
422.80	4884.70
422.99	4919.81
423.18	4961.94
423.37	5064.92
423.56	4929.17
423.75	4917.47
423.94	4802.78
424.13	4660.01
424.32	4599.15
424.50	4830.87
424.69	5032.15
424.88	5020.45
425.07	4975.98
425.26	4884.70
425.45	4929.17
425.64	4894.06
425.83	5039.17
426.01	4980.66
426.20	5123.43
426.39	5020.45
426.58	4865.97
426.77	4777.03
426.96	5128.11
427.15	5074.28
427.33	5118.75
427.52	5296.63
427.71	5224.08
427.90	5036.83
428.09	5364.51
428.28	5268.55
428.46	5259.18
428.65	5294.29
428.84	5511.96
429.03	5392.59
429.22	5317.70
429.40	5364.51
429.59	5350.46
429.78	5329.40
429.97	5294.29
430.16	5488.56
430.34	5488.56
430.53	5654.73
430.72	5710.91
430.91	5727.29
431.10	5540.05
431.28	5713.25
431.47	5708.57
431.66	5710.91
431.85	5818.57
432.03	5975.39
432.22	5923.90
432.41	5811.55
432.60	5753.04
432.79	5788.14
432.97	5874.74
433.16	5839.64
433.35	5996.45
433.54	6202.42
433.72	6143.91
433.91	6024.54
434.10	5973.05
434.28	5870.06
434.47	6197.74
434.66	6113.48
434.85	6148.59
435.03	6361.58
435.22	6347.53
435.41	6494.99
435.59	6225.82
435.78	6249.23
435.97	6314.77
436.16	6434.13
436.34	6394.34
436.53	6511.37
436.72	6722.02
436.90	6434.13
437.09	6686.91
437.28	6431.79
437.46	6553.50
437.65	6600.31
437.84	6787.55
438.02	6766.49
438.21	6534.78
438.40	6696.27
438.58	6888.20
438.77	6956.07
438.96	6862.45
439.14	7112.89
439.33	7166.72
439.52	7169.06
439.70	7241.62
439.89	7194.81
440.08	7222.89
440.26	7241.62
440.45	7197.15
440.63	7513.12
440.82	7576.31
441.01	7307.15
441.19	7660.57
441.38	7728.45
441.57	7597.38
441.75	7763.56
441.94	7864.20
442.12	7964.84
442.31	7786.96
442.50	7943.78
442.68	7957.82
442.87	7871.22
443.05	8035.06
443.24	8074.85
443.43	7899.31
443.61	7927.39
443.80	8219.96
443.98	8042.08
444.17	7882.92
444.35	8400.18
444.54	8114.64
444.73	8140.38
444.91	8292.52
445.10	8168.47
445.28	8152.09
445.47	8285.50
445.65	8238.69
445.84	8580.40
446.02	8540.61
446.21	8243.37
446.39	8540.61
446.58	8367.42
446.77	8374.44
446.95	8308.90
447.14	8454.02
447.32	8454.02
447.51	8388.48
447.69	8446.99
447.88	8718.50
448.06	8533.59
448.25	8531.25
448.43	8727.86
448.62	8535.93
448.80	8545.30
448.99	8627.21
449.17	8613.17
449.36	8491.46
449.54	8753.60
449.73	8856.59
449.91	8716.16
450.10	8842.54
450.28	8947.87
450.46	9081.28
450.65	8971.27
450.83	9121.07
451.02	9146.81
451.20	9240.44
451.39	9156.18
451.57	8957.23
451.76	8896.38
451.94	9083.62
452.13	9102.34
452.31	9343.42
452.49	9111.71
452.68	9366.82
452.86	9420.66
453.05	9369.16
453.23	9458.10
453.42	9371.50
453.60	9390.23
453.78	9720.24
453.97	9352.78
454.15	9366.82
454.34	9324.69
454.52	9675.77
454.70	9710.88
454.89	9336.40
455.07	9750.67
455.26	9977.70
455.44	9935.57
455.62	9792.80
455.81	9977.70
455.99	9973.02
456.17	10113.45
456.36	9928.55
456.54	9926.21
456.73	10293.68
456.91	10560.50
457.09	10373.25
457.28	10700.93
457.46	10258.57
457.64	10597.95
457.83	10396.66
458.01	10354.53
458.19	10602.63
458.38	10356.87
458.56	10663.48
458.74	10684.55
458.93	10579.22
459.11	10544.11
459.29	10843.70
459.48	10796.89
459.66	10843.70
459.84	10864.77
460.03	11063.71
460.21	10986.47
460.39	11009.88
460.57	11042.65
460.76	11241.59
460.94	11075.42
461.12	10939.66
461.31	11386.71
461.49	11059.03
461.67	11089.46
461.85	11447.56
462.04	11173.72
462.22	11723.74
462.40	11531.82
462.59	11379.68
462.77	11571.61
462.95	11442.88
463.13	11447.56
463.32	11637.14
463.50	11669.91
463.68	11566.93
463.86	11831.41
464.05	11552.88
464.23	11690.98
464.41	11962.48
464.59	11737.79
464.78	11896.94
464.96	11962.48
465.14	11602.04
465.32	12126.32
465.50	12343.99
465.69	12135.68
465.87	11992.90
466.05	12109.93
466.23	11985.88
466.41	11936.73
466.60	12388.46
466.78	12135.68
466.96	12109.93
467.14	12315.90
467.32	12044.40
467.51	12276.11
467.69	11906.31
467.87	12248.02
468.05	12713.79
468.23	12582.72
468.41	12376.75
468.60	12547.61
468.78	12865.92
468.96	12182.49
469.14	12594.42
469.32	12936.14
469.50	12716.13
469.69	12891.67
469.87	12985.29
470.05	12950.18
470.23	13226.37
470.41	13078.91
470.59	13240.41
470.77	12919.76
470.95	13219.35
471.14	13378.50
471.32	13074.23
471.50	13497.87
471.68	13488.51
471.86	13411.27
472.04	13642.98
472.22	13792.78
472.40	13301.26
472.58	13867.67
472.77	13870.01
472.95	13928.53
473.13	14572.18
473.31	13984.70
473.49	13888.74
473.67	14064.28
473.85	14197.69
474.03	14370.89
474.21	14422.38
474.39	14757.08
474.57	14567.49
474.75	14759.42
474.93	14874.10
475.12	14916.23
475.30	15005.17
475.48	15009.86
475.66	14920.92
475.84	15091.77
476.02	15185.40
476.20	15262.63
476.38	15559.88
476.56	15983.52
476.74	15880.53
476.92	15777.55
477.10	16051.39
477.28	15726.06
477.46	16060.76
477.64	16432.90
477.82	16365.03
478.00	16779.30
478.18	16681.00
478.36	16748.87
478.54	17221.66
478.72	16842.50
478.90	17387.84
479.08	17474.44
479.26	17488.48
479.44	17427.63
479.62	17488.48
479.80	17949.57
479.98	17923.82
480.16	18466.83
480.34	18391.93
480.52	18403.63
480.70	18869.40
480.88	18373.21
481.06	18621.30
481.24	18705.56
481.41	18881.10
481.59	19119.84
481.77	19571.56
481.95	19616.03
482.13	19548.15
482.31	19414.74
482.49	20184.78
482.67	20121.59
482.85	20266.70
483.03	20266.70
483.21	20559.27
483.39	20723.10
483.57	20669.27
483.74	21163.12
483.92	21397.18
484.10	21270.79
484.28	21640.59
484.46	21759.96
484.64	22221.05
484.82	21996.35
485.00	22211.68
485.18	22408.29
485.35	22925.55
485.53	22632.98
485.71	22679.79
485.89	23213.43
486.07	23103.43
486.25	22953.63
486.43	23328.12
486.61	23648.77
486.78	24119.22
486.96	24116.88
487.14	24077.09
487.32	24725.42
487.50	24758.19
487.68	24919.68
487.85	25352.68
488.03	25127.99
488.21	25469.71
488.39	25546.95
488.57	25631.21
488.75	25865.26
488.92	26244.43
489.10	26377.84
489.28	26616.57
489.46	27211.07
489.64	27124.47
489.81	27435.76
489.99	27576.19
490.17	27372.57
490.35	27974.08
490.53	28142.60
490.70	28053.66
490.88	27953.02
491.06	28940.72
491.24	28489.00
491.41	28905.62
491.59	29123.29
491.77	29504.79
491.95	29291.80
492.13	29759.91
492.30	29720.12
492.48	29785.66
492.66	29614.80
492.84	30335.68
493.01	30555.69
493.19	30661.02
493.37	30829.54
493.54	31016.78
493.72	31683.83
493.90	31164.23
494.08	31580.85
494.25	31784.48
494.43	31873.42
494.61	32215.13
494.79	32095.77
494.96	32488.98
495.14	32575.58
495.32	33144.33
495.49	33153.69
495.67	32929.00
495.85	32992.19
496.02	33429.87
496.20	33769.25
496.38	33734.14
496.55	33883.94
496.73	34759.30
496.91	34345.02
497.09	34639.93
497.26	34834.19
497.44	34925.47
497.62	35215.70
497.79	35473.16
497.97	35215.70
498.14	36079.36
498.32	35709.55
498.50	35550.40
498.67	36154.26
498.85	35917.86
499.03	36802.58
499.20	36290.01
499.38	36807.26
499.56	36790.88
499.73	36954.72
499.91	37067.06
500.08	37673.26
500.26	36975.78
500.44	37205.16
500.61	37525.81
500.79	37706.03
500.97	37652.20
501.14	38630.54
501.32	38190.52
501.49	38218.61
501.67	38328.61
501.84	38906.73
502.02	38775.66
502.20	38525.22
502.37	38789.70
502.55	39585.48
502.72	39353.77
502.90	39194.61
503.07	39461.43
503.25	39515.26
503.43	39218.02
503.60	39796.13
503.78	39882.73
503.95	39772.72
504.13	40236.15
504.30	40491.27
504.48	40430.41
504.65	40299.34
504.83	40392.97
505.01	40772.13
505.18	40800.22
505.36	41125.55
505.53	41062.36
505.71	41324.50
505.88	41525.78
506.06	41268.33
506.23	41811.33
506.41	41607.70
506.58	41825.37
506.76	41855.80
506.93	42202.20
507.11	42082.83
507.28	41982.19
507.46	42445.62
507.63	42536.90
507.81	43086.92
507.98	42356.67
508.16	42682.01
508.33	43019.05
508.50	43157.14
508.68	43337.36
508.85	43761.00
509.03	43658.01
509.20	43737.59
509.38	44711.25
509.55	43976.33
509.73	44128.46
509.90	44341.45
510.08	44201.02
510.25	43920.15
510.42	44437.41
510.60	44629.34
510.77	44961.69
510.95	45155.96
511.12	44788.49
511.30	44664.44
511.47	45146.59
511.64	45420.44
511.82	45598.32
511.99	45111.49
512.17	45577.25
512.34	45518.74
512.51	46319.20
512.69	46113.23
512.86	46195.15
513.04	46366.01
513.21	46679.64
513.38	46487.72
513.56	46719.43
513.73	46316.86
513.90	46787.31
514.08	46747.52
514.25	46913.70
514.43	47192.22
514.60	47381.80
514.77	47208.61
514.95	47552.66
515.12	47213.29
515.29	47339.68
515.47	47751.61
515.64	47882.68
515.81	47791.40
515.99	47749.27
516.16	48217.38
516.33	48203.33
516.51	48208.01
516.68	48348.45
516.85	48130.78
517.03	48708.89
517.20	48591.86
517.37	48545.05
517.54	48734.63
517.72	48907.83
517.89	48692.50
518.06	49099.76
518.24	48999.12
518.41	49050.61
518.58	49074.01
518.75	49338.49
518.93	49392.33
519.10	49076.35
519.27	49518.71
519.45	49628.72
519.62	49720.00
519.79	49675.53
519.96	50019.59
520.14	49909.58
520.31	49715.32
520.48	50127.25
520.65	50176.40
520.83	50274.71
521.00	50431.52
521.17	50340.24
521.34	50347.26
521.52	50541.53
521.69	50700.68
521.86	50951.12
522.03	50899.63
522.20	51133.68
522.38	51306.88
522.55	50918.35
522.72	51098.58
522.89	51257.73
523.07	51550.30
523.24	51442.63
523.41	51487.10
523.58	50815.37
523.75	51812.44
523.92	51615.83
524.10	51896.70
524.27	51892.02
524.44	51725.84
524.61	51709.46
524.78	51934.15
524.96	51866.27
525.13	52011.38
525.30	52137.77
525.47	52582.48
525.64	52589.50
525.81	52442.04
525.98	52521.62
526.16	52409.28
526.33	52385.87
526.50	52472.47
526.67	52608.22
526.84	52743.97
527.01	52664.39
527.18	52381.19
527.36	52673.76
527.53	52638.65
527.70	53195.70
527.87	52992.07
528.04	53073.99
528.21	53455.50
528.38	53172.29
528.55	53450.81
528.72	53254.21
528.89	53460.18
529.07	53076.33
529.24	53045.90
529.41	53420.39
529.58	53525.71
529.75	53858.07
529.92	53602.95
530.09	53652.10
530.26	53869.77
530.43	53876.79
530.60	53375.92
530.77	53694.23
530.94	53829.98
531.11	53902.54
531.28	54035.95
531.46	53867.43
531.63	53951.69
531.80	53900.20
531.97	54192.76
532.14	54286.39
532.31	54185.74
532.48	54328.52
532.65	54415.11
532.82	54197.44
532.99	54607.04
533.16	54347.24
533.33	54628.10
533.50	54768.54
533.67	54482.99
533.84	54291.07
534.01	54831.73
534.18	54808.32
534.35	55264.73
534.52	54976.84
534.69	55201.53
534.86	55002.59
535.03	54859.82
535.20	55068.12
535.37	55154.72
535.54	55379.42
535.71	54780.24
535.88	55311.54
536.05	55313.88
536.22	55627.51
536.38	55540.91
536.55	55346.65
536.72	55348.99
536.89	55344.31
537.06	55592.40
537.23	55461.33
537.40	55662.62
537.57	55316.22
537.74	55676.66
537.91	55807.73
538.08	55679.00
538.25	55660.28
538.42	55709.43
538.59	55882.63
538.75	55597.09
538.92	55955.19
539.09	56088.60
539.26	55931.78
539.43	56222.01
539.60	56184.56
539.77	55976.25
539.94	56280.52
540.11	56219.67
540.28	56303.93
540.44	56135.41
540.61	56397.55
540.78	56266.48
540.95	56324.99
541.12	55999.66
541.29	56095.62
541.46	56427.98
541.62	56355.42
541.79	56385.85
541.96	56420.95
542.13	56474.79
542.30	56783.74
542.47	56793.10
542.63	56722.88
542.80	56594.15
542.97	57001.41
543.14	57048.22
543.31	57066.94
543.48	56903.10
543.64	57277.59
543.81	57106.73
543.98	57174.61
544.15	57286.95
544.32	57286.95
544.48	57626.33
544.65	57148.86
544.82	57001.41
544.99	57146.52
545.16	57350.15
545.32	57226.10
545.49	57474.20
545.66	57649.74
545.83	57579.52
546.00	57689.52
546.16	57506.96
546.33	57521.01
546.50	56978.00
546.67	57441.43
546.83	57305.68
547.00	57570.16
547.17	57497.60
547.34	57626.33
547.50	57881.45
547.67	57944.64
547.84	57783.15
548.00	58040.60
548.17	58003.16
548.34	57965.71
548.51	58092.10
548.67	58019.54
548.84	57883.79
549.01	57937.62
549.18	57991.45
549.34	58106.14
549.51	58122.52
549.68	58024.22
549.84	58272.32
550.01	58066.35
550.18	58150.61
550.34	58450.20
550.51	58323.81
550.68	58621.06
550.84	58143.59
551.01	58536.80
551.18	58234.87
551.34	58478.28
551.51	58475.94
551.68	58403.39
551.84	58230.19
552.01	58157.63
552.18	58358.92
552.34	58403.39
552.51	58752.13
552.68	58494.67
552.84	58436.16
553.01	58763.83
553.18	58660.85
553.34	58775.53
553.51	58569.57
553.67	58796.60
553.84	58958.09
554.01	58911.28
554.17	58880.86
554.34	58869.15
554.51	58857.45
554.67	58719.36
554.84	58976.82
555.00	58728.72
555.17	58960.44
555.33	58913.62
555.50	58941.71
555.67	58894.90
555.83	58831.71
556.00	59023.63
556.16	59365.35
556.33	59147.68
556.50	59070.44
556.66	59231.94
556.83	58979.16
556.99	59121.93
557.16	59234.28
557.32	59517.48
557.49	59505.78
557.65	59016.61
557.82	59313.86
557.98	59302.15
558.15	59407.48
558.32	59353.65
558.48	59201.51
558.65	59283.43
558.81	59309.18
558.98	59536.21
559.14	59515.14
559.31	59571.32
559.47	59634.51
559.64	59667.28
559.80	59531.53
559.97	59419.18
560.13	59639.19
560.30	59557.27
560.46	59611.10
560.63	59604.08
560.79	59751.54
560.96	59524.50
561.12	59559.61
561.29	59828.77
561.45	59725.79
561.61	59552.59
561.78	59662.60
561.94	59538.55
562.11	59618.13
562.27	59756.22
562.44	59983.25
562.60	59781.96
562.77	59788.98
562.93	59660.26
563.10	60023.04
563.26	59856.86
563.42	60076.87
563.59	60016.02
563.75	59962.18
563.92	59814.73
564.08	60018.36
564.24	60004.31
564.41	60039.42
564.57	59959.84
564.74	60016.02
564.90	60044.10
565.07	59887.29
565.23	59966.87
565.39	60140.07
565.56	60217.30
565.72	60217.30
565.88	60067.51
566.05	60016.02
566.21	60133.04
566.38	60163.47
566.54	60172.83
566.70	60296.88
566.87	60353.05
567.03	59952.82
567.19	60360.08
567.36	60083.89
567.52	60261.77
567.68	60493.49
567.85	60266.45
568.01	60360.08
568.17	60378.80
568.34	60472.42
568.50	60161.13
568.66	60133.04
568.83	60313.26
568.99	60102.62
569.15	60301.56
569.32	60268.79
569.48	60299.22
569.64	60540.30
569.81	60343.69
569.97	60182.19
570.13	60313.26
570.30	60163.47
570.46	60608.17
570.62	60250.07
570.78	60041.76
570.95	60212.62
571.11	60453.70
571.27	60404.55
571.43	60346.03
571.60	60458.38
571.76	60367.10
571.92	60502.85
572.09	60322.63
572.25	60360.08
572.41	60275.82
572.57	60519.23
572.74	60594.13
572.90	60432.63
573.06	60563.70
573.22	60369.44
573.38	60561.36
573.55	60416.25
573.71	60795.42
573.87	60544.98
574.03	60411.57
574.20	60549.66
574.36	60577.75
574.52	60552.00
574.68	60505.19
574.84	60598.81
575.01	60610.51
575.17	60523.91
575.33	60498.17
575.49	60315.61
575.65	60757.97
575.82	60802.44
575.98	60699.45
576.14	60851.59
576.30	60809.46
576.46	60430.29
576.62	60331.99
576.79	60720.52
576.95	60465.40
577.11	60477.10
577.27	60811.80
577.43	60566.04
577.59	60664.35
577.75	60636.26
577.92	60617.53
578.08	60495.83
578.24	60519.23
578.40	60825.84
578.56	60750.94
578.72	60879.67
578.88	60928.83
579.04	60985.00
579.21	60711.16
579.37	60844.57
579.53	60867.97
579.69	60566.04
579.85	60488.80
580.01	60662.00
580.17	60575.40
580.33	60867.97
580.49	60748.60
580.65	60734.56
580.82	60790.73
580.98	60467.74
581.14	60727.54
581.30	60863.29
581.46	60725.20
581.62	61013.08
581.78	60552.00
581.94	60823.50
582.10	60736.90
582.26	60739.24
582.42	60690.09
582.58	60757.97
582.74	60837.54
582.90	60835.20
583.06	60783.71
583.22	60893.72
583.38	60760.31
583.54	60739.24
583.70	60879.67
583.86	60835.20
584.02	60793.07
584.18	60870.31
584.34	60832.86
584.50	60825.84
584.66	60741.58
584.82	60713.50
584.98	60949.89
585.14	60938.19
585.30	60701.79
585.46	61038.83
585.62	60907.76
585.78	61043.51
585.94	60537.96
586.10	60788.39
586.26	60968.61
586.42	60893.72
586.58	60662.00
586.74	60884.36
586.90	60907.76
587.06	60704.13
587.22	60926.49
587.38	60809.46
587.54	61247.14
587.70	61263.52
587.86	60949.89
588.02	60956.91
588.18	61230.75
588.34	60882.02
588.49	61106.71
