SpectraSuite Data File
++++++++++++++++++++++++++++++++++++
Date: Fri Oct 25 10:44:29 EDT 2013
User: price-jones
Dark Spectrum Present: No
Reference Spectrum Present: No
Number of Sampled Component Spectra: 1
Spectrometers: USB2+H05261
Integration Time (usec): 100000 (USB2+H05261)
Spectra Averaged: 1 (USB2+H05261)
Boxcar Smoothing: 0 (USB2+H05261)
Correct for Electrical Dark: No (USB2+H05261)
Strobe/Lamp Enabled: No (USB2+H05261)
Correct for Detector Non-linearity: No (USB2+H05261)
Correct for Stray Light: No (USB2+H05261)
Number of Pixels in Processed Spectrum: 2048
>>>>>Begin Processed Spectral Data<<<<<
365.73	135.75
365.92	135.75
366.12	135.75
366.32	0.00
366.52	58.51
366.72	0.00
366.91	0.00
367.11	58.51
367.31	72.56
367.51	4.68
367.70	25.75
367.90	14.04
368.10	72.56
368.30	21.06
368.49	53.83
368.69	65.54
368.89	42.13
369.09	0.00
369.28	46.81
369.48	42.13
369.68	23.41
369.87	100.64
370.07	98.30
370.27	98.30
370.47	205.97
370.66	379.17
370.86	447.04
371.06	423.64
371.25	482.15
371.45	472.79
371.65	461.09
371.84	461.09
372.04	449.38
372.24	447.04
372.44	468.11
372.63	552.37
372.83	510.24
373.03	512.58
373.22	538.32
373.42	458.74
373.62	475.13
373.81	601.52
374.01	603.86
374.21	599.18
374.40	543.00
374.60	554.71
374.79	498.53
374.99	531.30
375.19	557.05
375.38	636.63
375.58	674.07
375.78	629.60
375.97	545.34
376.17	634.29
376.37	580.45
376.56	629.60
376.76	706.84
376.95	695.14
377.15	653.01
377.35	589.82
377.54	674.07
377.74	578.11
377.93	657.69
378.13	589.82
378.33	678.76
378.52	617.90
378.72	578.11
378.91	660.03
379.11	664.71
379.31	645.99
379.50	617.90
379.70	695.14
379.89	692.80
380.09	706.84
380.28	669.39
380.48	690.46
380.68	699.82
380.87	676.41
381.07	758.33
381.26	720.88
381.46	732.59
381.65	723.23
381.85	725.57
382.04	568.75
382.24	716.20
382.43	760.67
382.63	648.33
382.83	636.63
383.02	723.23
383.22	709.18
383.41	713.86
383.61	751.31
383.80	751.31
384.00	770.04
384.19	781.74
384.39	777.06
384.58	798.12
384.78	854.30
384.97	816.85
385.17	830.89
385.36	777.06
385.56	746.63
385.75	819.19
385.95	854.30
386.14	896.43
386.34	823.87
386.53	889.40
386.72	847.27
386.92	753.65
387.11	868.34
387.31	873.02
387.50	816.85
387.70	910.47
387.89	849.61
388.09	821.53
388.28	912.81
388.48	882.38
388.67	905.79
388.86	858.98
389.06	884.72
389.25	926.85
389.45	952.60
389.64	954.94
389.84	938.55
390.03	990.05
390.22	987.71
390.42	971.32
390.61	973.66
390.81	1123.46
391.00	1090.69
391.19	1132.82
391.39	973.66
391.58	1076.65
391.78	1022.81
391.97	1095.37
392.16	1071.97
392.36	1060.26
392.55	997.07
392.75	1046.22
392.94	908.13
393.13	915.15
393.33	1034.52
393.52	933.87
393.71	1165.59
393.91	1146.86
394.10	1083.67
394.29	1102.39
394.49	1114.10
394.68	1128.14
394.88	1139.84
395.07	1284.95
395.26	1207.72
395.46	1331.76
395.65	1249.85
395.84	1231.12
396.04	1196.01
396.23	1188.99
396.42	1076.65
396.62	1149.20
396.81	1207.72
397.00	1231.12
397.19	1256.87
397.39	1268.57
397.58	1409.00
397.77	1336.45
397.97	1289.64
398.16	1270.91
398.35	1406.66
398.55	1432.41
398.74	1434.75
398.93	1526.03
399.12	1455.81
399.32	1533.05
399.51	1476.88
399.70	1526.03
399.90	1596.25
400.09	1582.20
400.28	1610.29
400.47	1551.78
400.67	1514.33
400.86	1561.14
401.05	1610.29
401.24	1687.53
401.44	1647.74
401.63	1645.40
401.82	1671.14
402.01	1591.56
402.21	1703.91
402.40	1717.95
402.59	1699.23
402.78	1664.12
402.97	1661.78
403.17	1813.92
403.36	1643.06
403.55	1734.34
403.74	1806.89
403.93	1823.28
404.13	1790.51
404.32	1837.32
404.51	1792.85
404.70	1783.49
404.89	1856.04
405.09	1989.46
405.28	1935.62
405.47	1930.94
405.66	1949.67
405.85	2003.50
406.05	1926.26
406.24	1952.01
406.43	1989.46
406.62	2003.50
406.81	2012.86
407.00	1863.07
407.20	2059.67
407.39	2045.63
407.58	2026.90
407.77	2143.93
407.96	2118.18
408.15	2115.84
408.34	2167.34
408.54	2221.17
408.73	2165.00
408.92	2221.17
409.11	2202.44
409.30	2258.62
409.49	2202.44
409.68	2298.41
409.87	2253.94
410.07	2349.90
410.26	2239.89
410.45	2373.30
410.64	2385.01
410.83	2553.52
411.02	2410.75
411.21	2492.67
411.40	2471.61
411.59	2593.31
411.78	2619.06
411.98	2637.78
412.17	2626.08
412.36	2612.04
412.55	2663.53
412.74	2602.68
412.93	2710.34
413.12	2677.57
413.31	2780.56
413.50	2850.77
413.69	2799.28
413.88	2874.18
414.07	2862.48
414.26	2827.37
414.45	2836.73
414.64	3023.97
414.83	3038.02
415.02	2977.16
415.22	3016.95
415.41	3166.74
415.60	3098.87
415.79	3162.06
415.98	3138.66
416.17	3136.32
416.36	3133.98
416.55	3276.75
416.74	3213.56
416.93	3199.51
417.12	3169.09
417.31	3302.50
417.50	3272.07
417.69	3370.37
417.88	3218.24
418.07	3463.99
418.26	3328.24
418.45	3346.97
418.64	3480.38
418.83	3431.23
419.02	3475.70
419.21	3468.67
419.39	3524.85
419.58	3417.18
419.77	3492.08
419.96	3653.58
420.15	3543.57
420.34	3501.44
420.53	3630.17
420.72	3758.90
420.91	3651.24
421.10	3779.97
421.29	3756.56
421.48	3786.99
421.67	3815.07
421.86	3758.90
422.05	3709.75
422.24	3667.62
422.43	3716.77
422.61	3777.62
422.80	3861.88
422.99	3866.56
423.18	3801.03
423.37	3922.74
423.56	3796.35
423.75	3904.01
423.94	3772.94
424.13	3618.47
424.32	3829.12
424.50	3906.35
424.69	3758.90
424.88	3978.91
425.07	3906.35
425.26	3742.52
425.45	3941.46
425.64	3836.14
425.83	3964.87
426.01	3913.38
426.20	4007.00
426.39	3981.25
426.58	3934.44
426.77	3995.29
426.96	3843.16
427.15	4072.53
427.33	3864.22
427.52	4030.40
427.71	4161.47
427.90	4058.49
428.09	4070.19
428.28	4051.47
428.46	4201.26
428.65	4128.70
428.84	4147.43
429.03	4236.37
429.22	3896.99
429.40	4187.22
429.59	4145.09
429.78	3761.24
429.97	3833.80
430.16	3960.19
430.34	4145.09
430.53	4131.05
430.72	3967.21
430.91	4222.33
431.10	4208.28
431.28	4512.55
431.47	4472.76
431.66	4585.11
431.85	4533.62
432.03	4510.21
432.22	4631.92
432.41	4524.26
432.60	4643.62
432.79	4660.01
432.97	4599.15
433.16	4629.58
433.35	4758.31
433.54	4667.03
433.72	4617.88
433.91	4692.77
434.10	4681.07
434.28	4664.69
434.47	4713.84
434.66	4814.48
434.85	4786.40
435.03	4990.02
435.22	4849.59
435.41	4983.00
435.59	5048.54
435.78	5069.60
435.97	5011.09
436.16	5020.45
436.34	4997.04
436.53	5046.20
436.72	5245.14
436.90	5013.43
437.09	5097.69
437.28	5027.47
437.46	5083.64
437.65	5231.10
437.84	5167.90
438.02	5095.35
438.21	5076.62
438.40	5046.20
438.58	5350.46
438.77	5282.59
438.96	5313.02
439.14	5563.45
439.33	5554.09
439.52	5341.10
439.70	5561.11
439.89	5598.56
440.08	5654.73
440.26	5671.12
440.45	5717.93
440.63	5753.04
440.82	5905.17
441.01	5881.77
441.19	5905.17
441.38	5982.41
441.57	5959.00
441.75	5989.43
441.94	6143.91
442.12	6235.19
442.31	6216.46
442.50	6129.86
442.68	6312.42
442.87	6267.95
443.05	6377.96
443.24	6356.90
443.43	6286.68
443.61	6211.78
443.80	6544.14
443.98	6197.74
444.17	6242.21
444.35	6380.30
444.54	6558.18
444.73	6586.27
444.91	6487.96
445.10	6530.09
445.28	6499.67
445.47	6216.46
445.65	6427.11
445.84	6399.02
446.02	6293.70
446.21	6457.54
446.39	6410.73
446.58	6586.27
446.77	6502.01
446.95	6513.71
447.14	6516.05
447.32	6497.33
447.51	6651.80
447.69	6516.05
447.88	6499.67
448.06	6523.07
448.25	6691.59
448.43	6490.31
448.62	6747.76
448.80	6703.29
448.99	6740.74
449.17	6860.11
449.36	6825.00
449.54	6906.92
449.73	6946.71
449.91	7194.81
450.10	7073.10
450.28	7026.29
450.46	7201.83
450.65	7119.91
450.83	7077.78
451.02	7091.82
451.20	7068.42
451.39	6995.86
451.57	7047.35
451.76	7021.61
451.94	7115.23
452.13	7279.07
452.31	7108.21
452.49	6946.71
452.68	7138.63
452.86	6949.05
453.05	7204.17
453.23	7192.47
453.42	7227.57
453.60	7265.02
453.78	7318.86
453.97	7311.83
454.15	7166.72
454.34	7199.49
454.52	7496.74
454.70	7508.44
454.89	7428.86
455.07	7400.77
455.26	7592.70
455.44	7571.63
455.62	7559.93
455.81	7426.52
455.99	7478.01
456.17	7740.15
456.36	7698.02
456.54	8011.65
456.73	7911.01
456.91	8028.04
457.09	7864.20
457.28	8049.10
457.46	7808.03
457.64	7981.23
457.83	7948.46
458.01	8051.44
458.19	8004.63
458.38	8095.91
458.56	8112.30
458.74	7878.24
458.93	8028.04
459.11	8163.79
459.29	8161.45
459.48	8217.62
459.66	8238.69
459.84	8025.70
460.03	8304.22
460.21	8458.70
460.39	8535.93
460.57	8430.61
460.76	8273.79
460.94	8585.08
461.12	8336.99
461.31	8374.44
461.49	8568.70
461.67	8451.67
461.85	8779.35
462.04	8634.24
462.22	8704.45
462.40	8718.50
462.59	8690.41
462.77	8901.06
462.95	8894.04
463.13	8884.67
463.32	8695.09
463.50	8968.93
463.68	8760.63
463.86	8912.76
464.05	8826.16
464.23	8732.54
464.41	8964.25
464.59	8688.07
464.78	8894.04
464.96	8777.01
465.14	8896.38
465.32	9128.09
465.50	8973.61
465.69	9097.66
465.87	9137.45
466.05	9076.60
466.23	8882.33
466.41	9090.64
466.60	9343.42
466.78	8992.34
466.96	9039.15
467.14	9270.86
467.32	9200.65
467.51	9362.14
467.69	9149.15
467.87	9331.72
468.05	9329.38
468.23	9067.24
468.41	9334.06
468.60	9336.40
468.78	9554.07
468.96	9448.74
469.14	9507.26
469.32	9741.31
469.50	9490.87
469.69	9533.00
469.87	9802.16
470.05	9652.37
470.23	9715.56
470.41	9708.54
470.59	9905.15
470.77	9818.55
470.95	9671.09
471.14	10078.35
471.32	9830.25
471.50	10204.74
471.68	10068.98
471.86	10298.36
472.04	10394.32
472.22	10190.69
472.40	9834.93
472.58	10279.63
472.77	10239.84
472.95	10647.10
473.13	10841.36
473.31	10431.77
473.49	10296.02
473.67	10455.17
473.85	10513.69
474.03	10581.56
474.21	10689.23
474.39	10864.77
474.57	10871.79
474.75	11075.42
474.93	11005.20
475.12	11042.65
475.30	11218.19
475.48	10925.62
475.66	11122.23
475.84	10942.00
476.02	11206.48
476.20	11213.51
476.38	11445.22
476.56	11651.19
476.74	11658.21
476.92	11770.55
477.10	11630.12
477.28	11742.47
477.46	11808.00
477.64	11976.52
477.82	12182.49
478.00	12493.78
478.18	12315.90
478.36	12145.04
478.54	12582.72
478.72	12423.56
478.90	12451.65
479.08	12894.01
479.26	12898.69
479.44	12999.34
479.62	12861.24
479.80	13029.76
479.98	13432.33
480.16	13408.93
480.34	13357.44
480.52	13680.43
480.70	13453.40
480.88	13385.52
481.06	13743.63
481.24	13713.20
481.41	14136.84
481.59	14265.57
481.77	14068.96
481.95	14167.26
482.13	14204.71
482.31	14298.33
482.49	14607.28
482.67	14906.87
482.85	14927.94
483.03	14885.81
483.21	15105.82
483.39	15042.62
483.57	14953.68
483.74	15269.66
483.92	15405.41
484.10	15276.68
484.28	15463.92
484.46	16056.08
484.64	16184.80
484.82	15875.85
485.00	15953.09
485.18	16072.46
485.35	16294.81
485.53	15700.31
485.71	15995.22
485.89	16294.81
486.07	16194.17
486.25	16229.27
486.43	16645.89
486.61	16847.18
486.78	17111.66
486.96	17149.11
487.14	17036.76
487.32	17474.44
487.50	17853.61
487.68	17909.78
487.85	17851.27
488.03	18366.18
488.21	18211.71
488.39	18366.18
488.57	18366.18
488.75	18572.15
488.92	18651.73
489.10	19286.01
489.28	19084.73
489.46	19564.54
489.64	19194.73
489.81	19822.00
489.99	19915.62
490.17	19976.47
490.35	20051.37
490.53	20086.48
490.70	19948.39
490.88	20042.01
491.06	20739.49
491.24	20765.23
491.41	20561.61
491.59	20500.75
491.77	20449.26
491.95	20837.79
492.13	20971.20
492.30	21027.37
492.48	21715.49
492.66	21200.57
492.84	21422.92
493.01	22089.98
493.19	21764.64
493.37	21912.10
493.54	22335.73
493.72	22621.28
493.90	22263.18
494.08	22466.80
494.25	22829.59
494.43	22768.73
494.61	22874.06
494.79	23002.78
494.96	22913.84
495.14	23150.24
495.32	23260.24
495.49	23608.98
495.67	23531.75
495.85	23826.65
496.02	24063.05
496.20	24205.82
496.38	23999.85
496.55	24308.80
496.73	24624.78
496.91	24407.11
497.09	24320.51
497.26	25020.33
497.44	24657.54
497.62	25142.03
497.79	24833.08
497.97	24840.11
498.14	25191.19
498.32	25425.24
498.50	25605.46
498.67	25535.24
498.85	25909.73
499.03	25958.88
499.20	25891.01
499.38	26075.91
499.56	26115.70
499.73	26059.52
499.91	26391.88
500.08	26195.28
500.26	26197.62
500.44	26230.38
500.61	26675.09
500.79	26206.98
500.97	26576.78
501.14	26881.05
501.32	26747.64
501.49	26766.37
501.67	26724.24
501.84	27068.30
502.02	27000.42
502.20	27225.11
502.37	27592.58
502.55	27594.92
502.72	27667.47
502.90	27850.03
503.07	27681.52
503.25	27997.49
503.43	27791.52
503.60	28233.88
503.78	27976.42
503.95	27885.14
504.13	28369.63
504.30	28379.00
504.48	27985.79
504.65	28685.61
504.83	28481.98
505.01	28985.19
505.18	28826.04
505.36	29200.52
505.53	29137.33
505.71	29500.11
505.88	29427.56
506.06	28999.24
506.23	29441.60
506.41	28861.15
506.58	29556.28
506.76	29771.61
506.93	29912.05
507.11	29780.98
507.28	29546.92
507.46	29434.58
507.63	29839.49
507.81	30155.46
507.98	29668.63
508.16	30134.40
508.33	29996.31
508.50	30480.80
508.68	30567.40
508.85	31108.06
509.03	30651.66
509.20	30448.03
509.38	30677.40
509.55	30937.20
509.73	31215.72
509.90	30979.33
510.08	30951.24
510.25	31248.49
510.42	31178.28
510.60	31185.30
510.77	31344.45
510.95	31915.54
511.12	31519.99
511.30	31730.64
511.47	31852.35
511.64	32250.24
511.82	32226.84
511.99	31945.97
512.17	32121.51
512.34	31960.02
512.51	32474.93
512.69	32512.38
512.86	32549.83
513.04	32531.11
513.21	32549.83
513.38	32334.50
513.56	32463.23
513.73	32030.23
513.90	32725.37
514.08	32685.58
514.25	33340.93
514.43	32362.59
514.60	33205.18
514.77	32971.13
514.95	33090.49
515.12	33394.76
515.29	33565.62
515.47	33743.50
515.64	33668.61
515.81	33270.72
515.99	33563.28
516.16	33486.04
516.33	33383.06
516.51	33661.58
516.68	32828.35
516.85	33244.97
517.03	33570.30
517.20	33596.05
517.37	33787.97
517.54	33968.19
517.72	33972.88
517.89	33287.10
518.06	33521.15
518.24	33942.45
518.41	33968.19
518.58	34087.56
518.75	34239.70
518.93	34572.05
519.10	34780.36
519.27	34494.82
519.45	34768.66
519.62	34995.69
519.79	34827.17
519.96	35082.29
520.14	35297.62
520.31	35014.41
520.48	35421.67
520.65	35604.23
520.83	35859.35
521.00	35693.17
521.17	35812.54
521.34	35840.62
521.52	35899.14
521.69	35522.31
521.86	36414.05
522.03	36205.75
522.20	35522.31
522.38	36180.00
522.55	36285.33
522.72	36044.25
522.89	36065.31
523.07	36620.02
523.24	36210.43
523.41	36617.68
523.58	36493.63
523.75	37319.84
523.92	36912.59
524.10	37254.31
524.27	37394.74
524.44	36898.55
524.61	37172.39
524.78	36950.04
524.96	37202.82
525.13	37263.67
525.30	37694.33
525.47	37439.21
525.64	37577.30
525.81	37141.96
525.98	37151.32
526.16	37085.79
526.33	37031.96
526.50	37479.00
526.67	36762.79
526.84	37471.98
527.01	37249.63
527.18	37923.70
527.36	37926.04
527.53	37832.42
527.70	38387.13
527.87	38185.84
528.04	38433.94
528.21	37876.89
528.38	38064.13
528.55	38579.05
528.72	38457.34
528.89	38747.57
529.07	38536.92
529.24	38195.20
529.41	38623.52
529.58	38611.82
529.75	38618.84
529.92	38660.97
530.09	38763.95
530.26	38735.87
530.43	38998.01
530.60	38981.62
530.77	38843.53
530.94	39533.99
531.11	39491.86
531.28	39707.19
531.46	39651.02
531.63	39491.86
531.80	39103.33
531.97	38990.98
532.14	39077.58
532.31	38876.30
532.48	38993.32
532.65	39775.06
532.82	39491.86
532.99	39583.14
533.16	39330.36
533.33	40023.16
533.50	39676.76
533.67	40172.96
533.84	39349.09
534.01	39952.94
534.18	40098.06
534.35	40566.16
534.52	40074.65
534.69	40407.01
534.86	40018.48
535.03	40297.00
535.20	40423.39
535.37	40442.12
535.54	40889.16
535.71	40465.52
535.88	40545.10
536.05	40662.13
536.22	40652.76
536.38	40397.65
536.55	40517.01
536.72	40402.33
536.89	40538.08
537.06	40151.89
537.23	40603.61
537.40	40388.28
537.57	41179.39
537.74	40797.88
537.91	40617.66
538.08	40797.88
538.25	40886.82
538.42	41053.00
538.59	41378.33
538.75	40814.26
538.92	40713.62
539.09	41291.73
539.26	41233.22
539.43	41200.45
539.60	41069.38
539.77	40872.78
539.94	40914.90
540.11	41146.62
540.28	41701.32
540.44	40987.46
540.61	41441.53
540.78	41273.01
540.95	41565.57
541.12	41055.34
541.29	41308.11
541.46	41392.37
541.62	41926.02
541.79	42286.46
541.96	41251.94
542.13	41799.63
542.30	42021.98
542.47	41783.24
542.63	41694.30
542.80	42305.18
542.97	42387.10
543.14	42522.85
543.31	42288.80
543.48	42197.52
543.64	42749.88
543.81	42754.57
543.98	42595.41
544.15	42387.10
544.32	42878.61
544.48	43037.77
544.65	42660.94
544.82	42803.72
544.99	42667.97
545.16	42712.44
545.32	42625.84
545.49	43372.47
545.66	43072.88
545.83	43117.35
546.00	43117.35
546.16	42948.83
546.33	43086.92
546.50	42880.95
546.67	43260.12
546.83	42740.52
547.00	42920.74
547.17	43351.40
547.34	43019.05
547.50	43030.75
547.67	43445.02
547.84	43360.76
548.00	43526.94
548.17	43735.25
548.34	43576.09
548.51	43545.67
548.67	43817.17
548.84	43646.31
549.01	43440.34
549.18	43667.37
549.34	43515.24
549.51	43526.94
549.68	43569.07
549.84	43449.70
550.01	44018.46
550.18	44016.11
550.34	43730.57
550.51	43615.88
550.68	43508.22
550.84	43606.52
551.01	43868.66
551.18	43856.96
551.34	43871.00
551.51	43779.72
551.68	44364.85
551.84	43683.76
552.01	43885.04
552.18	43847.60
552.34	43508.22
552.51	44304.00
552.68	43620.56
552.84	44634.02
553.01	44626.99
553.18	44603.59
553.34	44524.01
553.51	44327.41
553.67	44364.85
553.84	44685.51
554.01	44643.38
554.17	44540.39
554.34	44598.91
554.51	44563.80
554.67	44875.09
554.84	44521.67
555.00	44643.38
555.17	44580.18
555.33	44264.21
555.50	44673.81
555.67	44502.95
555.83	44322.72
556.00	44648.06
556.16	44786.15
556.33	44577.84
556.50	44446.77
556.66	45048.29
556.83	44643.38
556.99	44912.54
557.16	45282.34
557.32	44423.37
557.49	44542.74
557.65	44781.47
557.82	45048.29
557.98	45003.82
558.15	44678.49
558.32	45120.85
558.48	44847.00
558.65	44643.38
558.81	44439.75
558.98	45139.57
559.14	45191.06
559.31	44842.32
559.47	45181.70
559.64	45303.41
559.80	45265.96
559.97	45223.83
560.13	44816.58
560.30	45083.40
560.46	45404.05
560.63	44964.03
560.79	45490.65
560.96	45956.42
561.12	45368.94
561.29	45308.09
561.45	45090.42
561.61	45535.12
561.78	45202.77
561.94	45223.83
562.11	45200.43
562.27	44910.20
562.44	45118.51
562.60	45535.12
562.77	45766.84
562.93	45490.65
563.10	45521.08
563.26	45284.68
563.42	45397.03
563.59	45478.95
563.75	45237.87
563.92	45755.13
564.08	45666.19
564.24	45867.48
564.41	45581.93
564.57	45525.76
564.74	45338.52
564.90	45537.46
565.07	45727.05
565.23	45457.88
565.39	45291.71
565.56	45659.17
565.72	45294.05
565.88	45350.22
566.05	45214.47
566.21	45600.66
566.38	45387.67
566.54	45818.33
566.70	45956.42
566.87	46136.64
567.03	45605.34
567.19	46092.17
567.36	45947.06
567.52	45364.26
567.68	45762.15
567.85	45858.12
568.01	45834.71
568.17	45890.88
568.34	46024.29
568.50	45368.94
568.66	45825.35
568.83	45628.74
568.99	45439.16
569.15	45663.85
569.32	45560.87
569.48	45455.54
569.64	45745.77
569.81	46120.26
569.97	45820.67
570.13	45823.01
570.30	45268.30
570.46	45375.97
570.62	45460.23
570.78	45518.74
570.95	45483.63
571.11	45631.08
571.27	45720.02
571.43	45701.30
571.60	45378.31
571.76	45731.73
571.92	46169.41
572.09	45846.41
572.25	45823.01
572.41	45982.16
572.57	46110.89
572.74	46213.88
572.90	45921.31
573.06	45698.96
573.22	45710.66
573.38	46061.74
573.55	45514.06
573.71	46171.75
573.87	46120.26
574.03	46028.98
574.20	45881.52
574.36	45577.25
574.52	45720.02
574.68	46017.27
574.84	45956.42
575.01	45605.34
575.17	45722.37
575.33	45759.81
575.49	45521.08
575.65	46122.60
575.82	46146.00
575.98	45944.72
576.14	46234.94
576.30	45907.27
576.46	45790.24
576.62	45897.91
576.79	45893.22
576.95	45544.48
577.11	45762.15
577.27	45928.33
577.43	46174.09
577.59	46281.75
577.75	46007.91
577.92	45677.90
578.08	45942.38
578.24	45750.45
578.40	45862.80
578.56	45991.53
578.72	46157.70
578.88	46202.18
579.04	46415.16
579.21	45827.69
579.37	45673.21
579.53	45928.33
579.69	45600.66
579.85	45827.69
580.01	45694.28
580.17	46014.93
580.33	45907.27
580.49	46127.28
580.65	46038.34
580.82	46143.66
580.98	46007.91
581.14	45729.39
581.30	46358.99
581.46	46408.14
581.62	46087.49
581.78	46174.09
581.94	46473.68
582.10	46171.75
582.26	46012.59
582.42	46241.96
582.58	45907.27
582.74	46195.15
582.90	46185.79
583.06	46450.27
583.22	46499.42
583.38	46106.21
583.54	46506.44
583.70	46459.63
583.86	46218.56
584.02	45867.48
584.18	46223.24
584.34	46043.02
584.50	46286.43
584.66	45972.80
584.82	45551.51
584.98	46532.19
585.14	46473.68
585.30	46005.57
585.46	46153.02
585.62	46398.78
585.78	45897.91
585.94	45621.72
586.10	45975.14
586.26	46113.23
586.42	46321.54
586.58	46246.65
586.74	46040.68
586.90	45839.39
587.06	46031.32
587.22	46494.74
587.38	45823.01
587.54	46068.76
587.70	46153.02
587.86	45872.16
588.02	46223.24
588.18	45874.50
588.34	46234.94
588.49	45925.99
588.65	45280.00
588.81	45450.86
588.97	45485.97
589.13	45422.78
589.29	46110.89
589.45	45921.31
589.61	46024.29
589.77	46078.13
589.93	46007.91
590.08	46078.13
