SpectraSuite Data File
++++++++++++++++++++++++++++++++++++
Date: Fri Oct 25 11:33:12 EDT 2013
User: price-jones
Dark Spectrum Present: No
Reference Spectrum Present: No
Number of Sampled Component Spectra: 1
Spectrometers: USB2+H05261
Integration Time (usec): 100000 (USB2+H05261)
Spectra Averaged: 1 (USB2+H05261)
Boxcar Smoothing: 0 (USB2+H05261)
Correct for Electrical Dark: No (USB2+H05261)
Strobe/Lamp Enabled: No (USB2+H05261)
Correct for Detector Non-linearity: No (USB2+H05261)
Correct for Stray Light: No (USB2+H05261)
Number of Pixels in Processed Spectrum: 2048
>>>>>Begin Processed Spectral Data<<<<<
365.73	285.55
365.92	285.55
366.12	285.55
366.32	161.50
366.52	208.31
366.72	220.01
366.91	205.97
367.11	128.73
367.31	117.03
367.51	154.48
367.70	198.95
367.90	236.39
368.10	198.95
368.30	212.99
368.49	212.99
368.69	196.60
368.89	117.03
369.09	187.24
369.28	205.97
369.48	212.99
369.68	269.16
369.87	191.92
370.07	95.96
370.27	245.76
370.47	360.44
370.66	507.90
370.86	505.56
371.06	538.32
371.25	552.37
371.45	559.39
371.65	631.94
371.84	472.79
372.04	557.05
372.24	629.60
372.44	613.22
372.63	603.86
372.83	667.05
373.03	559.39
373.22	601.52
373.42	599.18
373.62	631.94
373.81	608.54
374.01	610.88
374.21	664.71
374.40	643.65
374.60	706.84
374.79	580.45
374.99	566.41
375.19	610.88
375.38	692.80
375.58	650.67
375.78	648.33
375.97	657.69
376.17	781.74
376.37	748.97
376.56	692.80
376.76	671.73
376.95	690.46
377.15	758.33
377.35	678.76
377.54	681.10
377.74	650.67
377.93	697.48
378.13	725.57
378.33	784.08
378.52	669.39
378.72	767.70
378.91	763.01
379.11	594.50
379.31	770.04
379.50	678.76
379.70	758.33
379.89	788.76
380.09	741.95
380.28	709.18
380.48	746.63
380.68	739.61
380.87	704.50
381.07	767.70
381.26	812.17
381.46	786.42
381.65	688.12
381.85	753.65
382.04	704.50
382.24	739.61
382.43	753.65
382.63	781.74
382.83	779.40
383.02	793.44
383.22	863.66
383.41	847.27
383.61	851.96
383.80	880.04
384.00	830.89
384.19	760.67
384.39	837.91
384.58	889.40
384.78	847.27
384.97	828.55
385.17	786.42
385.36	847.27
385.56	800.46
385.75	873.02
385.95	842.59
386.14	870.68
386.34	905.79
386.53	858.98
386.72	819.19
386.92	943.24
387.11	882.38
387.31	814.51
387.50	816.85
387.70	889.40
387.89	931.53
388.09	795.78
388.28	976.00
388.48	903.45
388.67	950.26
388.86	954.94
389.06	882.38
389.25	943.24
389.45	861.32
389.64	880.04
389.84	873.02
390.03	952.60
390.22	968.98
390.42	1067.28
390.61	938.55
390.81	891.74
391.00	936.21
391.19	1006.43
391.39	1029.84
391.58	1001.75
391.78	1039.20
391.97	973.66
392.16	978.34
392.36	1043.88
392.55	1090.69
392.75	1055.58
392.94	1043.88
393.13	1086.01
393.33	1050.90
393.52	1029.84
393.71	1060.26
393.91	1116.44
394.10	1137.50
394.29	1069.62
394.49	1128.14
394.68	1107.07
394.88	1188.99
395.07	1146.86
395.26	1132.82
395.46	1109.41
395.65	1210.06
395.84	1167.93
396.04	1219.42
396.23	1181.97
396.42	1179.63
396.62	1198.35
396.81	1231.12
397.00	1231.12
397.19	1247.51
397.39	1256.87
397.58	1247.51
397.77	1273.25
397.97	1327.08
398.16	1242.82
398.35	1308.36
398.55	1369.21
398.74	1345.81
398.93	1338.79
399.12	1320.06
399.32	1320.06
399.51	1249.85
399.70	1385.60
399.90	1373.89
400.09	1446.45
400.28	1406.66
400.47	1336.45
400.67	1502.62
400.86	1411.34
401.05	1472.20
401.24	1453.47
401.44	1432.41
401.63	1341.13
401.82	1476.88
402.01	1460.49
402.21	1528.37
402.40	1455.81
402.59	1465.18
402.78	1486.24
402.97	1432.41
403.17	1556.46
403.36	1612.63
403.55	1535.39
403.74	1570.50
403.93	1516.67
404.13	1584.54
404.32	1614.97
404.51	1584.54
404.70	1739.02
404.89	1645.40
405.09	1678.16
405.28	1757.74
405.47	1621.99
405.66	1689.87
405.85	1732.00
406.05	1732.00
406.24	1874.77
406.43	1701.57
406.62	1746.04
406.81	1797.53
407.00	1823.28
407.20	1771.79
407.39	1792.85
407.58	1760.08
407.77	1830.30
407.96	1877.11
408.15	1930.94
408.34	1872.43
408.54	1870.09
408.73	1930.94
408.92	1907.54
409.11	2043.29
409.30	2057.33
409.49	1980.09
409.68	1973.07
409.87	1977.75
410.07	2069.03
410.26	2111.16
410.45	2045.63
410.64	2076.06
410.83	2155.63
411.02	2099.46
411.21	2270.32
411.40	2087.76
411.59	2249.25
411.78	2165.00
411.98	2242.23
412.17	2235.21
412.36	2260.96
412.55	2370.96
412.74	2361.60
412.93	2359.26
413.12	2333.51
413.31	2473.95
413.50	2392.03
413.69	2464.58
413.88	2502.03
414.07	2504.37
414.26	2518.42
414.45	2497.35
414.64	2590.97
414.83	2509.05
415.02	2485.65
415.22	2569.91
415.41	2686.94
415.60	2656.51
415.79	2736.09
415.98	2761.83
416.17	2757.15
416.36	2806.30
416.55	2738.43
416.74	2899.92
416.93	2726.72
417.12	2794.60
417.31	2888.22
417.50	2944.39
417.69	2970.14
417.88	2871.84
418.07	2991.20
418.26	3042.70
418.45	2881.20
418.64	3157.38
418.83	3098.87
419.02	3089.51
419.21	3133.98
419.39	3096.53
419.58	3061.42
419.77	3145.68
419.96	3141.00
420.15	3232.28
420.34	3133.98
420.53	3279.09
420.72	3187.81
420.91	3253.34
421.10	3283.77
421.29	3295.47
421.48	3337.60
421.67	3379.73
421.86	3330.58
422.05	3349.31
422.24	3389.10
422.43	3375.05
422.61	3328.24
422.80	3445.27
422.99	3487.40
423.18	3433.57
423.37	3478.04
423.56	3494.42
423.75	3454.63
423.94	3433.57
424.13	3316.54
424.32	3267.39
424.50	3349.31
424.69	3499.10
424.88	3391.44
425.07	3559.95
425.26	3506.12
425.45	3382.07
425.64	3393.78
425.83	3534.21
426.01	3536.55
426.20	3473.36
426.39	3634.85
426.58	3555.27
426.77	3536.55
426.96	3576.34
427.15	3609.11
427.33	3634.85
427.52	3548.25
427.71	3660.60
427.90	3588.04
428.09	3726.13
428.28	3772.94
428.46	3695.71
428.65	3648.90
428.84	3786.99
429.03	3852.52
429.22	3700.39
429.40	3705.07
429.59	3768.26
429.78	3719.11
429.97	3702.73
430.16	3794.01
430.34	3847.84
430.53	3908.69
430.72	3943.80
430.91	3857.20
431.10	3822.09
431.28	3988.27
431.47	4084.23
431.66	4121.68
431.85	4004.66
432.03	4229.35
432.22	4105.30
432.41	4060.83
432.60	4138.07
432.79	4128.70
432.97	4159.13
433.16	4187.22
433.35	4198.92
433.54	4161.47
433.72	4138.07
433.91	4145.09
434.10	4273.82
434.28	4049.13
434.47	4252.75
434.66	4390.84
434.85	4173.18
435.03	4461.06
435.22	4283.18
435.41	4461.06
435.59	4325.31
435.78	4477.44
435.97	4528.94
436.16	4416.59
436.34	4390.84
436.53	4582.77
436.72	4716.18
436.90	4524.26
437.09	4610.86
437.28	4592.13
437.46	4603.83
437.65	4617.88
437.84	4631.92
438.02	4690.43
438.21	4695.11
438.40	4638.94
438.58	4699.80
438.77	4805.12
438.96	4802.78
439.14	4821.50
439.33	4854.27
439.52	4826.18
439.70	5048.54
439.89	5109.39
440.08	5018.11
440.26	5006.41
440.45	5032.15
440.63	5022.79
440.82	5219.39
441.01	5170.24
441.19	5214.71
441.38	5259.18
441.57	5298.97
441.75	5301.31
441.94	5348.12
442.12	5500.26
442.31	5406.64
442.50	5448.77
442.68	5392.59
442.87	5514.30
443.05	5502.60
443.24	5682.82
443.43	5483.88
443.61	5757.72
443.80	5741.33
443.98	5502.60
444.17	5357.49
444.35	5523.66
444.54	5923.90
444.73	5696.86
444.91	5675.80
445.10	5680.48
445.28	5699.20
445.47	5746.02
445.65	5628.99
445.84	5895.81
446.02	5746.02
446.21	5879.43
446.39	5720.27
446.58	5785.80
446.77	5753.04
446.95	5657.07
447.14	5703.89
447.32	5783.46
447.51	5715.59
447.69	5809.21
447.88	5844.32
448.06	5867.72
448.25	5827.93
448.43	5942.62
448.62	5935.60
448.80	5806.87
448.99	5951.98
449.17	5944.96
449.36	6122.84
449.54	6080.71
449.73	6134.54
449.91	6022.20
450.10	6108.80
450.28	6078.37
450.46	6228.17
450.65	6179.01
450.83	6392.00
451.02	6078.37
451.20	6230.51
451.39	6312.42
451.57	6293.70
451.76	6160.29
451.94	6279.66
452.13	6197.74
452.31	6459.88
452.49	6347.53
452.68	6555.84
452.86	6349.87
453.05	6239.87
453.23	6319.45
453.42	6462.22
453.60	6396.68
453.78	6534.78
453.97	6312.42
454.15	6497.33
454.34	6375.62
454.52	6705.63
454.70	6558.18
454.89	6719.68
455.07	6633.08
455.26	6626.06
455.44	6743.08
455.62	6829.68
455.81	6698.61
455.99	6743.08
456.17	6752.45
456.36	6754.79
456.54	7059.06
456.73	7035.65
456.91	6967.77
457.09	7124.59
457.28	7087.14
457.46	6953.73
457.64	7159.70
457.83	7016.93
458.01	7234.60
458.19	7363.33
458.38	7351.62
458.56	7260.34
458.74	7110.55
458.93	7262.68
459.11	7133.95
459.29	7232.26
459.48	7190.13
459.66	7190.13
459.84	7419.50
460.03	7527.16
460.21	7489.71
460.39	7440.56
460.57	7454.61
460.76	7487.37
460.94	7555.25
461.12	7712.07
461.31	7564.61
461.49	7424.18
461.67	7482.69
461.85	7623.12
462.04	7581.00
462.22	8107.62
462.40	7826.75
462.59	7913.35
462.77	7864.20
462.95	7793.98
463.13	8013.99
463.32	7847.82
463.50	7950.80
463.68	8004.63
463.86	8166.13
464.05	7946.12
464.23	7882.92
464.41	7985.91
464.59	7852.50
464.78	7983.57
464.96	8098.25
465.14	7838.45
465.32	8035.06
465.50	8353.37
465.69	8037.40
465.87	8100.59
466.05	8067.83
466.23	8049.10
466.41	8271.45
466.60	8379.12
466.78	8306.56
466.96	8283.16
467.14	8369.76
467.32	8313.58
467.51	8332.31
467.69	8187.19
467.87	8339.33
468.05	8472.74
468.23	8276.13
468.41	8329.97
468.60	8521.89
468.78	8571.04
468.96	8711.47
469.14	8662.32
469.32	8760.63
469.50	8400.18
469.69	8851.91
469.87	9018.08
470.05	8716.16
470.23	8667.00
470.41	8940.85
470.59	8898.72
470.77	8903.40
470.95	8699.77
471.14	9186.60
471.32	8872.97
471.50	9130.43
471.68	9348.10
471.86	9170.22
472.04	9165.54
472.22	9397.25
472.40	9425.34
472.58	9404.27
472.77	9408.95
472.95	9509.60
473.13	9816.21
473.31	9535.34
473.49	9493.21
473.67	9472.15
473.85	9720.24
474.03	9879.40
474.21	9825.57
474.39	9837.27
474.57	9652.37
474.75	9841.95
474.93	10047.92
475.12	9984.73
475.30	10195.37
475.48	10160.27
475.66	10157.92
475.84	10120.48
476.02	10303.04
476.20	10129.84
476.38	10321.76
476.56	10789.87
476.74	10752.42
476.92	10544.11
477.10	10539.43
477.28	11061.37
477.46	10729.02
477.64	10951.37
477.82	10998.18
478.00	11485.01
478.18	11150.31
478.36	11302.45
478.54	11140.95
478.72	11585.65
478.90	11646.51
479.08	11716.72
479.26	11611.40
479.44	12004.61
479.62	11910.99
479.80	11992.90
479.98	12123.98
480.16	12439.95
480.34	11997.59
480.52	12556.97
480.70	12453.99
480.88	12215.26
481.06	12596.76
481.24	12599.10
481.41	12748.90
481.59	12978.27
481.77	13046.15
481.95	13191.26
482.13	13308.29
482.31	13336.37
482.49	13626.60
482.67	13532.98
482.85	13427.65
483.03	13614.90
483.21	13785.76
483.39	14090.02
483.57	13872.36
483.74	14078.32
483.92	14134.50
484.10	13802.14
484.28	14413.02
484.46	14696.22
484.64	14707.93
484.82	14532.39
485.00	14913.89
485.18	15103.48
485.35	15288.38
485.53	15192.42
485.71	15227.53
485.89	15630.10
486.07	15463.92
486.25	15508.39
486.43	15967.13
486.61	15641.80
486.78	16257.36
486.96	16027.99
487.14	16126.29
487.32	16360.34
487.50	16503.12
487.68	16709.08
487.85	16898.67
488.03	17207.62
488.21	17046.12
488.39	16966.54
488.57	17474.44
488.75	17525.93
488.92	17593.81
489.10	17785.73
489.28	17720.20
489.46	17851.27
489.64	17642.96
489.81	18181.28
489.99	18384.91
490.17	18185.96
490.35	18838.97
490.53	18630.66
490.70	18986.43
490.88	18752.37
491.06	19197.07
491.24	18984.09
491.41	19023.87
491.59	19147.92
491.77	19225.16
491.95	19342.19
492.13	19833.70
492.30	19632.41
492.48	19871.15
492.66	20102.86
492.84	19852.42
493.01	20475.01
493.19	20329.89
493.37	20788.64
493.54	20688.00
493.72	20755.87
493.90	20926.73
494.08	21062.48
494.25	21010.99
494.43	21254.40
494.61	21509.52
494.79	21532.93
494.96	21404.20
495.14	21799.75
495.32	21979.97
495.49	22073.59
495.67	22127.42
495.85	22326.37
496.02	22497.23
496.20	22623.62
496.38	22705.54
496.55	22427.01
496.73	23374.93
496.91	22515.95
497.09	23112.79
497.26	22953.63
497.44	23051.94
497.62	23278.97
497.79	23833.68
497.97	23456.85
498.14	23826.65
498.32	23730.69
498.50	24091.13
498.67	24151.99
498.85	23948.36
499.03	24233.91
499.20	24163.69
499.38	24360.30
499.56	24575.62
499.73	24723.08
499.91	24847.13
500.08	24697.33
500.26	24952.45
500.44	24748.82
500.61	25425.24
500.79	24933.73
500.97	24985.22
501.14	25942.50
501.32	25504.82
501.49	25844.20
501.67	25582.06
501.84	25575.03
502.02	25926.11
502.20	26038.46
502.37	26103.99
502.55	26026.76
502.72	26045.48
502.90	25965.90
503.07	25795.04
503.25	26450.39
503.43	26672.74
503.60	26553.38
503.78	26672.74
503.95	26597.85
504.13	26799.13
504.30	27042.55
504.48	26616.57
504.65	27035.53
504.83	27250.86
505.01	27583.21
505.18	27297.67
505.36	27618.32
505.53	27704.92
505.71	27475.55
505.88	27651.09
506.06	27475.55
506.23	27800.88
506.41	27896.85
506.58	28107.49
506.76	28002.17
506.93	28144.94
507.11	28371.97
507.28	28166.01
507.46	28231.54
507.63	28683.27
507.81	28952.43
507.98	28528.79
508.16	28741.78
508.33	28975.83
508.50	28830.72
508.68	28992.22
508.85	29069.45
509.03	28950.09
509.20	29710.76
509.38	29563.31
509.55	29481.39
509.73	29862.90
509.90	29663.95
510.08	29656.93
510.25	29940.13
510.42	30239.72
510.60	30017.37
510.77	29956.52
510.95	30548.67
511.12	30408.24
511.30	30099.29
511.47	29930.77
511.64	30644.63
511.82	30707.83
511.99	30536.97
512.17	30696.13
512.34	30876.35
512.51	31157.21
512.69	31449.78
512.86	31311.69
513.04	31377.22
513.21	31178.28
513.38	31517.65
513.56	31400.63
513.73	31243.81
513.90	31707.24
514.08	31402.97
514.25	32086.40
514.43	32173.00
514.60	31716.60
514.77	31728.30
514.95	31880.44
515.12	31990.44
515.29	32027.89
515.47	32451.53
515.64	32339.18
515.81	32180.03
515.99	32404.72
516.16	32678.56
516.33	32694.94
516.51	32842.40
516.68	32023.21
516.85	32720.69
517.03	32900.91
517.20	32755.80
517.37	32961.76
517.54	33425.19
517.72	33340.93
517.89	33345.61
518.06	33476.68
518.24	33418.17
518.41	33500.09
518.58	33362.00
518.75	33172.41
518.93	33586.69
519.10	33762.23
519.27	33923.72
519.45	33771.59
519.62	34071.18
519.79	33631.16
519.96	33947.13
520.14	34209.27
520.31	34054.79
520.48	34396.51
520.65	34857.60
520.83	34841.21
521.00	34707.80
521.17	34869.30
521.34	34696.10
521.52	34572.05
521.69	34873.98
521.86	35243.79
522.03	35145.48
522.20	35180.59
522.38	35473.16
522.55	35445.07
522.72	35042.50
522.89	35658.06
523.07	35529.33
523.24	35721.26
523.41	35655.72
523.58	35538.69
523.75	35641.68
523.92	36048.93
524.10	36079.36
524.27	36172.98
524.44	36037.23
524.61	36137.87
524.78	36416.40
524.96	36411.71
525.13	36498.31
525.30	36575.55
525.47	36430.44
525.64	36470.23
525.81	36835.35
525.98	36898.55
526.16	36521.72
526.33	36629.38
526.50	37298.78
526.67	36495.97
526.84	36996.85
527.01	37359.63
527.18	36751.09
527.36	36961.74
527.53	37378.36
527.70	37680.28
527.87	37177.07
528.04	37464.96
528.21	37560.92
528.38	37380.70
528.55	37724.75
528.72	37649.86
528.89	37986.89
529.07	37551.56
529.24	37399.42
529.41	37783.27
529.58	37787.95
529.75	37612.41
529.92	37956.47
530.09	37806.67
530.26	38146.05
530.43	38192.86
530.60	37998.60
530.77	37574.96
530.94	38307.55
531.11	38499.47
531.28	38157.75
531.46	38305.21
531.63	38536.92
531.80	38356.70
531.97	38946.51
532.14	38745.23
532.31	38492.45
532.48	38902.04
532.65	39093.97
532.82	38508.83
532.99	38618.84
533.16	38998.01
533.33	39227.38
533.50	39086.95
533.67	39131.42
533.84	39084.61
534.01	39311.64
534.18	39098.65
534.35	39805.49
534.52	39618.25
534.69	39922.52
534.86	39555.05
535.03	39466.11
535.20	39866.34
535.37	39739.96
535.54	39945.92
535.71	39370.15
535.88	39934.22
536.05	40079.33
536.22	40311.05
536.38	40343.81
536.55	40147.21
536.72	39910.82
536.89	39931.88
537.06	40102.74
537.23	40226.79
537.40	40285.30
537.57	40147.21
537.74	40346.15
537.91	40144.87
538.08	40624.68
538.25	40177.64
538.42	40620.00
538.59	40708.94
538.75	40027.84
538.92	40921.93
539.09	41174.70
539.26	40797.88
539.43	40727.66
539.60	40928.95
539.77	40767.45
539.94	41050.66
540.11	41326.84
540.28	40868.09
540.44	41312.80
540.61	40800.22
540.78	41249.60
540.95	41228.54
541.12	41092.79
541.29	40926.61
541.46	41165.34
541.62	41698.98
541.79	41366.63
541.96	41368.97
542.13	41324.50
542.30	41411.10
542.47	42101.56
542.63	42010.28
542.80	42394.12
542.97	42232.63
543.14	41883.89
543.31	42188.16
543.48	42036.02
543.64	42806.06
543.81	42630.52
543.98	42337.95
544.15	42445.62
544.32	42754.57
544.48	42899.68
544.65	42616.47
544.82	43093.94
544.99	42452.64
545.16	42799.04
545.32	43009.68
545.49	43384.17
545.66	43194.59
545.83	43110.33
546.00	43398.21
546.16	42337.95
546.33	43159.48
546.50	42876.27
546.67	43438.00
546.83	42469.02
547.00	42693.71
547.17	42679.67
547.34	43033.09
547.50	42895.00
547.67	43814.83
547.84	43248.42
548.00	43435.66
548.17	43831.21
548.34	43697.80
548.51	43650.99
548.67	43761.00
548.84	43065.86
549.01	43761.00
549.18	43812.49
549.34	44053.56
549.51	44383.58
549.68	44163.57
549.84	43634.61
550.01	43973.98
550.18	44062.93
550.34	43922.49
550.51	44233.78
550.68	44041.86
550.84	44048.88
551.01	44198.68
551.18	43838.23
551.34	44355.49
551.51	43978.67
551.68	44233.78
551.84	44435.07
552.01	44409.32
552.18	44481.88
552.34	44144.84
552.51	44666.78
552.68	44559.12
552.84	44671.46
553.01	44587.21
553.18	44266.55
553.34	44870.41
553.51	44797.85
553.67	44414.01
553.84	45106.80
554.01	44886.79
554.17	44919.56
554.34	44980.42
554.51	45263.62
554.67	45268.30
554.84	44767.43
555.00	44774.45
555.17	45057.65
555.33	44868.07
555.50	44783.81
555.67	45069.36
555.83	44889.13
556.00	45471.93
556.16	45724.71
556.33	45085.74
556.50	45167.66
556.66	45235.53
556.83	45223.83
556.99	45467.25
557.16	45830.03
557.32	45373.63
557.49	45689.60
557.65	45448.52
557.82	45762.15
557.98	45319.79
558.15	45392.35
558.32	45310.43
558.48	45432.14
558.65	45736.41
558.81	45909.61
558.98	45865.14
559.14	45778.54
559.31	45717.68
559.47	45848.75
559.64	45963.44
559.80	45865.14
559.97	46206.86
560.13	45532.78
560.30	46270.05
560.46	46373.03
560.63	45830.03
560.79	45991.53
560.96	46087.49
561.12	46513.47
561.29	46302.82
561.45	45951.74
561.61	46417.50
561.78	46087.49
561.94	45708.32
562.11	45752.79
562.27	46068.76
562.44	46213.88
562.60	46160.05
562.77	46061.74
562.93	46225.58
563.10	46660.92
563.26	46183.45
563.42	46646.88
563.59	46513.47
563.75	46040.68
563.92	46071.10
564.08	46005.57
564.24	46644.54
564.41	46211.54
564.57	46300.48
564.74	46368.35
564.90	46653.90
565.07	46497.08
565.23	45921.31
565.39	46096.85
565.56	46841.14
565.72	46183.45
565.88	46557.94
566.05	46642.20
566.21	46588.36
566.38	46478.36
566.54	46445.59
566.70	46686.67
566.87	47100.94
567.03	46677.30
567.19	47028.38
567.36	46747.52
567.52	47122.01
567.68	47000.30
567.85	47122.01
568.01	46923.06
568.17	46700.71
568.34	47269.46
568.50	47189.88
568.66	47122.01
568.83	46667.94
568.99	46808.37
569.15	47047.11
569.32	46939.44
569.48	46745.18
569.64	47562.03
569.81	47075.19
569.97	46979.23
570.13	47241.37
570.30	46808.37
570.46	47276.48
570.62	47187.54
570.78	47164.14
570.95	47012.00
571.11	47346.70
571.27	47122.01
571.43	46876.25
571.60	47091.58
571.76	46806.03
571.92	46857.52
572.09	46726.46
572.25	47540.96
572.41	46911.36
572.57	47271.80
572.74	47145.41
572.90	47196.90
573.06	47161.79
573.22	47370.10
573.38	47562.03
573.55	47536.28
573.71	47922.47
573.87	47178.18
574.03	47082.22
574.20	47763.31
574.36	46876.25
574.52	47414.57
574.68	47983.32
574.84	47674.37
575.01	47313.93
575.17	47632.24
575.33	47515.22
575.49	47365.42
575.65	47625.22
575.82	47407.55
575.98	47208.61
576.14	47728.20
576.30	47580.75
576.46	47374.78
576.62	47456.70
576.79	47339.68
576.95	47100.94
577.11	47096.26
577.27	47590.11
577.43	47360.74
577.59	47557.35
577.75	47468.40
577.92	46806.03
578.08	47767.99
578.24	47468.40
578.40	47746.93
578.56	47775.02
578.72	47332.65
578.88	47901.40
579.04	47629.90
579.21	47526.92
579.37	47597.13
579.53	47826.51
579.69	46892.63
579.85	47784.38
580.01	47587.77
580.17	47342.02
580.33	47585.43
580.49	47519.90
580.65	47564.37
580.82	47435.64
580.98	47384.15
581.14	47672.03
581.30	47543.30
581.46	47564.37
581.62	47435.64
581.78	47824.17
581.94	47945.87
582.10	47805.44
582.26	47381.80
582.42	47569.05
582.58	47852.25
582.74	47501.17
582.90	47728.20
583.06	47826.51
583.22	47533.94
583.38	47679.05
583.54	47508.19
583.70	47810.12
583.86	47840.55
584.02	47547.98
584.18	47849.91
584.34	47985.66
584.50	47969.28
584.66	47770.33
584.82	47749.27
584.98	48465.47
585.14	47756.29
585.30	47618.20
585.46	47707.14
585.62	47716.50
585.78	47838.21
585.94	47524.58
586.10	47601.82
586.26	47838.21
586.42	47810.12
586.58	48039.50
586.74	47847.57
586.90	47730.54
587.06	47969.28
587.22	48215.04
587.38	48018.43
587.54	47751.61
587.70	48437.39
587.86	47805.44
588.02	47845.23
588.18	47737.57
588.34	47852.25
588.49	47798.42
588.65	47255.42
588.81	47779.70
588.97	47952.90
589.13	47899.06
589.29	47927.15
589.45	48563.78
589.61	48154.18
589.77	48212.70
589.93	48009.07
590.08	47632.24
