SpectraSuite Data File
++++++++++++++++++++++++++++++++++++
Date: Fri Oct 25 10:43:29 EDT 2013
User: price-jones
Dark Spectrum Present: No
Reference Spectrum Present: No
Number of Sampled Component Spectra: 1
Spectrometers: USB2+H05261
Integration Time (usec): 100000 (USB2+H05261)
Spectra Averaged: 1 (USB2+H05261)
Boxcar Smoothing: 0 (USB2+H05261)
Correct for Electrical Dark: No (USB2+H05261)
Strobe/Lamp Enabled: No (USB2+H05261)
Correct for Detector Non-linearity: No (USB2+H05261)
Correct for Stray Light: No (USB2+H05261)
Number of Pixels in Processed Spectrum: 2048
>>>>>Begin Processed Spectral Data<<<<<
365.73	140.43
365.92	140.43
366.12	140.43
366.32	0.00
366.52	37.45
366.72	44.47
366.91	11.70
367.11	102.98
367.31	42.13
367.51	35.11
367.70	32.77
367.90	28.09
368.10	9.36
368.30	14.04
368.49	16.38
368.69	72.56
368.89	23.41
369.09	11.70
369.28	42.13
369.48	11.70
369.68	58.51
369.87	114.69
370.07	49.15
370.27	154.48
370.47	205.97
370.66	376.83
370.86	411.93
371.06	442.36
371.25	447.04
371.45	451.72
371.65	454.06
371.84	440.02
372.04	447.04
372.24	477.47
372.44	440.02
372.63	456.40
372.83	491.51
373.03	442.36
373.22	486.83
373.42	533.64
373.62	592.16
373.81	594.50
374.01	559.39
374.21	524.28
374.40	519.60
374.60	592.16
374.79	512.58
374.99	620.24
375.19	498.53
375.38	519.60
375.58	638.97
375.78	568.75
375.97	552.37
376.17	615.56
376.37	603.86
376.56	535.98
376.76	634.29
376.95	617.90
377.15	638.97
377.35	575.77
377.54	596.84
377.74	566.41
377.93	702.16
378.13	653.01
378.33	695.14
378.52	650.67
378.72	704.50
378.91	657.69
379.11	620.24
379.31	631.94
379.50	599.18
379.70	741.95
379.89	695.14
380.09	655.35
380.28	690.46
380.48	667.05
380.68	674.07
380.87	702.16
381.07	657.69
381.26	720.88
381.46	671.73
381.65	819.19
381.85	645.99
382.04	599.18
382.24	678.76
382.43	688.12
382.63	648.33
382.83	674.07
383.02	781.74
383.22	765.36
383.41	617.90
383.61	795.78
383.80	809.83
384.00	805.14
384.19	744.29
384.39	739.61
384.58	821.53
384.78	826.21
384.97	798.12
385.17	812.17
385.36	697.48
385.56	812.17
385.75	741.95
385.95	763.01
386.14	938.55
386.34	863.66
386.53	683.44
386.72	788.76
386.92	898.77
387.11	903.45
387.31	980.68
387.50	805.14
387.70	858.98
387.89	828.55
388.09	877.70
388.28	854.30
388.48	891.74
388.67	931.53
388.86	905.79
389.06	912.81
389.25	987.71
389.45	940.90
389.64	980.68
389.84	1015.79
390.03	985.37
390.22	959.62
390.42	1053.24
390.61	1004.09
390.81	940.90
391.00	1015.79
391.19	1104.73
391.39	1022.81
391.58	1006.43
391.78	1095.37
391.97	1071.97
392.16	1034.52
392.36	1102.39
392.55	1046.22
392.75	1064.94
392.94	1018.13
393.13	1095.37
393.33	1006.43
393.52	957.28
393.71	1097.71
393.91	1156.22
394.10	1109.41
394.29	1158.57
394.49	1125.80
394.68	1210.06
394.88	1329.42
395.07	1184.31
395.26	1294.32
395.46	1268.57
395.65	1217.08
395.84	1261.55
396.04	1252.19
396.23	1282.61
396.42	1207.72
396.62	1144.52
396.81	1146.86
397.00	1200.69
397.19	1217.08
397.39	1294.32
397.58	1341.13
397.77	1409.00
397.97	1406.66
398.16	1490.92
398.35	1432.41
398.55	1413.68
398.74	1465.18
398.93	1535.39
399.12	1448.79
399.32	1401.98
399.51	1437.09
399.70	1509.65
399.90	1624.33
400.09	1582.20
400.28	1598.59
400.47	1509.65
400.67	1703.91
400.86	1614.97
401.05	1621.99
401.24	1675.82
401.44	1659.44
401.63	1776.47
401.82	1785.83
402.01	1600.93
402.21	1591.56
402.40	1715.61
402.59	1842.00
402.78	1699.23
402.97	1762.42
403.17	1806.89
403.36	1710.93
403.55	1809.23
403.74	2010.52
403.93	1884.13
404.13	1905.20
404.32	1820.94
404.51	1851.36
404.70	1905.20
404.89	1942.64
405.09	2033.93
405.28	2003.50
405.47	1895.83
405.66	1902.86
405.85	1980.09
406.05	2073.71
406.24	2057.33
406.43	2040.95
406.62	2078.40
406.81	2118.18
407.00	2118.18
407.20	1975.41
407.39	2008.18
407.58	2036.27
407.77	2179.04
407.96	2319.47
408.15	2214.15
408.34	2202.44
408.54	2312.45
408.73	2256.28
408.92	2256.28
409.11	2406.07
409.30	2349.90
409.49	2253.94
409.68	2265.64
409.87	2260.96
410.07	2403.73
410.26	2417.77
410.45	2251.60
410.64	2469.27
410.83	2427.14
411.02	2448.20
411.21	2621.40
411.40	2555.86
411.59	2658.85
411.78	2562.89
411.98	2530.12
412.17	2644.81
412.36	2534.80
412.55	2740.77
412.74	2806.30
412.93	2771.19
413.12	2693.96
413.31	2867.16
413.50	2747.79
413.69	2935.03
413.88	3026.31
414.07	2892.90
414.26	2920.99
414.45	2906.95
414.64	2888.22
414.83	3021.63
415.02	2984.18
415.22	3002.91
415.41	3005.25
415.60	3241.64
415.79	3119.93
415.98	3225.26
416.17	3281.43
416.36	3295.47
416.55	3056.74
416.74	3377.39
416.93	3180.79
417.12	3283.77
417.31	3297.81
417.50	3290.79
417.69	3405.48
417.88	3445.27
418.07	3428.88
418.26	3248.66
418.45	3517.83
418.64	3522.51
418.83	3480.38
419.02	3527.19
419.21	3562.30
419.39	3658.26
419.58	3609.11
419.77	3386.76
419.96	3653.58
420.15	3763.58
420.34	3632.51
420.53	3791.67
420.72	3756.56
420.91	3859.54
421.10	3676.98
421.29	3838.48
421.48	3777.62
421.67	3859.54
421.86	3744.86
422.05	3772.94
422.24	3786.99
422.43	3857.20
422.61	3817.41
422.80	3801.03
422.99	3838.48
423.18	3878.27
423.37	3927.42
423.56	3866.56
423.75	4032.74
423.94	3875.93
424.13	3749.54
424.32	3864.22
424.50	3875.93
424.69	4016.36
424.88	3946.14
425.07	3840.82
425.26	3953.16
425.45	3955.51
425.64	3838.48
425.83	3861.88
426.01	3896.99
426.20	4007.00
426.39	3964.87
426.58	3934.44
426.77	3789.33
426.96	4046.79
427.15	3833.80
427.33	4098.28
427.52	4084.23
427.71	3985.93
427.90	4119.34
428.09	4180.20
428.28	4088.92
428.46	4227.01
428.65	4224.67
428.84	4290.20
429.03	4231.69
429.22	4028.06
429.40	4177.86
429.59	4170.83
429.78	3904.01
429.97	4011.68
430.16	4011.68
430.34	4030.40
430.53	4119.34
430.72	4072.53
430.91	4250.41
431.10	4224.67
431.28	4575.75
431.47	4557.02
431.66	4613.20
431.85	4748.95
432.03	4594.47
432.22	4669.37
432.41	4608.51
432.60	4683.41
432.79	4695.11
432.97	4706.82
433.16	4877.68
433.35	4718.52
433.54	4655.33
433.72	4688.09
433.91	4585.11
434.10	4758.31
434.28	4793.42
434.47	4765.33
434.66	4938.53
434.85	4744.27
435.03	4884.70
435.22	4943.21
435.41	5020.45
435.59	4924.49
435.78	5081.30
435.97	5069.60
436.16	5064.92
436.34	5207.69
436.53	5121.09
436.72	5114.07
436.90	5071.94
437.09	5053.22
437.28	5102.37
437.46	5240.46
437.65	5142.16
437.84	5069.60
438.02	5200.67
438.21	5163.22
438.40	5146.84
438.58	5305.99
438.77	5348.12
438.96	5317.70
439.14	5418.34
439.33	5715.59
439.52	5486.22
439.70	5596.22
439.89	5666.44
440.08	5734.31
440.26	5598.56
440.45	5809.21
440.63	5809.21
440.82	5830.27
441.01	5837.30
441.19	5944.96
441.38	6239.87
441.57	6064.33
441.75	6134.54
441.94	6167.31
442.12	6289.02
442.31	6319.45
442.50	6361.58
442.68	6190.72
442.87	6232.85
443.05	6326.47
443.24	6300.72
443.43	6361.58
443.61	6396.68
443.80	6590.95
443.98	6436.47
444.17	6303.06
444.35	6586.27
444.54	6473.92
444.73	6490.31
444.91	6445.84
445.10	6324.13
445.28	6328.81
445.47	6363.92
445.65	6396.68
445.84	6525.41
446.02	6520.73
446.21	6534.78
446.39	6492.65
446.58	6633.08
446.77	6604.99
446.95	6509.03
447.14	6478.60
447.32	6841.39
447.51	6651.80
447.69	6675.21
447.88	6647.12
448.06	6754.79
448.25	6684.57
448.43	6930.33
448.62	6836.70
448.80	6747.76
448.99	6890.54
449.17	6836.70
449.36	6759.47
449.54	6986.50
449.73	7040.33
449.91	6984.16
450.10	7108.21
450.28	7265.02
450.46	7084.80
450.65	7323.54
450.83	7211.19
451.02	7009.90
451.20	7258.00
451.39	7318.86
451.57	7276.73
451.76	7002.88
451.94	7307.15
452.13	7295.45
452.31	7061.40
452.49	7101.19
452.68	7129.27
452.86	7070.76
453.05	7208.85
453.23	7162.04
453.42	7262.68
453.60	7339.92
453.78	7400.77
453.97	7398.43
454.15	7330.56
454.34	7365.67
454.52	7438.22
454.70	7550.57
454.89	7623.12
455.07	7590.36
455.26	7566.95
455.44	7646.53
455.62	7822.07
455.81	7826.75
455.99	7733.13
456.17	7836.11
456.36	7838.45
456.54	7812.71
456.73	7815.05
456.91	8093.57
457.09	8154.43
457.28	8187.19
457.46	8006.97
457.64	8217.62
457.83	8112.30
458.01	8147.40
458.19	8187.19
458.38	8198.90
458.56	8306.56
458.74	8297.20
458.93	8212.94
459.11	8271.45
459.29	8205.92
459.48	8182.51
459.66	8159.11
459.84	8170.81
460.03	8355.71
460.21	8435.29
460.39	8510.19
460.57	8496.14
460.76	8531.25
460.94	8617.85
461.12	8702.11
461.31	8571.04
461.49	8432.95
461.67	8545.30
461.85	8727.86
462.04	8709.13
462.22	9181.92
462.40	8959.57
462.59	8746.58
462.77	8805.10
462.95	8936.17
463.13	8919.78
463.32	8758.28
463.50	9034.47
463.68	8987.66
463.86	9200.65
464.05	8884.67
464.23	8887.01
464.41	8889.35
464.59	8894.04
464.78	9132.77
464.96	8997.02
465.14	8964.25
465.32	9352.78
465.50	9294.27
465.69	9228.73
465.87	9277.88
466.05	9179.58
466.23	9184.26
466.41	8847.22
466.60	9263.84
466.78	9275.54
466.96	9280.22
467.14	9252.14
467.32	9343.42
467.51	9380.87
467.69	9167.88
467.87	9413.63
468.05	9397.25
468.23	9383.21
468.41	9320.01
468.60	9387.89
468.78	9415.98
468.96	9509.60
469.14	9495.55
469.32	9603.22
469.50	9472.15
469.69	9476.83
469.87	9741.31
470.05	9668.75
470.23	9774.08
470.41	9612.58
470.59	9720.24
470.77	9783.44
470.95	9973.02
471.14	10225.80
471.32	9769.40
471.50	10193.03
471.68	10328.78
471.86	10303.04
472.04	10310.06
472.22	10553.48
472.40	10087.71
472.58	10221.12
472.77	10424.75
472.95	10661.14
473.13	10541.77
473.31	10274.95
473.49	10548.79
473.67	10520.71
473.85	10462.19
474.03	10986.47
474.21	10808.59
474.39	10913.92
474.57	10939.66
474.75	11176.06
474.93	11054.35
475.12	11061.37
475.30	11396.07
475.48	11218.19
475.66	11164.36
475.84	11330.53
476.02	11396.07
476.20	11456.92
476.38	11620.76
476.56	11613.74
476.74	11742.47
476.92	11665.23
477.10	11953.12
477.28	12095.89
477.46	11988.22
477.64	12273.77
477.82	12217.60
478.00	12554.63
478.18	12458.67
478.36	12573.36
478.54	12592.08
478.72	12585.06
478.90	12905.71
479.08	13041.46
479.26	13062.53
479.44	13036.78
479.62	13273.18
479.80	13097.64
479.98	13207.64
480.16	13547.02
480.34	13371.48
480.52	13645.32
480.70	13745.97
480.88	13511.91
481.06	13825.54
481.24	14005.77
481.41	14228.12
481.59	14216.41
481.77	14377.91
481.95	14293.65
482.13	14281.95
482.31	14394.29
482.49	14743.03
482.67	14906.87
482.85	15070.71
483.03	15161.99
483.21	14895.17
483.39	15183.06
483.57	15199.44
483.74	15227.53
483.92	15243.91
484.10	15522.43
484.28	15667.55
484.46	16149.70
484.64	16072.46
484.82	16184.80
485.00	15953.09
485.18	16208.21
485.35	16339.28
485.53	16053.73
485.71	15896.92
485.89	16222.25
486.07	16042.03
486.25	16400.13
486.43	16596.74
486.61	16769.94
486.78	16915.05
486.96	17376.14
487.14	17455.72
487.32	17385.50
487.50	18064.25
487.68	17731.90
487.85	18302.99
488.03	17968.29
488.21	18363.84
488.39	18141.49
488.57	18773.44
488.75	18537.04
488.92	19051.96
489.10	19386.66
489.28	19520.07
489.46	19475.60
489.64	19454.53
489.81	19782.21
489.99	19924.98
490.17	20184.78
490.35	20367.34
490.53	20180.10
490.70	20365.00
490.88	20503.09
491.06	20830.77
491.24	20442.24
491.41	20528.84
491.59	20730.12
491.77	20561.61
491.95	21153.76
492.13	21315.26
492.30	21277.81
492.48	21415.90
492.66	21722.51
492.84	21556.33
493.01	21710.81
493.19	21687.40
493.37	22155.51
493.54	21923.80
493.72	22419.99
493.90	22377.86
494.08	22960.66
494.25	22682.13
494.43	22906.82
494.61	23314.08
494.79	23630.05
494.96	23405.36
495.14	23314.08
495.32	23428.76
495.49	23236.84
495.67	23723.67
495.85	23864.10
496.02	24058.37
496.20	24063.05
496.38	24353.27
496.55	24374.34
496.73	24535.84
496.91	24634.14
497.09	24952.45
497.26	24765.21
497.44	24505.41
497.62	24917.34
497.79	25195.87
497.97	24755.85
498.14	25287.15
498.32	25750.57
498.50	25390.13
498.67	25685.04
498.85	25603.12
499.03	26078.25
499.20	25673.34
499.38	26398.90
499.56	26265.49
499.73	26298.26
499.91	26298.26
500.08	26513.59
500.26	26141.44
500.44	26045.48
500.61	26361.45
500.79	26532.31
500.97	26586.15
501.14	27138.51
501.32	26899.78
501.49	26696.15
501.67	26941.91
501.84	27211.07
502.02	27749.39
502.20	27393.63
502.37	27674.49
502.55	27421.72
502.72	27913.23
502.90	28348.57
503.07	27835.99
503.25	28025.57
503.43	28093.45
503.60	28229.20
503.78	27903.87
503.95	27864.08
504.13	28034.94
504.30	28327.50
504.48	28472.62
504.65	28891.57
504.83	28814.34
505.01	29078.82
505.18	28671.56
505.36	29008.60
505.53	29200.52
505.71	29319.89
505.88	29188.82
506.06	29626.50
506.23	29383.09
506.41	29097.54
506.58	29516.50
506.76	29722.46
506.93	29413.51
507.11	29640.54
507.28	29481.39
507.46	29619.48
507.63	29509.47
507.81	30071.20
507.98	29780.98
508.16	30335.68
508.33	30169.51
508.50	30384.83
508.68	30508.88
508.85	30916.14
509.03	30555.69
509.20	30857.62
509.38	30857.62
509.55	30747.62
509.73	31641.70
509.90	30925.50
510.08	31035.50
510.25	31101.04
510.42	31555.10
510.60	31466.16
510.77	31543.40
510.95	32123.85
511.12	31449.78
511.30	31662.77
511.47	32393.01
511.64	32107.47
511.82	32006.83
511.99	31777.45
512.17	32254.92
512.34	31737.66
512.51	32196.41
512.69	32584.94
512.86	32746.44
513.04	32840.06
513.21	32631.75
513.38	32414.08
513.56	32460.89
513.73	32659.84
513.90	32732.39
514.08	32519.40
514.25	32758.14
514.43	32947.72
514.60	32701.96
514.77	32828.35
514.95	33399.44
515.12	33097.52
515.29	33457.96
515.47	33584.35
515.64	33333.91
515.81	33542.22
515.99	33582.01
516.16	33350.29
516.33	33165.39
516.51	33806.70
516.68	33207.52
516.85	33048.36
517.03	33249.65
517.20	33816.06
517.37	34188.21
517.54	34178.84
517.72	33886.28
517.89	33961.17
518.06	34258.42
518.24	34183.52
518.41	33776.27
518.58	34333.32
518.75	34199.91
518.93	34443.32
519.10	34440.98
519.27	35009.73
519.45	35007.39
519.62	35103.35
519.79	35161.87
519.96	34995.69
520.14	35056.54
520.31	35171.23
520.48	35147.82
520.65	35281.24
520.83	35770.41
521.00	35826.58
521.17	35594.87
521.34	35796.15
521.52	35807.86
521.69	35452.09
521.86	35707.21
522.03	36030.21
522.20	35964.67
522.38	36135.53
522.55	36182.34
522.72	36011.48
522.89	36264.26
523.07	36559.17
523.24	36706.62
523.41	36821.31
523.58	36383.63
523.75	37345.59
523.92	36680.88
524.10	36833.01
524.27	37053.02
524.44	36809.61
524.61	36863.44
524.78	36594.28
524.96	37069.40
525.13	37020.25
525.30	37720.07
525.47	37497.72
525.64	36973.44
525.81	37001.53
525.98	37460.27
526.16	36889.18
526.33	36945.36
526.50	37397.08
526.67	36975.78
526.84	37120.90
527.01	37305.80
527.18	37305.80
527.36	37834.76
527.53	37579.64
527.70	38026.68
527.87	37998.60
528.04	37640.50
528.21	38232.65
528.38	37975.19
528.55	38536.92
528.72	38525.22
528.89	39002.69
529.07	38234.99
529.24	38321.59
529.41	38569.69
529.58	38398.83
529.75	38761.61
529.92	38639.90
530.09	39089.29
530.26	38705.44
530.43	38958.22
530.60	38897.36
530.77	39386.54
530.94	38951.20
531.11	39194.61
531.28	39395.90
531.46	38969.92
531.63	39360.79
531.80	39164.18
531.97	38909.07
532.14	39084.61
532.31	38656.29
532.48	38951.20
532.65	39325.68
532.82	39124.40
532.99	39569.10
533.16	38951.20
533.33	39686.12
533.50	40023.16
533.67	39817.19
533.84	39218.02
534.01	39494.20
534.18	39739.96
534.35	40098.06
534.52	40229.13
534.69	40339.13
534.86	40278.28
535.03	39842.94
535.20	40474.88
535.37	40194.02
535.54	40802.56
535.71	40580.21
535.88	40769.79
536.05	40390.62
536.22	40683.19
536.38	40926.61
536.55	40552.12
536.72	40570.85
536.89	40205.72
537.06	40381.26
537.23	40891.50
537.40	40903.20
537.57	40634.04
537.74	40795.54
537.91	41488.34
538.08	41095.13
538.25	40893.84
538.42	40872.78
538.59	41069.38
538.75	40687.87
538.92	40903.20
539.09	40804.90
539.26	41167.68
539.43	41228.54
539.60	41038.95
539.77	41303.43
539.94	41144.28
540.11	41146.62
540.28	41303.43
540.44	41539.83
540.61	41132.57
540.78	40816.60
540.95	41282.37
541.12	40858.73
541.29	41013.21
541.46	41467.27
541.62	41546.85
541.79	41825.37
541.96	41736.43
542.13	41907.29
542.30	41523.44
542.47	41439.18
542.63	41886.23
542.80	41968.15
542.97	42391.78
543.14	42270.08
543.31	42609.45
543.48	42124.96
543.64	42670.31
543.81	42469.02
543.98	41951.76
544.15	42408.17
544.32	42354.33
544.48	43225.01
544.65	42784.99
544.82	42452.64
544.99	42415.19
545.16	42293.48
545.32	42564.98
545.49	43210.97
545.66	43192.25
545.83	42932.45
546.00	42513.49
546.16	42759.25
546.33	42623.50
546.50	42490.09
546.67	42525.19
546.83	42167.09
547.00	42895.00
547.17	43000.32
547.34	42747.54
547.50	42918.40
547.67	43225.01
547.84	42871.59
548.00	43430.98
548.17	43756.32
548.34	43335.02
548.51	43632.27
548.67	43875.68
548.84	43611.20
549.01	43531.62
549.18	43414.60
549.34	43498.86
549.51	43662.69
549.68	43274.16
549.84	43416.94
550.01	43608.86
550.18	43531.62
550.34	43704.82
550.51	43824.19
550.68	43777.38
550.84	43445.02
551.01	43948.24
551.18	43995.05
551.34	44406.98
551.51	43732.91
551.68	44205.70
551.84	43981.01
552.01	43882.70
552.18	43627.59
552.34	43482.47
552.51	44296.98
552.68	43817.17
552.84	43676.74
553.01	44259.53
553.18	43999.73
553.34	44383.58
553.51	44168.25
553.67	44439.75
553.84	44563.80
554.01	44353.15
554.17	44713.59
554.34	44495.92
554.51	44577.84
554.67	44594.23
554.84	44376.56
555.00	44046.54
555.17	44671.46
555.33	44643.38
555.50	44397.62
555.67	44779.13
555.83	44638.70
556.00	44266.55
556.16	44790.83
556.33	44554.44
556.50	44830.62
556.66	44437.41
556.83	44591.89
556.99	45090.42
557.16	44500.61
557.32	44631.68
557.49	44729.98
557.65	44596.57
557.82	44914.88
557.98	44648.06
558.15	44828.28
558.32	45059.99
558.48	44524.01
558.65	44535.71
558.81	44982.76
558.98	44182.29
559.14	44538.05
559.31	44825.94
559.47	44626.99
559.64	44758.06
559.80	45081.06
559.97	44540.39
560.13	44561.46
560.30	44868.07
560.46	44795.51
560.63	45471.93
560.79	45237.87
560.96	45663.85
561.12	44917.22
561.29	44760.40
561.45	44821.26
561.61	45111.49
561.78	45097.44
561.94	45167.66
562.11	44828.28
562.27	45036.59
562.44	45394.69
562.60	45057.65
562.77	45713.00
562.93	45184.04
563.10	45703.64
563.26	45219.15
563.42	45397.03
563.59	45102.12
563.75	45057.65
563.92	45546.82
564.08	45359.58
564.24	46017.27
564.41	45085.74
564.57	45249.58
564.74	45137.23
564.90	45235.53
565.07	45357.24
565.23	45361.92
565.39	45221.49
565.56	45525.76
565.72	45022.54
565.88	45174.68
566.05	45228.51
566.21	45092.76
566.38	45104.46
566.54	45448.52
566.70	45375.97
566.87	45815.99
567.03	45827.69
567.19	45794.92
567.36	45808.96
567.52	45748.11
567.68	45647.47
567.85	44821.26
568.01	45443.84
568.17	45595.98
568.34	45977.48
568.50	45502.35
568.66	45591.30
568.83	45668.53
568.99	44961.69
569.15	45542.14
569.32	45277.66
569.48	45544.48
569.64	45860.46
569.81	45649.81
569.97	45551.51
570.13	45565.55
570.30	45191.06
570.46	45223.83
570.62	45013.18
570.78	44797.85
570.95	45272.98
571.11	45593.64
571.27	45006.16
571.43	45237.87
571.60	45560.87
571.76	45631.08
571.92	45542.14
572.09	45701.30
572.25	45698.96
572.41	46087.49
572.57	46017.27
572.74	46106.21
572.90	45907.27
573.06	45797.26
573.22	45507.04
573.38	46021.95
573.55	45226.17
573.71	45799.60
573.87	45923.65
574.03	45909.61
574.20	45668.53
574.36	45661.51
574.52	45890.88
574.68	45780.88
574.84	45710.66
575.01	45736.41
575.17	45579.59
575.33	45467.25
575.49	45364.26
575.65	45675.55
575.82	45984.51
575.98	45235.53
576.14	45923.65
576.30	46218.56
576.46	45532.78
576.62	45614.70
576.79	45319.79
576.95	45893.22
577.11	45865.14
577.27	45617.04
577.43	46000.89
577.59	45272.98
577.75	45876.84
577.92	45361.92
578.08	45137.23
578.24	45603.00
578.40	45565.55
578.56	45539.80
578.72	45886.20
578.88	46085.15
579.04	45696.62
579.21	45455.54
579.37	45717.68
579.53	45867.48
579.69	45418.10
579.85	45572.57
580.01	45591.30
580.17	45301.07
580.33	46082.81
580.49	45984.51
580.65	45645.13
580.82	45668.53
580.98	45736.41
581.14	45532.78
581.30	45668.53
581.46	45373.63
581.62	45736.41
581.78	45837.05
581.94	46014.93
582.10	46007.91
582.26	46330.90
582.42	45991.53
582.58	45986.85
582.74	45577.25
582.90	45797.26
583.06	46031.32
583.22	46155.36
583.38	46064.08
583.54	45977.48
583.70	45904.93
583.86	45886.20
584.02	45331.50
584.18	45771.52
584.34	45818.33
584.50	45930.67
584.66	45984.51
584.82	45881.52
584.98	45942.38
585.14	45893.22
585.30	45820.67
585.46	45663.85
585.62	45530.44
585.78	45516.40
585.94	45230.85
586.10	45474.27
586.26	45212.13
586.42	45752.79
586.58	46115.58
586.74	45797.26
586.90	45865.14
587.06	46021.95
587.22	45862.80
587.38	45811.31
587.54	45586.61
587.70	46052.38
587.86	45434.48
588.02	45745.77
588.18	45804.28
588.34	45673.21
588.49	45422.78
588.65	45256.60
588.81	45141.91
588.97	45595.98
589.13	45694.28
589.29	45434.48
589.45	45535.12
589.61	45860.46
589.77	45773.86
589.93	46181.11
