SpectraSuite Data File
++++++++++++++++++++++++++++++++++++
Date: Fri Oct 25 10:47:05 EDT 2013
User: price-jones
Dark Spectrum Present: No
Reference Spectrum Present: No
Number of Sampled Component Spectra: 1
Spectrometers: USB2+H05261
Integration Time (usec): 100000 (USB2+H05261)
Spectra Averaged: 1 (USB2+H05261)
Boxcar Smoothing: 0 (USB2+H05261)
Correct for Electrical Dark: No (USB2+H05261)
Strobe/Lamp Enabled: No (USB2+H05261)
Correct for Detector Non-linearity: No (USB2+H05261)
Correct for Stray Light: No (USB2+H05261)
Number of Pixels in Processed Spectrum: 2048
>>>>>Begin Processed Spectral Data<<<<<
365.73	121.71
365.92	121.71
366.12	121.71
366.32	86.60
366.52	121.71
366.72	98.30
366.91	42.13
367.11	98.30
367.31	46.81
367.51	0.00
367.70	28.09
367.90	105.32
368.10	63.19
368.30	49.15
368.49	0.00
368.69	77.24
368.89	53.83
369.09	102.98
369.28	105.32
369.48	121.71
369.68	114.69
369.87	46.81
370.07	124.05
370.27	100.64
370.47	198.95
370.66	404.91
370.86	416.62
371.06	416.62
371.25	470.45
371.45	465.77
371.65	449.38
371.84	440.02
372.04	430.66
372.24	484.49
372.44	470.45
372.63	423.64
372.83	463.43
373.03	465.77
373.22	498.53
373.42	528.96
373.62	634.29
373.81	566.41
374.01	505.56
374.21	514.92
374.40	580.45
374.60	559.39
374.79	477.47
374.99	533.64
375.19	538.32
375.38	650.67
375.58	596.84
375.78	606.20
375.97	489.17
376.17	571.09
376.37	559.39
376.56	615.56
376.76	465.77
376.95	596.84
377.15	653.01
377.35	578.11
377.54	582.79
377.74	610.88
377.93	624.92
378.13	594.50
378.33	641.31
378.52	634.29
378.72	657.69
378.91	706.84
379.11	636.63
379.31	641.31
379.50	594.50
379.70	692.80
379.89	699.82
380.09	697.48
380.28	606.20
380.48	599.18
380.68	695.14
380.87	638.97
381.07	601.52
381.26	704.50
381.46	631.94
381.65	737.27
381.85	634.29
382.04	608.54
382.24	709.18
382.43	655.35
382.63	744.29
382.83	716.20
383.02	669.39
383.22	744.29
383.41	648.33
383.61	720.88
383.80	814.51
384.00	648.33
384.19	758.33
384.39	704.50
384.58	816.85
384.78	730.25
384.97	704.50
385.17	748.97
385.36	674.07
385.56	784.08
385.75	662.37
385.95	777.06
386.14	739.61
386.34	849.61
386.53	763.01
386.72	772.38
386.92	800.46
387.11	901.11
387.31	842.59
387.50	866.00
387.70	732.59
387.89	847.27
388.09	854.30
388.28	896.43
388.48	819.19
388.67	877.70
388.86	861.32
389.06	884.72
389.25	915.15
389.45	840.25
389.64	819.19
389.84	926.85
390.03	889.40
390.22	816.85
390.42	938.55
390.61	880.04
390.81	933.87
391.00	945.58
391.19	973.66
391.39	896.43
391.58	1057.92
391.78	1011.11
391.97	1001.75
392.16	1001.75
392.36	1001.75
392.55	990.05
392.75	983.02
392.94	992.39
393.13	957.28
393.33	968.98
393.52	999.41
393.71	1034.52
393.91	1111.75
394.10	1043.88
394.29	1027.50
394.49	1043.88
394.68	1060.26
394.88	1184.31
395.07	1083.67
395.26	1184.31
395.46	1179.63
395.65	1116.44
395.84	1146.86
396.04	1240.48
396.23	1186.65
396.42	1086.01
396.62	1210.06
396.81	1188.99
397.00	1149.20
397.19	1181.97
397.39	1224.10
397.58	1343.47
397.77	1247.51
397.97	1345.81
398.16	1205.38
398.35	1357.51
398.55	1320.06
398.74	1231.12
398.93	1369.21
399.12	1341.13
399.32	1366.87
399.51	1336.45
399.70	1392.62
399.90	1369.21
400.09	1453.47
400.28	1425.39
400.47	1345.81
400.67	1483.90
400.86	1448.79
401.05	1528.37
401.24	1406.66
401.44	1509.65
401.63	1460.49
401.82	1624.33
402.01	1483.90
402.21	1458.15
402.40	1572.84
402.59	1521.35
402.78	1568.16
402.97	1593.90
403.17	1610.29
403.36	1671.14
403.55	1650.08
403.74	1631.35
403.93	1612.63
404.13	1722.63
404.32	1607.95
404.51	1668.80
404.70	1708.59
404.89	1757.74
405.09	1722.63
405.28	1788.17
405.47	1769.44
405.66	1715.61
405.85	1661.78
406.05	1722.63
406.24	1797.53
406.43	1837.32
406.62	1739.02
406.81	1891.15
407.00	1776.47
407.20	1788.17
407.39	1877.11
407.58	1942.64
407.77	1952.01
407.96	1989.46
408.15	1921.58
408.34	1898.17
408.54	2033.93
408.73	2022.22
408.92	2069.03
409.11	2118.18
409.30	1996.48
409.49	1987.11
409.68	1977.75
409.87	2008.18
410.07	2120.53
410.26	2047.97
410.45	2195.42
410.64	2174.36
410.83	2169.68
411.02	2265.64
411.21	2251.60
411.40	2373.30
411.59	2331.17
411.78	2331.17
411.98	2296.07
412.17	2249.25
412.36	2352.24
412.55	2441.18
412.74	2424.80
412.93	2462.24
413.12	2476.29
413.31	2569.91
413.50	2476.29
413.69	2427.14
413.88	2647.15
414.07	2476.29
414.26	2558.21
414.45	2698.64
414.64	2511.39
414.83	2719.70
415.02	2614.38
415.22	2703.32
415.41	2658.85
415.60	2766.51
415.79	2986.52
415.98	2944.39
416.17	2853.11
416.36	2881.20
416.55	2935.03
416.74	2981.84
416.93	2988.86
417.12	2888.22
417.31	2899.92
417.50	2946.73
417.69	3052.06
417.88	3096.53
418.07	3227.60
418.26	3035.67
418.45	3136.32
418.64	3325.90
418.83	3045.04
419.02	3187.81
419.21	3220.58
419.39	3232.28
419.58	3096.53
419.77	3115.25
419.96	3274.41
420.15	3414.84
420.34	3314.20
420.53	3361.01
420.72	3403.14
420.91	3471.01
421.10	3445.27
421.29	3449.95
421.48	3508.46
421.67	3611.45
421.86	3243.98
422.05	3407.82
422.24	3454.63
422.43	3447.61
422.61	3417.18
422.80	3456.97
422.99	3555.27
423.18	3499.10
423.37	3527.19
423.56	3606.77
423.75	3515.48
423.94	3515.48
424.13	3236.96
424.32	3501.44
424.50	3658.26
424.69	3705.07
424.88	3641.87
425.07	3566.98
425.26	3508.46
425.45	3613.79
425.64	3545.91
425.83	3574.00
426.01	3691.02
426.20	3588.04
426.39	3637.19
426.58	3541.23
426.77	3662.94
426.96	3653.58
427.15	3597.40
427.33	3674.64
427.52	3676.98
427.71	3641.87
427.90	3737.84
428.09	3695.71
428.28	3854.86
428.46	3733.15
428.65	3714.43
428.84	3885.29
429.03	3971.89
429.22	3789.33
429.40	3775.28
429.59	3866.56
429.78	3716.77
429.97	3707.41
430.16	3796.35
430.34	3796.35
430.53	3868.91
430.72	3831.46
430.91	3992.95
431.10	3889.97
431.28	4028.06
431.47	4016.36
431.66	4100.62
431.85	4086.58
432.03	4198.92
432.22	4248.07
432.41	4243.39
432.60	4243.39
432.79	4182.54
432.97	4138.07
433.16	4245.73
433.35	4191.90
433.54	4337.01
433.72	4166.15
433.91	4329.99
434.10	4334.67
434.28	4484.47
434.47	4395.53
434.66	4435.32
434.85	4482.13
435.03	4430.63
435.22	4440.00
435.41	4664.69
435.59	4402.55
435.78	4547.66
435.97	4568.73
436.16	4557.02
436.34	4568.73
436.53	4730.22
436.72	4744.27
436.90	4594.47
437.09	4732.56
437.28	4517.23
437.46	4564.04
437.65	4678.73
437.84	4889.38
438.02	4650.64
438.21	4732.56
438.40	4702.14
438.58	4798.10
438.77	4732.56
438.96	4793.42
439.14	5050.88
439.33	5057.90
439.52	5022.79
439.70	5139.82
439.89	5282.59
440.08	5221.74
440.26	5163.22
440.45	5280.25
440.63	5343.44
440.82	5420.68
441.01	5275.57
441.19	5376.21
441.38	5451.11
441.57	5551.75
441.75	5537.71
441.94	5472.17
442.12	5542.39
442.31	5509.62
442.50	5600.90
442.68	5643.03
442.87	5722.61
443.05	5839.64
443.24	5795.17
443.43	5827.93
443.61	5762.40
443.80	6010.50
443.98	5802.19
444.17	5600.90
444.35	5863.04
444.54	6010.50
444.73	5781.12
444.91	5933.26
445.10	5975.39
445.28	5804.53
445.47	5645.37
445.65	5909.85
445.84	6066.67
446.02	5947.30
446.21	5823.25
446.39	5870.06
446.58	5937.94
446.77	6019.86
446.95	5893.47
447.14	6019.86
447.32	6024.54
447.51	6036.24
447.69	5921.56
447.88	5989.43
448.06	6085.39
448.25	6125.18
448.43	6015.18
448.62	5989.43
448.80	5994.11
448.99	6197.74
449.17	6228.17
449.36	6113.48
449.54	6347.53
449.73	6384.98
449.91	6483.28
450.10	6345.19
450.28	6452.86
450.46	6408.39
450.65	6438.81
450.83	6450.52
451.02	6389.66
451.20	6424.77
451.39	6494.99
451.57	6483.28
451.76	6462.22
451.94	6661.16
452.13	6661.16
452.31	6523.07
452.49	6363.92
452.68	6490.31
452.86	6450.52
453.05	6707.98
453.23	6693.93
453.42	6476.26
453.60	6537.12
453.78	6569.88
453.97	6722.02
454.15	6684.57
454.34	6537.12
454.52	6719.68
454.70	6651.80
454.89	6689.25
455.07	6860.11
455.26	7026.29
455.44	7042.67
455.62	6920.96
455.81	6930.33
455.99	7098.84
456.17	7012.24
456.36	7007.56
456.54	7211.19
456.73	7140.97
456.91	7370.35
457.09	7286.09
457.28	7452.27
457.46	7290.77
457.64	7330.56
457.83	7272.04
458.01	7243.96
458.19	7452.27
458.38	7492.05
458.56	7393.75
458.74	7445.24
458.93	7248.64
459.11	7393.75
459.29	7541.21
459.48	7534.18
459.66	7407.80
459.84	7548.23
460.03	7627.81
460.21	7492.05
460.39	7623.12
460.57	7632.49
460.76	7623.12
460.94	7639.51
461.12	7728.45
461.31	7707.38
461.49	7679.30
461.67	7548.23
461.85	7950.80
462.04	7927.39
462.22	8549.98
462.40	8065.49
462.59	7882.92
462.77	7985.91
462.95	8046.76
463.13	7999.95
463.32	8070.17
463.50	8112.30
463.68	8105.28
463.86	8035.06
464.05	8021.02
464.23	8105.28
464.41	8234.00
464.59	8152.09
464.78	8393.16
464.96	8477.42
465.14	8147.40
465.32	8451.67
465.50	8416.57
465.69	8381.46
465.87	8411.89
466.05	8304.22
466.23	8446.99
466.41	8351.03
466.60	8596.79
466.78	8308.90
466.96	8446.99
467.14	8468.06
467.32	8650.62
467.51	8613.17
467.69	8278.47
467.87	8524.23
468.05	8622.53
468.23	8444.65
468.41	8716.16
468.60	8561.68
468.78	8741.90
468.96	8615.51
469.14	8620.19
469.32	8781.69
469.50	8610.83
469.69	8863.61
469.87	8943.19
470.05	9025.11
470.23	9060.21
470.41	8929.14
470.59	9177.24
470.77	8819.14
470.95	9057.87
471.14	9233.41
471.32	9200.65
471.50	9270.86
471.68	9329.38
471.86	9338.74
472.04	9479.17
472.22	9430.02
472.40	9467.47
472.58	9366.82
472.77	9523.64
472.95	9509.60
473.13	9961.32
473.31	9530.66
473.49	9366.82
473.67	9806.84
473.85	9680.46
474.03	10019.83
474.21	10022.17
474.39	9877.06
474.57	9982.38
474.75	10193.03
474.93	10129.84
475.12	10235.16
475.30	10171.97
475.48	10164.95
475.66	10342.83
475.84	10230.48
476.02	10267.93
476.20	10321.76
476.38	10637.73
476.56	10822.64
476.74	10633.05
476.92	10635.39
477.10	10668.16
477.28	11007.54
477.46	10958.39
477.64	11169.04
477.82	11211.17
478.00	11618.42
478.18	11281.38
478.36	11164.36
478.54	11557.57
478.72	11517.78
478.90	11646.51
479.08	11630.12
479.26	11775.24
479.44	11840.77
479.62	11960.14
479.80	11983.54
479.98	12318.24
480.16	12414.20
480.34	12531.23
480.52	12409.52
480.70	12372.07
480.88	12308.88
481.06	12578.04
481.24	12528.89
481.41	13006.36
481.59	12992.31
481.77	13172.54
481.95	13322.33
482.13	13284.88
482.31	13240.41
482.49	13558.72
482.67	13675.75
482.85	13785.76
483.03	13722.56
483.21	13738.94
483.39	14293.65
483.57	14057.26
483.74	14068.96
483.92	14408.34
484.10	14216.41
484.28	14534.73
484.46	14827.29
484.64	15110.50
484.82	14719.63
485.00	15068.37
485.18	14911.55
485.35	15545.84
485.53	14773.46
485.71	15012.20
485.89	15541.16
486.07	15157.31
486.25	15564.56
486.43	15325.83
486.61	15892.24
486.78	15824.36
486.96	15875.85
487.14	16233.96
487.32	16191.83
487.50	16568.65
487.68	16622.48
487.85	16774.62
488.03	16840.15
488.21	16945.48
488.39	16950.16
488.57	17413.59
488.75	17486.14
488.92	17235.70
489.10	17844.24
489.28	17987.02
489.46	17846.58
489.64	17820.84
489.81	18242.14
489.99	18422.36
490.17	18417.68
490.35	18661.09
490.53	18656.41
490.70	19019.19
490.88	18628.32
491.06	18977.06
491.24	18991.11
491.41	19381.98
491.59	19470.92
491.77	19108.13
491.95	19538.79
492.13	19634.75
492.30	20009.24
492.48	19672.20
492.66	19924.98
492.84	20102.86
493.01	20683.31
493.19	20013.92
493.37	20510.11
493.54	20748.85
493.72	20879.92
493.90	20795.66
494.08	20863.54
494.25	21228.66
494.43	21310.58
494.61	21432.29
494.79	21596.12
494.96	21598.46
495.14	21465.05
495.32	21680.38
495.49	21858.26
495.67	21994.01
495.85	22307.65
496.02	22036.14
496.20	22398.93
496.38	22607.23
496.55	22417.65
496.73	23164.28
496.91	22719.58
497.09	22958.31
497.26	23005.13
497.44	23131.51
497.62	23356.21
497.79	23073.00
497.97	23735.37
498.14	23646.43
498.32	23597.28
498.50	23683.88
498.67	23821.97
498.85	23936.66
499.03	24386.04
499.20	24187.10
499.38	24142.63
499.56	24395.40
499.73	24208.16
499.91	24650.52
500.08	24800.32
500.26	24407.11
500.44	24844.79
500.61	24570.94
500.79	24786.27
500.97	24882.24
501.14	25432.26
501.32	24830.74
501.49	25291.83
501.67	24896.28
501.84	25846.54
502.02	25348.00
502.20	25993.99
502.37	25568.01
502.55	25603.12
502.72	25640.57
502.90	25949.52
503.07	26033.78
503.25	26405.92
503.43	26352.09
503.60	26326.35
503.78	26298.26
503.95	25881.64
504.13	26239.75
504.30	26831.90
504.48	26675.09
504.65	26501.89
504.83	26785.09
505.01	27065.96
505.18	26745.30
505.36	27510.66
505.53	27103.40
505.71	27285.97
505.88	27550.45
506.06	27227.45
506.23	27513.00
506.41	27370.22
506.58	27733.01
506.76	27763.43
506.93	27641.73
507.11	27688.54
507.28	27969.40
507.46	28107.49
507.63	28238.56
507.81	28100.47
507.98	28175.37
508.16	28254.95
508.33	28613.05
508.50	28350.91
508.68	28360.27
508.85	28943.06
509.03	28591.98
509.20	28627.09
509.38	28985.19
509.55	29095.20
509.73	29071.79
509.90	29109.24
510.08	29095.20
510.25	29139.67
510.42	29619.48
510.60	29771.61
510.77	29050.73
510.95	29759.91
511.12	29811.40
511.30	29813.74
511.47	30005.67
511.64	30082.91
511.82	29895.66
511.99	30347.39
512.17	30096.95
512.34	30146.10
512.51	30574.42
512.69	30644.63
512.86	30436.33
513.04	30665.70
513.21	30967.63
513.38	30565.06
513.56	30574.42
513.73	30609.53
513.90	30885.71
514.08	30859.96
514.25	30979.33
514.43	30916.14
514.60	31056.57
514.77	30913.80
514.95	31337.43
515.12	31393.61
515.29	31461.48
515.47	31545.74
515.64	32151.94
515.81	31606.59
515.99	31662.77
516.16	31976.40
516.33	31744.69
516.51	31842.99
516.68	31501.27
516.85	31356.16
517.03	31828.95
517.20	32072.36
517.37	32095.77
517.54	32327.48
517.72	32165.98
517.89	32596.64
518.06	32086.40
518.24	32072.36
518.41	32510.04
518.58	32568.55
518.75	32620.05
518.93	32734.73
519.10	32615.37
519.27	32844.74
519.45	32793.25
519.62	32828.35
519.79	33366.68
519.96	33226.24
520.14	34005.64
520.31	33263.69
520.48	33167.73
520.65	33546.90
520.83	33530.51
521.00	33928.41
521.17	33785.63
521.34	33483.70
521.52	33956.49
521.69	34047.77
521.86	34209.27
522.03	33869.89
522.20	34239.70
522.38	34361.40
522.55	34361.40
522.72	33951.81
522.89	34232.68
523.07	34630.57
523.24	34284.17
523.41	34796.74
523.58	34686.74
523.75	34700.78
523.92	34558.01
524.10	35009.73
524.27	35321.02
524.44	35360.81
524.61	35124.42
524.78	35166.55
524.96	35491.88
525.13	34728.87
525.30	35435.71
525.47	35531.67
525.64	35278.89
525.81	35456.78
525.98	35711.89
526.16	35477.84
526.33	35756.36
526.50	36009.14
526.67	35398.26
526.84	35749.34
527.01	35321.02
527.18	35775.09
527.36	35777.43
527.53	36058.29
527.70	36142.55
527.87	36280.64
528.04	36432.78
528.21	36510.02
528.38	36116.81
528.55	36591.94
528.72	36858.76
528.89	37017.91
529.07	36495.97
529.24	36013.82
529.41	36800.24
529.58	36503.00
529.75	36898.55
529.92	36535.76
530.09	37010.89
530.26	36978.12
530.43	36718.32
530.60	36404.69
530.77	36858.76
530.94	37291.76
531.11	36865.78
531.28	37130.26
531.46	37024.93
531.63	37493.04
531.80	37378.36
531.97	37219.20
532.14	37757.52
532.31	37057.70
532.48	37776.25
532.65	37727.10
532.82	37916.68
532.99	37626.45
533.16	37853.48
533.33	37413.46
533.50	37460.27
533.67	37741.14
533.84	37696.67
534.01	38164.78
534.18	37628.79
534.35	38359.04
534.52	38216.27
534.69	37844.12
534.86	38373.08
535.03	37811.35
535.20	38230.31
535.37	38738.21
535.54	38829.49
535.71	38298.19
535.88	38237.33
536.05	38199.88
536.22	38754.59
536.38	38497.13
536.55	38808.42
536.72	38672.67
536.89	38532.24
537.06	38986.30
537.23	38829.49
537.40	38656.29
537.57	38576.71
537.74	38698.42
537.91	39416.96
538.08	39283.55
538.25	38693.74
538.42	38651.61
538.59	39072.90
538.75	39721.23
538.92	39421.64
539.09	39541.01
539.26	39189.93
539.43	38658.63
539.60	39145.46
539.77	39330.36
539.94	39618.25
540.11	39222.70
540.28	39672.08
540.44	39042.48
540.61	39433.35
540.78	39622.93
540.95	39461.43
541.12	39363.13
541.29	39536.33
541.46	39332.70
541.62	40240.83
541.79	40233.81
541.96	39562.08
542.13	40051.25
542.30	39957.63
542.47	40409.35
542.63	39817.19
542.80	40027.84
542.97	40435.10
543.14	41006.19
543.31	40271.26
543.48	40643.40
543.64	41069.38
543.81	40524.04
543.98	40807.24
544.15	40992.14
544.32	40875.12
544.48	41088.10
544.65	40643.40
544.82	40545.10
544.99	40566.16
545.16	41111.51
545.32	40678.51
545.49	41123.21
545.66	41399.40
545.83	41179.39
546.00	41188.75
546.16	41165.34
546.33	41134.92
546.50	40414.03
546.67	41212.15
546.83	40685.53
547.00	41619.41
547.17	41083.42
547.34	41003.85
547.50	41558.55
547.67	41600.68
547.84	41670.90
548.00	41617.07
548.17	42143.69
548.34	41354.93
548.51	42064.11
548.67	41881.55
548.84	42007.94
549.01	41893.25
549.18	41380.67
549.34	42061.77
549.51	41926.02
549.68	42073.47
549.84	41703.67
550.01	42241.99
550.18	41823.03
550.34	41668.56
550.51	41951.76
550.68	41488.34
550.84	41371.31
551.01	42017.30
551.18	41888.57
551.34	42129.64
551.51	42319.23
551.68	42218.58
551.84	42440.93
552.01	42106.24
552.18	42443.27
552.34	42366.04
552.51	42487.74
552.68	43107.99
552.84	42396.46
553.01	42529.87
553.18	42473.70
553.34	42401.14
553.51	42335.61
553.67	42686.69
553.84	42848.19
554.01	42520.51
554.17	42773.29
554.34	42883.30
554.51	42836.48
554.67	42749.88
554.84	43133.73
555.00	42440.93
555.17	42745.20
555.33	43126.71
555.50	43040.11
555.67	42686.69
555.83	42787.33
556.00	43037.77
556.16	43374.81
556.33	43119.69
556.50	43351.40
556.66	43421.62
556.83	42876.27
556.99	43140.75
557.16	43683.76
557.32	43337.36
557.49	43349.06
557.65	43531.62
557.82	43028.41
557.98	42911.38
558.15	43126.71
558.32	43508.22
558.48	42873.93
558.65	43161.82
558.81	43309.27
558.98	43840.57
559.14	43377.15
559.31	43203.95
559.47	43756.32
559.64	43519.92
559.80	43606.52
559.97	43702.48
560.13	43718.87
560.30	43571.41
560.46	43873.34
560.63	43227.35
560.79	44009.09
560.96	43901.43
561.12	43735.25
561.29	43807.81
561.45	43590.14
561.61	43779.72
561.78	43496.52
561.94	43627.59
562.11	43615.88
562.27	43653.33
562.44	43716.53
562.60	44081.65
562.77	43817.17
562.93	44105.06
563.10	43906.11
563.26	43501.20
563.42	43931.86
563.59	43959.94
563.75	43868.66
563.92	43973.98
564.08	43791.42
564.24	44009.09
564.41	43999.73
564.57	43849.94
564.74	44170.59
564.90	44254.85
565.07	44254.85
565.23	43938.88
565.39	43812.49
565.56	44264.21
565.72	44034.84
565.88	43702.48
566.05	44229.10
566.21	43910.79
566.38	43927.17
566.54	43854.62
566.70	44388.26
566.87	44502.95
567.03	44437.41
567.19	44495.92
567.36	44058.24
567.52	44076.97
567.68	44304.00
567.85	43966.96
568.01	43861.64
568.17	44336.77
568.34	44547.42
568.50	44575.50
568.66	44308.68
568.83	44306.34
568.99	44601.25
569.15	44376.56
569.32	43966.96
569.48	44137.82
569.64	44793.17
569.81	44629.34
569.97	44692.53
570.13	44397.62
570.30	44039.52
570.46	43796.10
570.62	43725.89
570.78	44142.50
570.95	43690.78
571.11	44619.97
571.27	44261.87
571.43	44528.69
571.60	44619.97
571.76	44299.32
571.92	44619.97
572.09	44233.78
572.25	44402.30
572.41	44039.52
572.57	44381.24
572.74	45090.42
572.90	44430.39
573.06	44528.69
573.22	44261.87
573.38	44704.23
573.55	44208.04
573.71	44105.06
573.87	44877.43
574.03	44081.65
574.20	44809.56
574.36	44528.69
574.52	45074.04
574.68	44601.25
574.84	44505.29
575.01	44699.55
575.17	44451.45
575.33	44453.79
575.49	44308.68
575.65	44924.24
575.82	44343.79
575.98	44596.57
576.14	44718.28
576.30	44725.30
576.46	44463.16
576.62	44514.65
576.79	44783.81
576.95	44158.89
577.11	44439.75
577.27	44851.69
577.43	44744.02
577.59	44891.48
577.75	44844.66
577.92	44605.93
578.08	44498.26
578.24	44673.81
578.40	44580.18
578.56	45017.86
578.72	44835.30
578.88	44243.15
579.04	44753.38
579.21	44479.54
579.37	44643.38
579.53	44615.29
579.69	44404.64
579.85	44521.67
580.01	44762.75
580.17	44821.26
580.33	44509.97
580.49	45008.50
580.65	44484.22
580.82	44863.39
580.98	44797.85
581.14	44685.51
581.30	44898.50
581.46	44629.34
581.62	44837.64
581.78	44971.05
581.94	44938.29
582.10	45574.91
582.26	45155.96
582.42	44650.40
582.58	44779.13
582.74	44493.58
582.90	44964.03
583.06	44790.83
583.22	44711.25
583.38	45312.77
583.54	44741.68
583.70	44465.50
583.86	44634.02
584.02	44201.02
584.18	45287.03
584.34	44879.77
584.50	44556.78
584.66	44570.82
584.82	44444.43
584.98	44933.60
585.14	45071.70
585.30	44938.29
585.46	44643.38
585.62	44285.28
585.78	44898.50
585.94	44439.75
586.10	44631.68
586.26	44631.68
586.42	44566.14
586.58	44755.72
586.74	44554.44
586.90	44463.16
587.06	44676.15
587.22	45069.36
587.38	44811.90
587.54	45134.89
587.70	45160.64
587.86	44783.81
588.02	44910.20
588.18	44884.45
588.34	44666.78
588.49	44741.68
588.65	44374.22
588.81	44430.39
588.97	44964.03
589.13	44357.83
589.29	44594.23
589.45	44940.63
589.61	44554.44
589.77	44830.62
589.93	44687.85
590.08	45490.65
590.24	45586.61
