SpectraSuite Data File
++++++++++++++++++++++++++++++++++++
Date: Fri Oct 25 11:23:47 EDT 2013
User: price-jones
Dark Spectrum Present: No
Reference Spectrum Present: No
Number of Sampled Component Spectra: 1
Spectrometers: USB2+H05261
Integration Time (usec): 100000 (USB2+H05261)
Spectra Averaged: 1 (USB2+H05261)
Boxcar Smoothing: 0 (USB2+H05261)
Correct for Electrical Dark: No (USB2+H05261)
Strobe/Lamp Enabled: No (USB2+H05261)
Correct for Detector Non-linearity: No (USB2+H05261)
Correct for Stray Light: No (USB2+H05261)
Number of Pixels in Processed Spectrum: 2048
>>>>>Begin Processed Spectral Data<<<<<
365.73	255.12
365.92	255.12
366.12	255.12
366.32	177.88
366.52	110.01
366.72	170.86
366.91	98.30
367.11	166.18
367.31	91.28
367.51	88.94
367.70	107.66
367.90	161.50
368.10	77.24
368.30	100.64
368.49	119.37
368.69	156.82
368.89	168.52
369.09	107.66
369.28	229.37
369.48	220.01
369.68	177.88
369.87	152.13
370.07	126.39
370.27	250.44
370.47	346.40
370.66	514.92
370.86	594.50
371.06	554.71
371.25	739.61
371.45	685.78
371.65	704.50
371.84	664.71
372.04	622.58
372.24	690.46
372.44	744.29
372.63	765.36
372.83	627.26
373.03	723.23
373.22	730.25
373.42	760.67
373.62	802.80
373.81	812.17
374.01	814.51
374.21	760.67
374.40	781.74
374.60	784.08
374.79	894.08
374.99	856.64
375.19	819.19
375.38	844.93
375.58	891.74
375.78	842.59
375.97	814.51
376.17	814.51
376.37	823.87
376.56	873.02
376.76	805.14
376.95	877.70
377.15	912.81
377.35	791.10
377.54	863.66
377.74	898.77
377.93	947.92
378.13	929.19
378.33	961.96
378.52	931.53
378.72	933.87
378.91	915.15
379.11	978.34
379.31	983.02
379.50	954.94
379.70	1001.75
379.89	943.24
380.09	1032.18
380.28	908.13
380.48	1053.24
380.68	1006.43
380.87	938.55
381.07	1069.62
381.26	1125.80
381.46	940.90
381.65	1050.90
381.85	1034.52
382.04	1013.45
382.24	1036.86
382.43	1015.79
382.63	1022.81
382.83	1027.50
383.02	1174.95
383.22	1184.31
383.41	1114.10
383.61	1029.84
383.80	1130.48
384.00	1135.16
384.19	1179.63
384.39	1217.08
384.58	1207.72
384.78	1160.91
384.97	1210.06
385.17	1172.61
385.36	1118.78
385.56	1142.18
385.75	1160.91
385.95	1203.04
386.14	1242.82
386.34	1144.52
386.53	1205.38
386.72	1174.95
386.92	1219.42
387.11	1296.66
387.31	1268.57
387.50	1235.80
387.70	1254.53
387.89	1261.55
388.09	1289.64
388.28	1210.06
388.48	1261.55
388.67	1320.06
388.86	1282.61
389.06	1249.85
389.25	1301.34
389.45	1371.55
389.64	1336.45
389.84	1420.71
390.03	1394.96
390.22	1465.18
390.42	1320.06
390.61	1453.47
390.81	1371.55
391.00	1359.85
391.19	1376.24
391.39	1474.54
391.58	1458.15
391.78	1406.66
391.97	1530.71
392.16	1401.98
392.36	1467.52
392.55	1507.30
392.75	1577.52
392.94	1577.52
393.13	1572.84
393.33	1593.90
393.52	1579.86
393.71	1561.14
393.91	1617.31
394.10	1540.07
394.29	1598.59
394.49	1551.78
394.68	1593.90
394.88	1607.95
395.07	1530.71
395.26	1689.87
395.46	1650.08
395.65	1668.80
395.84	1687.53
396.04	1788.17
396.23	1795.19
396.42	1680.50
396.62	1734.34
396.81	1767.10
397.00	1685.19
397.19	1825.62
397.39	1825.62
397.58	1783.49
397.77	1785.83
397.97	1909.88
398.16	1912.22
398.35	1912.22
398.55	1893.49
398.74	1923.92
398.93	1973.07
399.12	1877.11
399.32	1987.11
399.51	1900.52
399.70	1935.62
399.90	1888.81
400.09	1961.37
400.28	2045.63
400.47	1928.60
400.67	2132.23
400.86	2057.33
401.05	2092.44
401.24	2050.31
401.44	2085.42
401.63	2153.29
401.82	2129.89
402.01	2174.36
402.21	2204.78
402.40	2167.34
402.59	2141.59
402.78	2162.66
402.97	2258.62
403.17	2293.72
403.36	2242.23
403.55	2303.09
403.74	2298.41
403.93	2298.41
404.13	2324.15
404.32	2415.43
404.51	2429.48
404.70	2511.39
404.89	2483.31
405.09	2485.65
405.28	2373.30
405.47	2356.92
405.66	2434.16
405.85	2516.08
406.05	2602.68
406.24	2612.04
406.43	2588.63
406.62	2593.31
406.81	2708.00
407.00	2579.27
407.20	2495.01
407.39	2672.89
407.58	2595.65
407.77	2682.25
407.96	2801.62
408.15	2803.96
408.34	2712.68
408.54	2722.04
408.73	2850.77
408.92	2789.92
409.11	2745.45
409.30	2855.45
409.49	2869.50
409.68	2939.71
409.87	2920.99
410.07	3014.61
410.26	3045.04
410.45	3042.70
410.64	3096.53
410.83	3112.91
411.02	3068.44
411.21	3098.87
411.40	3150.36
411.59	3342.28
411.78	3164.40
411.98	3206.53
412.17	3307.18
412.36	3234.62
412.55	3220.58
412.74	3342.28
412.93	3384.41
413.12	3375.05
413.31	3651.24
413.50	3471.01
413.69	3552.93
413.88	3510.80
414.07	3559.95
414.26	3812.73
414.45	3658.26
414.64	3669.96
414.83	3756.56
415.02	3707.41
415.22	3789.33
415.41	3904.01
415.60	3859.54
415.79	3887.63
415.98	3922.74
416.17	3990.61
416.36	3960.19
416.55	4044.45
416.74	4044.45
416.93	4042.11
417.12	4194.24
417.31	4124.02
417.50	4283.18
417.69	4318.29
417.88	4245.73
418.07	4205.94
418.26	4437.66
418.45	4266.80
418.64	4554.68
418.83	4489.15
419.02	4435.32
419.21	4568.73
419.39	4461.06
419.58	4535.96
419.77	4440.00
419.96	4652.98
420.15	4667.03
420.34	4685.75
420.53	4493.83
420.72	4711.50
420.91	4781.71
421.10	4788.74
421.29	4959.60
421.48	4741.93
421.67	4739.58
421.86	4791.08
422.05	4901.08
422.24	4765.33
422.43	4760.65
422.61	4985.34
422.80	4966.62
422.99	4994.70
423.18	4990.02
423.37	5085.98
423.56	4884.70
423.75	4945.55
423.94	4959.60
424.13	4585.11
424.32	4739.58
424.50	4992.36
424.69	5191.31
424.88	5078.96
425.07	5160.88
425.26	4919.81
425.45	4947.89
425.64	5041.51
425.83	4887.04
426.01	5090.67
426.20	5235.78
426.39	5128.11
426.58	4999.38
426.77	4994.70
426.96	5177.26
427.15	5170.24
427.33	5210.03
427.52	5137.48
427.71	5212.37
427.90	5277.91
428.09	5266.21
428.28	5404.30
428.46	5437.06
428.65	5263.86
428.84	5652.39
429.03	5511.96
429.22	5355.15
429.40	5647.71
429.59	5612.60
429.78	5184.29
429.97	5310.68
430.16	5554.09
430.34	5624.31
430.53	5746.02
430.72	5689.84
430.91	5689.84
431.10	5584.52
431.28	5760.06
431.47	5944.96
431.66	6085.39
431.85	5659.42
432.03	6017.52
432.22	6157.95
432.41	6045.60
432.60	5898.15
432.79	5982.41
432.97	6008.16
433.16	6019.86
433.35	6031.56
433.54	6111.14
433.72	6167.31
433.91	6136.88
434.10	6136.88
434.28	6272.64
434.47	6328.81
434.66	6209.44
434.85	6401.37
435.03	6382.64
435.22	6359.24
435.41	6555.84
435.59	6506.69
435.78	6438.81
435.97	6656.48
436.16	6392.00
436.34	6403.71
436.53	6473.92
436.72	6630.74
436.90	6602.65
437.09	6626.06
437.28	6471.58
437.46	6492.65
437.65	6616.69
437.84	6764.15
438.02	6881.18
438.21	6942.03
438.40	6750.10
438.58	7173.74
438.77	7227.57
438.96	7037.99
439.14	7187.79
439.33	7157.36
439.52	7250.98
439.70	7199.49
439.89	7391.41
440.08	7379.71
440.26	7339.92
440.45	7435.88
440.63	7529.50
440.82	7798.66
441.01	7632.49
441.19	7676.96
441.38	7918.03
441.57	7896.97
441.75	7852.50
441.94	8109.96
442.12	8058.46
442.31	7913.35
442.50	8121.66
442.68	8154.43
442.87	7953.14
443.05	8212.94
443.24	8037.40
443.43	8358.05
443.61	8182.51
443.80	8465.72
443.98	8308.90
444.17	7803.35
444.35	8329.97
444.54	8524.23
444.73	8273.79
444.91	8334.65
445.10	8219.96
445.28	8320.60
445.47	8362.73
445.65	8318.26
445.84	8344.01
446.02	8437.63
446.21	8596.79
446.39	8482.10
446.58	8517.21
446.77	8517.21
446.95	8212.94
447.14	8496.14
447.32	8683.39
447.51	8479.76
447.69	8322.94
447.88	8346.35
448.06	8542.96
448.25	8524.23
448.43	8554.66
448.62	8725.52
448.80	8559.34
448.99	8727.86
449.17	8718.50
449.36	8784.03
449.54	8936.17
449.73	8975.95
449.91	8947.87
450.10	9062.55
450.28	8933.82
450.46	9078.94
450.65	9067.24
450.83	9116.39
451.02	9282.56
451.20	9341.08
451.39	9261.50
451.57	9277.88
451.76	9090.64
451.94	9242.78
452.13	9259.16
452.31	9317.67
452.49	9338.74
452.68	9486.19
452.86	9142.13
453.05	9582.15
453.23	9743.65
453.42	9406.61
453.60	9469.81
453.78	9476.83
453.97	9441.72
454.15	9577.47
454.34	9537.68
454.52	9628.96
454.70	9675.77
454.89	9823.23
455.07	9909.83
455.26	9919.19
455.44	10017.49
455.62	9621.94
455.81	9930.89
455.99	10181.33
456.17	10111.11
456.36	9916.85
456.54	10298.36
456.73	10399.00
456.91	10471.56
457.09	10588.58
457.28	10600.29
457.46	10207.08
457.64	10506.66
457.83	10424.75
458.01	10420.06
458.19	10705.61
458.38	10733.70
458.56	10527.73
458.74	10796.89
458.93	10780.51
459.11	10918.60
459.29	10857.75
459.48	10773.49
459.66	11005.20
459.84	10925.62
460.03	11201.80
460.21	11265.00
460.39	10927.96
460.57	11075.42
460.76	11220.53
460.94	11117.54
461.12	11206.48
461.31	11178.40
461.49	11351.60
461.67	11358.62
461.85	11384.37
462.04	11604.38
462.22	11662.89
462.40	11683.95
462.59	11503.73
462.77	11433.52
462.95	11597.35
463.13	11485.01
463.32	11854.81
463.50	11831.41
463.68	11934.39
463.86	12100.57
464.05	11419.47
464.23	11737.79
464.41	11705.02
464.59	11674.59
464.78	12128.66
464.96	11845.45
465.14	11644.17
465.32	11939.07
465.50	12058.44
465.69	12194.19
465.87	12159.08
466.05	12198.87
466.23	12329.94
466.41	12088.87
466.60	12716.13
466.78	12355.69
466.96	12421.22
467.14	12388.46
467.32	12512.50
467.51	12624.85
467.69	12362.71
467.87	12500.80
468.05	12676.34
468.23	12601.44
468.41	12498.46
468.60	12929.12
468.78	12671.66
468.96	12695.07
469.14	12987.63
469.32	13123.38
469.50	12781.67
469.69	13039.12
469.87	13121.04
470.05	12980.61
470.23	13144.45
470.41	12957.21
470.59	13472.12
470.77	13270.84
470.95	13312.97
471.14	13713.20
471.32	13181.90
471.50	13827.88
471.68	13596.17
471.86	13638.30
472.04	14008.11
472.22	13921.51
472.40	13687.45
472.58	13886.40
472.77	14092.37
472.95	14193.01
473.13	14590.90
473.31	14122.79
473.49	14305.35
473.67	14244.50
473.85	14193.01
474.03	14654.09
474.21	14698.56
474.39	14874.10
474.57	14888.15
474.75	14871.76
474.93	15122.20
475.12	15007.52
475.30	15250.93
475.48	14780.48
475.66	15510.73
475.84	15300.08
476.02	15648.82
476.20	15475.62
476.38	15786.91
476.56	15861.81
476.74	16093.52
476.92	16074.80
477.10	15796.28
477.28	16086.50
477.46	16159.06
477.64	16437.58
477.82	16503.12
478.00	17205.28
478.18	16903.35
478.36	16875.26
478.54	17310.60
478.72	17036.76
478.90	17341.03
479.08	17647.64
479.26	17741.26
479.44	17832.54
479.62	17865.31
479.80	18024.47
479.98	18169.58
480.16	18595.56
480.34	18321.71
480.52	18824.93
480.70	18698.54
480.88	18389.59
481.06	18850.67
481.24	18778.12
481.41	19049.62
481.59	19360.91
481.77	19309.42
481.95	19421.77
482.13	19866.47
482.31	19990.52
482.49	20669.27
482.67	20051.37
482.85	20332.23
483.03	20442.24
483.21	20945.45
483.39	21130.36
483.57	21027.37
483.74	21273.13
483.92	21231.00
484.10	21413.56
484.28	21553.99
484.46	22153.17
484.64	22735.96
484.82	22218.71
485.00	22427.01
485.18	22703.20
485.35	23012.15
485.53	22958.31
485.71	22883.42
485.89	23894.53
486.07	23377.27
486.25	23293.01
486.43	23939.00
486.61	23896.87
486.78	24086.45
486.96	24151.99
487.14	25046.07
487.32	24594.35
487.50	24570.94
487.68	25378.43
487.85	25465.03
488.03	25626.53
488.21	25935.48
488.39	25979.95
488.57	26096.97
488.75	26160.17
488.92	26335.71
489.10	26918.50
489.28	26377.84
489.46	27311.71
489.64	27070.64
489.81	27697.90
489.99	27686.20
490.17	27711.94
490.35	28428.15
490.53	28411.76
490.70	28706.67
490.88	28388.36
491.06	29172.44
491.24	28975.83
491.41	29008.60
491.59	29151.37
491.77	29357.34
491.95	29394.79
492.13	30267.81
492.30	30338.02
492.48	30143.76
492.66	30281.85
492.84	30405.90
493.01	30991.03
493.19	30635.27
493.37	31157.21
493.54	31295.30
493.72	31723.62
493.90	32072.36
494.08	32004.49
494.25	32177.68
494.43	32240.88
494.61	32664.52
494.79	32814.31
494.96	32985.17
495.14	32514.72
495.32	33249.65
495.49	33418.17
495.67	33116.24
495.85	33654.56
496.02	34099.26
496.20	34288.85
496.38	33912.02
496.55	34532.26
496.73	35159.53
496.91	34536.94
497.09	34864.62
497.26	35477.84
497.44	34897.39
497.62	35391.24
497.79	35981.06
497.97	35428.69
498.14	36397.67
498.32	36299.37
498.50	36648.11
498.67	36903.23
498.85	36481.93
499.03	36734.71
499.20	36734.71
499.38	37015.57
499.56	37376.01
499.73	36966.42
499.91	37439.21
500.08	37776.25
500.26	37837.10
500.44	37631.13
500.61	38153.07
500.79	37951.79
500.97	38192.86
501.14	39002.69
501.32	39117.37
501.49	38555.64
501.67	38976.94
501.84	39119.71
502.02	39105.67
502.20	39234.40
502.37	39063.54
502.55	39171.21
502.72	39501.22
502.90	39494.20
503.07	39758.68
503.25	39983.37
503.43	39878.05
503.60	40172.96
503.78	40467.86
503.95	40587.23
504.13	40334.45
504.30	40559.14
504.48	40664.47
504.65	40891.50
504.83	41186.41
505.01	41525.78
505.18	41647.49
505.36	41778.56
505.53	41282.37
505.71	41607.70
505.88	42443.27
506.06	41378.33
506.23	42155.39
506.41	41546.85
506.58	42038.36
506.76	42485.40
506.93	42536.90
507.11	42707.76
507.28	42864.57
507.46	42972.24
507.63	42726.48
507.81	43201.61
507.98	43243.74
508.16	43337.36
508.33	43999.73
508.50	43962.28
508.68	44060.58
508.85	43690.78
509.03	44086.33
509.20	44275.91
509.38	44376.56
509.55	44498.26
509.73	44612.95
509.90	44837.64
510.08	44552.10
510.25	45034.25
510.42	44765.09
510.60	44884.45
510.77	45418.10
510.95	45673.21
511.12	45509.38
511.30	45399.37
511.47	45958.76
511.64	45832.37
511.82	46036.00
511.99	45865.14
512.17	46146.00
512.34	45984.51
512.51	46862.21
512.69	46541.55
512.86	46536.87
513.04	46691.35
513.21	46707.73
513.38	47145.41
513.56	46628.15
513.73	46902.00
513.90	47601.82
514.08	46951.15
514.25	47634.58
514.43	47482.45
514.60	47555.00
514.77	47716.50
514.95	48315.68
515.12	47880.34
515.29	47973.96
515.47	48175.25
515.64	48322.70
515.81	47929.49
515.99	48254.82
516.16	48626.97
516.33	48650.38
516.51	49020.18
516.68	48594.20
516.85	48729.95
517.03	49317.43
517.20	49193.38
517.37	48816.55
517.54	49188.70
517.72	49436.80
517.89	48985.07
518.06	49357.22
518.24	49537.44
518.41	49179.34
518.58	49530.42
518.75	49523.40
518.93	49553.82
519.10	49624.04
519.27	50326.20
519.45	49741.06
519.62	49902.56
519.79	49914.26
519.96	50103.85
520.14	50546.21
520.31	50178.75
520.48	50265.34
520.65	50536.85
520.83	50756.86
521.00	50969.85
521.17	50951.12
521.34	50501.74
521.52	50665.58
521.69	51222.62
521.86	51065.81
522.03	51407.53
522.20	51452.00
522.38	51803.08
522.55	51615.83
522.72	51393.48
522.89	51398.16
523.07	51583.07
523.24	52006.70
523.41	52095.64
523.58	51531.57
523.75	52048.83
523.92	52102.67
524.10	51819.46
524.27	52051.17
524.44	52346.08
524.61	52243.10
524.78	52397.57
524.96	52559.07
525.13	52215.01
525.30	52825.89
525.47	52659.71
525.64	52383.53
525.81	52711.20
525.98	52825.89
526.16	52942.92
526.33	52708.86
526.50	53235.48
526.67	52994.41
526.84	53029.52
527.01	52877.38
527.18	53008.45
527.36	53368.90
527.53	53191.01
527.70	53556.14
527.87	53586.57
528.04	53008.45
528.21	53605.29
528.38	53483.58
528.55	53785.51
528.72	53352.51
528.89	53626.35
529.07	53647.42
529.24	53565.50
529.41	54012.54
529.58	53867.43
529.75	53755.08
529.92	53928.28
530.09	53998.50
530.26	54108.50
530.43	54082.76
530.60	54096.80
530.77	54021.90
530.94	54115.53
531.11	54019.56
531.28	54464.27
531.46	54424.48
531.63	54370.64
531.80	54457.24
531.97	54602.36
532.14	54813.01
532.31	54387.03
532.48	54604.70
532.65	54845.77
532.82	54714.70
532.99	54798.96
533.16	54782.58
533.33	55065.78
533.50	55028.34
533.67	55248.35
533.84	54665.55
534.01	54901.95
534.18	54883.22
534.35	55515.17
534.52	55054.08
534.69	55297.50
534.86	55442.61
535.03	55035.36
535.20	55334.95
535.37	55412.18
535.54	55503.46
535.71	55639.22
535.88	55332.60
536.05	55372.39
536.22	55756.24
536.38	55917.74
536.55	55781.99
536.72	55875.61
536.89	55868.59
537.06	55840.50
537.23	55971.57
537.40	55636.87
537.57	55913.06
537.74	55896.67
537.91	55999.66
538.08	55894.33
538.25	55842.84
538.42	55756.24
538.59	56179.88
538.75	56013.70
538.92	56149.45
539.09	56598.83
539.26	56179.88
539.43	56294.56
539.60	56268.82
539.77	56519.26
539.94	56369.46
540.11	56444.36
540.28	56322.65
540.44	56549.68
540.61	56554.36
540.78	56409.25
540.95	56580.11
541.12	56561.39
541.29	56612.88
541.46	56718.20
541.62	56842.25
541.79	56786.08
541.96	56615.22
542.13	56596.49
542.30	56875.02
542.47	56975.66
542.63	56811.82
542.80	56980.34
542.97	57251.84
543.14	57298.65
543.31	57382.91
543.48	57420.36
543.64	57535.05
543.81	57422.70
543.98	57272.91
544.15	57509.30
544.32	57584.20
544.48	57900.17
544.65	57415.68
544.82	57621.65
544.99	57296.31
545.16	57897.83
545.32	57469.51
545.49	57785.49
545.66	57865.06
545.83	57640.37
546.00	57879.11
546.16	57719.95
546.33	57696.55
546.50	57855.70
546.67	57909.53
546.83	57546.75
547.00	57806.55
547.17	57853.36
547.34	58031.24
547.50	58059.33
547.67	58206.78
547.84	58061.67
548.00	58192.74
548.17	58305.09
548.34	58258.27
548.51	58370.62
548.67	58232.53
548.84	58307.43
549.01	58415.09
549.18	58412.75
549.34	58497.01
549.51	58333.17
549.68	58438.50
549.84	58578.93
550.01	58553.18
550.18	58288.70
550.34	58623.40
550.51	58543.82
550.68	58564.88
550.84	58328.49
551.01	58651.48
551.18	58693.61
551.34	58548.50
551.51	58513.39
551.68	58887.88
551.84	58628.08
552.01	58583.61
552.18	58817.66
552.34	58738.08
552.51	58904.26
552.68	58747.45
552.84	58836.39
553.01	58934.69
553.18	58988.52
553.34	59227.26
553.51	58836.39
553.67	59018.95
553.84	59185.13
554.01	59054.06
554.17	59119.59
554.34	59248.32
554.51	59215.55
554.67	59157.04
554.84	59192.15
555.00	59089.16
555.17	59000.22
555.33	59126.61
555.50	59047.04
555.67	59143.00
555.83	59274.07
556.00	59360.67
556.16	59641.53
556.33	59395.77
556.50	59234.28
556.66	59449.61
556.83	59250.66
556.99	59458.97
557.16	59536.21
557.32	59700.04
557.49	59728.13
557.65	59442.59
557.82	59458.97
557.98	59576.00
558.15	59503.44
558.32	59629.83
558.48	59636.85
558.65	59634.51
558.81	59580.68
558.98	59501.10
559.14	59786.64
559.31	59749.20
559.47	59875.58
559.64	59887.29
559.80	59807.71
559.97	59770.26
560.13	59817.07
560.30	59868.56
560.46	59910.69
560.63	59772.60
560.79	59969.21
560.96	60058.15
561.12	59898.99
561.29	59908.35
561.45	59978.57
561.61	59770.26
561.78	59784.30
561.94	60090.91
562.11	60037.08
562.27	60011.34
562.44	60224.32
562.60	60009.00
562.77	60093.25
562.93	59898.99
563.10	60198.58
563.26	59922.40
563.42	60285.18
563.59	60287.52
563.75	59994.95
563.92	60210.28
564.08	60013.68
564.24	60334.33
564.41	60172.83
564.57	60156.45
564.74	60406.89
564.90	60133.04
565.07	60257.09
565.23	60268.79
565.39	60200.92
565.56	60355.39
565.72	60025.38
565.88	60404.55
566.05	60271.14
566.21	60207.94
566.38	60142.41
566.54	60353.05
566.70	60458.38
566.87	60568.38
567.03	60324.97
567.19	60554.34
567.36	60439.65
567.52	60404.55
567.68	60654.98
567.85	60636.26
568.01	60584.77
568.17	60413.91
568.34	60392.84
568.50	60383.48
568.66	60336.67
568.83	60378.80
568.99	60528.59
569.15	60596.47
569.32	60556.68
569.48	60474.76
569.64	60741.58
569.81	60549.66
569.97	60498.17
570.13	60708.82
570.30	60444.33
570.46	60729.88
570.62	60713.50
570.78	60729.88
570.95	60608.17
571.11	60715.84
571.27	60563.70
571.43	60605.83
571.60	60851.59
571.76	60839.89
571.92	60676.05
572.09	60533.28
572.25	60706.47
572.41	60750.94
572.57	60678.39
572.74	61024.79
572.90	60793.07
573.06	60643.28
573.22	60694.77
573.38	60753.29
573.55	60643.28
573.71	60980.32
573.87	60800.10
574.03	60715.84
574.20	60748.60
574.36	60769.67
574.52	60982.66
574.68	60793.07
574.84	61045.85
575.01	60886.70
575.17	60856.27
575.33	60673.71
575.49	60715.84
575.65	60839.89
575.82	60926.49
575.98	60940.53
576.14	61165.22
576.30	60926.49
576.46	60732.22
576.62	60947.55
576.79	60795.42
576.95	60706.47
577.11	60896.06
577.27	61041.17
577.43	61010.74
577.59	60963.93
577.75	60697.11
577.92	60739.24
578.08	60795.42
578.24	60994.36
578.40	61162.88
578.56	60982.66
578.72	61043.51
578.88	61106.71
579.04	61235.44
579.21	61003.72
579.37	61263.52
579.53	61158.20
579.69	60741.58
579.85	60856.27
580.01	60989.68
580.17	60849.25
580.33	61167.56
580.49	61087.98
580.65	60938.19
580.82	60903.08
580.98	60968.61
581.14	61041.17
581.30	61116.07
581.46	60956.91
581.62	60994.36
581.78	60900.74
581.94	61179.26
582.10	60919.46
582.26	60989.68
582.42	61013.08
582.58	61027.13
582.74	61034.15
582.90	61095.00
583.06	60879.67
583.22	60882.02
583.38	60870.31
583.54	61062.24
583.70	61120.75
583.86	61125.43
584.02	61097.34
584.18	60999.04
584.34	61048.19
584.50	61109.05
584.66	60961.59
584.82	60968.61
584.98	61080.96
585.14	61085.64
585.30	61104.37
585.46	61099.68
585.62	61006.06
585.78	61230.75
585.94	60921.80
586.10	61216.71
586.26	61097.34
586.42	61176.92
586.58	61307.99
586.74	61134.79
586.90	61073.94
587.06	61022.45
587.22	61286.93
587.38	61212.03
587.54	61024.79
587.70	61509.28
587.86	61214.37
588.02	61247.14
588.18	61387.57
588.34	61160.54
588.49	61120.75
