SpectraSuite Data File
++++++++++++++++++++++++++++++++++++
Date: Fri Oct 25 11:26:04 EDT 2013
User: price-jones
Dark Spectrum Present: No
Reference Spectrum Present: No
Number of Sampled Component Spectra: 1
Spectrometers: USB2+H05261
Integration Time (usec): 100000 (USB2+H05261)
Spectra Averaged: 1 (USB2+H05261)
Boxcar Smoothing: 0 (USB2+H05261)
Correct for Electrical Dark: No (USB2+H05261)
Strobe/Lamp Enabled: No (USB2+H05261)
Correct for Detector Non-linearity: No (USB2+H05261)
Correct for Stray Light: No (USB2+H05261)
Number of Pixels in Processed Spectrum: 2048
>>>>>Begin Processed Spectral Data<<<<<
365.73	229.37
365.92	229.37
366.12	229.37
366.32	168.52
366.52	91.28
366.72	142.77
366.91	93.62
367.11	131.07
367.31	220.01
367.51	121.71
367.70	135.75
367.90	131.07
368.10	149.79
368.30	131.07
368.49	79.58
368.69	105.32
368.89	126.39
369.09	205.97
369.28	217.67
369.48	147.45
369.68	145.11
369.87	236.39
370.07	229.37
370.27	276.18
370.47	332.36
370.66	645.99
370.86	732.59
371.06	664.71
371.25	746.63
371.45	653.01
371.65	641.31
371.84	648.33
372.04	690.46
372.24	702.16
372.44	753.65
372.63	713.86
372.83	711.52
373.03	758.33
373.22	734.93
373.42	725.57
373.62	777.06
373.81	774.72
374.01	814.51
374.21	830.89
374.40	681.10
374.60	873.02
374.79	882.38
374.99	805.14
375.19	856.64
375.38	922.17
375.58	814.51
375.78	866.00
375.97	903.45
376.17	861.32
376.37	814.51
376.56	966.64
376.76	915.15
376.95	898.77
377.15	823.87
377.35	1004.09
377.54	873.02
377.74	922.17
377.93	840.25
378.13	873.02
378.33	990.05
378.52	863.66
378.72	980.68
378.91	929.19
379.11	945.58
379.31	931.53
379.50	978.34
379.70	903.45
379.89	952.60
380.09	947.92
380.28	1048.56
380.48	1032.18
380.68	1041.54
380.87	999.41
381.07	978.34
381.26	1083.67
381.46	1027.50
381.65	1064.94
381.85	1067.28
382.04	999.41
382.24	954.94
382.43	1062.60
382.63	1057.92
382.83	992.39
383.02	1053.24
383.22	1146.86
383.41	1055.58
383.61	1071.97
383.80	1057.92
384.00	1104.73
384.19	1151.54
384.39	1210.06
384.58	1200.69
384.78	1093.03
384.97	1160.91
385.17	1156.22
385.36	1207.72
385.56	1245.16
385.75	1198.35
385.95	1203.04
386.14	1238.14
386.34	1268.57
386.53	1252.19
386.72	1153.88
386.92	1261.55
387.11	1221.76
387.31	1284.95
387.50	1111.75
387.70	1245.16
387.89	1289.64
388.09	1282.61
388.28	1352.83
388.48	1355.17
388.67	1291.98
388.86	1348.15
389.06	1327.08
389.25	1345.81
389.45	1371.55
389.64	1327.08
389.84	1350.49
390.03	1502.62
390.22	1345.81
390.42	1409.00
390.61	1392.62
390.81	1451.13
391.00	1366.87
391.19	1500.28
391.39	1528.37
391.58	1420.71
391.78	1401.98
391.97	1528.37
392.16	1497.94
392.36	1554.12
392.55	1551.78
392.75	1540.07
392.94	1600.93
393.13	1455.81
393.33	1554.12
393.52	1619.65
393.71	1640.72
393.91	1514.33
394.10	1633.69
394.29	1617.31
394.49	1701.57
394.68	1535.39
394.88	1661.78
395.07	1654.76
395.26	1687.53
395.46	1673.48
395.65	1722.63
395.84	1654.76
396.04	1734.34
396.23	1717.95
396.42	1729.66
396.62	1736.68
396.81	1820.94
397.00	1757.74
397.19	1877.11
397.39	1820.94
397.58	1743.70
397.77	1837.32
397.97	1846.68
398.16	1863.07
398.35	1837.32
398.55	1785.83
398.74	1849.02
398.93	2026.90
399.12	1874.77
399.32	1928.60
399.51	2031.58
399.70	2057.33
399.90	1909.88
400.09	2001.16
400.28	2104.14
400.47	2050.31
400.67	2087.76
400.86	1987.11
401.05	2094.78
401.24	2221.17
401.44	2139.25
401.63	2087.76
401.82	2167.34
402.01	2078.40
402.21	2165.00
402.40	2197.76
402.59	2211.81
402.78	2251.60
402.97	2260.96
403.17	2352.24
403.36	2225.85
403.55	2263.30
403.74	2370.96
403.93	2377.98
404.13	2375.64
404.32	2394.37
404.51	2399.05
404.70	2408.41
404.89	2396.71
405.09	2434.16
405.28	2473.95
405.47	2480.97
405.66	2553.52
405.85	2478.63
406.05	2352.24
406.24	2558.21
406.43	2448.20
406.62	2616.72
406.81	2731.41
407.00	2567.57
407.20	2572.25
407.39	2647.15
407.58	2775.88
407.77	2712.68
407.96	2832.05
408.15	2729.06
408.34	2761.83
408.54	2785.24
408.73	2902.26
408.92	3016.95
409.11	2883.54
409.30	2834.39
409.49	3040.36
409.68	2988.86
409.87	2979.50
410.07	3075.46
410.26	3028.65
410.45	2960.78
410.64	2909.29
410.83	3110.57
411.02	3061.42
411.21	3166.74
411.40	3103.55
411.59	3183.13
411.78	3169.09
411.98	3293.13
412.17	3138.66
412.36	3258.03
412.55	3405.48
412.74	3283.77
412.93	3349.31
413.12	3417.18
413.31	3648.90
413.50	3592.72
413.69	3599.74
413.88	3618.47
414.07	3693.37
414.26	3648.90
414.45	3599.74
414.64	3674.64
414.83	3765.92
415.02	3810.39
415.22	3815.07
415.41	3815.07
415.60	3843.16
415.79	3768.26
415.98	3997.64
416.17	4058.49
416.36	3981.25
416.55	4004.66
416.74	3990.61
416.93	4070.19
417.12	4126.36
417.31	4161.47
417.50	4124.02
417.69	4358.08
417.88	4189.56
418.07	4182.54
418.26	4294.88
418.45	4435.32
418.64	4404.89
418.83	4285.52
419.02	4571.07
419.21	4472.76
419.39	4486.81
419.58	4484.47
419.77	4411.91
419.96	4589.79
420.15	4711.50
420.34	4706.82
420.53	4519.57
420.72	4669.37
420.91	4690.43
421.10	4624.90
421.29	4786.40
421.48	4772.35
421.67	4807.46
421.86	4844.91
422.05	4723.20
422.24	4823.84
422.43	4751.29
422.61	4734.90
422.80	5081.30
422.99	4837.89
423.18	4975.98
423.37	4990.02
423.56	5006.41
423.75	4891.72
423.94	4922.15
424.13	4725.54
424.32	4627.24
424.50	4973.64
424.69	5144.50
424.88	4933.85
425.07	5011.09
425.26	4861.29
425.45	4994.70
425.64	4919.81
425.83	5001.72
426.01	5071.94
426.20	5128.11
426.39	5032.15
426.58	4961.94
426.77	5151.52
426.96	5123.43
427.15	5081.30
427.33	5273.23
427.52	5195.99
427.71	5320.04
427.90	5214.71
428.09	5231.10
428.28	5364.51
428.46	5315.36
428.65	5226.42
428.84	5596.22
429.03	5500.26
429.22	5497.92
429.40	5542.39
429.59	5547.07
429.78	5376.21
429.97	5364.51
430.16	5439.40
430.34	5673.46
430.53	5650.05
430.72	5706.23
430.91	5563.45
431.10	5614.95
431.28	5731.97
431.47	5799.85
431.66	5795.17
431.85	5804.53
432.03	5671.12
432.22	5902.83
432.41	5881.77
432.60	5856.02
432.79	5820.91
432.97	5996.45
433.16	5998.79
433.35	6076.03
433.54	6031.56
433.72	6083.05
433.91	6111.14
434.10	6085.39
434.28	5858.36
434.47	6282.00
434.66	6251.57
434.85	6413.07
435.03	6188.38
435.22	6396.68
435.41	6406.05
435.59	6480.94
435.78	6298.38
435.97	6537.12
436.16	6490.31
436.34	6382.64
436.53	6654.14
436.72	6614.35
436.90	6434.13
437.09	6569.88
437.28	6464.56
437.46	6492.65
437.65	6733.72
437.84	6841.39
438.02	6813.30
438.21	6885.86
438.40	6539.46
438.58	6920.96
438.77	7005.22
438.96	7073.10
439.14	7101.19
439.33	7133.95
439.52	7131.61
439.70	7089.48
439.89	7396.09
440.08	7386.73
440.26	7290.77
440.45	7293.11
440.63	7660.57
440.82	7742.49
441.01	7571.63
441.19	7946.12
441.38	7655.89
441.57	7583.34
441.75	7808.03
441.94	8072.51
442.12	8035.06
442.31	8154.43
442.50	8009.31
442.68	7929.74
442.87	7941.44
443.05	8152.09
443.24	8271.45
443.43	8088.89
443.61	8175.49
443.80	8381.46
443.98	8140.38
444.17	7999.95
444.35	8304.22
444.54	8374.44
444.73	8290.18
444.91	8234.00
445.10	8259.75
445.28	8222.30
445.47	8262.09
445.65	8390.82
445.84	8418.91
446.02	8421.25
446.21	8339.33
446.39	8489.12
446.58	8521.89
446.77	8573.38
446.95	8411.89
447.14	8416.57
447.32	8500.83
447.51	8458.70
447.69	8421.25
447.88	8479.76
448.06	8582.74
448.25	8449.33
448.43	8404.86
448.62	8538.27
448.80	8540.61
448.99	8585.08
449.17	8475.08
449.36	8606.15
449.54	8875.31
449.73	8898.72
449.91	8943.19
450.10	8926.80
450.28	9048.51
450.46	9179.58
450.65	8943.19
450.83	8971.27
451.02	9015.74
451.20	9015.74
451.39	9102.34
451.57	9205.33
451.76	8929.14
451.94	8980.64
452.13	9308.31
452.31	9334.06
452.49	9179.58
452.68	9238.09
452.86	9301.29
453.05	9188.94
453.23	9631.30
453.42	9343.42
453.60	9331.72
453.78	9533.00
453.97	9563.43
454.15	9483.85
454.34	9394.91
454.52	9605.56
454.70	9811.53
454.89	9675.77
455.07	9811.53
455.26	9884.08
455.44	9846.63
455.62	9841.95
455.81	9984.73
455.99	10064.30
456.17	9973.02
456.36	10181.33
456.54	10038.56
456.73	10162.61
456.91	10310.06
457.09	10443.47
457.28	10576.88
457.46	10274.95
457.64	10523.05
457.83	10345.17
458.01	10525.39
458.19	10647.10
458.38	10520.71
458.56	10822.64
458.74	10757.10
458.93	10520.71
459.11	10633.05
459.29	10721.99
459.48	10895.19
459.66	10766.46
459.84	10956.05
460.03	10909.24
460.21	10960.73
460.39	10883.49
460.57	10951.37
460.76	11115.20
460.94	11061.37
461.12	11276.70
461.31	11499.05
461.49	11236.91
461.67	11143.29
461.85	11482.67
462.04	11426.50
462.22	11925.03
462.40	11447.56
462.59	11508.41
462.77	11414.79
462.95	11705.02
463.13	11590.33
463.32	11503.73
463.50	11658.21
463.68	11786.94
463.86	11854.81
464.05	11726.08
464.23	11693.32
464.41	11941.41
464.59	11843.11
464.78	12147.38
464.96	12058.44
465.14	11751.83
465.32	12004.61
465.50	12135.68
465.69	11962.48
465.87	11978.86
466.05	11981.20
466.23	12205.89
466.41	12191.85
466.60	12388.46
466.78	12248.02
466.96	12278.45
467.14	12255.04
467.32	12205.89
467.51	12327.60
467.69	12135.68
467.87	12334.62
468.05	12573.36
468.23	12453.99
468.41	12578.04
468.60	12720.81
468.78	12727.83
468.96	12484.42
469.14	12830.82
469.32	13121.04
469.50	12816.77
469.69	12849.54
469.87	13121.04
470.05	13149.13
470.23	12999.34
470.41	12950.18
470.59	13429.99
470.77	13296.58
470.95	13144.45
471.14	13582.13
471.32	13249.77
471.50	13444.04
471.68	13788.10
471.86	13619.58
472.04	13694.47
472.22	13942.57
472.40	13429.99
472.58	13738.94
472.77	14204.71
472.95	14019.81
473.13	14572.18
473.31	14008.11
473.49	14406.00
473.67	14272.59
473.85	14368.55
474.03	14382.59
474.21	14445.79
474.39	14712.61
474.57	14668.14
474.75	14930.28
474.93	14647.07
475.12	14724.31
475.30	15070.71
475.48	14916.23
475.66	14984.11
475.84	15204.12
476.02	15073.05
476.20	15309.44
476.38	15609.03
476.56	15981.18
476.74	15847.77
476.92	15960.11
477.10	15829.04
477.28	16332.26
477.46	16315.87
477.64	16222.25
477.82	16617.80
478.00	16945.48
478.18	16868.24
478.36	16702.06
478.54	17216.98
478.72	17429.97
478.90	17193.58
479.08	17605.51
479.26	17521.25
479.44	17626.57
479.62	18066.60
479.80	18099.36
479.98	18038.51
480.16	18656.41
480.34	18043.19
480.52	18658.75
480.70	18602.58
480.88	18546.40
481.06	18752.37
481.24	18981.74
481.41	19206.44
481.59	19365.59
481.77	19445.17
481.95	19566.88
482.13	19590.28
482.31	19728.38
482.49	19910.94
482.67	20166.06
482.85	20374.36
483.03	20812.04
483.21	20683.31
483.39	21104.61
483.57	20617.78
483.74	20961.84
483.92	21303.56
484.10	21228.66
484.28	21401.86
484.46	22038.48
484.64	22429.35
484.82	22010.40
485.00	22237.43
485.18	22869.37
485.35	22986.40
485.53	22731.28
485.71	22752.35
485.89	23662.82
486.07	23222.80
486.25	23311.74
486.43	23372.59
486.61	23726.01
486.78	23878.15
486.96	24269.01
487.14	24269.01
487.32	24732.44
487.50	24685.63
487.68	25205.23
487.85	25144.38
488.03	25319.92
488.21	25766.96
488.39	26031.44
488.57	26012.71
488.75	26071.23
488.92	26288.90
489.10	26799.13
489.28	26700.83
489.46	27023.83
489.64	26881.05
489.81	27805.56
489.99	27555.13
490.17	28020.89
490.35	28170.69
490.53	28369.63
490.70	28109.83
490.88	28283.03
491.06	28584.96
491.24	29008.60
491.41	29060.09
491.59	28828.38
491.77	29462.66
491.95	29336.27
492.13	29532.88
492.30	29757.57
492.48	30010.35
492.66	30256.11
492.84	29902.68
493.01	30618.89
493.19	30586.12
493.37	31012.10
493.54	30913.80
493.72	31257.85
493.90	31351.48
494.08	31784.48
494.25	31924.91
494.43	32261.94
494.61	32591.96
494.79	32463.23
494.96	32460.89
495.14	32741.75
495.32	32893.89
495.49	32748.78
495.67	33247.31
495.85	33369.02
496.02	33916.70
496.20	33596.05
496.38	34167.14
496.55	33965.85
496.73	34845.90
496.91	34375.45
497.09	34368.43
497.26	35363.15
497.44	34572.05
497.62	35400.60
497.79	35702.53
497.97	35243.79
498.14	35969.35
498.32	35854.67
498.50	35915.52
498.67	36247.88
498.85	36397.67
499.03	36797.90
499.20	36456.18
499.38	36914.93
499.56	37198.13
499.73	37254.31
499.91	37546.87
500.08	37694.33
500.26	37453.25
500.44	37621.77
500.61	37677.94
500.79	37596.03
500.97	38380.10
501.14	38504.15
501.32	38274.78
501.49	38356.70
501.67	38415.21
501.84	38983.96
502.02	38740.55
502.20	39026.09
502.37	39124.40
502.55	39496.54
502.72	40084.01
502.90	39381.85
503.07	39283.55
503.25	39763.36
503.43	39482.50
503.60	40109.76
503.78	40287.64
503.95	39887.41
504.13	40509.99
504.30	40423.39
504.48	40280.62
504.65	40926.61
504.83	41102.15
505.01	41158.32
505.18	41432.16
505.36	41584.30
505.53	41104.49
505.71	41455.57
505.88	41523.44
506.06	41408.76
506.23	42113.26
506.41	41675.58
506.58	41855.80
506.76	42110.92
506.93	42204.54
507.11	41940.06
507.28	42356.67
507.46	42836.48
507.63	43154.80
507.81	43332.68
507.98	43005.00
508.16	43157.14
508.33	43590.14
508.50	43063.52
508.68	43721.21
508.85	43810.15
509.03	43824.19
509.20	43756.32
509.38	43819.51
509.55	44360.17
509.73	44474.86
509.90	44374.22
510.08	44495.92
510.25	44421.03
510.42	45069.36
510.60	45029.57
510.77	44940.63
510.95	45418.10
511.12	44837.64
511.30	44935.95
511.47	45261.28
511.64	45354.90
511.82	46117.92
511.99	45759.81
512.17	45633.42
512.34	45886.20
512.51	45972.80
512.69	46021.95
512.86	46103.87
513.04	46574.32
513.21	46796.67
513.38	46354.31
513.56	46930.08
513.73	46752.20
513.90	47419.25
514.08	47044.77
514.25	46794.33
514.43	47019.02
514.60	47725.86
514.77	47122.01
514.95	47449.68
515.12	47435.64
515.29	47124.35
515.47	47875.66
515.64	47683.73
515.81	47552.66
515.99	48034.81
516.16	48313.34
516.33	48624.63
516.51	48477.18
516.68	48268.87
516.85	48601.22
517.03	48692.50
517.20	49083.37
517.37	48446.75
517.54	48884.43
517.72	48701.87
517.89	48961.67
518.06	49017.84
518.24	49331.47
518.41	49010.82
518.58	49083.37
518.75	49574.89
518.93	49530.42
519.10	49212.10
519.27	49818.30
519.45	49668.51
519.62	49977.46
519.79	49799.58
519.96	49834.69
520.14	50061.72
520.31	50003.20
520.48	50415.14
520.65	50377.69
520.83	50749.84
521.00	50487.70
521.17	50691.32
521.34	50548.55
521.52	50974.53
521.69	50911.33
521.86	50937.08
522.03	50829.41
522.20	51150.07
522.38	51306.88
522.55	51213.26
522.72	51337.31
522.89	51636.90
523.07	51295.18
523.24	51398.16
523.41	51608.81
523.58	51627.54
523.75	51632.22
523.92	51592.43
524.10	51721.16
524.27	51987.98
524.44	51842.87
524.61	52004.36
524.78	52004.36
524.96	52268.84
525.13	52374.17
525.30	52299.27
525.47	52332.04
525.64	52142.45
525.81	52626.95
525.98	52673.76
526.16	52449.06
526.33	52542.69
526.50	52765.04
526.67	52823.55
526.84	52538.01
527.01	52863.34
527.18	52687.80
527.36	52954.62
527.53	53160.59
527.70	53160.59
527.87	53235.48
528.04	53013.13
528.21	53301.02
528.38	53284.64
528.55	53436.77
528.72	53279.96
528.89	53176.97
529.07	53448.47
529.24	53406.34
529.41	53595.93
529.58	53492.94
529.75	53455.50
529.92	53715.29
530.09	53806.58
530.26	53984.46
530.43	53904.88
530.60	53492.94
530.77	54176.38
530.94	54197.44
531.11	53848.71
531.28	54019.56
531.46	53993.82
531.63	54206.81
531.80	53972.75
531.97	54157.66
532.14	54344.90
532.31	54445.54
532.48	54611.72
532.65	54611.72
532.82	54710.02
532.99	54471.29
533.16	54351.92
533.33	54733.43
533.50	55011.95
533.67	54649.17
533.84	54635.13
534.01	54691.30
534.18	54653.85
534.35	55056.42
534.52	54955.78
534.69	55182.81
534.86	55042.38
535.03	54892.58
535.20	54927.69
535.37	55454.31
535.54	55405.16
535.71	55016.63
535.88	55281.11
536.05	55578.36
536.22	55566.66
536.38	55379.42
536.55	55573.68
536.72	55580.70
536.89	55540.91
537.06	55442.61
537.23	55735.18
537.40	55627.51
537.57	55920.08
537.74	55835.82
537.91	55913.06
538.08	55945.83
538.25	55868.59
538.42	55903.70
538.59	55828.80
538.75	55910.72
538.92	56039.45
539.09	56076.90
539.26	56076.90
539.43	55955.19
539.60	56395.21
539.77	56102.64
539.94	56601.18
540.11	56292.22
540.28	56582.45
540.44	56364.78
540.61	56189.24
540.78	56332.01
540.95	56224.35
541.12	56432.66
541.29	56315.63
541.46	56369.46
541.62	56364.78
541.79	56844.59
541.96	56566.07
542.13	56530.96
542.30	56804.80
542.47	56736.93
542.63	56711.18
542.80	56921.83
542.97	56931.19
543.14	56996.73
543.31	56938.21
543.48	57403.98
543.64	57272.91
543.81	57418.02
543.98	57338.44
544.15	57396.96
544.32	57399.30
544.48	57506.96
544.65	57420.36
544.82	57504.62
544.99	57181.63
545.16	57441.43
545.32	57331.42
545.49	57504.62
545.66	57759.74
545.83	57591.22
546.00	57598.24
546.16	57698.89
546.33	57441.43
546.50	57429.72
546.67	57577.18
546.83	57371.21
547.00	57680.16
547.17	57736.34
547.34	57708.25
547.50	57839.32
547.67	57977.41
547.84	58049.97
548.00	58059.33
548.17	58162.31
548.34	58078.05
548.51	58246.57
548.67	58089.76
548.84	57911.88
549.01	57865.06
549.18	58047.63
549.34	58174.02
549.51	58274.66
549.68	58220.83
549.84	58424.45
550.01	58351.90
550.18	58045.29
550.34	58185.72
550.51	58468.92
550.68	58445.52
550.84	58234.87
551.01	58534.46
551.18	58145.93
551.34	58323.81
551.51	58340.19
551.68	58585.95
551.84	58562.54
552.01	58532.12
552.18	58529.78
552.34	58506.37
552.51	58567.23
552.68	58431.47
552.84	58726.38
553.01	58801.28
553.18	58838.73
553.34	58728.72
553.51	58681.91
553.67	58927.67
553.84	58911.28
554.01	58871.49
554.17	58829.37
554.34	59035.33
554.51	58951.07
554.67	58976.82
554.84	58960.44
555.00	58911.28
555.17	58822.34
555.33	58789.58
555.50	58855.11
555.67	58857.45
555.83	58981.50
556.00	59030.65
556.16	59194.49
556.33	59402.80
556.50	59065.76
556.66	59278.75
556.83	59018.95
556.99	59348.96
557.16	59517.48
557.32	59309.18
557.49	59531.53
557.65	59178.10
557.82	59313.86
557.98	59194.49
558.15	59344.28
558.32	59306.83
558.48	59267.05
558.65	59292.79
558.81	59437.90
558.98	59435.56
559.14	59473.01
559.31	59634.51
559.47	59512.80
559.64	59503.44
559.80	59622.81
559.97	59746.86
560.13	59545.57
560.30	59597.06
560.46	59554.93
560.63	59945.80
560.79	59786.64
560.96	59891.97
561.12	59671.96
561.29	59634.51
561.45	59880.27
561.61	59770.26
561.78	59749.20
561.94	59580.68
562.11	59791.33
562.27	59606.42
562.44	59889.63
562.60	59941.12
562.77	60126.02
562.93	59667.28
563.10	60025.38
563.26	59826.43
563.42	60130.70
563.59	59927.08
563.75	59952.82
563.92	60086.23
564.08	60004.31
564.24	60081.55
564.41	59964.52
564.57	60107.30
564.74	60119.00
564.90	60079.21
565.07	59973.89
565.23	59870.90
565.39	60111.98
565.56	60111.98
565.72	60240.71
565.88	60123.68
566.05	59891.97
566.21	60060.49
566.38	60196.24
566.54	60231.35
566.70	60367.10
566.87	60467.74
567.03	60126.02
567.19	60416.25
567.36	60430.29
567.52	60231.35
567.68	60533.28
567.85	60261.77
568.01	60425.61
568.17	60224.32
568.34	60390.50
568.50	60177.51
568.66	60346.03
568.83	60308.58
568.99	60385.82
569.15	60378.80
569.32	60315.61
569.48	60261.77
569.64	60554.34
569.81	60411.57
569.97	60406.89
570.13	60418.59
570.30	60404.55
570.46	60484.12
570.62	60547.32
570.78	60402.21
570.95	60327.31
571.11	60699.45
571.27	60397.52
571.43	60397.52
571.60	60704.13
571.76	60554.34
571.92	60453.70
572.09	60439.65
572.25	60350.71
572.41	60528.59
572.57	60622.22
572.74	60570.72
572.90	60299.22
573.06	60530.93
573.22	60481.78
573.38	60701.79
573.55	60544.98
573.71	60837.54
573.87	60767.33
574.03	60577.75
574.20	60502.85
574.36	60439.65
574.52	60891.38
574.68	60729.88
574.84	60762.65
575.01	60912.44
575.17	60601.15
575.33	60659.66
575.49	60680.73
575.65	60842.23
575.82	60949.89
575.98	60699.45
576.14	60891.38
576.30	61057.56
576.46	60566.04
576.62	60624.56
576.79	60664.35
576.95	60722.86
577.11	60706.47
577.27	60755.63
577.43	60624.56
577.59	60828.18
577.75	60673.71
577.92	60790.73
578.08	60769.67
578.24	60790.73
578.40	60893.72
578.56	60856.27
578.72	60708.82
578.88	60982.66
579.04	60970.96
579.21	60954.57
579.37	60912.44
579.53	61036.49
579.69	60697.11
579.85	60811.80
580.01	60867.97
580.17	60659.66
580.33	60844.57
580.49	60874.99
580.65	60926.49
580.82	60760.31
580.98	60893.72
581.14	60767.33
581.30	61010.74
581.46	60858.61
581.62	61155.86
581.78	60764.99
581.94	60643.28
582.10	60753.29
582.26	60945.21
582.42	60762.65
582.58	60900.74
582.74	60804.78
582.90	60910.10
583.06	60867.97
583.22	60755.63
583.38	60912.44
583.54	60940.53
583.70	61015.43
583.86	60973.30
584.02	61141.81
584.18	60928.83
584.34	60896.06
584.50	60987.34
584.66	60828.18
584.82	60863.29
584.98	61183.94
585.14	60816.48
585.30	60870.31
585.46	61090.32
585.62	61024.79
585.78	60989.68
585.94	60795.42
586.10	60896.06
586.26	60954.57
586.42	61160.54
586.58	60935.85
586.74	60931.17
586.90	60893.72
587.06	60882.02
587.22	61045.85
587.38	61111.39
587.54	61055.21
587.70	61286.93
587.86	61006.06
588.02	60982.66
588.18	60977.98
588.34	61104.37
588.49	61130.11
