SpectraSuite Data File
++++++++++++++++++++++++++++++++++++
Date: Fri Oct 25 10:44:39 EDT 2013
User: price-jones
Dark Spectrum Present: No
Reference Spectrum Present: No
Number of Sampled Component Spectra: 1
Spectrometers: USB2+H05261
Integration Time (usec): 100000 (USB2+H05261)
Spectra Averaged: 1 (USB2+H05261)
Boxcar Smoothing: 0 (USB2+H05261)
Correct for Electrical Dark: No (USB2+H05261)
Strobe/Lamp Enabled: No (USB2+H05261)
Correct for Detector Non-linearity: No (USB2+H05261)
Correct for Stray Light: No (USB2+H05261)
Number of Pixels in Processed Spectrum: 2048
>>>>>Begin Processed Spectral Data<<<<<
365.73	152.13
365.92	152.13
366.12	152.13
366.32	11.70
366.52	28.09
366.72	56.17
366.91	0.00
367.11	21.06
367.31	0.00
367.51	7.02
367.70	65.54
367.90	102.98
368.10	77.24
368.30	21.06
368.49	0.00
368.69	74.90
368.89	37.45
369.09	100.64
369.28	56.17
369.48	67.88
369.68	0.00
369.87	60.85
370.07	102.98
370.27	133.41
370.47	191.92
370.66	362.78
370.86	404.91
371.06	437.68
371.25	423.64
371.45	386.19
371.65	461.09
371.84	461.09
372.04	456.40
372.24	442.36
372.44	559.39
372.63	454.06
372.83	428.32
373.03	517.26
373.22	442.36
373.42	484.49
373.62	554.71
373.81	514.92
374.01	510.24
374.21	477.47
374.40	496.19
374.60	552.37
374.79	503.22
374.99	599.18
375.19	587.47
375.38	517.26
375.58	514.92
375.78	510.24
375.97	578.11
376.17	559.39
376.37	521.94
376.56	641.31
376.76	552.37
376.95	606.20
377.15	543.00
377.35	636.63
377.54	599.18
377.74	552.37
377.93	610.88
378.13	519.60
378.33	610.88
378.52	653.01
378.72	571.09
378.91	627.26
379.11	603.86
379.31	573.43
379.50	617.90
379.70	657.69
379.89	624.92
380.09	648.33
380.28	603.86
380.48	606.20
380.68	636.63
380.87	725.57
381.07	662.37
381.26	638.97
381.46	613.22
381.65	585.13
381.85	653.01
382.04	683.44
382.24	692.80
382.43	603.86
382.63	662.37
382.83	662.37
383.02	748.97
383.22	688.12
383.41	653.01
383.61	723.23
383.80	690.46
384.00	718.54
384.19	777.06
384.39	772.38
384.58	734.93
384.78	704.50
384.97	772.38
385.17	734.93
385.36	730.25
385.56	725.57
385.75	767.70
385.95	770.04
386.14	877.70
386.34	753.65
386.53	777.06
386.72	795.78
386.92	823.87
387.11	730.25
387.31	816.85
387.50	741.95
387.70	732.59
387.89	741.95
388.09	840.25
388.28	823.87
388.48	833.23
388.67	898.77
388.86	908.13
389.06	844.93
389.25	861.32
389.45	877.70
389.64	898.77
389.84	957.28
390.03	823.87
390.22	849.61
390.42	912.81
390.61	884.72
390.81	866.00
391.00	973.66
391.19	931.53
391.39	924.51
391.58	912.81
391.78	964.30
391.97	922.17
392.16	933.87
392.36	959.62
392.55	964.30
392.75	945.58
392.94	954.94
393.13	938.55
393.33	987.71
393.52	957.28
393.71	1006.43
393.91	1034.52
394.10	1034.52
394.29	1095.37
394.49	1004.09
394.68	1071.97
394.88	1050.90
395.07	1107.07
395.26	1125.80
395.46	1083.67
395.65	1114.10
395.84	1151.54
396.04	1174.95
396.23	1228.78
396.42	1151.54
396.62	1053.24
396.81	1088.35
397.00	1221.76
397.19	1186.65
397.39	1160.91
397.58	1177.29
397.77	1226.44
397.97	1203.04
398.16	1327.08
398.35	1261.55
398.55	1259.21
398.74	1315.38
398.93	1343.47
399.12	1362.19
399.32	1273.25
399.51	1282.61
399.70	1373.89
399.90	1416.02
400.09	1413.68
400.28	1404.32
400.47	1437.09
400.67	1441.77
400.86	1420.71
401.05	1432.41
401.24	1350.49
401.44	1474.54
401.63	1511.99
401.82	1437.09
402.01	1509.65
402.21	1614.97
402.40	1584.54
402.59	1479.22
402.78	1544.75
402.97	1486.24
403.17	1514.33
403.36	1666.46
403.55	1535.39
403.74	1633.69
403.93	1577.52
404.13	1612.63
404.32	1626.67
404.51	1549.43
404.70	1612.63
404.89	1673.48
405.09	1799.87
405.28	1682.85
405.47	1795.19
405.66	1762.42
405.85	1732.00
406.05	1818.60
406.24	1799.87
406.43	1792.85
406.62	1834.98
406.81	1930.94
407.00	1795.19
407.20	1753.06
407.39	1846.68
407.58	1989.46
407.77	1952.01
407.96	1928.60
408.15	1942.64
408.34	1947.33
408.54	2024.56
408.73	1888.81
408.92	2094.78
409.11	2092.44
409.30	2038.61
409.49	2069.03
409.68	1984.77
409.87	1928.60
410.07	2073.71
410.26	2129.89
410.45	2062.01
410.64	2083.08
410.83	2218.83
411.02	2202.44
411.21	2232.87
411.40	2179.04
411.59	2317.13
411.78	2167.34
411.98	2370.96
412.17	2319.47
412.36	2368.62
412.55	2303.09
412.74	2443.52
412.93	2471.61
413.12	2342.88
413.31	2523.10
413.50	2539.48
413.69	2459.90
413.88	2537.14
414.07	2565.23
414.26	2548.84
414.45	2567.57
414.64	2607.36
414.83	2684.59
415.02	2672.89
415.22	2818.00
415.41	2836.73
415.60	2731.41
415.79	2848.43
415.98	2731.41
416.17	2820.35
416.36	2771.19
416.55	2878.86
416.74	2867.16
416.93	2822.69
417.12	2827.37
417.31	3005.25
417.50	2855.45
417.69	3054.40
417.88	2974.82
418.07	2949.08
418.26	3115.25
418.45	3059.08
418.64	3297.81
418.83	3197.17
419.02	3084.83
419.21	3204.19
419.39	3164.40
419.58	3162.06
419.77	3314.20
419.96	3243.98
420.15	3225.26
420.34	3260.37
420.53	3246.32
420.72	3260.37
420.91	3258.03
421.10	3403.14
421.29	3527.19
421.48	3288.45
421.67	3391.44
421.86	3267.39
422.05	3454.63
422.24	3323.56
422.43	3337.60
422.61	3508.46
422.80	3442.93
422.99	3510.80
423.18	3562.30
423.37	3543.57
423.56	3552.93
423.75	3592.72
423.94	3433.57
424.13	3417.18
424.32	3267.39
424.50	3445.27
424.69	3588.04
424.88	3513.14
425.07	3445.27
425.26	3417.18
425.45	3531.87
425.64	3485.06
425.83	3517.83
426.01	3625.49
426.20	3695.71
426.39	3604.42
426.58	3461.65
426.77	3515.48
426.96	3552.93
427.15	3574.00
427.33	3599.74
427.52	3637.19
427.71	3740.18
427.90	3794.01
428.09	3684.00
428.28	3616.13
428.46	3660.60
428.65	3531.87
428.84	3845.50
429.03	3784.65
429.22	3655.92
429.40	3948.48
429.59	3770.60
429.78	3669.96
429.97	3463.99
430.16	3693.37
430.34	3632.51
430.53	3803.37
430.72	3735.50
430.91	3866.56
431.10	3971.89
431.28	3990.61
431.47	3995.29
431.66	4093.60
431.85	4100.62
432.03	4154.45
432.22	4292.54
432.41	4060.83
432.60	4231.69
432.79	4149.77
432.97	4131.05
433.16	4102.96
433.35	4250.41
433.54	4271.48
433.72	4135.73
433.91	4231.69
434.10	4397.87
434.28	4154.45
434.47	4369.78
434.66	4463.40
434.85	4437.66
435.03	4383.82
435.22	4566.39
435.41	4540.64
435.59	4440.00
435.78	4484.47
435.97	4571.07
436.16	4491.49
436.34	4409.57
436.53	4561.70
436.72	4704.48
436.90	4594.47
437.09	4573.41
437.28	4493.83
437.46	4568.73
437.65	4660.01
437.84	4748.95
438.02	4596.81
438.21	4535.96
438.40	4601.49
438.58	4938.53
438.77	4830.87
438.96	4774.69
439.14	5041.51
439.33	4929.17
439.52	5041.51
439.70	5067.26
439.89	5062.58
440.08	5219.39
440.26	5118.75
440.45	5167.90
440.63	5411.32
440.82	5345.78
441.01	5284.93
441.19	5430.04
441.38	5378.55
441.57	5516.64
441.75	5441.75
441.94	5659.42
442.12	5495.58
442.31	5526.00
442.50	5628.99
442.68	5526.00
442.87	5591.54
443.05	5614.95
443.24	5769.42
443.43	5703.89
443.61	5659.42
443.80	5778.78
443.98	5757.72
444.17	5507.28
444.35	5767.08
444.54	5813.89
444.73	5907.51
444.91	5973.05
445.10	5849.00
445.28	5778.78
445.47	5724.95
445.65	5813.89
445.84	5839.64
446.02	5949.64
446.21	5806.87
446.39	5959.00
446.58	5968.37
446.77	5954.32
446.95	5729.63
447.14	5877.09
447.32	5944.96
447.51	5902.83
447.69	6005.81
447.88	6038.58
448.06	6026.88
448.25	5998.79
448.43	5921.56
448.62	6087.73
448.80	5877.09
448.99	6059.65
449.17	6164.97
449.36	6061.99
449.54	6200.08
449.73	6146.25
449.91	6237.53
450.10	6251.57
450.28	6361.58
450.46	6326.47
450.65	6370.94
450.83	6258.59
451.02	6361.58
451.20	6499.67
451.39	6480.94
451.57	6354.55
451.76	6258.59
451.94	6436.47
452.13	6429.45
452.31	6494.99
452.49	6291.36
452.68	6333.49
452.86	6282.00
453.05	6590.95
453.23	6665.85
453.42	6373.28
453.60	6537.12
453.78	6560.52
453.97	6527.75
454.15	6637.76
454.34	6595.63
454.52	6871.81
454.70	6867.13
454.89	6684.57
455.07	6670.53
455.26	6747.76
455.44	6904.58
455.62	6850.75
455.81	6853.09
455.99	6878.83
456.17	6918.62
456.36	6958.41
456.54	7145.66
456.73	7052.03
456.91	7316.51
457.09	7218.21
457.28	7199.49
457.46	7201.83
457.64	7274.38
457.83	7194.81
458.01	7304.81
458.19	7417.16
458.38	7346.94
458.56	7459.29
458.74	7487.37
458.93	7349.28
459.11	7445.24
459.29	7398.43
459.48	7550.57
459.66	7389.07
459.84	7644.19
460.03	7653.55
460.21	7623.12
460.39	7728.45
460.57	7520.14
460.76	7611.42
460.94	7665.25
461.12	7735.47
461.31	7721.43
461.49	7737.81
461.67	7758.88
461.85	7969.52
462.04	7845.48
462.22	8116.98
462.40	7892.29
462.59	7978.89
462.77	7782.28
462.95	7962.50
463.13	7934.42
463.32	7871.22
463.50	8187.19
463.68	7995.27
463.86	7939.10
464.05	7953.14
464.23	8070.17
464.41	8184.85
464.59	7985.91
464.78	8119.32
464.96	8203.58
465.14	8131.02
465.32	8212.94
465.50	8262.09
465.69	8325.29
465.87	8301.88
466.05	8173.15
466.23	8194.22
466.41	8376.78
466.60	8477.42
466.78	8280.82
466.96	8273.79
467.14	8203.58
467.32	8449.33
467.51	8416.57
467.69	8372.10
467.87	8671.68
468.05	8542.96
468.23	8465.72
468.41	8545.30
468.60	8535.93
468.78	8601.47
468.96	8711.47
469.14	8854.25
469.32	8688.07
469.50	8528.91
469.69	8622.53
469.87	9013.40
470.05	8924.46
470.23	8823.82
470.41	8985.32
470.59	9067.24
470.77	8898.72
470.95	8968.93
471.14	9247.46
471.32	8938.51
471.50	9097.66
471.68	9104.68
471.86	9348.10
472.04	9249.80
472.22	9376.19
472.40	9191.28
472.58	9472.15
472.77	9502.58
472.95	9547.05
473.13	9533.00
473.31	9474.49
473.49	9273.20
473.67	9638.33
473.85	9549.39
474.03	9643.01
474.21	9975.36
474.39	9844.29
474.57	9834.93
474.75	9912.17
474.93	10139.20
475.12	10066.64
475.30	10162.61
475.48	10099.41
475.66	10139.20
475.84	10267.93
476.02	10204.74
476.20	10485.60
476.38	10373.25
476.56	10682.20
476.74	10778.17
476.92	10537.09
477.10	10707.95
477.28	10897.53
477.46	10794.55
477.64	11052.01
477.82	11084.78
478.00	11218.19
478.18	11344.58
478.36	11239.25
478.54	11555.22
478.72	11536.50
478.90	11627.78
479.08	11742.47
479.26	11852.47
479.44	11730.76
479.62	11784.60
479.80	11934.39
479.98	12028.01
480.16	12294.83
480.34	12156.74
480.52	12444.63
480.70	12477.40
480.88	12458.67
481.06	12472.71
481.24	12692.73
481.41	12608.47
481.59	12886.99
481.77	12968.91
481.95	13078.91
482.13	13081.25
482.31	13212.32
482.49	13341.05
482.67	13390.20
482.85	13570.43
483.03	13675.75
483.21	13722.56
483.39	13977.68
483.57	13851.29
483.74	13692.13
483.92	14052.58
484.10	14181.31
484.28	14525.36
484.46	14523.02
484.64	14717.29
484.82	14618.99
485.00	14876.44
485.18	14848.36
485.35	14981.77
485.53	14923.26
485.71	14726.65
485.89	15068.37
486.07	15136.24
486.25	15431.15
486.43	15597.33
486.61	15494.35
486.78	15838.41
486.96	15962.45
487.14	16072.46
487.32	16079.48
487.50	16372.05
487.68	16496.10
487.85	16671.64
488.03	16826.11
488.21	17078.89
488.39	17071.87
488.57	17109.32
488.75	17490.82
488.92	17642.96
489.10	17841.90
489.28	17689.77
489.46	17724.88
489.64	17926.16
489.81	17877.01
489.99	18307.67
490.17	18412.99
490.35	18595.56
490.53	18438.74
490.70	18775.78
490.88	18490.23
491.06	18850.67
491.24	18902.17
491.41	18913.87
491.59	18930.25
491.77	19068.34
491.95	19077.71
492.13	19426.45
492.30	19571.56
492.48	19515.39
492.66	19763.48
492.84	19847.74
493.01	19929.66
493.19	19971.79
493.37	20208.19
493.54	20528.84
493.72	20505.43
493.90	20580.33
494.08	20725.44
494.25	21029.71
494.43	21027.37
494.61	20971.20
494.79	21104.61
494.96	21369.09
495.14	21656.98
495.32	21465.05
495.49	21696.77
495.67	21729.53
495.85	21462.71
496.02	22246.79
496.20	22345.09
496.38	22347.44
496.55	21951.88
496.73	23101.09
496.91	22485.53
497.09	22843.63
497.26	23044.91
497.44	22972.36
497.62	23073.00
497.79	23204.07
497.97	23073.00
498.14	23084.70
498.32	23651.11
498.50	23370.25
498.67	23648.77
498.85	23868.78
499.03	23775.16
499.20	24004.53
499.38	24280.72
499.56	24624.78
499.73	23814.95
499.91	24287.74
500.08	24425.83
500.26	24180.07
500.44	24437.53
500.61	24584.99
500.79	24493.71
500.97	25017.99
501.14	25046.07
501.32	24900.96
501.49	25111.61
501.67	24994.58
501.84	25256.72
502.02	25294.17
502.20	25401.83
502.37	25582.06
502.55	25130.33
502.72	25701.42
502.90	26050.16
503.07	25731.85
503.25	26010.37
503.43	25645.25
503.60	26017.40
503.78	26047.82
503.95	26017.40
504.13	26073.57
504.30	26359.11
504.48	26106.34
504.65	26487.84
504.83	26176.55
505.01	26747.64
505.18	26473.80
505.36	26843.60
505.53	27180.64
505.71	26988.72
505.88	27236.81
506.06	26806.16
506.23	27295.33
506.41	27402.99
506.58	27646.41
506.76	27491.93
506.93	27377.25
507.11	27199.37
507.28	27676.83
507.46	27555.13
507.63	27896.85
507.81	27632.36
507.98	27821.95
508.16	28030.26
508.33	27995.15
508.50	28538.15
508.68	28709.01
508.85	28528.79
509.03	28615.39
509.20	28549.85
509.38	28783.91
509.55	28807.31
509.73	29020.30
509.90	29043.71
510.08	28779.23
510.25	28680.92
510.42	29266.06
510.60	29254.36
510.77	29266.06
510.95	29202.86
511.12	29385.43
511.30	29591.39
511.47	29898.00
511.64	29551.60
511.82	29928.43
511.99	29680.33
512.17	30029.07
512.34	29603.10
512.51	29706.08
512.69	30148.44
512.86	30192.91
513.04	30424.62
513.21	30309.94
513.38	30251.42
513.56	30567.40
513.73	30263.13
513.90	30616.55
514.08	30796.77
514.25	30590.80
514.43	30740.60
514.60	30820.17
514.77	30689.10
514.95	31515.31
515.12	30700.81
515.29	31234.45
515.47	31393.61
515.64	31613.62
515.81	31257.85
515.99	31276.58
516.16	31428.71
516.33	31314.03
516.51	31732.98
516.68	31005.08
516.85	31009.76
517.03	31622.98
517.20	31515.31
517.37	31847.67
517.54	32039.59
517.72	31611.28
517.89	31716.60
518.06	31681.49
518.24	31641.70
518.41	32055.98
518.58	31772.77
518.75	31758.73
518.93	32425.78
519.10	32292.37
519.27	32465.57
519.45	32339.18
519.62	32591.96
519.79	32540.47
519.96	32804.95
520.14	33228.59
520.31	32821.33
520.48	32751.12
520.65	33174.75
520.83	33401.79
521.00	33455.62
521.17	33345.61
521.34	33287.10
521.52	33537.54
521.69	33563.28
521.86	33762.23
522.03	33532.86
522.20	33453.28
522.38	33670.95
522.55	33743.50
522.72	33897.98
522.89	34127.35
523.07	34146.08
523.24	33902.66
523.41	34356.72
523.58	34326.30
523.75	34609.50
523.92	34728.87
524.10	35136.12
524.27	34352.04
524.44	34951.22
524.61	34834.19
524.78	34855.26
524.96	34731.21
525.13	35002.71
525.30	35225.06
525.47	35047.18
525.64	34895.05
525.81	34927.81
525.98	35154.85
526.16	34944.20
526.33	34946.54
526.50	35454.44
526.67	34883.34
526.84	35229.74
527.01	35267.19
527.18	35157.19
527.36	35927.22
527.53	35798.49
527.70	36219.79
527.87	35978.72
528.04	35702.53
528.21	35920.20
528.38	36072.34
528.55	36315.75
528.72	36233.83
528.89	36156.60
529.07	36222.13
529.24	35894.46
529.41	36528.74
529.58	36481.93
529.75	36442.14
529.92	36362.56
530.09	36463.21
530.26	36486.61
530.43	36477.25
530.60	36556.83
530.77	36217.45
530.94	36704.28
531.11	36905.57
531.28	36638.75
531.46	36900.89
531.63	36886.84
531.80	36879.82
531.97	37022.59
532.14	36985.15
532.31	37095.15
532.48	37429.85
532.65	37113.87
532.82	37132.60
532.99	37280.05
533.16	36910.25
533.33	37500.06
533.50	37804.33
533.67	37181.75
533.84	37308.14
534.01	37366.65
534.18	37092.81
534.35	37762.20
534.52	37642.84
534.69	37895.61
534.86	37912.00
535.03	37879.23
535.20	37895.61
535.37	37743.48
535.54	38291.16
535.71	37813.70
535.88	38094.56
536.05	37912.00
536.22	38466.70
536.38	38665.65
536.55	38202.22
536.72	38373.08
536.89	37806.67
537.06	38263.08
537.23	38628.20
537.40	38471.39
537.57	38462.02
537.74	38539.26
537.91	38728.84
538.08	38485.43
538.25	38616.50
538.42	38677.35
538.59	38635.22
538.75	38401.17
538.92	38682.03
539.09	39129.08
539.26	38955.88
539.43	39002.69
539.60	38969.92
539.77	38630.54
539.94	38836.51
540.11	39070.56
540.28	39072.90
540.44	39161.84
540.61	39264.83
540.78	39229.72
540.95	39400.58
541.12	39374.83
541.29	38904.38
541.46	39377.17
541.62	39248.44
541.79	39306.96
541.96	38822.47
542.13	39203.97
542.30	39470.79
542.47	39374.83
542.63	39777.40
542.80	39814.85
542.97	40034.86
543.14	40179.98
543.31	40055.93
543.48	40133.17
543.64	40435.10
543.81	40170.61
543.98	40493.61
544.15	40198.70
544.32	40601.27
544.48	40563.82
544.65	40488.93
544.82	39969.33
544.99	40430.41
545.16	40942.99
545.32	40575.53
545.49	40526.38
545.66	41013.21
545.83	40664.47
546.00	40917.25
546.16	40425.73
546.33	40545.10
546.50	40016.14
546.67	40479.57
546.83	40095.72
547.00	40931.29
547.17	40634.04
547.34	41111.51
547.50	40809.58
547.67	41006.19
547.84	40863.41
548.00	41069.38
548.17	41677.92
548.34	41256.62
548.51	41572.60
548.67	41439.18
548.84	41357.27
549.01	40685.53
549.18	41167.68
549.34	41261.30
549.51	41031.93
549.68	41434.50
549.84	41605.36
550.01	41483.66
550.18	41116.19
550.34	41794.95
550.51	41521.10
550.68	41790.27
550.84	41326.84
551.01	41659.20
551.18	41586.64
551.34	41694.30
551.51	41759.84
551.68	41947.08
551.84	41621.75
552.01	41748.14
552.18	41750.48
552.34	42089.85
552.51	41890.91
552.68	41537.49
552.84	42075.81
553.01	42183.48
553.18	42047.72
553.34	42026.66
553.51	41869.84
553.67	41881.55
553.84	42330.93
554.01	42106.24
554.17	42443.27
554.34	42099.22
554.51	42607.11
554.67	42714.78
554.84	42422.21
555.00	42263.05
555.17	42590.73
555.33	42478.38
555.50	42391.78
555.67	42574.34
555.83	42452.64
556.00	42651.58
556.16	43122.03
556.33	42560.30
556.50	42808.40
556.66	42532.22
556.83	42576.69
556.99	43075.22
557.16	42674.99
557.32	42885.64
557.49	42944.15
557.65	42536.90
557.82	42632.86
557.98	42946.49
558.15	42822.44
558.32	43192.25
558.48	42586.05
558.65	42731.16
558.81	42906.70
558.98	42564.98
559.14	43082.24
559.31	42644.56
559.47	43093.94
559.64	42951.17
559.80	43239.06
559.97	43447.36
560.13	42644.56
560.30	43058.84
560.46	43098.62
560.63	43082.24
560.79	43278.85
560.96	43316.29
561.12	43487.15
561.29	43037.77
561.45	43157.14
561.61	42864.57
561.78	42997.98
561.94	43152.46
562.11	43342.04
562.27	43171.18
562.44	43220.33
562.60	43519.92
562.77	43508.22
562.93	43416.94
563.10	43793.76
563.26	42719.46
563.42	43555.03
563.59	43480.13
563.75	42941.81
563.92	43690.78
564.08	43732.91
564.24	43552.69
564.41	43227.35
564.57	43777.38
564.74	43370.13
564.90	43281.19
565.07	43391.19
565.23	43597.16
565.39	43489.49
565.56	43948.24
565.72	43234.38
565.88	43665.03
566.05	43508.22
566.21	43409.92
566.38	43398.21
566.54	43887.39
566.70	43845.26
566.87	44315.70
567.03	43473.11
567.19	44135.48
567.36	43814.83
567.52	43821.85
567.68	44161.23
567.85	43674.40
568.01	43943.56
568.17	43655.67
568.34	43632.27
568.50	43435.66
568.66	43489.49
568.83	44053.56
568.99	43573.75
569.15	43688.44
569.32	43519.92
569.48	43892.07
569.64	43882.70
569.81	44069.95
569.97	43962.28
570.13	43915.47
570.30	44062.93
570.46	43611.20
570.62	43236.72
570.78	43831.21
570.95	43653.33
571.11	44601.25
571.27	43613.54
571.43	43452.05
571.60	43615.88
571.76	43786.74
571.92	43842.92
572.09	43901.43
572.25	43952.92
572.41	43672.06
572.57	43789.08
572.74	44079.31
572.90	43990.37
573.06	44011.43
573.22	44257.19
573.38	44053.56
573.55	43643.97
573.71	44095.69
573.87	43716.53
574.03	43700.14
574.20	43938.88
574.36	43763.34
574.52	44004.41
574.68	44203.36
574.84	43765.68
575.01	44027.82
575.17	43662.69
575.33	43519.92
575.49	43683.76
575.65	44362.51
575.82	44395.28
575.98	43552.69
576.14	44205.70
576.30	43871.00
576.46	43952.92
576.62	43959.94
576.79	44320.38
576.95	43999.73
577.11	43531.62
577.27	43835.89
577.43	44044.20
577.59	43601.84
577.75	44009.09
577.92	43957.60
578.08	43922.49
578.24	43650.99
578.40	43562.05
578.56	43768.02
578.72	44231.44
578.88	44507.63
579.04	44369.54
579.21	43896.75
579.37	44179.95
579.53	43959.94
579.69	43742.27
579.85	43973.98
580.01	43964.62
580.17	44091.01
580.33	44404.64
580.49	44460.82
580.65	44463.16
580.82	44243.15
580.98	44364.85
581.14	43964.62
581.30	44430.39
581.46	44357.83
581.62	43934.20
581.78	43995.05
581.94	44479.54
582.10	43894.41
582.26	44456.14
582.42	44067.61
582.58	44076.97
582.74	44168.25
582.90	44137.82
583.06	44304.00
583.22	44083.99
583.38	44584.86
583.54	44404.64
583.70	44222.08
583.86	44004.41
584.02	43393.53
584.18	44491.24
584.34	44409.32
584.50	44095.69
584.66	44027.82
584.82	44065.27
584.98	44217.40
585.14	44226.76
585.30	44189.31
585.46	44364.85
585.62	44577.84
585.78	44149.53
585.94	43917.81
586.10	44266.55
586.26	44168.25
586.42	44191.65
586.58	44257.19
586.74	44107.40
586.90	43894.41
587.06	44299.32
587.22	44402.30
587.38	44285.28
587.54	44786.15
587.70	44472.52
587.86	44135.48
588.02	44215.06
588.18	44334.43
588.34	44381.24
588.49	43847.60
588.65	43889.73
588.81	43924.83
588.97	44091.01
589.13	44004.41
589.29	44350.81
589.45	44198.68
589.61	44622.31
589.77	44701.89
589.93	44814.24
590.08	44449.11
590.24	44772.11
590.40	44697.21
