SpectraSuite Data File
++++++++++++++++++++++++++++++++++++
Date: Fri Oct 25 10:44:45 EDT 2013
User: price-jones
Dark Spectrum Present: No
Reference Spectrum Present: No
Number of Sampled Component Spectra: 1
Spectrometers: USB2+H05261
Integration Time (usec): 100000 (USB2+H05261)
Spectra Averaged: 1 (USB2+H05261)
Boxcar Smoothing: 0 (USB2+H05261)
Correct for Electrical Dark: No (USB2+H05261)
Strobe/Lamp Enabled: No (USB2+H05261)
Correct for Detector Non-linearity: No (USB2+H05261)
Correct for Stray Light: No (USB2+H05261)
Number of Pixels in Processed Spectrum: 2048
>>>>>Begin Processed Spectral Data<<<<<
365.73	140.43
365.92	140.43
366.12	140.43
366.32	30.43
366.52	35.11
366.72	79.58
366.91	2.34
367.11	79.58
367.31	0.00
367.51	35.11
367.70	0.00
367.90	44.47
368.10	133.41
368.30	49.15
368.49	30.43
368.69	49.15
368.89	25.75
369.09	112.35
369.28	44.47
369.48	105.32
369.68	60.85
369.87	196.60
370.07	102.98
370.27	173.20
370.47	161.50
370.66	355.76
370.86	346.40
371.06	386.19
371.25	379.17
371.45	449.38
371.65	475.13
371.84	538.32
372.04	458.74
372.24	451.72
372.44	451.72
372.63	505.56
372.83	486.83
373.03	514.92
373.22	505.56
373.42	519.60
373.62	592.16
373.81	580.45
374.01	550.03
374.21	571.09
374.40	564.07
374.60	603.86
374.79	638.97
374.99	571.09
375.19	589.82
375.38	613.22
375.58	561.73
375.78	484.49
375.97	599.18
376.17	617.90
376.37	599.18
376.56	566.41
376.76	587.47
376.95	557.05
377.15	571.09
377.35	608.54
377.54	617.90
377.74	552.37
377.93	615.56
378.13	631.94
378.33	660.03
378.52	592.16
378.72	638.97
378.91	596.84
379.11	606.20
379.31	653.01
379.50	575.77
379.70	678.76
379.89	613.22
380.09	608.54
380.28	613.22
380.48	702.16
380.68	624.92
380.87	681.10
381.07	599.18
381.26	589.82
381.46	720.88
381.65	671.73
381.85	606.20
382.04	629.60
382.24	645.99
382.43	608.54
382.63	683.44
382.83	734.93
383.02	667.05
383.22	725.57
383.41	669.39
383.61	727.91
383.80	781.74
384.00	645.99
384.19	744.29
384.39	725.57
384.58	819.19
384.78	781.74
384.97	676.41
385.17	734.93
385.36	671.73
385.56	709.18
385.75	821.53
385.95	779.40
386.14	819.19
386.34	671.73
386.53	767.70
386.72	758.33
386.92	767.70
387.11	809.83
387.31	828.55
387.50	863.66
387.70	786.42
387.89	795.78
388.09	858.98
388.28	889.40
388.48	837.91
388.67	828.55
388.86	901.11
389.06	922.17
389.25	856.64
389.45	954.94
389.64	929.19
389.84	880.04
390.03	880.04
390.22	912.81
390.42	887.06
390.61	912.81
390.81	952.60
391.00	933.87
391.19	1067.28
391.39	933.87
391.58	961.96
391.78	952.60
391.97	983.02
392.16	908.13
392.36	1032.18
392.55	931.53
392.75	1006.43
392.94	896.43
393.13	924.51
393.33	1020.47
393.52	1018.13
393.71	999.41
393.91	1076.65
394.10	964.30
394.29	1067.28
394.49	1048.56
394.68	1074.31
394.88	1137.50
395.07	1102.39
395.26	1100.05
395.46	1153.88
395.65	1179.63
395.84	1107.07
396.04	1116.44
396.23	1114.10
396.42	1118.78
396.62	1160.91
396.81	1088.35
397.00	1219.42
397.19	1165.59
397.39	1224.10
397.58	1247.51
397.77	1291.98
397.97	1287.29
398.16	1261.55
398.35	1306.02
398.55	1299.00
398.74	1320.06
398.93	1364.53
399.12	1345.81
399.32	1336.45
399.51	1334.11
399.70	1460.49
399.90	1310.70
400.09	1469.86
400.28	1439.43
400.47	1409.00
400.67	1469.86
400.86	1416.02
401.05	1497.94
401.24	1493.26
401.44	1481.56
401.63	1526.03
401.82	1572.84
402.01	1631.35
402.21	1493.26
402.40	1633.69
402.59	1547.09
402.78	1563.48
402.97	1607.95
403.17	1694.55
403.36	1561.14
403.55	1652.42
403.74	1694.55
403.93	1629.01
404.13	1607.95
404.32	1755.40
404.51	1612.63
404.70	1689.87
404.89	1701.57
405.09	1781.15
405.28	1764.76
405.47	1680.50
405.66	1755.40
405.85	1858.39
406.05	1753.06
406.24	1795.19
406.43	1804.55
406.62	1877.11
406.81	1923.92
407.00	1774.13
407.20	1837.32
407.39	1977.75
407.58	2012.86
407.77	1963.71
407.96	2052.65
408.15	1975.41
408.34	2057.33
408.54	2003.50
408.73	1975.41
408.92	1973.07
409.11	2047.97
409.30	2057.33
409.49	2026.90
409.68	2087.76
409.87	2118.18
410.07	2174.36
410.26	2129.89
410.45	2167.34
410.64	2183.72
410.83	2216.49
411.02	2167.34
411.21	2307.77
411.40	2373.30
411.59	2319.47
411.78	2363.94
411.98	2258.62
412.17	2382.67
412.36	2394.37
412.55	2399.05
412.74	2492.67
412.93	2523.10
413.12	2445.86
413.31	2511.39
413.50	2462.24
413.69	2602.68
413.88	2602.68
414.07	2605.02
414.26	2693.96
414.45	2609.70
414.64	2761.83
414.83	2836.73
415.02	2825.03
415.22	2836.73
415.41	2799.28
415.60	2855.45
415.79	2775.88
415.98	2939.71
416.17	2946.73
416.36	2909.29
416.55	2932.69
416.74	2897.58
416.93	2801.62
417.12	2963.12
417.31	3030.99
417.50	2925.67
417.69	2993.55
417.88	3150.36
418.07	3056.74
418.26	3248.66
418.45	3073.12
418.64	3194.83
418.83	3206.53
419.02	3187.81
419.21	3286.11
419.39	3342.28
419.58	3152.70
419.77	3279.09
419.96	3248.66
420.15	3384.41
420.34	3379.73
420.53	3353.99
420.72	3475.70
420.91	3496.76
421.10	3431.23
421.29	3550.59
421.48	3410.16
421.67	3534.21
421.86	3559.95
422.05	3468.67
422.24	3370.37
422.43	3508.46
422.61	3562.30
422.80	3473.36
422.99	3583.36
423.18	3375.05
423.37	3599.74
423.56	3471.01
423.75	3655.92
423.94	3461.65
424.13	3400.80
424.32	3480.38
424.50	3623.15
424.69	3695.71
424.88	3623.15
425.07	3585.70
425.26	3510.80
425.45	3684.00
425.64	3730.81
425.83	3595.06
426.01	3676.98
426.20	3714.43
426.39	3660.60
426.58	3810.39
426.77	3571.66
426.96	3742.52
427.15	3662.94
427.33	3707.41
427.52	3684.00
427.71	3735.50
427.90	3726.13
428.09	3850.18
428.28	3782.31
428.46	3932.10
428.65	3852.52
428.84	3847.84
429.03	3957.85
429.22	3700.39
429.40	3861.88
429.59	3838.48
429.78	3672.30
429.97	3606.77
430.16	3840.82
430.34	3915.72
430.53	3960.19
430.72	3936.78
430.91	3988.27
431.10	3885.29
431.28	4205.94
431.47	4180.20
431.66	4315.95
431.85	4245.73
432.03	4198.92
432.22	4306.59
432.41	4191.90
432.60	4365.10
432.79	4236.37
432.97	4440.00
433.16	4147.43
433.35	4191.90
433.54	4217.65
433.72	4348.72
433.91	4278.50
434.10	4381.48
434.28	4318.29
434.47	4428.29
434.66	4493.83
434.85	4538.30
435.03	4660.01
435.22	4533.62
435.41	4613.20
435.59	4620.22
435.78	4704.48
435.97	4699.80
436.16	4645.96
436.34	4650.64
436.53	4610.86
436.72	4681.07
436.90	4622.56
437.09	4858.95
437.28	4634.26
437.46	4770.01
437.65	4732.56
437.84	4753.63
438.02	4638.94
438.21	4755.97
438.40	4613.20
438.58	4884.70
438.77	5001.72
438.96	5043.85
439.14	5116.41
439.33	5118.75
439.52	5109.39
439.70	5226.42
439.89	5315.36
440.08	5104.71
440.26	5210.03
440.45	5144.50
440.63	5336.42
440.82	5579.84
441.01	5420.68
441.19	5430.04
441.38	5659.42
441.57	5636.01
441.75	5533.03
441.94	5802.19
442.12	5788.14
442.31	5701.54
442.50	5771.76
442.68	5724.95
442.87	5715.59
443.05	5776.44
443.24	5895.81
443.43	5795.17
443.61	6080.71
443.80	5954.32
443.98	5720.27
444.17	5504.94
444.35	5959.00
444.54	6029.22
444.73	5804.53
444.91	5886.45
445.10	5902.83
445.28	5853.68
445.47	5640.69
445.65	5977.73
445.84	5893.47
446.02	6083.05
446.21	6008.16
446.39	5998.79
446.58	6162.63
446.77	6167.31
446.95	5961.34
447.14	5937.94
447.32	6230.51
447.51	5977.73
447.69	5989.43
447.88	6038.58
448.06	6200.08
448.25	5900.49
448.43	6211.78
448.62	6148.59
448.80	6155.61
448.99	6017.52
449.17	6410.73
449.36	6122.84
449.54	6270.30
449.73	6537.12
449.91	6504.35
450.10	6478.60
450.28	6593.29
450.46	6581.59
450.65	6499.67
450.83	6619.04
451.02	6569.88
451.20	6616.69
451.39	6438.81
451.57	6530.09
451.76	6509.03
451.94	6665.85
452.13	6593.29
452.31	6569.88
452.49	6427.11
452.68	6480.94
452.86	6588.61
453.05	6640.10
453.23	6719.68
453.42	6649.46
453.60	6637.76
453.78	6885.86
453.97	6628.40
454.15	6843.73
454.34	6670.53
454.52	6825.00
454.70	6773.51
454.89	6782.87
455.07	6942.03
455.26	6949.05
455.44	7119.91
455.62	7000.54
455.81	7094.16
455.99	6979.48
456.17	6942.03
456.36	7143.32
456.54	7265.02
456.73	7218.21
456.91	7307.15
457.09	7375.03
457.28	7634.83
457.46	7258.00
457.64	7475.67
457.83	7274.38
458.01	7260.34
458.19	7672.28
458.38	7508.44
458.56	7604.40
458.74	7543.55
458.93	7438.22
459.11	7463.97
459.29	7466.31
459.48	7499.08
459.66	7637.17
459.84	7712.07
460.03	7651.21
460.21	7847.82
460.39	7784.62
460.57	7903.99
460.76	7733.13
460.94	8009.31
461.12	7964.84
461.31	7660.57
461.49	7913.35
461.67	7829.09
461.85	8074.85
462.04	8084.21
462.22	8124.00
462.40	8037.40
462.59	8088.89
462.77	8154.43
462.95	8222.30
463.13	8049.10
463.32	8035.06
463.50	8348.69
463.68	8248.05
463.86	8308.90
464.05	8037.40
464.23	8229.32
464.41	8386.14
464.59	8121.66
464.78	8369.76
464.96	8229.32
465.14	8271.45
465.32	8451.67
465.50	8655.30
465.69	8659.98
465.87	8468.06
466.05	8493.80
466.23	8512.53
466.41	8439.97
466.60	8777.01
466.78	8519.55
466.96	8271.45
467.14	8491.46
467.32	8601.47
467.51	8716.16
467.69	8451.67
467.87	8730.20
468.05	8615.51
468.23	8725.52
468.41	8514.87
468.60	8669.34
468.78	8896.38
468.96	8704.45
469.14	8854.25
469.32	9097.66
469.50	8678.71
469.69	8987.66
469.87	9039.15
470.05	9078.94
470.23	8847.22
470.41	8954.89
470.59	9149.15
470.77	9181.92
470.95	9102.34
471.14	9308.31
471.32	9132.77
471.50	9486.19
471.68	9525.98
471.86	9275.54
472.04	9561.09
472.22	9626.62
472.40	9460.45
472.58	9397.25
472.77	9544.70
472.95	9673.43
473.13	9944.94
473.31	9453.42
473.49	9781.10
473.67	9741.31
473.85	9708.54
474.03	10005.79
474.21	10015.15
474.39	10305.38
474.57	10171.97
474.75	10186.01
474.93	10214.10
475.12	10265.59
475.30	10375.59
475.48	10401.34
475.66	10335.81
475.84	10384.96
476.02	10583.90
476.20	10413.04
476.38	10686.89
476.56	10885.83
476.74	10899.87
476.92	10867.11
477.10	10885.83
477.28	11129.25
477.46	11239.25
477.64	11164.36
477.82	11625.44
478.00	11580.97
478.18	11719.06
478.36	11538.84
478.54	11604.38
478.72	11712.04
478.90	11798.64
479.08	11974.18
479.26	11974.18
479.44	12210.57
479.62	12081.85
479.80	12152.06
479.98	12093.55
480.16	12276.11
480.34	12465.69
480.52	12699.75
480.70	12566.34
480.88	12870.61
481.06	12397.82
481.24	13172.54
481.41	12868.27
481.59	13308.29
481.77	13427.65
481.95	13167.85
482.13	13507.23
482.31	13404.25
482.49	13748.31
482.67	13844.27
482.85	13774.05
483.03	13855.97
483.21	14307.69
483.39	14057.26
483.57	14333.44
483.74	14197.69
483.92	14363.87
484.10	14445.79
484.28	14457.49
484.46	15115.18
484.64	15140.93
484.82	14733.67
485.00	15082.41
485.18	15180.71
485.35	15286.04
485.53	15136.24
485.71	15152.63
485.89	15414.77
486.07	15241.57
486.25	15899.26
486.43	15765.85
486.61	15868.83
486.78	16004.58
486.96	16053.73
487.14	16439.92
487.32	16355.66
487.50	16493.76
487.68	16570.99
487.85	17060.16
488.03	17142.08
488.21	17083.57
488.39	17200.60
488.57	17497.84
488.75	17563.38
488.92	17582.10
489.10	18080.64
489.28	18139.15
489.46	17909.78
489.64	18015.10
489.81	18675.13
489.99	18513.64
490.17	18834.29
490.35	18944.30
490.53	18892.80
490.70	19159.63
490.88	18782.80
491.06	19084.73
491.24	19351.55
491.41	19154.94
491.59	19475.60
491.77	19515.39
491.95	19426.45
492.13	19807.95
492.30	19688.59
492.48	20037.33
492.66	20133.29
492.84	19962.43
493.01	20453.94
493.19	20622.46
493.37	20673.95
493.54	20727.78
493.72	20893.96
493.90	20854.17
494.08	21308.24
494.25	21380.79
494.43	21333.98
494.61	21912.10
494.79	21696.77
494.96	21481.44
495.14	21596.12
495.32	21745.92
495.49	21851.24
495.67	21958.91
495.85	22347.44
496.02	22677.45
496.20	22618.94
496.38	22473.82
496.55	22707.88
496.73	23147.90
496.91	23349.18
497.09	23133.86
497.26	23257.90
497.44	23173.64
497.62	23592.60
497.79	23936.66
497.97	23473.23
498.14	23805.59
498.32	24018.58
498.50	23850.06
498.67	24189.44
498.85	24105.18
499.03	24414.13
499.20	24329.87
499.38	24332.21
499.56	24886.92
499.73	24514.77
499.91	24510.09
500.08	24917.34
500.26	24491.37
500.44	24802.66
500.61	24929.05
500.79	24755.85
500.97	25001.60
501.14	25340.98
501.32	25443.96
501.49	25373.75
501.67	25160.76
501.84	25605.46
502.02	25867.60
502.20	25769.30
502.37	26045.48
502.55	25605.46
502.72	26228.04
502.90	26167.19
503.07	26185.91
503.25	26157.83
503.43	26263.15
503.60	26214.00
503.78	26064.21
503.95	26565.08
504.13	26625.93
504.30	26731.26
504.48	26998.08
504.65	27065.96
504.83	26824.88
505.01	27353.84
505.18	27185.32
505.36	27037.87
505.53	27360.86
505.71	27800.88
505.88	27407.67
506.06	27377.25
506.23	27854.72
506.41	27550.45
506.58	27707.26
506.76	27826.63
506.93	28259.63
507.11	27618.32
507.28	28191.75
507.46	28030.26
507.63	28402.40
507.81	28570.92
507.98	28077.07
508.16	28521.77
508.33	28725.39
508.50	28734.76
508.68	28528.79
508.85	29088.18
509.03	29153.71
509.20	28645.82
509.38	29106.90
509.55	29287.12
509.73	29312.87
509.90	29436.92
510.08	29230.95
510.25	29088.18
510.42	29626.50
510.60	29612.46
510.77	29776.30
510.95	30052.48
511.12	29893.32
511.30	30017.37
511.47	30162.48
511.64	30384.83
511.82	30576.76
511.99	30668.04
512.17	30436.33
512.34	30419.94
512.51	30611.87
512.69	30771.02
512.86	30623.57
513.04	31077.63
513.21	30899.75
513.38	31005.08
513.56	30902.09
513.73	30813.15
513.90	31400.63
514.08	31103.38
514.25	31115.08
514.43	31484.89
514.60	31180.62
514.77	31585.53
514.95	31505.95
515.12	31346.79
515.29	31482.55
515.47	32027.89
515.64	32133.21
515.81	31833.63
515.99	31625.32
516.16	32004.49
516.33	31571.49
516.51	31807.88
516.68	31585.53
516.85	31697.88
517.03	31803.20
517.20	32123.85
517.37	32002.14
517.54	32378.97
517.72	31850.01
517.89	31960.02
518.06	32500.68
518.24	32147.26
518.41	32163.64
518.58	32643.45
518.75	32570.90
518.93	33078.79
519.10	32671.54
519.27	33001.55
519.45	33139.65
519.62	33284.76
519.79	33277.74
519.96	33598.39
520.14	33626.48
520.31	33041.34
520.48	33762.23
520.65	33717.76
520.83	34005.64
521.00	33502.43
521.17	34417.58
521.34	33886.28
521.52	33762.23
521.69	34033.73
521.86	34197.57
522.03	34363.75
522.20	34466.73
522.38	34457.37
522.55	34345.02
522.72	34223.31
522.89	34403.53
523.07	34333.32
523.24	34197.57
523.41	34780.36
523.58	34581.42
523.75	35276.55
523.92	35370.18
524.10	34944.20
524.27	35222.72
524.44	35330.39
524.61	35501.25
524.78	35363.15
524.96	35744.66
525.13	35646.36
525.30	35447.41
525.47	35864.03
525.64	35461.46
525.81	35330.39
525.98	35391.24
526.16	35393.58
526.33	35597.21
526.50	35576.14
526.67	35768.07
526.84	35648.70
527.01	35721.26
527.18	35718.92
527.36	36205.75
527.53	36339.16
527.70	36456.18
527.87	36601.30
528.04	36411.71
528.21	36718.32
528.38	36718.32
528.55	37186.43
528.72	36357.88
528.89	36395.33
529.07	36673.85
529.24	36577.89
529.41	37076.43
529.58	36650.45
529.75	36554.49
529.92	36858.76
530.09	36884.50
530.26	37050.68
530.43	37235.58
530.60	36926.63
530.77	36783.86
530.94	37380.70
531.11	37013.23
531.28	37486.02
531.46	37062.38
531.63	37167.71
531.80	37656.88
531.97	37471.98
532.14	37294.10
532.31	37373.67
532.48	37394.74
532.65	37727.10
532.82	37584.32
532.99	37624.11
533.16	37607.73
533.33	37865.19
533.50	38288.82
533.67	38199.88
533.84	37937.74
534.01	38096.90
534.18	37844.12
534.35	38625.86
534.52	38047.75
534.69	38195.20
534.86	38408.19
535.03	38429.26
535.20	38705.44
535.37	38827.15
535.54	38918.43
535.71	38309.89
535.88	38859.91
536.05	38546.28
536.22	38693.74
536.38	38614.16
536.55	38452.66
536.72	38682.03
536.89	38490.11
537.06	38747.57
537.23	38794.38
537.40	38859.91
537.57	39117.37
537.74	38740.55
537.91	39419.30
538.08	39477.82
538.25	39037.80
538.42	39232.06
538.59	39255.46
538.75	39360.79
538.92	39225.04
539.09	39585.48
539.26	39482.50
539.43	39571.44
539.60	39213.34
539.77	39379.51
539.94	39587.82
540.11	39033.11
540.28	39683.78
540.44	39611.23
540.61	39686.12
540.78	39290.57
540.95	39749.32
541.12	39639.31
541.29	39821.87
541.46	39981.03
541.62	39709.53
541.79	40128.48
541.96	39746.98
542.13	39660.38
542.30	39835.92
542.47	40346.15
542.63	40194.02
542.80	40226.79
542.97	40320.41
543.14	40673.83
543.31	40655.11
543.48	40500.63
543.64	41312.80
543.81	40786.18
543.98	41251.94
544.15	40875.12
544.32	40788.52
544.48	41361.95
544.65	41008.53
544.82	41174.70
544.99	40779.15
545.16	41163.00
545.32	40788.52
545.49	41368.97
545.66	41579.62
545.83	41490.68
546.00	41628.77
546.16	40992.14
546.33	41329.18
546.50	40818.94
546.67	41151.30
546.83	40364.88
547.00	41275.35
547.17	41237.90
547.34	41404.08
547.50	41418.12
547.67	41970.49
547.84	41221.52
548.00	42000.91
548.17	41745.80
548.34	41958.78
548.51	41736.43
548.67	41965.81
548.84	41654.51
549.01	42010.28
549.18	41684.94
549.34	41783.24
549.51	42459.66
549.68	41968.15
549.84	42010.28
550.01	42190.50
550.18	41649.83
550.34	41900.27
550.51	42483.06
550.68	42464.34
550.84	41668.56
551.01	42043.04
551.18	42305.18
551.34	42036.02
551.51	42209.22
551.68	42492.43
551.84	42611.79
552.01	42293.48
552.18	42761.59
552.34	42323.91
552.51	42419.87
552.68	42204.54
552.84	42883.30
553.01	42616.47
553.18	42429.23
553.34	42782.65
553.51	42066.45
553.67	42539.24
553.84	42738.18
554.01	42703.07
554.17	43203.95
554.34	42705.41
554.51	42628.18
554.67	43337.36
554.84	42831.80
555.00	42749.88
555.17	42820.10
555.33	42906.70
555.50	42735.84
555.67	43414.60
555.83	43126.71
556.00	42972.24
556.16	43615.88
556.33	42866.91
556.50	42656.26
556.66	43482.47
556.83	42974.58
556.99	43077.56
557.16	43402.89
557.32	43213.31
557.49	43477.79
557.65	43159.48
557.82	43030.75
557.98	43313.95
558.15	43356.08
558.32	43533.96
558.48	43255.44
558.65	43178.20
558.81	43426.30
558.98	43320.98
559.14	43089.26
559.31	43559.71
559.47	43540.99
559.64	44247.83
559.80	43686.10
559.97	43489.49
560.13	43173.52
560.30	43419.28
560.46	43419.28
560.63	43796.10
560.79	43728.23
560.96	44205.70
561.12	43510.56
561.29	43672.06
561.45	43866.32
561.61	43632.27
561.78	43660.35
561.94	43955.26
562.11	43358.42
562.27	43927.17
562.44	43482.47
562.60	44318.04
562.77	44105.06
562.93	44102.71
563.10	43641.63
563.26	43784.40
563.42	43817.17
563.59	43611.20
563.75	43828.87
563.92	44779.13
564.08	43999.73
564.24	44002.07
564.41	43878.02
564.57	44016.11
564.74	43718.87
564.90	43981.01
565.07	44458.48
565.23	44367.20
565.39	43920.15
565.56	44142.50
565.72	43906.11
565.88	44151.87
566.05	43761.00
566.21	43859.30
566.38	43880.36
566.54	44233.78
566.70	44252.51
566.87	44465.50
567.03	44481.88
567.19	44746.36
567.36	44205.70
567.52	44313.36
567.68	44158.89
567.85	44191.65
568.01	44247.83
568.17	44201.02
568.34	44348.47
568.50	44474.86
568.66	44236.12
568.83	44421.03
568.99	44018.46
569.15	44081.65
569.32	43852.28
569.48	43913.13
569.64	44582.52
569.81	44414.01
569.97	44112.08
570.13	44549.76
570.30	44102.71
570.46	43955.26
570.62	44350.81
570.78	44083.99
570.95	43892.07
571.11	44535.71
571.27	44058.24
571.43	44275.91
571.60	44308.68
571.76	44196.34
571.92	44236.12
572.09	44257.19
572.25	44463.16
572.41	43981.01
572.57	44706.57
572.74	44893.82
572.90	43962.28
573.06	44037.18
573.22	44301.66
573.38	44308.68
573.55	44332.09
573.71	44294.64
573.87	44465.50
574.03	44516.99
574.20	44807.22
574.36	44350.81
574.52	44879.77
574.68	44758.06
574.84	44634.02
575.01	44383.58
575.17	44311.02
575.33	44210.38
575.49	44215.06
575.65	44711.25
575.82	44837.64
575.98	44713.59
576.14	44334.43
576.30	44531.03
576.46	44343.79
576.62	44486.56
576.79	44715.93
576.95	44294.64
577.11	44549.76
577.27	44870.41
577.43	44842.32
577.59	44568.48
577.75	44463.16
577.92	44535.71
578.08	44058.24
578.24	44296.98
578.40	44605.93
578.56	44449.11
578.72	44016.11
578.88	44399.96
579.04	44481.88
579.21	44306.34
579.37	44414.01
579.53	44753.38
579.69	44470.18
579.85	44208.04
580.01	44554.44
580.17	44215.06
580.33	44615.29
580.49	44781.47
580.65	44940.63
580.82	44643.38
580.98	44498.26
581.14	44498.26
581.30	45064.67
581.46	44715.93
581.62	44477.20
581.78	44713.59
581.94	44949.99
582.10	44425.71
582.26	44641.04
582.42	44315.70
582.58	44816.58
582.74	44353.15
582.90	44704.23
583.06	44839.98
583.22	44844.66
583.38	45254.26
583.54	44666.78
583.70	44755.72
583.86	44622.31
584.02	44336.77
584.18	44767.43
584.34	44893.82
584.50	44364.85
584.66	44589.55
584.82	44435.07
584.98	44837.64
585.14	45123.19
585.30	44683.17
585.46	44706.57
585.62	44421.03
585.78	44662.10
585.94	44516.99
586.10	44755.72
586.26	44631.68
586.42	44495.92
586.58	44928.92
586.74	44732.32
586.90	44552.10
587.06	44442.09
587.22	44472.52
587.38	44610.61
587.54	45146.59
587.70	44694.87
587.86	44732.32
588.02	44641.04
588.18	44594.23
588.34	44451.45
588.49	44444.43
588.65	44502.95
588.81	44545.08
588.97	44547.42
589.13	44371.88
589.29	44444.43
589.45	44516.99
589.61	44893.82
589.77	45048.29
589.93	44865.73
590.08	44980.42
590.24	44804.88
