SpectraSuite Data File
++++++++++++++++++++++++++++++++++++
Date: Fri Oct 25 11:25:58 EDT 2013
User: price-jones
Dark Spectrum Present: No
Reference Spectrum Present: No
Number of Sampled Component Spectra: 1
Spectrometers: USB2+H05261
Integration Time (usec): 100000 (USB2+H05261)
Spectra Averaged: 1 (USB2+H05261)
Boxcar Smoothing: 0 (USB2+H05261)
Correct for Electrical Dark: No (USB2+H05261)
Strobe/Lamp Enabled: No (USB2+H05261)
Correct for Detector Non-linearity: No (USB2+H05261)
Correct for Stray Light: No (USB2+H05261)
Number of Pixels in Processed Spectrum: 2048
>>>>>Begin Processed Spectral Data<<<<<
365.73	229.37
365.92	229.37
366.12	229.37
366.32	269.16
366.52	149.79
366.72	210.65
366.91	133.41
367.11	51.49
367.31	79.58
367.51	117.03
367.70	184.90
367.90	128.73
368.10	184.90
368.30	180.22
368.49	147.45
368.69	131.07
368.89	184.90
369.09	173.20
369.28	154.48
369.48	198.95
369.68	231.71
369.87	271.50
370.07	182.56
370.27	248.10
370.47	320.65
370.66	638.97
370.86	603.86
371.06	678.76
371.25	676.41
371.45	725.57
371.65	648.33
371.84	613.22
372.04	653.01
372.24	760.67
372.44	669.39
372.63	819.19
372.83	716.20
373.03	748.97
373.22	681.10
373.42	800.46
373.62	784.08
373.81	758.33
374.01	784.08
374.21	868.34
374.40	856.64
374.60	800.46
374.79	704.50
374.99	814.51
375.19	866.00
375.38	826.21
375.58	891.74
375.78	884.72
375.97	880.04
376.17	1041.54
376.37	854.30
376.56	833.23
376.76	812.17
376.95	840.25
377.15	896.43
377.35	880.04
377.54	882.38
377.74	968.98
377.93	922.17
378.13	891.74
378.33	880.04
378.52	919.83
378.72	961.96
378.91	994.73
379.11	983.02
379.31	938.55
379.50	922.17
379.70	978.34
379.89	1048.56
380.09	952.60
380.28	957.28
380.48	959.62
380.68	985.37
380.87	898.77
381.07	1050.90
381.26	1039.20
381.46	968.98
381.65	1050.90
381.85	1067.28
382.04	1078.99
382.24	999.41
382.43	1088.35
382.63	1123.46
382.83	1132.82
383.02	1158.57
383.22	1203.04
383.41	1062.60
383.61	1128.14
383.80	1086.01
384.00	1062.60
384.19	1142.18
384.39	1116.44
384.58	1100.05
384.78	1121.12
384.97	1163.25
385.17	1151.54
385.36	1210.06
385.56	1123.46
385.75	1181.97
385.95	1193.67
386.14	1320.06
386.34	1238.14
386.53	1245.16
386.72	1235.80
386.92	1266.23
387.11	1280.27
387.31	1266.23
387.50	1366.87
387.70	1270.91
387.89	1254.53
388.09	1224.10
388.28	1259.21
388.48	1294.32
388.67	1266.23
388.86	1273.25
389.06	1310.70
389.25	1233.46
389.45	1291.98
389.64	1352.83
389.84	1462.83
390.03	1401.98
390.22	1423.05
390.42	1476.88
390.61	1427.73
390.81	1355.17
391.00	1350.49
391.19	1383.26
391.39	1483.90
391.58	1416.02
391.78	1488.58
391.97	1533.05
392.16	1416.02
392.36	1490.92
392.55	1511.99
392.75	1511.99
392.94	1486.24
393.13	1542.41
393.33	1554.12
393.52	1483.90
393.71	1558.80
393.91	1504.96
394.10	1528.37
394.29	1659.44
394.49	1626.67
394.68	1638.38
394.88	1605.61
395.07	1708.59
395.26	1624.33
395.46	1717.95
395.65	1753.06
395.84	1671.14
396.04	1701.57
396.23	1774.13
396.42	1708.59
396.62	1804.55
396.81	1673.48
397.00	1799.87
397.19	1832.64
397.39	1795.19
397.58	1879.45
397.77	1743.70
397.97	1900.52
398.16	1851.36
398.35	1839.66
398.55	1937.96
398.74	1853.70
398.93	1874.77
399.12	1942.64
399.32	1870.09
399.51	1916.90
399.70	2043.29
399.90	1991.80
400.09	1973.07
400.28	2033.93
400.47	2078.40
400.67	2080.74
400.86	1996.48
401.05	2043.29
401.24	2092.44
401.44	2155.63
401.63	2122.87
401.82	2129.89
402.01	2047.97
402.21	2193.08
402.40	2253.94
402.59	2223.51
402.78	2232.87
402.97	2363.94
403.17	2326.49
403.36	2427.14
403.55	2317.13
403.74	2359.26
403.93	2349.90
404.13	2382.67
404.32	2424.80
404.51	2368.62
404.70	2377.98
404.89	2513.74
405.09	2462.24
405.28	2537.14
405.47	2450.54
405.66	2443.52
405.85	2406.07
406.05	2476.29
406.24	2558.21
406.43	2509.05
406.62	2670.55
406.81	2689.28
407.00	2548.84
407.20	2597.99
407.39	2553.52
407.58	2686.94
407.77	2586.29
407.96	2710.34
408.15	2750.13
408.34	2644.81
408.54	2818.00
408.73	2771.19
408.92	2857.79
409.11	2942.05
409.30	2972.48
409.49	2836.73
409.68	2944.39
409.87	2874.18
410.07	3019.29
410.26	2965.46
410.45	2902.26
410.64	2939.71
410.83	3033.33
411.02	3077.80
411.21	3213.56
411.40	3183.13
411.59	3262.71
411.78	3190.15
411.98	3138.66
412.17	3370.37
412.36	3208.87
412.55	3234.62
412.74	3403.14
412.93	3365.69
413.12	3410.16
413.31	3489.74
413.50	3562.30
413.69	3428.88
413.88	3611.45
414.07	3482.72
414.26	3510.80
414.45	3585.70
414.64	3676.98
414.83	3597.40
415.02	3662.94
415.22	3936.78
415.41	3948.48
415.60	3761.24
415.79	3836.14
415.98	3894.65
416.17	3866.56
416.36	3967.21
416.55	3971.89
416.74	3866.56
416.93	4065.51
417.12	4145.09
417.31	4128.70
417.50	4131.05
417.69	4217.65
417.88	4290.20
418.07	4241.05
418.26	4297.22
418.45	4198.92
418.64	4472.76
418.83	4360.42
419.02	4472.76
419.21	4393.19
419.39	4620.22
419.58	4416.59
419.77	4351.06
419.96	4620.22
420.15	4540.64
420.34	4444.68
420.53	4601.49
420.72	4674.05
420.91	4634.26
421.10	4706.82
421.29	4966.62
421.48	4589.79
421.67	4741.93
421.86	4692.77
422.05	4662.35
422.24	4746.61
422.43	4800.44
422.61	4798.10
422.80	4858.95
422.99	4992.36
423.18	4922.15
423.37	4950.23
423.56	4788.74
423.75	4910.44
423.94	4985.34
424.13	4603.83
424.32	4720.86
424.50	4983.00
424.69	5088.32
424.88	5132.79
425.07	4910.44
425.26	4968.96
425.45	5004.07
425.64	4849.59
425.83	4858.95
426.01	5085.98
426.20	4985.34
426.39	5050.88
426.58	5022.79
426.77	4926.83
426.96	5111.73
427.15	4964.28
427.33	5123.43
427.52	5296.63
427.71	5280.25
427.90	5231.10
428.09	5259.18
428.28	5291.95
428.46	5362.17
428.65	5238.12
428.84	5514.30
429.03	5540.05
429.22	5289.61
429.40	5327.06
429.59	5334.08
429.78	5163.22
429.97	5256.84
430.16	5474.51
430.34	5605.58
430.53	5706.23
430.72	5694.52
430.91	5654.73
431.10	5668.78
431.28	5614.95
431.47	5724.95
431.66	5795.17
431.85	5839.64
432.03	5970.71
432.22	5994.11
432.41	6003.47
432.60	6104.12
432.79	5909.85
432.97	6108.80
433.16	6064.33
433.35	6024.54
433.54	6113.48
433.72	6078.37
433.91	5863.04
434.10	6066.67
434.28	6104.12
434.47	6029.22
434.66	6277.32
434.85	6354.55
435.03	6347.53
435.22	6111.14
435.41	6389.66
435.59	6352.21
435.78	6296.04
435.97	6286.68
436.16	6415.41
436.34	6277.32
436.53	6431.79
436.72	6581.59
436.90	6450.52
437.09	6579.25
437.28	6494.99
437.46	6588.61
437.65	6630.74
437.84	6691.59
438.02	6640.10
438.21	6841.39
438.40	6604.99
438.58	7080.12
438.77	7007.56
438.96	6956.07
439.14	7105.87
439.33	7150.34
439.52	7185.44
439.70	7243.96
439.89	7314.17
440.08	7288.43
440.26	7440.56
440.45	7332.90
440.63	7499.08
440.82	7632.49
441.01	7489.71
441.19	7801.01
441.38	7665.25
441.57	7669.94
441.75	7747.17
441.94	7908.67
442.12	7824.41
442.31	7915.69
442.50	8077.19
442.68	8049.10
442.87	7997.61
443.05	8044.42
443.24	7976.55
443.43	8142.72
443.61	8187.19
443.80	8273.79
443.98	7981.23
444.17	7733.13
444.35	8159.11
444.54	8393.16
444.73	8238.69
444.91	8355.71
445.10	8442.31
445.28	8210.60
445.47	8294.86
445.65	8395.50
445.84	8498.49
446.02	8564.02
446.21	8203.58
446.39	8355.71
446.58	8430.61
446.77	8348.69
446.95	8327.63
447.14	8311.24
447.32	8484.44
447.51	8594.45
447.69	8290.18
447.88	8599.13
448.06	8397.84
448.25	8662.32
448.43	8545.30
448.62	8559.34
448.80	8631.90
448.99	8641.26
449.17	8615.51
449.36	8716.16
449.54	9125.75
449.73	8994.68
449.91	8987.66
450.10	8833.18
450.28	8945.53
450.46	8973.61
450.65	9001.70
450.83	8994.68
451.02	9118.73
451.20	8990.00
451.39	9144.47
451.57	8973.61
451.76	8959.57
451.94	9097.66
452.13	9261.50
452.31	9275.54
452.49	9167.88
452.68	9345.76
452.86	9404.27
453.05	9324.69
453.23	9270.86
453.42	9467.47
453.60	9280.22
453.78	9476.83
453.97	9348.10
454.15	9504.92
454.34	9549.39
454.52	9554.07
454.70	9687.48
454.89	9657.05
455.07	9738.97
455.26	9788.12
455.44	9881.74
455.62	10022.17
455.81	9900.47
455.99	9921.53
456.17	9884.08
456.36	9980.04
456.54	10244.52
456.73	10174.31
456.91	10298.36
457.09	10305.38
457.28	10675.18
457.46	10349.85
457.64	10623.69
457.83	10382.62
458.01	10373.25
458.19	10569.86
458.38	10347.51
458.56	10876.47
458.74	10581.56
458.93	10827.32
459.11	10789.87
459.29	10714.97
459.48	10682.20
459.66	10846.04
459.84	11026.26
460.03	11087.12
460.21	10874.13
460.39	10925.62
460.57	11037.97
460.76	11089.46
460.94	11021.58
461.12	11105.84
461.31	10963.07
461.49	11133.93
461.67	11272.02
461.85	11454.58
462.04	11379.68
462.22	11831.41
462.40	11613.74
462.59	11466.28
462.77	11555.22
462.95	11473.31
463.13	11407.77
463.32	11545.86
463.50	11805.66
463.68	11819.71
463.86	11740.13
464.05	11585.65
464.23	11426.50
464.41	11887.58
464.59	11747.15
464.78	12149.72
464.96	11941.41
465.14	11953.12
465.32	11964.82
465.50	11999.93
465.69	12203.55
465.87	12184.83
466.05	12189.51
466.23	12093.55
466.41	12100.57
466.60	12280.79
466.78	12065.46
466.96	12011.63
467.14	12145.04
467.32	12116.95
467.51	12603.78
467.69	12194.19
467.87	12105.25
468.05	12521.87
468.23	12437.61
468.41	12526.55
468.60	12297.17
468.78	12638.89
468.96	12402.50
469.14	12641.23
469.32	12964.23
469.50	12826.14
469.69	12739.54
469.87	13039.12
470.05	13198.28
470.23	12978.27
470.41	13025.08
470.59	13217.01
470.77	13308.29
470.95	13188.92
471.14	13551.70
471.32	13219.35
471.50	13603.19
471.68	13469.78
471.86	13745.97
472.04	13631.28
472.22	13790.44
472.40	13528.30
472.58	13804.48
472.77	13848.95
472.95	14230.46
473.13	14815.59
473.31	14115.77
473.49	14134.50
473.67	14080.66
473.85	14225.78
474.03	14516.00
474.21	14487.92
474.39	14679.84
474.57	14635.37
474.75	14909.21
474.93	14717.29
475.12	14855.38
475.30	15171.35
475.48	15037.94
475.66	15131.56
475.84	15365.62
476.02	15098.80
476.20	15094.11
476.38	15597.33
476.56	16013.95
476.74	15700.31
476.92	15772.87
477.10	15625.42
477.28	16304.17
477.46	16149.70
477.64	16079.48
477.82	16580.36
478.00	17057.82
478.18	16468.01
478.36	16889.31
478.54	17036.76
478.72	17125.70
478.90	17242.73
479.08	17467.42
479.26	17589.13
479.44	17383.16
479.62	17717.86
479.80	17734.24
479.98	18242.14
480.16	18331.08
480.34	18326.39
480.52	18518.32
480.70	18527.68
480.88	18377.89
481.06	19077.71
481.24	18616.62
481.41	18972.38
481.59	19005.15
481.77	19398.36
481.95	19793.91
482.13	19616.03
482.31	19208.78
482.49	19939.02
482.67	20105.20
482.85	20484.37
483.03	20650.55
483.21	20456.28
483.39	20931.41
483.57	20819.07
483.74	20908.01
483.92	21238.02
484.10	21158.44
484.28	21514.20
484.46	21591.44
484.64	22408.29
484.82	21902.73
485.00	22263.18
485.18	22771.07
485.35	22778.09
485.53	22738.30
485.71	22799.16
485.89	23718.99
486.07	22993.42
486.25	23419.40
486.43	23857.08
486.61	23878.15
486.78	23618.35
486.96	23992.83
487.14	24549.88
487.32	24751.17
487.50	24783.93
487.68	24797.98
487.85	25249.70
488.03	25315.23
488.21	25745.89
488.39	25788.02
488.57	26054.84
488.75	26221.02
488.92	26469.12
489.10	26862.33
489.28	27096.38
489.46	27290.65
489.64	26927.86
489.81	27433.42
489.99	27271.92
490.17	27718.96
490.35	28091.11
490.53	27962.38
490.70	28320.48
490.88	28322.82
491.06	28603.69
491.24	28966.47
491.41	28926.68
491.59	28830.72
491.77	29177.12
491.95	29827.79
492.13	29645.23
492.30	29834.81
492.48	29965.88
492.66	30085.25
492.84	30312.28
493.01	30555.69
493.19	30438.67
493.37	31098.70
493.54	31173.60
493.72	31271.90
493.90	31398.29
494.08	31772.77
494.25	31894.48
494.43	31917.89
494.61	32240.88
494.79	32233.86
494.96	32432.80
495.14	32664.52
495.32	33067.09
495.49	33202.84
495.67	32994.53
495.85	33474.34
496.02	33853.51
496.20	33532.86
496.38	33542.22
496.55	34071.18
496.73	34555.67
496.91	34239.70
497.09	34604.82
497.26	35063.57
497.44	34658.65
497.62	35201.66
497.79	35892.12
497.97	35419.33
498.14	36009.14
498.32	35611.25
498.50	35906.16
498.67	36460.87
498.85	35917.86
499.03	36549.81
499.20	36203.41
499.38	36603.64
499.56	37092.81
499.73	37013.23
499.91	37488.36
500.08	37467.30
500.26	37373.67
500.44	37296.44
500.61	37436.87
500.79	37404.10
500.97	38132.01
501.14	38391.81
501.32	38464.36
501.49	38679.69
501.67	38593.09
501.84	38581.39
502.02	38759.27
502.20	39030.77
502.37	38880.98
502.55	38724.16
502.72	39566.76
502.90	39484.84
503.07	39423.98
503.25	39477.82
503.43	39662.72
503.60	39679.10
503.78	40526.38
503.95	40074.65
504.13	40196.36
504.30	40437.44
504.48	40767.45
504.65	40648.08
504.83	41310.46
505.01	41394.71
505.18	41261.30
505.36	41258.96
505.53	41691.96
505.71	41401.74
505.88	41596.00
506.06	41298.75
506.23	41825.37
506.41	41858.14
506.58	42143.69
506.76	42241.99
506.93	42405.83
507.11	42059.43
507.28	42347.31
507.46	42270.08
507.63	42899.68
507.81	42880.95
507.98	42689.03
508.16	43079.90
508.33	43538.65
508.50	43618.22
508.68	42951.17
508.85	43622.90
509.03	43124.37
509.20	43777.38
509.38	44030.16
509.55	44224.42
509.73	44428.05
509.90	44208.04
510.08	44390.60
510.25	44797.85
510.42	44474.86
510.60	44664.44
510.77	44987.44
510.95	45195.74
511.12	44971.05
511.30	45282.34
511.47	45216.81
511.64	45507.04
511.82	45617.04
511.99	45319.79
512.17	46080.47
512.34	45411.07
512.51	46394.10
512.69	46260.69
512.86	46382.40
513.04	46024.29
513.21	46124.94
513.38	46586.02
513.56	46813.05
513.73	46941.78
513.90	46742.84
514.08	46623.47
514.25	47009.66
514.43	47217.97
514.60	47405.21
514.77	47124.35
514.95	47828.85
515.12	47564.37
515.29	47386.49
515.47	47608.84
515.64	47908.43
515.81	47695.44
515.99	48121.41
516.16	48339.08
516.33	48208.01
516.51	48523.99
516.68	48425.68
516.85	48409.30
517.03	49055.29
517.20	48591.86
517.37	48545.05
517.54	48531.01
517.72	48849.32
517.89	49338.49
518.06	49088.06
518.24	49326.79
518.41	49179.34
518.58	49352.54
518.75	48837.62
518.93	49031.88
519.10	49607.65
519.27	49607.65
519.45	49443.82
519.62	49698.94
519.79	49715.32
519.96	49972.78
520.14	50106.19
520.31	50014.91
520.48	50576.64
520.65	50277.05
520.83	50300.45
521.00	50433.86
521.17	50162.36
521.34	50848.14
521.52	50560.25
521.69	50277.05
521.86	51044.74
522.03	50955.80
522.20	51192.20
522.38	51264.75
522.55	51068.15
522.72	51002.61
522.89	51121.98
523.07	51641.58
523.24	51660.30
523.41	51587.75
523.58	51508.17
523.75	52002.02
523.92	51641.58
524.10	52086.28
524.27	51854.57
524.44	52046.49
524.61	52081.60
524.78	52236.08
524.96	52177.56
525.13	52233.74
525.30	52486.51
525.47	52240.76
525.64	52198.63
525.81	52598.86
525.98	52458.43
526.16	52229.05
526.33	52542.69
526.50	52846.96
526.67	52767.38
526.84	53102.07
527.01	52690.14
527.18	52884.40
527.36	52694.82
527.53	53298.68
527.70	53106.76
527.87	53471.88
528.04	52837.59
528.21	53226.12
528.38	53183.99
528.55	53471.88
528.72	53235.48
528.89	53404.00
529.07	53284.64
529.24	53366.55
529.41	53387.62
529.58	53605.29
529.75	53598.27
529.92	53780.83
530.09	53616.99
530.26	53951.69
530.43	53741.04
530.60	53598.27
530.77	53858.07
530.94	54227.87
531.11	53783.17
531.28	54101.48
531.46	54026.59
531.63	54248.94
531.80	54183.40
531.97	54220.85
532.14	54358.94
532.31	54361.28
532.48	54251.28
532.65	54403.41
532.82	54480.65
532.99	54504.06
533.16	54506.40
533.33	54646.83
533.50	54934.71
533.67	54880.88
533.84	54543.84
534.01	54740.45
534.18	54782.58
534.35	55093.87
534.52	55037.70
534.69	55145.36
534.86	54990.89
535.03	55047.06
535.20	55231.96
535.37	55309.20
535.54	55138.34
535.71	54925.35
535.88	55220.26
536.05	55309.20
536.22	55356.01
536.38	55627.51
536.55	55458.99
536.72	55337.29
536.89	55220.26
537.06	55458.99
537.23	55604.11
537.40	55470.70
537.57	55573.68
537.74	56011.36
537.91	55824.12
538.08	55583.04
538.25	55669.64
538.42	55753.90
538.59	56112.00
538.75	55807.73
538.92	56027.74
539.09	55959.87
539.26	55903.70
539.43	56083.92
539.60	56074.55
539.77	56217.33
539.94	56240.73
540.11	56210.31
540.28	56458.40
540.44	56250.09
540.61	56332.01
540.78	56332.01
540.95	56229.03
541.12	56425.64
541.29	56268.82
541.46	56699.48
541.62	56463.08
541.79	56741.61
541.96	56341.38
542.13	56207.97
542.30	56683.09
542.47	56975.66
542.63	56893.74
542.80	56987.36
542.97	57080.98
543.14	57279.93
543.31	57139.50
543.48	57153.54
543.64	57298.65
543.81	57406.32
543.98	57340.78
544.15	57296.31
544.32	57235.46
544.48	57645.05
544.65	57233.12
544.82	57181.63
544.99	57382.91
545.16	57317.38
545.32	57186.31
545.49	57661.44
545.66	57712.93
545.83	57631.01
546.00	57708.25
546.16	57801.87
546.33	57602.92
546.50	57490.58
546.67	57719.95
546.83	57310.36
547.00	57684.84
547.17	57570.16
547.34	57600.58
547.50	57979.75
547.67	57839.32
547.84	57907.19
548.00	58171.67
548.17	58131.89
548.34	57827.62
548.51	58026.56
548.67	58141.25
548.84	58049.97
549.01	58035.92
549.18	57921.24
549.34	58143.59
549.51	58216.14
549.68	58429.13
549.84	58333.17
550.01	58281.68
550.18	57951.66
550.34	58443.18
550.51	58494.67
550.68	58178.70
550.84	58064.01
551.01	58525.10
551.18	58506.37
551.34	58480.63
551.51	58417.43
551.68	58541.48
551.84	58419.77
552.01	58396.37
552.18	58658.51
552.34	58396.37
552.51	58635.10
552.68	58541.48
552.84	58515.73
553.01	58951.07
553.18	58824.68
553.34	58834.05
553.51	58660.85
553.67	58871.49
553.84	58789.58
554.01	59051.72
554.17	59018.95
554.34	58993.20
554.51	58873.84
554.67	58913.62
554.84	59007.25
555.00	58852.77
555.17	58763.83
555.33	59093.85
555.50	58981.50
555.67	58892.56
555.83	58850.43
556.00	59025.97
556.16	59299.81
556.33	59128.95
556.50	58941.71
556.66	59157.04
556.83	58925.33
556.99	59498.76
557.16	59473.01
557.32	59421.52
557.49	59590.04
557.65	59093.85
557.82	59222.58
557.98	59337.26
558.15	59255.34
558.32	59377.05
558.48	59250.66
558.65	59540.89
558.81	59578.34
558.98	59465.99
559.14	59477.69
559.31	59660.26
559.47	59568.97
559.64	59667.28
559.80	59711.75
559.97	59695.36
560.13	59461.31
560.30	59646.21
560.46	59643.87
560.63	59629.83
560.79	59648.55
560.96	59793.67
561.12	59700.04
561.29	59854.52
561.45	59664.94
561.61	59842.82
561.78	59805.37
561.94	59646.21
562.11	59774.94
562.27	59730.47
562.44	59870.90
562.60	59985.59
562.77	59833.46
562.93	59578.34
563.10	60140.07
563.26	60083.89
563.42	59983.25
563.59	59847.50
563.75	59723.45
563.92	59728.13
564.08	60088.57
564.24	60001.97
564.41	60163.47
564.57	60161.13
564.74	60018.36
564.90	60170.49
565.07	60207.94
565.23	60130.70
565.39	60055.81
565.56	60116.66
565.72	60090.91
565.88	60093.25
566.05	60046.44
566.21	60079.21
566.38	59969.21
566.54	60133.04
566.70	60104.96
566.87	60306.24
567.03	60060.49
567.19	60343.69
567.36	60339.01
567.52	60083.89
567.68	60268.79
567.85	60233.69
568.01	60491.15
568.17	60275.82
568.34	60364.76
568.50	60236.03
568.66	60240.71
568.83	60423.27
568.99	60289.86
569.15	60250.07
569.32	60214.96
569.48	60172.83
569.64	60441.99
569.81	60264.11
569.97	60275.82
570.13	60324.97
570.30	60149.43
570.46	60582.43
570.62	60495.83
570.78	60636.26
570.95	60472.42
571.11	60573.06
571.27	60282.84
571.43	60383.48
571.60	60725.20
571.76	60355.39
571.92	60472.42
572.09	60598.81
572.25	60383.48
572.41	60552.00
572.57	60486.46
572.74	60786.05
572.90	60589.45
573.06	60434.97
573.22	60610.51
573.38	60570.72
573.55	60584.77
573.71	60725.20
573.87	60647.96
574.03	60659.66
574.20	60591.79
574.36	60395.18
574.52	60636.26
574.68	60629.24
574.84	60722.86
575.01	60647.96
575.17	60608.17
575.33	60584.77
575.49	60673.71
575.65	60596.47
575.82	60708.82
575.98	60823.50
576.14	60987.34
576.30	60697.11
576.46	60582.43
576.62	60580.09
576.79	60683.07
576.95	60547.32
577.11	60680.73
577.27	60783.71
577.43	60807.12
577.59	60575.40
577.75	60512.21
577.92	60605.83
578.08	60664.35
578.24	60788.39
578.40	60863.29
578.56	61008.40
578.72	60844.57
578.88	60954.57
579.04	60933.51
579.21	60816.48
579.37	60870.31
579.53	61006.06
579.69	60669.03
579.85	60413.91
580.01	60636.26
580.17	60769.67
580.33	60879.67
580.49	60767.33
580.65	60928.83
580.82	60816.48
580.98	60800.10
581.14	60542.64
581.30	60942.87
581.46	60811.80
581.62	60926.49
581.78	60772.01
581.94	60891.38
582.10	60680.73
582.26	60917.12
582.42	60809.46
582.58	60956.91
582.74	60860.95
582.90	60842.23
583.06	60907.76
583.22	60570.72
583.38	60886.70
583.54	60701.79
583.70	60807.12
583.86	60741.58
584.02	60753.29
584.18	60893.72
584.34	60889.04
584.50	60823.50
584.66	60860.95
584.82	60865.63
584.98	60928.83
585.14	61233.10
585.30	60959.25
585.46	60882.02
585.62	60779.03
585.78	61139.47
585.94	60818.82
586.10	60842.23
586.26	60825.84
586.42	61015.43
586.58	60938.19
586.74	60835.20
586.90	60891.38
587.06	60907.76
587.22	60910.10
587.38	60966.27
587.54	61059.90
587.70	61052.87
587.86	61193.31
588.02	60949.89
588.18	61092.66
588.34	60963.93
588.49	60980.32
