SpectraSuite Data File
++++++++++++++++++++++++++++++++++++
Date: Fri Oct 25 11:23:45 EDT 2013
User: price-jones
Dark Spectrum Present: No
Reference Spectrum Present: No
Number of Sampled Component Spectra: 1
Spectrometers: USB2+H05261
Integration Time (usec): 100000 (USB2+H05261)
Spectra Averaged: 1 (USB2+H05261)
Boxcar Smoothing: 0 (USB2+H05261)
Correct for Electrical Dark: No (USB2+H05261)
Strobe/Lamp Enabled: No (USB2+H05261)
Correct for Detector Non-linearity: No (USB2+H05261)
Correct for Stray Light: No (USB2+H05261)
Number of Pixels in Processed Spectrum: 2048
>>>>>Begin Processed Spectral Data<<<<<
365.73	203.63
365.92	203.63
366.12	203.63
366.32	166.18
366.52	117.03
366.72	135.75
366.91	138.09
367.11	114.69
367.31	70.22
367.51	126.39
367.70	135.75
367.90	149.79
368.10	112.35
368.30	79.58
368.49	128.73
368.69	175.54
368.89	88.94
369.09	135.75
369.28	156.82
369.48	140.43
369.68	182.56
369.87	229.37
370.07	140.43
370.27	290.23
370.47	318.31
370.66	582.79
370.86	657.69
371.06	713.86
371.25	711.52
371.45	629.60
371.65	596.84
371.84	645.99
372.04	734.93
372.24	720.88
372.44	791.10
372.63	699.82
372.83	779.40
373.03	826.21
373.22	716.20
373.42	774.72
373.62	758.33
373.81	744.29
374.01	847.27
374.21	767.70
374.40	816.85
374.60	781.74
374.79	863.66
374.99	877.70
375.19	884.72
375.38	847.27
375.58	842.59
375.78	870.68
375.97	791.10
376.17	922.17
376.37	884.72
376.56	912.81
376.76	922.17
376.95	821.53
377.15	898.77
377.35	931.53
377.54	903.45
377.74	938.55
377.93	866.00
378.13	910.47
378.33	940.90
378.52	954.94
378.72	889.40
378.91	980.68
379.11	866.00
379.31	924.51
379.50	987.71
379.70	1008.77
379.89	1025.15
380.09	926.85
380.28	905.79
380.48	1025.15
380.68	1053.24
380.87	898.77
381.07	936.21
381.26	1022.81
381.46	936.21
381.65	1039.20
381.85	1001.75
382.04	1018.13
382.24	1090.69
382.43	1034.52
382.63	1043.88
382.83	957.28
383.02	1151.54
383.22	1118.78
383.41	1069.62
383.61	1151.54
383.80	1053.24
384.00	1083.67
384.19	1076.65
384.39	1116.44
384.58	1137.50
384.78	1137.50
384.97	1233.46
385.17	1109.41
385.36	1160.91
385.56	1172.61
385.75	1022.81
385.95	1116.44
386.14	1167.93
386.34	1111.75
386.53	1217.08
386.72	1149.20
386.92	1203.04
387.11	1277.93
387.31	1235.80
387.50	1263.89
387.70	1287.29
387.89	1207.72
388.09	1203.04
388.28	1256.87
388.48	1277.93
388.67	1310.70
388.86	1282.61
389.06	1238.14
389.25	1294.32
389.45	1261.55
389.64	1378.58
389.84	1469.86
390.03	1380.92
390.22	1343.47
390.42	1462.83
390.61	1462.83
390.81	1406.66
391.00	1373.89
391.19	1451.13
391.39	1448.79
391.58	1418.36
391.78	1420.71
391.97	1413.68
392.16	1472.20
392.36	1542.41
392.55	1561.14
392.75	1533.05
392.94	1441.77
393.13	1593.90
393.33	1556.46
393.52	1589.22
393.71	1610.29
393.91	1610.29
394.10	1565.82
394.29	1570.50
394.49	1612.63
394.68	1643.06
394.88	1549.43
395.07	1619.65
395.26	1596.25
395.46	1638.38
395.65	1706.25
395.84	1741.36
396.04	1724.97
396.23	1771.79
396.42	1767.10
396.62	1708.59
396.81	1881.79
397.00	1715.61
397.19	1797.53
397.39	1774.13
397.58	1764.76
397.77	1811.57
397.97	1863.07
398.16	1830.30
398.35	1863.07
398.55	1839.66
398.74	1977.75
398.93	1982.43
399.12	1853.70
399.32	1952.01
399.51	1956.69
399.70	1987.11
399.90	2024.56
400.09	2040.95
400.28	2024.56
400.47	2090.10
400.67	2111.16
400.86	1996.48
401.05	2050.31
401.24	2106.48
401.44	2148.61
401.63	2141.59
401.82	2172.02
402.01	2143.93
402.21	2242.23
402.40	2157.97
402.59	2207.13
402.78	2176.70
402.97	2246.91
403.17	2211.81
403.36	2253.94
403.55	2272.66
403.74	2368.62
403.93	2406.07
404.13	2335.85
404.32	2399.05
404.51	2352.24
404.70	2396.71
404.89	2331.17
405.09	2476.29
405.28	2581.61
405.47	2471.61
405.66	2516.08
405.85	2527.78
406.05	2534.80
406.24	2572.25
406.43	2562.89
406.62	2710.34
406.81	2773.53
407.00	2642.46
407.20	2614.38
407.39	2670.55
407.58	2752.47
407.77	2810.98
407.96	2621.40
408.15	2715.02
408.34	2764.17
408.54	2796.94
408.73	2799.28
408.92	2703.32
409.11	2885.88
409.30	2984.18
409.49	2932.69
409.68	2895.24
409.87	2925.67
410.07	3012.27
410.26	2951.42
410.45	3059.08
410.64	2977.16
410.83	3110.57
411.02	3112.91
411.21	3253.34
411.40	3208.87
411.59	3169.09
411.78	3143.34
411.98	3075.46
412.17	3276.75
412.36	3300.16
412.55	3370.37
412.74	3389.10
412.93	3442.93
413.12	3321.22
413.31	3597.40
413.50	3506.12
413.69	3386.76
413.88	3508.46
414.07	3651.24
414.26	3709.75
414.45	3695.71
414.64	3723.79
414.83	3850.18
415.02	3836.14
415.22	3913.38
415.41	3854.86
415.60	3990.61
415.79	4051.47
415.98	3836.14
416.17	3988.27
416.36	3948.48
416.55	4035.08
416.74	4079.55
416.93	4208.28
417.12	4152.11
417.31	4138.07
417.50	4133.39
417.69	4344.03
417.88	4196.58
418.07	4367.44
418.26	4383.82
418.45	4297.22
418.64	4533.62
418.83	4418.93
419.02	4416.59
419.21	4538.30
419.39	4425.95
419.58	4571.07
419.77	4484.47
419.96	4575.75
420.15	4610.86
420.34	4514.89
420.53	4580.43
420.72	4734.90
420.91	4746.61
421.10	4732.56
421.29	4655.33
421.48	4723.20
421.67	4734.90
421.86	4699.80
422.05	4826.18
422.24	4800.44
422.43	4912.78
422.61	5137.48
422.80	5067.26
422.99	5001.72
423.18	4929.17
423.37	5053.22
423.56	5114.07
423.75	5029.81
423.94	4891.72
424.13	4669.37
424.32	4844.91
424.50	4968.96
424.69	5224.08
424.88	5018.11
425.07	4858.95
425.26	4975.98
425.45	5015.77
425.64	4905.76
425.83	4884.70
426.01	5081.30
426.20	5034.49
426.39	5013.43
426.58	4992.36
426.77	5074.28
426.96	5252.16
427.15	5221.74
427.33	5261.52
427.52	5069.60
427.71	5254.50
427.90	5387.91
428.09	5451.11
428.28	5359.83
428.46	5345.78
428.65	5355.15
428.84	5610.26
429.03	5619.63
429.22	5198.33
429.40	5678.14
429.59	5397.28
429.78	5320.04
429.97	5291.95
430.16	5165.56
430.34	5577.50
430.53	5893.47
430.72	5795.17
430.91	5778.78
431.10	5675.80
431.28	5804.53
431.47	5802.19
431.66	5799.85
431.85	5809.21
432.03	5947.30
432.22	5905.17
432.41	5980.07
432.60	6099.44
432.79	6047.94
432.97	6080.71
433.16	6115.82
433.35	5937.94
433.54	6038.58
433.72	5994.11
433.91	6211.78
434.10	6223.48
434.28	6157.95
434.47	6291.36
434.66	6242.21
434.85	6251.57
435.03	6377.96
435.22	6265.61
435.41	6516.05
435.59	6438.81
435.78	6497.33
435.97	6431.79
436.16	6530.09
436.34	6382.64
436.53	6420.09
436.72	6677.55
436.90	6574.56
437.09	6593.29
437.28	6485.62
437.46	6530.09
437.65	6626.06
437.84	6832.02
438.02	6927.99
438.21	6789.89
438.40	6803.94
438.58	7213.53
438.77	7337.58
438.96	7103.53
439.14	6967.77
439.33	7119.91
439.52	7265.02
439.70	7456.95
439.89	7485.03
440.08	7229.91
440.26	7253.32
440.45	7197.15
440.63	7581.00
440.82	7691.00
441.01	7786.96
441.19	7604.40
441.38	7819.73
441.57	7681.64
441.75	7712.07
441.94	7939.10
442.12	7976.55
442.31	8271.45
442.50	8121.66
442.68	8046.76
442.87	8095.91
443.05	8264.43
443.24	8294.86
443.43	8124.00
443.61	8315.92
443.80	8451.67
443.98	8025.70
444.17	7700.36
444.35	8168.47
444.54	8320.60
444.73	8390.82
444.91	8290.18
445.10	8496.14
445.28	8241.03
445.47	8362.73
445.65	8444.65
445.84	8339.33
446.02	8608.49
446.21	8538.27
446.39	8379.12
446.58	8552.32
446.77	8561.68
446.95	8411.89
447.14	8615.51
447.32	8774.67
447.51	8561.68
447.69	8470.40
447.88	8449.33
448.06	8641.26
448.25	8482.10
448.43	8603.81
448.62	8613.17
448.80	8648.28
448.99	8779.35
449.17	8741.90
449.36	8786.37
449.54	9074.26
449.73	9064.89
449.91	9111.71
450.10	8891.70
450.28	9144.47
450.46	9331.72
450.65	9032.13
450.83	9102.34
451.02	9158.52
451.20	9102.34
451.39	9177.24
451.57	9252.14
451.76	9057.87
451.94	9167.88
452.13	9458.10
452.31	9385.55
452.49	9212.35
452.68	9364.48
452.86	9418.32
453.05	9565.77
453.23	9591.52
453.42	9430.02
453.60	9296.61
453.78	9614.92
453.97	9427.68
454.15	9631.30
454.34	9394.91
454.52	9755.35
454.70	9666.41
454.89	9523.64
455.07	9841.95
455.26	9692.16
455.44	9755.35
455.62	9818.55
455.81	9760.03
455.99	10073.67
456.17	10373.25
456.36	10139.20
456.54	10274.95
456.73	10256.23
456.91	10464.54
457.09	10356.87
457.28	10864.77
457.46	10305.38
457.64	10651.78
457.83	10846.04
458.01	10363.89
458.19	10719.65
458.38	10621.35
458.56	10824.98
458.74	10799.23
458.93	10792.21
459.11	10764.12
459.29	10857.75
459.48	10808.59
459.66	11080.10
459.84	11094.14
460.03	11122.23
460.21	10925.62
460.39	10806.25
460.57	11049.67
460.76	11349.26
460.94	11222.87
461.12	11265.00
461.31	11286.06
461.49	11178.40
461.67	11101.16
461.85	11400.75
462.04	11300.11
462.22	11438.20
462.40	11833.75
462.59	11587.99
462.77	11492.03
462.95	11667.57
463.13	11719.06
463.32	11695.66
463.50	11889.92
463.68	11730.76
463.86	12109.93
464.05	11681.61
464.23	11552.88
464.41	11915.67
464.59	11805.66
464.78	12058.44
464.96	12175.47
465.14	11756.51
465.32	11999.93
465.50	12236.32
465.69	12138.02
465.87	12219.94
466.05	12226.96
466.23	12348.67
466.41	12416.54
466.60	12753.58
466.78	12198.87
466.96	12210.57
467.14	12311.22
467.32	12514.84
467.51	12657.62
467.69	12325.26
467.87	12367.39
468.05	12655.28
468.23	12638.89
468.41	12547.61
468.60	12671.66
468.78	12744.22
468.96	12589.74
469.14	12837.84
469.32	13104.66
469.50	12772.30
469.69	13226.37
469.87	13261.48
470.05	13193.60
470.23	13432.33
470.41	13383.18
470.59	13200.62
470.77	13025.08
470.95	13411.27
471.14	13916.83
471.32	13387.86
471.50	13635.96
471.68	13720.22
471.86	13834.91
472.04	13951.93
472.22	14281.95
472.40	13877.04
472.58	13853.63
472.77	14141.52
472.95	14155.56
473.13	14761.76
473.31	14071.30
473.49	13909.80
473.67	13905.12
473.85	14443.45
474.03	14607.28
474.21	14567.49
474.39	14721.97
474.57	14836.66
474.75	14979.43
474.93	15328.17
475.12	15117.52
475.30	15157.31
475.48	15412.43
475.66	15243.91
475.84	15068.37
476.02	15391.36
476.20	15438.17
476.38	15941.39
476.56	15995.22
476.74	15873.51
476.92	15927.35
477.10	16102.89
477.28	16189.49
477.46	16308.85
477.64	16231.62
477.82	16776.96
478.00	17256.77
478.18	16905.69
478.36	16964.20
478.54	17123.36
478.72	17371.46
478.90	17317.62
479.08	17818.50
479.26	17956.59
479.44	17961.27
479.62	17921.48
479.80	18312.35
479.98	18043.19
480.16	19094.09
480.34	18270.22
480.52	18607.26
480.70	18817.91
480.88	18780.46
481.06	18998.13
481.24	18853.02
481.41	18995.79
481.59	19452.19
481.77	19707.31
481.95	19627.73
482.13	19992.86
482.31	19611.35
482.49	20517.14
482.67	20290.10
482.85	20435.22
483.03	20636.50
483.21	20781.62
483.39	21053.12
483.57	21071.84
483.74	20961.84
483.92	21462.71
484.10	21191.21
484.28	22015.08
484.46	22003.38
484.64	22314.67
484.82	22122.74
485.00	22361.48
485.18	23026.19
485.35	23021.51
485.53	22785.12
485.71	23094.07
485.89	23889.85
486.07	23475.57
486.25	23700.26
486.43	23428.76
486.61	23922.62
486.78	24273.70
486.96	24397.74
487.14	24503.07
487.32	24676.27
487.50	25275.45
487.68	24929.05
487.85	25458.01
488.03	25549.29
488.21	26080.59
488.39	25689.72
488.57	26597.85
488.75	26513.59
488.92	26466.78
489.10	26815.52
489.28	26955.95
489.46	27229.79
489.64	27255.54
489.81	27929.61
489.99	27768.12
490.17	27756.41
490.35	28547.51
490.53	28650.50
490.70	28716.03
490.88	28713.69
491.06	29125.63
491.24	29188.82
491.41	29179.46
491.59	29642.88
491.77	29734.17
491.95	30096.95
492.13	29731.83
492.30	30031.41
492.48	30335.68
492.66	30424.62
492.84	30448.03
493.01	30852.94
493.19	30892.73
493.37	31145.51
493.54	31470.84
493.72	31807.88
493.90	31842.99
494.08	32053.64
494.25	32196.41
494.43	32121.51
494.61	32584.94
494.79	32615.37
494.96	32999.21
495.14	32861.12
495.32	33464.98
495.49	33385.40
495.67	33577.33
495.85	33806.70
496.02	33905.00
496.20	34178.84
496.38	34443.32
496.55	34230.33
496.73	35470.82
496.91	34876.32
497.09	34890.37
497.26	35342.09
497.44	35278.89
497.62	35274.21
497.79	35945.95
497.97	35573.80
498.14	36016.16
498.32	36385.97
498.50	36360.22
498.67	36648.11
498.85	36896.20
499.03	36957.06
499.20	36921.95
499.38	36715.98
499.56	37408.78
499.73	37326.86
499.91	37757.52
500.08	37649.86
500.26	37443.89
500.44	38155.41
500.61	38298.19
500.79	37673.26
500.97	38483.09
501.14	38932.47
501.32	39030.77
501.49	38763.95
501.67	38742.89
501.84	38955.88
502.02	38965.24
502.20	39421.64
502.37	39653.36
502.55	39189.93
502.72	39576.12
502.90	39864.00
503.07	39835.92
503.25	40502.97
503.43	39761.02
503.60	40657.45
503.78	41017.89
503.95	40804.90
504.13	40767.45
504.30	41191.09
504.48	40910.22
504.65	41340.88
504.83	41347.90
505.01	41862.82
505.18	41567.91
505.36	41823.03
505.53	41462.59
505.71	41895.59
505.88	42120.28
506.06	41549.19
506.23	42029.00
506.41	42057.09
506.58	42464.34
506.76	42555.62
506.93	42602.43
507.11	42724.14
507.28	42476.04
507.46	43147.78
507.63	42815.42
507.81	43536.30
507.98	42679.67
508.16	43267.14
508.33	43566.73
508.50	43934.20
508.68	43761.00
508.85	44388.26
509.03	44257.19
509.20	44353.15
509.38	44404.64
509.55	44561.46
509.73	44739.34
509.90	44884.45
510.08	44744.02
510.25	45027.23
510.42	44987.44
510.60	45113.83
510.77	45048.29
510.95	45738.75
511.12	45034.25
511.30	45734.07
511.47	45621.72
511.64	45450.86
511.82	46452.61
511.99	46019.61
512.17	46476.02
512.34	46417.50
512.51	46735.82
512.69	46646.88
512.86	46066.42
513.04	47185.20
513.21	46361.33
513.38	46754.54
513.56	47260.10
513.73	47173.50
513.90	47049.45
514.08	47016.68
514.25	47569.05
514.43	47384.15
514.60	47920.13
514.77	47566.71
514.95	47931.83
515.12	47559.69
515.29	47903.74
515.47	48032.47
515.64	48271.21
515.81	48128.44
515.99	48619.95
516.16	48800.17
516.33	48739.32
516.51	48872.73
516.68	48612.93
516.85	48589.52
517.03	48823.58
517.20	49074.01
517.37	48807.19
517.54	49141.89
517.72	49085.72
517.89	49340.83
518.06	49677.87
518.24	49511.69
518.41	49462.54
518.58	49542.12
518.75	49521.05
518.93	49544.46
519.10	49551.48
519.27	49996.18
519.45	49996.18
519.62	50197.47
519.79	50052.36
519.96	50092.15
520.14	50258.32
520.31	50220.87
520.48	50403.44
520.65	50419.82
520.83	50532.17
521.00	51082.19
521.17	50829.41
521.34	50967.51
521.52	51358.38
521.69	51154.75
521.86	51608.81
522.03	51524.55
522.20	51613.49
522.38	51835.84
522.55	51379.44
522.72	51569.02
522.89	51503.49
523.07	52109.69
523.24	51690.73
523.41	52020.75
523.58	51681.37
523.75	52072.24
523.92	52123.73
524.10	52367.15
524.27	52353.10
524.44	52296.93
524.61	52046.49
524.78	52313.31
524.96	52591.84
525.13	52563.75
525.30	52603.54
525.47	52650.35
525.64	52734.61
525.81	52788.44
525.98	52947.60
526.16	52868.02
526.33	52947.60
526.50	53099.73
526.67	52896.11
526.84	53385.28
527.01	53301.02
527.18	53308.04
527.36	53172.29
527.53	53092.71
527.70	53336.13
527.87	53411.02
528.04	53359.53
528.21	53535.07
528.38	53516.35
528.55	53748.06
528.72	53495.28
528.89	53682.53
529.07	53453.15
529.24	53652.10
529.41	53890.83
529.58	54033.61
529.75	53883.81
529.92	53881.47
530.09	54127.23
530.26	54061.69
530.43	54136.59
530.60	53874.45
530.77	54017.22
530.94	54361.28
531.11	54162.34
531.28	54602.36
531.46	54663.21
531.63	54291.07
531.80	54791.94
531.97	54665.55
532.14	54738.11
532.31	54562.57
532.48	54777.90
532.65	54885.56
532.82	54695.98
532.99	54972.16
533.16	54777.90
533.33	54979.18
533.50	55040.04
533.67	55253.03
533.84	54974.50
534.01	54988.55
534.18	55229.62
534.35	55306.86
534.52	55150.04
534.69	55159.41
534.86	55501.12
535.03	55346.65
535.20	55199.19
535.37	55412.18
535.54	55597.09
535.71	55489.42
535.88	55576.02
536.05	55632.19
536.22	55569.00
536.38	56051.15
536.55	55674.32
536.72	55845.18
536.89	55599.43
537.06	55774.97
537.23	55964.55
537.40	55784.33
537.57	55948.17
537.74	55758.58
537.91	56376.48
538.08	55992.64
538.25	55737.52
538.42	56072.21
538.59	56355.42
538.75	55910.72
538.92	56114.34
539.09	56236.05
539.26	56313.29
539.43	56240.73
539.60	56423.29
539.77	56446.70
539.94	56484.15
540.11	56673.73
540.28	56790.76
540.44	56622.24
540.61	56542.66
540.78	56652.67
540.95	56647.99
541.12	56521.60
541.29	56449.04
541.46	56823.53
541.62	56849.27
541.79	56783.74
541.96	56704.16
542.13	56790.76
542.30	56729.90
542.47	57078.64
542.63	56877.36
542.80	57071.62
542.97	57071.62
543.14	57485.90
543.31	57462.49
543.48	57254.18
543.64	57392.28
543.81	57623.99
543.98	57488.24
544.15	57396.96
544.32	57738.68
544.48	57719.95
544.65	57631.01
544.82	57516.32
544.99	57403.98
545.16	57535.05
545.32	57528.03
545.49	57794.85
545.66	58021.88
545.83	57748.04
546.00	57862.72
546.16	57755.06
546.33	57701.23
546.50	57710.59
546.67	58000.82
546.83	57652.08
547.00	57956.35
547.17	57989.11
547.34	58061.67
547.50	58049.97
547.67	58248.91
547.84	58204.44
548.00	58265.30
548.17	58396.37
548.34	58387.00
548.51	58525.10
548.67	58340.19
548.84	58253.59
549.01	58157.63
549.18	58269.98
549.34	58342.53
549.51	58475.94
549.68	58471.26
549.84	58433.81
550.01	58466.58
550.18	58307.43
550.34	58361.26
550.51	58534.46
550.68	58520.41
550.84	58567.23
551.01	58752.13
551.18	58702.98
551.34	58644.46
551.51	58850.43
551.68	58712.34
551.84	58784.90
552.01	58717.02
552.18	58838.73
552.34	58707.66
552.51	58784.90
552.68	58550.84
552.84	58899.58
553.01	59070.44
553.18	58988.52
553.34	59255.34
553.51	58782.55
553.67	58894.90
553.84	59159.38
554.01	59016.61
554.17	59082.14
554.34	59079.80
554.51	59047.04
554.67	59262.36
554.84	59119.59
555.00	59044.69
555.17	59091.51
555.33	59370.03
555.50	59210.87
555.67	59091.51
555.83	59215.55
556.00	59110.23
556.16	59746.86
556.33	59372.37
556.50	59353.65
556.66	59613.44
556.83	59257.68
556.99	59550.25
557.16	59587.70
557.32	59622.81
557.49	59812.39
557.65	59412.16
557.82	59622.81
557.98	59597.06
558.15	59606.42
558.32	59697.70
558.48	59451.95
558.65	59482.37
558.81	59608.76
558.98	59859.20
559.14	59770.26
559.31	59983.25
559.47	59629.83
559.64	59732.81
559.80	59976.23
559.97	59978.57
560.13	59924.74
560.30	59868.56
560.46	59955.16
560.63	59971.55
560.79	59744.51
560.96	60100.28
561.12	59938.78
561.29	59978.57
561.45	59889.63
561.61	59826.43
561.78	60149.43
561.94	60013.68
562.11	60126.02
562.27	60018.36
562.44	60168.15
562.60	60207.94
562.77	60119.00
562.93	59941.12
563.10	60186.88
563.26	60018.36
563.42	60381.14
563.59	60126.02
563.75	60100.28
563.92	60243.05
564.08	60266.45
564.24	60463.06
564.41	60390.50
564.57	60294.54
564.74	60175.17
564.90	60409.23
565.07	60339.01
565.23	60004.31
565.39	60224.32
565.56	60357.74
565.72	60355.39
565.88	60329.65
566.05	60437.31
566.21	60245.39
566.38	60420.93
566.54	60362.42
566.70	60402.21
566.87	60509.87
567.03	60369.44
567.19	60706.47
567.36	60486.46
567.52	60289.86
567.68	60659.66
567.85	60694.77
568.01	60381.14
568.17	60561.36
568.34	60615.19
568.50	60346.03
568.66	60257.09
568.83	60828.18
568.99	60528.59
569.15	60640.94
569.32	60509.87
569.48	60563.70
569.64	60860.95
569.81	60610.51
569.97	60683.07
570.13	60477.10
570.30	60355.39
570.46	60617.53
570.62	60678.39
570.78	60748.60
570.95	60554.34
571.11	60905.42
571.27	60582.43
571.43	60853.93
571.60	60697.11
571.76	60816.48
571.92	60896.06
572.09	60760.31
572.25	60680.73
572.41	60685.41
572.57	60830.52
572.74	60954.57
572.90	60764.99
573.06	60704.13
573.22	60764.99
573.38	60647.96
573.55	60795.42
573.71	60928.83
573.87	60837.54
574.03	60666.69
574.20	61036.49
574.36	60687.75
574.52	60743.92
574.68	60863.29
574.84	61015.43
575.01	60919.46
575.17	60968.61
575.33	60786.05
575.49	60839.89
575.65	60853.93
575.82	60814.14
575.98	60921.80
576.14	60987.34
576.30	60952.23
576.46	60842.23
576.62	60903.08
576.79	61043.51
576.95	60753.29
577.11	61092.66
577.27	61099.68
577.43	60882.02
577.59	60963.93
577.75	60912.44
577.92	60917.12
578.08	60842.23
578.24	61080.96
578.40	60996.70
578.56	61020.11
578.72	60921.80
578.88	61071.60
579.04	61186.28
579.21	61087.98
579.37	61139.47
579.53	61097.34
579.69	60954.57
579.85	60994.36
580.01	60989.68
580.17	60935.85
580.33	61092.66
580.49	61020.11
580.65	61179.26
580.82	61001.38
580.98	60874.99
581.14	60727.54
581.30	61048.19
581.46	60968.61
581.62	60985.00
581.78	60886.70
581.94	61001.38
582.10	61160.54
582.26	60999.04
582.42	60835.20
582.58	60940.53
582.74	61097.34
582.90	61247.14
583.06	61062.24
583.22	60884.36
583.38	61097.34
583.54	61219.05
583.70	61104.37
583.86	61286.93
584.02	61006.06
584.18	61113.73
584.34	61307.99
584.50	61237.78
584.66	60933.51
584.82	61139.47
584.98	61172.24
585.14	61226.07
585.30	61212.03
585.46	61041.17
585.62	61251.82
585.78	61499.92
585.94	61069.26
586.10	61087.98
586.26	61190.97
586.42	61179.26
586.58	61174.58
586.74	61125.43
586.90	61151.18
587.06	61284.59
587.22	61272.88
587.38	61221.39
587.54	61474.17
587.70	61272.88
587.86	61226.07
588.02	61296.29
588.18	61394.59
588.34	61233.10
588.49	61048.19
