SpectraSuite Data File
++++++++++++++++++++++++++++++++++++
Date: Fri Oct 25 11:23:00 EDT 2013
User: price-jones
Dark Spectrum Present: No
Reference Spectrum Present: No
Number of Sampled Component Spectra: 1
Spectrometers: USB2+H05261
Integration Time (usec): 100000 (USB2+H05261)
Spectra Averaged: 1 (USB2+H05261)
Boxcar Smoothing: 0 (USB2+H05261)
Correct for Electrical Dark: No (USB2+H05261)
Strobe/Lamp Enabled: No (USB2+H05261)
Correct for Detector Non-linearity: No (USB2+H05261)
Correct for Stray Light: No (USB2+H05261)
Number of Pixels in Processed Spectrum: 2048
>>>>>Begin Processed Spectral Data<<<<<
365.73	217.67
365.92	217.67
366.12	217.67
366.32	107.66
366.52	131.07
366.72	147.45
366.91	107.66
367.11	84.26
367.31	98.30
367.51	131.07
367.70	60.85
367.90	74.90
368.10	138.09
368.30	100.64
368.49	91.28
368.69	245.76
368.89	93.62
369.09	124.05
369.28	161.50
369.48	177.88
369.68	205.97
369.87	128.73
370.07	208.31
370.27	191.92
370.47	372.15
370.66	589.82
370.86	613.22
371.06	627.26
371.25	725.57
371.45	674.07
371.65	657.69
371.84	669.39
372.04	690.46
372.24	662.37
372.44	695.14
372.63	645.99
372.83	699.82
373.03	727.91
373.22	706.84
373.42	704.50
373.62	744.29
373.81	816.85
374.01	814.51
374.21	772.38
374.40	760.67
374.60	802.80
374.79	805.14
374.99	903.45
375.19	795.78
375.38	781.74
375.58	805.14
375.78	819.19
375.97	826.21
376.17	901.11
376.37	873.02
376.56	887.06
376.76	833.23
376.95	873.02
377.15	983.02
377.35	947.92
377.54	1004.09
377.74	917.49
377.93	908.13
378.13	894.08
378.33	926.85
378.52	964.30
378.72	933.87
378.91	891.74
379.11	896.43
379.31	875.36
379.50	926.85
379.70	973.66
379.89	961.96
380.09	964.30
380.28	924.51
380.48	1006.43
380.68	959.62
380.87	1041.54
381.07	959.62
381.26	1111.75
381.46	926.85
381.65	1004.09
381.85	943.24
382.04	1088.35
382.24	1041.54
382.43	1158.57
382.63	1086.01
382.83	1034.52
383.02	1184.31
383.22	1076.65
383.41	1041.54
383.61	1006.43
383.80	1076.65
384.00	1193.67
384.19	1174.95
384.39	1121.12
384.58	1184.31
384.78	1135.16
384.97	1130.48
385.17	1130.48
385.36	1109.41
385.56	1179.63
385.75	1123.46
385.95	1233.46
386.14	1224.10
386.34	1219.42
386.53	1188.99
386.72	1156.22
386.92	1210.06
387.11	1196.01
387.31	1240.48
387.50	1212.40
387.70	1299.00
387.89	1203.04
388.09	1273.25
388.28	1317.72
388.48	1296.66
388.67	1350.49
388.86	1317.72
389.06	1371.55
389.25	1320.06
389.45	1371.55
389.64	1322.40
389.84	1317.72
390.03	1500.28
390.22	1504.96
390.42	1369.21
390.61	1383.26
390.81	1277.93
391.00	1341.13
391.19	1554.12
391.39	1341.13
391.58	1441.77
391.78	1530.71
391.97	1413.68
392.16	1465.18
392.36	1507.30
392.55	1504.96
392.75	1600.93
392.94	1500.28
393.13	1497.94
393.33	1624.33
393.52	1558.80
393.71	1526.03
393.91	1476.88
394.10	1544.75
394.29	1554.12
394.49	1579.86
394.68	1621.99
394.88	1659.44
395.07	1699.23
395.26	1636.03
395.46	1673.48
395.65	1727.32
395.84	1797.53
396.04	1785.83
396.23	1757.74
396.42	1701.57
396.62	1743.70
396.81	1849.02
397.00	1811.57
397.19	1818.60
397.39	1710.93
397.58	1769.44
397.77	1858.39
397.97	1825.62
398.16	1891.15
398.35	1907.54
398.55	1905.20
398.74	1891.15
398.93	1944.99
399.12	1980.09
399.32	1856.04
399.51	1872.43
399.70	1977.75
399.90	1930.94
400.09	2019.88
400.28	1996.48
400.47	2019.88
400.67	2136.91
400.86	2101.80
401.05	2150.95
401.24	2071.37
401.44	2221.17
401.63	2148.61
401.82	2064.35
402.01	1994.14
402.21	2176.70
402.40	2141.59
402.59	2143.93
402.78	2282.02
402.97	2253.94
403.17	2277.34
403.36	2289.04
403.55	2363.94
403.74	2289.04
403.93	2420.11
404.13	2487.99
404.32	2375.64
404.51	2352.24
404.70	2368.62
404.89	2497.35
405.09	2597.99
405.28	2509.05
405.47	2532.46
405.66	2565.23
405.85	2626.08
406.05	2635.44
406.24	2471.61
406.43	2560.55
406.62	2661.19
406.81	2712.68
407.00	2509.05
407.20	2593.31
407.39	2607.36
407.58	2794.60
407.77	2696.30
407.96	2670.55
408.15	2808.64
408.34	2810.98
408.54	2717.36
408.73	2813.32
408.92	2801.62
409.11	2775.88
409.30	2939.71
409.49	2935.03
409.68	2939.71
409.87	2892.90
410.07	2977.16
410.26	3084.83
410.45	3063.76
410.64	2981.84
410.83	3030.99
411.02	3068.44
411.21	3260.37
411.40	3192.49
411.59	3133.98
411.78	3204.19
411.98	3133.98
412.17	3328.24
412.36	3372.71
412.55	3335.26
412.74	3421.86
412.93	3379.73
413.12	3342.28
413.31	3588.04
413.50	3522.51
413.69	3515.48
413.88	3585.70
414.07	3639.53
414.26	3646.55
414.45	3616.13
414.64	3627.83
414.83	3882.95
415.02	3939.12
415.22	3871.25
415.41	3758.90
415.60	4025.72
415.79	3889.97
415.98	3971.89
416.17	4086.58
416.36	4077.21
416.55	3997.64
416.74	4011.68
416.93	4117.00
417.12	4133.39
417.31	4358.08
417.50	4222.33
417.69	4341.69
417.88	4308.93
418.07	4329.99
418.26	4266.80
418.45	4407.23
418.64	4580.43
418.83	4428.29
419.02	4503.19
419.21	4500.85
419.39	4472.76
419.58	4521.92
419.77	4463.40
419.96	4383.82
420.15	4622.56
420.34	4596.81
420.53	4793.42
420.72	4695.11
420.91	4812.14
421.10	4767.67
421.29	4901.08
421.48	4762.99
421.67	4741.93
421.86	4779.37
422.05	4849.59
422.24	4884.70
422.43	5006.41
422.61	4894.06
422.80	5055.56
422.99	4809.80
423.18	4964.28
423.37	4961.94
423.56	4887.04
423.75	4929.17
423.94	4795.76
424.13	4667.03
424.32	4840.23
424.50	5078.96
424.69	5228.76
424.88	5102.37
425.07	5018.11
425.26	4931.51
425.45	4865.97
425.64	5022.79
425.83	4980.66
426.01	5071.94
426.20	5008.75
426.39	5205.35
426.58	5013.43
426.77	5076.62
426.96	5228.76
427.15	5177.26
427.33	5331.74
427.52	5050.88
427.71	5378.55
427.90	5313.02
428.09	5394.93
428.28	5273.23
428.46	5444.09
428.65	5446.43
428.84	5430.04
429.03	5586.86
429.22	5238.12
429.40	5561.11
429.59	5579.84
429.78	5376.21
429.97	5392.59
430.16	5572.82
430.34	5664.10
430.53	5846.66
430.72	5640.69
430.91	5469.83
431.10	5692.18
431.28	5809.21
431.47	5893.47
431.66	5909.85
431.85	5802.19
432.03	5919.21
432.22	6186.04
432.41	5802.19
432.60	5860.70
432.79	6054.97
432.97	6094.76
433.16	6059.65
433.35	6043.26
433.54	6036.24
433.72	6134.54
433.91	6090.07
434.10	6141.57
434.28	6155.61
434.47	6223.48
434.66	6260.93
434.85	6490.31
435.03	6373.28
435.22	6464.56
435.41	6658.82
435.59	6516.05
435.78	6487.96
435.97	6555.84
436.16	6544.14
436.34	6434.13
436.53	6478.60
436.72	6614.35
436.90	6370.94
437.09	6715.00
437.28	6525.41
437.46	6712.66
437.65	6541.80
437.84	6619.04
438.02	6825.00
438.21	6794.58
438.40	6892.88
438.58	6967.77
438.77	7019.27
438.96	6937.35
439.14	7218.21
439.33	7239.28
439.52	7246.30
439.70	7199.49
439.89	7295.45
440.08	7442.90
440.26	7487.37
440.45	7389.07
440.63	7503.76
440.82	7873.56
441.01	7494.40
441.19	7714.41
441.38	7840.79
441.57	7765.90
441.75	7901.65
441.94	7948.46
442.12	8021.02
442.31	8114.64
442.50	8173.15
442.68	8053.78
442.87	8100.59
443.05	8430.61
443.24	8374.44
443.43	8273.79
443.61	8222.30
443.80	8416.57
443.98	8100.59
444.17	7915.69
444.35	8351.03
444.54	8461.04
444.73	8297.20
444.91	8290.18
445.10	8325.29
445.28	8301.88
445.47	8320.60
445.65	8290.18
445.84	8482.10
446.02	8734.88
446.21	8402.52
446.39	8571.04
446.58	8678.71
446.77	8517.21
446.95	8390.82
447.14	8482.10
447.32	8547.64
447.51	8542.96
447.69	8685.73
447.88	8634.24
448.06	8393.16
448.25	8409.54
448.43	8875.31
448.62	8582.74
448.80	8557.00
448.99	8865.95
449.17	8863.61
449.36	8734.88
449.54	8959.57
449.73	9020.42
449.91	9097.66
450.10	9085.96
450.28	9107.02
450.46	9153.84
450.65	9146.81
450.83	9055.53
451.02	9076.60
451.20	9488.53
451.39	9163.20
451.57	9305.97
451.76	9174.90
451.94	9228.73
452.13	9521.30
452.31	9320.01
452.49	9252.14
452.68	9357.46
452.86	9275.54
453.05	9640.67
453.23	9554.07
453.42	9355.12
453.60	9509.60
453.78	9586.83
453.97	9516.62
454.15	9558.75
454.34	9544.70
454.52	9743.65
454.70	9703.86
454.89	9762.37
455.07	9853.66
455.26	9764.72
455.44	10162.61
455.62	9940.26
455.81	9820.89
455.99	10263.25
456.17	10228.14
456.36	10134.52
456.54	10003.45
456.73	10307.72
456.91	10590.92
457.09	10436.45
457.28	10572.20
457.46	10326.44
457.64	10668.16
457.83	10504.32
458.01	10684.55
458.19	10609.65
458.38	10640.08
458.56	10609.65
458.74	10824.98
458.93	10853.06
459.11	10635.39
459.29	10965.41
459.48	10817.96
459.66	10862.43
459.84	10932.64
460.03	11023.92
460.21	10918.60
460.39	10913.92
460.57	11265.00
460.76	11379.68
460.94	11220.53
461.12	11360.96
461.31	11169.04
461.49	11204.14
461.67	11290.74
461.85	11477.99
462.04	11637.14
462.22	11510.75
462.40	11627.78
462.59	11796.30
462.77	11494.37
462.95	11550.54
463.13	11836.09
463.32	11894.60
463.50	11831.41
463.68	11779.92
463.86	11634.80
464.05	11822.05
464.23	11946.09
464.41	12004.61
464.59	12032.69
464.78	12198.87
464.96	12163.76
465.14	11733.11
465.32	12077.16
465.50	12191.85
465.69	12147.38
465.87	12009.29
466.05	12121.63
466.23	12358.03
466.41	12486.76
466.60	12336.96
466.78	12138.02
466.96	12241.00
467.14	12538.25
467.32	12472.71
467.51	12430.59
467.69	12224.62
467.87	12552.29
468.05	12865.92
468.23	12411.86
468.41	12329.94
468.60	12599.10
468.78	12610.81
468.96	12854.22
469.14	12641.23
469.32	13160.83
469.50	12926.78
469.69	13053.17
469.87	13249.77
470.05	13071.89
470.23	12896.35
470.41	13376.16
470.59	13635.96
470.77	13406.59
470.95	13408.93
471.14	13582.13
471.32	13369.14
471.50	13617.24
471.68	13626.60
471.86	13572.77
472.04	13888.74
472.22	14075.98
472.40	13722.56
472.58	13848.95
472.77	13980.02
472.95	14401.32
473.13	14754.74
473.31	14377.91
473.49	14450.47
473.67	14122.79
473.85	14532.39
474.03	14857.72
474.21	14747.72
474.39	14902.19
474.57	14853.04
474.75	14771.12
474.93	15028.58
475.12	15145.61
475.30	15377.32
475.48	15197.10
475.66	15442.85
475.84	15372.64
476.02	15536.48
476.20	15655.84
476.38	15847.77
476.56	16086.50
476.74	16184.80
476.92	16166.08
477.10	15840.75
477.28	16376.73
477.46	16327.58
477.64	16180.12
477.82	16779.30
478.00	17092.93
478.18	17172.51
478.36	17102.29
478.54	17214.64
478.72	17205.28
478.90	17549.34
479.08	17797.43
479.26	17703.81
479.44	17841.90
479.62	18022.12
479.80	18211.71
479.98	18331.08
480.16	18843.65
480.34	18647.05
480.52	18405.97
480.70	18604.92
480.88	18752.37
481.06	18768.76
481.24	19290.70
481.41	19140.90
481.59	19480.28
481.77	19723.69
481.95	19686.25
482.13	20027.96
482.31	19704.97
482.49	20732.47
482.67	20332.23
482.85	20608.42
483.03	20552.24
483.21	20893.96
483.39	21010.99
483.57	21188.87
483.74	21364.41
483.92	21530.59
484.10	21142.06
484.28	21930.82
484.46	22125.08
484.64	22452.76
484.82	22309.99
485.00	22228.07
485.18	22930.23
485.35	23271.95
485.53	22787.46
485.71	22993.42
485.89	23831.33
486.07	23218.11
486.25	23639.41
486.43	23840.70
486.61	23887.51
486.78	24397.74
486.96	24566.26
487.14	24964.15
487.32	24833.08
487.50	25020.33
487.68	25209.91
487.85	25404.17
488.03	25645.25
488.21	26232.72
488.39	26230.38
488.57	26155.49
488.75	26525.29
488.92	26712.53
489.10	26988.72
489.28	26785.09
489.46	27571.51
489.64	27264.90
489.81	27971.74
489.99	27950.68
490.17	27943.66
490.35	28416.44
490.53	28584.96
490.70	28875.19
490.88	28393.04
491.06	29261.38
491.24	29090.52
491.41	29319.89
491.59	29401.81
491.77	29961.20
491.95	29848.85
492.13	30015.03
492.30	29940.13
492.48	30293.55
492.66	30459.73
492.84	30590.80
493.01	31171.25
493.19	30848.26
493.37	31402.97
493.54	31695.53
493.72	31812.56
493.90	31917.89
494.08	31861.71
494.25	32236.20
494.43	32552.17
494.61	32676.22
494.79	32479.61
494.96	33184.12
495.14	33399.44
495.32	33553.92
495.49	33462.64
495.67	33392.42
495.85	33975.22
496.02	34197.57
496.20	34260.76
496.38	34043.09
496.55	34707.80
496.73	34714.83
496.91	34918.45
497.09	34881.00
497.26	35009.73
497.44	35519.97
497.62	35466.14
497.79	36465.55
497.97	35424.01
498.14	36187.02
498.32	36608.32
498.50	36343.84
498.67	37036.64
498.85	37050.68
499.03	36786.20
499.20	37366.65
499.38	36905.57
499.56	37497.72
499.73	37289.42
499.91	37823.06
500.08	37619.43
500.26	37816.04
500.44	37886.25
500.61	38171.80
500.79	38183.50
500.97	38071.15
501.14	38904.38
501.32	38618.84
501.49	38916.09
501.67	39115.03
501.84	39559.73
502.02	39335.04
502.20	39379.51
502.37	39466.11
502.55	39665.06
502.72	39864.00
502.90	39688.46
503.07	39892.09
503.25	40044.23
503.43	40074.65
503.60	40439.78
503.78	40680.85
503.95	40615.32
504.13	41462.59
504.30	41085.76
504.48	40994.48
504.65	41053.00
504.83	41345.56
505.01	41769.20
505.18	41301.09
505.36	41698.98
505.53	41642.81
505.71	41780.90
505.88	42450.30
506.06	41415.78
506.23	42059.43
506.41	42075.81
506.58	42621.16
506.76	42642.22
506.93	42466.68
507.11	42787.33
507.28	42876.27
507.46	42983.94
507.63	43201.61
507.81	43543.33
507.98	43178.20
508.16	43770.36
508.33	43786.74
508.50	44479.54
508.68	43648.65
508.85	44505.29
509.03	44505.29
509.20	44189.31
509.38	44486.56
509.55	44690.19
509.73	44781.47
509.90	44952.33
510.08	44830.62
510.25	44690.19
510.42	45158.30
510.60	45181.70
510.77	45563.21
510.95	45612.36
511.12	45509.38
511.30	45340.86
511.47	46080.47
511.64	46216.22
511.82	46417.50
511.99	45886.20
512.17	46164.73
512.34	46415.16
512.51	46543.89
512.69	46635.17
512.86	46866.89
513.04	46892.63
513.21	46611.77
513.38	46960.51
513.56	47835.87
513.73	47192.22
513.90	47622.88
514.08	47257.76
514.25	47983.32
514.43	47847.57
514.60	47861.61
514.77	47686.07
514.95	48156.52
515.12	47739.91
515.29	48296.95
515.47	48460.79
515.64	48547.39
515.81	48210.35
515.99	48596.54
516.16	48676.12
516.33	48633.99
516.51	48849.32
516.68	49027.20
516.85	48926.56
517.03	49132.53
517.20	49401.69
517.37	49205.08
517.54	48945.28
517.72	49099.76
517.89	49478.92
518.06	49741.06
518.24	49837.03
518.41	49607.65
518.58	49846.39
518.75	49745.75
518.93	49785.54
519.10	49900.22
519.27	50344.92
519.45	50024.27
519.62	50368.33
519.79	50277.05
519.96	50300.45
520.14	50499.40
520.31	50274.71
520.48	51065.81
520.65	50333.22
520.83	50759.20
521.00	51093.89
521.17	50674.94
521.34	50990.91
521.52	51136.02
521.69	51145.39
521.86	51447.32
522.03	51444.98
522.20	51646.26
522.38	51845.21
522.55	51737.54
522.72	51966.91
522.89	51529.23
523.07	51838.18
523.24	51791.37
523.41	52186.92
523.58	51594.77
523.75	52193.95
523.92	52102.67
524.10	52215.01
524.27	52369.49
524.44	52074.58
524.61	52348.42
524.78	52655.03
524.96	52481.83
525.13	52615.24
525.30	52687.80
525.47	52739.29
525.64	52617.58
525.81	52877.38
525.98	53111.44
526.16	52704.18
526.33	52973.34
526.50	53055.26
526.67	52987.39
526.84	53179.31
527.01	53195.70
527.18	53186.33
527.36	53036.54
527.53	53415.71
527.70	53886.15
527.87	53977.43
528.04	53352.51
528.21	53738.70
528.38	54024.25
528.55	53790.19
528.72	53556.14
528.89	53851.05
529.07	53661.46
529.24	53907.22
529.41	54064.03
529.58	53794.87
529.75	53829.98
529.92	54113.19
530.09	54075.74
530.26	54122.55
530.43	54255.96
530.60	54092.12
530.77	54176.38
530.94	54461.93
531.11	54199.79
531.28	54286.39
531.46	54522.78
531.63	54588.31
531.80	54574.27
531.97	54674.91
532.14	55154.72
532.31	54642.15
532.48	54754.49
532.65	54866.84
532.82	54810.67
532.99	54824.71
533.16	54695.98
533.33	55023.65
533.50	55269.41
533.67	55096.21
533.84	54925.35
534.01	55047.06
534.18	55150.04
534.35	55557.30
534.52	55257.71
534.69	55271.75
534.86	55405.16
535.03	55114.94
535.20	55430.91
535.37	55580.70
535.54	55554.96
535.71	55601.77
535.88	55564.32
536.05	55803.05
536.22	55615.81
536.38	55929.44
536.55	55735.18
536.72	55962.21
536.89	55812.41
537.06	55894.33
537.23	55828.80
537.40	56030.08
537.57	55884.97
537.74	56020.72
537.91	56184.56
538.08	56161.15
538.25	55894.33
538.42	56189.24
538.59	56512.23
538.75	56219.67
538.92	56418.61
539.09	56547.34
539.26	56299.25
539.43	56112.00
539.60	56491.17
539.77	56315.63
539.94	56699.48
540.11	56437.34
540.28	56528.62
540.44	56582.45
540.61	56760.33
540.78	56617.56
540.95	56652.67
541.12	56631.60
541.29	56842.25
541.46	56893.74
541.62	56790.76
541.79	56945.23
541.96	56554.36
542.13	56933.53
542.30	56715.86
542.47	56938.21
542.63	57006.09
542.80	57169.93
542.97	57268.23
543.14	57329.08
543.31	57396.96
543.48	57616.97
543.64	57764.42
543.81	57588.88
543.98	57441.43
544.15	57537.39
544.32	57766.76
544.48	57677.82
544.65	57832.30
544.82	57549.09
544.99	57556.11
545.16	57757.40
545.32	57663.78
545.49	58003.16
545.66	57869.75
545.83	57916.56
546.00	58059.33
546.16	57829.96
546.33	57628.67
546.50	57787.83
546.67	58045.29
546.83	57806.55
547.00	57930.60
547.17	57741.02
547.34	57921.24
547.50	58120.18
547.67	58431.47
547.84	58064.01
548.00	58389.34
548.17	58637.44
548.34	58351.90
548.51	58480.63
548.67	58422.11
548.84	58326.15
549.01	58281.68
549.18	58436.16
549.34	58553.18
549.51	58321.47
549.68	58513.39
549.84	58726.38
550.01	58602.33
550.18	58466.58
550.34	58621.06
550.51	58796.60
550.68	58658.51
550.84	58614.04
551.01	58698.30
551.18	58653.82
551.34	58766.17
551.51	58738.08
551.68	58824.68
551.84	58684.25
552.01	58745.11
552.18	59030.65
552.34	58859.79
552.51	58726.38
552.68	58885.54
552.84	58824.68
553.01	58983.84
553.18	58789.58
553.34	59234.28
553.51	58941.71
553.67	59086.82
553.84	59260.02
554.01	59068.10
554.17	59283.43
554.34	59189.81
554.51	59337.26
554.67	59409.82
554.84	59185.13
555.00	59157.04
555.17	59178.10
555.33	59257.68
555.50	59236.62
555.67	59147.68
555.83	59030.65
556.00	59435.56
556.16	59587.70
556.33	59494.08
556.50	59498.76
556.66	59519.82
556.83	59351.30
556.99	59901.33
557.16	59627.49
557.32	59599.40
557.49	59866.22
557.65	59599.40
557.82	59781.96
557.98	59374.71
558.15	59686.00
558.32	59807.71
558.48	59360.67
558.65	59737.49
558.81	59597.06
558.98	59723.45
559.14	59824.09
559.31	59913.03
559.47	59906.01
559.64	59770.26
559.80	59725.79
559.97	59966.87
560.13	59952.82
560.30	59882.61
560.46	59770.26
560.63	59854.52
560.79	59796.01
560.96	60168.15
561.12	60111.98
561.29	60093.25
561.45	60135.38
561.61	59891.97
561.78	60126.02
561.94	60189.22
562.11	60058.15
562.27	60016.02
562.44	60151.77
562.60	60163.47
562.77	60212.62
562.93	59952.82
563.10	60350.71
563.26	60051.12
563.42	60353.05
563.59	60261.77
563.75	60114.32
563.92	60111.98
564.08	60191.56
564.24	60381.14
564.41	60310.92
564.57	60505.19
564.74	60383.48
564.90	60238.37
565.07	60037.08
565.23	60355.39
565.39	60348.37
565.56	60331.99
565.72	60301.56
565.88	60404.55
566.05	60397.52
566.21	60449.02
566.38	60624.56
566.54	60699.45
566.70	60535.62
566.87	60690.09
567.03	60399.86
567.19	60533.28
567.36	60624.56
567.52	60439.65
567.68	60877.33
567.85	60575.40
568.01	60673.71
568.17	60523.91
568.34	60624.56
568.50	60669.03
568.66	60509.87
568.83	60575.40
568.99	60514.55
569.15	60631.58
569.32	60601.15
569.48	60568.38
569.64	60580.09
569.81	60732.22
569.97	60441.99
570.13	60552.00
570.30	60589.45
570.46	60767.33
570.62	60774.35
570.78	60671.37
570.95	60701.79
571.11	60935.85
571.27	60701.79
571.43	60889.04
571.60	60865.63
571.76	60935.85
571.92	60846.91
572.09	60832.86
572.25	60793.07
572.41	60849.25
572.57	60652.64
572.74	60996.70
572.90	60678.39
573.06	60814.14
573.22	60837.54
573.38	60788.39
573.55	60849.25
573.71	60676.05
573.87	60814.14
574.03	60786.05
574.20	60814.14
574.36	60638.60
574.52	60837.54
574.68	60975.64
574.84	61043.51
575.01	61102.03
575.17	60956.91
575.33	60839.89
575.49	60786.05
575.65	60996.70
575.82	60992.02
575.98	60973.30
576.14	61237.78
576.30	61165.22
576.46	60961.59
576.62	60985.00
576.79	60921.80
576.95	60952.23
577.11	60858.61
577.27	61083.30
577.43	60942.87
577.59	61034.15
577.75	61045.85
577.92	60928.83
578.08	60853.93
578.24	60797.76
578.40	61043.51
578.56	61034.15
578.72	61118.41
578.88	61179.26
579.04	61331.40
579.21	61144.16
579.37	61139.47
579.53	61179.26
579.69	60949.89
579.85	60987.34
580.01	61050.53
580.17	61006.06
580.33	61123.09
580.49	61111.39
580.65	60987.34
580.82	60935.85
580.98	60977.98
581.14	60809.46
581.30	60989.68
581.46	61230.75
581.62	61179.26
581.78	61179.26
581.94	61261.18
582.10	61130.11
582.26	61125.43
582.42	61076.28
582.58	61139.47
582.74	61102.03
582.90	61123.09
583.06	61317.35
583.22	60989.68
583.38	61186.28
583.54	61080.96
583.70	61240.12
583.86	61202.67
584.02	61027.13
584.18	61237.78
584.34	61165.22
584.50	61020.11
584.66	60992.02
584.82	61104.37
584.98	61275.22
585.14	61197.99
585.30	61190.97
585.46	61106.71
585.62	61378.21
585.78	61261.18
585.94	61146.50
586.10	61244.80
586.26	61205.01
586.42	61048.19
586.58	61284.59
586.74	61034.15
586.90	61099.68
587.06	61003.72
587.22	61588.86
587.38	61300.97
587.54	61368.85
587.70	61485.87
587.86	61212.03
588.02	61413.32
588.18	61492.89
588.34	61338.42
588.49	61244.80
