SpectraSuite Data File
++++++++++++++++++++++++++++++++++++
Date: Fri Oct 25 10:44:52 EDT 2013
User: price-jones
Dark Spectrum Present: No
Reference Spectrum Present: No
Number of Sampled Component Spectra: 1
Spectrometers: USB2+H05261
Integration Time (usec): 100000 (USB2+H05261)
Spectra Averaged: 1 (USB2+H05261)
Boxcar Smoothing: 0 (USB2+H05261)
Correct for Electrical Dark: No (USB2+H05261)
Strobe/Lamp Enabled: No (USB2+H05261)
Correct for Detector Non-linearity: No (USB2+H05261)
Correct for Stray Light: No (USB2+H05261)
Number of Pixels in Processed Spectrum: 2048
>>>>>Begin Processed Spectral Data<<<<<
365.73	84.26
365.92	84.26
366.12	84.26
366.32	102.98
366.52	32.77
366.72	95.96
366.91	25.75
367.11	56.17
367.31	39.79
367.51	37.45
367.70	0.00
367.90	74.90
368.10	35.11
368.30	44.47
368.49	49.15
368.69	74.90
368.89	35.11
369.09	21.06
369.28	25.75
369.48	23.41
369.68	81.92
369.87	60.85
370.07	70.22
370.27	128.73
370.47	161.50
370.66	379.17
370.86	362.78
371.06	344.06
371.25	449.38
371.45	472.79
371.65	503.22
371.84	402.57
372.04	372.15
372.24	512.58
372.44	486.83
372.63	470.45
372.83	566.41
373.03	461.09
373.22	479.81
373.42	517.26
373.62	531.30
373.81	582.79
374.01	500.87
374.21	638.97
374.40	521.94
374.60	479.81
374.79	564.07
374.99	550.03
375.19	585.13
375.38	451.72
375.58	528.96
375.78	571.09
375.97	554.71
376.17	608.54
376.37	664.71
376.56	557.05
376.76	622.58
376.95	571.09
377.15	613.22
377.35	578.11
377.54	617.90
377.74	624.92
377.93	589.82
378.13	676.41
378.33	648.33
378.52	645.99
378.72	580.45
378.91	667.05
379.11	575.77
379.31	610.88
379.50	531.30
379.70	566.41
379.89	627.26
380.09	594.50
380.28	641.31
380.48	648.33
380.68	620.24
380.87	671.73
381.07	690.46
381.26	723.23
381.46	627.26
381.65	692.80
381.85	669.39
382.04	645.99
382.24	627.26
382.43	657.69
382.63	634.29
382.83	727.91
383.02	653.01
383.22	741.95
383.41	655.35
383.61	718.54
383.80	725.57
384.00	711.52
384.19	828.55
384.39	709.18
384.58	788.76
384.78	667.05
384.97	739.61
385.17	774.72
385.36	688.12
385.56	823.87
385.75	774.72
385.95	795.78
386.14	786.42
386.34	774.72
386.53	772.38
386.72	807.48
386.92	807.48
387.11	800.46
387.31	751.31
387.50	884.72
387.70	805.14
387.89	851.96
388.09	807.48
388.28	734.93
388.48	809.83
388.67	851.96
388.86	849.61
389.06	788.76
389.25	929.19
389.45	877.70
389.64	866.00
389.84	901.11
390.03	844.93
390.22	936.21
390.42	931.53
390.61	873.02
390.81	863.66
391.00	957.28
391.19	915.15
391.39	985.37
391.58	929.19
391.78	945.58
391.97	1050.90
392.16	950.26
392.36	933.87
392.55	950.26
392.75	947.92
392.94	917.49
393.13	947.92
393.33	983.02
393.52	1011.11
393.71	999.41
393.91	1053.24
394.10	1090.69
394.29	1086.01
394.49	1029.84
394.68	1100.05
394.88	1062.60
395.07	1118.78
395.26	1097.71
395.46	1083.67
395.65	1128.14
395.84	1121.12
396.04	1224.10
396.23	1060.26
396.42	1086.01
396.62	1167.93
396.81	1123.46
397.00	1069.62
397.19	1184.31
397.39	1121.12
397.58	1238.14
397.77	1254.53
397.97	1259.21
398.16	1266.23
398.35	1228.78
398.55	1334.11
398.74	1291.98
398.93	1397.30
399.12	1203.04
399.32	1336.45
399.51	1320.06
399.70	1432.41
399.90	1277.93
400.09	1376.24
400.28	1383.26
400.47	1355.17
400.67	1366.87
400.86	1394.96
401.05	1481.56
401.24	1509.65
401.44	1500.28
401.63	1584.54
401.82	1563.48
402.01	1556.46
402.21	1497.94
402.40	1547.09
402.59	1509.65
402.78	1519.01
402.97	1509.65
403.17	1614.97
403.36	1666.46
403.55	1678.16
403.74	1626.67
403.93	1680.50
404.13	1666.46
404.32	1631.35
404.51	1589.22
404.70	1722.63
404.89	1626.67
405.09	1746.04
405.28	1746.04
405.47	1706.25
405.66	1750.72
405.85	1715.61
406.05	1732.00
406.24	1739.02
406.43	1858.39
406.62	1926.26
406.81	1853.70
407.00	1863.07
407.20	1799.87
407.39	1778.81
407.58	1914.56
407.77	2113.50
407.96	2033.93
408.15	2047.97
408.34	1980.09
408.54	2005.84
408.73	1991.80
408.92	2092.44
409.11	2022.22
409.30	2167.34
409.49	2033.93
409.68	2019.88
409.87	2083.08
410.07	2094.78
410.26	2111.16
410.45	2160.31
410.64	2181.38
410.83	2277.34
411.02	2190.74
411.21	2363.94
411.40	2263.30
411.59	2349.90
411.78	2272.66
411.98	2214.15
412.17	2265.64
412.36	2370.96
412.55	2389.69
412.74	2438.84
412.93	2518.42
413.12	2347.56
413.31	2490.33
413.50	2612.04
413.69	2457.56
413.88	2548.84
414.07	2576.93
414.26	2612.04
414.45	2750.13
414.64	2581.61
414.83	2633.10
415.02	2752.47
415.22	2698.64
415.41	2693.96
415.60	2796.94
415.79	2825.03
415.98	2899.92
416.17	2885.88
416.36	2843.75
416.55	2904.60
416.74	2937.37
416.93	3045.04
417.12	2935.03
417.31	3038.02
417.50	3084.83
417.69	3073.12
417.88	3030.99
418.07	3021.63
418.26	3084.83
418.45	3038.02
418.64	3262.71
418.83	3178.45
419.02	3148.02
419.21	3155.04
419.39	3232.28
419.58	3229.94
419.77	3117.59
419.96	3311.86
420.15	3337.60
420.34	3260.37
420.53	3356.33
420.72	3349.31
420.91	3485.06
421.10	3353.99
421.29	3471.01
421.48	3344.63
421.67	3426.54
421.86	3346.97
422.05	3421.86
422.24	3529.53
422.43	3403.14
422.61	3391.44
422.80	3566.98
422.99	3517.83
423.18	3613.79
423.37	3571.66
423.56	3508.46
423.75	3634.85
423.94	3538.89
424.13	3349.31
424.32	3410.16
424.50	3585.70
424.69	3651.24
424.88	3641.87
425.07	3494.42
425.26	3529.53
425.45	3611.45
425.64	3613.79
425.83	3557.61
426.01	3618.47
426.20	3522.51
426.39	3557.61
426.58	3566.98
426.77	3597.40
426.96	3613.79
427.15	3674.64
427.33	3695.71
427.52	3632.51
427.71	3761.24
427.90	3749.54
428.09	3845.50
428.28	3906.35
428.46	3817.41
428.65	3861.88
428.84	3882.95
429.03	3822.09
429.22	3744.86
429.40	3824.44
429.59	3859.54
429.78	3740.18
429.97	3726.13
430.16	3742.52
430.34	3808.05
430.53	3985.93
430.72	3920.40
430.91	3850.18
431.10	4056.15
431.28	4091.26
431.47	4173.18
431.66	4210.62
431.85	4159.13
432.03	4079.55
432.22	4205.94
432.41	4126.36
432.60	4255.09
432.79	4161.47
432.97	4337.01
433.16	4329.99
433.35	4175.52
433.54	4266.80
433.72	4264.46
433.91	4329.99
434.10	4219.99
434.28	4315.95
434.47	4442.34
434.66	4477.44
434.85	4407.23
435.03	4472.76
435.22	4442.34
435.41	4706.82
435.59	4528.94
435.78	4739.58
435.97	4521.92
436.16	4629.58
436.34	4711.50
436.53	4667.03
436.72	4711.50
436.90	4657.67
437.09	4730.22
437.28	4498.51
437.46	4603.83
437.65	4671.71
437.84	4781.71
438.02	4603.83
438.21	4795.76
438.40	4660.01
438.58	4781.71
438.77	4922.15
438.96	4929.17
439.14	4966.62
439.33	4975.98
439.52	5020.45
439.70	5050.88
439.89	5032.15
440.08	5123.43
440.26	5369.19
440.45	5298.97
440.63	5327.06
440.82	5401.96
441.01	5352.81
441.19	5446.43
441.38	5607.92
441.57	5460.47
441.75	5626.65
441.94	5708.57
442.12	5631.33
442.31	5572.82
442.50	5657.07
442.68	5612.60
442.87	5696.86
443.05	5610.26
443.24	5921.56
443.43	5811.55
443.61	5771.76
443.80	5844.32
443.98	5652.39
444.17	5729.63
444.35	5790.49
444.54	5944.96
444.73	5916.87
444.91	5799.85
445.10	5956.66
445.28	5853.68
445.47	5760.06
445.65	5977.73
445.84	5881.77
446.02	5975.39
446.21	5774.10
446.39	5926.24
446.58	6092.41
446.77	6066.67
446.95	5919.21
447.14	6026.88
447.32	6001.13
447.51	6216.46
447.69	5949.64
447.88	5980.07
448.06	6033.90
448.25	6101.78
448.43	6141.57
448.62	6015.18
448.80	5989.43
448.99	6171.99
449.17	6069.01
449.36	6038.58
449.54	6207.10
449.73	6279.66
449.91	6272.64
450.10	6380.30
450.28	6342.85
450.46	6417.75
450.65	6511.37
450.83	6497.33
451.02	6633.08
451.20	6548.82
451.39	6509.03
451.57	6286.68
451.76	6399.02
451.94	6509.03
452.13	6642.44
452.31	6539.46
452.49	6457.54
452.68	6623.72
452.86	6520.73
453.05	6574.56
453.23	6738.40
453.42	6539.46
453.60	6546.48
453.78	6715.00
453.97	6621.38
454.15	6626.06
454.34	6668.19
454.52	6817.98
454.70	6724.36
454.89	6841.39
455.07	6785.21
455.26	6869.47
455.44	6881.18
455.62	6885.86
455.81	7091.82
455.99	7035.65
456.17	6998.20
456.36	7091.82
456.54	7070.76
456.73	7185.44
456.91	7295.45
457.09	7363.33
457.28	7501.42
457.46	7258.00
457.64	7342.26
457.83	7318.86
458.01	7201.83
458.19	7492.05
458.38	7573.97
458.56	7590.36
458.74	7676.96
458.93	7363.33
459.11	7566.95
459.29	7496.74
459.48	7522.48
459.66	7449.93
459.84	7824.41
460.03	7644.19
460.21	7651.21
460.39	7735.47
460.57	7683.98
460.76	7775.26
460.94	7768.24
461.12	7868.88
461.31	7798.66
461.49	7819.73
461.67	7761.22
461.85	7943.78
462.04	7843.14
462.22	8105.28
462.40	7786.96
462.59	8074.85
462.77	8128.68
462.95	8018.68
463.13	7859.52
463.32	8131.02
463.50	8177.83
463.68	8039.74
463.86	8177.83
464.05	8013.99
464.23	8149.75
464.41	8262.09
464.59	8060.80
464.78	8301.88
464.96	8435.29
465.14	8248.05
465.32	8388.48
465.50	8456.36
465.69	8468.06
465.87	8404.86
466.05	8421.25
466.23	8482.10
466.41	8238.69
466.60	8643.60
466.78	8461.04
466.96	8255.07
467.14	8482.10
467.32	8479.76
467.51	8772.33
467.69	8276.13
467.87	8641.26
468.05	8542.96
468.23	8498.49
468.41	8683.39
468.60	8809.78
468.78	8816.80
468.96	8526.57
469.14	8861.27
469.32	8990.00
469.50	8566.36
469.69	9111.71
469.87	8887.01
470.05	8917.44
470.23	8985.32
470.41	9025.11
470.59	9053.19
470.77	8840.20
470.95	9268.52
471.14	9214.69
471.32	8945.53
471.50	9348.10
471.68	9287.25
471.86	9537.68
472.04	9266.18
472.22	9568.11
472.40	9305.97
472.58	9619.60
472.77	9668.75
472.95	9467.47
473.13	10012.81
473.31	9612.58
473.49	9760.03
473.67	9612.58
473.85	9797.48
474.03	9898.13
474.21	9930.89
474.39	9994.09
474.57	10148.56
474.75	10307.72
474.93	10253.89
475.12	10083.03
475.30	10504.32
475.48	10197.71
475.66	10300.70
475.84	10319.42
476.02	10551.14
476.20	10567.52
476.38	10579.22
476.56	10736.04
476.74	10808.59
476.92	10836.68
477.10	10593.26
477.28	11049.67
477.46	10846.04
477.64	11115.20
477.82	11222.87
478.00	11604.38
478.18	11274.36
478.36	11316.49
478.54	11681.61
478.72	11573.95
478.90	11690.98
479.08	11793.96
479.26	11749.49
479.44	12133.34
479.62	12079.50
479.80	12152.06
479.98	12308.88
480.16	12617.83
480.34	12407.18
480.52	12568.68
480.70	12510.16
480.88	12531.23
481.06	12814.43
481.24	12592.08
481.41	12655.28
481.59	12879.97
481.77	13425.31
481.95	13053.17
482.13	13469.78
482.31	13151.47
482.49	13745.97
482.67	13624.26
482.85	13675.75
483.03	13994.06
483.21	13776.39
483.39	13998.74
483.57	13989.38
483.74	14139.18
483.92	14368.55
484.10	14406.00
484.28	14513.66
484.46	14576.86
484.64	14778.14
484.82	14459.83
485.00	14958.36
485.18	14956.02
485.35	15169.01
485.53	15056.67
485.71	15110.50
485.89	15459.24
486.07	15279.02
486.25	15342.21
486.43	15887.56
486.61	16105.23
486.78	16016.29
486.96	15817.34
487.14	16475.03
487.32	16292.47
487.50	16556.95
487.68	16453.97
487.85	16917.39
488.03	16842.50
488.21	17275.49
488.39	17254.43
488.57	17387.84
488.75	17289.54
488.92	17797.43
489.10	17689.77
489.28	17820.84
489.46	18101.70
489.64	18059.57
489.81	18389.59
489.99	18700.88
490.17	18698.54
490.35	18469.17
490.53	18633.00
490.70	18665.77
490.88	18721.95
491.06	19281.33
491.24	19157.28
491.41	19117.50
491.59	19257.93
491.77	19176.01
491.95	19477.94
492.13	19552.84
492.30	19997.54
492.48	19812.63
492.66	20037.33
492.84	19836.04
493.01	20322.87
493.19	20343.94
493.37	20596.71
493.54	20608.42
493.72	20615.44
493.90	20844.81
494.08	21069.50
494.25	21263.77
494.43	21654.64
494.61	21596.12
494.79	21451.01
494.96	21209.93
495.14	21710.81
495.32	21710.81
495.49	21696.77
495.67	22174.24
495.85	22225.73
496.02	21930.82
496.20	22728.94
496.38	22595.53
496.55	22836.61
496.73	23330.46
496.91	23037.89
497.09	23150.24
497.26	23236.84
497.44	23307.05
497.62	22939.59
497.79	23786.86
497.97	23206.41
498.14	23831.33
498.32	23859.42
498.50	23559.83
498.67	24168.37
498.85	24039.64
499.03	24362.64
499.20	23999.85
499.38	24128.58
499.56	24584.99
499.73	24821.38
499.91	24847.13
500.08	24519.45
500.26	24484.34
500.44	24678.61
500.61	25188.85
500.79	24723.08
500.97	25013.31
501.14	25125.65
501.32	25450.99
501.49	25247.36
501.67	25448.64
501.84	25226.29
502.02	25687.38
502.20	25568.01
502.37	26185.91
502.55	25699.08
502.72	26120.38
502.90	26300.60
503.07	26127.40
503.25	26078.25
503.43	26197.62
503.60	26389.54
503.78	25993.99
503.95	26249.11
504.13	26635.30
504.30	26796.79
504.48	26607.21
504.65	26885.73
504.83	27077.66
505.01	26941.91
505.18	26958.29
505.36	27524.70
505.53	27246.18
505.71	27503.64
505.88	27639.39
506.06	27527.04
506.23	27328.10
506.41	27250.86
506.58	28123.88
506.76	28018.55
506.93	28016.21
507.11	28006.85
507.28	27704.92
507.46	27779.82
507.63	28063.02
507.81	28690.29
507.98	28357.93
508.16	28552.20
508.33	28606.03
508.50	28795.61
508.68	28652.84
508.85	29137.33
509.03	28624.75
509.20	28730.08
509.38	29076.48
509.55	28767.52
509.73	29457.98
509.90	29675.65
510.08	29535.22
510.25	28936.04
510.42	29483.73
510.60	29584.37
510.77	29706.08
510.95	29895.66
511.12	29790.34
511.30	29865.24
511.47	30057.16
511.64	29898.00
511.82	30323.98
511.99	30061.84
512.17	30113.33
512.34	30143.76
512.51	30567.40
512.69	30876.35
512.86	30595.48
513.04	30649.32
513.21	30946.56
513.38	30918.48
513.56	30944.22
513.73	30785.07
513.90	31131.47
514.08	30803.79
514.25	31098.70
514.43	31042.53
514.60	31105.72
514.77	31384.24
514.95	31543.40
515.12	31136.15
515.29	31262.54
515.47	31756.39
515.64	31810.22
515.81	31704.90
515.99	31295.30
516.16	31789.16
516.33	31658.09
516.51	31920.23
516.68	32037.25
516.85	31913.20
517.03	31606.59
517.20	32013.85
517.37	32130.87
517.54	32549.83
517.72	32027.89
517.89	32559.19
518.06	32409.40
518.24	32458.55
518.41	32367.27
518.58	32421.10
518.75	32849.42
518.93	32617.71
519.10	32428.12
519.27	32858.78
519.45	32875.16
519.62	33139.65
519.79	33113.90
519.96	33226.24
520.14	33317.53
520.31	33034.32
520.48	33106.88
520.65	33436.89
520.83	33542.22
521.00	33586.69
521.17	34345.02
521.34	33785.63
521.52	33963.51
521.69	34195.23
521.86	34225.65
522.03	34127.35
522.20	34284.17
522.38	34359.06
522.55	34279.49
522.72	34328.64
522.89	34448.00
523.07	34721.85
523.24	34277.15
523.41	35021.44
523.58	34494.82
523.75	34656.31
523.92	34766.32
524.10	35021.44
524.27	35110.38
524.44	35194.64
524.61	35138.46
524.78	35732.96
524.96	35236.77
525.13	35669.76
525.30	35456.78
525.47	35887.43
525.64	35459.12
525.81	35718.92
525.98	35166.55
526.16	35601.89
526.33	35349.11
526.50	35763.39
526.67	35592.53
526.84	35491.88
527.01	35409.96
527.18	35786.79
527.36	36011.48
527.53	36081.70
527.70	36566.19
527.87	36456.18
528.04	36247.88
528.21	36189.36
528.38	36339.16
528.55	36191.70
528.72	36690.24
528.89	36835.35
529.07	36484.27
529.24	36442.14
529.41	36650.45
529.58	36383.63
529.75	36519.38
529.92	37027.28
530.09	36795.56
530.26	36896.20
530.43	37062.38
530.60	36896.20
530.77	36917.27
530.94	37207.50
531.11	37153.66
531.28	37516.45
531.46	37219.20
531.63	37064.72
531.80	37233.24
531.97	37315.16
532.14	37385.38
532.31	37104.51
532.48	37439.21
532.65	37666.24
532.82	37383.04
532.99	37504.74
533.16	37652.20
533.33	38087.54
533.50	38307.55
533.67	38127.33
533.84	37624.11
534.01	37958.81
534.18	37713.05
534.35	38146.05
534.52	38305.21
534.69	37956.47
534.86	38122.65
535.03	38337.98
535.20	38569.69
535.37	38710.12
535.54	38766.29
535.71	38466.70
535.88	38918.43
536.05	37923.70
536.22	39056.52
536.38	38590.75
536.55	38665.65
536.72	38476.07
536.89	38319.25
537.06	38443.30
537.23	38782.68
537.40	38939.49
537.57	38836.51
537.74	38899.70
537.91	39557.39
538.08	39014.39
538.25	38644.59
538.42	39086.95
538.59	39356.11
538.75	38801.40
538.92	39206.31
539.09	39295.25
539.26	39828.90
539.43	39269.51
539.60	39119.71
539.77	38792.04
539.94	39538.67
540.11	39206.31
540.28	39215.68
540.44	39552.71
540.61	39388.88
540.78	39552.71
540.95	39597.18
541.12	39632.29
541.29	39423.98
541.46	39454.41
541.62	39700.17
541.79	40254.87
541.96	39578.46
542.13	39849.96
542.30	40039.54
542.47	40215.08
542.63	40182.32
542.80	40336.79
542.97	40608.29
543.14	40772.13
543.31	40334.45
543.48	40116.78
543.64	41120.87
543.81	40645.74
543.98	40858.73
544.15	40847.03
544.32	40987.46
544.48	41319.82
544.65	40931.29
544.82	40861.07
544.99	41013.21
545.16	40849.37
545.32	40643.40
545.49	41244.92
545.66	41261.30
545.83	40996.82
546.00	41539.83
546.16	41120.87
546.33	40952.35
546.50	40973.42
546.67	40868.09
546.83	40542.76
547.00	41081.08
547.17	40980.44
547.34	41228.54
547.50	41790.27
547.67	41528.13
547.84	41677.92
548.00	41516.42
548.17	41961.12
548.34	41921.34
548.51	41593.66
548.67	41942.40
548.84	41488.34
549.01	41656.85
549.18	41750.48
549.34	41766.86
549.51	42038.36
549.68	41935.38
549.84	41921.34
550.01	42080.49
550.18	42029.00
550.34	42064.11
550.51	41689.62
550.68	42237.31
550.84	41593.66
551.01	42078.15
551.18	42375.40
551.34	41933.04
551.51	42099.22
551.68	41872.18
551.84	42454.98
552.01	42328.59
552.18	42412.85
552.34	42183.48
552.51	42157.73
552.68	41834.74
552.84	42602.43
553.01	42866.91
553.18	43009.68
553.34	42101.56
553.51	42342.63
553.67	42520.51
553.84	42763.93
554.01	42382.42
554.17	43005.00
554.34	42913.72
554.51	42646.90
554.67	42616.47
554.84	42895.00
555.00	42810.74
555.17	42967.55
555.33	42576.69
555.50	42501.79
555.67	42644.56
555.83	42976.92
556.00	42829.46
556.16	43728.23
556.33	42869.25
556.50	42679.67
556.66	43065.86
556.83	43129.05
556.99	43487.15
557.16	43370.13
557.32	43093.94
557.49	43587.80
557.65	43192.25
557.82	43208.63
557.98	42934.79
558.15	42696.05
558.32	43374.81
558.48	43098.62
558.65	43377.15
558.81	43084.58
558.98	43356.08
559.14	43206.29
559.31	43363.11
559.47	43704.82
559.64	43990.37
559.80	43328.00
559.97	43756.32
560.13	43332.68
560.30	43021.39
560.46	43627.59
560.63	43122.03
560.79	43515.24
560.96	43730.57
561.12	43548.01
561.29	43475.45
561.45	43964.62
561.61	43728.23
561.78	43423.96
561.94	43540.99
562.11	43889.73
562.27	43466.09
562.44	43913.13
562.60	43945.90
562.77	43604.18
562.93	43901.43
563.10	43964.62
563.26	43824.19
563.42	43765.68
563.59	43365.45
563.75	43445.02
563.92	43847.60
564.08	43779.72
564.24	43873.34
564.41	44240.81
564.57	43732.91
564.74	43938.88
564.90	43800.79
565.07	44086.33
565.23	43690.78
565.39	43866.32
565.56	44222.08
565.72	43999.73
565.88	43576.09
566.05	44133.14
566.21	44292.30
566.38	44186.97
566.54	43873.34
566.70	43999.73
566.87	44313.36
567.03	44083.99
567.19	44509.97
567.36	44011.43
567.52	44114.42
567.68	44268.89
567.85	43990.37
568.01	44320.38
568.17	43922.49
568.34	44355.49
568.50	44458.48
568.66	43814.83
568.83	44112.08
568.99	44299.32
569.15	44184.63
569.32	44116.76
569.48	43690.78
569.64	44275.91
569.81	44133.14
569.97	44224.42
570.13	44460.82
570.30	43632.27
570.46	44039.52
570.62	44025.48
570.78	44109.74
570.95	44350.81
571.11	44144.84
571.27	44175.27
571.43	44107.40
571.60	43866.32
571.76	44119.10
571.92	44428.05
572.09	44437.41
572.25	44346.13
572.41	43863.98
572.57	44156.55
572.74	44619.97
572.90	44645.72
573.06	44505.29
573.22	44168.25
573.38	44390.60
573.55	44467.84
573.71	44409.32
573.87	44088.67
574.03	44126.12
574.20	44191.65
574.36	44584.86
574.52	44580.18
574.68	44030.16
574.84	44402.30
575.01	44264.21
575.17	44481.88
575.33	44414.01
575.49	44027.82
575.65	44643.38
575.82	45001.48
575.98	44531.03
576.14	44868.07
576.30	44580.18
576.46	44575.50
576.62	44130.80
576.79	44231.44
576.95	43969.30
577.11	44453.79
577.27	44470.18
577.43	44687.85
577.59	44484.22
577.75	44512.31
577.92	43906.11
578.08	44215.06
578.24	43952.92
578.40	44165.91
578.56	44243.15
578.72	44552.10
578.88	44793.17
579.04	44514.65
579.21	44648.06
579.37	44247.83
579.53	44622.31
579.69	44645.72
579.85	44744.02
580.01	44732.32
580.17	44446.77
580.33	44699.55
580.49	44802.53
580.65	45057.65
580.82	44411.67
580.98	44545.08
581.14	44753.38
581.30	44477.20
581.46	44582.52
581.62	44502.95
581.78	44891.48
581.94	44760.40
582.10	44648.06
582.26	44847.00
582.42	44570.82
582.58	44748.70
582.74	44622.31
582.90	44547.42
583.06	44720.62
583.22	44704.23
583.38	44837.64
583.54	44584.86
583.70	44877.43
583.86	44587.21
584.02	44580.18
584.18	44807.22
584.34	44687.85
584.50	44505.29
584.66	44795.51
584.82	44762.75
584.98	44985.10
585.14	44697.21
585.30	44486.56
585.46	44570.82
585.62	44481.88
585.78	44570.82
585.94	44226.76
586.10	44942.97
586.26	44311.02
586.42	44786.15
586.58	44839.98
586.74	44727.64
586.90	44638.70
587.06	44835.30
587.22	44737.00
587.38	44013.77
587.54	44842.32
587.70	44811.90
587.86	44692.53
588.02	44725.30
588.18	44959.35
588.34	44507.63
588.49	44121.44
588.65	43856.96
588.81	44449.11
588.97	44865.73
589.13	44109.74
589.29	44545.08
589.45	44832.96
589.61	44559.12
589.77	44678.49
589.93	44821.26
590.08	45010.84
590.24	44959.35
