SpectraSuite Data File
++++++++++++++++++++++++++++++++++++
Date: Fri Oct 25 11:33:49 EDT 2013
User: price-jones
Dark Spectrum Present: No
Reference Spectrum Present: No
Number of Sampled Component Spectra: 1
Spectrometers: USB2+H05261
Integration Time (usec): 100000 (USB2+H05261)
Spectra Averaged: 1 (USB2+H05261)
Boxcar Smoothing: 0 (USB2+H05261)
Correct for Electrical Dark: No (USB2+H05261)
Strobe/Lamp Enabled: No (USB2+H05261)
Correct for Detector Non-linearity: No (USB2+H05261)
Correct for Stray Light: No (USB2+H05261)
Number of Pixels in Processed Spectrum: 2048
>>>>>Begin Processed Spectral Data<<<<<
365.73	220.01
365.92	220.01
366.12	220.01
366.32	168.52
366.52	114.69
366.72	180.22
366.91	231.71
367.11	166.18
367.31	196.60
367.51	159.16
367.70	250.44
367.90	126.39
368.10	126.39
368.30	180.22
368.49	110.01
368.69	231.71
368.89	177.88
369.09	168.52
369.28	170.86
369.48	166.18
369.68	196.60
369.87	266.82
370.07	208.31
370.27	257.46
370.47	285.55
370.66	477.47
370.86	482.15
371.06	507.90
371.25	592.16
371.45	540.66
371.65	603.86
371.84	526.62
372.04	564.07
372.24	587.47
372.44	575.77
372.63	627.26
372.83	585.13
373.03	580.45
373.22	662.37
373.42	603.86
373.62	676.41
373.81	624.92
374.01	622.58
374.21	610.88
374.40	662.37
374.60	601.52
374.79	617.90
374.99	653.01
375.19	599.18
375.38	648.33
375.58	643.65
375.78	634.29
375.97	624.92
376.17	744.29
376.37	688.12
376.56	730.25
376.76	709.18
376.95	711.52
377.15	671.73
377.35	706.84
377.54	676.41
377.74	662.37
377.93	695.14
378.13	758.33
378.33	685.78
378.52	716.20
378.72	718.54
378.91	660.03
379.11	720.88
379.31	711.52
379.50	763.01
379.70	697.48
379.89	784.08
380.09	758.33
380.28	744.29
380.48	692.80
380.68	685.78
380.87	688.12
381.07	737.27
381.26	718.54
381.46	713.86
381.65	763.01
381.85	737.27
382.04	734.93
382.24	770.04
382.43	692.80
382.63	777.06
382.83	751.31
383.02	786.42
383.22	814.51
383.41	816.85
383.61	774.72
383.80	861.32
384.00	770.04
384.19	807.48
384.39	856.64
384.58	884.72
384.78	858.98
384.97	793.44
385.17	760.67
385.36	779.40
385.56	880.04
385.75	844.93
385.95	863.66
386.14	763.01
386.34	800.46
386.53	873.02
386.72	849.61
386.92	840.25
387.11	866.00
387.31	980.68
387.50	915.15
387.70	861.32
387.89	903.45
388.09	976.00
388.28	929.19
388.48	922.17
388.67	903.45
388.86	945.58
389.06	854.30
389.25	929.19
389.45	950.26
389.64	947.92
389.84	933.87
390.03	938.55
390.22	959.62
390.42	894.08
390.61	922.17
390.81	961.96
391.00	985.37
391.19	1027.50
391.39	980.68
391.58	1102.39
391.78	999.41
391.97	933.87
392.16	987.71
392.36	1057.92
392.55	1081.33
392.75	997.07
392.94	1109.41
393.13	1006.43
393.33	1048.56
393.52	1104.73
393.71	1153.88
393.91	1006.43
394.10	1165.59
394.29	1062.60
394.49	1086.01
394.68	1139.84
394.88	1081.33
395.07	1118.78
395.26	1114.10
395.46	1146.86
395.65	1153.88
395.84	1146.86
396.04	1294.32
396.23	1203.04
396.42	1263.89
396.62	1212.40
396.81	1247.51
397.00	1275.59
397.19	1259.21
397.39	1214.74
397.58	1214.74
397.77	1228.78
397.97	1263.89
398.16	1266.23
398.35	1179.63
398.55	1287.29
398.74	1259.21
398.93	1261.55
399.12	1254.53
399.32	1256.87
399.51	1380.92
399.70	1329.42
399.90	1355.17
400.09	1324.74
400.28	1420.71
400.47	1376.24
400.67	1401.98
400.86	1413.68
401.05	1416.02
401.24	1526.03
401.44	1366.87
401.63	1462.83
401.82	1500.28
402.01	1540.07
402.21	1474.54
402.40	1526.03
402.59	1486.24
402.78	1540.07
402.97	1537.73
403.17	1551.78
403.36	1631.35
403.55	1612.63
403.74	1636.03
403.93	1631.35
404.13	1629.01
404.32	1664.12
404.51	1554.12
404.70	1682.85
404.89	1586.88
405.09	1666.46
405.28	1694.55
405.47	1638.38
405.66	1741.36
405.85	1736.68
406.05	1689.87
406.24	1727.32
406.43	1816.26
406.62	1753.06
406.81	1778.81
407.00	1750.72
407.20	1792.85
407.39	1776.47
407.58	1905.20
407.77	1923.92
407.96	1886.47
408.15	1919.24
408.34	1909.88
408.54	1884.13
408.73	1825.62
408.92	1813.92
409.11	1940.30
409.30	1933.28
409.49	2001.16
409.68	2050.31
409.87	2029.24
410.07	1963.71
410.26	2097.12
410.45	2083.08
410.64	2090.10
410.83	1984.77
411.02	2132.23
411.21	2207.13
411.40	2153.29
411.59	2122.87
411.78	2207.13
411.98	2193.08
412.17	2298.41
412.36	2225.85
412.55	2347.56
412.74	2363.94
412.93	2349.90
413.12	2305.43
413.31	2382.67
413.50	2394.37
413.69	2436.50
413.88	2443.52
414.07	2506.71
414.26	2480.97
414.45	2551.18
414.64	2602.68
414.83	2612.04
415.02	2677.57
415.22	2682.25
415.41	2684.59
415.60	2574.59
415.79	2766.51
415.98	2878.86
416.17	2738.43
416.36	2768.85
416.55	2850.77
416.74	2679.91
416.93	2775.88
417.12	2693.96
417.31	2951.42
417.50	2942.05
417.69	2911.63
417.88	3045.04
418.07	2878.86
418.26	2928.01
418.45	3016.95
418.64	3119.93
418.83	2890.56
419.02	3098.87
419.21	3098.87
419.39	3073.12
419.58	3110.57
419.77	3143.34
419.96	3166.74
420.15	3220.58
420.34	3180.79
420.53	3171.43
420.72	3330.58
420.91	3180.79
421.10	3192.49
421.29	3300.16
421.48	3286.11
421.67	3335.26
421.86	3309.52
422.05	3375.05
422.24	3337.60
422.43	3281.43
422.61	3269.73
422.80	3412.50
422.99	3332.92
423.18	3318.88
423.37	3555.27
423.56	3297.81
423.75	3293.13
423.94	3431.23
424.13	3213.56
424.32	3311.86
424.50	3566.98
424.69	3499.10
424.88	3473.36
425.07	3473.36
425.26	3281.43
425.45	3466.33
425.64	3412.50
425.83	3442.93
426.01	3541.23
426.20	3452.29
426.39	3459.31
426.58	3562.30
426.77	3564.64
426.96	3536.55
427.15	3548.25
427.33	3595.06
427.52	3630.17
427.71	3665.28
427.90	3571.66
428.09	3665.28
428.28	3712.09
428.46	3714.43
428.65	3658.26
428.84	3875.93
429.03	3857.20
429.22	3569.32
429.40	3550.59
429.59	3887.63
429.78	3557.61
429.97	3714.43
430.16	3873.59
430.34	3798.69
430.53	3829.12
430.72	3918.06
430.91	3810.39
431.10	3887.63
431.28	3861.88
431.47	3943.80
431.66	4023.38
431.85	3999.98
432.03	4140.41
432.22	4032.74
432.41	3990.61
432.60	4142.75
432.79	4084.23
432.97	4191.90
433.16	4236.37
433.35	4154.45
433.54	4187.22
433.72	4287.86
433.91	4212.96
434.10	4189.56
434.28	4131.05
434.47	4236.37
434.66	4266.80
434.85	4346.37
435.03	4177.86
435.22	4418.93
435.41	4421.27
435.59	4491.49
435.78	4428.29
435.97	4348.72
436.16	4381.48
436.34	4442.34
436.53	4461.06
436.72	4566.39
436.90	4538.30
437.09	4582.77
437.28	4519.57
437.46	4550.00
437.65	4482.13
437.84	4725.54
438.02	4564.04
438.21	4568.73
438.40	4610.86
438.58	4507.87
438.77	4692.77
438.96	4695.11
439.14	4828.53
439.33	4765.33
439.52	4926.83
439.70	4784.06
439.89	4985.34
440.08	5020.45
440.26	5181.95
440.45	4924.49
440.63	5104.71
440.82	5203.01
441.01	5048.54
441.19	5233.44
441.38	5165.56
441.57	5170.24
441.75	5214.71
441.94	5380.89
442.12	5434.72
442.31	5432.38
442.50	5334.08
442.68	5210.03
442.87	5472.17
443.05	5425.36
443.24	5397.28
443.43	5401.96
443.61	5401.96
443.80	5715.59
443.98	5387.91
444.17	5387.91
444.35	5514.30
444.54	5729.63
444.73	5694.52
444.91	5652.39
445.10	5748.36
445.28	5708.57
445.47	5696.86
445.65	5776.44
445.84	5734.31
446.02	5738.99
446.21	5547.07
446.39	5579.84
446.58	5621.97
446.77	5692.18
446.95	5528.35
447.14	5600.90
447.32	5830.27
447.51	5682.82
447.69	5724.95
447.88	5673.46
448.06	5837.30
448.25	5860.70
448.43	5717.93
448.62	5846.66
448.80	5699.20
448.99	5881.77
449.17	5816.23
449.36	5743.67
449.54	6005.81
449.73	6094.76
449.91	6001.13
450.10	5975.39
450.28	6122.84
450.46	6115.82
450.65	5996.45
450.83	6171.99
451.02	6040.92
451.20	6127.52
451.39	6190.72
451.57	6087.73
451.76	6232.85
451.94	6352.21
452.13	6263.27
452.31	6333.49
452.49	6113.48
452.68	6349.87
452.86	6392.00
453.05	6462.22
453.23	6253.91
453.42	6394.34
453.60	6265.61
453.78	6415.41
453.97	6366.26
454.15	6415.41
454.34	6270.30
454.52	6354.55
454.70	6609.67
454.89	6483.28
455.07	6544.14
455.26	6630.74
455.44	6689.25
455.62	6579.25
455.81	6715.00
455.99	6691.59
456.17	6862.45
456.36	6700.95
456.54	6778.19
456.73	6991.18
456.91	6991.18
457.09	6995.86
457.28	7190.13
457.46	6953.73
457.64	6897.56
457.83	7148.00
458.01	7190.13
458.19	7042.67
458.38	7103.53
458.56	7206.51
458.74	7157.36
458.93	7138.63
459.11	7148.00
459.29	7187.79
459.48	7229.91
459.66	7267.36
459.84	7344.60
460.03	7517.80
460.21	7456.95
460.39	7360.98
460.57	7330.56
460.76	7534.18
460.94	7459.29
461.12	7623.12
461.31	7496.74
461.49	7517.80
461.67	7293.11
461.85	7683.98
462.04	7513.12
462.22	7864.20
462.40	7726.11
462.59	7620.78
462.77	7761.22
462.95	7805.69
463.13	7691.00
463.32	7969.52
463.50	7868.88
463.68	7812.71
463.86	7974.21
464.05	7648.87
464.23	7831.43
464.41	7915.69
464.59	7845.48
464.78	8273.79
464.96	7929.74
465.14	7850.16
465.32	8035.06
465.50	8126.34
465.69	8175.49
465.87	8138.04
466.05	8056.12
466.23	8187.19
466.41	8145.06
466.60	8465.72
466.78	8147.40
466.96	8049.10
467.14	8336.99
467.32	8212.94
467.51	8503.17
467.69	8203.58
467.87	8524.23
468.05	8463.38
468.23	8257.41
468.41	8322.94
468.60	8365.07
468.78	8657.64
468.96	8571.04
469.14	8580.40
469.32	8746.58
469.50	8435.29
469.69	8603.81
469.87	8580.40
470.05	8526.57
470.23	8879.99
470.41	8879.99
470.59	8879.99
470.77	8716.16
470.95	8802.75
471.14	8959.57
471.32	8807.44
471.50	9067.24
471.68	9062.55
471.86	9207.67
472.04	9277.88
472.22	9310.65
472.40	9132.77
472.58	9305.97
472.77	9385.55
472.95	9406.61
473.13	9678.12
473.31	9181.92
473.49	9420.66
473.67	9336.40
473.85	9537.68
474.03	9427.68
474.21	9476.83
474.39	9788.12
474.57	9841.95
474.75	9790.46
474.93	9923.87
475.12	9926.21
475.30	9947.28
475.48	10167.29
475.66	10073.67
475.84	10008.13
476.02	10265.59
476.20	10134.52
476.38	10260.91
476.56	10595.61
476.74	10434.11
476.92	10494.96
477.10	10384.96
477.28	10729.02
477.46	10480.92
477.64	10895.19
477.82	10815.62
478.00	11063.71
478.18	11068.39
478.36	11241.59
478.54	11257.98
478.72	11199.46
478.90	11426.50
479.08	11585.65
479.26	11817.36
479.44	11690.98
479.62	11625.44
479.80	11716.72
479.98	12147.38
480.16	12128.66
480.34	11782.26
480.52	12154.40
480.70	12304.20
480.88	12147.38
481.06	12386.12
481.24	12283.13
481.41	12535.91
481.59	12648.26
481.77	12760.60
481.95	12870.61
482.13	13095.30
482.31	13142.11
482.49	13266.16
482.67	13406.59
482.85	13518.93
483.03	13535.32
483.21	13830.23
483.39	13891.08
483.57	13722.56
483.74	14026.83
483.92	14146.20
484.10	13877.04
484.28	14178.97
484.46	14354.51
484.64	14670.48
484.82	14523.02
485.00	14324.08
485.18	14855.38
485.35	15098.80
485.53	15463.92
485.71	15129.22
485.89	15484.98
486.07	15452.22
486.25	15557.54
486.43	15613.71
486.61	15714.36
486.78	15822.02
486.96	16058.42
487.14	15864.15
487.32	16191.83
487.50	16250.34
487.68	16432.90
487.85	16460.99
488.03	16863.56
488.21	16908.03
488.39	17116.34
488.57	17153.79
488.75	17205.28
488.92	17460.40
489.10	17858.29
489.28	17549.34
489.46	17614.87
489.64	17764.67
489.81	17912.12
489.99	17764.67
490.17	18010.42
490.35	18515.98
490.53	18689.18
490.70	18754.71
490.88	18654.07
491.06	18834.29
491.24	18808.54
491.41	19021.53
491.59	19014.51
491.77	19199.41
491.95	19543.47
492.13	19271.97
492.30	19421.77
492.48	19651.14
492.66	19775.19
492.84	19843.06
493.01	20144.99
493.19	20156.69
493.37	20126.27
493.54	20255.00
493.72	20514.80
493.90	20634.16
494.08	20830.77
494.25	21137.38
494.43	21120.99
494.61	21139.72
494.79	21125.68
494.96	21010.99
495.14	21432.29
495.32	21755.28
495.49	21867.63
495.67	21720.17
495.85	22164.87
496.02	22146.15
496.20	22111.04
496.38	22525.32
496.55	22045.51
496.73	22850.65
496.91	22813.20
497.09	22672.77
497.26	23042.57
497.44	22916.19
497.62	23112.79
497.79	23531.75
497.97	22960.66
498.14	23288.33
498.32	23662.82
498.50	24086.45
498.67	23910.91
498.85	23831.33
499.03	24051.34
499.20	24276.04
499.38	24102.84
499.56	24123.90
499.73	24151.99
499.91	24418.81
500.08	24411.79
500.26	24589.67
500.44	24727.76
500.61	24472.64
500.79	24863.51
500.97	24959.47
501.14	25212.25
501.32	25549.29
501.49	25406.52
501.67	25247.36
501.84	26026.76
502.02	25546.95
502.20	25380.77
502.37	25544.61
502.55	25638.23
502.72	25898.03
502.90	25666.31
503.07	25830.15
503.25	26033.78
503.43	25673.34
503.60	26141.44
503.78	26897.44
503.95	26256.13
504.13	26513.59
504.30	26544.02
504.48	26394.22
504.65	27028.51
504.83	26932.54
505.01	27243.84
505.18	26827.22
505.36	27264.90
505.53	27124.47
505.71	27871.10
505.88	27679.18
506.06	27014.46
506.23	27552.79
506.41	27398.31
506.58	27971.74
506.76	27857.06
506.93	27590.24
507.11	28032.60
507.28	28058.34
507.46	27840.67
507.63	28357.93
507.81	28091.11
507.98	28013.87
508.16	28247.93
508.33	28240.90
508.50	28655.18
508.68	28783.91
508.85	28739.44
509.03	28617.73
509.20	29050.73
509.38	29399.47
509.55	29240.31
509.73	29469.69
509.90	29345.64
510.08	29411.17
510.25	29448.62
510.42	29336.27
510.60	29521.18
510.77	29575.01
510.95	30008.01
511.12	29483.73
511.30	29853.53
511.47	30185.89
511.64	30022.05
511.82	30382.49
511.99	29905.02
512.17	30408.24
512.34	30316.96
512.51	30965.29
512.69	30824.86
512.86	30735.92
513.04	31077.63
513.21	30925.50
513.38	30995.71
513.56	31002.74
513.73	31063.59
513.90	31096.36
514.08	31026.14
514.25	31424.03
514.43	31660.43
514.60	31360.84
514.77	31519.99
514.95	31761.07
515.12	31866.39
515.29	31466.16
515.47	31945.97
515.64	31952.99
515.81	31866.39
515.99	32390.67
516.16	32458.55
516.33	32189.39
516.51	32479.61
516.68	32496.00
516.85	32458.55
517.03	32135.56
517.20	32828.35
517.37	32594.30
517.54	32598.98
517.72	33031.98
517.89	32655.15
518.06	33216.88
518.24	33134.96
518.41	33270.72
518.58	33230.93
518.75	32634.09
518.93	32896.23
519.10	33280.08
519.27	33692.01
519.45	33287.10
519.62	33645.20
519.79	33853.51
519.96	33933.09
520.14	33717.76
520.31	33439.23
520.48	33713.08
520.65	34272.46
520.83	34637.59
521.00	33935.43
521.17	34106.29
521.34	34380.13
521.52	34448.00
521.69	34267.78
521.86	34792.06
522.03	34436.30
522.20	34801.43
522.38	34909.09
522.55	35297.62
522.72	34925.47
522.89	34792.06
523.07	35641.68
523.24	35140.80
523.41	35133.78
523.58	35281.24
523.75	35253.15
523.92	34927.81
524.10	35435.71
524.27	36025.53
524.44	35845.30
524.61	35756.36
524.78	35344.43
524.96	35625.29
525.13	35653.38
525.30	36285.33
525.47	36156.60
525.64	36144.89
525.81	36435.12
525.98	36559.17
526.16	36346.18
526.33	36037.23
526.50	36767.48
526.67	36348.52
526.84	36290.01
527.01	36453.84
527.18	36554.49
527.36	36919.61
527.53	37095.15
527.70	36924.29
527.87	37003.87
528.04	37179.41
528.21	37174.73
528.38	37043.66
528.55	37296.44
528.72	37125.58
528.89	37193.45
529.07	37368.99
529.24	37441.55
529.41	37350.27
529.58	37181.75
529.75	37319.84
529.92	37343.25
530.09	37752.84
530.26	37474.32
530.43	37720.07
530.60	37296.44
530.77	37525.81
530.94	37759.86
531.11	37720.07
531.28	37776.25
531.46	38113.28
531.63	38473.73
531.80	37809.01
531.97	38007.96
532.14	38335.63
532.31	38092.22
532.48	38691.40
532.65	38480.75
532.82	38445.64
532.99	38536.92
533.16	38539.26
533.33	39225.04
533.50	38707.78
533.67	38888.00
533.84	38532.24
534.01	38873.96
534.18	38766.29
534.35	39447.39
534.52	39023.75
534.69	39459.09
534.86	39613.57
535.03	39351.43
535.20	39517.60
535.37	39285.89
535.54	39569.10
535.71	39449.73
535.88	39487.18
536.05	39735.27
536.22	39442.71
536.38	39665.06
536.55	39777.40
536.72	39627.61
536.89	39927.20
537.06	39199.29
537.23	40053.59
537.40	39838.26
537.57	39660.38
537.74	39906.13
537.91	40032.52
538.08	39927.20
538.25	40076.99
538.42	40182.32
538.59	40498.29
538.75	39955.29
538.92	40538.08
539.09	40669.15
539.26	40399.99
539.43	40517.01
539.60	40924.27
539.77	40886.82
539.94	40453.82
540.11	40711.28
540.28	40591.91
540.44	40931.29
540.61	40989.80
540.78	40385.94
540.95	40568.51
541.12	40708.94
541.29	40531.06
541.46	40931.29
541.62	41277.69
541.79	41174.70
541.96	40842.35
542.13	40814.26
542.30	41265.99
542.47	41289.39
542.63	41191.09
542.80	41736.43
542.97	42195.18
543.14	41820.69
543.31	41691.96
543.48	41909.63
543.64	42052.41
543.81	41790.27
543.98	41764.52
544.15	41813.67
544.32	42131.98
544.48	42249.01
544.65	42288.80
544.82	42438.59
544.99	42075.81
545.16	42106.24
545.32	42054.75
545.49	42330.93
545.66	42698.39
545.83	42464.34
546.00	43030.75
546.16	42333.27
546.33	42508.81
546.50	42740.52
546.67	42637.54
546.83	42408.17
547.00	42274.76
547.17	42637.54
547.34	42745.20
547.50	43070.54
547.67	42965.21
547.84	42944.15
548.00	43175.86
548.17	43299.91
548.34	43578.43
548.51	43405.23
548.67	43239.06
548.84	43166.50
549.01	43365.45
549.18	42976.92
549.34	43559.71
549.51	43447.36
549.68	43498.86
549.84	43112.67
550.01	43529.28
550.18	43423.96
550.34	43227.35
550.51	43533.96
550.68	43601.84
550.84	43075.22
551.01	43316.29
551.18	43260.12
551.34	43555.03
551.51	43810.15
551.68	43791.42
551.84	43704.82
552.01	43910.79
552.18	43995.05
552.34	43838.23
552.51	44116.76
552.68	43885.04
552.84	44208.04
553.01	43990.37
553.18	44194.00
553.34	43793.76
553.51	44098.03
553.67	44268.89
553.84	44268.89
554.01	44308.68
554.17	44294.64
554.34	44486.56
554.51	44350.81
554.67	44839.98
554.84	44737.00
555.00	44481.88
555.17	44161.23
555.33	44285.28
555.50	44402.30
555.67	44949.99
555.83	44282.94
556.00	44451.45
556.16	45312.77
556.33	44650.40
556.50	44896.16
556.66	44542.74
556.83	44655.08
556.99	45172.34
557.16	45174.68
557.32	45151.27
557.49	45305.75
557.65	44577.84
557.82	44690.19
557.98	45177.02
558.15	45181.70
558.32	45219.15
558.48	45118.51
558.65	45034.25
558.81	45408.73
558.98	44879.77
559.14	44772.11
559.31	45188.72
559.47	45441.50
559.64	44669.12
559.80	45394.69
559.97	44900.84
560.13	44680.83
560.30	45624.06
560.46	45591.30
560.63	45773.86
560.79	45497.67
560.96	45893.22
561.12	45729.39
561.29	45923.65
561.45	45514.06
561.61	45382.99
561.78	45549.17
561.94	45436.82
562.11	45647.47
562.27	45701.30
562.44	45511.72
562.60	45352.56
562.77	46153.02
562.93	45572.57
563.10	45677.90
563.26	45684.92
563.42	45804.28
563.59	45944.72
563.75	45914.29
563.92	45649.81
564.08	45830.03
564.24	45837.05
564.41	46036.00
564.57	45921.31
564.74	46167.07
564.90	45825.35
565.07	46117.92
565.23	45640.45
565.39	45883.86
565.56	46288.77
565.72	45984.51
565.88	46298.14
566.05	46190.47
566.21	46204.52
566.38	46047.70
566.54	46555.60
566.70	46071.10
566.87	46148.34
567.03	46518.15
567.19	46431.55
567.36	46169.41
567.52	46113.23
567.68	46223.24
567.85	46206.86
568.01	46527.51
568.17	46195.15
568.34	46319.20
568.50	46443.25
568.66	46160.05
568.83	46192.81
568.99	46539.21
569.15	46431.55
569.32	46855.18
569.48	46562.62
569.64	46773.27
569.81	46873.91
569.97	46511.13
570.13	46394.10
570.30	46120.26
570.46	46431.55
570.62	46665.60
570.78	46394.10
570.95	46403.46
571.11	47033.07
571.27	46272.39
571.43	46293.46
571.60	46415.16
571.76	46806.03
571.92	46761.56
572.09	46478.36
572.25	46815.40
572.41	46684.33
572.57	46518.15
572.74	47178.18
572.90	46623.47
573.06	46923.06
573.22	47056.47
573.38	47145.41
573.55	46710.07
573.71	46969.87
573.87	46756.88
574.03	46775.61
574.20	47033.07
574.36	47056.47
574.52	47124.35
574.68	47114.98
574.84	46995.62
575.01	47241.37
575.17	46820.08
575.33	47126.69
575.49	46876.25
575.65	47004.98
575.82	47281.16
575.98	46726.46
576.14	46941.78
576.30	47107.96
576.46	47166.48
576.62	46651.56
576.79	46813.05
576.95	46958.17
577.11	46593.04
577.27	47077.54
577.43	46934.76
577.59	47056.47
577.75	46689.01
577.92	46866.89
578.08	46974.55
578.24	47063.49
578.40	47288.18
578.56	47290.52
578.72	47276.48
578.88	47395.85
579.04	47000.30
579.21	46902.00
579.37	46836.46
579.53	47400.53
579.69	46972.21
579.85	47077.54
580.01	46880.93
580.17	47107.96
580.33	47194.56
580.49	47035.41
580.65	47105.62
580.82	47122.01
580.98	46944.12
581.14	46981.57
581.30	46974.55
581.46	47206.26
581.62	47091.58
581.78	46890.29
581.94	47014.34
582.10	47318.61
582.26	47178.18
582.42	46993.28
582.58	47199.24
582.74	47175.84
582.90	47112.64
583.06	47409.89
583.22	46981.57
583.38	47239.03
583.54	47313.93
583.70	47206.26
583.86	47042.43
584.02	47271.80
584.18	47437.98
584.34	47632.24
584.50	47601.82
584.66	47426.28
584.82	47194.56
584.98	47641.60
585.14	47405.21
585.30	46958.17
585.46	47220.31
585.62	47271.80
585.78	47395.85
585.94	46939.44
586.10	47274.14
586.26	47330.31
586.42	47540.96
586.58	47325.63
586.74	47157.11
586.90	47334.99
587.06	47126.69
587.22	47440.32
587.38	47363.08
587.54	47657.99
587.70	47601.82
587.86	47435.64
588.02	47159.45
588.18	47555.00
588.34	46927.74
588.49	47604.16
588.65	47421.59
588.81	47800.76
588.97	47634.58
589.13	47557.35
589.29	47552.66
589.45	47615.86
589.61	47578.41
589.77	47555.00
589.93	47173.50
590.08	47449.68
