SpectraSuite Data File
++++++++++++++++++++++++++++++++++++
Date: Fri Oct 25 11:25:12 EDT 2013
User: price-jones
Dark Spectrum Present: No
Reference Spectrum Present: No
Number of Sampled Component Spectra: 1
Spectrometers: USB2+H05261
Integration Time (usec): 100000 (USB2+H05261)
Spectra Averaged: 1 (USB2+H05261)
Boxcar Smoothing: 0 (USB2+H05261)
Correct for Electrical Dark: No (USB2+H05261)
Strobe/Lamp Enabled: No (USB2+H05261)
Correct for Detector Non-linearity: No (USB2+H05261)
Correct for Stray Light: No (USB2+H05261)
Number of Pixels in Processed Spectrum: 2048
>>>>>Begin Processed Spectral Data<<<<<
365.73	283.20
365.92	283.20
366.12	283.20
366.32	142.77
366.52	107.66
366.72	114.69
366.91	95.96
367.11	124.05
367.31	126.39
367.51	152.13
367.70	107.66
367.90	154.48
368.10	142.77
368.30	152.13
368.49	77.24
368.69	147.45
368.89	102.98
369.09	138.09
369.28	208.31
369.48	93.62
369.68	161.50
369.87	194.26
370.07	250.44
370.27	166.18
370.47	318.31
370.66	571.09
370.86	624.92
371.06	697.48
371.25	688.12
371.45	606.20
371.65	645.99
371.84	765.36
372.04	688.12
372.24	760.67
372.44	615.56
372.63	763.01
372.83	758.33
373.03	741.95
373.22	699.82
373.42	739.61
373.62	734.93
373.81	812.17
374.01	711.52
374.21	795.78
374.40	711.52
374.60	763.01
374.79	854.30
374.99	837.91
375.19	788.76
375.38	842.59
375.58	819.19
375.78	863.66
375.97	896.43
376.17	898.77
376.37	945.58
376.56	917.49
376.76	851.96
376.95	868.34
377.15	854.30
377.35	882.38
377.54	875.36
377.74	833.23
377.93	833.23
378.13	964.30
378.33	910.47
378.52	880.04
378.72	931.53
378.91	894.08
379.11	929.19
379.31	915.15
379.50	1020.47
379.70	912.81
379.89	961.96
380.09	947.92
380.28	940.90
380.48	1029.84
380.68	959.62
380.87	985.37
381.07	985.37
381.26	1118.78
381.46	976.00
381.65	978.34
381.85	1050.90
382.04	947.92
382.24	997.07
382.43	1116.44
382.63	1107.07
382.83	1060.26
383.02	1090.69
383.22	1191.33
383.41	1067.28
383.61	1034.52
383.80	1130.48
384.00	1160.91
384.19	1156.22
384.39	1114.10
384.58	1123.46
384.78	1165.59
384.97	1181.97
385.17	1149.20
385.36	1144.52
385.56	1114.10
385.75	1196.01
385.95	1160.91
386.14	1170.27
386.34	1203.04
386.53	1188.99
386.72	1205.38
386.92	1224.10
387.11	1301.34
387.31	1303.68
387.50	1254.53
387.70	1193.67
387.89	1306.02
388.09	1207.72
388.28	1219.42
388.48	1249.85
388.67	1324.74
388.86	1331.76
389.06	1303.68
389.25	1378.58
389.45	1355.17
389.64	1465.18
389.84	1411.34
390.03	1357.51
390.22	1427.73
390.42	1376.24
390.61	1460.49
390.81	1366.87
391.00	1416.02
391.19	1479.22
391.39	1406.66
391.58	1568.16
391.78	1444.11
391.97	1451.13
392.16	1481.56
392.36	1507.30
392.55	1437.09
392.75	1591.56
392.94	1528.37
393.13	1605.61
393.33	1540.07
393.52	1591.56
393.71	1607.95
393.91	1458.15
394.10	1584.54
394.29	1528.37
394.49	1647.74
394.68	1633.69
394.88	1717.95
395.07	1575.18
395.26	1710.93
395.46	1598.59
395.65	1621.99
395.84	1685.19
396.04	1806.89
396.23	1626.67
396.42	1757.74
396.62	1755.40
396.81	1746.04
397.00	1727.32
397.19	1715.61
397.39	1746.04
397.58	1732.00
397.77	1884.13
397.97	1842.00
398.16	1860.73
398.35	1998.82
398.55	1823.28
398.74	1919.24
398.93	1954.35
399.12	1935.62
399.32	1933.28
399.51	1928.60
399.70	1940.30
399.90	1914.56
400.09	1970.73
400.28	2033.93
400.47	2001.16
400.67	2031.58
400.86	2108.82
401.05	2132.23
401.24	2125.21
401.44	2115.84
401.63	2143.93
401.82	2157.97
402.01	2092.44
402.21	2186.06
402.40	2275.00
402.59	2289.04
402.78	2253.94
402.97	2237.55
403.17	2143.93
403.36	2176.70
403.55	2328.83
403.74	2253.94
403.93	2312.45
404.13	2438.84
404.32	2293.72
404.51	2399.05
404.70	2394.37
404.89	2417.77
405.09	2462.24
405.28	2394.37
405.47	2469.27
405.66	2518.42
405.85	2457.56
406.05	2537.14
406.24	2455.22
406.43	2558.21
406.62	2612.04
406.81	2616.72
407.00	2644.81
407.20	2499.69
407.39	2635.44
407.58	2621.40
407.77	2630.76
407.96	2700.98
408.15	2679.91
408.34	2576.93
408.54	2710.34
408.73	2759.49
408.92	2850.77
409.11	2818.00
409.30	2902.26
409.49	2944.39
409.68	2869.50
409.87	2953.76
410.07	2911.63
410.26	3040.36
410.45	2885.88
410.64	3091.85
410.83	2984.18
411.02	3110.57
411.21	3047.38
411.40	3131.64
411.59	3133.98
411.78	3318.88
411.98	3197.17
412.17	3251.00
412.36	3309.52
412.55	3258.03
412.74	3321.22
412.93	3288.45
413.12	3234.62
413.31	3492.08
413.50	3372.71
413.69	3492.08
413.88	3637.19
414.07	3566.98
414.26	3555.27
414.45	3653.58
414.64	3730.81
414.83	3595.06
415.02	3796.35
415.22	3721.45
415.41	3833.80
415.60	3777.62
415.79	3871.25
415.98	3946.14
416.17	4039.76
416.36	3967.21
416.55	3866.56
416.74	4016.36
416.93	4107.64
417.12	4044.45
417.31	4067.85
417.50	4149.77
417.69	4184.88
417.88	4217.65
418.07	4168.49
418.26	4346.37
418.45	4461.06
418.64	4393.19
418.83	4262.12
419.02	4383.82
419.21	4533.62
419.39	4454.04
419.58	4456.38
419.77	4428.29
419.96	4545.32
420.15	4514.89
420.34	4554.68
420.53	4589.79
420.72	4629.58
420.91	4624.90
421.10	4711.50
421.29	4744.27
421.48	4664.69
421.67	4840.23
421.86	4784.06
422.05	4826.18
422.24	4833.21
422.43	4940.87
422.61	4889.38
422.80	5015.77
422.99	4844.91
423.18	4898.74
423.37	4894.06
423.56	4933.85
423.75	4882.36
423.94	4814.48
424.13	4631.92
424.32	4676.39
424.50	5001.72
424.69	5123.43
424.88	4933.85
425.07	5046.20
425.26	4760.65
425.45	4873.00
425.64	4889.38
425.83	4870.65
426.01	5078.96
426.20	5034.49
426.39	4858.95
426.58	5039.17
426.77	5046.20
426.96	5186.63
427.15	5153.86
427.33	5282.59
427.52	5205.35
427.71	5135.14
427.90	5158.54
428.09	5158.54
428.28	5277.91
428.46	5228.76
428.65	5289.61
428.84	5483.88
429.03	5465.15
429.22	5423.02
429.40	5458.13
429.59	5413.66
429.78	5303.65
429.97	5338.76
430.16	5476.85
430.34	5547.07
430.53	5764.74
430.72	5607.92
430.91	5565.79
431.10	5507.28
431.28	5804.53
431.47	5624.31
431.66	5785.80
431.85	5685.16
432.03	5764.74
432.22	5923.90
432.41	5937.94
432.60	5748.36
432.79	5802.19
432.97	6033.90
433.16	5956.66
433.35	5877.09
433.54	6069.01
433.72	6108.80
433.91	6001.13
434.10	6157.95
434.28	6150.93
434.47	6017.52
434.66	6246.89
434.85	6143.91
435.03	6279.66
435.22	6120.50
435.41	6415.41
435.59	6422.43
435.78	6441.15
435.97	6195.40
436.16	6321.79
436.34	6434.13
436.53	6303.06
436.72	6576.91
436.90	6413.07
437.09	6530.09
437.28	6506.69
437.46	6513.71
437.65	6553.50
437.84	6731.38
438.02	6633.08
438.21	6665.85
438.40	6712.66
438.58	6963.09
438.77	6937.35
438.96	6806.28
439.14	6892.88
439.33	7030.97
439.52	7211.19
439.70	7087.14
439.89	7192.47
440.08	7323.54
440.26	7351.62
440.45	7375.03
440.63	7428.86
440.82	7625.47
441.01	7686.32
441.19	7644.19
441.38	7592.70
441.57	7634.83
441.75	7719.09
441.94	7908.67
442.12	7845.48
442.31	7758.88
442.50	8098.25
442.68	7953.14
442.87	7925.05
443.05	7918.03
443.24	8191.88
443.43	8133.36
443.61	7997.61
443.80	8360.39
443.98	7747.17
444.17	7779.94
444.35	8163.79
444.54	8149.75
444.73	8252.73
444.91	8386.14
445.10	8383.80
445.28	8351.03
445.47	8222.30
445.65	8170.81
445.84	8351.03
446.02	8407.20
446.21	8367.42
446.39	8107.62
446.58	8528.91
446.77	8671.68
446.95	8037.40
447.14	8147.40
447.32	8549.98
447.51	8372.10
447.69	8496.14
447.88	8601.47
448.06	8390.82
448.25	8559.34
448.43	8690.41
448.62	8538.27
448.80	8613.17
448.99	8568.70
449.17	8657.64
449.36	8659.98
449.54	8716.16
449.73	8741.90
449.91	8847.22
450.10	8865.95
450.28	9027.45
450.46	9097.66
450.65	8891.70
450.83	9200.65
451.02	8945.53
451.20	9118.73
451.39	8992.34
451.57	8997.02
451.76	8990.00
451.94	9195.96
452.13	9334.06
452.31	9142.13
452.49	9256.82
452.68	9188.94
452.86	9242.78
453.05	9453.42
453.23	9610.24
453.42	9331.72
453.60	9305.97
453.78	9458.10
453.97	9479.17
454.15	9565.77
454.34	9502.58
454.52	9764.72
454.70	9717.90
454.89	9699.18
455.07	9579.81
455.26	9802.16
455.44	9944.94
455.62	9813.87
455.81	9811.53
455.99	9774.08
456.17	9944.94
456.36	10085.37
456.54	10097.07
456.73	10216.44
456.91	10291.34
457.09	10066.64
457.28	10593.26
457.46	10317.08
457.64	10422.41
457.83	10249.21
458.01	10408.36
458.19	10679.86
458.38	10555.82
458.56	10501.98
458.74	10494.96
458.93	10785.19
459.11	10834.34
459.29	10839.02
459.48	10761.78
459.66	10892.85
459.84	11096.48
460.03	10909.24
460.21	10951.37
460.39	10743.06
460.57	10834.34
460.76	11101.16
460.94	11375.00
461.12	11157.33
461.31	11070.73
461.49	11016.90
461.67	10937.32
461.85	11403.09
462.04	11112.86
462.22	11595.01
462.40	11571.61
462.59	11276.70
462.77	11344.58
462.95	11595.01
463.13	11438.20
463.32	11576.29
463.50	11557.57
463.68	11669.91
463.86	11800.98
464.05	11564.59
464.23	11693.32
464.41	11793.96
464.59	11789.28
464.78	11913.33
464.96	11756.51
465.14	11936.73
465.32	11960.14
465.50	11934.39
465.69	12372.07
465.87	12166.10
466.05	12180.15
466.23	12063.12
466.41	11857.15
466.60	12278.45
466.78	12065.46
466.96	12086.53
467.14	12304.20
467.32	12465.69
467.51	12248.02
467.69	12058.44
467.87	12365.05
468.05	12428.24
468.23	12372.07
468.41	12510.16
468.60	12505.48
468.78	12638.89
468.96	12496.12
469.14	12957.21
469.32	12741.88
469.50	12498.46
469.69	12828.48
469.87	13128.06
470.05	12741.88
470.23	13198.28
470.41	13252.11
470.59	13191.26
470.77	13179.56
470.95	13298.92
471.14	13380.84
471.32	13121.04
471.50	13453.40
471.68	13764.69
471.86	13755.33
472.04	13624.26
472.22	13771.71
472.40	13701.50
472.58	13778.73
472.77	13795.12
472.95	13937.89
473.13	14574.52
473.31	13930.87
473.49	13949.59
473.67	14134.50
473.85	14024.49
474.03	14431.74
474.21	14579.20
474.39	14759.42
474.57	14602.60
474.75	14682.18
474.93	14998.15
475.12	14780.48
475.30	15187.74
475.48	14857.72
475.66	15152.63
475.84	14869.42
476.02	15351.57
476.20	15253.27
476.38	15325.83
476.56	15864.15
476.74	15772.87
476.92	15702.65
477.10	15683.93
477.28	15829.04
477.46	15953.09
477.64	16208.21
477.82	16535.88
478.00	16915.05
478.18	16954.84
478.36	16910.37
478.54	17043.78
478.72	17036.76
478.90	17420.61
479.08	17280.18
479.26	17352.73
479.44	17373.80
479.62	17649.98
479.80	17865.31
479.98	18192.98
480.16	18174.26
480.34	18293.63
480.52	18623.64
480.70	18298.31
480.88	18249.16
481.06	18506.62
481.24	18735.99
481.41	18904.51
481.59	19442.83
481.77	19365.59
481.95	19594.96
482.13	19704.97
482.31	19410.06
482.49	20180.10
482.67	19974.13
482.85	20205.84
483.03	20311.17
483.21	20620.12
483.39	21018.01
483.57	20587.35
483.74	21076.52
483.92	21413.56
484.10	21053.12
484.28	21474.42
484.46	22160.19
484.64	22075.93
484.82	21710.81
485.00	22244.45
485.18	22611.92
485.35	22668.09
485.53	22305.31
485.71	22780.43
485.89	23323.44
486.07	23103.43
486.25	23091.73
486.43	23587.92
486.61	23714.31
486.78	23880.49
486.96	23852.40
487.14	24503.07
487.32	24046.66
487.50	25062.46
487.68	24673.93
487.85	24900.96
488.03	25331.62
488.21	25509.50
488.39	25965.90
488.57	25851.22
488.75	25729.51
488.92	26113.36
489.10	26419.97
489.28	26544.02
489.46	27019.14
489.64	26803.82
489.81	27311.71
489.99	27447.46
490.17	27466.19
490.35	27992.81
490.53	28130.90
490.70	28140.26
490.88	27978.76
491.06	28531.13
491.24	28697.31
491.41	28790.93
491.59	28940.72
491.77	28950.09
491.95	29200.52
492.13	29769.27
492.30	29516.50
492.48	30040.78
492.66	30059.50
492.84	30019.71
493.01	30424.62
493.19	30485.48
493.37	30768.68
493.54	31023.80
493.72	31253.17
493.90	31103.38
494.08	31381.90
494.25	31924.91
494.43	31889.80
494.61	32229.18
494.79	32472.59
494.96	32514.72
495.14	32336.84
495.32	32580.26
495.49	32858.78
495.67	33338.59
495.85	33352.63
496.02	33284.76
496.20	33603.07
496.38	33715.42
496.55	34110.97
496.73	34426.94
496.91	34452.69
497.09	34490.13
497.26	34888.03
497.44	35061.22
497.62	34742.91
497.79	35372.52
497.97	35363.15
498.14	35337.41
498.32	36205.75
498.50	36226.81
498.67	35931.90
498.85	36065.31
499.03	36620.02
499.20	36362.56
499.38	36605.98
499.56	36818.97
499.73	36708.96
499.91	37481.34
500.08	37298.78
500.26	37361.97
500.44	37376.01
500.61	37738.80
500.79	37502.40
500.97	38061.79
501.14	38412.87
501.32	38143.71
501.49	38359.04
501.67	38370.74
501.84	39154.82
502.02	38740.55
502.20	38852.89
502.37	39063.54
502.55	38841.19
502.72	39143.12
502.90	39517.60
503.07	39353.77
503.25	39775.06
503.43	39119.71
503.60	40084.01
503.78	40194.02
503.95	40280.62
504.13	40168.27
504.30	40528.72
504.48	40168.27
504.65	40348.50
504.83	40701.92
505.01	40840.01
505.18	41153.64
505.36	41471.95
505.53	41001.50
505.71	41319.82
505.88	41401.74
506.06	41322.16
506.23	41488.34
506.41	41764.52
506.58	41624.09
506.76	41867.50
506.93	42347.31
507.11	41998.57
507.28	42417.53
507.46	42480.72
507.63	42553.28
507.81	43007.34
507.98	42880.95
508.16	42981.60
508.33	43438.00
508.50	43636.95
508.68	43105.65
508.85	43826.53
509.03	43423.96
509.20	43971.64
509.38	43849.94
509.55	44126.12
509.73	43882.70
509.90	44528.69
510.08	44687.85
510.25	44912.54
510.42	44453.79
510.60	44917.22
510.77	44713.59
510.95	45048.29
511.12	44636.36
511.30	45198.09
511.47	45322.13
511.64	45137.23
511.82	45429.80
511.99	45102.12
512.17	45567.89
512.34	45308.09
512.51	45942.38
512.69	46410.48
512.86	46316.86
513.04	46590.70
513.21	46487.72
513.38	46555.60
513.56	46752.20
513.73	47086.90
513.90	47138.39
514.08	46447.93
514.25	47126.69
514.43	47103.28
514.60	47192.22
514.77	47199.24
514.95	47828.85
515.12	47138.39
515.29	47304.57
515.47	47894.38
515.64	47590.11
515.81	47524.58
515.99	48254.82
516.16	48264.19
516.33	47938.85
516.51	48275.89
516.68	48252.48
516.85	48350.79
517.03	48837.62
517.20	48346.11
517.37	48292.27
517.54	48596.54
517.72	48940.60
517.89	49001.46
518.06	48961.67
518.24	49003.80
518.41	49113.80
518.58	48865.70
518.75	49294.02
518.93	49132.53
519.10	49052.95
519.27	49059.97
519.45	49621.70
519.62	49895.54
519.79	49773.83
519.96	49872.14
520.14	49935.33
520.31	49783.19
520.48	50106.19
520.65	49991.50
520.83	50342.58
521.00	50433.86
521.17	50380.03
521.34	50277.05
521.52	50614.08
521.69	50630.47
521.86	50845.80
522.03	50955.80
522.20	51224.96
522.38	51299.86
522.55	51323.27
522.72	51014.32
522.89	51194.54
523.07	51281.14
523.24	51325.61
523.41	51459.02
523.58	51100.92
523.75	51903.72
523.92	51456.68
524.10	52112.03
524.27	52163.52
524.44	51611.15
524.61	52149.48
524.78	52512.26
524.96	51906.06
525.13	51952.87
525.30	52247.78
525.47	52540.35
525.64	52282.89
525.81	52449.06
525.98	52404.59
526.16	52409.28
526.33	52617.58
526.50	52884.40
526.67	52526.30
526.84	52275.87
527.01	52657.37
527.18	52760.36
527.36	52715.89
527.53	53188.67
527.70	52942.92
527.87	53364.21
528.04	52985.05
528.21	53223.78
528.38	53474.22
528.55	53619.33
528.72	53006.11
528.89	53312.72
529.07	52980.37
529.24	53120.80
529.41	53413.37
529.58	53401.66
529.75	53254.21
529.92	53773.81
530.09	53844.02
530.26	53616.99
530.43	53900.20
530.60	53518.69
530.77	53834.66
530.94	53738.70
531.11	53750.40
531.28	53977.43
531.46	54052.33
531.63	54223.19
531.80	54014.88
531.97	54253.62
532.14	54265.32
532.31	54152.97
532.48	54195.10
532.65	54321.49
532.82	54440.86
532.99	54394.05
533.16	54274.68
533.33	54569.59
533.50	54820.03
533.67	54600.02
533.84	54602.36
534.01	54614.06
534.18	54712.36
534.35	55121.96
534.52	54967.48
534.69	54976.84
534.86	55168.77
535.03	54876.20
535.20	54946.42
535.37	55164.09
535.54	55056.42
535.71	55168.77
535.88	55098.55
536.05	55210.90
536.22	55332.60
536.38	55447.29
536.55	55255.37
536.72	55325.58
536.89	55337.29
537.06	55290.48
537.23	55789.01
537.40	55466.02
537.57	55636.87
537.74	55306.86
537.91	55980.93
538.08	55798.37
538.25	55498.78
538.42	55849.86
538.59	55962.21
538.75	55800.71
538.92	56102.64
539.09	56107.32
539.26	55716.45
539.43	55922.42
539.60	56294.56
539.77	56121.37
539.94	56364.78
540.11	56388.19
540.28	56303.93
540.44	56273.50
540.61	56072.21
540.78	56278.18
540.95	56090.94
541.12	56238.39
541.29	56179.88
541.46	56390.53
541.62	56453.72
541.79	56519.26
541.96	56577.77
542.13	56521.60
542.30	56601.18
542.47	56582.45
542.63	56739.27
542.80	56846.93
542.97	56912.47
543.14	57275.25
543.31	56907.79
543.48	57041.20
543.64	57169.93
543.81	57198.01
543.98	57165.24
544.15	57017.79
544.32	57418.02
544.48	57443.77
544.65	57221.42
544.82	57556.11
544.99	57249.50
545.16	57506.96
545.32	57109.07
545.49	57588.88
545.66	57612.29
545.83	57312.70
546.00	57626.33
546.16	57504.62
546.33	57535.05
546.50	57389.94
546.67	57476.54
546.83	57230.78
547.00	57530.37
547.17	57794.85
547.34	57808.89
547.50	57979.75
547.67	57794.85
547.84	57902.51
548.00	57726.97
548.17	58127.20
548.34	58061.67
548.51	58202.10
548.67	57963.37
548.84	58068.69
549.01	57705.91
549.18	58085.07
549.34	58195.08
549.51	57989.11
549.68	58309.77
549.84	58099.12
550.01	58234.87
550.18	58131.89
550.34	58319.13
550.51	58515.73
550.68	58281.68
550.84	58124.86
551.01	58286.36
551.18	58199.76
551.34	58515.73
551.51	58396.37
551.68	58475.94
551.84	58602.33
552.01	58398.71
552.18	58480.63
552.34	58234.87
552.51	58560.20
552.68	58368.28
552.84	58557.86
553.01	58731.06
553.18	58562.54
553.34	58628.08
553.51	58595.31
553.67	58653.82
553.84	58747.45
554.01	58831.71
554.17	58614.04
554.34	58777.87
554.51	58997.88
554.67	58873.84
554.84	58873.84
555.00	58784.90
555.17	58653.82
555.33	59007.25
555.50	58834.05
555.67	58990.86
555.83	58866.81
556.00	58988.52
556.16	59257.68
556.33	59264.70
556.50	58948.73
556.66	59367.69
556.83	59035.33
556.99	59157.04
557.16	59444.93
557.32	59311.52
557.49	59428.54
557.65	59079.80
557.82	59077.46
557.98	59196.83
558.15	59028.31
558.32	59388.75
558.48	59302.15
558.65	59199.17
558.81	59243.64
558.98	59437.90
559.14	59238.96
559.31	59522.16
559.47	59487.06
559.64	59398.12
559.80	59636.85
559.97	59643.87
560.13	59561.95
560.30	59573.66
560.46	59531.53
560.63	59423.86
560.79	59690.68
560.96	59810.05
561.12	59531.53
561.29	59667.28
561.45	59664.94
561.61	59742.17
561.78	59723.45
561.94	59695.36
562.11	59697.70
562.27	59660.26
562.44	59781.96
562.60	59910.69
562.77	59737.49
562.93	59657.91
563.10	60027.72
563.26	59793.67
563.42	59945.80
563.59	59737.49
563.75	59711.75
563.92	59971.55
564.08	59880.27
564.24	60001.97
564.41	60041.76
564.57	60046.44
564.74	59980.91
564.90	60076.87
565.07	59971.55
565.23	60020.70
565.39	59714.09
565.56	60097.94
565.72	60006.65
565.88	59966.87
566.05	59934.10
566.21	60009.00
566.38	59938.78
566.54	60039.42
566.70	60121.34
566.87	60334.33
567.03	59941.12
567.19	60329.65
567.36	60051.12
567.52	60294.54
567.68	60303.90
567.85	60130.70
568.01	60140.07
568.17	60048.78
568.34	60371.78
568.50	60177.51
568.66	60097.94
568.83	60289.86
568.99	60090.91
569.15	60081.55
569.32	60280.50
569.48	59955.16
569.64	60542.64
569.81	60322.63
569.97	60264.11
570.13	60306.24
570.30	60252.41
570.46	60320.29
570.62	60121.34
570.78	60404.55
570.95	60266.45
571.11	60540.30
571.27	60336.67
571.43	60245.39
571.60	60818.82
571.76	60463.06
571.92	60441.99
572.09	60327.31
572.25	60498.17
572.41	60313.26
572.57	60322.63
572.74	60575.40
572.90	60317.95
573.06	60327.31
573.22	60327.31
573.38	60467.74
573.55	60507.53
573.71	60692.43
573.87	60556.68
574.03	60537.96
574.20	60416.25
574.36	60537.96
574.52	60650.30
574.68	60647.96
574.84	60832.86
575.01	60514.55
575.17	60657.32
575.33	60577.75
575.49	60322.63
575.65	60449.02
575.82	60622.22
575.98	60704.13
576.14	60776.69
576.30	60919.46
576.46	60591.79
576.62	60608.17
576.79	60662.00
576.95	60453.70
577.11	60734.56
577.27	60533.28
577.43	60533.28
577.59	60711.16
577.75	60594.13
577.92	60547.32
578.08	60645.62
578.24	60725.20
578.40	60741.58
578.56	60860.95
578.72	60507.53
578.88	61001.38
579.04	60905.42
579.21	60690.09
579.37	60870.31
579.53	60713.50
579.69	60573.06
579.85	60608.17
580.01	60720.52
580.17	60664.35
580.33	60764.99
580.49	60903.08
580.65	60786.05
580.82	60786.05
580.98	60692.43
581.14	60729.88
581.30	60807.12
581.46	60664.35
581.62	60926.49
581.78	60650.30
581.94	60788.39
582.10	60804.78
582.26	60797.76
582.42	60715.84
582.58	60835.20
582.74	60619.88
582.90	60783.71
583.06	60781.37
583.22	60608.17
583.38	60786.05
583.54	60694.77
583.70	60783.71
583.86	60959.25
584.02	60575.40
584.18	61006.06
584.34	61020.11
584.50	60781.37
584.66	60921.80
584.82	60622.22
584.98	61050.53
585.14	60980.32
585.30	60577.75
585.46	61041.17
585.62	60877.33
585.78	61141.81
585.94	60800.10
586.10	60818.82
586.26	60802.44
586.42	60814.14
586.58	61057.56
586.74	60842.23
586.90	60853.93
587.06	61048.19
587.22	61029.47
587.38	60816.48
587.54	60863.29
587.70	61251.82
587.86	60924.14
588.02	60676.05
588.18	61099.68
588.34	60889.04
588.49	60893.72
