SpectraSuite Data File
++++++++++++++++++++++++++++++++++++
Date: Fri Oct 25 10:43:59 EDT 2013
User: price-jones
Dark Spectrum Present: No
Reference Spectrum Present: No
Number of Sampled Component Spectra: 1
Spectrometers: USB2+H05261
Integration Time (usec): 100000 (USB2+H05261)
Spectra Averaged: 1 (USB2+H05261)
Boxcar Smoothing: 0 (USB2+H05261)
Correct for Electrical Dark: No (USB2+H05261)
Strobe/Lamp Enabled: No (USB2+H05261)
Correct for Detector Non-linearity: No (USB2+H05261)
Correct for Stray Light: No (USB2+H05261)
Number of Pixels in Processed Spectrum: 2048
>>>>>Begin Processed Spectral Data<<<<<
365.73	189.58
365.92	189.58
366.12	189.58
366.32	9.36
366.52	32.77
366.72	56.17
366.91	51.49
367.11	67.88
367.31	39.79
367.51	63.19
367.70	21.06
367.90	4.68
368.10	35.11
368.30	49.15
368.49	30.43
368.69	21.06
368.89	7.02
369.09	16.38
369.28	9.36
369.48	102.98
369.68	88.94
369.87	93.62
370.07	74.90
370.27	163.84
370.47	194.26
370.66	407.25
370.86	372.15
371.06	482.15
371.25	472.79
371.45	433.00
371.65	414.27
371.84	414.27
372.04	414.27
372.24	374.49
372.44	461.09
372.63	547.69
372.83	571.09
373.03	550.03
373.22	519.60
373.42	510.24
373.62	538.32
373.81	552.37
374.01	521.94
374.21	596.84
374.40	526.62
374.60	479.81
374.79	585.13
374.99	601.52
375.19	599.18
375.38	617.90
375.58	589.82
375.78	589.82
375.97	641.31
376.17	566.41
376.37	613.22
376.56	578.11
376.76	660.03
376.95	608.54
377.15	613.22
377.35	699.82
377.54	681.10
377.74	671.73
377.93	688.12
378.13	725.57
378.33	634.29
378.52	662.37
378.72	667.05
378.91	636.63
379.11	650.67
379.31	617.90
379.50	697.48
379.70	669.39
379.89	746.63
380.09	671.73
380.28	657.69
380.48	734.93
380.68	774.72
380.87	653.01
381.07	685.78
381.26	702.16
381.46	741.95
381.65	681.10
381.85	683.44
382.04	610.88
382.24	737.27
382.43	601.52
382.63	695.14
382.83	702.16
383.02	688.12
383.22	732.59
383.41	711.52
383.61	734.93
383.80	793.44
384.00	711.52
384.19	716.20
384.39	748.97
384.58	812.17
384.78	858.98
384.97	779.40
385.17	772.38
385.36	793.44
385.56	830.89
385.75	753.65
385.95	840.25
386.14	809.83
386.34	908.13
386.53	819.19
386.72	791.10
386.92	835.57
387.11	772.38
387.31	866.00
387.50	936.21
387.70	875.36
387.89	812.17
388.09	908.13
388.28	807.48
388.48	898.77
388.67	950.26
388.86	1029.84
389.06	945.58
389.25	961.96
389.45	1001.75
389.64	933.87
389.84	952.60
390.03	1032.18
390.22	1011.11
390.42	938.55
390.61	1006.43
390.81	1071.97
391.00	994.73
391.19	1088.35
391.39	1020.47
391.58	1053.24
391.78	1071.97
391.97	1015.79
392.16	1032.18
392.36	1004.09
392.55	1046.22
392.75	983.02
392.94	894.08
393.13	954.94
393.33	999.41
393.52	1088.35
393.71	1055.58
393.91	1074.31
394.10	1174.95
394.29	1163.25
394.49	1240.48
394.68	1268.57
394.88	1193.67
395.07	1228.78
395.26	1221.76
395.46	1280.27
395.65	1217.08
395.84	1193.67
396.04	1301.34
396.23	1186.65
396.42	1142.18
396.62	1221.76
396.81	1221.76
397.00	1219.42
397.19	1259.21
397.39	1284.95
397.58	1376.24
397.77	1362.19
397.97	1495.60
398.16	1427.73
398.35	1458.15
398.55	1472.20
398.74	1579.86
398.93	1586.88
399.12	1500.28
399.32	1486.24
399.51	1495.60
399.70	1561.14
399.90	1572.84
400.09	1568.16
400.28	1563.48
400.47	1603.27
400.67	1673.48
400.86	1654.76
401.05	1739.02
401.24	1746.04
401.44	1781.15
401.63	1727.32
401.82	1610.29
402.01	1748.38
402.21	1732.00
402.40	1748.38
402.59	1858.39
402.78	1771.79
402.97	1746.04
403.17	1736.68
403.36	1858.39
403.55	1790.51
403.74	1846.68
403.93	1860.73
404.13	1846.68
404.32	1834.98
404.51	1895.83
404.70	1870.09
404.89	1984.77
405.09	1975.41
405.28	1912.22
405.47	1935.62
405.66	1989.46
405.85	2033.93
406.05	1940.30
406.24	1970.73
406.43	2015.20
406.62	2188.40
406.81	2029.24
407.00	2125.21
407.20	2094.78
407.39	2106.48
407.58	2193.08
407.77	2223.51
407.96	2326.49
408.15	2359.26
408.34	2251.60
408.54	2321.81
408.73	2324.15
408.92	2279.68
409.11	2298.41
409.30	2380.32
409.49	2146.27
409.68	2277.34
409.87	2232.87
410.07	2401.39
410.26	2495.01
410.45	2420.11
410.64	2485.65
410.83	2392.03
411.02	2464.58
411.21	2658.85
411.40	2619.06
411.59	2637.78
411.78	2602.68
411.98	2513.74
412.17	2705.66
412.36	2710.34
412.55	2761.83
412.74	2785.24
412.93	2761.83
413.12	2818.00
413.31	2944.39
413.50	2829.71
413.69	2780.56
413.88	2860.13
414.07	2825.03
414.26	3000.57
414.45	3000.57
414.64	3016.95
414.83	3033.33
415.02	3012.27
415.22	3084.83
415.41	3133.98
415.60	3028.65
415.79	3101.21
415.98	3297.81
416.17	3208.87
416.36	3356.33
416.55	3215.90
416.74	3335.26
416.93	3405.48
417.12	3370.37
417.31	3435.91
417.50	3325.90
417.69	3384.41
417.88	3585.70
418.07	3391.44
418.26	3372.71
418.45	3468.67
418.64	3585.70
418.83	3566.98
419.02	3698.05
419.21	3637.19
419.39	3737.84
419.58	3508.46
419.77	3571.66
419.96	3637.19
420.15	3707.41
420.34	3623.15
420.53	3796.35
420.72	3911.04
420.91	3971.89
421.10	3794.01
421.29	3770.60
421.48	3838.48
421.67	3978.91
421.86	3789.33
422.05	3838.48
422.24	3864.22
422.43	3822.09
422.61	3922.74
422.80	3978.91
422.99	3911.04
423.18	3934.44
423.37	4119.34
423.56	4042.11
423.75	3887.63
423.94	3918.06
424.13	3660.60
424.32	3772.94
424.50	4039.76
424.69	4042.11
424.88	3962.53
425.07	3833.80
425.26	3927.42
425.45	3946.14
425.64	3934.44
425.83	4079.55
426.01	4002.32
426.20	4016.36
426.39	4032.74
426.58	4114.66
426.77	4105.30
426.96	4051.47
427.15	4032.74
427.33	4095.94
427.52	3971.89
427.71	4217.65
427.90	4294.88
428.09	4283.18
428.28	4159.13
428.46	4163.81
428.65	4156.79
428.84	4381.48
429.03	4215.30
429.22	4173.18
429.40	4117.00
429.59	3988.27
429.78	3843.16
429.97	3857.20
430.16	4117.00
430.34	4102.96
430.53	4327.65
430.72	4184.88
430.91	4285.52
431.10	4353.40
431.28	4519.57
431.47	4557.02
431.66	4741.93
431.85	4535.96
432.03	4587.45
432.22	4800.44
432.41	4512.55
432.60	4573.41
432.79	4636.60
432.97	4894.06
433.16	4798.10
433.35	4683.41
433.54	4610.86
433.72	4622.56
433.91	4774.69
434.10	4791.08
434.28	4858.95
434.47	4898.74
434.66	5055.56
434.85	4973.64
435.03	4978.32
435.22	5118.75
435.41	5308.34
435.59	5153.86
435.78	5263.86
435.97	5139.82
436.16	5125.77
436.34	5177.26
436.53	5081.30
436.72	5291.95
436.90	5128.11
437.09	5078.96
437.28	5093.01
437.46	5256.84
437.65	5245.14
437.84	5357.49
438.02	5221.74
438.21	5287.27
438.40	5231.10
438.58	5401.96
438.77	5376.21
438.96	5380.89
439.14	5687.50
439.33	5650.05
439.52	5696.86
439.70	5626.65
439.89	5628.99
440.08	5610.26
440.26	5577.50
440.45	5675.80
440.63	5863.04
440.82	6045.60
441.01	5963.68
441.19	6061.99
441.38	6120.50
441.57	6361.58
441.75	6190.72
441.94	6349.87
442.12	6305.40
442.31	6464.56
442.50	6406.05
442.68	6450.52
442.87	6274.98
443.05	6438.81
443.24	6509.03
443.43	6464.56
443.61	6502.01
443.80	6696.27
443.98	6490.31
444.17	6394.34
444.35	6626.06
444.54	6684.57
444.73	6595.63
444.91	6553.50
445.10	6574.56
445.28	6464.56
445.47	6424.77
445.65	6401.37
445.84	6656.48
446.02	6651.80
446.21	6715.00
446.39	6677.55
446.58	6775.85
446.77	6705.63
446.95	6555.84
447.14	6780.53
447.32	6953.73
447.51	6647.12
447.69	6726.70
447.88	6773.51
448.06	6853.09
448.25	6829.68
448.43	6888.20
448.62	6698.61
448.80	6750.10
448.99	6972.46
449.17	6916.28
449.36	6829.68
449.54	7012.24
449.73	7052.03
449.91	7133.95
450.10	7222.89
450.28	7382.05
450.46	7232.26
450.65	7435.88
450.83	7360.98
451.02	7227.57
451.20	7173.74
451.39	7316.51
451.57	7407.80
451.76	7274.38
451.94	7368.01
452.13	7250.98
452.31	7260.34
452.49	7103.53
452.68	7307.15
452.86	7185.44
453.05	7136.29
453.23	7302.47
453.42	7267.36
453.60	7309.49
453.78	7740.15
453.97	7468.65
454.15	7550.57
454.34	7473.33
454.52	7599.72
454.70	7513.12
454.89	7602.06
455.07	7552.91
455.26	7744.83
455.44	7768.24
455.62	7981.23
455.81	7765.90
455.99	8006.97
456.17	7843.14
456.36	7775.26
456.54	8013.99
456.73	8152.09
456.91	8163.79
457.09	8145.06
457.28	8362.73
457.46	7803.35
457.64	8215.28
457.83	8400.18
458.01	7948.46
458.19	8198.90
458.38	8231.66
458.56	8194.22
458.74	8142.72
458.93	8180.17
459.11	8189.53
459.29	8329.97
459.48	8362.73
459.66	8250.39
459.84	8463.38
460.03	8655.30
460.21	8669.34
460.39	8599.13
460.57	8376.78
460.76	8697.43
460.94	8608.49
461.12	8774.67
461.31	8882.33
461.49	8610.83
461.67	8652.96
461.85	8898.72
462.04	8887.01
462.22	9345.76
462.40	9146.81
462.59	8947.87
462.77	8987.66
462.95	8856.59
463.13	8758.28
463.32	8959.57
463.50	9071.92
463.68	9036.81
463.86	9102.34
464.05	9034.47
464.23	8847.22
464.41	9074.26
464.59	9034.47
464.78	9231.07
464.96	9067.24
465.14	9116.39
465.32	9256.82
465.50	9474.49
465.69	9465.13
465.87	9308.31
466.05	9287.25
466.23	9252.14
466.41	9137.45
466.60	9518.96
466.78	9252.14
466.96	9289.59
467.14	9352.78
467.32	9390.23
467.51	9502.58
467.69	9207.67
467.87	9329.38
468.05	9713.22
468.23	9610.24
468.41	9600.88
468.60	9708.54
468.78	9696.84
468.96	9743.65
469.14	9841.95
469.32	9790.46
469.50	9682.80
469.69	9863.02
469.87	9907.49
470.05	9916.85
470.23	9872.38
470.41	10015.15
470.59	9947.28
470.77	9851.31
470.95	9933.23
471.14	10120.48
471.32	10022.17
471.50	10487.94
471.68	10342.83
471.86	10469.22
472.04	10429.43
472.22	10565.18
472.40	10265.59
472.58	10387.30
472.77	10640.08
472.95	10670.50
473.13	11080.10
473.31	10822.64
473.49	10679.86
473.67	10698.59
473.85	10813.28
474.03	11016.90
474.21	11063.71
474.39	11108.18
474.57	11246.27
474.75	11171.38
474.93	11190.10
475.12	11213.51
475.30	11178.40
475.48	11318.83
475.66	11438.20
475.84	11061.37
476.02	11272.02
476.20	11599.70
476.38	11714.38
476.56	11864.18
476.74	12088.87
476.92	11885.24
477.10	11918.01
477.28	11997.59
477.46	12070.14
477.64	12395.48
477.82	12620.17
478.00	12950.18
478.18	12477.40
478.36	12599.10
478.54	12826.14
478.72	12985.29
478.90	12657.62
479.08	13081.25
479.26	13235.73
479.44	13392.55
479.62	13305.95
479.80	13275.52
479.98	13540.00
480.16	13846.61
480.34	13687.45
480.52	13928.53
480.70	13933.21
480.88	13921.51
481.06	13914.48
481.24	14270.25
481.41	14277.27
481.59	14574.52
481.77	14391.95
481.95	14810.91
482.13	14766.44
482.31	14501.96
482.49	14885.81
482.67	15028.58
482.85	15035.60
483.03	15080.07
483.21	15496.69
483.39	15665.21
483.57	15384.34
483.74	15611.37
483.92	15602.01
484.10	15611.37
484.28	15683.93
484.46	16173.10
484.64	16414.18
484.82	16266.72
485.00	16245.66
485.18	16688.02
485.35	16620.14
485.53	16343.96
485.71	16081.82
485.89	16376.73
486.07	16545.25
486.25	16734.83
486.43	16912.71
486.61	17013.35
486.78	17336.35
486.96	17224.00
487.14	17898.08
487.32	18008.08
487.50	18052.55
487.68	18338.10
487.85	18572.15
488.03	18625.98
488.21	18792.16
488.39	18565.13
488.57	18780.46
488.75	18604.92
488.92	19110.47
489.10	19690.93
489.28	19620.71
489.46	19697.95
489.64	19894.55
489.81	20325.21
489.99	20222.23
490.17	20208.19
490.35	20592.03
490.53	20673.95
490.70	20695.02
490.88	20580.33
491.06	21254.40
491.24	20451.60
491.41	21135.04
491.59	20924.39
491.77	20798.00
491.95	21125.68
492.13	21495.48
492.30	21933.16
492.48	21745.92
492.66	21998.70
492.84	22005.72
493.01	22429.35
493.19	22148.49
493.37	22427.01
493.54	22583.83
493.72	22735.96
493.90	23049.60
494.08	23030.87
494.25	23433.44
494.43	23028.53
494.61	23580.90
494.79	23466.21
494.96	23337.48
495.14	23632.39
495.32	24039.64
495.49	24081.77
495.67	24063.05
495.85	24037.30
496.02	24676.27
496.20	24444.56
496.38	24381.36
496.55	24767.55
496.73	25315.23
496.91	25064.80
497.09	25322.26
497.26	25256.72
497.44	25408.86
497.62	25280.13
497.79	25298.85
497.97	25502.48
498.14	25469.71
498.32	25708.44
498.50	25902.71
498.67	26164.85
498.85	26293.58
499.03	26260.81
499.20	26230.38
499.38	26508.91
499.56	26691.47
499.73	26855.31
499.91	26651.68
500.08	26932.54
500.26	26366.13
500.44	26904.46
500.61	26991.06
500.79	26796.79
500.97	27084.68
501.14	27105.74
501.32	27087.02
501.49	27325.75
501.67	27573.85
501.84	27402.99
502.02	27686.20
502.20	27721.30
502.37	27873.44
502.55	28292.40
502.72	28280.69
502.90	28212.82
503.07	28233.88
503.25	28451.55
503.43	28170.69
503.60	28844.76
503.78	28203.46
503.95	28271.33
504.13	28437.51
504.30	29036.69
504.48	28819.02
504.65	29457.98
504.83	29076.48
505.01	29380.74
505.18	29619.48
505.36	29446.28
505.53	29799.70
505.71	29603.10
505.88	29523.52
506.06	29472.03
506.23	30122.69
506.41	29743.53
506.58	30082.91
506.76	29855.87
506.93	30206.95
507.11	30272.49
507.28	30085.25
507.46	30110.99
507.63	30728.89
507.81	30541.65
507.98	30263.13
508.16	30541.65
508.33	30656.34
508.50	31126.78
508.68	31131.47
508.85	31393.61
509.03	31323.39
509.20	31234.45
509.38	31271.90
509.55	31573.83
509.73	31208.70
509.90	31569.15
510.08	31519.99
510.25	31782.13
510.42	31768.09
510.60	31981.08
510.77	32315.78
510.95	32116.83
511.12	32343.86
511.30	32020.87
511.47	32582.60
511.64	32598.98
511.82	32500.68
511.99	32341.52
512.17	32762.82
512.34	32594.30
512.51	32751.12
512.69	32802.61
512.86	32912.61
513.04	33034.32
513.21	33120.92
513.38	32879.85
513.56	32711.33
513.73	32800.27
513.90	33336.25
514.08	33443.91
514.25	32996.87
514.43	33069.43
514.60	33172.41
514.77	33717.76
514.95	34106.29
515.12	33567.96
515.29	33675.63
515.47	34230.33
515.64	34550.99
515.81	34256.08
515.99	33694.35
516.16	33628.82
516.33	34293.53
516.51	33605.41
516.68	33567.96
516.85	33614.77
517.03	33675.63
517.20	34237.36
517.37	34396.51
517.54	34773.34
517.72	34817.81
517.89	34253.74
518.06	34286.51
518.24	34096.92
518.41	35016.75
518.58	34817.81
518.75	34742.91
518.93	35367.84
519.10	35236.77
519.27	34937.18
519.45	35241.45
519.62	35559.76
519.79	35232.08
519.96	35686.15
520.14	35770.41
520.31	35707.21
520.48	35995.10
520.65	35849.99
520.83	36093.40
521.00	36093.40
521.17	36208.09
521.34	36376.61
521.52	36587.25
521.69	36404.69
521.86	36437.46
522.03	36851.73
522.20	36575.55
522.38	36182.34
522.55	37013.23
522.72	36521.72
522.89	36259.58
523.07	36992.17
523.24	36830.67
523.41	37193.45
523.58	37006.21
523.75	37614.75
523.92	37380.70
524.10	37841.78
524.27	37708.37
524.44	37703.69
524.61	38120.31
524.78	37759.86
524.96	37977.53
525.13	37778.59
525.30	38007.96
525.47	37935.40
525.64	37853.48
525.81	37841.78
525.98	37317.50
526.16	37598.37
526.33	37570.28
526.50	37979.87
526.67	37364.31
526.84	37825.40
527.01	37390.06
527.18	38211.59
527.36	38508.83
527.53	38651.61
527.70	38347.34
527.87	38998.01
528.04	38667.99
528.21	38759.27
528.38	38707.78
528.55	39126.74
528.72	39180.57
528.89	39344.41
529.07	38766.29
529.24	39161.84
529.41	39140.78
529.58	38480.75
529.75	38501.81
529.92	39154.82
530.09	39407.60
530.26	39590.16
530.43	39594.84
530.60	39365.47
530.77	39285.89
530.94	39899.11
531.11	39491.86
531.28	39971.67
531.46	40238.49
531.63	40062.95
531.80	40011.46
531.97	40048.91
532.14	39847.62
532.31	39564.42
532.48	39409.94
532.65	39824.22
532.82	39690.80
532.99	40170.61
533.16	40140.19
533.33	40158.91
533.50	40505.31
533.67	39913.16
533.84	40072.31
534.01	40147.21
534.18	40460.84
534.35	40278.28
534.52	40540.42
534.69	40957.03
534.86	40755.75
535.03	40837.67
535.20	41287.05
535.37	41003.85
535.54	40905.54
535.71	40734.68
535.88	40973.42
536.05	41151.30
536.22	40856.39
536.38	41202.79
536.55	40973.42
536.72	41282.37
536.89	40849.37
537.06	41312.80
537.23	41165.34
537.40	41338.54
537.57	41317.48
537.74	41383.01
537.91	41408.76
538.08	41205.13
538.25	41373.65
538.42	41375.99
538.59	41834.74
538.75	41041.29
538.92	41380.67
539.09	41722.39
539.26	41759.84
539.43	41888.57
539.60	41797.29
539.77	41696.64
539.94	41364.29
540.11	41572.60
540.28	41453.23
540.44	41673.24
540.61	41731.75
540.78	41338.54
540.95	41759.84
541.12	41848.78
541.29	41766.86
541.46	41982.19
541.62	42211.56
541.79	42333.27
541.96	41811.33
542.13	42136.66
542.30	42246.67
542.47	42293.48
542.63	42024.32
542.80	42344.97
542.97	42492.43
543.14	42710.10
543.31	42651.58
543.48	43063.52
543.64	43051.81
543.81	43054.15
543.98	43323.32
544.15	42806.06
544.32	43124.37
544.48	43248.42
544.65	43344.38
544.82	42953.51
544.99	42852.87
545.16	42892.66
545.32	43262.46
545.49	43562.05
545.66	43768.02
545.83	43206.29
546.00	43498.86
546.16	43557.37
546.33	43665.03
546.50	43154.80
546.67	43236.72
546.83	43489.49
547.00	43599.50
547.17	43672.06
547.34	43243.74
547.50	43915.47
547.67	43894.41
547.84	44172.93
548.00	43737.59
548.17	44210.38
548.34	43819.51
548.51	43992.71
548.67	44336.77
548.84	44100.37
549.01	43611.20
549.18	44147.18
549.34	43861.64
549.51	44158.89
549.68	44376.56
549.84	44306.34
550.01	44318.04
550.18	43849.94
550.34	44212.72
550.51	44179.95
550.68	44416.35
550.84	44296.98
551.01	44406.98
551.18	44334.43
551.34	44460.82
551.51	44694.87
551.68	44257.19
551.84	44357.83
552.01	44353.15
552.18	44514.65
552.34	44460.82
552.51	44147.18
552.68	44559.12
552.84	44949.99
553.01	44252.51
553.18	44680.83
553.34	45067.02
553.51	44559.12
553.67	44863.39
553.84	45109.14
554.01	44924.24
554.17	44781.47
554.34	45301.07
554.51	44905.52
554.67	45179.36
554.84	44893.82
555.00	44486.56
555.17	44868.07
555.33	44910.20
555.50	45268.30
555.67	45359.58
555.83	44982.76
556.00	45261.28
556.16	45289.37
556.33	44959.35
556.50	45118.51
556.66	45202.77
556.83	44765.09
556.99	45106.80
557.16	45638.11
557.32	45551.51
557.49	45577.25
557.65	45254.26
557.82	45191.06
557.98	45446.18
558.15	45172.34
558.32	45359.58
558.48	45324.47
558.65	45055.31
558.81	45291.71
558.98	45703.64
559.14	45408.73
559.31	45385.33
559.47	45291.71
559.64	45968.12
559.80	45799.60
559.97	45897.91
560.13	45319.79
560.30	45392.35
560.46	45652.15
560.63	46082.81
560.79	45443.84
560.96	45778.54
561.12	45354.90
561.29	45378.31
561.45	45436.82
561.61	45422.78
561.78	45591.30
561.94	45076.38
562.11	45581.93
562.27	45595.98
562.44	45722.37
562.60	45542.14
562.77	45682.58
562.93	46017.27
563.10	45603.00
563.26	45181.70
563.42	46529.85
563.59	45530.44
563.75	45991.53
563.92	46129.62
564.08	45881.52
564.24	45961.10
564.41	45881.52
564.57	45890.88
564.74	45413.41
564.90	45691.94
565.07	46333.24
565.23	45942.38
565.39	46202.18
565.56	46110.89
565.72	45308.09
565.88	45921.31
566.05	46031.32
566.21	46033.66
566.38	45930.67
566.54	45343.20
566.70	45958.76
566.87	46401.12
567.03	45886.20
567.19	46663.26
567.36	46167.07
567.52	46277.07
567.68	46197.49
567.85	45586.61
568.01	45979.82
568.17	45911.95
568.34	46157.70
568.50	46169.41
568.66	45720.02
568.83	45914.29
568.99	45546.82
569.15	45951.74
569.32	45799.60
569.48	45703.64
569.64	46181.11
569.81	46284.09
569.97	45900.25
570.13	46134.30
570.30	45722.37
570.46	45951.74
570.62	45970.46
570.78	45703.64
570.95	45830.03
571.11	45968.12
571.27	45640.45
571.43	46204.52
571.60	46064.08
571.76	46131.96
571.92	46239.62
572.09	45925.99
572.25	46148.34
572.41	45888.54
572.57	46471.34
572.74	46408.14
572.90	46356.65
573.06	46312.18
573.22	46529.85
573.38	46497.08
573.55	45811.31
573.71	47004.98
573.87	46279.41
574.03	46223.24
574.20	46279.41
574.36	46052.38
574.52	46223.24
574.68	46181.11
574.84	46520.49
575.01	46155.36
575.17	46237.28
575.33	45792.58
575.49	46213.88
575.65	46316.86
575.82	46625.81
575.98	45975.14
576.14	46494.74
576.30	46024.29
576.46	46333.24
576.62	46204.52
576.79	46169.41
576.95	45858.12
577.11	46520.49
577.27	46410.48
577.43	46300.48
577.59	46040.68
577.75	46096.85
577.92	45956.42
578.08	45893.22
578.24	45956.42
578.40	46550.91
578.56	46396.44
578.72	46403.46
578.88	46595.38
579.04	46260.69
579.21	46323.88
579.37	46160.05
579.53	46447.93
579.69	45811.31
579.85	46354.31
580.01	46272.39
580.17	46319.20
580.33	46611.77
580.49	46600.07
580.65	46337.93
580.82	46436.23
580.98	46153.02
581.14	46223.24
581.30	46623.47
581.46	46248.99
581.62	46471.34
581.78	46302.82
581.94	46731.14
582.10	46038.34
582.26	46134.30
582.42	46595.38
582.58	46429.21
582.74	46569.64
582.90	46169.41
583.06	46541.55
583.22	46557.94
583.38	46419.84
583.54	46719.43
583.70	46579.00
583.86	46674.96
584.02	46258.35
584.18	46621.13
584.34	46443.25
584.50	46199.83
584.66	46452.61
584.82	46000.89
584.98	46780.29
585.14	46623.47
585.30	46637.51
585.46	46115.58
585.62	46089.83
585.78	46377.72
585.94	45954.08
586.10	46113.23
586.26	46286.43
586.42	46344.95
586.58	46674.96
586.74	46288.77
586.90	46461.97
587.06	46307.50
587.22	46124.94
587.38	46555.60
587.54	46263.03
587.70	46590.70
587.86	46169.41
588.02	46632.83
588.18	46466.66
588.34	46148.34
588.49	46071.10
588.65	45684.92
588.81	45593.64
588.97	45956.42
589.13	45827.69
589.29	46197.49
589.45	46504.10
589.61	46195.15
589.77	46417.50
589.93	46546.23
