SpectraSuite Data File
++++++++++++++++++++++++++++++++++++
Date: Fri Oct 25 11:33:34 EDT 2013
User: price-jones
Dark Spectrum Present: No
Reference Spectrum Present: No
Number of Sampled Component Spectra: 1
Spectrometers: USB2+H05261
Integration Time (usec): 100000 (USB2+H05261)
Spectra Averaged: 1 (USB2+H05261)
Boxcar Smoothing: 0 (USB2+H05261)
Correct for Electrical Dark: No (USB2+H05261)
Strobe/Lamp Enabled: No (USB2+H05261)
Correct for Detector Non-linearity: No (USB2+H05261)
Correct for Stray Light: No (USB2+H05261)
Number of Pixels in Processed Spectrum: 2048
>>>>>Begin Processed Spectral Data<<<<<
365.73	308.95
365.92	308.95
366.12	308.95
366.32	166.18
366.52	196.60
366.72	163.84
366.91	227.03
367.11	243.42
367.31	212.99
367.51	112.35
367.70	154.48
367.90	205.97
368.10	222.35
368.30	149.79
368.49	201.29
368.69	191.92
368.89	163.84
369.09	166.18
369.28	180.22
369.48	224.69
369.68	170.86
369.87	205.97
370.07	198.95
370.27	276.18
370.47	285.55
370.66	461.09
370.86	503.22
371.06	528.96
371.25	496.19
371.45	545.34
371.65	498.53
371.84	566.41
372.04	524.28
372.24	554.71
372.44	526.62
372.63	519.60
372.83	624.92
373.03	601.52
373.22	648.33
373.42	601.52
373.62	620.24
373.81	702.16
374.01	636.63
374.21	627.26
374.40	718.54
374.60	629.60
374.79	697.48
374.99	571.09
375.19	704.50
375.38	671.73
375.58	685.78
375.78	636.63
375.97	629.60
376.17	748.97
376.37	685.78
376.56	674.07
376.76	674.07
376.95	678.76
377.15	674.07
377.35	624.92
377.54	690.46
377.74	669.39
377.93	660.03
378.13	758.33
378.33	753.65
378.52	784.08
378.72	763.01
378.91	720.88
379.11	748.97
379.31	720.88
379.50	753.65
379.70	657.69
379.89	737.27
380.09	748.97
380.28	767.70
380.48	774.72
380.68	667.05
380.87	744.29
381.07	777.06
381.26	716.20
381.46	755.99
381.65	737.27
381.85	786.42
382.04	739.61
382.24	791.10
382.43	791.10
382.63	826.21
382.83	807.48
383.02	814.51
383.22	823.87
383.41	840.25
383.61	877.70
383.80	919.83
384.00	718.54
384.19	823.87
384.39	830.89
384.58	837.91
384.78	842.59
384.97	910.47
385.17	830.89
385.36	854.30
385.56	889.40
385.75	889.40
385.95	868.34
386.14	882.38
386.34	805.14
386.53	858.98
386.72	908.13
386.92	866.00
387.11	926.85
387.31	954.94
387.50	961.96
387.70	903.45
387.89	873.02
388.09	863.66
388.28	936.21
388.48	868.34
388.67	910.47
388.86	903.45
389.06	849.61
389.25	961.96
389.45	961.96
389.64	971.32
389.84	976.00
390.03	1025.15
390.22	997.07
390.42	978.34
390.61	971.32
390.81	1020.47
391.00	945.58
391.19	987.71
391.39	1001.75
391.58	1004.09
391.78	1043.88
391.97	1050.90
392.16	966.64
392.36	1095.37
392.55	1057.92
392.75	1062.60
392.94	976.00
393.13	1032.18
393.33	1132.82
393.52	1118.78
393.71	1191.33
393.91	1006.43
394.10	1081.33
394.29	1135.16
394.49	1078.99
394.68	1130.48
394.88	1097.71
395.07	1170.27
395.26	1104.73
395.46	1200.69
395.65	1210.06
395.84	1296.66
396.04	1287.29
396.23	1200.69
396.42	1254.53
396.62	1193.67
396.81	1217.08
397.00	1174.95
397.19	1186.65
397.39	1306.02
397.58	1238.14
397.77	1226.44
397.97	1315.38
398.16	1313.04
398.35	1242.82
398.55	1320.06
398.74	1296.66
398.93	1324.74
399.12	1275.59
399.32	1238.14
399.51	1254.53
399.70	1320.06
399.90	1392.62
400.09	1383.26
400.28	1345.81
400.47	1420.71
400.67	1350.49
400.86	1362.19
401.05	1369.21
401.24	1427.73
401.44	1521.35
401.63	1476.88
401.82	1376.24
402.01	1432.41
402.21	1392.62
402.40	1458.15
402.59	1479.22
402.78	1540.07
402.97	1448.79
403.17	1540.07
403.36	1521.35
403.55	1596.25
403.74	1657.10
403.93	1647.74
404.13	1624.33
404.32	1537.73
404.51	1596.25
404.70	1717.95
404.89	1631.35
405.09	1678.16
405.28	1680.50
405.47	1675.82
405.66	1673.48
405.85	1666.46
406.05	1699.23
406.24	1687.53
406.43	1715.61
406.62	1849.02
406.81	1867.75
407.00	1713.27
407.20	1682.85
407.39	1839.66
407.58	1764.76
407.77	1839.66
407.96	1785.83
408.15	1884.13
408.34	1837.32
408.54	1961.37
408.73	1954.35
408.92	1991.80
409.11	1959.03
409.30	1991.80
409.49	1921.58
409.68	2094.78
409.87	2029.24
410.07	2134.57
410.26	2092.44
410.45	1952.01
410.64	2080.74
410.83	2155.63
411.02	2101.80
411.21	2099.46
411.40	2249.25
411.59	2139.25
411.78	2272.66
411.98	2162.66
412.17	2260.96
412.36	2338.20
412.55	2354.58
412.74	2272.66
412.93	2293.72
413.12	2354.58
413.31	2445.86
413.50	2511.39
413.69	2455.22
413.88	2523.10
414.07	2473.95
414.26	2541.82
414.45	2511.39
414.64	2511.39
414.83	2504.37
415.02	2619.06
415.22	2771.19
415.41	2614.38
415.60	2642.46
415.79	2675.23
415.98	2677.57
416.17	2759.49
416.36	2689.28
416.55	2724.38
416.74	2834.39
416.93	2803.96
417.12	2794.60
417.31	2757.15
417.50	2813.32
417.69	2883.54
417.88	2970.14
418.07	2923.33
418.26	3063.76
418.45	3030.99
418.64	3141.00
418.83	3021.63
419.02	2970.14
419.21	3208.87
419.39	3073.12
419.58	3033.33
419.77	3166.74
419.96	3138.66
420.15	3148.02
420.34	3094.19
420.53	3272.07
420.72	3206.53
420.91	3281.43
421.10	3300.16
421.29	3375.05
421.48	3169.09
421.67	3349.31
421.86	3267.39
422.05	3251.00
422.24	3201.85
422.43	3307.18
422.61	3269.73
422.80	3386.76
422.99	3400.80
423.18	3335.26
423.37	3480.38
423.56	3323.56
423.75	3361.01
423.94	3297.81
424.13	3159.72
424.32	3204.19
424.50	3435.91
424.69	3431.23
424.88	3454.63
425.07	3361.01
425.26	3344.63
425.45	3279.09
425.64	3431.23
425.83	3372.71
426.01	3407.82
426.20	3557.61
426.39	3536.55
426.58	3496.76
426.77	3461.65
426.96	3433.57
427.15	3403.14
427.33	3599.74
427.52	3562.30
427.71	3604.42
427.90	3531.87
428.09	3494.42
428.28	3630.17
428.46	3686.34
428.65	3744.86
428.84	3747.20
429.03	3826.78
429.22	3712.09
429.40	3782.31
429.59	3716.77
429.78	3665.28
429.97	3714.43
430.16	3721.45
430.34	3758.90
430.53	3817.41
430.72	3782.31
430.91	3899.33
431.10	3854.86
431.28	3960.19
431.47	3960.19
431.66	4044.45
431.85	3908.69
432.03	3990.61
432.22	4131.05
432.41	4105.30
432.60	4079.55
432.79	3955.51
432.97	4067.85
433.16	4262.12
433.35	4205.94
433.54	4341.69
433.72	4102.96
433.91	4166.15
434.10	4187.22
434.28	4154.45
434.47	4159.13
434.66	4468.08
434.85	4421.27
435.03	4379.14
435.22	4297.22
435.41	4489.15
435.59	4311.27
435.78	4432.97
435.97	4468.08
436.16	4416.59
436.34	4294.88
436.53	4402.55
436.72	4561.70
436.90	4418.93
437.09	4540.64
437.28	4465.74
437.46	4561.70
437.65	4440.00
437.84	4613.20
438.02	4479.79
438.21	4542.98
438.40	4484.47
438.58	4770.01
438.77	4880.02
438.96	4777.03
439.14	4812.14
439.33	4835.55
439.52	4842.57
439.70	4854.27
439.89	4882.36
440.08	5020.45
440.26	5083.64
440.45	5114.07
440.63	5174.92
440.82	5100.03
441.01	5125.77
441.19	5235.78
441.38	5296.63
441.57	5188.97
441.75	5369.19
441.94	5322.38
442.12	5514.30
442.31	5488.56
442.50	5439.40
442.68	5397.28
442.87	5380.89
443.05	5533.03
443.24	5572.82
443.43	5631.33
443.61	5474.51
443.80	5720.27
443.98	5481.53
444.17	5334.08
444.35	5469.83
444.54	5692.18
444.73	5703.89
444.91	5537.71
445.10	5720.27
445.28	5708.57
445.47	5523.66
445.65	5558.77
445.84	5720.27
446.02	5650.05
446.21	5731.97
446.39	5729.63
446.58	5792.83
446.77	5657.07
446.95	5720.27
447.14	5589.20
447.32	5734.31
447.51	5811.55
447.69	5832.62
447.88	5830.27
448.06	5827.93
448.25	5846.66
448.43	6001.13
448.62	5767.08
448.80	5760.06
448.99	6008.16
449.17	5940.28
449.36	5926.24
449.54	5942.62
449.73	6251.57
449.91	6001.13
450.10	6080.71
450.28	6209.44
450.46	6129.86
450.65	6054.97
450.83	6307.74
451.02	6094.76
451.20	6260.93
451.39	6195.40
451.57	6256.25
451.76	6120.50
451.94	6263.27
452.13	6354.55
452.31	6155.61
452.49	6328.81
452.68	6169.65
452.86	6298.38
453.05	6389.66
453.23	6406.05
453.42	6207.10
453.60	6307.74
453.78	6462.22
453.97	6485.62
454.15	6293.70
454.34	6392.00
454.52	6520.73
454.70	6392.00
454.89	6520.73
455.07	6635.42
455.26	6450.52
455.44	6693.93
455.62	6764.15
455.81	6637.76
455.99	6810.96
456.17	6700.95
456.36	6651.80
456.54	6846.07
456.73	6860.11
456.91	6864.79
457.09	7030.97
457.28	7098.84
457.46	6911.60
457.64	7077.78
457.83	7112.89
458.01	7098.84
458.19	7286.09
458.38	7021.61
458.56	7222.89
458.74	7180.76
458.93	7201.83
459.11	7253.32
459.29	7042.67
459.48	7403.11
459.66	7215.87
459.84	7283.75
460.03	7356.30
460.21	7405.46
460.39	7274.38
460.57	7452.27
460.76	7391.41
460.94	7342.26
461.12	7613.76
461.31	7499.08
461.49	7499.08
461.67	7300.13
461.85	7772.92
462.04	7515.46
462.22	7894.63
462.40	7719.09
462.59	7712.07
462.77	7524.82
462.95	7812.71
463.13	7648.87
463.32	7903.99
463.50	7810.37
463.68	8072.51
463.86	7901.65
464.05	7857.18
464.23	8086.55
464.41	8037.40
464.59	7662.91
464.78	8060.80
464.96	8039.74
465.14	7981.23
465.32	8011.65
465.50	7953.14
465.69	8168.47
465.87	8194.22
466.05	8030.38
466.23	7985.91
466.41	8219.96
466.60	8138.04
466.78	8079.53
466.96	8194.22
467.14	8131.02
467.32	8351.03
467.51	8542.96
467.69	8222.30
467.87	8294.86
468.05	8517.21
468.23	8395.50
468.41	8156.77
468.60	8294.86
468.78	8547.64
468.96	8381.46
469.14	8674.03
469.32	8428.27
469.50	8596.79
469.69	8594.45
469.87	8814.46
470.05	8814.46
470.23	8613.17
470.41	8659.98
470.59	8847.22
470.77	8990.00
470.95	8992.34
471.14	9151.49
471.32	8840.20
471.50	9100.00
471.68	9095.32
471.86	9165.54
472.04	9226.39
472.22	9254.48
472.40	9011.06
472.58	9268.52
472.77	9497.89
472.95	9322.35
473.13	9558.75
473.31	9170.22
473.49	9516.62
473.67	9427.68
473.85	9542.36
474.03	9696.84
474.21	9731.95
474.39	9685.14
474.57	9715.56
474.75	10026.86
474.93	9935.57
475.12	9722.59
475.30	10141.54
475.48	9928.55
475.66	10106.43
475.84	10167.29
476.02	10239.84
476.20	10333.47
476.38	10448.15
476.56	10733.70
476.74	10614.33
476.92	10253.89
477.10	10588.58
477.28	10775.83
477.46	10700.93
477.64	10733.70
477.82	11016.90
478.00	11269.68
478.18	11239.25
478.36	11169.04
478.54	11300.11
478.72	11562.25
478.90	11609.06
479.08	11632.46
479.26	11672.25
479.44	11714.38
479.62	11903.96
479.80	11896.94
479.98	12004.61
480.16	12262.07
480.34	11885.24
480.52	12329.94
480.70	12439.95
480.88	12313.56
481.06	12339.30
481.24	12381.43
481.41	12500.80
481.59	12802.73
481.77	12886.99
481.95	12699.75
482.13	13050.83
482.31	12989.97
482.49	13298.92
482.67	13191.26
482.85	13364.46
483.03	13394.89
483.21	13694.47
483.39	13752.99
483.57	14003.43
483.74	13954.27
483.92	13715.54
484.10	14211.73
484.28	14300.67
484.46	14588.56
484.64	14658.78
484.82	14420.04
485.00	14611.96
485.18	14913.89
485.35	14909.21
485.53	14768.78
485.71	14871.76
485.89	15323.49
486.07	15431.15
486.25	15304.76
486.43	15557.54
486.61	15896.92
486.78	15932.03
486.96	15639.46
487.14	15960.11
487.32	16018.63
487.50	16236.30
487.68	16627.17
487.85	16741.85
488.03	16779.30
488.21	16849.52
488.39	16877.60
488.57	17263.79
488.75	17303.58
488.92	17291.88
489.10	17336.35
489.28	17387.84
489.46	17834.88
489.64	17752.96
489.81	18031.49
489.99	18087.66
490.17	18125.11
490.35	18569.81
490.53	18520.66
490.70	18628.32
490.88	18841.31
491.06	18892.80
491.24	18967.70
491.41	18820.25
491.59	19503.68
491.77	19152.60
491.95	19260.27
492.13	19510.71
492.30	19426.45
492.48	19716.67
492.66	19974.13
492.84	19716.67
493.01	20273.72
493.19	19997.54
493.37	20524.16
493.54	20362.66
493.72	20524.16
493.90	20620.12
494.08	20844.81
494.25	21041.42
494.43	20741.83
494.61	21362.07
494.79	21348.03
494.96	21366.75
495.14	21558.67
495.32	21788.05
495.49	21673.36
495.67	21661.66
495.85	21900.39
496.02	22178.92
496.20	22321.69
496.38	22132.11
496.55	22600.21
496.73	22965.34
496.91	22661.07
497.09	22970.02
497.26	22850.65
497.44	23119.81
497.62	23260.24
497.79	23318.76
497.97	23515.36
498.14	23793.89
498.32	24023.26
498.50	23356.21
498.67	23929.64
498.85	23728.35
499.03	23992.83
499.20	24395.40
499.38	24140.29
499.56	24292.42
499.73	24381.36
499.91	24332.21
500.08	24709.04
500.26	24669.25
500.44	24872.87
500.61	24863.51
500.79	24662.22
500.97	24961.81
501.14	25530.56
501.32	25514.18
501.49	25586.74
501.67	25317.57
501.84	25701.42
502.02	25497.80
502.20	25460.35
502.37	25685.04
502.55	25883.98
502.72	26029.10
502.90	26092.29
503.07	25916.75
503.25	26216.34
503.43	26195.28
503.60	26431.67
503.78	26258.47
503.95	26569.76
504.13	26855.31
504.30	26712.53
504.48	26834.24
504.65	26705.51
504.83	26841.26
505.01	27222.77
505.18	27267.24
505.36	27302.35
505.53	27229.79
505.71	27442.78
505.88	27545.76
506.06	27356.18
506.23	27725.99
506.41	27410.01
506.58	27592.58
506.76	27955.36
506.93	27784.50
507.11	27922.59
507.28	27885.14
507.46	28116.86
507.63	28041.96
507.81	28493.68
507.98	28133.24
508.16	28243.24
508.33	28371.97
508.50	28528.79
508.68	28627.09
508.85	28811.99
509.03	28762.84
509.20	29298.83
509.38	29448.62
509.55	29036.69
509.73	29570.33
509.90	29635.86
510.08	29230.95
510.25	29502.45
510.42	29493.09
510.60	29750.55
510.77	29872.26
510.95	30005.67
511.12	29905.02
511.30	29916.73
511.47	30237.38
511.64	29872.26
511.82	30307.60
511.99	30307.60
512.17	30464.41
512.34	30256.11
512.51	30621.23
512.69	30892.73
512.86	30665.70
513.04	30941.88
513.21	31019.12
513.38	30874.01
513.56	31548.08
513.73	30801.45
513.90	31145.51
514.08	30759.32
514.25	31618.30
514.43	31875.76
514.60	31517.65
514.77	31653.40
514.95	31681.49
515.12	31613.62
515.29	31559.78
515.47	31634.68
515.64	32161.30
515.81	32079.38
515.99	31924.91
516.16	32063.00
516.33	32240.88
516.51	32217.47
516.68	32362.59
516.85	32577.92
517.03	32793.25
517.20	32383.65
517.37	32598.98
517.54	32774.52
517.72	32896.23
517.89	32978.15
518.06	33060.07
518.24	32905.59
518.41	32912.61
518.58	33177.09
518.75	32683.24
518.93	33483.70
519.10	33415.83
519.27	33230.93
519.45	33436.89
519.62	33930.75
519.79	33921.38
519.96	33525.83
520.14	33546.90
520.31	33855.85
520.48	33624.14
520.65	34181.18
520.83	34373.11
521.00	34218.63
521.17	34452.69
521.34	34459.71
521.52	34543.97
521.69	34492.47
521.86	34565.03
522.03	34834.19
522.20	34836.53
522.38	34499.50
522.55	35234.42
522.72	34897.39
522.89	35248.47
523.07	35131.44
523.24	35243.79
523.41	35370.18
523.58	35119.74
523.75	35332.73
523.92	35634.66
524.10	35761.05
524.27	35878.07
524.44	35615.93
524.61	35627.63
524.78	35852.33
524.96	35627.63
525.13	35845.30
525.30	36205.75
525.47	36376.61
525.64	35913.18
525.81	36301.71
525.98	36292.35
526.16	35901.48
526.33	36439.80
526.50	36343.84
526.67	36346.18
526.84	36290.01
527.01	36357.88
527.18	36971.10
527.36	36868.12
527.53	37092.81
527.70	37446.23
527.87	37247.29
528.04	36687.90
528.21	37230.90
528.38	36783.86
528.55	37364.31
528.72	37446.23
528.89	37193.45
529.07	37380.70
529.24	37165.37
529.41	37537.51
529.58	37493.04
529.75	37556.24
529.92	37486.02
530.09	37813.70
530.26	38005.62
530.43	37940.08
530.60	37371.33
530.77	37277.71
530.94	38199.88
531.11	37523.47
531.28	37738.80
531.46	38192.86
531.63	37886.25
531.80	38389.47
531.97	38312.23
532.14	38387.13
532.31	38520.54
532.48	38536.92
532.65	38965.24
532.82	38541.60
532.99	39028.43
533.16	38562.67
533.33	38595.43
533.50	39140.78
533.67	38857.57
533.84	38677.35
534.01	38555.64
534.18	39257.81
534.35	39267.17
534.52	39220.36
534.69	39569.10
534.86	39246.10
535.03	39014.39
535.20	39051.84
535.37	39754.00
535.54	39751.66
535.71	39447.39
535.88	39709.53
536.05	39988.05
536.22	39814.85
536.38	39648.68
536.55	39620.59
536.72	39196.95
536.89	39374.83
537.06	39871.03
537.23	40144.87
537.40	39742.30
537.57	40058.27
537.74	39683.78
537.91	40306.37
538.08	40219.77
538.25	39555.05
538.42	40432.75
538.59	40505.31
538.75	40105.08
538.92	40381.26
539.09	40463.18
539.26	40762.77
539.43	40453.82
539.60	40643.40
539.77	40383.60
539.94	41036.61
540.11	40774.47
540.28	41085.76
540.44	40617.66
540.61	40608.29
540.78	40421.05
540.95	40528.72
541.12	41045.97
541.29	40617.66
541.46	41106.83
541.62	40722.98
541.79	41055.34
541.96	40790.86
542.13	40950.01
542.30	40657.45
542.47	41577.28
542.63	41471.95
542.80	41890.91
542.97	41586.64
543.14	41638.13
543.31	41591.32
543.48	41574.94
543.64	42124.96
543.81	42316.89
543.98	41956.44
544.15	42410.51
544.32	42260.71
544.48	42728.82
544.65	42246.67
544.82	42014.96
544.99	42356.67
545.16	42366.04
545.32	42363.70
545.49	42740.52
545.66	42515.83
545.83	42642.22
546.00	42382.42
546.16	42754.57
546.33	42405.83
546.50	42129.64
546.67	42775.63
546.83	42059.43
547.00	42504.13
547.17	42665.63
547.34	42548.60
547.50	42831.80
547.67	43566.73
547.84	42813.08
548.00	43257.78
548.17	43529.28
548.34	43215.65
548.51	43983.35
548.67	43274.16
548.84	43033.09
549.01	43215.65
549.18	43199.27
549.34	43786.74
549.51	44243.15
549.68	43475.45
549.84	43564.39
550.01	43325.66
550.18	43199.27
550.34	43491.83
550.51	43751.63
550.68	43533.96
550.84	43084.58
551.01	43969.30
551.18	43522.26
551.34	43849.94
551.51	43810.15
551.68	43889.73
551.84	44250.17
552.01	43971.64
552.18	43922.49
552.34	43751.63
552.51	44147.18
552.68	43906.11
552.84	43941.22
553.01	43957.60
553.18	44112.08
553.34	44669.12
553.51	44399.96
553.67	44418.69
553.84	44502.95
554.01	44458.48
554.17	44308.68
554.34	44779.13
554.51	44219.74
554.67	44547.42
554.84	44556.78
555.00	44559.12
555.17	44634.02
555.33	44919.56
555.50	44582.52
555.67	44385.92
555.83	44671.46
556.00	45081.06
556.16	45516.40
556.33	44896.16
556.50	44875.09
556.66	44830.62
556.83	44992.12
556.99	44961.69
557.16	45017.86
557.32	45017.86
557.49	45270.64
557.65	44987.44
557.82	44980.42
557.98	45235.53
558.15	45361.92
558.32	45645.13
558.48	45268.30
558.65	45214.47
558.81	45116.17
558.98	44596.57
559.14	44835.30
559.31	45125.53
559.47	45317.45
559.64	45464.91
559.80	45504.70
559.97	45729.39
560.13	45263.62
560.30	45549.17
560.46	45280.00
560.63	45621.72
560.79	45881.52
560.96	45633.42
561.12	45647.47
561.29	45694.28
561.45	45361.92
561.61	45488.31
561.78	45642.79
561.94	45563.21
562.11	46057.06
562.27	45654.49
562.44	45916.63
562.60	45841.73
562.77	46117.92
562.93	45858.12
563.10	46246.65
563.26	45965.78
563.42	46349.63
563.59	46244.30
563.75	45624.06
563.92	46171.75
564.08	46148.34
564.24	46068.76
564.41	46232.60
564.57	45815.99
564.74	46068.76
564.90	46181.11
565.07	46321.54
565.23	46085.15
565.39	45996.21
565.56	46087.49
565.72	46185.79
565.88	46387.08
566.05	46218.56
566.21	46497.08
566.38	46375.37
566.54	46288.77
566.70	46417.50
566.87	46040.68
567.03	46291.12
567.19	46347.29
567.36	46635.17
567.52	46302.82
567.68	46553.26
567.85	46457.29
568.01	46562.62
568.17	46298.14
568.34	46415.16
568.50	46916.04
568.66	46323.88
568.83	46340.27
568.99	46328.56
569.15	46543.89
569.32	46396.44
569.48	46260.69
569.64	46878.59
569.81	47000.30
569.97	46232.60
570.13	46988.60
570.30	46354.31
570.46	46834.12
570.62	46693.69
570.78	46806.03
570.95	46873.91
571.11	46794.33
571.27	46625.81
571.43	46754.54
571.60	46894.97
571.76	46497.08
571.92	46775.61
572.09	46595.38
572.25	46602.41
572.41	46686.67
572.57	46855.18
572.74	46997.96
572.90	46803.69
573.06	47173.50
573.22	47089.24
573.38	47004.98
573.55	46789.65
573.71	47224.99
573.87	47346.70
574.03	46656.24
574.20	47047.11
574.36	47124.35
574.52	47306.91
574.68	47065.83
574.84	47203.92
575.01	47068.17
575.17	47423.93
575.33	46920.72
575.49	46909.02
575.65	46941.78
575.82	46934.76
575.98	46866.89
576.14	47475.43
576.30	47517.56
576.46	47344.36
576.62	46948.81
576.79	46946.47
576.95	46838.80
577.11	46756.88
577.27	46824.76
577.43	47180.52
577.59	46564.96
577.75	46726.46
577.92	47026.04
578.08	47114.98
578.24	46990.94
578.40	47697.78
578.56	47227.33
578.72	46864.55
578.88	47267.12
579.04	47262.44
579.21	46958.17
579.37	47433.30
579.53	47414.57
579.69	47150.09
579.85	47100.94
580.01	46707.73
580.17	47098.60
580.33	47337.33
580.49	47114.98
580.65	47388.83
580.82	46988.60
580.98	47566.71
581.14	46909.02
581.30	47318.61
581.46	46801.35
581.62	47084.56
581.78	46855.18
581.94	47416.91
582.10	47456.70
582.26	47220.31
582.42	47571.39
582.58	47473.09
582.74	47112.64
582.90	47241.37
583.06	47625.22
583.22	47578.41
583.38	47409.89
583.54	47377.12
583.70	47728.20
583.86	47117.32
584.02	47473.09
584.18	47402.87
584.34	47564.37
584.50	47405.21
584.66	47239.03
584.82	47508.19
584.98	47304.57
585.14	47578.41
585.30	47430.96
585.46	47543.30
585.62	47379.46
585.78	47777.36
585.94	47320.95
586.10	47449.68
586.26	47103.28
586.42	47138.39
586.58	47543.30
586.74	46902.00
586.90	47089.24
587.06	47412.23
587.22	46944.12
587.38	47491.81
587.54	47716.50
587.70	47655.65
587.86	47393.51
588.02	47117.32
588.18	47122.01
588.34	47075.19
588.49	47426.28
588.65	47428.62
588.81	47292.86
588.97	47737.57
589.13	47526.92
589.29	47662.67
589.45	47966.94
589.61	47665.01
589.77	47487.13
589.93	47386.49
590.08	47601.82
