SpectraSuite Data File
++++++++++++++++++++++++++++++++++++
Date: Fri Oct 25 10:48:25 EDT 2013
User: price-jones
Dark Spectrum Present: No
Reference Spectrum Present: No
Number of Sampled Component Spectra: 1
Spectrometers: USB2+H05261
Integration Time (usec): 100000 (USB2+H05261)
Spectra Averaged: 1 (USB2+H05261)
Boxcar Smoothing: 0 (USB2+H05261)
Correct for Electrical Dark: No (USB2+H05261)
Strobe/Lamp Enabled: No (USB2+H05261)
Correct for Detector Non-linearity: No (USB2+H05261)
Correct for Stray Light: No (USB2+H05261)
Number of Pixels in Processed Spectrum: 2048
>>>>>Begin Processed Spectral Data<<<<<
365.73	131.07
365.92	131.07
366.12	131.07
366.32	70.22
366.52	65.54
366.72	44.47
366.91	9.36
367.11	32.77
367.31	0.00
367.51	14.04
367.70	9.36
367.90	39.79
368.10	88.94
368.30	114.69
368.49	0.00
368.69	21.06
368.89	37.45
369.09	60.85
369.28	21.06
369.48	102.98
369.68	86.60
369.87	154.48
370.07	74.90
370.27	196.60
370.47	229.37
370.66	332.36
370.86	369.80
371.06	477.47
371.25	442.36
371.45	430.66
371.65	475.13
371.84	489.17
372.04	561.73
372.24	526.62
372.44	454.06
372.63	409.59
372.83	540.66
373.03	559.39
373.22	491.51
373.42	528.96
373.62	540.66
373.81	559.39
374.01	582.79
374.21	528.96
374.40	606.20
374.60	554.71
374.79	573.43
374.99	634.29
375.19	648.33
375.38	503.22
375.58	601.52
375.78	587.47
375.97	564.07
376.17	662.37
376.37	648.33
376.56	568.75
376.76	557.05
376.95	615.56
377.15	596.84
377.35	629.60
377.54	585.13
377.74	631.94
377.93	695.14
378.13	634.29
378.33	685.78
378.52	688.12
378.72	636.63
378.91	699.82
379.11	594.50
379.31	713.86
379.50	648.33
379.70	739.61
379.89	725.57
380.09	697.48
380.28	734.93
380.48	702.16
380.68	674.07
380.87	711.52
381.07	730.25
381.26	711.52
381.46	655.35
381.65	751.31
381.85	692.80
382.04	730.25
382.24	664.71
382.43	725.57
382.63	730.25
382.83	746.63
383.02	741.95
383.22	748.97
383.41	744.29
383.61	755.99
383.80	725.57
384.00	688.12
384.19	725.57
384.39	772.38
384.58	734.93
384.78	877.70
384.97	809.83
385.17	748.97
385.36	758.33
385.56	823.87
385.75	828.55
385.95	826.21
386.14	765.36
386.34	854.30
386.53	854.30
386.72	765.36
386.92	877.70
387.11	851.96
387.31	866.00
387.50	837.91
387.70	849.61
387.89	851.96
388.09	847.27
388.28	945.58
388.48	877.70
388.67	915.15
388.86	997.07
389.06	973.66
389.25	964.30
389.45	1006.43
389.64	931.53
389.84	994.73
390.03	966.64
390.22	1034.52
390.42	1053.24
390.61	1062.60
390.81	964.30
391.00	985.37
391.19	1076.65
391.39	1011.11
391.58	1025.15
391.78	1039.20
391.97	1008.77
392.16	1060.26
392.36	1123.46
392.55	994.73
392.75	1050.90
392.94	929.19
393.13	999.41
393.33	964.30
393.52	1078.99
393.71	1130.48
393.91	1137.50
394.10	1111.75
394.29	1104.73
394.49	1039.20
394.68	1203.04
394.88	1170.27
395.07	1160.91
395.26	1191.33
395.46	1142.18
395.65	1219.42
395.84	1284.95
396.04	1191.33
396.23	1177.29
396.42	1167.93
396.62	1151.54
396.81	1184.31
397.00	1184.31
397.19	1315.38
397.39	1409.00
397.58	1324.74
397.77	1409.00
397.97	1385.60
398.16	1357.51
398.35	1387.94
398.55	1313.04
398.74	1439.43
398.93	1497.94
399.12	1418.36
399.32	1401.98
399.51	1469.86
399.70	1479.22
399.90	1439.43
400.09	1493.26
400.28	1519.01
400.47	1519.01
400.67	1638.38
400.86	1521.35
401.05	1584.54
401.24	1554.12
401.44	1607.95
401.63	1605.61
401.82	1563.48
402.01	1589.22
402.21	1710.93
402.40	1753.06
402.59	1654.76
402.78	1717.95
402.97	1739.02
403.17	1678.16
403.36	1748.38
403.55	1689.87
403.74	1764.76
403.93	1678.16
404.13	1797.53
404.32	1816.26
404.51	1722.63
404.70	1846.68
404.89	1856.04
405.09	1863.07
405.28	1806.89
405.47	1956.69
405.66	1942.64
405.85	2015.20
406.05	2078.40
406.24	1881.79
406.43	1893.49
406.62	2040.95
406.81	2015.20
407.00	1947.33
407.20	2008.18
407.39	1898.17
407.58	2003.50
407.77	2106.48
407.96	2001.16
408.15	1996.48
408.34	2146.27
408.54	1989.46
408.73	2157.97
408.92	2157.97
409.11	2157.97
409.30	2204.78
409.49	2183.72
409.68	2195.42
409.87	2097.12
410.07	2263.30
410.26	2286.70
410.45	2335.85
410.64	2392.03
410.83	2363.94
411.02	2385.01
411.21	2499.69
411.40	2385.01
411.59	2401.39
411.78	2429.48
411.98	2352.24
412.17	2546.50
412.36	2572.25
412.55	2586.29
412.74	2597.99
412.93	2588.63
413.12	2665.87
413.31	2832.05
413.50	2885.88
413.69	2665.87
413.88	2710.34
414.07	2822.69
414.26	2780.56
414.45	2834.39
414.64	2832.05
414.83	2881.20
415.02	2822.69
415.22	3066.10
415.41	3014.61
415.60	3084.83
415.79	3066.10
415.98	3141.00
416.17	3087.17
416.36	3108.23
416.55	3087.17
416.74	3194.83
416.93	3087.17
417.12	3215.90
417.31	3316.54
417.50	3117.59
417.69	3302.50
417.88	3389.10
418.07	3318.88
418.26	3323.56
418.45	3267.39
418.64	3346.97
418.83	3424.20
419.02	3370.37
419.21	3438.25
419.39	3548.25
419.58	3426.54
419.77	3410.16
419.96	3473.36
420.15	3482.72
420.34	3520.17
420.53	3487.40
420.72	3684.00
420.91	3653.58
421.10	3772.94
421.29	3768.26
421.48	3651.24
421.67	3761.24
421.86	3723.79
422.05	3728.47
422.24	3646.55
422.43	3527.19
422.61	3667.62
422.80	3772.94
422.99	3688.68
423.18	3763.58
423.37	3782.31
423.56	3892.31
423.75	3843.16
423.94	3840.82
424.13	3557.61
424.32	3705.07
424.50	3810.39
424.69	3864.22
424.88	3920.40
425.07	3665.28
425.26	3662.94
425.45	3810.39
425.64	3826.78
425.83	3871.25
426.01	3904.01
426.20	3861.88
426.39	3953.16
426.58	3763.58
426.77	3929.76
426.96	3861.88
427.15	3929.76
427.33	3889.97
427.52	4025.72
427.71	3941.46
427.90	3918.06
428.09	4107.64
428.28	3995.29
428.46	3894.65
428.65	3934.44
428.84	4037.42
429.03	4124.02
429.22	3904.01
429.40	4081.89
429.59	3981.25
429.78	3768.26
429.97	3920.40
430.16	3892.31
430.34	4014.02
430.53	4147.43
430.72	4184.88
430.91	4114.66
431.10	4135.73
431.28	4269.14
431.47	4400.21
431.66	4393.19
431.85	4367.44
432.03	4512.55
432.22	4404.89
432.41	4383.82
432.60	4449.36
432.79	4571.07
432.97	4575.75
433.16	4442.34
433.35	4486.81
433.54	4585.11
433.72	4493.83
433.91	4468.08
434.10	4683.41
434.28	4512.55
434.47	4552.34
434.66	4737.24
434.85	4784.06
435.03	4924.49
435.22	4683.41
435.41	4889.38
435.59	4805.12
435.78	4870.65
435.97	4929.17
436.16	4968.96
436.34	4882.36
436.53	4784.06
436.72	5027.47
436.90	4943.21
437.09	4954.91
437.28	4851.93
437.46	5025.13
437.65	4919.81
437.84	5114.07
438.02	5006.41
438.21	4994.70
438.40	4940.87
438.58	5289.61
438.77	5231.10
438.96	5170.24
439.14	5467.49
439.33	5394.93
439.52	5502.60
439.70	5376.21
439.89	5432.38
440.08	5483.88
440.26	5565.79
440.45	5455.79
440.63	5659.42
440.82	5856.02
441.01	5657.07
441.19	5741.33
441.38	5813.89
441.57	5753.04
441.75	5816.23
441.94	6085.39
442.12	6038.58
442.31	6136.88
442.50	5879.43
442.68	6155.61
442.87	6033.90
443.05	5982.41
443.24	6200.08
443.43	6099.44
443.61	6150.93
443.80	6249.23
443.98	6047.94
444.17	5989.43
444.35	6377.96
444.54	6480.94
444.73	6289.02
444.91	6260.93
445.10	6150.93
445.28	6242.21
445.47	6118.16
445.65	6171.99
445.84	6319.45
446.02	6296.04
446.21	6317.11
446.39	6230.51
446.58	6345.19
446.77	6352.21
446.95	6310.08
447.14	6457.54
447.32	6569.88
447.51	6431.79
447.69	6380.30
447.88	6459.88
448.06	6485.62
448.25	6546.48
448.43	6534.78
448.62	6504.35
448.80	6429.45
448.99	6602.65
449.17	6509.03
449.36	6623.72
449.54	6703.29
449.73	6806.28
449.91	6724.36
450.10	6857.77
450.28	6920.96
450.46	6909.26
450.65	6817.98
450.83	6956.07
451.02	6853.09
451.20	6895.22
451.39	7014.59
451.57	6862.45
451.76	7028.63
451.94	6930.33
452.13	6960.75
452.31	6942.03
452.49	6747.76
452.68	6801.60
452.86	6885.86
453.05	7075.44
453.23	7143.32
453.42	6956.07
453.60	6965.43
453.78	7129.27
453.97	7155.02
454.15	6977.14
454.34	7129.27
454.52	7297.79
454.70	7253.32
454.89	7225.23
455.07	7265.02
455.26	7468.65
455.44	7562.27
455.62	7412.48
455.81	7272.04
455.99	7489.71
456.17	7569.29
456.36	7569.29
456.54	7489.71
456.73	7480.35
456.91	7705.04
457.09	7911.01
457.28	7676.96
457.46	7660.57
457.64	7887.61
457.83	7768.24
458.01	7648.87
458.19	7985.91
458.38	7719.09
458.56	7976.55
458.74	8011.65
458.93	7913.35
459.11	7918.03
459.29	7915.69
459.48	7932.08
459.66	8154.43
459.84	8131.02
460.03	8105.28
460.21	8262.09
460.39	8131.02
460.57	8152.09
460.76	8318.26
460.94	8131.02
461.12	8397.84
461.31	8269.11
461.49	8500.83
461.67	8519.55
461.85	8402.52
462.04	8234.00
462.22	9001.70
462.40	8512.53
462.59	8641.26
462.77	8662.32
462.95	8727.86
463.13	8428.27
463.32	8510.19
463.50	8702.11
463.68	8781.69
463.86	8716.16
464.05	8678.71
464.23	8662.32
464.41	8901.06
464.59	8624.87
464.78	8858.93
464.96	8725.52
465.14	8840.20
465.32	8788.71
465.50	8835.52
465.69	8926.80
465.87	8959.57
466.05	8982.98
466.23	8891.70
466.41	8933.82
466.60	9165.54
466.78	8748.92
466.96	9102.34
467.14	9097.66
467.32	8856.59
467.51	9174.90
467.69	8800.41
467.87	9118.73
468.05	9231.07
468.23	9102.34
468.41	9151.49
468.60	9221.71
468.78	9320.01
468.96	9376.19
469.14	9109.36
469.32	9327.03
469.50	9146.81
469.69	9315.33
469.87	9544.70
470.05	9444.06
470.23	9437.04
470.41	9633.64
470.59	9469.81
470.77	9420.66
470.95	9575.13
471.14	9699.18
471.32	9720.24
471.50	10092.39
471.68	9930.89
471.86	9783.44
472.04	10195.37
472.22	10225.80
472.40	9680.46
472.58	10050.26
472.77	10040.90
472.95	10174.31
473.13	10466.88
473.31	10132.18
473.49	10094.73
473.67	10356.87
473.85	10303.04
474.03	10546.45
474.21	10621.35
474.39	10539.43
474.57	10581.56
474.75	10663.48
474.93	10693.91
475.12	10876.47
475.30	10668.16
475.48	10773.49
475.66	10862.43
475.84	10860.09
476.02	11133.93
476.20	11047.33
476.38	11246.27
476.56	11400.75
476.74	11346.92
476.92	11527.14
477.10	11571.61
477.28	11681.61
477.46	11536.50
477.64	11712.04
477.82	12023.33
478.00	12402.50
478.18	12147.38
478.36	11957.80
478.54	12222.28
478.72	12552.29
478.90	12559.31
479.08	12559.31
479.26	12400.16
479.44	12952.52
479.62	12915.08
479.80	12905.71
479.98	13018.06
480.16	13270.84
480.34	13263.82
480.52	13291.90
480.70	13287.22
480.88	12929.12
481.06	13458.08
481.24	13598.51
481.41	13898.10
481.59	14099.39
481.77	14040.87
481.95	13804.48
482.13	14073.64
482.31	14249.18
482.49	14455.15
482.67	14586.22
482.85	14422.38
483.03	14719.63
483.21	14764.10
483.39	14796.87
483.57	14911.55
483.74	15037.94
483.92	15150.29
484.10	14920.92
484.28	15281.36
484.46	15578.61
484.64	15929.69
484.82	15468.60
485.00	15723.72
485.18	15934.37
485.35	16294.81
485.53	15822.02
485.71	15847.77
485.89	16166.08
486.07	16142.67
486.25	16187.14
486.43	16468.01
486.61	16791.00
486.78	16786.32
486.96	17216.98
487.14	17228.68
487.32	17202.94
487.50	17488.48
487.68	17671.04
487.85	17902.76
488.03	17949.57
488.21	17898.08
488.39	18176.60
488.57	17771.69
488.75	18118.09
488.92	18654.07
489.10	18621.30
489.28	18932.59
489.46	18803.86
489.64	19077.71
489.81	19400.70
489.99	19295.38
490.17	19653.48
490.35	20077.12
490.53	19651.14
490.70	19847.74
490.88	19616.03
491.06	20149.67
491.24	20063.07
491.41	20091.16
491.59	20538.20
491.77	20683.31
491.95	20758.21
492.13	20706.72
492.30	21013.33
492.48	20851.83
492.66	20961.84
492.84	21214.62
493.01	21493.14
493.19	21118.65
493.37	21781.03
493.54	21509.52
493.72	21865.28
493.90	22291.26
494.08	22143.81
494.25	22492.55
494.43	22441.06
494.61	22897.46
494.79	22925.55
494.96	22546.38
495.14	23110.45
495.32	23101.09
495.49	23222.80
495.67	23552.81
495.85	23108.11
496.02	23466.21
496.20	23576.22
496.38	23667.50
496.55	23597.28
496.73	24126.24
496.91	24247.95
497.09	23995.17
497.26	24409.45
497.44	24163.69
497.62	24699.67
497.79	24283.06
497.97	24786.27
498.14	24964.15
498.32	24790.95
498.50	25081.18
498.67	25298.85
498.85	24917.34
499.03	25343.32
499.20	25642.91
499.38	25425.24
499.56	25551.63
499.73	25710.78
499.91	26115.70
500.08	25832.49
500.26	25862.92
500.44	25916.75
500.61	25837.17
500.79	26031.44
500.97	26010.37
501.14	26927.86
501.32	26731.26
501.49	26431.67
501.67	26527.63
501.84	26642.32
502.02	27065.96
502.20	26918.50
502.37	27117.45
502.55	27042.55
502.72	26906.80
502.90	27330.44
503.07	27300.01
503.25	27262.56
503.43	27388.95
503.60	27817.27
503.78	27718.96
503.95	27765.78
504.13	28032.60
504.30	28070.04
504.48	27695.56
504.65	28020.89
504.83	28210.48
505.01	28479.64
505.18	28292.40
505.36	28638.80
505.53	28683.27
505.71	29041.37
505.88	29364.36
506.06	28694.97
506.23	28648.16
506.41	28510.07
506.58	28945.41
506.76	29149.03
506.93	29598.41
507.11	29303.51
507.28	29221.59
507.46	29273.08
507.63	29322.23
507.81	29645.23
507.98	29649.91
508.16	29509.47
508.33	29977.58
508.50	30270.15
508.68	30225.68
508.85	30581.44
509.03	30319.30
509.20	30335.68
509.38	30206.95
509.55	30747.62
509.73	30654.00
509.90	30199.93
510.08	30373.13
510.25	30696.13
510.42	30998.06
510.60	31201.68
510.77	31311.69
510.95	31337.43
511.12	30988.69
511.30	31260.20
511.47	31693.19
511.64	31489.57
511.82	31538.72
511.99	31159.55
512.17	31786.82
512.34	31232.11
512.51	32053.64
512.69	32154.28
512.86	31997.46
513.04	32217.47
513.21	32140.24
513.38	32091.09
513.56	32079.38
513.73	32231.52
513.90	32776.86
514.08	32266.63
514.25	32194.07
514.43	32170.66
514.60	32435.14
514.77	32624.73
514.95	32786.22
515.12	32917.29
515.29	32954.74
515.47	33387.74
515.64	33109.22
515.81	33462.64
515.99	33125.60
516.16	33532.86
516.33	33249.65
516.51	33350.29
516.68	32713.67
516.85	32711.33
517.03	33331.57
517.20	33247.31
517.37	33984.58
517.54	34052.45
517.72	33525.83
517.89	33422.85
518.06	33591.37
518.24	33551.58
518.41	33659.24
518.58	33837.12
518.75	33998.62
518.93	34164.80
519.10	34232.68
519.27	34209.27
519.45	34272.46
519.62	34265.44
519.79	34939.52
519.96	34635.25
520.14	35484.86
520.31	34668.02
520.48	35061.22
520.65	35147.82
520.83	35122.08
521.00	35133.78
521.17	35306.98
521.34	35356.13
521.52	35056.54
521.69	35459.12
521.86	35613.59
522.03	35189.95
522.20	35552.74
522.38	35632.32
522.55	35763.39
522.72	35543.38
522.89	35524.65
523.07	36102.76
523.24	35648.70
523.41	36231.49
523.58	36011.48
523.75	36645.77
523.92	36727.69
524.10	36554.49
524.27	36891.52
524.44	36884.50
524.61	36856.42
524.78	36816.63
524.96	36538.10
525.13	36987.49
525.30	37046.00
525.47	37191.11
525.64	37209.84
525.81	36601.30
525.98	36816.63
526.16	36495.97
526.33	36807.26
526.50	36987.49
526.67	36713.64
526.84	36510.02
527.01	36863.44
527.18	37535.17
527.36	37570.28
527.53	37427.51
527.70	38071.15
527.87	37940.08
528.04	37521.13
528.21	37752.84
528.38	37668.58
528.55	37446.23
528.72	37919.02
528.89	38204.56
529.07	37968.17
529.24	37975.19
529.41	38321.59
529.58	37677.94
529.75	38148.39
529.92	38356.70
530.09	38312.23
530.26	38565.01
530.43	38649.27
530.60	38176.48
530.77	38707.78
530.94	39489.52
531.11	38848.21
531.28	38850.55
531.46	39131.42
531.63	39353.77
531.80	39026.09
531.97	38806.08
532.14	39005.03
532.31	38675.01
532.48	38574.37
532.65	39227.38
532.82	38766.29
532.99	38969.92
533.16	39054.18
533.33	39290.57
533.50	39353.77
533.67	39765.70
533.84	39201.63
534.01	39445.05
534.18	39498.88
534.35	39899.11
534.52	39721.23
534.69	39384.19
534.86	39552.71
535.03	39784.43
535.20	39730.59
535.37	39784.43
535.54	40201.04
535.71	39985.71
535.88	39798.47
536.05	39999.76
536.22	40016.14
536.38	40467.86
536.55	40488.93
536.72	40409.35
536.89	40004.44
537.06	40292.32
537.23	40280.62
537.40	40149.55
537.57	40481.91
537.74	40327.43
537.91	40767.45
538.08	40556.80
538.25	40720.64
538.42	40776.81
538.59	40701.92
538.75	40547.44
538.92	40435.10
539.09	40870.43
539.26	40783.83
539.43	40802.56
539.60	41212.15
539.77	40875.12
539.94	41502.38
540.11	40755.75
540.28	41240.24
540.44	40938.31
540.61	40795.54
540.78	40830.65
540.95	40577.87
541.12	40996.82
541.29	41357.27
541.46	41240.24
541.62	41228.54
541.79	41741.11
541.96	41221.52
542.13	41581.96
542.30	41244.92
542.47	41443.87
542.63	41507.06
542.80	41663.88
542.97	41982.19
543.14	42384.76
543.31	42225.60
543.48	42005.59
543.64	42284.12
543.81	42375.40
543.98	42335.61
544.15	42153.05
544.32	42197.52
544.48	42696.05
544.65	42361.36
544.82	42181.13
544.99	42253.69
545.16	42246.67
545.32	41890.91
545.49	42497.11
545.66	42653.92
545.83	42789.67
546.00	42937.13
546.16	42906.70
546.33	42494.77
546.50	42572.00
546.67	42792.01
546.83	42309.86
547.00	42820.10
547.17	42595.41
547.34	43129.05
547.50	42873.93
547.67	43243.74
547.84	42913.72
548.00	42995.64
548.17	43548.01
548.34	42904.36
548.51	43395.87
548.67	43363.11
548.84	43449.70
549.01	43620.56
549.18	43241.40
549.34	43426.30
549.51	43641.63
549.68	43519.92
549.84	43723.55
550.01	43779.72
550.18	43402.89
550.34	43779.72
550.51	43187.56
550.68	43505.88
550.84	43409.92
551.01	43887.39
551.18	43227.35
551.34	43407.58
551.51	43903.77
551.68	44203.36
551.84	44374.22
552.01	43761.00
552.18	43810.15
552.34	43686.10
552.51	43880.36
552.68	43578.43
552.84	44172.93
553.01	44074.63
553.18	43882.70
553.34	43962.28
553.51	43894.41
553.67	44273.57
553.84	44399.96
554.01	44531.03
554.17	44041.86
554.34	44463.16
554.51	44678.49
554.67	44774.45
554.84	44514.65
555.00	44161.23
555.17	44210.38
555.33	44765.09
555.50	44144.84
555.67	44360.17
555.83	44238.47
556.00	44402.30
556.16	44769.77
556.33	44437.41
556.50	44495.92
556.66	44493.58
556.83	44233.78
556.99	44605.93
557.16	44634.02
557.32	44673.81
557.49	44360.17
557.65	44463.16
557.82	44383.58
557.98	45083.40
558.15	44790.83
558.32	44439.75
558.48	44472.52
558.65	44779.13
558.81	44449.11
558.98	44619.97
559.14	44505.29
559.31	44449.11
559.47	45125.53
559.64	45015.52
559.80	44903.18
559.97	45064.67
560.13	44495.92
560.30	44559.12
560.46	44795.51
560.63	44676.15
560.79	45057.65
560.96	45085.74
561.12	45127.87
561.29	45134.89
561.45	45450.86
561.61	45666.19
561.78	45230.85
561.94	44814.24
562.11	45265.96
562.27	45298.73
562.44	45207.45
562.60	45364.26
562.77	45258.94
562.93	45057.65
563.10	44889.13
563.26	44837.64
563.42	45631.08
563.59	45069.36
563.75	45605.34
563.92	45563.21
564.08	45382.99
564.24	45455.54
564.41	45750.45
564.57	45422.78
564.74	45380.65
564.90	45591.30
565.07	45191.06
565.23	45703.64
565.39	45301.07
565.56	45764.49
565.72	45467.25
565.88	45272.98
566.05	45528.10
566.21	45572.57
566.38	45326.81
566.54	45483.63
566.70	45577.25
566.87	45586.61
567.03	45418.10
567.19	46190.47
567.36	45497.67
567.52	45113.83
567.68	45815.99
567.85	45137.23
568.01	45886.20
568.17	45153.62
568.34	45731.73
568.50	45535.12
568.66	45165.32
568.83	45893.22
568.99	45359.58
569.15	45003.82
569.32	45603.00
569.48	45502.35
569.64	45771.52
569.81	45525.76
569.97	45420.44
570.13	45525.76
570.30	45345.54
570.46	45214.47
570.62	45275.32
570.78	45350.22
570.95	45453.20
571.11	45780.88
571.27	45876.84
571.43	45375.97
571.60	46272.39
571.76	45881.52
571.92	45848.75
572.09	45811.31
572.25	45593.64
572.41	45787.90
572.57	45787.90
572.74	45937.69
572.90	46129.62
573.06	45741.09
573.22	46148.34
573.38	45904.93
573.55	45743.43
573.71	45893.22
573.87	45249.58
574.03	45624.06
574.20	46026.63
574.36	45766.84
574.52	45897.91
574.68	45830.03
574.84	45553.85
575.01	46080.47
575.17	45741.09
575.33	45652.15
575.49	45940.04
575.65	45918.97
575.82	46080.47
575.98	46164.73
576.14	45963.44
576.30	46319.20
576.46	45841.73
576.62	45909.61
576.79	46078.13
576.95	45783.22
577.11	45710.66
577.27	46124.94
577.43	45748.11
577.59	46073.45
577.75	45668.53
577.92	45474.27
578.08	45322.13
578.24	45600.66
578.40	45614.70
578.56	45525.76
578.72	45963.44
578.88	45975.14
579.04	45780.88
579.21	45764.49
579.37	45937.69
579.53	45883.86
579.69	45579.59
579.85	45869.82
580.01	45495.33
580.17	46054.72
580.33	46010.25
580.49	46234.94
580.65	46129.62
580.82	45687.26
580.98	45890.88
581.14	45663.85
581.30	46155.36
581.46	46190.47
581.62	45722.37
581.78	46167.07
581.94	46167.07
582.10	46148.34
582.26	46052.38
582.42	45888.54
582.58	46080.47
582.74	46167.07
582.90	46361.33
583.06	46057.06
583.22	46045.36
583.38	46000.89
583.54	46033.66
583.70	45724.71
583.86	45785.56
584.02	45993.87
584.18	45904.93
584.34	46054.72
584.50	45858.12
584.66	46148.34
584.82	45935.35
584.98	45844.07
585.14	46209.20
585.30	46408.14
585.46	45935.35
585.62	45572.57
585.78	45830.03
585.94	45703.64
586.10	45776.20
586.26	45654.49
586.42	46040.68
586.58	45935.35
586.74	45940.04
586.90	45949.40
587.06	46426.87
587.22	46368.35
587.38	45937.69
587.54	46286.43
587.70	46176.43
587.86	46476.02
588.02	45942.38
588.18	45982.16
588.34	45968.12
588.49	45511.72
588.65	45294.05
588.81	45741.09
588.97	45684.92
589.13	46213.88
589.29	45717.68
589.45	46036.00
589.61	46124.94
589.77	45944.72
589.93	46295.80
590.08	46253.67
