SpectraSuite Data File
++++++++++++++++++++++++++++++++++++
Date: Fri Oct 25 11:33:17 EDT 2013
User: price-jones
Dark Spectrum Present: No
Reference Spectrum Present: No
Number of Sampled Component Spectra: 1
Spectrometers: USB2+H05261
Integration Time (usec): 100000 (USB2+H05261)
Spectra Averaged: 1 (USB2+H05261)
Boxcar Smoothing: 0 (USB2+H05261)
Correct for Electrical Dark: No (USB2+H05261)
Strobe/Lamp Enabled: No (USB2+H05261)
Correct for Detector Non-linearity: No (USB2+H05261)
Correct for Stray Light: No (USB2+H05261)
Number of Pixels in Processed Spectrum: 2048
>>>>>Begin Processed Spectral Data<<<<<
365.73	292.57
365.92	292.57
366.12	292.57
366.32	210.65
366.52	154.48
366.72	215.33
366.91	173.20
367.11	166.18
367.31	189.58
367.51	175.54
367.70	147.45
367.90	187.24
368.10	173.20
368.30	142.77
368.49	154.48
368.69	280.86
368.89	198.95
369.09	217.67
369.28	234.05
369.48	177.88
369.68	241.08
369.87	308.95
370.07	280.86
370.27	248.10
370.47	372.15
370.66	491.51
370.86	449.38
371.06	538.32
371.25	552.37
371.45	510.24
371.65	512.58
371.84	528.96
372.04	484.49
372.24	615.56
372.44	622.58
372.63	587.47
372.83	594.50
373.03	617.90
373.22	599.18
373.42	664.71
373.62	608.54
373.81	681.10
374.01	589.82
374.21	641.31
374.40	641.31
374.60	692.80
374.79	697.48
374.99	716.20
375.19	653.01
375.38	664.71
375.58	657.69
375.78	730.25
375.97	791.10
376.17	650.67
376.37	671.73
376.56	669.39
376.76	601.52
376.95	770.04
377.15	648.33
377.35	692.80
377.54	613.22
377.74	683.44
377.93	741.95
378.13	741.95
378.33	702.16
378.52	734.93
378.72	730.25
378.91	786.42
379.11	718.54
379.31	816.85
379.50	737.27
379.70	718.54
379.89	800.46
380.09	711.52
380.28	730.25
380.48	725.57
380.68	695.14
380.87	732.59
381.07	753.65
381.26	751.31
381.46	713.86
381.65	732.59
381.85	777.06
382.04	741.95
382.24	840.25
382.43	816.85
382.63	734.93
382.83	753.65
383.02	809.83
383.22	854.30
383.41	863.66
383.61	774.72
383.80	847.27
384.00	753.65
384.19	791.10
384.39	847.27
384.58	858.98
384.78	840.25
384.97	847.27
385.17	910.47
385.36	861.32
385.56	863.66
385.75	821.53
385.95	830.89
386.14	880.04
386.34	861.32
386.53	910.47
386.72	814.51
386.92	889.40
387.11	891.74
387.31	866.00
387.50	854.30
387.70	793.44
387.89	849.61
388.09	821.53
388.28	837.91
388.48	887.06
388.67	877.70
388.86	945.58
389.06	835.57
389.25	915.15
389.45	1043.88
389.64	1006.43
389.84	891.74
390.03	976.00
390.22	943.24
390.42	1074.31
390.61	968.98
390.81	1001.75
391.00	943.24
391.19	1064.94
391.39	1015.79
391.58	1048.56
391.78	999.41
391.97	1036.86
392.16	1069.62
392.36	1064.94
392.55	1081.33
392.75	1069.62
392.94	985.37
393.13	1093.03
393.33	999.41
393.52	1057.92
393.71	1135.16
393.91	1137.50
394.10	1158.57
394.29	1163.25
394.49	1095.37
394.68	1160.91
394.88	1135.16
395.07	1095.37
395.26	1118.78
395.46	1078.99
395.65	1165.59
395.84	1362.19
396.04	1280.27
396.23	1275.59
396.42	1245.16
396.62	1203.04
396.81	1254.53
397.00	1188.99
397.19	1287.29
397.39	1196.01
397.58	1238.14
397.77	1320.06
397.97	1284.95
398.16	1299.00
398.35	1270.91
398.55	1280.27
398.74	1240.48
398.93	1371.55
399.12	1378.58
399.32	1289.64
399.51	1317.72
399.70	1324.74
399.90	1385.60
400.09	1430.07
400.28	1423.05
400.47	1371.55
400.67	1460.49
400.86	1423.05
401.05	1427.73
401.24	1504.96
401.44	1540.07
401.63	1502.62
401.82	1460.49
402.01	1465.18
402.21	1434.75
402.40	1507.30
402.59	1624.33
402.78	1530.71
402.97	1547.09
403.17	1558.80
403.36	1540.07
403.55	1605.61
403.74	1589.22
403.93	1598.59
404.13	1671.14
404.32	1624.33
404.51	1572.84
404.70	1605.61
404.89	1621.99
405.09	1764.76
405.28	1706.25
405.47	1659.44
405.66	1727.32
405.85	1746.04
406.05	1696.89
406.24	1713.27
406.43	1701.57
406.62	1823.28
406.81	1935.62
407.00	1748.38
407.20	1837.32
407.39	1769.44
407.58	1870.09
407.77	1879.45
407.96	1825.62
408.15	1902.86
408.34	1844.34
408.54	1853.70
408.73	1923.92
408.92	1891.15
409.11	2024.56
409.30	1959.03
409.49	2024.56
409.68	2043.29
409.87	1921.58
410.07	2024.56
410.26	1956.69
410.45	2036.27
410.64	2122.87
410.83	2043.29
411.02	2080.74
411.21	2211.81
411.40	2134.57
411.59	2174.36
411.78	2237.55
411.98	2244.57
412.17	2277.34
412.36	2275.00
412.55	2333.51
412.74	2342.88
412.93	2277.34
413.12	2394.37
413.31	2534.80
413.50	2537.14
413.69	2377.98
413.88	2427.14
414.07	2485.65
414.26	2558.21
414.45	2553.52
414.64	2590.97
414.83	2588.63
415.02	2438.84
415.22	2691.62
415.41	2665.87
415.60	2747.79
415.79	2693.96
415.98	2778.22
416.17	2740.77
416.36	2726.72
416.55	2832.05
416.74	2705.66
416.93	2864.82
417.12	2909.29
417.31	2864.82
417.50	2871.84
417.69	3063.76
417.88	3014.61
418.07	2944.39
418.26	3002.91
418.45	3066.10
418.64	3129.30
418.83	3007.59
419.02	3115.25
419.21	3180.79
419.39	3157.38
419.58	3084.83
419.77	3141.00
419.96	3063.76
420.15	3265.05
420.34	3248.66
420.53	3068.44
420.72	3208.87
420.91	3328.24
421.10	3260.37
421.29	3248.66
421.48	3353.99
421.67	3314.20
421.86	3386.76
422.05	3391.44
422.24	3302.50
422.43	3318.88
422.61	3353.99
422.80	3538.89
422.99	3454.63
423.18	3414.84
423.37	3592.72
423.56	3513.14
423.75	3522.51
423.94	3389.10
424.13	3262.71
424.32	3396.12
424.50	3426.54
424.69	3606.77
424.88	3482.72
425.07	3445.27
425.26	3559.95
425.45	3447.61
425.64	3405.48
425.83	3431.23
426.01	3456.97
426.20	3555.27
426.39	3520.17
426.58	3496.76
426.77	3431.23
426.96	3480.38
427.15	3623.15
427.33	3784.65
427.52	3595.06
427.71	3634.85
427.90	3609.11
428.09	3702.73
428.28	3639.53
428.46	3840.82
428.65	3655.92
428.84	3786.99
429.03	3824.44
429.22	3730.81
429.40	3801.03
429.59	3749.54
429.78	3679.32
429.97	3721.45
430.16	3815.07
430.34	3887.63
430.53	3887.63
430.72	3964.87
430.91	3960.19
431.10	3850.18
431.28	3997.64
431.47	4016.36
431.66	4084.23
431.85	4135.73
432.03	4016.36
432.22	4056.15
432.41	4051.47
432.60	3988.27
432.79	3962.53
432.97	4196.58
433.16	4194.24
433.35	4107.64
433.54	4327.65
433.72	4173.18
433.91	4163.81
434.10	4248.07
434.28	4154.45
434.47	4411.91
434.66	4346.37
434.85	4346.37
435.03	4252.75
435.22	4280.84
435.41	4447.02
435.59	4500.85
435.78	4575.75
435.97	4404.89
436.16	4390.84
436.34	4568.73
436.53	4582.77
436.72	4540.64
436.90	4465.74
437.09	4580.43
437.28	4423.61
437.46	4512.55
437.65	4582.77
437.84	4655.33
438.02	4671.71
438.21	4685.75
438.40	4411.91
438.58	4774.69
438.77	4676.39
438.96	4805.12
439.14	4877.68
439.33	4940.87
439.52	4959.60
439.70	4915.12
439.89	5006.41
440.08	5076.62
440.26	5107.05
440.45	5097.69
440.63	5088.32
440.82	5256.84
441.01	5107.05
441.19	5238.12
441.38	5231.10
441.57	5291.95
441.75	5261.52
441.94	5446.43
442.12	5376.21
442.31	5486.22
442.50	5434.72
442.68	5605.58
442.87	5565.79
443.05	5514.30
443.24	5657.07
443.43	5624.31
443.61	5701.54
443.80	5584.52
443.98	5467.49
444.17	5366.85
444.35	5542.39
444.54	5544.73
444.73	5598.56
444.91	5797.51
445.10	5715.59
445.28	5806.87
445.47	5746.02
445.65	5729.63
445.84	5832.62
446.02	5764.74
446.21	5760.06
446.39	5771.76
446.58	5753.04
446.77	5994.11
446.95	5607.92
447.14	5724.95
447.32	5933.26
447.51	5760.06
447.69	5877.09
447.88	5841.98
448.06	5949.64
448.25	5837.30
448.43	6019.86
448.62	5916.87
448.80	5853.68
448.99	5956.66
449.17	5996.45
449.36	5919.21
449.54	6043.26
449.73	6045.60
449.91	6150.93
450.10	6099.44
450.28	6340.51
450.46	6157.95
450.65	6188.38
450.83	6282.00
451.02	6183.70
451.20	6139.23
451.39	6265.61
451.57	6097.10
451.76	6207.10
451.94	6146.25
452.13	6345.19
452.31	6321.79
452.49	6244.55
452.68	6359.24
452.86	6267.95
453.05	6513.71
453.23	6417.75
453.42	6349.87
453.60	6413.07
453.78	6572.22
453.97	6560.52
454.15	6494.99
454.34	6361.58
454.52	6590.95
454.70	6602.65
454.89	6581.59
455.07	6581.59
455.26	6799.26
455.44	6729.04
455.62	6803.94
455.81	6672.87
455.99	6817.98
456.17	6778.19
456.36	6876.49
456.54	6829.68
456.73	6930.33
456.91	7129.27
457.09	7124.59
457.28	7190.13
457.46	7164.38
457.64	7140.97
457.83	7101.19
458.01	7173.74
458.19	7377.37
458.38	7253.32
458.56	7206.51
458.74	7075.44
458.93	7293.11
459.11	7260.34
459.29	7314.17
459.48	7213.53
459.66	7377.37
459.84	7407.80
460.03	7506.10
460.21	7478.01
460.39	7360.98
460.57	7522.48
460.76	7396.09
460.94	7396.09
461.12	7737.81
461.31	7527.16
461.49	7576.31
461.67	7733.13
461.85	7885.26
462.04	7616.10
462.22	8053.78
462.40	7929.74
462.59	7974.21
462.77	7744.83
462.95	7929.74
463.13	7751.85
463.32	7971.86
463.50	8039.74
463.68	8128.68
463.86	7978.89
464.05	7983.57
464.23	8006.97
464.41	7932.08
464.59	7894.63
464.78	8196.56
464.96	8095.91
465.14	8023.36
465.32	8166.13
465.50	8093.57
465.69	8208.26
465.87	8072.51
466.05	8021.02
466.23	8046.76
466.41	8341.67
466.60	8510.19
466.78	8194.22
466.96	8166.13
467.14	8390.82
467.32	8582.74
467.51	8566.36
467.69	8119.32
467.87	8589.77
468.05	8624.87
468.23	8311.24
468.41	8278.47
468.60	8613.17
468.78	8533.59
468.96	8631.90
469.14	8545.30
469.32	8615.51
469.50	8528.91
469.69	8767.65
469.87	8678.71
470.05	8833.18
470.23	8947.87
470.41	8877.65
470.59	8865.95
470.77	8772.33
470.95	8821.48
471.14	9231.07
471.32	8863.61
471.50	9224.05
471.68	9050.85
471.86	9280.22
472.04	9121.07
472.22	9521.30
472.40	9242.78
472.58	9355.12
472.77	9530.66
472.95	9589.17
473.13	9617.26
473.31	9490.87
473.49	9657.05
473.67	9469.81
473.85	9619.60
474.03	9884.08
474.21	9856.00
474.39	9881.74
474.57	9916.85
474.75	10012.81
474.93	10319.42
475.12	9956.64
475.30	10200.05
475.48	10097.07
475.66	10291.34
475.84	10274.95
476.02	10457.51
476.20	10267.93
476.38	10616.67
476.56	10956.05
476.74	10663.48
476.92	10541.77
477.10	10389.64
477.28	10588.58
477.46	10633.05
477.64	10806.25
477.82	11232.23
478.00	11208.83
478.18	11201.80
478.36	11384.37
478.54	11412.45
478.72	11403.09
478.90	11391.39
479.08	11707.36
479.26	11662.89
479.44	11871.20
479.62	11960.14
479.80	11999.93
479.98	11878.22
480.16	12322.92
480.34	12142.70
480.52	12346.33
480.70	12549.95
480.88	12252.70
481.06	12594.42
481.24	12596.76
481.41	12683.36
481.59	12772.30
481.77	12961.89
481.95	12973.59
482.13	13441.70
482.31	13062.53
482.49	13359.78
482.67	13551.70
482.85	13633.62
483.03	13547.02
483.21	13834.91
483.39	14068.96
483.57	13877.04
483.74	14113.43
483.92	14148.54
484.10	14033.85
484.28	14375.57
484.46	14780.48
484.64	14939.64
484.82	14530.05
485.00	15023.90
485.18	14796.87
485.35	15190.08
485.53	15096.46
485.71	15295.40
485.89	15639.46
486.07	15587.97
486.25	15616.05
486.43	15695.63
486.61	15784.57
486.78	15978.84
486.96	16060.76
487.14	16397.79
487.32	16404.81
487.50	16388.43
487.68	16753.55
487.85	16842.50
488.03	17191.23
488.21	17303.58
488.39	17071.87
488.57	17200.60
488.75	17341.03
488.92	17703.81
489.10	17757.64
489.28	17701.47
489.46	17905.10
489.64	17696.79
489.81	18375.55
489.99	18237.45
490.17	18324.05
490.35	18518.32
490.53	18778.12
490.70	18897.49
490.88	19007.49
491.06	19061.32
491.24	19124.52
491.41	19056.64
491.59	19288.35
491.77	19225.16
491.95	19665.18
492.13	20133.29
492.30	19786.89
492.48	19822.00
492.66	19819.66
492.84	20088.82
493.01	20325.21
493.19	20318.19
493.37	20685.65
493.54	20680.97
493.72	20922.05
493.90	20898.64
494.08	21057.80
494.25	21223.98
494.43	20973.54
494.61	21029.71
494.79	21607.83
494.96	21528.25
495.14	21762.30
495.32	21673.36
495.49	21940.18
495.67	21881.67
495.85	21921.46
496.02	22544.04
496.20	22515.95
496.38	22513.61
496.55	22731.28
496.73	23000.44
496.91	22712.56
497.09	23190.03
497.26	23065.98
497.44	23119.81
497.62	23234.50
497.79	23836.02
497.97	23122.15
498.14	23772.82
498.32	23896.87
498.50	24051.34
498.67	23981.13
498.85	24156.67
499.03	24393.06
499.20	24507.75
499.38	24692.65
499.56	24797.98
499.73	24769.89
499.91	25109.27
500.08	24982.88
500.26	24673.93
500.44	25149.06
500.61	25064.80
500.79	25350.34
500.97	25528.22
501.14	25516.52
501.32	25851.22
501.49	25429.92
501.67	25647.59
501.84	25914.41
502.02	25568.01
502.20	25762.28
502.37	26265.49
502.55	25965.90
502.72	26401.24
502.90	26401.24
503.07	26111.02
503.25	26586.15
503.43	26267.83
503.60	27126.81
503.78	27080.00
503.95	26845.94
504.13	26778.07
504.30	27147.87
504.48	26941.91
504.65	26974.67
504.83	27285.97
505.01	27475.55
505.18	27580.87
505.36	27548.11
505.53	27658.11
505.71	27630.02
505.88	27927.27
506.06	27679.18
506.23	28032.60
506.41	28034.94
506.58	28276.01
506.76	27770.46
506.93	28416.44
507.11	28526.45
507.28	28685.61
507.46	28496.02
507.63	28975.83
507.81	28662.20
507.98	28474.96
508.16	28781.57
508.33	28905.62
508.50	28877.53
508.68	29008.60
508.85	29113.92
509.03	29467.34
509.20	29057.75
509.38	29596.07
509.55	29567.99
509.73	29507.13
509.90	29830.13
510.08	29825.45
510.25	29743.53
510.42	29855.87
510.60	30150.78
510.77	30249.08
510.95	30595.48
511.12	30033.75
511.30	30462.07
511.47	30380.15
511.64	30213.98
511.82	30539.31
511.99	30522.93
512.17	30948.90
512.34	30944.22
512.51	31058.91
512.69	31419.35
512.86	30796.77
513.04	31241.47
513.21	31189.98
513.38	31255.51
513.56	31307.01
513.73	31204.02
513.90	31541.06
514.08	31438.08
514.25	31864.05
514.43	31580.85
514.60	31988.10
514.77	32044.27
514.95	32168.32
515.12	32002.14
515.29	31964.70
515.47	32402.38
515.64	32521.74
515.81	32065.34
515.99	32367.27
516.16	32950.06
516.33	32737.07
516.51	33322.21
516.68	33039.00
516.85	32907.93
517.03	33259.01
517.20	33172.41
517.37	32903.25
517.54	33518.81
517.72	33354.97
517.89	33450.94
518.06	33354.97
518.24	33296.46
518.41	33624.14
518.58	33256.67
518.75	33593.71
518.93	33839.47
519.10	33628.82
519.27	34050.11
519.45	33865.21
519.62	33795.00
519.79	34099.26
519.96	34073.52
520.14	34291.19
520.31	33919.04
520.48	34586.10
520.65	34401.19
520.83	34686.74
521.00	35019.10
521.17	34398.85
521.34	34998.03
521.52	34836.53
521.69	34717.17
521.86	34515.88
522.03	34944.20
522.20	35470.82
522.38	35412.31
522.55	35779.77
522.72	35332.73
522.89	35526.99
523.07	35817.22
523.24	35796.15
523.41	35564.44
523.58	36062.97
523.75	36058.29
523.92	35964.67
524.10	35807.86
524.27	35887.43
524.44	36250.22
524.61	36477.25
524.78	36299.37
524.96	36170.64
525.13	36371.92
525.30	36510.02
525.47	36577.89
525.64	36671.51
525.81	36605.98
525.98	36666.83
526.16	36348.52
526.33	36788.54
526.50	37013.23
526.67	36938.33
526.84	36980.46
527.01	37015.57
527.18	36996.85
527.36	37165.37
527.53	37158.34
527.70	37549.21
527.87	37677.94
528.04	37287.07
528.21	37589.00
528.38	37212.18
528.55	37446.23
528.72	37624.11
528.89	37453.25
529.07	37415.80
529.24	37275.37
529.41	38080.52
529.58	38162.43
529.75	37895.61
529.92	37970.51
530.09	37668.58
530.26	38040.73
530.43	38050.09
530.60	37689.65
530.77	37825.40
530.94	38117.96
531.11	38628.20
531.28	38483.09
531.46	38698.42
531.63	38745.23
531.80	38197.54
531.97	39021.41
532.14	38752.25
532.31	38323.93
532.48	39117.37
532.65	39342.06
532.82	39021.41
532.99	39084.61
533.16	38906.73
533.33	39232.06
533.50	39318.66
533.67	39138.44
533.84	38820.13
534.01	39428.66
534.18	39433.35
534.35	40147.21
534.52	39658.04
534.69	39931.88
534.86	39784.43
535.03	40027.84
535.20	39749.32
535.37	39894.43
535.54	39847.62
535.71	39758.68
535.88	40165.93
536.05	40285.30
536.22	39999.76
536.38	40133.17
536.55	39962.31
536.72	40311.05
536.89	39765.70
537.06	40638.72
537.23	40198.70
537.40	40304.02
537.57	40177.64
537.74	40285.30
537.91	40797.88
538.08	40617.66
538.25	40418.71
538.42	40474.88
538.59	40683.19
538.75	40704.26
538.92	41155.98
539.09	40971.08
539.26	40896.18
539.43	40847.03
539.60	40896.18
539.77	41010.87
539.94	41226.20
540.11	41003.85
540.28	41364.29
540.44	41345.56
540.61	41294.07
540.78	41172.36
540.95	41214.49
541.12	40701.92
541.29	41020.23
541.46	41780.90
541.62	41469.61
541.79	41549.19
541.96	41240.24
542.13	41390.03
542.30	41570.25
542.47	42017.30
542.63	41834.74
542.80	42136.66
542.97	42192.84
543.14	42555.62
543.31	41972.83
543.48	42267.73
543.64	42639.88
543.81	42857.55
543.98	42356.67
544.15	42401.14
544.32	42426.89
544.48	42883.30
544.65	42986.28
544.82	42674.99
544.99	42653.92
545.16	42670.31
545.32	42792.01
545.49	43091.60
545.66	43487.15
545.83	43037.77
546.00	43395.87
546.16	42834.14
546.33	42703.07
546.50	42897.34
546.67	43370.13
546.83	42656.26
547.00	43344.38
547.17	42965.21
547.34	43229.69
547.50	43269.48
547.67	43360.76
547.84	43501.20
548.00	43676.74
548.17	43784.40
548.34	43522.26
548.51	43725.89
548.67	43674.40
548.84	43519.92
549.01	43660.35
549.18	43524.60
549.34	43856.96
549.51	44186.97
549.68	44105.06
549.84	43578.43
550.01	44296.98
550.18	43737.59
550.34	44109.74
550.51	43964.62
550.68	43775.04
550.84	44109.74
551.01	44158.89
551.18	44240.81
551.34	44318.04
551.51	44219.74
551.68	44383.58
551.84	44121.44
552.01	43917.81
552.18	44432.73
552.34	44177.61
552.51	44449.11
552.68	44088.67
552.84	44437.41
553.01	44814.24
553.18	44795.51
553.34	44758.06
553.51	44837.64
553.67	44781.47
553.84	44933.60
554.01	44804.88
554.17	44973.39
554.34	44928.92
554.51	45289.37
554.67	45464.91
554.84	44994.46
555.00	45045.95
555.17	44814.24
555.33	44891.48
555.50	45305.75
555.67	45031.91
555.83	45359.58
556.00	45254.26
556.16	46003.23
556.33	45404.05
556.50	45265.96
556.66	45193.40
556.83	44996.80
556.99	45572.57
557.16	45500.01
557.32	45509.38
557.49	45727.05
557.65	45464.91
557.82	45635.77
557.98	45420.44
558.15	45528.10
558.32	45689.60
558.48	45661.51
558.65	45474.27
558.81	45588.95
558.98	45813.65
559.14	45785.56
559.31	45668.53
559.47	45511.72
559.64	46005.57
559.80	45951.74
559.97	45958.76
560.13	45771.52
560.30	45745.77
560.46	46518.15
560.63	46010.25
560.79	46335.59
560.96	46398.78
561.12	46073.45
561.29	45947.06
561.45	46401.12
561.61	46171.75
561.78	46410.48
561.94	46522.83
562.11	46021.95
562.27	46319.20
562.44	46424.53
562.60	46422.19
562.77	46609.43
562.93	45914.29
563.10	46808.37
563.26	46050.04
563.42	46749.86
563.59	45975.14
563.75	46094.51
563.92	46356.65
564.08	46382.40
564.24	46485.38
564.41	46316.86
564.57	46440.91
564.74	46351.97
564.90	46244.30
565.07	46628.15
565.23	46679.64
565.39	46607.09
565.56	46934.76
565.72	46450.27
565.88	46827.10
566.05	46988.60
566.21	46768.58
566.38	46555.60
566.54	46679.64
566.70	46660.92
566.87	46813.05
567.03	46651.56
567.19	46515.81
567.36	46817.74
567.52	46770.93
567.68	47000.30
567.85	46836.46
568.01	47009.66
568.17	46770.93
568.34	46714.75
568.50	46787.31
568.66	46754.54
568.83	46979.23
568.99	46459.63
569.15	46955.83
569.32	47220.31
569.48	46944.12
569.64	47004.98
569.81	47075.19
569.97	47246.05
570.13	47323.29
570.30	46632.83
570.46	46866.89
570.62	46866.89
570.78	47283.50
570.95	46899.65
571.11	47337.33
571.27	46885.61
571.43	47072.85
571.60	47004.98
571.76	46787.31
571.92	47203.92
572.09	47028.38
572.25	46852.84
572.41	46651.56
572.57	47068.17
572.74	47442.66
572.90	47297.55
573.06	47590.11
573.22	47421.59
573.38	47627.56
573.55	47255.42
573.71	47924.81
573.87	47171.16
574.03	46946.47
574.20	47491.81
574.36	47430.96
574.52	47650.97
574.68	47292.86
574.84	47681.39
575.01	47576.07
575.17	47924.81
575.33	47012.00
575.49	47037.75
575.65	47845.23
575.82	47669.69
575.98	47426.28
576.14	47700.12
576.30	47760.97
576.46	47555.00
576.62	46974.55
576.79	47419.25
576.95	47061.15
577.11	47358.40
577.27	47187.54
577.43	47466.06
577.59	47194.56
577.75	47232.01
577.92	47283.50
578.08	47262.44
578.24	47543.30
578.40	47732.89
578.56	47711.82
578.72	47730.54
578.88	47587.77
579.04	47634.58
579.21	47660.33
579.37	47372.44
579.53	47999.71
579.69	47784.38
579.85	47746.93
580.01	47627.56
580.17	47337.33
580.33	47655.65
580.49	47861.61
580.65	47428.62
580.82	47533.94
580.98	47430.96
581.14	47739.91
581.30	47597.13
581.46	47550.32
581.62	47426.28
581.78	47351.38
581.94	47512.88
582.10	47831.19
582.26	47597.13
582.42	47765.65
582.58	47599.47
582.74	47505.85
582.90	47814.80
583.06	47913.11
583.22	47690.76
583.38	47730.54
583.54	47592.45
583.70	48018.43
583.86	47906.08
584.02	47508.19
584.18	48186.95
584.34	47714.16
584.50	48041.84
584.66	47992.68
584.82	47681.39
584.98	48179.93
585.14	47807.78
585.30	47639.26
585.46	48053.54
585.62	47660.33
585.78	47697.78
585.94	48133.12
586.10	47880.34
586.26	47800.76
586.42	47744.59
586.58	48053.54
586.74	48025.45
586.90	48112.05
587.06	48128.44
587.22	48631.65
587.38	47564.37
587.54	47936.51
587.70	48177.59
587.86	47992.68
588.02	47882.68
588.18	47784.38
588.34	47885.02
588.49	47777.36
588.65	47995.03
588.81	47824.17
588.97	47931.83
589.13	47985.66
589.29	47990.34
589.45	48322.70
589.61	48055.88
589.77	48334.40
589.93	47550.32
