SpectraSuite Data File
++++++++++++++++++++++++++++++++++++
Date: Fri Oct 25 11:33:52 EDT 2013
User: price-jones
Dark Spectrum Present: No
Reference Spectrum Present: No
Number of Sampled Component Spectra: 1
Spectrometers: USB2+H05261
Integration Time (usec): 100000 (USB2+H05261)
Spectra Averaged: 1 (USB2+H05261)
Boxcar Smoothing: 0 (USB2+H05261)
Correct for Electrical Dark: No (USB2+H05261)
Strobe/Lamp Enabled: No (USB2+H05261)
Correct for Detector Non-linearity: No (USB2+H05261)
Correct for Stray Light: No (USB2+H05261)
Number of Pixels in Processed Spectrum: 2048
>>>>>Begin Processed Spectral Data<<<<<
365.73	292.57
365.92	292.57
366.12	292.57
366.32	175.54
366.52	194.26
366.72	231.71
366.91	119.37
367.11	208.31
367.31	152.13
367.51	154.48
367.70	156.82
367.90	163.84
368.10	131.07
368.30	159.16
368.49	175.54
368.69	187.24
368.89	194.26
369.09	217.67
369.28	271.50
369.48	198.95
369.68	189.58
369.87	271.50
370.07	250.44
370.27	236.39
370.47	362.78
370.66	402.57
370.86	503.22
371.06	589.82
371.25	585.13
371.45	631.94
371.65	496.19
371.84	587.47
372.04	559.39
372.24	524.28
372.44	610.88
372.63	559.39
372.83	596.84
373.03	662.37
373.22	528.96
373.42	636.63
373.62	648.33
373.81	540.66
374.01	624.92
374.21	643.65
374.40	650.67
374.60	711.52
374.79	669.39
374.99	688.12
375.19	610.88
375.38	678.76
375.58	692.80
375.78	683.44
375.97	645.99
376.17	753.65
376.37	702.16
376.56	765.36
376.76	645.99
376.95	695.14
377.15	676.41
377.35	622.58
377.54	676.41
377.74	770.04
377.93	681.10
378.13	671.73
378.33	641.31
378.52	702.16
378.72	767.70
378.91	777.06
379.11	629.60
379.31	664.71
379.50	650.67
379.70	763.01
379.89	774.72
380.09	725.57
380.28	692.80
380.48	706.84
380.68	699.82
380.87	699.82
381.07	746.63
381.26	765.36
381.46	819.19
381.65	777.06
381.85	741.95
382.04	814.51
382.24	786.42
382.43	725.57
382.63	695.14
382.83	849.61
383.02	851.96
383.22	823.87
383.41	765.36
383.61	802.80
383.80	849.61
384.00	873.02
384.19	767.70
384.39	835.57
384.58	833.23
384.78	854.30
384.97	847.27
385.17	877.70
385.36	851.96
385.56	774.72
385.75	898.77
385.95	791.10
386.14	854.30
386.34	854.30
386.53	861.32
386.72	837.91
386.92	835.57
387.11	894.08
387.31	833.23
387.50	835.57
387.70	858.98
387.89	870.68
388.09	978.34
388.28	858.98
388.48	945.58
388.67	922.17
388.86	849.61
389.06	968.98
389.25	954.94
389.45	966.64
389.64	926.85
389.84	947.92
390.03	1043.88
390.22	983.02
390.42	947.92
390.61	936.21
390.81	999.41
391.00	1020.47
391.19	994.73
391.39	994.73
391.58	1055.58
391.78	1027.50
391.97	1004.09
392.16	987.71
392.36	1020.47
392.55	990.05
392.75	1006.43
392.94	1041.54
393.13	1039.20
393.33	976.00
393.52	1053.24
393.71	1170.27
393.91	1121.12
394.10	1090.69
394.29	1074.31
394.49	1069.62
394.68	1156.22
394.88	1116.44
395.07	1172.61
395.26	1174.95
395.46	1114.10
395.65	1137.50
395.84	1130.48
396.04	1212.40
396.23	1172.61
396.42	1163.25
396.62	1217.08
396.81	1137.50
397.00	1130.48
397.19	1219.42
397.39	1249.85
397.58	1296.66
397.77	1245.16
397.97	1210.06
398.16	1228.78
398.35	1357.51
398.55	1291.98
398.74	1399.64
398.93	1416.02
399.12	1266.23
399.32	1247.51
399.51	1341.13
399.70	1275.59
399.90	1341.13
400.09	1294.32
400.28	1366.87
400.47	1413.68
400.67	1357.51
400.86	1439.43
401.05	1392.62
401.24	1455.81
401.44	1448.79
401.63	1476.88
401.82	1458.15
402.01	1519.01
402.21	1373.89
402.40	1486.24
402.59	1474.54
402.78	1476.88
402.97	1537.73
403.17	1462.83
403.36	1458.15
403.55	1509.65
403.74	1547.09
403.93	1556.46
404.13	1519.01
404.32	1537.73
404.51	1621.99
404.70	1722.63
404.89	1636.03
405.09	1687.53
405.28	1659.44
405.47	1727.32
405.66	1671.14
405.85	1799.87
406.05	1713.27
406.24	1717.95
406.43	1652.42
406.62	1703.91
406.81	1722.63
407.00	1736.68
407.20	1820.94
407.39	1647.74
407.58	1802.21
407.77	1942.64
407.96	1870.09
408.15	1830.30
408.34	1914.56
408.54	1942.64
408.73	1842.00
408.92	1900.52
409.11	1956.69
409.30	1963.71
409.49	2024.56
409.68	1998.82
409.87	1984.77
410.07	2012.86
410.26	1928.60
410.45	2057.33
410.64	2073.71
410.83	2083.08
411.02	2099.46
411.21	2221.17
411.40	2139.25
411.59	2179.04
411.78	2188.40
411.98	2190.74
412.17	2162.66
412.36	2272.66
412.55	2277.34
412.74	2345.22
412.93	2317.13
413.12	2354.58
413.31	2509.05
413.50	2429.48
413.69	2506.71
413.88	2448.20
414.07	2434.16
414.26	2499.69
414.45	2504.37
414.64	2459.90
414.83	2576.93
415.02	2558.21
415.22	2626.08
415.41	2670.55
415.60	2670.55
415.79	2682.25
415.98	2768.85
416.17	2705.66
416.36	2691.62
416.55	2703.32
416.74	2750.13
416.93	2836.73
417.12	2792.26
417.31	2883.54
417.50	2916.31
417.69	3009.93
417.88	2904.60
418.07	2965.46
418.26	2871.84
418.45	3124.62
418.64	3141.00
418.83	3033.33
419.02	3124.62
419.21	3103.55
419.39	3131.64
419.58	3056.74
419.77	3115.25
419.96	3124.62
420.15	3124.62
420.34	3150.36
420.53	3150.36
420.72	3119.93
420.91	3232.28
421.10	3253.34
421.29	3236.96
421.48	3192.49
421.67	3309.52
421.86	3337.60
422.05	3253.34
422.24	3262.71
422.43	3318.88
422.61	3368.03
422.80	3325.90
422.99	3529.53
423.18	3330.58
423.37	3562.30
423.56	3475.70
423.75	3459.31
423.94	3368.03
424.13	3194.83
424.32	3290.79
424.50	3332.92
424.69	3557.61
424.88	3522.51
425.07	3459.31
425.26	3412.50
425.45	3384.41
425.64	3349.31
425.83	3295.47
426.01	3517.83
426.20	3459.31
426.39	3375.05
426.58	3442.93
426.77	3494.42
426.96	3510.80
427.15	3515.48
427.33	3569.32
427.52	3545.91
427.71	3630.17
427.90	3562.30
428.09	3592.72
428.28	3599.74
428.46	3627.83
428.65	3510.80
428.84	3838.48
429.03	3712.09
429.22	3779.97
429.40	3733.15
429.59	3866.56
429.78	3606.77
429.97	3667.62
430.16	3688.68
430.34	3779.97
430.53	3941.46
430.72	3822.09
430.91	3974.23
431.10	3812.73
431.28	3918.06
431.47	3950.82
431.66	4060.83
431.85	3983.59
432.03	4128.70
432.22	4021.04
432.41	4016.36
432.60	4016.36
432.79	4016.36
432.97	4042.11
433.16	4021.04
433.35	4140.41
433.54	4210.62
433.72	4201.26
433.91	4133.39
434.10	4194.24
434.28	4217.65
434.47	4271.48
434.66	4358.08
434.85	4205.94
435.03	4404.89
435.22	4269.14
435.41	4374.46
435.59	4360.42
435.78	4423.61
435.97	4351.06
436.16	4334.67
436.34	4241.05
436.53	4414.25
436.72	4505.53
436.90	4430.63
437.09	4601.49
437.28	4372.12
437.46	4416.59
437.65	4671.71
437.84	4493.83
438.02	4554.68
438.21	4622.56
438.40	4500.85
438.58	4641.28
438.77	4683.41
438.96	4685.75
439.14	4847.25
439.33	4833.21
439.52	4779.37
439.70	4971.30
439.89	5083.64
440.08	4884.70
440.26	5116.41
440.45	4945.55
440.63	4896.40
440.82	5156.20
441.01	5107.05
441.19	5046.20
441.38	5235.78
441.57	5247.48
441.75	5310.68
441.94	5502.60
442.12	5451.11
442.31	5350.46
442.50	5575.16
442.68	5329.40
442.87	5453.45
443.05	5490.90
443.24	5659.42
443.43	5561.11
443.61	5589.20
443.80	5823.25
443.98	5533.03
444.17	5298.97
444.35	5554.09
444.54	5605.58
444.73	5734.31
444.91	5530.69
445.10	5769.42
445.28	5652.39
445.47	5561.11
445.65	5668.78
445.84	5682.82
446.02	5661.76
446.21	5825.59
446.39	5547.07
446.58	5614.95
446.77	5701.54
446.95	5610.26
447.14	5699.20
447.32	5755.38
447.51	5598.56
447.69	5727.29
447.88	5753.04
448.06	5666.44
448.25	5734.31
448.43	5891.13
448.62	5893.47
448.80	5666.44
448.99	5914.53
449.17	5881.77
449.36	5830.27
449.54	5996.45
449.73	6029.22
449.91	6043.26
450.10	5954.32
450.28	6040.92
450.46	6134.54
450.65	6076.03
450.83	6054.97
451.02	6134.54
451.20	6263.27
451.39	6188.38
451.57	6176.67
451.76	5949.64
451.94	6214.12
452.13	6069.01
452.31	6417.75
452.49	6438.81
452.68	6155.61
452.86	6279.66
453.05	6328.81
453.23	6541.80
453.42	6204.76
453.60	6331.15
453.78	6389.66
453.97	6253.91
454.15	6427.11
454.34	6375.62
454.52	6516.05
454.70	6586.27
454.89	6509.03
455.07	6633.08
455.26	6553.50
455.44	6726.70
455.62	6672.87
455.81	6733.72
455.99	6630.74
456.17	6745.42
456.36	6817.98
456.54	6876.49
456.73	6832.02
456.91	6876.49
457.09	7030.97
457.28	7056.72
457.46	6932.67
457.64	7094.16
457.83	6991.18
458.01	7007.56
458.19	7157.36
458.38	7082.46
458.56	7253.32
458.74	7166.72
458.93	6871.81
459.11	7302.47
459.29	7241.62
459.48	7091.82
459.66	7164.38
459.84	7316.51
460.03	7302.47
460.21	7489.71
460.39	7379.71
460.57	7307.15
460.76	7372.69
460.94	7445.24
461.12	7620.78
461.31	7332.90
461.49	7489.71
461.67	7653.55
461.85	7606.74
462.04	7513.12
462.22	7810.37
462.40	8035.06
462.59	7719.09
462.77	7627.81
462.95	7784.62
463.13	7728.45
463.32	7672.28
463.50	7679.30
463.68	7819.73
463.86	8121.66
464.05	7805.69
464.23	7838.45
464.41	8046.76
464.59	7836.11
464.78	8140.38
464.96	8081.87
465.14	7857.18
465.32	8056.12
465.50	8133.36
465.69	8091.23
465.87	8170.81
466.05	8093.57
466.23	8084.21
466.41	8255.07
466.60	8344.01
466.78	8037.40
466.96	8255.07
467.14	8257.41
467.32	8217.62
467.51	8379.12
467.69	7946.12
467.87	8205.92
468.05	8484.44
468.23	8252.73
468.41	8390.82
468.60	8414.23
468.78	8388.48
468.96	8430.61
469.14	8423.59
469.32	8779.35
469.50	8245.71
469.69	8645.94
469.87	8723.18
470.05	8662.32
470.23	8617.85
470.41	8802.75
470.59	8854.25
470.77	8671.68
470.95	8858.93
471.14	9043.83
471.32	8940.85
471.50	9135.11
471.68	8938.51
471.86	9153.84
472.04	9088.30
472.22	9217.03
472.40	9027.45
472.58	9366.82
472.77	9261.50
472.95	9399.59
473.13	9638.33
473.31	9214.69
473.49	9392.57
473.67	9399.59
473.85	9446.40
474.03	9654.71
474.21	9619.60
474.39	9792.80
474.57	9495.55
474.75	9745.99
474.93	10052.60
475.12	9940.26
475.30	10132.18
475.48	9994.09
475.66	9994.09
475.84	10066.64
476.02	9973.02
476.20	10132.18
476.38	10270.27
476.56	10583.90
476.74	10340.49
476.92	10436.45
477.10	10520.71
477.28	10619.01
477.46	10399.00
477.64	10630.71
477.82	10939.66
478.00	11262.66
478.18	11005.20
478.36	11255.64
478.54	11541.18
478.72	11250.96
478.90	11573.95
479.08	11550.54
479.26	11789.28
479.44	11623.10
479.62	11646.51
479.80	11866.52
479.98	11707.36
480.16	12145.04
480.34	11960.14
480.52	12388.46
480.70	12339.30
480.88	12105.25
481.06	12334.62
481.24	12407.18
481.41	12500.80
481.59	12812.09
481.77	12620.17
481.95	12840.18
482.13	13053.17
482.31	12947.84
482.49	13195.94
482.67	13289.56
482.85	13170.19
483.03	13479.15
483.21	13750.65
483.39	13841.93
483.57	13483.83
483.74	13696.82
483.92	14092.37
484.10	13785.76
484.28	14207.05
484.46	14228.12
484.64	14562.81
484.82	14462.17
485.00	14551.11
485.18	14939.64
485.35	15145.61
485.53	14937.30
485.71	14897.51
485.89	15452.22
486.07	15136.24
486.25	14979.43
486.43	15353.91
486.61	15637.12
486.78	15723.72
486.96	15740.10
487.14	15887.56
487.32	16016.29
487.50	16468.01
487.68	16336.94
487.85	16514.82
488.03	16315.87
488.21	16896.33
488.39	16929.09
488.57	17291.88
488.75	17392.52
488.92	17153.79
489.10	17418.27
489.28	17502.53
489.46	17724.88
489.64	17472.10
489.81	18148.51
489.99	17951.91
490.17	18061.91
490.35	18434.06
490.53	18457.46
490.70	18684.50
490.88	18258.52
491.06	18703.22
491.24	18906.85
491.41	18963.02
491.59	19194.73
491.77	19215.80
491.95	19030.90
492.13	19529.43
492.30	19606.67
492.48	19690.93
492.66	19477.94
492.84	19702.63
493.01	19929.66
493.19	20159.03
493.37	20175.42
493.54	20161.37
493.72	20521.82
493.90	20688.00
494.08	20952.48
494.25	20669.27
494.43	20596.71
494.61	21034.39
494.79	21413.56
494.96	21228.66
495.14	21097.59
495.32	21507.18
495.49	21640.59
495.67	22075.93
495.85	22052.53
496.02	21682.72
496.20	22012.74
496.38	22085.30
496.55	22122.74
496.73	22684.47
496.91	22272.54
497.09	22480.85
497.26	22747.67
497.44	22745.33
497.62	23091.73
497.79	23108.11
497.97	23087.04
498.14	23218.11
498.32	23489.62
498.50	23674.52
498.67	23665.16
498.85	23646.43
499.03	23978.79
499.20	23854.74
499.38	24203.48
499.56	24077.09
499.73	24215.18
499.91	24503.07
500.08	24531.15
500.26	24573.28
500.44	24760.53
500.61	24765.21
500.79	24404.77
500.97	25003.94
501.14	25303.53
501.32	25483.75
501.49	24992.24
501.67	25055.43
501.84	25355.02
502.02	25308.21
502.20	25240.34
502.37	25406.52
502.55	25565.67
502.72	25621.84
502.90	25530.56
503.07	25621.84
503.25	26143.78
503.43	25984.63
503.60	26089.95
503.78	26515.93
503.95	25891.01
504.13	26136.76
504.30	26162.51
504.48	26445.71
504.65	26600.19
504.83	26738.28
505.01	27138.51
505.18	27101.06
505.36	27192.34
505.53	27192.34
505.71	26969.99
505.88	27077.66
506.06	27255.54
506.23	27501.29
506.41	27246.18
506.58	27688.54
506.76	27693.22
506.93	27728.33
507.11	27763.43
507.28	27936.63
507.46	27927.27
507.63	27948.34
507.81	28313.46
507.98	28360.27
508.16	27964.72
508.33	28383.68
508.50	28566.24
508.68	28580.28
508.85	28833.06
509.03	28732.42
509.20	28877.53
509.38	28879.87
509.55	29125.63
509.73	29139.67
509.90	29041.37
510.08	29317.55
510.25	29275.42
510.42	29558.63
510.60	29504.79
510.77	29802.04
510.95	30106.31
511.12	29795.02
511.30	29256.70
511.47	29937.79
511.64	29951.84
511.82	30473.78
511.99	30356.75
512.17	30349.73
512.34	30235.04
512.51	30569.74
512.69	30609.53
512.86	30497.18
513.04	31075.29
513.21	30944.22
513.38	30749.96
513.56	30960.61
513.73	30862.30
513.90	31204.02
514.08	30890.39
514.25	31611.28
514.43	31353.82
514.60	31173.60
514.77	31419.35
514.95	31433.39
515.12	31503.61
515.29	31484.89
515.47	31868.73
515.64	32013.85
515.81	31644.04
515.99	32322.80
516.16	32371.95
516.33	32388.33
516.51	32297.05
516.68	31967.04
516.85	32694.94
517.03	32601.32
517.20	32339.18
517.37	32428.12
517.54	32383.65
517.72	32762.82
517.89	32730.05
518.06	32849.42
518.24	32287.69
518.41	32863.46
518.58	33102.20
518.75	33181.77
518.93	33071.77
519.10	32924.32
519.27	33324.55
519.45	33572.64
519.62	33453.28
519.79	33563.28
519.96	33586.69
520.14	33839.47
520.31	33177.09
520.48	33846.49
520.65	33738.82
520.83	33916.70
521.00	34218.63
521.17	33970.54
521.34	34075.86
521.52	34249.06
521.69	33928.41
521.86	34356.72
522.03	34665.67
522.20	34778.02
522.38	34876.32
522.55	34728.87
522.72	34756.96
522.89	34827.17
523.07	35388.90
523.24	34761.64
523.41	35012.07
523.58	34960.58
523.75	35482.52
523.92	35407.62
524.10	35178.25
524.27	35323.36
524.44	35599.55
524.61	35505.93
524.78	35489.54
524.96	35721.26
525.13	36072.34
525.30	36046.59
525.47	36126.17
525.64	36320.43
525.81	36449.16
525.98	36397.67
526.16	35971.69
526.33	35384.22
526.50	36299.37
526.67	35999.78
526.84	36130.85
527.01	36259.58
527.18	36058.29
527.36	36512.36
527.53	36739.39
527.70	36804.92
527.87	37001.53
528.04	36390.65
528.21	36643.43
528.38	36987.49
528.55	37067.06
528.72	36744.07
528.89	37015.57
529.07	36905.57
529.24	37008.55
529.41	36900.89
529.58	37017.91
529.75	37123.24
529.92	37046.00
530.09	37439.21
530.26	37469.64
530.43	37773.91
530.60	37003.87
530.77	37556.24
530.94	37579.64
531.11	37701.35
531.28	37617.09
531.46	37280.05
531.63	37832.42
531.80	37804.33
531.97	38031.36
532.14	38202.22
532.31	38274.78
532.48	38639.90
532.65	38494.79
532.82	38150.73
532.99	38536.92
533.16	38394.15
533.33	38581.39
533.50	38794.38
533.67	38483.09
533.84	38518.20
534.01	38672.67
534.18	38717.14
534.35	39054.18
534.52	38770.97
534.69	39033.11
534.86	39564.42
535.03	38918.43
535.20	39185.25
535.37	39164.18
535.54	39728.25
535.71	38773.31
535.88	39395.90
536.05	39536.33
536.22	39765.70
536.38	39210.99
536.55	39529.31
536.72	39562.08
536.89	39040.14
537.06	39651.02
537.23	39461.43
537.40	39826.56
537.57	39599.52
537.74	39868.69
537.91	39966.99
538.08	40233.81
538.25	39746.98
538.42	39718.89
538.59	39903.79
538.75	40341.47
538.92	40355.52
539.09	40533.40
539.26	40313.39
539.43	40011.46
539.60	40514.67
539.77	40425.73
539.94	40952.35
540.11	41006.19
540.28	40952.35
540.44	40261.90
540.61	40608.29
540.78	40762.77
540.95	40488.93
541.12	40418.71
541.29	40392.97
541.46	40942.99
541.62	40858.73
541.79	40973.42
541.96	40524.04
542.13	40765.11
542.30	41291.73
542.47	41448.55
542.63	41102.15
542.80	41275.35
542.97	41778.56
543.14	41481.31
543.31	41872.18
543.48	41537.49
543.64	42124.96
543.81	42003.25
543.98	41904.95
544.15	42148.37
544.32	41682.60
544.48	42085.17
544.65	42349.65
544.82	42209.22
544.99	41375.99
545.16	42347.31
545.32	42031.34
545.49	41977.51
545.66	42548.60
545.83	42419.87
546.00	42286.46
546.16	42426.89
546.33	42469.02
546.50	42021.98
546.67	42735.84
546.83	41970.49
547.00	42480.72
547.17	42447.96
547.34	42431.57
547.50	42419.87
547.67	43136.07
547.84	42377.74
548.00	43075.22
548.17	42948.83
548.34	43124.37
548.51	43236.72
548.67	43103.31
548.84	43072.88
549.01	43159.48
549.18	42717.12
549.34	43154.80
549.51	43145.44
549.68	43543.33
549.84	42948.83
550.01	43482.47
550.18	43372.47
550.34	43557.37
550.51	43435.66
550.68	43566.73
550.84	43475.45
551.01	43456.73
551.18	43756.32
551.34	43215.65
551.51	43608.86
551.68	43536.30
551.84	43503.54
552.01	43814.83
552.18	43849.94
552.34	43552.69
552.51	43515.24
552.68	44093.35
552.84	43697.80
553.01	43798.44
553.18	43615.88
553.34	44198.68
553.51	43971.64
553.67	43934.20
553.84	44451.45
554.01	43819.51
554.17	43838.23
554.34	44683.17
554.51	44254.85
554.67	44128.46
554.84	44392.94
555.00	44306.34
555.17	44416.35
555.33	44591.89
555.50	44685.51
555.67	44584.86
555.83	44641.04
556.00	44542.74
556.16	45265.96
556.33	44540.39
556.50	44631.68
556.66	44582.52
556.83	44470.18
556.99	44910.20
557.16	44779.13
557.32	45027.23
557.49	44746.36
557.65	44605.93
557.82	45165.32
557.98	44573.16
558.15	44966.37
558.32	44982.76
558.48	44474.86
558.65	45139.57
558.81	45216.81
558.98	44847.00
559.14	44982.76
559.31	44732.32
559.47	44842.32
559.64	45017.86
559.80	45240.21
559.97	44772.11
560.13	45057.65
560.30	45191.06
560.46	45254.26
560.63	45551.51
560.79	45511.72
560.96	44900.84
561.12	45436.82
561.29	44954.67
561.45	45170.00
561.61	45778.54
561.78	45715.34
561.94	45553.85
562.11	45352.56
562.27	45801.94
562.44	45422.78
562.60	45558.53
562.77	45614.70
562.93	45610.02
563.10	45724.71
563.26	45893.22
563.42	46300.48
563.59	45745.77
563.75	45560.87
563.92	45151.27
564.08	45387.67
564.24	45514.06
564.41	45914.29
564.57	46103.87
564.74	45914.29
564.90	45827.69
565.07	45813.65
565.23	45357.24
565.39	45923.65
565.56	46094.51
565.72	45954.08
565.88	46134.30
566.05	45958.76
566.21	46389.42
566.38	45991.53
566.54	46138.98
566.70	46457.29
566.87	45886.20
567.03	45832.37
567.19	46071.10
567.36	46248.99
567.52	45893.22
567.68	46277.07
567.85	45979.82
568.01	46326.22
568.17	46073.45
568.34	46298.14
568.50	46195.15
568.66	45935.35
568.83	46248.99
568.99	46024.29
569.15	46354.31
569.32	46085.15
569.48	46010.25
569.64	46471.34
569.81	46300.48
569.97	46473.68
570.13	46656.24
570.30	45785.56
570.46	46239.62
570.62	46670.28
570.78	46466.66
570.95	46490.06
571.11	46529.85
571.27	46607.09
571.43	46129.62
571.60	46564.96
571.76	46492.40
571.92	46267.71
572.09	46784.97
572.25	46780.29
572.41	46515.81
572.57	46658.58
572.74	46719.43
572.90	46358.99
573.06	46419.84
573.22	46541.55
573.38	46707.73
573.55	46770.93
573.71	46848.16
573.87	46363.67
574.03	46735.82
574.20	46747.52
574.36	46698.37
574.52	47004.98
574.68	46780.29
574.84	46712.41
575.01	46820.08
575.17	46913.70
575.33	46541.55
575.49	46677.30
575.65	46670.28
575.82	46768.58
575.98	46906.68
576.14	46972.21
576.30	47313.93
576.46	46646.88
576.62	46616.45
576.79	46951.15
576.95	46567.30
577.11	46848.16
577.27	46752.20
577.43	46799.01
577.59	46637.51
577.75	46571.98
577.92	46930.08
578.08	46848.16
578.24	46600.07
578.40	47122.01
578.56	46824.76
578.72	47021.36
578.88	47325.63
579.04	47122.01
579.21	46866.89
579.37	46745.18
579.53	46953.49
579.69	47154.77
579.85	47063.49
580.01	46637.51
580.17	46878.59
580.33	46869.23
580.49	47037.75
580.65	46611.77
580.82	46674.96
580.98	46803.69
581.14	46611.77
581.30	46876.25
581.46	46808.37
581.62	47004.98
581.78	46887.95
581.94	47215.63
582.10	46644.54
582.26	47021.36
582.42	46871.57
582.58	46770.93
582.74	47033.07
582.90	47004.98
583.06	47161.79
583.22	46948.81
583.38	46878.59
583.54	47524.58
583.70	47213.29
583.86	47234.35
584.02	47388.83
584.18	47433.30
584.34	47398.19
584.50	47452.02
584.66	46960.51
584.82	47253.08
584.98	47737.57
585.14	47318.61
585.30	47187.54
585.46	47192.22
585.62	47398.19
585.78	47159.45
585.94	46731.14
586.10	47182.86
586.26	46700.71
586.42	47091.58
586.58	47510.53
586.74	47140.73
586.90	47168.82
587.06	47056.47
587.22	47140.73
587.38	47171.16
587.54	47220.31
587.70	47526.92
587.86	47159.45
588.02	47016.68
588.18	47072.85
588.34	46960.51
588.49	47201.58
588.65	46635.17
588.81	47412.23
588.97	47622.88
589.13	47419.25
589.29	47267.12
589.45	47154.77
589.61	47033.07
589.77	47407.55
589.93	47428.62
590.08	47210.95
