SpectraSuite Data File
++++++++++++++++++++++++++++++++++++
Date: Fri Oct 25 11:26:04 EDT 2013
User: price-jones
Dark Spectrum Present: No
Reference Spectrum Present: No
Number of Sampled Component Spectra: 1
Spectrometers: USB2+H05261
Integration Time (usec): 100000 (USB2+H05261)
Spectra Averaged: 1 (USB2+H05261)
Boxcar Smoothing: 0 (USB2+H05261)
Correct for Electrical Dark: No (USB2+H05261)
Strobe/Lamp Enabled: No (USB2+H05261)
Correct for Detector Non-linearity: No (USB2+H05261)
Correct for Stray Light: No (USB2+H05261)
Number of Pixels in Processed Spectrum: 2048
>>>>>Begin Processed Spectral Data<<<<<
365.73	238.73
365.92	238.73
366.12	238.73
366.32	292.57
366.52	112.35
366.72	79.58
366.91	74.90
367.11	184.90
367.31	138.09
367.51	86.60
367.70	201.29
367.90	142.77
368.10	147.45
368.30	110.01
368.49	180.22
368.69	145.11
368.89	128.73
369.09	159.16
369.28	180.22
369.48	140.43
369.68	166.18
369.87	215.33
370.07	100.64
370.27	227.03
370.47	344.06
370.66	519.60
370.86	634.29
371.06	627.26
371.25	713.86
371.45	638.97
371.65	699.82
371.84	727.91
372.04	716.20
372.24	685.78
372.44	683.44
372.63	685.78
372.83	858.98
373.03	828.55
373.22	779.40
373.42	774.72
373.62	739.61
373.81	755.99
374.01	830.89
374.21	830.89
374.40	894.08
374.60	828.55
374.79	828.55
374.99	774.72
375.19	807.48
375.38	823.87
375.58	847.27
375.78	795.78
375.97	861.32
376.17	891.74
376.37	875.36
376.56	968.98
376.76	837.91
376.95	875.36
377.15	891.74
377.35	847.27
377.54	903.45
377.74	880.04
377.93	931.53
378.13	882.38
378.33	940.90
378.52	964.30
378.72	1032.18
378.91	908.13
379.11	903.45
379.31	971.32
379.50	1048.56
379.70	971.32
379.89	985.37
380.09	968.98
380.28	1046.22
380.48	933.87
380.68	931.53
380.87	1001.75
381.07	957.28
381.26	1151.54
381.46	971.32
381.65	1062.60
381.85	1053.24
382.04	1118.78
382.24	1069.62
382.43	961.96
382.63	1025.15
382.83	1097.71
383.02	1100.05
383.22	1146.86
383.41	1118.78
383.61	1149.20
383.80	1167.93
384.00	1093.03
384.19	1137.50
384.39	1130.48
384.58	1146.86
384.78	1163.25
384.97	1212.40
385.17	1090.69
385.36	1224.10
385.56	1104.73
385.75	1100.05
385.95	1186.65
386.14	1184.31
386.34	1137.50
386.53	1301.34
386.72	1144.52
386.92	1235.80
387.11	1196.01
387.31	1275.59
387.50	1261.55
387.70	1256.87
387.89	1359.85
388.09	1268.57
388.28	1364.53
388.48	1299.00
388.67	1348.15
388.86	1299.00
389.06	1240.48
389.25	1291.98
389.45	1364.53
389.64	1324.74
389.84	1336.45
390.03	1401.98
390.22	1404.32
390.42	1380.92
390.61	1409.00
390.81	1345.81
391.00	1343.47
391.19	1507.30
391.39	1462.83
391.58	1488.58
391.78	1483.90
391.97	1474.54
392.16	1446.45
392.36	1577.52
392.55	1551.78
392.75	1493.26
392.94	1465.18
393.13	1544.75
393.33	1497.94
393.52	1556.46
393.71	1603.27
393.91	1565.82
394.10	1540.07
394.29	1610.29
394.49	1591.56
394.68	1549.43
394.88	1612.63
395.07	1696.89
395.26	1638.38
395.46	1675.82
395.65	1675.82
395.84	1736.68
396.04	1762.42
396.23	1598.59
396.42	1792.85
396.62	1802.21
396.81	1846.68
397.00	1804.55
397.19	1860.73
397.39	1823.28
397.58	1830.30
397.77	1799.87
397.97	1837.32
398.16	1792.85
398.35	1865.41
398.55	1954.35
398.74	1837.32
398.93	1905.20
399.12	1909.88
399.32	1919.24
399.51	1891.15
399.70	2036.27
399.90	1982.43
400.09	2090.10
400.28	2003.50
400.47	2050.31
400.67	2047.97
400.86	2127.55
401.05	2057.33
401.24	2012.86
401.44	2188.40
401.63	2132.23
401.82	2150.95
402.01	2099.46
402.21	2190.74
402.40	2167.34
402.59	2253.94
402.78	2211.81
402.97	2263.30
403.17	2272.66
403.36	2286.70
403.55	2253.94
403.74	2443.52
403.93	2260.96
404.13	2347.56
404.32	2338.20
404.51	2345.22
404.70	2466.92
404.89	2387.35
405.09	2331.17
405.28	2443.52
405.47	2349.90
405.66	2401.39
405.85	2562.89
406.05	2502.03
406.24	2600.34
406.43	2595.65
406.62	2590.97
406.81	2691.62
407.00	2682.25
407.20	2616.72
407.39	2532.46
407.58	2668.21
407.77	2822.69
407.96	2801.62
408.15	2686.94
408.34	2649.49
408.54	2843.75
408.73	2736.09
408.92	2782.90
409.11	2970.14
409.30	2909.29
409.49	2918.65
409.68	2888.22
409.87	2843.75
410.07	3007.59
410.26	3030.99
410.45	2977.16
410.64	2988.86
410.83	3103.55
411.02	3187.81
411.21	3178.45
411.40	3169.09
411.59	3150.36
411.78	3236.96
411.98	3194.83
412.17	3260.37
412.36	3426.54
412.55	3342.28
412.74	3358.67
412.93	3449.95
413.12	3417.18
413.31	3555.27
413.50	3262.71
413.69	3492.08
413.88	3581.02
414.07	3653.58
414.26	3574.00
414.45	3726.13
414.64	3702.73
414.83	3721.45
415.02	3763.58
415.22	3761.24
415.41	3791.67
415.60	3850.18
415.79	3925.08
415.98	4032.74
416.17	4021.04
416.36	3990.61
416.55	4093.60
416.74	4060.83
416.93	3948.48
417.12	4028.06
417.31	4142.75
417.50	4173.18
417.69	4257.43
417.88	4208.28
418.07	4255.09
418.26	4304.25
418.45	4229.35
418.64	4428.29
418.83	4514.89
419.02	4400.21
419.21	4461.06
419.39	4561.70
419.58	4498.51
419.77	4545.32
419.96	4643.62
420.15	4664.69
420.34	4596.81
420.53	4674.05
420.72	4652.98
420.91	4788.74
421.10	4858.95
421.29	4861.29
421.48	4718.52
421.67	4697.46
421.86	4912.78
422.05	4760.65
422.24	4821.50
422.43	4809.80
422.61	4863.63
422.80	4936.19
422.99	4868.31
423.18	5008.75
423.37	4945.55
423.56	4997.04
423.75	4943.21
423.94	4924.49
424.13	4660.01
424.32	4744.27
424.50	4819.16
424.69	5064.92
424.88	4997.04
425.07	4999.38
425.26	4983.00
425.45	5011.09
425.64	4851.93
425.83	5090.67
426.01	4985.34
426.20	5025.13
426.39	5123.43
426.58	5193.65
426.77	5083.64
426.96	5331.74
427.15	5123.43
427.33	5041.51
427.52	5259.18
427.71	5226.42
427.90	5172.58
428.09	5259.18
428.28	5413.66
428.46	5465.15
428.65	5305.99
428.84	5558.77
429.03	5420.68
429.22	5474.51
429.40	5493.24
429.59	5610.26
429.78	5240.46
429.97	5380.89
430.16	5399.62
430.34	5584.52
430.53	5659.42
430.72	5795.17
430.91	5603.24
431.10	5528.35
431.28	5748.36
431.47	5825.59
431.66	5837.30
431.85	5865.38
432.03	5900.49
432.22	5951.98
432.41	5844.32
432.60	5966.03
432.79	5973.05
432.97	6029.22
433.16	6115.82
433.35	5984.75
433.54	6085.39
433.72	6120.50
433.91	6031.56
434.10	6291.36
434.28	6094.76
434.47	6087.73
434.66	6380.30
434.85	6328.81
435.03	6246.89
435.22	6277.32
435.41	6530.09
435.59	6420.09
435.78	6333.49
435.97	6450.52
436.16	6314.77
436.34	6298.38
436.53	6534.78
436.72	6647.12
436.90	6537.12
437.09	6377.96
437.28	6787.55
437.46	6377.96
437.65	6782.87
437.84	6895.22
438.02	6846.07
438.21	6703.29
438.40	6665.85
438.58	7019.27
438.77	7157.36
438.96	6946.71
439.14	7019.27
439.33	7164.38
439.52	7248.64
439.70	7229.91
439.89	7133.95
440.08	7241.62
440.26	7250.98
440.45	7414.82
440.63	7487.37
440.82	7639.51
441.01	7503.76
441.19	7604.40
441.38	7662.91
441.57	7653.55
441.75	7878.24
441.94	8018.68
442.12	7873.56
442.31	8093.57
442.50	7836.11
442.68	8046.76
442.87	8152.09
443.05	8107.62
443.24	8191.88
443.43	7875.90
443.61	8234.00
443.80	8407.20
443.98	8074.85
444.17	7854.84
444.35	8355.71
444.54	8430.61
444.73	8224.64
444.91	8198.90
445.10	8294.86
445.28	8437.63
445.47	8362.73
445.65	8484.44
445.84	8493.80
446.02	8568.70
446.21	8475.08
446.39	8248.05
446.58	8702.11
446.77	8470.40
446.95	8395.50
447.14	8367.42
447.32	8589.77
447.51	8355.71
447.69	8512.53
447.88	8615.51
448.06	8507.85
448.25	8641.26
448.43	8592.11
448.62	8610.83
448.80	8751.26
448.99	8446.99
449.17	8772.33
449.36	8582.74
449.54	8774.67
449.73	8926.80
449.91	8915.10
450.10	9048.51
450.28	9137.45
450.46	9107.02
450.65	9078.94
450.83	9102.34
451.02	8957.23
451.20	9142.13
451.39	9294.27
451.57	9090.64
451.76	9247.46
451.94	9102.34
452.13	9266.18
452.31	9111.71
452.49	9013.40
452.68	9357.46
452.86	9315.33
453.05	9303.63
453.23	9530.66
453.42	9465.13
453.60	9385.55
453.78	9455.76
453.97	9401.93
454.15	9444.06
454.34	9551.73
454.52	9619.60
454.70	9790.46
454.89	9837.27
455.07	9834.93
455.26	9956.64
455.44	10059.62
455.62	9863.02
455.81	10099.41
455.99	9982.38
456.17	10061.96
456.36	10122.82
456.54	10200.05
456.73	10345.17
456.91	10595.61
457.09	10373.25
457.28	10438.79
457.46	10455.17
457.64	10476.24
457.83	10551.14
458.01	10321.76
458.19	10656.46
458.38	10600.29
458.56	10682.20
458.74	10841.36
458.93	10841.36
459.11	10647.10
459.29	10743.06
459.48	10843.70
459.66	10932.64
459.84	11023.92
460.03	11225.21
460.21	11265.00
460.39	11131.59
460.57	10920.94
460.76	11316.49
460.94	11286.06
461.12	10906.90
461.31	11197.12
461.49	11194.78
461.67	11112.86
461.85	11524.80
462.04	11337.56
462.22	11740.13
462.40	11758.85
462.59	11452.24
462.77	11641.82
462.95	11735.45
463.13	11534.16
463.32	11358.62
463.50	11634.80
463.68	11646.51
463.86	11901.62
464.05	11487.35
464.23	11700.34
464.41	11908.65
464.59	11492.03
464.78	12067.80
464.96	12088.87
465.14	11896.94
465.32	12074.82
465.50	12159.08
465.69	12088.87
465.87	12182.49
466.05	12358.03
466.23	12065.46
466.41	12252.70
466.60	12386.12
466.78	12147.38
466.96	12184.83
467.14	12168.45
467.32	12486.76
467.51	12638.89
467.69	12133.34
467.87	12362.71
468.05	12650.60
468.23	12498.46
468.41	12336.96
468.60	12519.53
468.78	12784.01
468.96	12596.76
469.14	12821.45
469.32	13247.43
469.50	12732.51
469.69	13004.02
469.87	13125.72
470.05	12994.65
470.23	13259.13
470.41	13348.08
470.59	13245.09
470.77	13088.28
470.95	13109.34
471.14	13497.87
471.32	13303.60
471.50	13603.19
471.68	13701.50
471.86	13460.42
472.04	13596.17
472.22	14054.92
472.40	13855.97
472.58	13809.16
472.77	14090.02
472.95	14017.47
473.13	14698.56
473.31	13989.38
473.49	14260.88
473.67	13940.23
473.85	14286.63
474.03	14740.69
474.21	14586.22
474.39	14719.63
474.57	14626.01
474.75	14733.67
474.93	15016.88
475.12	14925.60
475.30	14965.39
475.48	14920.92
475.66	15218.16
475.84	15108.16
476.02	15241.57
476.20	15365.62
476.38	15920.32
476.56	15913.30
476.74	15873.51
476.92	15789.25
477.10	15941.39
477.28	16280.77
477.46	16180.12
477.64	16238.64
477.82	16575.67
478.00	17106.98
478.18	16669.30
478.36	16783.98
478.54	17371.46
478.72	17235.70
478.90	17390.18
479.08	17788.07
479.26	17771.69
479.44	17664.02
479.62	18010.42
479.80	17994.04
479.98	18305.33
480.16	18597.90
480.34	18457.46
480.52	18590.88
480.70	18574.49
480.88	18628.32
481.06	18794.50
481.24	18843.65
481.41	19000.47
481.59	19290.70
481.77	19683.91
481.95	19426.45
482.13	19873.49
482.31	19917.96
482.49	20159.03
482.67	20016.26
482.85	20226.91
483.03	20650.55
483.21	20592.03
483.39	20971.20
483.57	20875.24
483.74	21252.06
483.92	21355.05
484.10	21001.63
484.28	21678.04
484.46	21996.35
484.64	22129.77
484.82	21954.22
485.00	22230.41
485.18	23199.39
485.35	22829.59
485.53	23194.71
485.71	22970.02
485.89	23218.11
486.07	23115.13
486.25	23435.78
486.43	23515.36
486.61	23714.31
486.78	23852.40
486.96	24121.56
487.14	24449.24
487.32	24465.62
487.50	24816.70
487.68	24910.32
487.85	25490.77
488.03	25663.97
488.21	26080.59
488.39	25638.23
488.57	26225.70
488.75	26197.62
488.92	26403.58
489.10	26431.67
489.28	26644.66
489.46	27101.06
489.64	27236.81
489.81	27393.63
489.99	27630.02
490.17	27660.45
490.35	27906.21
490.53	27740.03
490.70	28332.18
490.88	28435.17
491.06	28804.97
491.24	28678.58
491.41	28879.87
491.59	29109.24
491.77	29567.99
491.95	29923.75
492.13	29874.60
492.30	30099.29
492.48	29977.58
492.66	30000.99
492.84	30288.87
493.01	30801.45
493.19	30864.64
493.37	31260.20
493.54	31054.23
493.72	31578.51
493.90	31417.01
494.08	31892.14
494.25	31943.63
494.43	32095.77
494.61	32678.56
494.79	32481.95
494.96	32336.84
495.14	32830.69
495.32	33125.60
495.49	32903.25
495.67	33249.65
495.85	33797.34
496.02	33865.21
496.20	33940.11
496.38	34146.08
496.55	34520.56
496.73	34787.38
496.91	34696.10
497.09	34520.56
497.26	34742.91
497.44	34960.58
497.62	35154.85
497.79	35524.65
497.97	35402.94
498.14	36065.31
498.32	36137.87
498.50	35754.02
498.67	36861.10
498.85	36594.28
499.03	36790.88
499.20	36484.27
499.38	37015.57
499.56	37111.53
499.73	36879.82
499.91	37448.57
500.08	37567.94
500.26	37240.26
500.44	37888.59
500.61	37633.47
500.79	38075.84
500.97	38284.14
501.14	38515.86
501.32	38232.65
501.49	38326.27
501.67	38724.16
501.84	38967.58
502.02	39117.37
502.20	39421.64
502.37	39126.74
502.55	39234.40
502.72	39218.02
502.90	39419.30
503.07	39620.59
503.25	39803.15
503.43	39597.18
503.60	40203.38
503.78	39936.56
503.95	40170.61
504.13	40327.43
504.30	40156.57
504.48	40769.79
504.65	40814.26
504.83	41008.53
505.01	40849.37
505.18	41130.23
505.36	41532.81
505.53	41495.36
505.71	41727.07
505.88	41584.30
506.06	41394.71
506.23	41886.23
506.41	41677.92
506.58	42232.63
506.76	42148.37
506.93	42473.70
507.11	42328.59
507.28	42532.22
507.46	43077.56
507.63	42892.66
507.81	43381.83
507.98	42700.73
508.16	43131.39
508.33	43452.05
508.50	43320.98
508.68	43540.99
508.85	43742.27
509.03	44065.27
509.20	44062.93
509.38	44463.16
509.55	44275.91
509.73	44516.99
509.90	44467.84
510.08	44292.30
510.25	44486.56
510.42	45134.89
510.60	45071.70
510.77	44921.90
510.95	45301.07
511.12	44858.71
511.30	44987.44
511.47	45434.48
511.64	45382.99
511.82	45818.33
511.99	45375.97
512.17	45942.38
512.34	46057.06
512.51	46293.46
512.69	46342.61
512.86	46705.39
513.04	46724.11
513.21	46789.65
513.38	46817.74
513.56	46866.89
513.73	46564.96
513.90	46731.14
514.08	47075.19
514.25	47503.51
514.43	47330.31
514.60	47145.41
514.77	47423.93
514.95	47423.93
515.12	47351.38
515.29	47374.78
515.47	47665.01
515.64	47859.27
515.81	47873.32
515.99	48002.05
516.16	48079.28
516.33	48325.04
516.51	48786.13
516.68	48170.57
516.85	48835.28
517.03	48797.83
517.20	49088.06
517.37	48793.15
517.54	48765.06
517.72	48964.01
517.89	49312.75
518.06	49169.97
518.24	49120.82
518.41	49392.33
518.58	49450.84
518.75	49282.32
518.93	49265.94
519.10	49607.65
519.27	49483.61
519.45	49645.10
519.62	50089.80
519.79	50064.06
519.96	49801.92
520.14	50141.30
520.31	50031.29
520.48	50506.42
520.65	50326.20
520.83	50417.48
521.00	50527.48
521.17	50623.45
521.34	50803.67
521.52	50731.11
521.69	50866.86
521.86	51051.76
522.03	51227.31
522.20	51484.76
522.38	51608.81
522.55	51351.35
522.72	51267.09
522.89	51004.95
523.07	51657.96
523.24	51496.47
523.41	51810.10
523.58	51332.63
523.75	51859.25
523.92	51723.50
524.10	51709.46
524.27	51995.00
524.44	52062.88
524.61	51901.38
524.78	52303.95
524.96	52264.16
525.13	51901.38
525.30	52495.88
525.47	52472.47
525.64	52699.50
525.81	52680.78
525.98	52713.55
526.16	52640.99
526.33	52692.48
526.50	53008.45
526.67	52931.22
526.84	52706.52
527.01	52893.77
527.18	52999.09
527.36	52879.72
527.53	52736.95
527.70	53511.67
527.87	53373.58
528.04	53027.18
528.21	53434.43
528.38	53436.77
528.55	53474.22
528.72	53216.76
528.89	53474.22
529.07	53104.41
529.24	53024.84
529.41	53612.31
529.58	53450.81
529.75	53858.07
529.92	53696.57
530.09	53947.01
530.26	53832.32
530.43	54042.97
530.60	53867.43
530.77	53525.71
530.94	53977.43
531.11	53773.81
531.28	53979.78
531.46	54129.57
531.63	54089.78
531.80	54330.86
531.97	54246.60
532.14	54433.84
532.31	54192.76
532.48	54642.15
532.65	54513.42
532.82	54642.15
532.99	54667.89
533.16	54473.63
533.33	54679.60
533.50	54946.42
533.67	54787.26
533.84	54644.49
534.01	54775.56
534.18	54908.97
534.35	55145.36
534.52	55016.63
534.69	55147.70
534.86	55222.60
535.03	54981.52
535.20	55093.87
535.37	55381.76
535.54	55409.84
535.71	55203.88
535.88	55662.62
536.05	55126.64
536.22	55828.80
536.38	55657.94
536.55	55348.99
536.72	55707.09
536.89	55409.84
537.06	55657.94
537.23	55760.92
537.40	55667.30
537.57	55636.87
537.74	55735.18
537.91	55992.64
538.08	55760.92
538.25	55615.81
538.42	56006.68
538.59	56217.33
538.75	55901.36
538.92	56016.04
539.09	56397.55
539.26	55887.31
539.43	56238.39
539.60	56158.81
539.77	56147.11
539.94	56402.23
540.11	56442.02
540.28	56418.61
540.44	56465.42
540.61	56507.55
540.78	56498.19
540.95	56278.18
541.12	56378.82
541.29	56308.61
541.46	56488.83
541.62	56580.11
541.79	56694.80
541.96	56601.18
542.13	56645.65
542.30	56713.52
542.47	56903.10
542.63	57102.05
542.80	56825.87
542.97	57155.88
543.14	57317.38
543.31	57198.01
543.48	57048.22
543.64	57488.24
543.81	57415.68
543.98	57219.08
544.15	57460.15
544.32	57310.36
544.48	57771.44
544.65	57303.34
544.82	57198.01
544.99	56928.85
545.16	57703.57
545.32	57361.85
545.49	57586.54
545.66	57869.75
545.83	57483.56
546.00	57799.53
546.16	57675.48
546.33	57652.08
546.50	57326.74
546.67	57668.46
546.83	57481.22
547.00	57815.91
547.17	57675.48
547.34	57757.40
547.50	57836.98
547.67	58145.93
547.84	58040.60
548.00	58202.10
548.17	58049.97
548.34	58183.38
548.51	58244.23
548.67	58115.50
548.84	58028.90
549.01	58197.42
549.18	58157.63
549.34	58321.47
549.51	58213.80
549.68	58225.51
549.84	58209.12
550.01	58316.79
550.18	58237.21
550.34	58401.05
550.51	58466.58
550.68	58333.17
550.84	58347.21
551.01	58651.48
551.18	58459.56
551.34	58431.47
551.51	58637.44
551.68	58410.41
551.84	58576.59
552.01	58412.75
552.18	58550.84
552.34	58597.65
552.51	58749.79
552.68	58527.44
552.84	58651.48
553.01	58953.41
553.18	58878.52
553.34	58822.34
553.51	58794.26
553.67	58691.27
553.84	58988.52
554.01	59063.42
554.17	58962.78
554.34	59152.36
554.51	58810.64
554.67	58955.75
554.84	58995.54
555.00	58810.64
555.17	59044.69
555.33	58979.16
555.50	58915.96
555.67	59025.97
555.83	59047.04
556.00	59341.94
556.16	59334.92
556.33	59234.28
556.50	59234.28
556.66	59498.76
556.83	59128.95
556.99	59547.91
557.16	59400.46
557.32	59412.16
557.49	59482.37
557.65	59341.94
557.82	59576.00
557.98	59103.21
558.15	59671.96
558.32	59505.78
558.48	59351.30
558.65	59564.29
558.81	59473.01
558.98	59594.72
559.14	59608.76
559.31	59386.41
559.47	59735.15
559.64	59611.10
559.80	59568.97
559.97	59744.51
560.13	59412.16
560.30	59587.70
560.46	59648.55
560.63	59671.96
560.79	59608.76
560.96	59840.48
561.12	59707.07
561.29	59814.73
561.45	59784.30
561.61	59770.26
561.78	59770.26
561.94	59751.54
562.11	59749.20
562.27	59756.22
562.44	59973.89
562.60	60177.51
562.77	60018.36
562.93	59756.22
563.10	60109.64
563.26	59803.03
563.42	60254.75
563.59	59781.96
563.75	60081.55
563.92	60128.36
564.08	59999.63
564.24	60133.04
564.41	60313.26
564.57	60294.54
564.74	60264.11
564.90	60128.36
565.07	60123.68
565.23	59999.63
565.39	60097.94
565.56	60280.50
565.72	60111.98
565.88	60250.07
566.05	60196.24
566.21	60130.70
566.38	60226.66
566.54	60133.04
566.70	60329.65
566.87	60488.80
567.03	60126.02
567.19	60425.61
567.36	60331.99
567.52	60395.18
567.68	60404.55
567.85	60310.92
568.01	60378.80
568.17	60229.01
568.34	60526.25
568.50	60526.25
568.66	60516.89
568.83	60467.74
568.99	60500.51
569.15	60451.36
569.32	60563.70
569.48	60378.80
569.64	60521.57
569.81	60350.71
569.97	60439.65
570.13	60573.06
570.30	60175.17
570.46	60500.51
570.62	60495.83
570.78	60334.33
570.95	60259.43
571.11	60507.53
571.27	60339.01
571.43	60374.12
571.60	60505.19
571.76	60596.47
571.92	60603.49
572.09	60615.19
572.25	60619.88
572.41	60418.59
572.57	60540.30
572.74	60643.28
572.90	60474.76
573.06	60694.77
573.22	60753.29
573.38	60783.71
573.55	60430.29
573.71	60654.98
573.87	60671.37
574.03	60601.15
574.20	60605.83
574.36	60580.09
574.52	60687.75
574.68	60832.86
574.84	60725.20
575.01	60697.11
575.17	60544.98
575.33	60811.80
575.49	60594.13
575.65	60690.09
575.82	60837.54
575.98	60671.37
576.14	60940.53
576.30	60767.33
576.46	60764.99
576.62	60851.59
576.79	60711.16
576.95	60722.86
577.11	60654.98
577.27	60671.37
577.43	60795.42
577.59	60764.99
577.75	60591.79
577.92	60673.71
578.08	60470.08
578.24	60772.01
578.40	60912.44
578.56	61066.92
578.72	60832.86
578.88	61029.47
579.04	60872.65
579.21	60956.91
579.37	60893.72
579.53	60874.99
579.69	60926.49
579.85	60884.36
580.01	60779.03
580.17	60757.97
580.33	60903.08
580.49	60931.17
580.65	61087.98
580.82	60865.63
580.98	60846.91
581.14	60736.90
581.30	61017.77
581.46	60860.95
581.62	60985.00
581.78	60816.48
581.94	60961.59
582.10	60931.17
582.26	60935.85
582.42	60739.24
582.58	61024.79
582.74	60917.12
582.90	60694.77
583.06	60816.48
583.22	60657.32
583.38	60783.71
583.54	60849.25
583.70	61073.94
583.86	60910.10
584.02	60818.82
584.18	61085.64
584.34	61153.52
584.50	60921.80
584.66	60907.76
584.82	60783.71
584.98	61240.12
585.14	61041.17
585.30	61022.45
585.46	60926.49
585.62	61179.26
585.78	61120.75
585.94	60772.01
586.10	61146.50
586.26	60851.59
586.42	61116.07
586.58	60947.55
586.74	61038.83
586.90	60893.72
587.06	60975.64
587.22	61071.60
587.38	61059.90
587.54	61153.52
587.70	61340.76
587.86	61144.16
588.02	60910.10
588.18	61130.11
588.34	60992.02
588.49	61151.18
