SpectraSuite Data File
++++++++++++++++++++++++++++++++++++
Date: Fri Oct 25 10:43:49 EDT 2013
User: price-jones
Dark Spectrum Present: No
Reference Spectrum Present: No
Number of Sampled Component Spectra: 1
Spectrometers: USB2+H05261
Integration Time (usec): 100000 (USB2+H05261)
Spectra Averaged: 1 (USB2+H05261)
Boxcar Smoothing: 0 (USB2+H05261)
Correct for Electrical Dark: No (USB2+H05261)
Strobe/Lamp Enabled: No (USB2+H05261)
Correct for Detector Non-linearity: No (USB2+H05261)
Correct for Stray Light: No (USB2+H05261)
Number of Pixels in Processed Spectrum: 2048
>>>>>Begin Processed Spectral Data<<<<<
365.73	11.70
365.92	11.70
366.12	11.70
366.32	18.72
366.52	42.13
366.72	46.81
366.91	23.41
367.11	60.85
367.31	4.68
367.51	14.04
367.70	25.75
367.90	11.70
368.10	18.72
368.30	0.00
368.49	14.04
368.69	105.32
368.89	7.02
369.09	74.90
369.28	21.06
369.48	37.45
369.68	51.49
369.87	88.94
370.07	56.17
370.27	121.71
370.47	224.69
370.66	337.04
370.86	388.53
371.06	547.69
371.25	533.64
371.45	360.44
371.65	449.38
371.84	407.25
372.04	489.17
372.24	475.13
372.44	559.39
372.63	484.49
372.83	519.60
373.03	519.60
373.22	468.11
373.42	585.13
373.62	463.43
373.81	489.17
374.01	507.90
374.21	538.32
374.40	524.28
374.60	510.24
374.79	575.77
374.99	624.92
375.19	554.71
375.38	585.13
375.58	601.52
375.78	627.26
375.97	566.41
376.17	545.34
376.37	580.45
376.56	650.67
376.76	566.41
376.95	641.31
377.15	627.26
377.35	599.18
377.54	667.05
377.74	594.50
377.93	601.52
378.13	638.97
378.33	648.33
378.52	739.61
378.72	667.05
378.91	657.69
379.11	634.29
379.31	650.67
379.50	713.86
379.70	681.10
379.89	678.76
380.09	648.33
380.28	699.82
380.48	795.78
380.68	641.31
380.87	676.41
381.07	699.82
381.26	772.38
381.46	643.65
381.65	676.41
381.85	718.54
382.04	727.91
382.24	718.54
382.43	716.20
382.63	683.44
382.83	779.40
383.02	702.16
383.22	763.01
383.41	674.07
383.61	676.41
383.80	765.36
384.00	730.25
384.19	748.97
384.39	758.33
384.58	746.63
384.78	835.57
384.97	779.40
385.17	821.53
385.36	809.83
385.56	833.23
385.75	732.59
385.95	866.00
386.14	812.17
386.34	840.25
386.53	905.79
386.72	866.00
386.92	910.47
387.11	814.51
387.31	795.78
387.50	894.08
387.70	842.59
387.89	870.68
388.09	805.14
388.28	807.48
388.48	873.02
388.67	908.13
388.86	992.39
389.06	919.83
389.25	929.19
389.45	926.85
389.64	1006.43
389.84	908.13
390.03	985.37
390.22	1062.60
390.42	959.62
390.61	1048.56
390.81	1104.73
391.00	1029.84
391.19	1142.18
391.39	997.07
391.58	1013.45
391.78	1057.92
391.97	1050.90
392.16	1001.75
392.36	999.41
392.55	1032.18
392.75	980.68
392.94	1048.56
393.13	1027.50
393.33	1064.94
393.52	1013.45
393.71	1172.61
393.91	1116.44
394.10	1032.18
394.29	1217.08
394.49	1081.33
394.68	1181.97
394.88	1238.14
395.07	1252.19
395.26	1163.25
395.46	1184.31
395.65	1224.10
395.84	1219.42
396.04	1238.14
396.23	1228.78
396.42	1207.72
396.62	1170.27
396.81	1296.66
397.00	1233.46
397.19	1256.87
397.39	1240.48
397.58	1385.60
397.77	1322.40
397.97	1397.30
398.16	1385.60
398.35	1467.52
398.55	1476.88
398.74	1483.90
398.93	1659.44
399.12	1474.54
399.32	1472.20
399.51	1423.05
399.70	1523.69
399.90	1612.63
400.09	1490.92
400.28	1591.56
400.47	1554.12
400.67	1685.19
400.86	1598.59
401.05	1748.38
401.24	1633.69
401.44	1746.04
401.63	1629.01
401.82	1654.76
402.01	1624.33
402.21	1701.57
402.40	1774.13
402.59	1860.73
402.78	1710.93
402.97	1729.66
403.17	1811.57
403.36	1724.97
403.55	1741.36
403.74	1809.23
403.93	1954.35
404.13	1837.32
404.32	1865.41
404.51	1877.11
404.70	1905.20
404.89	1820.94
405.09	1956.69
405.28	1987.11
405.47	1968.39
405.66	1919.24
405.85	1968.39
406.05	1954.35
406.24	1966.05
406.43	2036.27
406.62	2143.93
406.81	2148.61
407.00	2073.71
407.20	2090.10
407.39	2069.03
407.58	2342.88
407.77	2260.96
407.96	2249.25
408.15	2258.62
408.34	2228.19
408.54	2214.15
408.73	2230.53
408.92	2326.49
409.11	2251.60
409.30	2291.38
409.49	2279.68
409.68	2370.96
409.87	2368.62
410.07	2319.47
410.26	2370.96
410.45	2319.47
410.64	2469.27
410.83	2478.63
411.02	2417.77
411.21	2597.99
411.40	2527.78
411.59	2759.49
411.78	2633.10
411.98	2651.83
412.17	2708.00
412.36	2612.04
412.55	2647.15
412.74	2867.16
412.93	2668.21
413.12	2766.51
413.31	2796.94
413.50	2829.71
413.69	2778.22
413.88	2801.62
414.07	2895.24
414.26	2939.71
414.45	3045.04
414.64	3035.67
414.83	3021.63
415.02	3026.31
415.22	3066.10
415.41	3082.49
415.60	3061.42
415.79	3199.51
415.98	3197.17
416.17	3143.34
416.36	3239.30
416.55	3222.92
416.74	3253.34
416.93	3314.20
417.12	3349.31
417.31	3346.97
417.50	3276.75
417.69	3440.59
417.88	3311.86
418.07	3328.24
418.26	3410.16
418.45	3456.97
418.64	3541.23
418.83	3536.55
419.02	3578.68
419.21	3588.04
419.39	3592.72
419.58	3597.40
419.77	3517.83
419.96	3655.92
420.15	3733.15
420.34	3641.87
420.53	3775.28
420.72	3749.54
420.91	3824.44
421.10	3765.92
421.29	3847.84
421.48	3716.77
421.67	3885.29
421.86	3812.73
422.05	3826.78
422.24	3672.30
422.43	3735.50
422.61	3833.80
422.80	3918.06
422.99	3871.25
423.18	3796.35
423.37	3971.89
423.56	3899.33
423.75	3857.20
423.94	3761.24
424.13	3578.68
424.32	3747.20
424.50	3906.35
424.69	3915.72
424.88	3964.87
425.07	3943.80
425.26	3918.06
425.45	3768.26
425.64	3871.25
425.83	3850.18
426.01	4023.38
426.20	3981.25
426.39	4051.47
426.58	4037.42
426.77	3896.99
426.96	3960.19
427.15	3990.61
427.33	4060.83
427.52	4032.74
427.71	3981.25
427.90	4145.09
428.09	4091.26
428.28	4124.02
428.46	4175.52
428.65	4140.41
428.84	4250.41
429.03	4212.96
429.22	4231.69
429.40	4079.55
429.59	3974.23
429.78	3955.51
429.97	3798.69
430.16	4023.38
430.34	4053.81
430.53	4168.49
430.72	4128.70
430.91	4287.86
431.10	4402.55
431.28	4547.66
431.47	4599.15
431.66	4688.09
431.85	4360.42
432.03	4571.07
432.22	4524.26
432.41	4533.62
432.60	4681.07
432.79	4676.39
432.97	4823.84
433.16	4697.46
433.35	4690.43
433.54	4578.09
433.72	4704.48
433.91	4737.24
434.10	4566.39
434.28	4814.48
434.47	4863.63
434.66	4858.95
434.85	4786.40
435.03	4959.60
435.22	4894.06
435.41	5069.60
435.59	5123.43
435.78	4938.53
435.97	5191.31
436.16	5034.49
436.34	5177.26
436.53	5062.58
436.72	5198.33
436.90	5172.58
437.09	5203.01
437.28	5284.93
437.46	5186.63
437.65	5048.54
437.84	5163.22
438.02	4938.53
438.21	5132.79
438.40	5186.63
438.58	5355.15
438.77	5345.78
438.96	5298.97
439.14	5518.98
439.33	5516.64
439.52	5600.90
439.70	5659.42
439.89	5654.73
440.08	5671.12
440.26	5563.45
440.45	5708.57
440.63	5912.19
440.82	5806.87
441.01	5893.47
441.19	5891.13
441.38	5923.90
441.57	6031.56
441.75	6228.17
441.94	6258.59
442.12	6197.74
442.31	6331.15
442.50	6190.72
442.68	6312.42
442.87	6352.21
443.05	6399.02
443.24	6492.65
443.43	6534.78
443.61	6520.73
443.80	6595.63
443.98	6436.47
444.17	6176.67
444.35	6375.62
444.54	6462.22
444.73	6574.56
444.91	6483.28
445.10	6457.54
445.28	6399.02
445.47	6422.43
445.65	6558.18
445.84	6338.17
446.02	6595.63
446.21	6513.71
446.39	6588.61
446.58	6565.20
446.77	6829.68
446.95	6502.01
447.14	6506.69
447.32	6729.04
447.51	6684.57
447.69	6534.78
447.88	6506.69
448.06	6726.70
448.25	6670.53
448.43	6705.63
448.62	6588.61
448.80	6810.96
448.99	6850.75
449.17	6832.02
449.36	6623.72
449.54	6869.47
449.73	7176.08
449.91	7080.12
450.10	7112.89
450.28	7323.54
450.46	7021.61
450.65	7129.27
450.83	7192.47
451.02	7119.91
451.20	7234.60
451.39	7159.70
451.57	7190.13
451.76	7157.36
451.94	7330.56
452.13	7250.98
452.31	7283.75
452.49	7220.55
452.68	7269.70
452.86	7169.06
453.05	7407.80
453.23	7108.21
453.42	7248.64
453.60	7353.96
453.78	7693.34
453.97	7419.50
454.15	7295.45
454.34	7433.54
454.52	7573.97
454.70	7431.20
454.89	7400.77
455.07	7646.53
455.26	7632.49
455.44	7915.69
455.62	7878.24
455.81	7742.49
455.99	7674.62
456.17	7702.70
456.36	8070.17
456.54	8051.44
456.73	7971.86
456.91	8072.51
457.09	8224.64
457.28	8201.24
457.46	7896.97
457.64	8205.92
457.83	7903.99
458.01	7925.05
458.19	8212.94
458.38	8088.89
458.56	8229.32
458.74	8231.66
458.93	8154.43
459.11	8138.04
459.29	8283.16
459.48	8379.12
459.66	8121.66
459.84	8367.42
460.03	8430.61
460.21	8681.05
460.39	8498.49
460.57	8559.34
460.76	8535.93
460.94	8697.43
461.12	8613.17
461.31	8535.93
461.49	8748.92
461.67	8617.85
461.85	8739.56
462.04	8772.33
462.22	9001.70
462.40	8662.32
462.59	8879.99
462.77	8915.10
462.95	9018.08
463.13	9011.06
463.32	8973.61
463.50	9011.06
463.68	9022.77
463.86	8924.46
464.05	8908.08
464.23	9013.40
464.41	8952.55
464.59	8833.18
464.78	9217.03
464.96	9132.77
465.14	8992.34
465.32	9142.13
465.50	9170.22
465.69	9195.96
465.87	9303.63
466.05	9034.47
466.23	9177.24
466.41	9083.62
466.60	9488.53
466.78	9022.77
466.96	9177.24
467.14	9427.68
467.32	9451.08
467.51	9458.10
467.69	9320.01
467.87	9404.27
468.05	9490.87
468.23	9535.34
468.41	9504.92
468.60	9453.42
468.78	9654.71
468.96	9394.91
469.14	9511.94
469.32	9872.38
469.50	9390.23
469.69	9607.90
469.87	9675.77
470.05	9666.41
470.23	9708.54
470.41	9853.66
470.59	9818.55
470.77	9640.67
470.95	10071.33
471.14	10146.22
471.32	9872.38
471.50	10186.01
471.68	10373.25
471.86	10342.83
472.04	10293.68
472.22	10539.43
472.40	10345.17
472.58	10242.18
472.77	10424.75
472.95	10480.92
473.13	10661.14
473.31	10684.55
473.49	10583.90
473.67	10469.22
473.85	10677.52
474.03	10843.70
474.21	11014.56
474.39	10850.72
474.57	11014.56
474.75	11007.54
474.93	11101.16
475.12	11073.07
475.30	11105.84
475.48	11133.93
475.66	11367.98
475.84	11066.05
476.02	11370.32
476.20	11379.68
476.38	11307.13
476.56	11969.50
476.74	11962.48
476.92	11836.09
477.10	11775.24
477.28	12088.87
477.46	12201.21
477.64	12205.89
477.82	12278.45
478.00	12620.17
478.18	12320.58
478.36	12528.89
478.54	12648.26
478.72	12514.84
478.90	12699.75
479.08	13092.96
479.26	13097.64
479.44	13170.19
479.62	13336.37
479.80	13174.88
479.98	13385.52
480.16	13827.88
480.34	13584.47
480.52	13408.93
480.70	13813.84
480.88	13488.51
481.06	13989.38
481.24	13781.07
481.41	14249.18
481.59	14279.61
481.77	14188.33
481.95	14263.22
482.13	14441.11
482.31	14497.28
482.49	14981.77
482.67	14724.31
482.85	14995.81
483.03	15035.60
483.21	15372.64
483.39	15206.46
483.57	15309.44
483.74	15403.07
483.92	15410.09
484.10	15468.60
484.28	15829.04
484.46	15899.26
484.64	16285.45
484.82	15927.35
485.00	16196.51
485.18	16439.92
485.35	16566.31
485.53	16245.66
485.71	16266.72
485.89	16428.22
486.07	16304.17
486.25	16493.76
486.43	17064.85
486.61	16947.82
486.78	17221.66
486.96	16908.03
487.14	17425.29
487.32	17404.22
487.50	17860.63
487.68	18001.06
487.85	18132.13
488.03	18394.27
488.21	18368.52
488.39	18459.81
488.57	18600.24
488.75	18728.97
488.92	18878.76
489.10	19325.80
489.28	19389.00
489.46	19363.25
489.64	19377.30
489.81	19943.70
489.99	20006.90
490.17	20250.32
490.35	20374.36
490.53	20091.16
490.70	20327.55
490.88	20273.72
491.06	20802.68
491.24	20793.32
491.41	20620.12
491.59	20767.57
491.77	20683.31
491.95	21046.10
492.13	21137.38
492.30	21254.40
492.48	21458.03
492.66	21635.91
492.84	21563.36
493.01	21614.85
493.19	21832.52
493.37	22340.41
493.54	22485.53
493.72	22419.99
493.90	22604.89
494.08	23058.96
494.25	22944.27
494.43	22981.72
494.61	23147.90
494.79	23199.39
494.96	23016.83
495.14	23468.55
495.32	23501.32
495.49	23398.34
495.67	23920.28
495.85	23946.02
496.02	23971.77
496.20	24049.00
496.38	24233.91
496.55	24336.89
496.73	25055.43
496.91	24718.40
497.09	24762.87
497.26	24826.06
497.44	24863.51
497.62	25170.12
497.79	25429.92
497.97	25261.40
498.14	25172.46
498.32	25682.70
498.50	25624.18
498.67	26010.37
498.85	25743.55
499.03	26277.19
499.20	26150.81
499.38	26485.50
499.56	26361.45
499.73	26618.91
499.91	26125.06
500.08	26536.99
500.26	26307.62
500.44	26345.07
500.61	26733.60
500.79	26682.11
500.97	26658.70
501.14	26960.63
501.32	26918.50
501.49	26944.25
501.67	27105.74
501.84	27098.72
502.02	27466.19
502.20	27370.22
502.37	27810.25
502.55	27803.22
502.72	27510.66
502.90	28156.64
503.07	28009.19
503.25	28034.94
503.43	28044.30
503.60	27880.46
503.78	28158.99
503.95	27955.36
504.13	28512.41
504.30	28709.01
504.48	28701.99
504.65	28634.11
504.83	28947.75
505.01	28952.43
505.18	29228.61
505.36	29453.30
505.53	29273.08
505.71	29715.44
505.88	29619.48
506.06	29280.10
506.23	29329.25
506.41	29465.00
506.58	29982.26
506.76	29628.84
506.93	29804.38
507.11	29722.46
507.28	29802.04
507.46	30029.07
507.63	29984.60
507.81	30370.79
507.98	29858.21
508.16	30480.80
508.33	30473.78
508.50	30462.07
508.68	30703.15
508.85	31007.42
509.03	30604.84
509.20	30817.83
509.38	31440.42
509.55	31166.57
509.73	30923.16
509.90	31126.78
510.08	31192.32
510.25	30897.41
510.42	31197.00
510.60	31503.61
510.77	31707.24
510.95	32477.27
511.12	31728.30
511.30	32081.72
511.47	32032.57
511.64	32533.45
511.82	32290.03
511.99	31648.72
512.17	32456.21
512.34	32371.95
512.51	32114.49
512.69	32783.88
512.86	32444.51
513.04	32772.18
513.21	32531.11
513.38	32718.35
513.56	32465.57
513.73	32278.33
513.90	32858.78
514.08	32748.78
514.25	33193.48
514.43	33078.79
514.60	33392.42
514.77	33268.37
514.95	33383.06
515.12	33682.65
515.29	33202.84
515.47	33806.70
515.64	33764.57
515.81	33640.52
515.99	33638.18
516.16	33483.70
516.33	33441.57
516.51	33603.07
516.68	33310.50
516.85	33212.20
517.03	33493.07
517.20	33687.33
517.37	34181.18
517.54	34326.30
517.72	33979.90
517.89	33659.24
518.06	33921.38
518.24	34279.49
518.41	34494.82
518.58	34452.69
518.75	34433.96
518.93	34653.97
519.10	34726.53
519.27	35194.64
519.45	34728.87
519.62	35482.52
519.79	34827.17
519.96	35431.03
520.14	35161.87
520.31	35562.10
520.48	35283.58
520.65	35248.47
520.83	35922.54
521.00	35819.56
521.17	35723.60
521.34	35653.38
521.52	35728.28
521.69	35648.70
521.86	36554.49
522.03	36250.22
522.20	36259.58
522.38	36346.18
522.55	36187.02
522.72	35838.28
522.89	36306.39
523.07	36720.66
523.24	36821.31
523.41	36662.15
523.58	36708.96
523.75	37303.46
523.92	36966.42
524.10	36861.10
524.27	37226.22
524.44	37291.76
524.61	37483.68
524.78	37434.53
524.96	37647.52
525.13	37249.63
525.30	37368.99
525.47	37488.36
525.64	37359.63
525.81	37834.76
525.98	37308.14
526.16	37226.22
526.33	37170.05
526.50	37205.16
526.67	37064.72
526.84	37193.45
527.01	37811.35
527.18	37801.99
527.36	37958.81
527.53	38213.93
527.70	38508.83
527.87	38387.13
528.04	37958.81
528.21	38719.48
528.38	38040.73
528.55	38892.68
528.72	38838.85
528.89	38913.75
529.07	38693.74
529.24	38759.27
529.41	38785.02
529.58	38885.66
529.75	38862.26
529.92	39023.75
530.09	39393.56
530.26	38897.36
530.43	39159.50
530.60	38749.91
530.77	39255.46
530.94	39487.18
531.11	39463.77
531.28	39835.92
531.46	39419.30
531.63	39922.52
531.80	39208.65
531.97	39405.26
532.14	39218.02
532.31	38803.74
532.48	39166.52
532.65	39337.38
532.82	39384.19
532.99	39981.03
533.16	39473.13
533.33	39861.66
533.50	39889.75
533.67	39894.43
533.84	39768.04
534.01	40142.53
534.18	39885.07
534.35	40219.77
534.52	39559.73
534.69	39955.29
534.86	40414.03
535.03	40573.19
535.20	40395.31
535.37	40732.34
535.54	40708.94
535.71	40840.01
535.88	40486.59
536.05	40383.60
536.22	40570.85
536.38	40612.98
536.55	40418.71
536.72	40367.22
536.89	40236.15
537.06	40568.51
537.23	41233.22
537.40	40699.58
537.57	41088.10
537.74	41118.53
537.91	40971.08
538.08	41158.32
538.25	41347.90
538.42	41539.83
538.59	41336.20
538.75	41230.88
538.92	41125.55
539.09	41024.91
539.26	41544.51
539.43	41123.21
539.60	41120.87
539.77	40832.99
539.94	41460.25
540.11	41200.45
540.28	41104.49
540.44	41305.77
540.61	41296.41
540.78	41191.09
540.95	41631.11
541.12	41113.85
541.29	41181.73
541.46	41572.60
541.62	41958.78
541.79	42000.91
541.96	41256.62
542.13	41949.42
542.30	41830.05
542.47	42029.00
542.63	41694.30
542.80	42080.49
542.97	42204.54
543.14	42251.35
543.31	42583.71
543.48	42307.52
543.64	42644.56
543.81	42880.95
543.98	42962.87
544.15	42660.94
544.32	42822.44
544.48	43379.49
544.65	42691.37
544.82	43107.99
544.99	42897.34
545.16	42780.31
545.32	42588.39
545.49	43232.04
545.66	43480.13
545.83	42651.58
546.00	43239.06
546.16	42749.88
546.33	42738.18
546.50	42880.95
546.67	43540.99
546.83	42995.64
547.00	43014.37
547.17	42761.59
547.34	43196.93
547.50	42930.11
547.67	43323.32
547.84	43278.85
548.00	43798.44
548.17	43653.33
548.34	43573.75
548.51	44182.29
548.67	43976.33
548.84	43711.84
549.01	43562.05
549.18	43215.65
549.34	43449.70
549.51	43552.69
549.68	43938.88
549.84	44126.12
550.01	44044.20
550.18	43786.74
550.34	44032.50
550.51	43693.12
550.68	43728.23
550.84	43473.11
551.01	43948.24
551.18	43971.64
551.34	43765.68
551.51	44329.75
551.68	43711.84
551.84	44119.10
552.01	44032.50
552.18	43995.05
552.34	44294.64
552.51	44467.84
552.68	43587.80
552.84	44151.87
553.01	44823.60
553.18	44348.47
553.34	44196.34
553.51	44114.42
553.67	44765.09
553.84	44896.16
554.01	44725.30
554.17	44699.55
554.34	44786.15
554.51	44414.01
554.67	44472.52
554.84	44638.70
555.00	44357.83
555.17	44406.98
555.33	44739.34
555.50	44877.43
555.67	44898.50
555.83	44584.86
556.00	44914.88
556.16	45050.63
556.33	44559.12
556.50	44673.81
556.66	44802.53
556.83	44502.95
556.99	44531.03
557.16	44851.69
557.32	44772.11
557.49	45301.07
557.65	44844.66
557.82	44596.57
557.98	45029.57
558.15	45092.76
558.32	45453.20
558.48	44968.71
558.65	44832.96
558.81	45394.69
558.98	44872.75
559.14	45015.52
559.31	44474.86
559.47	44942.97
559.64	45067.02
559.80	44973.39
559.97	45516.40
560.13	44844.66
560.30	45095.10
560.46	45429.80
560.63	45294.05
560.79	45280.00
560.96	45366.60
561.12	45296.39
561.29	45022.54
561.45	45067.02
561.61	45109.14
561.78	45134.89
561.94	44891.48
562.11	45373.63
562.27	45359.58
562.44	45734.07
562.60	45397.03
562.77	45434.48
562.93	45338.52
563.10	45818.33
563.26	45174.68
563.42	45663.85
563.59	45640.45
563.75	45539.80
563.92	45567.89
564.08	45315.11
564.24	45593.64
564.41	45415.76
564.57	45308.09
564.74	45633.42
564.90	45502.35
565.07	45558.53
565.23	45734.07
565.39	45165.32
565.56	45469.59
565.72	44949.99
565.88	45312.77
566.05	45319.79
566.21	45251.92
566.38	45167.66
566.54	45191.06
566.70	45867.48
566.87	45989.19
567.03	45427.46
567.19	46382.40
567.36	46031.32
567.52	45776.20
567.68	45577.25
567.85	45825.35
568.01	45750.45
568.17	45830.03
568.34	46007.91
568.50	45715.34
568.66	45172.34
568.83	45670.87
568.99	45418.10
569.15	45808.96
569.32	45972.80
569.48	45654.49
569.64	46007.91
569.81	45928.33
569.97	45448.52
570.13	45612.36
570.30	45478.95
570.46	45443.84
570.62	45593.64
570.78	45542.14
570.95	45478.95
571.11	45776.20
571.27	45687.26
571.43	45464.91
571.60	46043.02
571.76	45579.59
571.92	46000.89
572.09	45918.97
572.25	45895.56
572.41	46110.89
572.57	46190.47
572.74	46447.93
572.90	45855.78
573.06	45701.30
573.22	45986.85
573.38	45853.44
573.55	45701.30
573.71	46288.77
573.87	46075.79
574.03	45673.21
574.20	45855.78
574.36	45535.12
574.52	45989.19
574.68	45642.79
574.84	45895.56
575.01	45441.50
575.17	45975.14
575.33	45532.78
575.49	45530.44
575.65	45778.54
575.82	46330.90
575.98	45738.75
576.14	46265.37
576.30	45914.29
576.46	46054.72
576.62	45696.62
576.79	45764.49
576.95	45521.08
577.11	46106.21
577.27	45947.06
577.43	45872.16
577.59	45698.96
577.75	45731.73
577.92	45298.73
578.08	45790.24
578.24	45457.88
578.40	46050.04
578.56	46164.73
578.72	45975.14
578.88	46239.62
579.04	46234.94
579.21	45933.01
579.37	45886.20
579.53	46256.01
579.69	45530.44
579.85	46190.47
580.01	45897.91
580.17	45998.55
580.33	45846.41
580.49	45958.76
580.65	46335.59
580.82	46174.09
580.98	45916.63
581.14	46134.30
581.30	46136.64
581.46	46010.25
581.62	46089.83
581.78	45867.48
581.94	46527.51
582.10	46157.70
582.26	45951.74
582.42	46256.01
582.58	46127.28
582.74	45986.85
582.90	46270.05
583.06	46274.73
583.22	46038.34
583.38	46504.10
583.54	46213.88
583.70	45986.85
583.86	46087.49
584.02	46169.41
584.18	46452.61
584.34	45736.41
584.50	46127.28
584.66	45991.53
584.82	45759.81
584.98	46480.70
585.14	46227.92
585.30	45696.62
585.46	46209.20
585.62	45848.75
585.78	46066.42
585.94	45638.11
586.10	46094.51
586.26	45638.11
586.42	46305.16
586.58	46265.37
586.74	46181.11
586.90	45703.64
587.06	46155.36
587.22	46349.63
587.38	45921.31
587.54	45811.31
587.70	45949.40
587.86	45837.05
588.02	46274.73
588.18	46036.00
588.34	45989.19
588.49	45553.85
588.65	45696.62
588.81	45378.31
588.97	45581.93
589.13	45830.03
589.29	45586.61
589.45	46005.57
589.61	46136.64
589.77	46171.75
589.93	45977.48
