SpectraSuite Data File
++++++++++++++++++++++++++++++++++++
Date: Fri Oct 25 11:33:53 EDT 2013
User: price-jones
Dark Spectrum Present: No
Reference Spectrum Present: No
Number of Sampled Component Spectra: 1
Spectrometers: USB2+H05261
Integration Time (usec): 100000 (USB2+H05261)
Spectra Averaged: 1 (USB2+H05261)
Boxcar Smoothing: 0 (USB2+H05261)
Correct for Electrical Dark: No (USB2+H05261)
Strobe/Lamp Enabled: No (USB2+H05261)
Correct for Detector Non-linearity: No (USB2+H05261)
Correct for Stray Light: No (USB2+H05261)
Number of Pixels in Processed Spectrum: 2048
>>>>>Begin Processed Spectral Data<<<<<
365.73	308.95
365.92	308.95
366.12	308.95
366.32	196.60
366.52	224.69
366.72	203.63
366.91	138.09
367.11	142.77
367.31	145.11
367.51	166.18
367.70	212.99
367.90	222.35
368.10	205.97
368.30	159.16
368.49	212.99
368.69	205.97
368.89	210.65
369.09	248.10
369.28	241.08
369.48	224.69
369.68	276.18
369.87	236.39
370.07	280.86
370.27	367.46
370.47	372.15
370.66	447.04
370.86	538.32
371.06	589.82
371.25	531.30
371.45	503.22
371.65	552.37
371.84	533.64
372.04	557.05
372.24	613.22
372.44	641.31
372.63	622.58
372.83	620.24
373.03	552.37
373.22	645.99
373.42	695.14
373.62	589.82
373.81	596.84
374.01	603.86
374.21	671.73
374.40	631.94
374.60	688.12
374.79	681.10
374.99	645.99
375.19	678.76
375.38	585.13
375.58	648.33
375.78	650.67
375.97	748.97
376.17	758.33
376.37	667.05
376.56	702.16
376.76	695.14
376.95	734.93
377.15	720.88
377.35	608.54
377.54	699.82
377.74	636.63
377.93	678.76
378.13	770.04
378.33	650.67
378.52	809.83
378.72	748.97
378.91	716.20
379.11	716.20
379.31	706.84
379.50	657.69
379.70	674.07
379.89	718.54
380.09	753.65
380.28	753.65
380.48	746.63
380.68	739.61
380.87	781.74
381.07	697.48
381.26	784.08
381.46	793.44
381.65	753.65
381.85	777.06
382.04	725.57
382.24	781.74
382.43	763.01
382.63	760.67
382.83	741.95
383.02	851.96
383.22	802.80
383.41	777.06
383.61	828.55
383.80	884.72
384.00	851.96
384.19	873.02
384.39	849.61
384.58	812.17
384.78	847.27
384.97	802.80
385.17	854.30
385.36	816.85
385.56	805.14
385.75	748.97
385.95	873.02
386.14	894.08
386.34	809.83
386.53	912.81
386.72	835.57
386.92	976.00
387.11	788.76
387.31	917.49
387.50	936.21
387.70	912.81
387.89	875.36
388.09	870.68
388.28	922.17
388.48	884.72
388.67	924.51
388.86	917.49
389.06	954.94
389.25	1001.75
389.45	936.21
389.64	971.32
389.84	983.02
390.03	903.45
390.22	1027.50
390.42	898.77
390.61	945.58
390.81	936.21
391.00	990.05
391.19	1022.81
391.39	924.51
391.58	1086.01
391.78	1004.09
391.97	994.73
392.16	1046.22
392.36	1011.11
392.55	992.39
392.75	973.66
392.94	1050.90
393.13	1006.43
393.33	1032.18
393.52	1083.67
393.71	1074.31
393.91	1109.41
394.10	1081.33
394.29	1097.71
394.49	1078.99
394.68	1151.54
394.88	1151.54
395.07	1125.80
395.26	1093.03
395.46	1114.10
395.65	1137.50
395.84	1233.46
396.04	1203.04
396.23	1186.65
396.42	1214.74
396.62	1193.67
396.81	1184.31
397.00	1224.10
397.19	1200.69
397.39	1214.74
397.58	1343.47
397.77	1261.55
397.97	1263.89
398.16	1240.48
398.35	1203.04
398.55	1334.11
398.74	1282.61
398.93	1331.76
399.12	1308.36
399.32	1282.61
399.51	1397.30
399.70	1291.98
399.90	1334.11
400.09	1310.70
400.28	1313.04
400.47	1420.71
400.67	1376.24
400.86	1341.13
401.05	1369.21
401.24	1434.75
401.44	1392.62
401.63	1483.90
401.82	1453.47
402.01	1460.49
402.21	1383.26
402.40	1434.75
402.59	1446.45
402.78	1500.28
402.97	1390.28
403.17	1446.45
403.36	1610.29
403.55	1511.99
403.74	1636.03
403.93	1483.90
404.13	1579.86
404.32	1568.16
404.51	1556.46
404.70	1568.16
404.89	1614.97
405.09	1696.89
405.28	1694.55
405.47	1638.38
405.66	1640.72
405.85	1685.19
406.05	1692.21
406.24	1804.55
406.43	1762.42
406.62	1809.23
406.81	1811.57
407.00	1867.75
407.20	1692.21
407.39	1710.93
407.58	1823.28
407.77	1844.34
407.96	1909.88
408.15	1856.04
408.34	1912.22
408.54	1895.83
408.73	2078.40
408.92	1856.04
409.11	1898.17
409.30	2038.61
409.49	2008.18
409.68	1989.46
409.87	1935.62
410.07	2022.22
410.26	2104.14
410.45	2026.90
410.64	1954.35
410.83	2143.93
411.02	2120.53
411.21	2237.55
411.40	2050.31
411.59	2239.89
411.78	2200.10
411.98	2108.82
412.17	2167.34
412.36	2284.36
412.55	2279.68
412.74	2312.45
412.93	2363.94
413.12	2314.79
413.31	2445.86
413.50	2399.05
413.69	2331.17
413.88	2492.67
414.07	2305.43
414.26	2445.86
414.45	2448.20
414.64	2623.74
414.83	2600.34
415.02	2614.38
415.22	2607.36
415.41	2644.81
415.60	2670.55
415.79	2565.23
415.98	2691.62
416.17	2672.89
416.36	2656.51
416.55	2693.96
416.74	2787.58
416.93	2878.86
417.12	2836.73
417.31	2834.39
417.50	2932.69
417.69	3052.06
417.88	2897.58
418.07	2923.33
418.26	3035.67
418.45	2916.31
418.64	3094.19
418.83	3000.57
419.02	3052.06
419.21	3133.98
419.39	3040.36
419.58	3012.27
419.77	3019.29
419.96	3166.74
420.15	3248.66
420.34	3073.12
420.53	3145.68
420.72	3183.13
420.91	3335.26
421.10	3133.98
421.29	3300.16
421.48	3265.05
421.67	3351.65
421.86	3122.27
422.05	3222.92
422.24	3323.56
422.43	3190.15
422.61	3361.01
422.80	3290.79
422.99	3375.05
423.18	3433.57
423.37	3400.80
423.56	3428.88
423.75	3407.82
423.94	3335.26
424.13	3220.58
424.32	3353.99
424.50	3445.27
424.69	3447.61
424.88	3447.61
425.07	3335.26
425.26	3342.28
425.45	3463.99
425.64	3363.35
425.83	3368.03
426.01	3487.40
426.20	3566.98
426.39	3440.59
426.58	3419.52
426.77	3424.20
426.96	3679.32
427.15	3531.87
427.33	3555.27
427.52	3494.42
427.71	3679.32
427.90	3506.12
428.09	3653.58
428.28	3660.60
428.46	3620.81
428.65	3662.94
428.84	3875.93
429.03	3756.56
429.22	3723.79
429.40	3721.45
429.59	3737.84
429.78	3707.41
429.97	3520.17
430.16	3679.32
430.34	3742.52
430.53	3957.85
430.72	3829.12
430.91	3819.75
431.10	3896.99
431.28	3831.46
431.47	3962.53
431.66	4009.34
431.85	3953.16
432.03	4004.66
432.22	4037.42
432.41	4112.32
432.60	4046.79
432.79	3992.95
432.97	4035.08
433.16	4203.60
433.35	4051.47
433.54	4107.64
433.72	4243.39
433.91	4170.83
434.10	4042.11
434.28	4119.34
434.47	4259.78
434.66	4212.96
434.85	4299.56
435.03	4208.28
435.22	4257.43
435.41	4397.87
435.59	4334.67
435.78	4299.56
435.97	4264.46
436.16	4264.46
436.34	4337.01
436.53	4416.59
436.72	4430.63
436.90	4301.90
437.09	4554.68
437.28	4503.19
437.46	4456.38
437.65	4550.00
437.84	4720.86
438.02	4542.98
438.21	4498.51
438.40	4521.92
438.58	4725.54
438.77	4910.44
438.96	4751.29
439.14	4863.63
439.33	4744.27
439.52	4770.01
439.70	5018.11
439.89	4919.81
440.08	4983.00
440.26	4978.32
440.45	4961.94
440.63	4990.02
440.82	5165.56
441.01	4971.30
441.19	5107.05
441.38	5177.26
441.57	5144.50
441.75	5259.18
441.94	5261.52
442.12	5268.55
442.31	5345.78
442.50	5224.08
442.68	5280.25
442.87	5301.31
443.05	5514.30
443.24	5441.75
443.43	5551.75
443.61	5526.00
443.80	5612.60
443.98	5383.23
444.17	5305.99
444.35	5444.09
444.54	5626.65
444.73	5650.05
444.91	5743.67
445.10	5598.56
445.28	5509.62
445.47	5640.69
445.65	5607.92
445.84	5785.80
446.02	5614.95
446.21	5568.13
446.39	5603.24
446.58	5675.80
446.77	5572.82
446.95	5624.31
447.14	5603.24
447.32	5626.65
447.51	5703.89
447.69	5596.22
447.88	5722.61
448.06	5865.38
448.25	5781.12
448.43	5701.54
448.62	5893.47
448.80	5748.36
448.99	5912.19
449.17	5888.79
449.36	5734.31
449.54	5874.74
449.73	6120.50
449.91	6040.92
450.10	5933.26
450.28	6038.58
450.46	6179.01
450.65	6019.86
450.83	6179.01
451.02	6235.19
451.20	6300.72
451.39	6097.10
451.57	6174.33
451.76	6193.06
451.94	6033.90
452.13	6312.42
452.31	6225.82
452.49	6080.71
452.68	6293.70
452.86	6150.93
453.05	6406.05
453.23	6366.26
453.42	6312.42
453.60	6246.89
453.78	6352.21
453.97	6352.21
454.15	6429.45
454.34	6289.02
454.52	6602.65
454.70	6497.33
454.89	6516.05
455.07	6628.40
455.26	6532.44
455.44	6766.49
455.62	6656.48
455.81	6576.91
455.99	6647.12
456.17	6747.76
456.36	6759.47
456.54	6738.40
456.73	6846.07
456.91	6881.18
457.09	6944.37
457.28	7087.14
457.46	6935.01
457.64	6988.84
457.83	6995.86
458.01	6841.39
458.19	7049.69
458.38	6995.86
458.56	7082.46
458.74	7307.15
458.93	7164.38
459.11	7096.50
459.29	7276.73
459.48	7208.85
459.66	7267.36
459.84	7314.17
460.03	7566.95
460.21	7293.11
460.39	7236.94
460.57	7194.81
460.76	7391.41
460.94	7400.77
461.12	7562.27
461.31	7410.14
461.49	7346.94
461.67	7466.31
461.85	7644.19
462.04	7445.24
462.22	7992.93
462.40	7618.44
462.59	7695.68
462.77	7674.62
462.95	7688.66
463.13	7688.66
463.32	7616.10
463.50	7838.45
463.68	7829.09
463.86	7843.14
464.05	7714.41
464.23	7620.78
464.41	7901.65
464.59	7850.16
464.78	8168.47
464.96	8126.34
465.14	7955.48
465.32	8084.21
465.50	8098.25
465.69	8163.79
465.87	7906.33
466.05	8079.53
466.23	8208.26
466.41	8077.19
466.60	8439.97
466.78	8060.80
466.96	8168.47
467.14	8079.53
467.32	8142.72
467.51	8329.97
467.69	7999.95
467.87	8348.69
468.05	8423.59
468.23	8091.23
468.41	8208.26
468.60	8238.69
468.78	8362.73
468.96	8468.06
469.14	8493.80
469.32	8636.58
469.50	8510.19
469.69	8559.34
469.87	8601.47
470.05	8798.07
470.23	8734.88
470.41	8674.03
470.59	8706.79
470.77	8978.30
470.95	8917.44
471.14	9029.79
471.32	8730.20
471.50	8997.02
471.68	8833.18
471.86	9022.77
472.04	9193.62
472.22	9392.57
472.40	8898.72
472.58	9008.72
472.77	9228.73
472.95	9254.48
473.13	9516.62
473.31	9322.35
473.49	9392.57
473.67	9437.04
473.85	9582.15
474.03	9593.86
474.21	9734.29
474.39	9689.82
474.57	9605.56
474.75	9848.97
474.93	9785.78
475.12	9921.53
475.30	9949.62
475.48	9867.70
475.66	9994.09
475.84	9898.13
476.02	10305.38
476.20	10092.39
476.38	10331.12
476.56	10394.32
476.74	10544.11
476.92	10480.92
477.10	10321.76
477.28	10619.01
477.46	10541.77
477.64	10942.00
477.82	10778.17
478.00	10932.64
478.18	10862.43
478.36	11199.46
478.54	11253.30
478.72	11162.01
478.90	11321.17
479.08	11564.59
479.26	11632.46
479.44	11585.65
479.62	11620.76
479.80	11878.22
479.98	11751.83
480.16	12126.32
480.34	11946.09
480.52	12205.89
480.70	12241.00
480.88	12119.29
481.06	12336.96
481.24	12327.60
481.41	12566.34
481.59	12826.14
481.77	12767.62
481.95	12732.51
482.13	13011.04
482.31	13111.68
482.49	12966.57
482.67	13034.44
482.85	13191.26
483.03	13692.13
483.21	13582.13
483.39	13743.63
483.57	13668.73
483.74	13898.10
483.92	13956.61
484.10	13743.63
484.28	14270.25
484.46	14466.85
484.64	14693.88
484.82	14249.18
485.00	14626.01
485.18	14644.73
485.35	15037.94
485.53	14867.08
485.71	15073.05
485.89	15407.75
486.07	15272.00
486.25	15398.38
486.43	15431.15
486.61	15672.23
486.78	15583.29
486.96	15712.02
487.14	16123.95
487.32	15943.73
487.50	15978.84
487.68	16372.05
487.85	16559.29
488.03	16671.64
488.21	16767.60
488.39	16669.30
488.57	16987.61
488.75	16912.71
488.92	17216.98
489.10	17568.06
489.28	17518.91
489.46	17830.20
489.64	17554.02
489.81	17855.95
489.99	17816.16
490.17	17996.38
490.35	18211.71
490.53	18431.72
490.70	18328.74
490.88	18520.66
491.06	18735.99
491.24	18761.73
491.41	18876.42
491.59	19103.45
491.77	18876.42
491.95	19304.74
492.13	19140.90
492.30	19786.89
492.48	19723.69
492.66	19566.88
492.84	19871.15
493.01	19903.92
493.19	20210.53
493.37	20077.12
493.54	20308.83
493.72	20224.57
493.90	20161.37
494.08	20641.18
494.25	20779.28
494.43	21029.71
494.61	20748.85
494.79	20847.15
494.96	21036.74
495.14	21479.10
495.32	21310.58
495.49	21738.90
495.67	21523.57
495.85	22036.14
496.02	21905.07
496.20	21729.53
496.38	21923.80
496.55	22354.46
496.73	22862.35
496.91	22478.50
497.09	22780.43
497.26	22750.01
497.44	22654.05
497.62	23110.45
497.79	23091.73
497.97	23349.18
498.14	23276.63
498.32	23482.59
498.50	23470.89
498.67	23740.05
498.85	23716.65
499.03	23639.41
499.20	23892.19
499.38	24084.11
499.56	24149.65
499.73	24168.37
499.91	24610.73
500.08	24706.70
500.26	24463.28
500.44	24711.38
500.61	24781.59
500.79	24484.34
500.97	24769.89
501.14	25017.99
501.32	25062.46
501.49	24877.55
501.67	25205.23
501.84	25191.19
502.02	25359.70
502.20	25326.94
502.37	25432.26
502.55	25436.94
502.72	25905.05
502.90	25638.23
503.07	25645.25
503.25	25886.32
503.43	25879.30
503.60	26295.92
503.78	25914.41
503.95	26221.02
504.13	26333.37
504.30	26214.00
504.48	26214.00
504.65	26443.37
504.83	26834.24
505.01	26911.48
505.18	26836.58
505.36	27222.77
505.53	26960.63
505.71	26988.72
505.88	27150.21
506.06	27197.02
506.23	27229.79
506.41	27627.68
506.58	27428.74
506.76	27917.91
506.93	27754.07
507.11	28093.45
507.28	27866.42
507.46	28034.94
507.63	28039.62
507.81	28311.12
507.98	28016.21
508.16	28357.93
508.33	28439.85
508.50	28538.15
508.68	28638.80
508.85	28678.58
509.03	28573.26
509.20	28868.17
509.38	29202.86
509.55	29249.67
509.73	29142.01
509.90	29507.13
510.08	28982.85
510.25	29104.56
510.42	29266.06
510.60	29734.17
510.77	29408.83
510.95	29851.19
511.12	29495.43
511.30	29497.77
511.47	29432.24
511.64	29998.65
511.82	30139.08
511.99	29820.77
512.17	30043.12
512.34	30305.26
512.51	30424.62
512.69	30623.57
512.86	30499.52
513.04	30604.84
513.21	30721.87
513.38	30724.21
513.56	31409.99
513.73	30675.06
513.90	31206.36
514.08	31058.91
514.25	31311.69
514.43	31295.30
514.60	31005.08
514.77	31632.34
514.95	31845.33
515.12	31578.51
515.29	31351.48
515.47	31508.29
515.64	31470.84
515.81	31639.36
515.99	31754.05
516.16	31990.44
516.33	31889.80
516.51	32339.18
516.68	32271.31
516.85	32034.91
517.03	32393.01
517.20	32634.09
517.37	32430.46
517.54	32477.27
517.72	32360.25
517.89	32648.13
518.06	32580.26
518.24	32711.33
518.41	32540.47
518.58	32957.08
518.75	32659.84
518.93	33462.64
519.10	32790.91
519.27	33436.89
519.45	33287.10
519.62	33141.99
519.79	33385.40
519.96	33406.47
520.14	33586.69
520.31	33371.36
520.48	33862.87
520.65	33553.92
520.83	33947.13
521.00	34038.41
521.17	33441.57
521.34	34279.49
521.52	34576.73
521.69	34103.95
521.86	34611.84
522.03	34408.22
522.20	34820.15
522.38	34911.43
522.55	34597.80
522.72	34586.10
522.89	34279.49
523.07	35051.86
523.24	35014.41
523.41	35578.48
523.58	34799.08
523.75	35353.79
523.92	35161.87
524.10	35409.96
524.27	35428.69
524.44	35246.13
524.61	35260.17
524.78	35646.36
524.96	35637.00
525.13	36053.61
525.30	35667.42
525.47	36037.23
525.64	35835.94
525.81	36168.30
525.98	36306.39
526.16	36060.63
526.33	36126.17
526.50	36521.72
526.67	36383.63
526.84	36357.88
527.01	36577.89
527.18	36201.07
527.36	36385.97
527.53	36748.75
527.70	36999.19
527.87	36701.94
528.04	36704.28
528.21	36765.14
528.38	36964.08
528.55	37404.10
528.72	36645.77
528.89	36959.40
529.07	37237.92
529.24	36704.28
529.41	37123.24
529.58	37296.44
529.75	37244.94
529.92	37305.80
530.09	37357.29
530.26	37301.12
530.43	37773.91
530.60	37083.45
530.77	37418.14
530.94	37544.53
531.11	37359.63
531.28	37902.64
531.46	37902.64
531.63	37654.54
531.80	37984.55
531.97	37893.27
532.14	37935.40
532.31	37944.76
532.48	38155.41
532.65	38892.68
532.82	38057.11
532.99	38258.40
533.16	38494.79
533.33	38422.23
533.50	38873.96
533.67	38382.45
533.84	38274.78
534.01	38494.79
534.18	38649.27
534.35	38719.48
534.52	38976.94
534.69	38717.14
534.86	39346.75
535.03	39218.02
535.20	38693.74
535.37	39042.48
535.54	38993.32
535.71	39180.57
535.88	39428.66
536.05	39372.49
536.22	39398.24
536.38	39569.10
536.55	39756.34
536.72	39379.51
536.89	39093.97
537.06	39407.60
537.23	40067.63
537.40	39529.31
537.57	39613.57
537.74	39267.17
537.91	39997.41
538.08	39533.99
538.25	39454.41
538.42	40046.57
538.59	39941.24
538.75	40201.04
538.92	39782.09
539.09	40367.22
539.26	40217.43
539.43	39957.63
539.60	40409.35
539.77	40304.02
539.94	40512.33
540.11	40222.11
540.28	40357.86
540.44	40701.92
540.61	40189.34
540.78	40142.53
540.95	40388.28
541.12	40514.67
541.29	40830.65
541.46	40690.21
541.62	40697.24
541.79	40746.39
541.96	40708.94
542.13	40418.71
542.30	40722.98
542.47	40959.38
542.63	41064.70
542.80	41212.15
542.97	41193.43
543.14	41633.45
543.31	41193.43
543.48	41233.22
543.64	41771.54
543.81	41897.93
543.98	41706.01
544.15	41102.15
544.32	41516.42
544.48	42045.38
544.65	41706.01
544.82	42099.22
544.99	41254.28
545.16	42031.34
545.32	41823.03
545.49	42143.69
545.66	42349.65
545.83	42225.60
546.00	42007.94
546.16	42047.72
546.33	41853.46
546.50	41904.95
546.67	42579.03
546.83	41816.01
547.00	42146.03
547.17	42064.11
547.34	42396.46
547.50	42351.99
547.67	42815.42
547.84	42569.66
548.00	42827.12
548.17	42712.44
548.34	43058.84
548.51	42979.26
548.67	42705.41
548.84	42672.65
549.01	42644.56
549.18	42782.65
549.34	42850.53
549.51	43145.44
549.68	43461.41
549.84	43117.35
550.01	43515.24
550.18	42990.96
550.34	43646.31
550.51	43391.19
550.68	43264.80
550.84	42515.83
551.01	43241.40
551.18	42761.59
551.34	43594.82
551.51	43728.23
551.68	43758.66
551.84	43636.95
552.01	43487.15
552.18	43533.96
552.34	43709.50
552.51	43426.30
552.68	43714.19
552.84	43826.53
553.01	43892.07
553.18	43775.04
553.34	44219.74
553.51	43777.38
553.67	43786.74
553.84	43976.33
554.01	44013.77
554.17	43917.81
554.34	43756.32
554.51	43538.65
554.67	44151.87
554.84	44266.55
555.00	43952.92
555.17	44399.96
555.33	44229.10
555.50	44383.58
555.67	44367.20
555.83	44692.53
556.00	44233.78
556.16	44975.73
556.33	44697.21
556.50	44631.68
556.66	44692.53
556.83	44645.72
556.99	44669.12
557.16	45090.42
557.32	44582.52
557.49	44671.46
557.65	44570.82
557.82	44516.99
557.98	44875.09
558.15	44886.79
558.32	44741.68
558.48	44755.72
558.65	44978.07
558.81	44987.44
558.98	44814.24
559.14	44875.09
559.31	45099.78
559.47	44741.68
559.64	45474.27
559.80	45134.89
559.97	45043.61
560.13	45017.86
560.30	45193.40
560.46	45134.89
560.63	45263.62
560.79	45511.72
560.96	45509.38
561.12	45617.04
561.29	45441.50
561.45	45249.58
561.61	44891.48
561.78	44975.73
561.94	45186.38
562.11	45148.93
562.27	45375.97
562.44	45392.35
562.60	45425.12
562.77	45539.80
562.93	45268.30
563.10	45600.66
563.26	45806.62
563.42	46068.76
563.59	45570.23
563.75	45535.12
563.92	45588.95
564.08	45474.27
564.24	45918.97
564.41	45649.81
564.57	45881.52
564.74	45792.58
564.90	45607.68
565.07	45731.73
565.23	45544.48
565.39	45825.35
565.56	45867.48
565.72	45595.98
565.88	45710.66
566.05	45619.38
566.21	45811.31
566.38	45947.06
566.54	46560.28
566.70	46209.20
566.87	46253.67
567.03	45862.80
567.19	46260.69
567.36	46120.26
567.52	45965.78
567.68	46078.13
567.85	45991.53
568.01	46761.56
568.17	46171.75
568.34	45855.78
568.50	45722.37
568.66	45717.68
568.83	45764.49
568.99	45834.71
569.15	46366.01
569.32	45942.38
569.48	46248.99
569.64	46312.18
569.81	46260.69
569.97	46494.74
570.13	46499.42
570.30	46136.64
570.46	46216.22
570.62	46436.23
570.78	46431.55
570.95	46506.44
571.11	46583.68
571.27	46586.02
571.43	46143.66
571.60	46328.56
571.76	45881.52
571.92	46412.82
572.09	46213.88
572.25	46155.36
572.41	46307.50
572.57	46396.44
572.74	46717.09
572.90	46536.87
573.06	46501.76
573.22	46567.30
573.38	46445.59
573.55	46256.01
573.71	46733.48
573.87	46508.79
574.03	46433.89
574.20	46911.36
574.36	46438.57
574.52	46689.01
574.68	46506.44
574.84	46806.03
575.01	46787.31
575.17	46955.83
575.33	46265.37
575.49	46424.53
575.65	46728.80
575.82	46494.74
575.98	46555.60
576.14	46670.28
576.30	47054.13
576.46	46829.44
576.62	46763.90
576.79	46845.82
576.95	46546.23
577.11	46223.24
577.27	46789.65
577.43	46660.92
577.59	46642.20
577.75	46602.41
577.92	46225.58
578.08	46447.93
578.24	46810.71
578.40	46824.76
578.56	46918.38
578.72	46623.47
578.88	46710.07
579.04	46674.96
579.21	46574.32
579.37	46850.50
579.53	46958.17
579.69	46614.11
579.85	46843.48
580.01	46995.62
580.17	46653.90
580.33	46892.63
580.49	46986.25
580.65	46948.81
580.82	46784.97
580.98	46747.52
581.14	46780.29
581.30	46485.38
581.46	46625.81
581.62	46763.90
581.78	46679.64
581.94	47033.07
582.10	46759.22
582.26	47327.97
582.42	47482.45
582.58	47028.38
582.74	46843.48
582.90	47077.54
583.06	47023.70
583.22	47054.13
583.38	46958.17
583.54	47194.56
583.70	46775.61
583.86	47152.43
584.02	46492.40
584.18	47079.88
584.34	47093.92
584.50	47421.59
584.66	47023.70
584.82	46932.42
584.98	47552.66
585.14	47016.68
585.30	46897.31
585.46	46855.18
585.62	46972.21
585.78	47051.79
585.94	47012.00
586.10	47016.68
586.26	46480.70
586.42	46836.46
586.58	47236.69
586.74	46930.08
586.90	47023.70
587.06	47056.47
587.22	47030.72
587.38	46934.76
587.54	47339.68
587.70	47257.76
587.86	47344.36
588.02	47381.80
588.18	46955.83
588.34	47278.82
588.49	47016.68
588.65	46953.49
588.81	46806.03
588.97	47379.46
589.13	47103.28
589.29	47210.95
589.45	47292.86
589.61	47641.60
589.77	47372.44
589.93	47049.45
590.08	47503.51
