SpectraSuite Data File
++++++++++++++++++++++++++++++++++++
Date: Fri Oct 25 10:48:26 EDT 2013
User: price-jones
Dark Spectrum Present: No
Reference Spectrum Present: No
Number of Sampled Component Spectra: 1
Spectrometers: USB2+H05261
Integration Time (usec): 100000 (USB2+H05261)
Spectra Averaged: 1 (USB2+H05261)
Boxcar Smoothing: 0 (USB2+H05261)
Correct for Electrical Dark: No (USB2+H05261)
Strobe/Lamp Enabled: No (USB2+H05261)
Correct for Detector Non-linearity: No (USB2+H05261)
Correct for Stray Light: No (USB2+H05261)
Number of Pixels in Processed Spectrum: 2048
>>>>>Begin Processed Spectral Data<<<<<
365.73	135.75
365.92	135.75
366.12	135.75
366.32	65.54
366.52	32.77
366.72	105.32
366.91	63.19
367.11	42.13
367.31	60.85
367.51	28.09
367.70	63.19
367.90	100.64
368.10	35.11
368.30	98.30
368.49	70.22
368.69	95.96
368.89	46.81
369.09	23.41
369.28	105.32
369.48	112.35
369.68	107.66
369.87	98.30
370.07	72.56
370.27	177.88
370.47	152.13
370.66	435.34
370.86	454.06
371.06	470.45
371.25	517.26
371.45	435.34
371.65	505.56
371.84	482.15
372.04	425.98
372.24	444.70
372.44	430.66
372.63	517.26
372.83	510.24
373.03	498.53
373.22	482.15
373.42	440.02
373.62	517.26
373.81	533.64
374.01	557.05
374.21	535.98
374.40	594.50
374.60	610.88
374.79	568.75
374.99	561.73
375.19	575.77
375.38	589.82
375.58	594.50
375.78	678.76
375.97	669.39
376.17	653.01
376.37	596.84
376.56	479.81
376.76	622.58
376.95	599.18
377.15	606.20
377.35	641.31
377.54	638.97
377.74	627.26
377.93	653.01
378.13	641.31
378.33	603.86
378.52	669.39
378.72	660.03
378.91	627.26
379.11	589.82
379.31	751.31
379.50	622.58
379.70	645.99
379.89	688.12
380.09	606.20
380.28	688.12
380.48	692.80
380.68	650.67
380.87	664.71
381.07	692.80
381.26	629.60
381.46	660.03
381.65	667.05
381.85	746.63
382.04	723.23
382.24	669.39
382.43	681.10
382.63	624.92
382.83	720.88
383.02	758.33
383.22	819.19
383.41	753.65
383.61	758.33
383.80	858.98
384.00	760.67
384.19	753.65
384.39	753.65
384.58	816.85
384.78	819.19
384.97	793.44
385.17	795.78
385.36	837.91
385.56	823.87
385.75	758.33
385.95	753.65
386.14	844.93
386.34	910.47
386.53	866.00
386.72	863.66
386.92	849.61
387.11	863.66
387.31	870.68
387.50	903.45
387.70	837.91
387.89	961.96
388.09	912.81
388.28	863.66
388.48	837.91
388.67	896.43
388.86	922.17
389.06	910.47
389.25	957.28
389.45	994.73
389.64	940.90
389.84	947.92
390.03	945.58
390.22	1001.75
390.42	1004.09
390.61	1064.94
390.81	968.98
391.00	1078.99
391.19	940.90
391.39	1097.71
391.58	1039.20
391.78	1062.60
391.97	1109.41
392.16	1004.09
392.36	1078.99
392.55	1029.84
392.75	1020.47
392.94	1046.22
393.13	1055.58
393.33	931.53
393.52	1067.28
393.71	1203.04
393.91	1142.18
394.10	1128.14
394.29	1076.65
394.49	1081.33
394.68	1165.59
394.88	1172.61
395.07	1296.66
395.26	1200.69
395.46	1135.16
395.65	1275.59
395.84	1179.63
396.04	1240.48
396.23	1172.61
396.42	1170.27
396.62	1170.27
396.81	1123.46
397.00	1259.21
397.19	1235.80
397.39	1263.89
397.58	1343.47
397.77	1425.39
397.97	1409.00
398.16	1331.76
398.35	1537.73
398.55	1385.60
398.74	1383.26
398.93	1488.58
399.12	1369.21
399.32	1397.30
399.51	1467.52
399.70	1521.35
399.90	1497.94
400.09	1589.22
400.28	1612.63
400.47	1547.09
400.67	1565.82
400.86	1479.22
401.05	1610.29
401.24	1666.46
401.44	1568.16
401.63	1715.61
401.82	1577.52
402.01	1633.69
402.21	1703.91
402.40	1727.32
402.59	1710.93
402.78	1626.67
402.97	1741.36
403.17	1692.21
403.36	1743.70
403.55	1673.48
403.74	1818.60
403.93	1717.95
404.13	1853.70
404.32	1722.63
404.51	1820.94
404.70	1825.62
404.89	1823.28
405.09	1912.22
405.28	1895.83
405.47	1839.66
405.66	1944.99
405.85	1863.07
406.05	1942.64
406.24	1944.99
406.43	1984.77
406.62	1949.67
406.81	2057.33
407.00	2054.99
407.20	1930.94
407.39	1879.45
407.58	2078.40
407.77	2052.65
407.96	2050.31
408.15	2076.06
408.34	2172.02
408.54	2181.38
408.73	2169.68
408.92	2265.64
409.11	2253.94
409.30	2162.66
409.49	2270.32
409.68	2204.78
409.87	2181.38
410.07	2272.66
410.26	2282.02
410.45	2326.49
410.64	2312.45
410.83	2375.64
411.02	2328.83
411.21	2403.73
411.40	2394.37
411.59	2523.10
411.78	2539.48
411.98	2560.55
412.17	2476.29
412.36	2574.59
412.55	2569.91
412.74	2483.31
412.93	2541.82
413.12	2576.93
413.31	2780.56
413.50	2658.85
413.69	2715.02
413.88	2789.92
414.07	2988.86
414.26	2932.69
414.45	2794.60
414.64	2808.64
414.83	2832.05
415.02	2918.65
415.22	2920.99
415.41	2944.39
415.60	2923.33
415.79	2986.52
415.98	3129.30
416.17	3094.19
416.36	3070.78
416.55	3082.49
416.74	3178.45
416.93	3248.66
417.12	3290.79
417.31	3162.06
417.50	3190.15
417.69	3314.20
417.88	3318.88
418.07	3215.90
418.26	3122.27
418.45	3344.63
418.64	3316.54
418.83	3396.12
419.02	3456.97
419.21	3431.23
419.39	3492.08
419.58	3365.69
419.77	3302.50
419.96	3487.40
420.15	3562.30
420.34	3578.68
420.53	3700.39
420.72	3695.71
420.91	3562.30
421.10	3728.47
421.29	3740.18
421.48	3634.85
421.67	3688.68
421.86	3655.92
422.05	3662.94
422.24	3637.19
422.43	3737.84
422.61	3786.99
422.80	3709.75
422.99	3859.54
423.18	3784.65
423.37	3885.29
423.56	3786.99
423.75	3723.79
423.94	3618.47
424.13	3632.51
424.32	3665.28
424.50	3843.16
424.69	3801.03
424.88	3889.97
425.07	3756.56
425.26	3702.73
425.45	3805.71
425.64	3775.28
425.83	3969.55
426.01	3918.06
426.20	3742.52
426.39	3992.95
426.58	3761.24
426.77	3735.50
426.96	3836.14
427.15	3880.61
427.33	4016.36
427.52	3950.82
427.71	3911.04
427.90	4025.72
428.09	3974.23
428.28	4011.68
428.46	4046.79
428.65	4098.28
428.84	4189.56
429.03	4163.81
429.22	4091.26
429.40	3999.98
429.59	3915.72
429.78	3805.71
429.97	3815.07
430.16	3908.69
430.34	4086.58
430.53	4135.73
430.72	4201.26
430.91	4016.36
431.10	4126.36
431.28	4362.76
431.47	4547.66
431.66	4458.72
431.85	4484.47
432.03	4463.40
432.22	4514.89
432.41	4500.85
432.60	4554.68
432.79	4498.51
432.97	4568.73
433.16	4627.24
433.35	4461.06
433.54	4610.86
433.72	4554.68
433.91	4695.11
434.10	4695.11
434.28	4741.93
434.47	4692.77
434.66	4788.74
434.85	4674.05
435.03	4730.22
435.22	4770.01
435.41	4950.23
435.59	4905.76
435.78	4887.04
435.97	4842.57
436.16	5071.94
436.34	5029.81
436.53	4985.34
436.72	5107.05
436.90	5004.07
437.09	5067.26
437.28	5020.45
437.46	4945.55
437.65	5128.11
437.84	5149.18
438.02	5025.13
438.21	5057.90
438.40	4922.15
438.58	5214.71
438.77	5198.33
438.96	5266.21
439.14	5416.00
439.33	5483.88
439.52	5458.13
439.70	5516.64
439.89	5572.82
440.08	5554.09
440.26	5518.98
440.45	5633.67
440.63	5692.18
440.82	5734.31
441.01	5694.52
441.19	5963.68
441.38	5818.57
441.57	5886.45
441.75	5888.79
441.94	6069.01
442.12	6209.44
442.31	6136.88
442.50	6069.01
442.68	6113.48
442.87	6195.40
443.05	6099.44
443.24	6190.72
443.43	6361.58
443.61	6389.66
443.80	6298.38
443.98	6218.80
444.17	5928.58
444.35	6207.10
444.54	6286.68
444.73	6246.89
444.91	6427.11
445.10	6253.91
445.28	6396.68
445.47	6298.38
445.65	6216.46
445.84	6244.55
446.02	6427.11
446.21	6380.30
446.39	6321.79
446.58	6427.11
446.77	6356.90
446.95	6368.60
447.14	6445.84
447.32	6513.71
447.51	6296.04
447.69	6602.65
447.88	6284.34
448.06	6473.92
448.25	6370.94
448.43	6438.81
448.62	6462.22
448.80	6380.30
448.99	6551.16
449.17	6558.18
449.36	6576.91
449.54	6658.82
449.73	6729.04
449.91	6803.94
450.10	6949.05
450.28	6927.99
450.46	6836.70
450.65	7000.54
450.83	6913.94
451.02	7045.01
451.20	7169.06
451.39	6867.13
451.57	7035.65
451.76	6977.14
451.94	6960.75
452.13	6949.05
452.31	7082.46
452.49	6981.82
452.68	7002.88
452.86	6857.77
453.05	7047.35
453.23	7000.54
453.42	7068.42
453.60	7073.10
453.78	7136.29
453.97	7124.59
454.15	7358.64
454.34	7145.66
454.52	7412.48
454.70	7368.01
454.89	7400.77
455.07	7246.30
455.26	7349.28
455.44	7482.69
455.62	7391.41
455.81	7447.58
455.99	7569.29
456.17	7569.29
456.36	7468.65
456.54	7698.02
456.73	7576.31
456.91	7974.21
457.09	7962.50
457.28	7967.18
457.46	7679.30
457.64	7868.88
457.83	7948.46
458.01	7756.54
458.19	8013.99
458.38	7911.01
458.56	8004.63
458.74	8086.55
458.93	7903.99
459.11	8135.70
459.29	7918.03
459.48	8070.17
459.66	8084.21
459.84	8189.53
460.03	8308.90
460.21	8163.79
460.39	8182.51
460.57	8325.29
460.76	8304.22
460.94	8449.33
461.12	8229.32
461.31	8276.13
461.49	8463.38
461.67	8325.29
461.85	8381.46
462.04	8388.48
462.22	8854.25
462.40	8578.06
462.59	8430.61
462.77	8767.65
462.95	8725.52
463.13	8697.43
463.32	8641.26
463.50	8552.32
463.68	8716.16
463.86	8725.52
464.05	8468.06
464.23	8755.94
464.41	8784.03
464.59	8505.51
464.78	9036.81
464.96	8802.75
465.14	8730.20
465.32	8734.88
465.50	8887.01
465.69	9015.74
465.87	9085.96
466.05	8947.87
466.23	8868.29
466.41	8898.72
466.60	9097.66
466.78	8978.30
466.96	8917.44
467.14	9048.51
467.32	9008.72
467.51	9100.00
467.69	8685.73
467.87	9142.13
468.05	9231.07
468.23	8926.80
468.41	9266.18
468.60	9149.15
468.78	9434.70
468.96	9394.91
469.14	9298.95
469.32	9387.89
469.50	9235.75
469.69	9535.34
469.87	9540.02
470.05	9458.10
470.23	9392.57
470.41	9540.02
470.59	9570.45
470.77	9631.30
470.95	9774.08
471.14	9715.56
471.32	9628.96
471.50	9841.95
471.68	9858.34
471.86	10038.56
472.04	10043.24
472.22	10186.01
472.40	9926.21
472.58	10003.45
472.77	10190.69
472.95	10413.04
473.13	10644.76
473.31	10225.80
473.49	10312.40
473.67	10307.72
473.85	10319.42
474.03	10675.18
474.21	10558.16
474.39	10705.61
474.57	10679.86
474.75	10651.78
474.93	10806.25
475.12	10853.06
475.30	10984.13
475.48	10778.17
475.66	11009.88
475.84	11040.31
476.02	11143.29
476.20	11007.54
476.38	11342.24
476.56	11573.95
476.74	11566.93
476.92	11440.54
477.10	11332.87
477.28	11826.73
477.46	11939.07
477.64	11960.14
477.82	12210.57
478.00	12201.21
478.18	12205.89
478.36	12393.14
478.54	12128.66
478.72	12505.48
478.90	12879.97
479.08	12643.57
479.26	12793.37
479.44	12692.73
479.62	12788.69
479.80	13034.44
479.98	13074.23
480.16	13146.79
480.34	13308.29
480.52	13324.67
480.70	13362.12
480.88	13315.31
481.06	13439.36
481.24	13596.17
481.41	13921.51
481.59	13928.53
481.77	13914.48
481.95	14099.39
482.13	13975.34
482.31	13940.23
482.49	14455.15
482.67	14190.67
482.85	14640.05
483.03	14810.91
483.21	15040.28
483.39	15030.92
483.57	14904.53
483.74	15250.93
483.92	15239.23
484.10	15316.47
484.28	15248.59
484.46	15716.70
484.64	16147.36
484.82	15557.54
485.00	15489.67
485.18	16051.39
485.35	16341.62
485.53	15845.43
485.71	15688.61
485.89	16142.67
486.07	16238.64
486.25	16086.50
486.43	16446.94
486.61	16596.74
486.78	17029.74
486.96	16800.37
487.14	17296.56
487.32	17282.52
487.50	17528.27
487.68	17715.51
487.85	17991.70
488.03	17956.59
488.21	18045.53
488.39	18375.55
488.57	18368.52
488.75	18450.44
488.92	18396.61
489.10	18857.70
489.28	19066.00
489.46	19227.50
489.64	19035.58
489.81	19964.77
489.99	19541.13
490.17	19520.07
490.35	19822.00
490.53	19882.85
490.70	19981.15
490.88	19852.42
491.06	20269.04
491.24	20453.94
491.41	20432.88
491.59	20297.13
491.77	20187.12
491.95	20641.18
492.13	20737.15
492.30	21432.29
492.48	21549.31
492.66	21003.97
492.84	20985.24
493.01	21610.17
493.19	21284.83
493.37	21736.56
493.54	21806.77
493.72	22169.55
493.90	21975.29
494.08	22312.33
494.25	22677.45
494.43	22616.60
494.61	22775.75
494.79	22874.06
494.96	22661.07
495.14	22941.93
495.32	23220.45
495.49	23356.21
495.67	22988.74
495.85	23634.73
496.02	23831.33
496.20	23524.72
496.38	23697.92
496.55	23786.86
496.73	24535.84
496.91	24210.50
497.09	24458.60
497.26	24346.25
497.44	24093.47
497.62	24531.15
497.79	24926.71
497.97	24795.64
498.14	24599.03
498.32	25355.02
498.50	25025.01
498.67	25544.61
498.85	25532.90
499.03	25607.80
499.20	25507.16
499.38	25785.68
499.56	25766.96
499.73	25729.51
499.91	25986.97
500.08	26143.78
500.26	25738.87
500.44	26094.63
500.61	25757.60
500.79	25844.20
500.97	26057.18
501.14	26553.38
501.32	26684.45
501.49	26473.80
501.67	26621.25
501.84	26782.75
502.02	26871.69
502.20	27410.01
502.37	27098.72
502.55	27323.41
502.72	27171.28
502.90	27580.87
503.07	27548.11
503.25	27800.88
503.43	27384.27
503.60	27592.58
503.78	27730.67
503.95	27452.14
504.13	27938.97
504.30	27929.61
504.48	28135.58
504.65	28388.36
504.83	28816.68
505.01	28671.56
505.18	28477.30
505.36	28758.16
505.53	28933.70
505.71	28978.17
505.88	29338.62
506.06	28776.89
506.23	29270.74
506.41	28959.45
506.58	29034.35
506.76	29565.65
506.93	29717.78
507.11	29628.84
507.28	29486.07
507.46	29607.78
507.63	29663.95
507.81	29731.83
507.98	29762.25
508.16	29883.96
508.33	29722.46
508.50	30197.59
508.68	30080.56
508.85	30361.43
509.03	30122.69
509.20	30483.14
509.38	30558.03
509.55	30682.08
509.73	30560.37
509.90	31014.44
510.08	30586.12
510.25	30794.43
510.42	31281.26
510.60	31051.89
510.77	31299.98
510.95	31007.42
511.12	31311.69
511.30	31433.39
511.47	31763.41
511.64	31821.92
511.82	31964.70
511.99	31569.15
512.17	31833.63
512.34	31859.37
512.51	32016.19
512.69	32100.45
512.86	32189.39
513.04	32568.55
513.21	32212.79
513.38	32116.83
513.56	32020.87
513.73	32137.90
513.90	32547.49
514.08	32554.51
514.25	32751.12
514.43	32507.70
514.60	32952.40
514.77	32650.47
514.95	33022.62
515.12	32842.40
515.29	33256.67
515.47	33310.50
515.64	33523.49
515.81	33319.87
515.99	33546.90
516.16	33366.68
516.33	32746.44
516.51	33200.50
516.68	33184.12
516.85	33132.62
517.03	33413.49
517.20	33511.79
517.37	33504.77
517.54	34047.77
517.72	33584.35
517.89	34031.39
518.06	33949.47
518.24	33692.01
518.41	33923.72
518.58	34052.45
518.75	34183.52
518.93	34045.43
519.10	34347.36
519.27	34532.26
519.45	34733.55
519.62	34553.33
519.79	34546.31
519.96	35009.73
520.14	34953.56
520.31	34855.26
520.48	35180.59
520.65	34820.15
520.83	35363.15
521.00	35580.82
521.17	35445.07
521.34	35576.14
521.52	35798.49
521.69	35934.24
521.86	35957.65
522.03	35786.79
522.20	36088.72
522.38	35931.90
522.55	35763.39
522.72	35711.89
522.89	35585.50
523.07	36198.73
523.24	35992.76
523.41	36605.98
523.58	36018.50
523.75	36886.84
523.92	36825.99
524.10	36538.10
524.27	36486.61
524.44	36781.52
524.61	36875.14
524.78	37053.02
524.96	36856.42
525.13	36893.86
525.30	36882.16
525.47	37017.91
525.64	36741.73
525.81	37249.63
525.98	37116.22
526.16	37085.79
526.33	36697.26
526.50	37277.71
526.67	36769.82
526.84	37378.36
527.01	37036.64
527.18	37401.76
527.36	37584.32
527.53	37593.68
527.70	38508.83
527.87	38356.70
528.04	37853.48
528.21	37963.49
528.38	37628.79
528.55	38052.43
528.72	38302.87
528.89	38995.67
529.07	38436.28
529.24	37933.06
529.41	38462.02
529.58	38043.07
529.75	37872.21
529.92	38286.48
530.09	39026.09
530.26	38536.92
530.43	38726.50
530.60	38068.81
530.77	38866.94
530.94	39159.50
531.11	38586.07
531.28	39033.11
531.46	39269.51
531.63	39063.54
531.80	39058.86
531.97	39393.56
532.14	38979.28
532.31	38785.02
532.48	39428.66
532.65	39086.95
532.82	39449.73
532.99	39297.59
533.16	39033.11
533.33	39241.42
533.50	39812.51
533.67	39461.43
533.84	39325.68
534.01	39374.83
534.18	39723.57
534.35	39931.88
534.52	39482.50
534.69	39828.90
534.86	39866.34
535.03	39419.30
535.20	40542.76
535.37	40240.83
535.54	40605.95
535.71	40076.99
535.88	40322.75
536.05	40233.81
536.22	40371.90
536.38	40069.97
536.55	40385.94
536.72	40538.08
536.89	40135.51
537.06	40367.22
537.23	40732.34
537.40	40657.45
537.57	40545.10
537.74	40645.74
537.91	40694.89
538.08	41099.81
538.25	40662.13
538.42	40594.25
538.59	41214.49
538.75	40898.52
538.92	40959.38
539.09	41186.41
539.26	40870.43
539.43	41375.99
539.60	41228.54
539.77	40954.69
539.94	41467.27
540.11	40893.84
540.28	40788.52
540.44	41354.93
540.61	40964.06
540.78	41469.61
540.95	41050.66
541.12	41055.34
541.29	41165.34
541.46	41469.61
541.62	41748.14
541.79	41918.99
541.96	41223.86
542.13	41642.81
542.30	41507.06
542.47	41570.25
542.63	41837.08
542.80	41954.10
542.97	42099.22
543.14	42314.55
543.31	41975.17
543.48	42342.63
543.64	43407.58
543.81	42965.21
543.98	42642.22
544.15	42293.48
544.32	42550.94
544.48	42728.82
544.65	42745.20
544.82	42810.74
544.99	42040.70
545.16	42693.71
545.32	42541.58
545.49	42974.58
545.66	43227.35
545.83	42871.59
546.00	42869.25
546.16	42841.17
546.33	42490.09
546.50	42670.31
546.67	43381.83
546.83	42799.04
547.00	43007.34
547.17	42712.44
547.34	42962.87
547.50	43140.75
547.67	43297.57
547.84	43159.48
548.00	43519.92
548.17	43360.76
548.34	43082.24
548.51	43388.85
548.67	44072.29
548.84	43559.71
549.01	43552.69
549.18	43379.49
549.34	43243.74
549.51	44002.07
549.68	43735.25
549.84	43744.61
550.01	43728.23
550.18	43400.55
550.34	43693.12
550.51	43707.16
550.68	43255.44
550.84	43386.51
551.01	43498.86
551.18	43709.50
551.34	43807.81
551.51	43973.98
551.68	44081.65
551.84	43910.79
552.01	44287.62
552.18	43658.01
552.34	43828.87
552.51	43807.81
552.68	44133.14
552.84	44170.59
553.01	44395.28
553.18	43761.00
553.34	43992.71
553.51	44095.69
553.67	44341.45
553.84	44177.61
554.01	44514.65
554.17	44622.31
554.34	44584.86
554.51	44477.20
554.67	44816.58
554.84	44343.79
555.00	44170.59
555.17	44561.46
555.33	45137.23
555.50	44804.88
555.67	44835.30
555.83	44713.59
556.00	44470.18
556.16	44832.96
556.33	44949.99
556.50	44444.43
556.66	45139.57
556.83	44299.32
556.99	44509.97
557.16	45015.52
557.32	44708.91
557.49	44985.10
557.65	44645.72
557.82	44381.24
557.98	44788.49
558.15	44926.58
558.32	44795.51
558.48	44673.81
558.65	44685.51
558.81	44772.11
558.98	44961.69
559.14	45102.12
559.31	44828.28
559.47	44842.32
559.64	45205.11
559.80	45090.42
559.97	45160.64
560.13	45062.33
560.30	45244.90
560.46	45052.97
560.63	45284.68
560.79	44989.78
560.96	45401.71
561.12	45109.14
561.29	45371.28
561.45	45345.54
561.61	45338.52
561.78	44940.63
561.94	45228.51
562.11	45401.71
562.27	45228.51
562.44	45366.60
562.60	45188.72
562.77	45387.67
562.93	45581.93
563.10	45724.71
563.26	45160.64
563.42	45408.73
563.59	45310.43
563.75	45448.52
563.92	45738.75
564.08	45462.57
564.24	45766.84
564.41	45670.87
564.57	45193.40
564.74	45624.06
564.90	45694.28
565.07	45598.32
565.23	45696.62
565.39	45586.61
565.56	45488.31
565.72	45820.67
565.88	45551.51
566.05	45759.81
566.21	45769.18
566.38	45331.50
566.54	45553.85
566.70	45890.88
566.87	45661.51
567.03	45914.29
567.19	45937.69
567.36	45607.68
567.52	45705.98
567.68	46024.29
567.85	45717.68
568.01	46040.68
568.17	45895.56
568.34	45837.05
568.50	45495.33
568.66	45654.49
568.83	45738.75
568.99	45282.34
569.15	46073.45
569.32	45394.69
569.48	45495.33
569.64	45996.21
569.81	45879.18
569.97	46113.23
570.13	45720.02
570.30	45738.75
570.46	45787.90
570.62	45991.53
570.78	45759.81
570.95	45984.51
571.11	46216.22
571.27	46054.72
571.43	46136.64
571.60	46040.68
571.76	45794.92
571.92	45879.18
572.09	46038.34
572.25	45727.05
572.41	45799.60
572.57	46000.89
572.74	46300.48
572.90	46239.62
573.06	45783.22
573.22	46143.66
573.38	45956.42
573.55	45689.60
573.71	45879.18
573.87	45958.76
574.03	45958.76
574.20	46174.09
574.36	45872.16
574.52	46403.46
574.68	46167.07
574.84	45748.11
575.01	45490.65
575.17	45827.69
575.33	45595.98
575.49	45610.02
575.65	46120.26
575.82	46440.91
575.98	46246.65
576.14	46274.73
576.30	45947.06
576.46	46153.02
576.62	45954.08
576.79	45888.54
576.95	45823.01
577.11	45741.09
577.27	46087.49
577.43	46185.79
577.59	45853.44
577.75	45528.10
577.92	45808.96
578.08	45595.98
578.24	45715.34
578.40	46071.10
578.56	46068.76
578.72	46326.22
578.88	45815.99
579.04	46188.13
579.21	45874.50
579.37	46101.53
579.53	45626.40
579.69	46256.01
579.85	45998.55
580.01	46113.23
580.17	46501.76
580.33	46426.87
580.49	46209.20
580.65	46817.74
580.82	46370.69
580.98	46277.07
581.14	46143.66
581.30	46274.73
581.46	46232.60
581.62	46279.41
581.78	45825.35
581.94	46672.62
582.10	46113.23
582.26	46106.21
582.42	46571.98
582.58	46461.97
582.74	45675.55
582.90	46431.55
583.06	46227.92
583.22	46824.76
583.38	46288.77
583.54	46387.08
583.70	46354.31
583.86	46588.36
584.02	45947.06
584.18	46176.43
584.34	46337.93
584.50	46464.32
584.66	46230.26
584.82	46108.55
584.98	46508.79
585.14	46513.47
585.30	46244.30
585.46	46167.07
585.62	45804.28
585.78	46204.52
585.94	45581.93
586.10	46162.39
586.26	46167.07
586.42	46204.52
586.58	46604.75
586.74	45930.67
586.90	46370.69
587.06	45855.78
587.22	46288.77
587.38	45921.31
587.54	46227.92
587.70	45933.01
587.86	46286.43
588.02	46373.03
588.18	46476.02
588.34	46019.61
588.49	45780.88
588.65	45720.02
588.81	45422.78
588.97	45890.88
589.13	45834.71
589.29	46380.06
589.45	46178.77
589.61	46038.34
589.77	46469.00
589.93	46220.90
