SpectraSuite Data File
++++++++++++++++++++++++++++++++++++
Date: Fri Oct 25 11:26:25 EDT 2013
User: price-jones
Dark Spectrum Present: No
Reference Spectrum Present: No
Number of Sampled Component Spectra: 1
Spectrometers: USB2+H05261
Integration Time (usec): 100000 (USB2+H05261)
Spectra Averaged: 1 (USB2+H05261)
Boxcar Smoothing: 0 (USB2+H05261)
Correct for Electrical Dark: No (USB2+H05261)
Strobe/Lamp Enabled: No (USB2+H05261)
Correct for Detector Non-linearity: No (USB2+H05261)
Correct for Stray Light: No (USB2+H05261)
Number of Pixels in Processed Spectrum: 2048
>>>>>Begin Processed Spectral Data<<<<<
365.73	231.71
365.92	231.71
366.12	231.71
366.32	135.75
366.52	114.69
366.72	163.84
366.91	107.66
367.11	147.45
367.31	154.48
367.51	187.24
367.70	88.94
367.90	220.01
368.10	107.66
368.30	212.99
368.49	154.48
368.69	140.43
368.89	241.08
369.09	189.58
369.28	222.35
369.48	191.92
369.68	243.42
369.87	229.37
370.07	299.59
370.27	191.92
370.47	294.91
370.66	585.13
370.86	585.13
371.06	622.58
371.25	688.12
371.45	636.63
371.65	669.39
371.84	671.73
372.04	629.60
372.24	683.44
372.44	688.12
372.63	676.41
372.83	690.46
373.03	791.10
373.22	695.14
373.42	795.78
373.62	781.74
373.81	774.72
374.01	746.63
374.21	779.40
374.40	779.40
374.60	793.44
374.79	847.27
374.99	784.08
375.19	856.64
375.38	770.04
375.58	748.97
375.78	884.72
375.97	830.89
376.17	936.21
376.37	849.61
376.56	882.38
376.76	826.21
376.95	770.04
377.15	875.36
377.35	870.68
377.54	940.90
377.74	875.36
377.93	863.66
378.13	976.00
378.33	940.90
378.52	873.02
378.72	950.26
378.91	1001.75
379.11	915.15
379.31	922.17
379.50	947.92
379.70	990.05
379.89	1022.81
380.09	945.58
380.28	952.60
380.48	980.68
380.68	952.60
380.87	1069.62
381.07	1116.44
381.26	1050.90
381.46	1004.09
381.65	1057.92
381.85	1071.97
382.04	1104.73
382.24	1095.37
382.43	964.30
382.63	1015.79
382.83	1050.90
383.02	1064.94
383.22	1067.28
383.41	1086.01
383.61	1081.33
383.80	1142.18
384.00	1198.35
384.19	1083.67
384.39	1174.95
384.58	1137.50
384.78	1135.16
384.97	1181.97
385.17	1100.05
385.36	1123.46
385.56	1177.29
385.75	1196.01
385.95	1210.06
386.14	1128.14
386.34	1196.01
386.53	1203.04
386.72	1224.10
386.92	1172.61
387.11	1306.02
387.31	1280.27
387.50	1266.23
387.70	1179.63
387.89	1273.25
388.09	1268.57
388.28	1226.44
388.48	1280.27
388.67	1348.15
388.86	1322.40
389.06	1394.96
389.25	1306.02
389.45	1301.34
389.64	1432.41
389.84	1385.60
390.03	1430.07
390.22	1369.21
390.42	1364.53
390.61	1453.47
390.81	1352.83
391.00	1404.32
391.19	1427.73
391.39	1371.55
391.58	1455.81
391.78	1476.88
391.97	1446.45
392.16	1448.79
392.36	1535.39
392.55	1500.28
392.75	1591.56
392.94	1614.97
393.13	1558.80
393.33	1458.15
393.52	1530.71
393.71	1633.69
393.91	1519.01
394.10	1582.20
394.29	1558.80
394.49	1636.03
394.68	1722.63
394.88	1617.31
395.07	1617.31
395.26	1706.25
395.46	1743.70
395.65	1680.50
395.84	1739.02
396.04	1809.23
396.23	1715.61
396.42	1727.32
396.62	1732.00
396.81	1734.34
397.00	1795.19
397.19	1827.96
397.39	1755.40
397.58	1825.62
397.77	1792.85
397.97	1813.92
398.16	1762.42
398.35	1839.66
398.55	1877.11
398.74	1891.15
398.93	1998.82
399.12	1860.73
399.32	1956.69
399.51	1921.58
399.70	2045.63
399.90	2059.67
400.09	1956.69
400.28	2012.86
400.47	2085.42
400.67	2146.27
400.86	2026.90
401.05	2052.65
401.24	2111.16
401.44	2052.65
401.63	1994.14
401.82	2143.93
402.01	2101.80
402.21	2193.08
402.40	2253.94
402.59	2256.28
402.78	2092.44
402.97	2223.51
403.17	2148.61
403.36	2237.55
403.55	2127.55
403.74	2225.85
403.93	2361.60
404.13	2417.77
404.32	2354.58
404.51	2427.14
404.70	2473.95
404.89	2352.24
405.09	2485.65
405.28	2520.76
405.47	2480.97
405.66	2546.50
405.85	2504.37
406.05	2499.69
406.24	2579.27
406.43	2516.08
406.62	2602.68
406.81	2544.16
407.00	2661.19
407.20	2548.84
407.39	2551.18
407.58	2796.94
407.77	2633.10
407.96	2626.08
408.15	2696.30
408.34	2719.70
408.54	2708.00
408.73	2782.90
408.92	2799.28
409.11	2923.33
409.30	2895.24
409.49	2846.09
409.68	2995.89
409.87	2731.41
410.07	2853.11
410.26	3105.89
410.45	2965.46
410.64	3040.36
410.83	3082.49
411.02	3082.49
411.21	3105.89
411.40	3155.04
411.59	3232.28
411.78	3201.85
411.98	3152.70
412.17	3276.75
412.36	3314.20
412.55	3363.35
412.74	3361.01
412.93	3407.82
413.12	3389.10
413.31	3548.25
413.50	3463.99
413.69	3541.23
413.88	3588.04
414.07	3545.91
414.26	3700.39
414.45	3506.12
414.64	3672.30
414.83	3721.45
415.02	3653.58
415.22	3777.62
415.41	3857.20
415.60	3777.62
415.79	3880.61
415.98	3824.44
416.17	3943.80
416.36	3983.59
416.55	3992.95
416.74	3974.23
416.93	4098.28
417.12	4149.77
417.31	4161.47
417.50	4065.51
417.69	4337.01
417.88	4262.12
418.07	4493.83
418.26	4365.10
418.45	4252.75
418.64	4341.69
418.83	4395.53
419.02	4521.92
419.21	4437.66
419.39	4461.06
419.58	4432.97
419.77	4631.92
419.96	4432.97
420.15	4622.56
420.34	4594.47
420.53	4456.38
420.72	4676.39
420.91	4671.71
421.10	4690.43
421.29	4793.42
421.48	4732.56
421.67	4933.85
421.86	4711.50
422.05	4716.18
422.24	4798.10
422.43	4950.23
422.61	4915.12
422.80	4929.17
422.99	4983.00
423.18	4856.61
423.37	5034.49
423.56	4898.74
423.75	4954.91
423.94	4919.81
424.13	4575.75
424.32	4725.54
424.50	5041.51
424.69	5027.47
424.88	4980.66
425.07	4912.78
425.26	4781.71
425.45	4840.23
425.64	4861.29
425.83	4936.19
426.01	5006.41
426.20	4992.36
426.39	4987.68
426.58	5011.09
426.77	4947.89
426.96	4978.32
427.15	5132.79
427.33	5078.96
427.52	5128.11
427.71	5006.41
427.90	5100.03
428.09	5310.68
428.28	5308.34
428.46	5507.28
428.65	5270.89
428.84	5486.22
429.03	5495.58
429.22	5289.61
429.40	5406.64
429.59	5416.00
429.78	5266.21
429.97	5369.19
430.16	5565.79
430.34	5575.16
430.53	5694.52
430.72	5533.03
430.91	5481.53
431.10	5591.54
431.28	5678.14
431.47	5811.55
431.66	5703.89
431.85	5717.93
432.03	5851.34
432.22	5937.94
432.41	5909.85
432.60	5628.99
432.79	5792.83
432.97	5856.02
433.16	5926.24
433.35	5902.83
433.54	6111.14
433.72	6078.37
433.91	6150.93
434.10	6120.50
434.28	6146.25
434.47	6099.44
434.66	6157.95
434.85	6225.82
435.03	6111.14
435.22	6317.11
435.41	6572.22
435.59	6375.62
435.78	6401.37
435.97	6335.83
436.16	6328.81
436.34	6516.05
436.53	6602.65
436.72	6677.55
436.90	6317.11
437.09	6867.13
437.28	6546.48
437.46	6604.99
437.65	6649.46
437.84	6747.76
438.02	6780.53
438.21	6614.35
438.40	6640.10
438.58	7052.03
438.77	7009.90
438.96	6832.02
439.14	7007.56
439.33	7110.55
439.52	7157.36
439.70	7098.84
439.89	7461.63
440.08	7351.62
440.26	7356.30
440.45	7229.91
440.63	7508.44
440.82	7634.83
441.01	7356.30
441.19	7836.11
441.38	7691.00
441.57	7817.39
441.75	7793.98
441.94	7946.12
442.12	7927.39
442.31	7950.80
442.50	8018.68
442.68	7946.12
442.87	8086.55
443.05	8255.07
443.24	8269.11
443.43	8060.80
443.61	8196.56
443.80	8442.31
443.98	7906.33
444.17	7801.01
444.35	8107.62
444.54	8257.41
444.73	8255.07
444.91	8407.20
445.10	8266.77
445.28	8189.53
445.47	8276.13
445.65	8348.69
445.84	8446.99
446.02	8568.70
446.21	8341.67
446.39	8294.86
446.58	8461.04
446.77	8414.23
446.95	8273.79
447.14	8238.69
447.32	8346.35
447.51	8423.59
447.69	8271.45
447.88	8439.97
448.06	8568.70
448.25	8463.38
448.43	8395.50
448.62	8594.45
448.80	8571.04
448.99	8575.72
449.17	8578.06
449.36	8528.91
449.54	8748.92
449.73	8954.89
449.91	8933.82
450.10	8992.34
450.28	9020.42
450.46	8870.63
450.65	9053.19
450.83	8823.82
451.02	8926.80
451.20	9081.28
451.39	9296.61
451.57	9118.73
451.76	9081.28
451.94	9179.58
452.13	9378.53
452.31	9085.96
452.49	9036.81
452.68	9352.78
452.86	9205.33
453.05	9441.72
453.23	9577.47
453.42	9371.50
453.60	9275.54
453.78	9479.17
453.97	9556.41
454.15	9310.65
454.34	9465.13
454.52	9507.26
454.70	9504.92
454.89	9682.80
455.07	9593.86
455.26	9528.32
455.44	9902.81
455.62	9853.66
455.81	9891.10
455.99	9933.23
456.17	10141.54
456.36	10054.94
456.54	10136.86
456.73	10298.36
456.91	10363.89
457.09	10490.28
457.28	10303.04
457.46	10141.54
457.64	10370.91
457.83	10286.65
458.01	10221.12
458.19	10651.78
458.38	10560.50
458.56	10689.23
458.74	10649.44
458.93	10553.48
459.11	10677.52
459.29	10752.42
459.48	10675.18
459.66	10738.38
459.84	10771.15
460.03	11009.88
460.21	10937.32
460.39	11089.46
460.57	11063.71
460.76	11082.44
460.94	10963.07
461.12	10960.73
461.31	11208.83
461.49	11098.82
461.67	10970.09
461.85	11318.83
462.04	11253.30
462.22	11548.20
462.40	11550.54
462.59	11627.78
462.77	11426.50
462.95	11707.36
463.13	11445.22
463.32	11566.93
463.50	11721.40
463.68	11592.67
463.86	11705.02
464.05	11559.91
464.23	11728.42
464.41	11765.87
464.59	11817.36
464.78	12046.74
464.96	11829.07
465.14	11770.55
465.32	12098.23
465.50	11974.18
465.69	12121.63
465.87	12138.02
466.05	11941.41
466.23	11992.90
466.41	11978.86
466.60	12571.02
466.78	12091.21
466.96	11882.90
467.14	12222.28
467.32	12306.54
467.51	12421.22
467.69	11929.71
467.87	12313.56
468.05	12884.65
468.23	12278.45
468.41	12369.73
468.60	12669.32
468.78	12793.37
468.96	12767.62
469.14	12744.22
469.32	12908.05
469.50	12875.29
469.69	12968.91
469.87	12931.46
470.05	13132.75
470.23	13315.31
470.41	12936.14
470.59	13247.43
470.77	13118.70
470.95	13294.24
471.14	13294.24
471.32	13277.86
471.50	13734.26
471.68	13610.22
471.86	13558.72
472.04	13420.63
472.22	13989.38
472.40	13837.25
472.58	13542.34
472.77	13778.73
472.95	14148.54
473.13	14600.26
473.31	14354.51
473.49	14230.46
473.67	13874.70
473.85	14216.41
474.03	14665.80
474.21	14525.36
474.39	14927.94
474.57	14593.24
474.75	14874.10
474.93	15190.08
475.12	14810.91
475.30	14927.94
475.48	14967.73
475.66	15030.92
475.84	15222.84
476.02	15358.60
476.20	15520.09
476.38	15480.30
476.56	15852.45
476.74	15826.70
476.92	15875.85
477.10	15796.28
477.28	15992.88
477.46	16016.29
477.64	16133.31
477.82	16329.92
478.00	16917.39
478.18	16718.45
478.36	16908.03
478.54	16868.24
478.72	16959.52
478.90	16961.86
479.08	17771.69
479.26	17626.57
479.44	17350.39
479.62	17724.88
479.80	17907.44
479.98	18164.90
480.16	18281.92
480.34	18291.29
480.52	18464.49
480.70	18745.35
480.88	18466.83
481.06	18761.73
481.24	18469.17
481.41	19208.78
481.59	19112.81
481.77	19604.33
481.95	19499.00
482.13	19562.20
482.31	19831.36
482.49	20152.01
482.67	20105.20
482.85	20102.86
483.03	20376.70
483.21	20695.02
483.39	20613.10
483.57	20964.18
483.74	20980.56
483.92	21273.13
484.10	21034.39
484.28	21692.08
484.46	21968.27
484.64	22366.16
484.82	22038.48
485.00	22122.74
485.18	22558.08
485.35	22710.22
485.53	22654.05
485.71	23005.13
485.89	23578.56
486.07	23023.85
486.25	23222.80
486.43	23297.69
486.61	23665.16
486.78	24044.32
486.96	24175.39
487.14	24739.46
487.32	24294.76
487.50	24800.32
487.68	24938.41
487.85	24964.15
488.03	25312.89
488.21	25696.74
488.39	25743.55
488.57	25975.27
488.75	26239.75
488.92	26359.11
489.10	26300.60
489.28	26246.77
489.46	26972.33
489.64	27096.38
489.81	27662.79
489.99	27405.33
490.17	27655.77
490.35	28009.19
490.53	27946.00
490.70	28421.13
490.88	28198.77
491.06	28945.41
491.24	28634.11
491.41	29172.44
491.59	29186.48
491.77	29022.64
491.95	29565.65
492.13	29776.30
492.30	30040.78
492.48	30026.73
492.66	29677.99
492.84	30134.40
493.01	30347.39
493.19	30047.80
493.37	30637.61
493.54	30586.12
493.72	31321.05
493.90	31218.07
494.08	31817.24
494.25	31892.14
494.43	31974.06
494.61	32287.69
494.79	32098.11
494.96	32400.04
495.14	32711.33
495.32	33205.18
495.49	32842.40
495.67	33041.34
495.85	33331.57
496.02	33443.91
496.20	33881.60
496.38	33699.03
496.55	33656.90
496.73	34630.57
496.91	34115.65
497.09	34642.27
497.26	34712.49
497.44	35241.45
497.62	34909.09
497.79	35335.07
497.97	35505.93
498.14	35573.80
498.32	36294.69
498.50	36196.38
498.67	36577.89
498.85	36367.24
499.03	36570.87
499.20	36290.01
499.38	36718.32
499.56	36957.06
499.73	36439.80
499.91	36954.72
500.08	37476.66
500.26	37132.60
500.44	37720.07
500.61	37579.64
500.79	37289.42
500.97	37701.35
501.14	38649.27
501.32	38396.49
501.49	38412.87
501.67	38808.42
501.84	38426.92
502.02	38623.52
502.20	39009.71
502.37	39311.64
502.55	39264.83
502.72	38937.15
502.90	39342.06
503.07	39019.07
503.25	39548.03
503.43	39524.63
503.60	39798.47
503.78	40203.38
503.95	39716.55
504.13	40112.10
504.30	40268.92
504.48	40264.24
504.65	40329.77
504.83	40620.00
505.01	41256.62
505.18	41263.64
505.36	41263.64
505.53	41076.40
505.71	41235.56
505.88	41584.30
506.06	41514.08
506.23	41537.49
506.41	41443.87
506.58	42040.70
506.76	42150.71
506.93	42466.68
507.11	41743.45
507.28	42211.56
507.46	42279.44
507.63	42707.76
507.81	42880.95
507.98	42637.54
508.16	42850.53
508.33	43203.95
508.50	43564.39
508.68	43278.85
508.85	43707.16
509.03	43721.21
509.20	43878.02
509.38	44119.10
509.55	44416.35
509.73	44245.49
509.90	44069.95
510.08	44091.01
510.25	44528.69
510.42	44807.22
510.60	44861.05
510.77	44947.65
510.95	45148.93
511.12	44779.13
511.30	45415.76
511.47	45352.56
511.64	45214.47
511.82	45682.58
511.99	45382.99
512.17	45532.78
512.34	45696.62
512.51	46333.24
512.69	46000.89
512.86	46045.36
513.04	46469.00
513.21	46574.32
513.38	46590.70
513.56	46897.31
513.73	46438.57
513.90	47019.02
514.08	46546.23
514.25	46878.59
514.43	46859.87
514.60	47098.60
514.77	47138.39
514.95	47667.35
515.12	47241.37
515.29	47550.32
515.47	47744.59
515.64	48058.22
515.81	47222.65
515.99	48102.69
516.16	47966.94
516.33	48011.41
516.51	48404.62
516.68	47842.89
516.85	48193.97
517.03	48795.49
517.20	48477.18
517.37	48495.90
517.54	48608.25
517.72	48992.09
517.89	48816.55
518.06	48896.13
518.24	49148.91
518.41	48615.27
518.58	48821.23
518.75	49209.76
518.93	49282.32
519.10	49439.14
519.27	49820.64
519.45	49261.26
519.62	49502.33
519.79	49790.22
519.96	50108.53
520.14	49996.18
520.31	49741.06
520.48	50162.36
520.65	49755.11
520.83	50181.09
521.00	50515.78
521.17	50410.46
521.34	50244.28
521.52	50628.13
521.69	50511.10
521.86	50712.39
522.03	51033.04
522.20	51019.00
522.38	50934.74
522.55	51201.56
522.72	51121.98
522.89	51159.43
523.07	51421.57
523.24	51161.77
523.41	51554.98
523.58	51295.18
523.75	51707.12
523.92	51749.24
524.10	51950.53
524.27	51667.33
524.44	51405.19
524.61	51681.37
524.78	52177.56
524.96	52100.32
525.13	52278.21
525.30	52212.67
525.47	52437.36
525.64	52446.72
525.81	52442.04
525.98	52390.55
526.16	52238.42
526.33	52278.21
526.50	52748.65
526.67	52505.24
526.84	52783.76
527.01	52547.37
527.18	52603.54
527.36	52931.22
527.53	52959.30
527.70	53436.77
527.87	53256.55
528.04	53132.50
528.21	53066.97
528.38	52879.72
528.55	53165.27
528.72	53186.33
528.89	53230.80
529.07	52966.32
529.24	53207.40
529.41	53249.53
529.58	53415.71
529.75	53537.41
529.92	53506.99
530.09	53633.38
530.26	53591.25
530.43	53635.72
530.60	53492.94
530.77	53902.54
530.94	54157.66
531.11	53858.07
531.28	54066.38
531.46	53888.49
531.63	53897.86
531.80	53956.37
531.97	54110.85
532.14	54368.30
532.31	54171.70
532.48	54700.66
532.65	54541.50
532.82	54344.90
532.99	54560.23
533.16	54195.10
533.33	54450.22
533.50	54705.34
533.67	54742.79
533.84	54478.31
534.01	54602.36
534.18	54625.76
534.35	55082.17
534.52	55009.61
534.69	54951.10
534.86	54923.01
535.03	55105.57
535.20	54810.67
535.37	55096.21
535.54	55288.13
535.71	54993.23
535.88	55470.70
536.05	55344.31
536.22	55189.83
536.38	55681.34
536.55	55449.63
536.72	55496.44
536.89	55285.79
537.06	55505.80
537.23	55847.52
537.40	55423.89
537.57	55585.38
537.74	55594.74
537.91	55868.59
538.08	55653.26
538.25	55725.81
538.42	55835.82
538.59	55807.73
538.75	55704.75
538.92	56025.40
539.09	56114.34
539.26	55856.88
539.43	56041.79
539.60	56271.16
539.77	56107.32
539.94	56458.40
540.11	56032.42
540.28	56193.92
540.44	56341.38
540.61	56259.46
540.78	56332.01
540.95	56299.25
541.12	56182.22
541.29	56212.65
541.46	56467.76
541.62	56411.59
541.79	56317.97
541.96	56222.01
542.13	56430.32
542.30	56435.00
542.47	56711.18
542.63	56762.67
542.80	56818.84
542.97	56994.39
543.14	57078.64
543.31	56992.04
543.48	57031.83
543.64	57008.43
543.81	57216.74
543.98	57223.76
544.15	57336.10
544.32	57205.03
544.48	57511.64
544.65	57228.44
544.82	57188.65
544.99	57162.90
545.16	57326.74
545.32	57336.10
545.49	57556.11
545.66	57495.26
545.83	57607.61
546.00	57736.34
546.16	57642.71
546.33	57478.88
546.50	57205.03
546.67	57584.20
546.83	57387.60
547.00	57560.79
547.17	57366.53
547.34	57579.52
547.50	57773.78
547.67	57972.73
547.84	57771.44
548.00	57722.29
548.17	58061.67
548.34	58049.97
548.51	58080.39
548.67	58047.63
548.84	57874.43
549.01	57925.92
549.18	58075.71
549.34	58419.77
549.51	58099.12
549.68	58241.89
549.84	58223.17
550.01	58368.28
550.18	58265.30
550.34	58347.21
550.51	58040.60
550.68	58302.74
550.84	58096.78
551.01	58419.77
551.18	58340.19
551.34	58445.52
551.51	58391.68
551.68	58529.78
551.84	58494.67
552.01	58417.43
552.18	58159.97
552.34	58141.25
552.51	58569.57
552.68	58511.05
552.84	58543.82
553.01	58901.92
553.18	58576.59
553.34	58803.62
553.51	58478.28
553.67	58904.26
553.84	58965.12
554.01	59016.61
554.17	58862.13
554.34	59009.59
554.51	58759.15
554.67	58925.33
554.84	58908.94
555.00	58796.60
555.17	58710.00
555.33	58901.92
555.50	58855.11
555.67	58805.96
555.83	59040.01
556.00	59042.35
556.16	59082.14
556.33	59260.02
556.50	59112.57
556.66	59171.08
556.83	59002.56
556.99	59278.75
557.16	59180.45
557.32	59501.10
557.49	59526.84
557.65	59348.96
557.82	59166.40
557.98	59187.47
558.15	59306.83
558.32	59409.82
558.48	59306.83
558.65	59517.48
558.81	59496.42
558.98	59365.35
559.14	59423.86
559.31	59594.72
559.47	59538.55
559.64	59566.63
559.80	59430.88
559.97	59550.25
560.13	59599.40
560.30	59519.82
560.46	59627.49
560.63	59618.13
560.79	59529.19
560.96	59803.03
561.12	59805.37
561.29	59891.97
561.45	59875.58
561.61	59648.55
561.78	59519.82
561.94	59608.76
562.11	59770.26
562.27	59693.02
562.44	59786.64
562.60	60006.65
562.77	59800.69
562.93	59723.45
563.10	59896.65
563.26	59716.43
563.42	60065.17
563.59	59868.56
563.75	59870.90
563.92	59922.40
564.08	59922.40
564.24	60156.45
564.41	60006.65
564.57	60088.57
564.74	60102.62
564.90	60081.55
565.07	59835.80
565.23	60004.31
565.39	60011.34
565.56	59971.55
565.72	59999.63
565.88	60083.89
566.05	60001.97
566.21	60039.42
566.38	59941.12
566.54	59999.63
566.70	60266.45
566.87	60287.52
567.03	60179.85
567.19	60189.22
567.36	60154.11
567.52	60149.43
567.68	60477.10
567.85	60257.09
568.01	60301.56
568.17	59987.93
568.34	60273.48
568.50	60179.85
568.66	60273.48
568.83	60432.63
568.99	60385.82
569.15	60245.39
569.32	60069.85
569.48	60296.88
569.64	60463.06
569.81	60308.58
569.97	60406.89
570.13	60289.86
570.30	60427.95
570.46	60360.08
570.62	60397.52
570.78	60331.99
570.95	60381.14
571.11	60481.78
571.27	60292.20
571.43	60339.01
571.60	60453.70
571.76	60327.31
571.92	60472.42
572.09	60580.09
572.25	60554.34
572.41	60219.64
572.57	60451.36
572.74	60603.49
572.90	60392.84
573.06	60346.03
573.22	60580.09
573.38	60582.43
573.55	60266.45
573.71	60493.49
573.87	60610.51
574.03	60430.29
574.20	60563.70
574.36	60434.97
574.52	60533.28
574.68	60601.15
574.84	60760.31
575.01	60603.49
575.17	60633.92
575.33	60507.53
575.49	60500.51
575.65	60638.60
575.82	60659.66
575.98	60687.75
576.14	60800.10
576.30	60636.26
576.46	60617.53
576.62	60589.45
576.79	60687.75
576.95	60598.81
577.11	60643.28
577.27	60706.47
577.43	60715.84
577.59	60666.69
577.75	60603.49
577.92	60516.89
578.08	60729.88
578.24	60664.35
578.40	60736.90
578.56	60968.61
578.72	60816.48
578.88	60860.95
579.04	60970.96
579.21	60603.49
579.37	60987.34
579.53	60727.54
579.69	60444.33
579.85	60706.47
580.01	60704.13
580.17	60388.16
580.33	60961.59
580.49	60800.10
580.65	60608.17
580.82	60676.05
580.98	60701.79
581.14	60573.06
581.30	60919.46
581.46	60741.58
581.62	60793.07
581.78	60821.16
581.94	60996.70
582.10	60701.79
582.26	60669.03
582.42	60874.99
582.58	60645.62
582.74	60788.39
582.90	60889.04
583.06	60846.91
583.22	60807.12
583.38	60654.98
583.54	60671.37
583.70	60872.65
583.86	60870.31
584.02	60711.16
584.18	60926.49
584.34	60722.86
584.50	60968.61
584.66	60786.05
584.82	60652.64
584.98	60910.10
585.14	60776.69
585.30	60839.89
585.46	60975.64
585.62	61001.38
585.78	61111.39
585.94	60657.32
586.10	60910.10
586.26	60823.50
586.42	60912.44
586.58	60996.70
586.74	60844.57
586.90	61052.87
587.06	60839.89
587.22	60802.44
587.38	60851.59
587.54	60980.32
587.70	60872.65
587.86	61038.83
588.02	60928.83
588.18	61036.49
588.34	60949.89
588.49	61083.30
