SpectraSuite Data File
++++++++++++++++++++++++++++++++++++
Date: Fri Oct 25 11:25:25 EDT 2013
User: price-jones
Dark Spectrum Present: No
Reference Spectrum Present: No
Number of Sampled Component Spectra: 1
Spectrometers: USB2+H05261
Integration Time (usec): 100000 (USB2+H05261)
Spectra Averaged: 1 (USB2+H05261)
Boxcar Smoothing: 0 (USB2+H05261)
Correct for Electrical Dark: No (USB2+H05261)
Strobe/Lamp Enabled: No (USB2+H05261)
Correct for Detector Non-linearity: No (USB2+H05261)
Correct for Stray Light: No (USB2+H05261)
Number of Pixels in Processed Spectrum: 2048
>>>>>Begin Processed Spectral Data<<<<<
365.73	294.91
365.92	294.91
366.12	294.91
366.32	142.77
366.52	191.92
366.72	170.86
366.91	135.75
367.11	128.73
367.31	135.75
367.51	135.75
367.70	152.13
367.90	128.73
368.10	131.07
368.30	220.01
368.49	84.26
368.69	145.11
368.89	180.22
369.09	110.01
369.28	203.63
369.48	182.56
369.68	161.50
369.87	182.56
370.07	175.54
370.27	126.39
370.47	306.61
370.66	594.50
370.86	653.01
371.06	744.29
371.25	683.44
371.45	585.13
371.65	634.29
371.84	678.76
372.04	681.10
372.24	763.01
372.44	730.25
372.63	716.20
372.83	706.84
373.03	793.44
373.22	718.54
373.42	734.93
373.62	753.65
373.81	767.70
374.01	910.47
374.21	833.23
374.40	718.54
374.60	765.36
374.79	837.91
374.99	854.30
375.19	786.42
375.38	737.27
375.58	774.72
375.78	812.17
375.97	828.55
376.17	863.66
376.37	894.08
376.56	835.57
376.76	814.51
376.95	814.51
377.15	901.11
377.35	870.68
377.54	800.46
377.74	781.74
377.93	840.25
378.13	891.74
378.33	968.98
378.52	964.30
378.72	943.24
378.91	976.00
379.11	1022.81
379.31	917.49
379.50	950.26
379.70	957.28
379.89	1022.81
380.09	933.87
380.28	905.79
380.48	959.62
380.68	997.07
380.87	954.94
381.07	973.66
381.26	1013.45
381.46	994.73
381.65	1006.43
381.85	994.73
382.04	1053.24
382.24	983.02
382.43	990.05
382.63	1067.28
382.83	1071.97
383.02	1086.01
383.22	1219.42
383.41	1088.35
383.61	1074.31
383.80	1116.44
384.00	1203.04
384.19	1071.97
384.39	1046.22
384.58	1090.69
384.78	1181.97
384.97	1231.12
385.17	1135.16
385.36	1036.86
385.56	1198.35
385.75	1139.84
385.95	1109.41
386.14	1196.01
386.34	1128.14
386.53	1205.38
386.72	1235.80
386.92	1160.91
387.11	1188.99
387.31	1203.04
387.50	1224.10
387.70	1240.48
387.89	1181.97
388.09	1233.46
388.28	1217.08
388.48	1327.08
388.67	1336.45
388.86	1315.38
389.06	1334.11
389.25	1334.11
389.45	1345.81
389.64	1228.78
389.84	1284.95
390.03	1287.29
390.22	1327.08
390.42	1378.58
390.61	1331.76
390.81	1350.49
391.00	1383.26
391.19	1434.75
391.39	1306.02
391.58	1401.98
391.78	1427.73
391.97	1540.07
392.16	1401.98
392.36	1652.42
392.55	1542.41
392.75	1542.41
392.94	1472.20
393.13	1551.78
393.33	1425.39
393.52	1511.99
393.71	1633.69
393.91	1526.03
394.10	1509.65
394.29	1565.82
394.49	1636.03
394.68	1586.88
394.88	1666.46
395.07	1682.85
395.26	1692.21
395.46	1652.42
395.65	1708.59
395.84	1790.51
396.04	1830.30
396.23	1687.53
396.42	1708.59
396.62	1799.87
396.81	1671.14
397.00	1703.91
397.19	1729.66
397.39	1706.25
397.58	1888.81
397.77	1739.02
397.97	1776.47
398.16	1849.02
398.35	1902.86
398.55	1830.30
398.74	1886.47
398.93	1982.43
399.12	1970.73
399.32	1893.49
399.51	1893.49
399.70	1952.01
399.90	1966.05
400.09	1996.48
400.28	2017.54
400.47	2003.50
400.67	2153.29
400.86	2022.22
401.05	2118.18
401.24	2165.00
401.44	2090.10
401.63	2139.25
401.82	2272.66
402.01	2176.70
402.21	2118.18
402.40	2125.21
402.59	2132.23
402.78	2179.04
402.97	2165.00
403.17	2150.95
403.36	2172.02
403.55	2291.38
403.74	2258.62
403.93	2270.32
404.13	2354.58
404.32	2296.07
404.51	2314.79
404.70	2466.92
404.89	2448.20
405.09	2436.50
405.28	2448.20
405.47	2471.61
405.66	2326.49
405.85	2478.63
406.05	2392.03
406.24	2476.29
406.43	2452.88
406.62	2684.59
406.81	2520.76
407.00	2612.04
407.20	2572.25
407.39	2637.78
407.58	2539.48
407.77	2684.59
407.96	2712.68
408.15	2640.12
408.34	2607.36
408.54	2829.71
408.73	2792.26
408.92	2892.90
409.11	2862.48
409.30	2871.84
409.49	2892.90
409.68	2801.62
409.87	2932.69
410.07	2951.42
410.26	3005.25
410.45	2920.99
410.64	3002.91
410.83	3052.06
411.02	3091.85
411.21	3201.85
411.40	3089.51
411.59	3187.81
411.78	3169.09
411.98	3208.87
412.17	3145.68
412.36	3199.51
412.55	3255.69
412.74	3222.92
412.93	3255.69
413.12	3274.41
413.31	3501.44
413.50	3391.44
413.69	3506.12
413.88	3555.27
414.07	3431.23
414.26	3627.83
414.45	3627.83
414.64	3606.77
414.83	3676.98
415.02	3681.66
415.22	3728.47
415.41	3791.67
415.60	3831.46
415.79	3796.35
415.98	3988.27
416.17	3922.74
416.36	3859.54
416.55	3967.21
416.74	4018.70
416.93	3911.04
417.12	3999.98
417.31	4105.30
417.50	3967.21
417.69	4142.75
417.88	4248.07
418.07	4210.62
418.26	4215.30
418.45	4250.41
418.64	4486.81
418.83	4503.19
419.02	4273.82
419.21	4418.93
419.39	4322.97
419.58	4447.02
419.77	4322.97
419.96	4355.74
420.15	4711.50
420.34	4554.68
420.53	4512.55
420.72	4704.48
420.91	4657.67
421.10	4638.94
421.29	4744.27
421.48	4528.94
421.67	4652.98
421.86	4678.73
422.05	4678.73
422.24	4732.56
422.43	4819.16
422.61	4842.57
422.80	4889.38
422.99	4760.65
423.18	4901.08
423.37	4999.38
423.56	4898.74
423.75	4809.80
423.94	4828.53
424.13	4547.66
424.32	4697.46
424.50	4957.25
424.69	5090.67
424.88	4950.23
425.07	4922.15
425.26	4826.18
425.45	4919.81
425.64	4987.68
425.83	4819.16
426.01	5193.65
426.20	4968.96
426.39	5114.07
426.58	5025.13
426.77	5125.77
426.96	5142.16
427.15	4968.96
427.33	5121.09
427.52	4990.02
427.71	5256.84
427.90	5179.61
428.09	5160.88
428.28	5259.18
428.46	5345.78
428.65	5282.59
428.84	5430.04
429.03	5465.15
429.22	5179.61
429.40	5434.72
429.59	5453.45
429.78	5212.37
429.97	5275.57
430.16	5404.30
430.34	5598.56
430.53	5472.17
430.72	5568.13
430.91	5593.88
431.10	5598.56
431.28	5483.88
431.47	5795.17
431.66	5806.87
431.85	5729.63
432.03	5919.21
432.22	5846.66
432.41	5888.79
432.60	5844.32
432.79	5893.47
432.97	5834.96
433.16	6139.23
433.35	5781.12
433.54	6031.56
433.72	6090.07
433.91	6022.20
434.10	6155.61
434.28	6022.20
434.47	6188.38
434.66	6167.31
434.85	6188.38
435.03	6319.45
435.22	6399.02
435.41	6476.26
435.59	6200.08
435.78	6356.90
435.97	6427.11
436.16	6375.62
436.34	6249.23
436.53	6452.86
436.72	6478.60
436.90	6347.53
437.09	6546.48
437.28	6555.84
437.46	6487.96
437.65	6457.54
437.84	6836.70
438.02	6693.93
438.21	6705.63
438.40	6722.02
438.58	6782.87
438.77	6970.12
438.96	6935.01
439.14	6930.33
439.33	7159.70
439.52	7178.42
439.70	7103.53
439.89	7220.55
440.08	7077.78
440.26	7372.69
440.45	7370.35
440.63	7229.91
440.82	7562.27
441.01	7368.01
441.19	7485.03
441.38	7693.34
441.57	7775.26
441.75	7592.70
441.94	7887.61
442.12	7733.13
442.31	7915.69
442.50	7918.03
442.68	7845.48
442.87	7974.21
443.05	7843.14
443.24	8114.64
443.43	8044.42
443.61	8049.10
443.80	8465.72
443.98	7882.92
444.17	7761.22
444.35	8163.79
444.54	8205.92
444.73	8297.20
444.91	8187.19
445.10	8353.37
445.28	8187.19
445.47	8056.12
445.65	8145.06
445.84	8304.22
446.02	8180.17
446.21	8287.84
446.39	8205.92
446.58	8341.67
446.77	8390.82
446.95	8156.77
447.14	8341.67
447.32	8557.00
447.51	8404.86
447.69	8512.53
447.88	8203.58
448.06	8400.18
448.25	8320.60
448.43	8432.95
448.62	8519.55
448.80	8416.57
448.99	8704.45
449.17	8741.90
449.36	8468.06
449.54	8982.98
449.73	8711.47
449.91	8908.08
450.10	8751.26
450.28	9081.28
450.46	8980.64
450.65	8784.03
450.83	9034.47
451.02	8875.31
451.20	8945.53
451.39	8777.01
451.57	9050.85
451.76	8997.02
451.94	9167.88
452.13	9226.39
452.31	9327.03
452.49	9064.89
452.68	9383.21
452.86	9315.33
453.05	9315.33
453.23	9570.45
453.42	9207.67
453.60	9137.45
453.78	9357.46
453.97	9320.01
454.15	9348.10
454.34	9329.38
454.52	9467.47
454.70	9593.86
454.89	9633.64
455.07	9666.41
455.26	9774.08
455.44	9792.80
455.62	9767.06
455.81	9650.03
455.99	9923.87
456.17	9771.74
456.36	9902.81
456.54	10228.14
456.73	9947.28
456.91	10347.51
457.09	10134.52
457.28	10487.94
457.46	10314.74
457.64	10480.92
457.83	10380.28
458.01	10122.82
458.19	10553.48
458.38	10429.43
458.56	10647.10
458.74	10628.37
458.93	10583.90
459.11	10761.78
459.29	10626.03
459.48	10462.19
459.66	10651.78
459.84	10895.19
460.03	10977.11
460.21	10939.66
460.39	10729.02
460.57	10813.28
460.76	11009.88
460.94	11047.33
461.12	11133.93
461.31	11108.18
461.49	11166.70
461.67	10963.07
461.85	11262.66
462.04	11131.59
462.22	11843.11
462.40	11580.97
462.59	11243.93
462.77	11253.30
462.95	11438.20
463.13	11496.71
463.32	11473.31
463.50	11698.00
463.68	11616.08
463.86	11541.18
464.05	11363.30
464.23	11784.60
464.41	11686.29
464.59	11473.31
464.78	12016.31
464.96	11873.54
465.14	11690.98
465.32	12065.46
465.50	11850.13
465.69	11997.59
465.87	11983.54
466.05	12030.35
466.23	11889.92
466.41	11875.88
466.60	12278.45
466.78	12044.40
466.96	12100.57
467.14	12032.69
467.32	12271.43
467.51	12355.69
467.69	11826.73
467.87	12233.98
468.05	12496.12
468.23	12285.47
468.41	12348.67
468.60	12245.68
468.78	12493.78
468.96	12376.75
469.14	12835.50
469.32	12767.62
469.50	12248.02
469.69	12568.68
469.87	12994.65
470.05	12915.08
470.23	13249.77
470.41	13043.81
470.59	13046.15
470.77	13163.17
470.95	13235.73
471.14	13441.70
471.32	13219.35
471.50	13565.74
471.68	13411.27
471.86	13614.90
472.04	13345.73
472.22	14003.43
472.40	13586.81
472.58	13767.03
472.77	13837.25
472.95	13888.74
473.13	14539.41
473.31	13792.78
473.49	14003.43
473.67	13855.97
473.85	14125.13
474.03	14513.66
474.21	14494.94
474.39	14394.29
474.57	14450.47
474.75	14712.61
474.93	14761.76
475.12	14771.12
475.30	14988.79
475.48	14731.33
475.66	15016.88
475.84	14988.79
476.02	15290.72
476.20	15367.96
476.38	15496.69
476.56	15751.81
476.74	15892.24
476.92	15538.82
477.10	15639.46
477.28	15908.62
477.46	16025.65
477.64	15990.54
477.82	16128.63
478.00	16563.97
478.18	16563.97
478.36	16510.14
478.54	17165.49
478.72	17006.33
478.90	17167.83
479.08	17455.72
479.26	17521.25
479.44	17429.97
479.62	17547.00
479.80	17855.95
479.98	18017.44
480.16	18246.82
480.34	17949.57
480.52	18377.89
480.70	18532.36
480.88	18335.76
481.06	18537.04
481.24	18642.37
481.41	18752.37
481.59	19044.94
481.77	19042.60
481.95	19234.52
482.13	19569.22
482.31	19529.43
482.49	20147.33
482.67	19866.47
482.85	20147.33
483.03	20156.69
483.21	20610.76
483.39	20538.20
483.57	20809.70
483.74	20879.92
483.92	20903.32
484.10	20980.56
484.28	21376.11
484.46	21624.21
484.64	21982.31
484.82	21582.08
485.00	22127.42
485.18	22466.80
485.35	22841.29
485.53	22508.93
485.71	22689.15
485.89	23351.52
486.07	22946.61
486.25	23136.20
486.43	23370.25
486.61	23646.43
486.78	23887.51
486.96	23817.29
487.14	24444.56
487.32	24547.54
487.50	24379.02
487.68	24828.40
487.85	24847.13
488.03	25139.69
488.21	25553.97
488.39	25514.18
488.57	25603.12
488.75	26199.96
488.92	26071.23
489.10	26167.19
489.28	26216.34
489.46	26831.90
489.64	26768.71
489.81	27346.82
489.99	27192.34
490.17	27330.44
490.35	27733.01
490.53	27618.32
490.70	28032.60
490.88	28016.21
491.06	28304.10
491.24	28336.87
491.41	29046.05
491.59	29081.16
491.77	29109.24
491.95	29511.81
492.13	29362.02
492.30	29659.27
492.48	29549.26
492.66	30204.61
492.84	29621.82
493.01	30401.22
493.19	30120.35
493.37	30740.60
493.54	30960.61
493.72	30682.08
493.90	31248.49
494.08	31164.23
494.25	31782.13
494.43	31370.20
494.61	31622.98
494.79	32196.41
494.96	32147.26
495.14	32388.33
495.32	32891.55
495.49	33027.30
495.67	32760.48
495.85	33127.94
496.02	33450.94
496.20	33792.65
496.38	33633.50
496.55	33635.84
496.73	34562.69
496.91	34141.39
497.09	34574.39
497.26	34663.33
497.44	34597.80
497.62	35007.39
497.79	35519.97
497.97	34906.75
498.14	35227.40
498.32	35894.46
498.50	35990.42
498.67	36238.51
498.85	35955.31
499.03	36196.38
499.20	36573.21
499.38	36500.65
499.56	36753.43
499.73	36704.28
499.91	36788.54
500.08	36898.55
500.26	37209.84
500.44	37614.75
500.61	37628.79
500.79	37345.59
500.97	37514.11
501.14	37977.53
501.32	38185.84
501.49	38117.96
501.67	38260.74
501.84	38501.81
502.02	38314.57
502.20	38333.29
502.37	38639.90
502.55	38904.38
502.72	39147.80
502.90	39323.34
503.07	39335.04
503.25	39440.37
503.43	39285.89
503.60	39243.76
503.78	39543.35
503.95	39711.87
504.13	39978.69
504.30	40226.79
504.48	39952.94
504.65	40154.23
504.83	40715.96
505.01	40928.95
505.18	40556.80
505.36	41357.27
505.53	41022.57
505.71	41364.29
505.88	41427.48
506.06	41319.82
506.23	41764.52
506.41	41113.85
506.58	41434.50
506.76	41698.98
506.93	42017.30
507.11	42251.35
507.28	42103.90
507.46	42249.01
507.63	42052.41
507.81	42782.65
507.98	42546.26
508.16	42454.98
508.33	43103.31
508.50	42885.64
508.68	42939.47
508.85	43276.51
509.03	43330.34
509.20	43056.50
509.38	43746.95
509.55	43978.67
509.73	43981.01
509.90	43971.64
510.08	44582.52
510.25	44430.39
510.42	44348.47
510.60	44694.87
510.77	44854.03
510.95	44680.83
511.12	44573.16
511.30	44961.69
511.47	45184.04
511.64	45375.97
511.82	45345.54
511.99	44842.32
512.17	45874.50
512.34	45446.18
512.51	45748.11
512.69	45830.03
512.86	45806.62
513.04	45738.75
513.21	46424.53
513.38	46094.51
513.56	46663.26
513.73	46239.62
513.90	46759.22
514.08	46490.06
514.25	46777.95
514.43	47164.14
514.60	47096.26
514.77	46939.44
514.95	47316.27
515.12	46810.71
515.29	47213.29
515.47	47257.76
515.64	47447.34
515.81	47283.50
515.99	47756.29
516.16	47887.36
516.33	47976.30
516.51	48481.86
516.68	47721.18
516.85	47641.60
517.03	48215.04
517.20	48421.00
517.37	48133.12
517.54	48788.47
517.72	48797.83
517.89	48584.84
518.06	49188.70
518.24	48971.03
518.41	48617.61
518.58	48910.17
518.75	48842.30
518.93	49191.04
519.10	49064.65
519.27	48954.64
519.45	49382.96
519.62	49701.28
519.79	49495.31
519.96	49336.15
520.14	49397.01
520.31	49684.89
520.48	49680.21
520.65	50260.66
520.83	50410.46
521.00	50052.36
521.17	49921.29
521.34	50330.88
521.52	50511.10
521.69	49977.46
521.86	50705.37
522.03	50522.80
522.20	50578.98
522.38	51002.61
522.55	51054.11
522.72	50756.86
522.89	50766.22
523.07	51349.01
523.24	51295.18
523.41	51250.71
523.58	51035.38
523.75	51634.56
523.92	51447.32
524.10	51634.56
524.27	51819.46
524.44	51524.55
524.61	51695.41
524.78	51810.10
524.96	51861.59
525.13	51828.82
525.30	51990.32
525.47	51765.63
525.64	52037.13
525.81	52072.24
525.98	52086.28
526.16	52149.48
526.33	52458.43
526.50	52739.29
526.67	52252.46
526.84	52554.39
527.01	52615.24
527.18	52327.36
527.36	52303.95
527.53	52556.73
527.70	53155.91
527.87	53013.13
528.04	52949.94
528.21	53076.33
528.38	53083.35
528.55	52999.09
528.72	52905.47
528.89	52942.92
529.07	52963.98
529.24	52940.58
529.41	53296.34
529.58	52952.28
529.75	53223.78
529.92	53380.60
530.09	53682.53
530.26	53556.14
530.43	53822.96
530.60	53453.15
530.77	53556.14
530.94	53916.58
531.11	53694.23
531.28	53881.47
531.46	53471.88
531.63	53827.64
531.80	53944.67
531.97	54106.16
532.14	54267.66
532.31	53991.48
532.48	54213.83
532.65	54138.93
532.82	54174.04
532.99	54178.72
533.16	54363.62
533.33	54508.74
533.50	54426.82
533.67	54178.72
533.84	54337.88
534.01	54515.76
534.18	54747.47
534.35	55138.34
534.52	54665.55
534.69	54710.02
534.86	54672.57
535.03	54838.75
535.20	54967.48
535.37	54808.32
535.54	55152.38
535.71	54810.67
535.88	55297.50
536.05	55267.07
536.22	55260.05
536.38	55320.90
536.55	55332.60
536.72	55007.27
536.89	55210.90
537.06	55437.93
537.23	55360.69
537.40	55398.14
537.57	55463.67
537.74	55524.53
537.91	55749.22
538.08	55707.09
538.25	55224.94
538.42	55536.23
538.59	56116.68
538.75	55206.22
538.92	55592.40
539.09	55875.61
539.26	55917.74
539.43	55887.31
539.60	56053.49
539.77	55875.61
539.94	56294.56
540.11	56079.24
540.28	55990.30
540.44	56048.81
540.61	56060.51
540.78	55999.66
540.95	56079.24
541.12	56280.52
541.29	56109.66
541.46	56200.94
541.62	56343.72
541.79	56217.33
541.96	56200.94
542.13	56231.37
542.30	56439.68
542.47	56676.07
542.63	56655.01
542.80	56615.22
542.97	56790.76
543.14	56999.07
543.31	56896.08
543.48	56823.53
543.64	57277.59
543.81	56910.13
543.98	56931.19
544.15	57109.07
544.32	56966.30
544.48	57272.91
544.65	57247.16
544.82	57160.56
544.99	56842.25
545.16	57279.93
545.32	57130.14
545.49	57331.42
545.66	57373.55
545.83	57478.88
546.00	57434.41
546.16	57411.00
546.33	57279.93
546.50	57200.35
546.67	57537.39
546.83	57113.75
547.00	57366.53
547.17	57418.02
547.34	57502.28
547.50	57509.30
547.67	57907.19
547.84	57691.86
548.00	57968.05
548.17	57773.78
548.34	57958.69
548.51	58040.60
548.67	57944.64
548.84	57764.42
549.01	57979.75
549.18	57848.68
549.34	57991.45
549.51	58136.57
549.68	57965.71
549.84	58178.70
550.01	58101.46
550.18	57726.97
550.34	58174.02
550.51	58253.59
550.68	58192.74
550.84	57984.43
551.01	58333.17
551.18	58319.13
551.34	58340.19
551.51	58113.16
551.68	58298.06
551.84	58361.26
552.01	58096.78
552.18	58333.17
552.34	58122.52
552.51	58316.79
552.68	58368.28
552.84	58197.42
553.01	58644.46
553.18	58543.82
553.34	58812.98
553.51	58518.07
553.67	58571.91
553.84	58660.85
554.01	58555.52
554.17	58850.43
554.34	58822.34
554.51	58609.35
554.67	58927.67
554.84	58752.13
555.00	58735.74
555.17	58684.25
555.33	58852.77
555.50	58738.08
555.67	58688.93
555.83	58883.20
556.00	58974.48
556.16	59159.38
556.33	58995.54
556.50	59014.27
556.66	59168.74
556.83	58953.41
556.99	59011.93
557.16	59222.58
557.32	59157.04
557.49	59332.58
557.65	59128.95
557.82	59004.91
557.98	58958.09
558.15	59194.49
558.32	59126.61
558.48	58983.84
558.65	59346.62
558.81	59166.40
558.98	59337.26
559.14	59260.02
559.31	59309.18
559.47	59377.05
559.64	59346.62
559.80	59271.73
559.97	59405.14
560.13	59276.41
560.30	59491.74
560.46	59475.35
560.63	59463.65
560.79	59540.89
560.96	59620.47
561.12	59643.87
561.29	59681.32
561.45	59608.76
561.61	59578.34
561.78	59433.22
561.94	59440.24
562.11	59580.68
562.27	59662.60
562.44	59728.13
562.60	59812.39
562.77	59863.88
562.93	59643.87
563.10	59597.06
563.26	59739.83
563.42	59934.10
563.59	59917.71
563.75	59655.57
563.92	59711.75
564.08	59753.88
564.24	59753.88
564.41	59877.93
564.57	60016.02
564.74	59959.84
564.90	59898.99
565.07	59978.57
565.23	59959.84
565.39	59817.07
565.56	60004.31
565.72	59866.22
565.88	60016.02
566.05	59903.67
566.21	59964.52
566.38	60048.78
566.54	59835.80
566.70	60083.89
566.87	60184.54
567.03	60041.76
567.19	60299.22
567.36	60009.00
567.52	59875.58
567.68	60350.71
567.85	60119.00
568.01	60156.45
568.17	60100.28
568.34	60170.49
568.50	60032.40
568.66	60156.45
568.83	60229.01
568.99	60032.40
569.15	60163.47
569.32	60037.08
569.48	60156.45
569.64	60275.82
569.81	60205.60
569.97	60104.96
570.13	60163.47
570.30	60023.04
570.46	60250.07
570.62	60226.66
570.78	60175.17
570.95	60278.16
571.11	60210.28
571.27	60460.72
571.43	60427.95
571.60	60441.99
571.76	60371.78
571.92	60397.52
572.09	60233.69
572.25	60133.04
572.41	60212.62
572.57	60259.43
572.74	60449.02
572.90	60179.85
573.06	60182.19
573.22	60470.08
573.38	60221.98
573.55	60343.69
573.71	60327.31
573.87	60243.05
574.03	60336.67
574.20	60385.82
574.36	60378.80
574.52	60481.78
574.68	60416.25
574.84	60530.93
575.01	60575.40
575.17	60580.09
575.33	60364.76
575.49	60472.42
575.65	60495.83
575.82	60626.90
575.98	60825.84
576.14	60732.22
576.30	60523.91
576.46	60425.61
576.62	60444.33
576.79	60336.67
576.95	60315.61
577.11	60519.23
577.27	60516.89
577.43	60727.54
577.59	60664.35
577.75	60446.68
577.92	60427.95
578.08	60376.46
578.24	60575.40
578.40	60713.50
578.56	60573.06
578.72	60477.10
578.88	60708.82
579.04	60783.71
579.21	60598.81
579.37	60673.71
579.53	60832.86
579.69	60467.74
579.85	60329.65
580.01	60640.94
580.17	60374.12
580.33	60526.25
580.49	60556.68
580.65	60853.93
580.82	60566.04
580.98	60605.83
581.14	60584.77
581.30	60629.24
581.46	60549.66
581.62	60889.04
581.78	60458.38
581.94	60767.33
582.10	60685.41
582.26	60704.13
582.42	60491.15
582.58	60626.90
582.74	60683.07
582.90	60727.54
583.06	60654.98
583.22	60584.77
583.38	60626.90
583.54	60713.50
583.70	60715.84
583.86	60598.81
584.02	60643.28
584.18	60863.29
584.34	60797.76
584.50	60676.05
584.66	60640.94
584.82	60629.24
584.98	60879.67
585.14	61001.38
585.30	60612.85
585.46	60837.54
585.62	60779.03
585.78	60853.93
585.94	60629.24
586.10	60680.73
586.26	60612.85
586.42	60692.43
586.58	60889.04
586.74	60779.03
586.90	60790.73
587.06	60619.88
587.22	60945.21
587.38	60837.54
587.54	60914.78
587.70	61008.40
587.86	60769.67
588.02	60879.67
588.18	60879.67
588.34	60776.69
588.49	60678.39
