SpectraSuite Data File
++++++++++++++++++++++++++++++++++++
Date: Fri Oct 25 10:43:50 EDT 2013
User: price-jones
Dark Spectrum Present: No
Reference Spectrum Present: No
Number of Sampled Component Spectra: 1
Spectrometers: USB2+H05261
Integration Time (usec): 100000 (USB2+H05261)
Spectra Averaged: 1 (USB2+H05261)
Boxcar Smoothing: 0 (USB2+H05261)
Correct for Electrical Dark: No (USB2+H05261)
Strobe/Lamp Enabled: No (USB2+H05261)
Correct for Detector Non-linearity: No (USB2+H05261)
Correct for Stray Light: No (USB2+H05261)
Number of Pixels in Processed Spectrum: 2048
>>>>>Begin Processed Spectral Data<<<<<
365.73	124.05
365.92	124.05
366.12	124.05
366.32	49.15
366.52	2.34
366.72	42.13
366.91	23.41
367.11	0.00
367.31	16.38
367.51	51.49
367.70	0.00
367.90	53.83
368.10	9.36
368.30	0.00
368.49	60.85
368.69	51.49
368.89	39.79
369.09	60.85
369.28	35.11
369.48	107.66
369.68	9.36
369.87	121.71
370.07	53.83
370.27	142.77
370.47	154.48
370.66	393.21
370.86	449.38
371.06	468.11
371.25	528.96
371.45	416.62
371.65	465.77
371.84	425.98
372.04	449.38
372.24	519.60
372.44	498.53
372.63	540.66
372.83	566.41
373.03	500.87
373.22	482.15
373.42	521.94
373.62	582.79
373.81	599.18
374.01	599.18
374.21	528.96
374.40	433.00
374.60	653.01
374.79	554.71
374.99	552.37
375.19	545.34
375.38	578.11
375.58	566.41
375.78	613.22
375.97	526.62
376.17	685.78
376.37	631.94
376.56	671.73
376.76	617.90
376.95	655.35
377.15	692.80
377.35	704.50
377.54	585.13
377.74	650.67
377.93	706.84
378.13	664.71
378.33	657.69
378.52	601.52
378.72	660.03
378.91	662.37
379.11	521.94
379.31	770.04
379.50	578.11
379.70	613.22
379.89	723.23
380.09	753.65
380.28	692.80
380.48	755.99
380.68	772.38
380.87	702.16
381.07	690.46
381.26	709.18
381.46	716.20
381.65	763.01
381.85	720.88
382.04	702.16
382.24	744.29
382.43	720.88
382.63	688.12
382.83	660.03
383.02	732.59
383.22	770.04
383.41	746.63
383.61	788.76
383.80	816.85
384.00	777.06
384.19	858.98
384.39	779.40
384.58	727.91
384.78	753.65
384.97	840.25
385.17	833.23
385.36	863.66
385.56	779.40
385.75	821.53
385.95	854.30
386.14	922.17
386.34	875.36
386.53	898.77
386.72	805.14
386.92	875.36
387.11	868.34
387.31	795.78
387.50	833.23
387.70	908.13
387.89	863.66
388.09	847.27
388.28	903.45
388.48	903.45
388.67	1015.79
388.86	957.28
389.06	968.98
389.25	940.90
389.45	978.34
389.64	980.68
389.84	943.24
390.03	968.98
390.22	978.34
390.42	1025.15
390.61	1006.43
390.81	994.73
391.00	1008.77
391.19	1048.56
391.39	1069.62
391.58	1043.88
391.78	1076.65
391.97	1069.62
392.16	952.60
392.36	1032.18
392.55	1064.94
392.75	1107.07
392.94	973.66
393.13	1018.13
393.33	976.00
393.52	1032.18
393.71	1062.60
393.91	1083.67
394.10	1163.25
394.29	1116.44
394.49	1130.48
394.68	1226.44
394.88	1256.87
395.07	1364.53
395.26	1275.59
395.46	1303.68
395.65	1242.82
395.84	1139.84
396.04	1158.57
396.23	1167.93
396.42	1263.89
396.62	1174.95
396.81	1163.25
397.00	1156.22
397.19	1334.11
397.39	1287.29
397.58	1364.53
397.77	1343.47
397.97	1394.96
398.16	1439.43
398.35	1490.92
398.55	1390.28
398.74	1409.00
398.93	1521.35
399.12	1467.52
399.32	1476.88
399.51	1490.92
399.70	1607.95
399.90	1561.14
400.09	1455.81
400.28	1591.56
400.47	1638.38
400.67	1633.69
400.86	1671.14
401.05	1696.89
401.24	1664.12
401.44	1710.93
401.63	1729.66
401.82	1703.91
402.01	1650.08
402.21	1682.85
402.40	1774.13
402.59	1739.02
402.78	1760.08
402.97	1685.19
403.17	1734.34
403.36	1781.15
403.55	1842.00
403.74	1944.99
403.93	1902.86
404.13	1816.26
404.32	1837.32
404.51	1823.28
404.70	1940.30
404.89	1914.56
405.09	1867.75
405.28	1944.99
405.47	1968.39
405.66	1980.09
405.85	1987.11
406.05	1879.45
406.24	2026.90
406.43	1914.56
406.62	2076.06
406.81	2045.63
407.00	2024.56
407.20	2045.63
407.39	2045.63
407.58	2179.04
407.77	2218.83
407.96	2246.91
408.15	2298.41
408.34	2272.66
408.54	2279.68
408.73	2270.32
408.92	2289.04
409.11	2289.04
409.30	2272.66
409.49	2237.55
409.68	2249.25
409.87	2221.17
410.07	2099.46
410.26	2326.49
410.45	2408.41
410.64	2422.45
410.83	2530.12
411.02	2436.50
411.21	2630.76
411.40	2567.57
411.59	2586.29
411.78	2497.35
411.98	2656.51
412.17	2703.32
412.36	2778.22
412.55	2768.85
412.74	2780.56
412.93	2759.49
413.12	2672.89
413.31	2839.07
413.50	2813.32
413.69	2818.00
413.88	2796.94
414.07	2897.58
414.26	2974.82
414.45	2911.63
414.64	2944.39
414.83	3026.31
415.02	3009.93
415.22	3040.36
415.41	3014.61
415.60	3110.57
415.79	3335.26
415.98	3258.03
416.17	3218.24
416.36	3239.30
416.55	3187.81
416.74	3213.56
416.93	3190.15
417.12	3318.88
417.31	3372.71
417.50	3365.69
417.69	3400.80
417.88	3311.86
418.07	3339.94
418.26	3370.37
418.45	3456.97
418.64	3609.11
418.83	3506.12
419.02	3623.15
419.21	3658.26
419.39	3609.11
419.58	3534.21
419.77	3545.91
419.96	3653.58
420.15	3829.12
420.34	3632.51
420.53	3836.14
420.72	3946.14
420.91	3815.07
421.10	3763.58
421.29	4021.04
421.48	3833.80
421.67	3873.59
421.86	3836.14
422.05	3852.52
422.24	3805.71
422.43	3908.69
422.61	3873.59
422.80	3873.59
422.99	3866.56
423.18	3875.93
423.37	3904.01
423.56	3969.55
423.75	3925.08
423.94	3815.07
424.13	3719.11
424.32	3885.29
424.50	3943.80
424.69	3997.64
424.88	4025.72
425.07	4074.87
425.26	3838.48
425.45	3999.98
425.64	3950.82
425.83	3892.31
426.01	3985.93
426.20	3957.85
426.39	4098.28
426.58	3953.16
426.77	3985.93
426.96	3836.14
427.15	4051.47
427.33	4063.17
427.52	4109.98
427.71	4109.98
427.90	4159.13
428.09	4119.34
428.28	4119.34
428.46	4039.76
428.65	4168.49
428.84	4205.94
429.03	4189.56
429.22	4053.81
429.40	4107.64
429.59	4016.36
429.78	3978.91
429.97	3887.63
430.16	3941.46
430.34	3957.85
430.53	4145.09
430.72	4142.75
430.91	4278.50
431.10	4458.72
431.28	4514.89
431.47	4674.05
431.66	4683.41
431.85	4486.81
432.03	4671.71
432.22	4697.46
432.41	4709.16
432.60	4678.73
432.79	4678.73
432.97	4753.63
433.16	4636.60
433.35	4669.37
433.54	4786.40
433.72	4608.51
433.91	4575.75
434.10	4835.55
434.28	4793.42
434.47	4917.47
434.66	4821.50
434.85	4978.32
435.03	4945.55
435.22	4950.23
435.41	4999.38
435.59	5097.69
435.78	5088.32
435.97	5125.77
436.16	4961.94
436.34	5181.95
436.53	5142.16
436.72	5172.58
436.90	5184.29
437.09	5174.92
437.28	5069.60
437.46	5184.29
437.65	5188.97
437.84	5165.56
438.02	5226.42
438.21	5081.30
438.40	5256.84
438.58	5284.93
438.77	5301.31
438.96	5322.38
439.14	5568.13
439.33	5488.56
439.52	5467.49
439.70	5523.66
439.89	5659.42
440.08	5767.08
440.26	5764.74
440.45	5678.14
440.63	5951.98
440.82	6022.20
441.01	5930.92
441.19	5919.21
441.38	6113.48
441.57	6024.54
441.75	6101.78
441.94	6384.98
442.12	6312.42
442.31	6452.86
442.50	6256.25
442.68	6473.92
442.87	6441.15
443.05	6361.58
443.24	6579.25
443.43	6293.70
443.61	6511.37
443.80	6651.80
443.98	6157.95
444.17	6150.93
444.35	6555.84
444.54	6740.74
444.73	6574.56
444.91	6588.61
445.10	6494.99
445.28	6504.35
445.47	6382.64
445.65	6478.60
445.84	6457.54
446.02	6527.75
446.21	6525.41
446.39	6431.79
446.58	6682.23
446.77	6670.53
446.95	6630.74
447.14	6686.91
447.32	6810.96
447.51	6619.04
447.69	6689.25
447.88	6782.87
448.06	6761.81
448.25	6745.42
448.43	6801.60
448.62	6803.94
448.80	6717.34
448.99	6761.81
449.17	6956.07
449.36	6703.29
449.54	7000.54
449.73	7187.79
449.91	7208.85
450.10	7150.34
450.28	6970.12
450.46	7197.15
450.65	7152.68
450.83	7276.73
451.02	7225.23
451.20	7112.89
451.39	7311.83
451.57	7047.35
451.76	7110.55
451.94	7227.57
452.13	7398.43
452.31	7323.54
452.49	7040.33
452.68	7295.45
452.86	7243.96
453.05	7274.38
453.23	7290.77
453.42	7225.23
453.60	7386.73
453.78	7527.16
453.97	7295.45
454.15	7309.49
454.34	7424.18
454.52	7470.99
454.70	7583.34
454.89	7480.35
455.07	7620.78
455.26	7531.84
455.44	7705.04
455.62	7705.04
455.81	7648.87
455.99	7812.71
456.17	7768.24
456.36	7707.38
456.54	7911.01
456.73	7950.80
456.91	8203.58
457.09	8051.44
457.28	8252.73
457.46	7934.42
457.64	8168.47
457.83	8079.53
458.01	8084.21
458.19	8292.52
458.38	8006.97
458.56	8077.19
458.74	8273.79
458.93	8105.28
459.11	8322.94
459.29	8257.41
459.48	8234.00
459.66	8156.77
459.84	8423.59
460.03	8437.63
460.21	8297.20
460.39	8414.23
460.57	8617.85
460.76	8603.81
460.94	8610.83
461.12	8629.56
461.31	8561.68
461.49	8620.19
461.67	8734.88
461.85	8940.85
462.04	8807.44
462.22	8945.53
462.40	8828.50
462.59	8868.29
462.77	8997.02
462.95	9048.51
463.13	8786.37
463.32	8826.16
463.50	8978.30
463.68	8795.73
463.86	8851.91
464.05	8732.54
464.23	8922.12
464.41	9100.00
464.59	8629.56
464.78	9144.47
464.96	9102.34
465.14	9231.07
465.32	9214.69
465.50	9303.63
465.69	9324.69
465.87	9247.46
466.05	9191.28
466.23	8994.68
466.41	9268.52
466.60	9338.74
466.78	9167.88
466.96	9352.78
467.14	9006.38
467.32	9245.12
467.51	9643.01
467.69	9263.84
467.87	9425.34
468.05	9488.53
468.23	9673.43
468.41	9378.53
468.60	9607.90
468.78	9701.52
468.96	9509.60
469.14	9486.19
469.32	9640.67
469.50	9371.50
469.69	9689.82
469.87	9818.55
470.05	9692.16
470.23	9727.27
470.41	9717.90
470.59	9673.43
470.77	9970.68
470.95	9942.60
471.14	10207.08
471.32	9797.48
471.50	10335.81
471.68	10197.71
471.86	10289.00
472.04	10153.24
472.22	10443.47
472.40	10134.52
472.58	10258.57
472.77	10438.79
472.95	10640.08
473.13	10665.82
473.31	10480.92
473.49	10815.62
473.67	10710.29
473.85	10850.72
474.03	10906.90
474.21	11108.18
474.39	11089.46
474.57	11274.36
474.75	11035.63
474.93	11243.93
475.12	11288.40
475.30	11199.46
475.48	10937.32
475.66	11440.54
475.84	11136.27
476.02	11573.95
476.20	11265.00
476.38	11864.18
476.56	11716.72
476.74	11920.35
476.92	11819.71
477.10	11843.11
477.28	12152.06
477.46	12116.95
477.64	12208.23
477.82	12507.82
478.00	12634.21
478.18	12699.75
478.36	12304.20
478.54	12821.45
478.72	12809.75
478.90	12823.80
479.08	13209.98
479.26	12784.01
479.44	13242.75
479.62	13275.52
479.80	13240.41
479.98	13095.30
480.16	13736.60
480.34	13432.33
480.52	13804.48
480.70	13659.37
480.88	13593.83
481.06	14040.87
481.24	14054.92
481.41	14019.81
481.59	14534.73
481.77	14558.13
481.95	14413.02
482.13	14600.26
482.31	14551.11
482.49	14965.39
482.67	14988.79
482.85	15323.49
483.03	15105.82
483.21	15166.67
483.39	15136.24
483.57	15197.10
483.74	15339.87
483.92	15529.45
484.10	15639.46
484.28	15798.62
484.46	16088.84
484.64	16444.60
484.82	16145.02
485.00	16135.65
485.18	16257.36
485.35	16418.86
485.53	16077.14
485.71	15964.79
485.89	16547.59
486.07	16580.36
486.25	16556.95
486.43	16950.16
486.61	16922.07
486.78	17158.47
486.96	17282.52
487.14	17633.60
487.32	17668.70
487.50	18223.41
487.68	18132.13
487.85	18260.86
488.03	18513.64
488.21	18380.23
488.39	18478.53
488.57	18607.26
488.75	18953.66
488.92	18871.74
489.10	19428.79
489.28	19576.24
489.46	19850.08
489.64	19733.06
489.81	19779.87
489.99	19924.98
490.17	20154.35
490.35	20056.05
490.53	20133.29
490.70	20255.00
490.88	20201.16
491.06	20709.06
491.24	20720.76
491.41	20720.76
491.59	20903.32
491.77	20643.52
491.95	21123.33
492.13	21109.29
492.30	21455.69
492.48	21671.02
492.66	21741.24
492.84	21748.26
493.01	22068.91
493.19	21795.07
493.37	22324.03
493.54	22199.98
493.72	22609.58
493.90	22321.69
494.08	22820.22
494.25	23089.38
494.43	22988.74
494.61	23262.58
494.79	23559.83
494.96	23276.63
495.14	23765.80
495.32	23578.56
495.49	23623.03
495.67	23880.49
495.85	24269.01
496.02	24018.58
496.20	24100.50
496.38	24559.24
496.55	24404.77
496.73	24882.24
496.91	24844.79
497.09	25092.88
497.26	25406.52
497.44	25017.99
497.62	25235.66
497.79	24891.60
497.97	24826.06
498.14	25493.12
498.32	25738.87
498.50	25422.90
498.67	26253.79
498.85	25886.32
499.03	26242.09
499.20	26092.29
499.38	26457.42
499.56	26232.72
499.73	26396.56
499.91	26103.99
500.08	26677.43
500.26	26487.84
500.44	26859.99
500.61	26820.20
500.79	26546.36
500.97	26705.51
501.14	27297.67
501.32	26867.01
501.49	26932.54
501.67	27147.87
501.84	27220.43
502.02	27178.30
502.20	27697.90
502.37	27660.45
502.55	28051.32
502.72	27913.23
502.90	27515.34
503.07	27185.32
503.25	28023.23
503.43	27789.18
503.60	28161.33
503.78	28463.25
503.95	28144.94
504.13	28376.66
504.30	28739.44
504.48	28650.50
504.65	29221.59
504.83	29305.85
505.01	29219.25
505.18	29184.14
505.36	29270.74
505.53	29130.31
505.71	29319.89
505.88	29792.68
506.06	29343.30
506.23	29750.55
506.41	29490.75
506.58	29844.17
506.76	29628.84
506.93	30132.06
507.11	29661.61
507.28	30157.80
507.46	29759.91
507.63	29979.92
507.81	30272.49
507.98	30244.40
508.16	30462.07
508.33	30724.21
508.50	30597.82
508.68	30799.11
508.85	30981.67
509.03	30682.08
509.20	30831.88
509.38	31180.62
509.55	31318.71
509.73	31019.12
509.90	31353.82
510.08	31445.10
510.25	31494.25
510.42	31344.45
510.60	31585.53
510.77	31845.33
510.95	31913.20
511.12	31868.73
511.30	32041.93
511.47	32004.49
511.64	32582.60
511.82	32643.45
511.99	32112.15
512.17	32416.42
512.34	32367.27
512.51	32479.61
512.69	32573.24
512.86	32308.76
513.04	33331.57
513.21	33034.32
513.38	32608.34
513.56	32980.49
513.73	32512.38
513.90	32933.68
514.08	32638.77
514.25	33329.23
514.43	33043.68
514.60	33301.14
514.77	33149.01
514.95	33551.58
515.12	33294.12
515.29	33624.14
515.47	33773.93
515.64	34045.43
515.81	33855.85
515.99	33902.66
516.16	33823.08
516.33	33642.86
516.51	33741.16
516.68	33151.35
516.85	33280.08
517.03	33689.67
517.20	33975.22
517.37	33930.75
517.54	34497.16
517.72	34120.33
517.89	33528.17
518.06	33890.96
518.24	34326.30
518.41	34366.09
518.58	34560.35
518.75	34796.74
518.93	34859.94
519.10	35117.40
519.27	35131.44
519.45	34946.54
519.62	35562.10
519.79	34859.94
519.96	34831.85
520.14	35314.00
520.31	35314.00
520.48	35618.27
520.65	35749.34
520.83	35915.52
521.00	35634.66
521.17	35578.48
521.34	36189.36
521.52	36156.60
521.69	36311.07
521.86	36233.83
522.03	35990.42
522.20	36374.27
522.38	36254.90
522.55	36566.19
522.72	36580.23
522.89	35995.10
523.07	36711.30
523.24	36596.62
523.41	36811.95
523.58	36980.46
523.75	37357.29
523.92	37043.66
524.10	37322.18
524.27	37593.68
524.44	37392.40
524.61	37322.18
524.78	37336.23
524.96	37240.26
525.13	37284.73
525.30	37771.57
525.47	37668.58
525.64	37127.92
525.81	37635.81
525.98	37418.14
526.16	37146.64
526.33	37198.13
526.50	37483.68
526.67	37303.46
526.84	37345.59
527.01	37240.26
527.18	37635.81
527.36	37963.49
527.53	38263.08
527.70	38403.51
527.87	38251.38
528.04	38595.43
528.21	38300.53
528.38	38443.30
528.55	38438.62
528.72	38841.19
528.89	39086.95
529.07	38780.34
529.24	38424.57
529.41	38883.32
529.58	38848.21
529.75	38803.74
529.92	39264.83
530.09	38955.88
530.26	39138.44
530.43	38913.75
530.60	39014.39
530.77	39009.71
530.94	39400.58
531.11	39042.48
531.28	39512.92
531.46	39639.31
531.63	39548.03
531.80	39178.23
531.97	39091.63
532.14	39234.40
532.31	39253.12
532.48	39576.12
532.65	39929.54
532.82	39461.43
532.99	39789.11
533.16	39447.39
533.33	39669.74
533.50	40315.73
533.67	39852.30
533.84	39433.35
534.01	40165.93
534.18	39981.03
534.35	40336.79
534.52	39892.09
534.69	40353.18
534.86	40350.84
535.03	40334.45
535.20	41106.83
535.37	40552.12
535.54	40954.69
535.71	40898.52
535.88	40760.43
536.05	40308.71
536.22	40643.40
536.38	41045.97
536.55	40357.86
536.72	40605.95
536.89	40694.89
537.06	40774.47
537.23	41380.67
537.40	41235.56
537.57	41265.99
537.74	40954.69
537.91	40917.25
538.08	41214.49
538.25	41095.13
538.42	41251.94
538.59	41291.73
538.75	41237.90
538.92	41174.70
539.09	41429.82
539.26	41572.60
539.43	41539.83
539.60	41553.87
539.77	41092.79
539.94	41495.36
540.11	41209.81
540.28	41244.92
540.44	41855.80
540.61	41191.09
540.78	41060.02
540.95	41500.04
541.12	41584.30
541.29	41598.34
541.46	41593.66
541.62	41804.31
541.79	41518.76
541.96	41488.34
542.13	41996.23
542.30	41371.31
542.47	42127.30
542.63	41954.10
542.80	41998.57
542.97	42808.40
543.14	42560.30
543.31	43035.43
543.48	42330.93
543.64	43131.39
543.81	42712.44
543.98	42546.26
544.15	42707.76
544.32	43012.02
544.48	43147.78
544.65	43271.82
544.82	43131.39
544.99	42679.67
545.16	42635.20
545.32	42892.66
545.49	43344.38
545.66	43496.52
545.83	43405.23
546.00	43571.41
546.16	42689.03
546.33	43166.50
546.50	42990.96
546.67	43222.67
546.83	43131.39
547.00	43290.55
547.17	43239.06
547.34	42981.60
547.50	43213.31
547.67	43428.64
547.84	42897.34
548.00	43564.39
548.17	43835.89
548.34	43508.22
548.51	43810.15
548.67	43751.63
548.84	43487.15
549.01	43643.97
549.18	43885.04
549.34	43751.63
549.51	43693.12
549.68	44006.75
549.84	43892.07
550.01	43976.33
550.18	44086.33
550.34	43805.47
550.51	43796.10
550.68	44126.12
550.84	43323.32
551.01	44311.02
551.18	43531.62
551.34	43842.92
551.51	44528.69
551.68	44069.95
551.84	44271.23
552.01	44327.41
552.18	44563.80
552.34	43805.47
552.51	44296.98
552.68	44254.85
552.84	44484.22
553.01	44758.06
553.18	44194.00
553.34	44493.58
553.51	44528.69
553.67	44706.57
553.84	44807.22
554.01	44655.08
554.17	44662.10
554.34	44662.10
554.51	44706.57
554.67	44622.31
554.84	44381.24
555.00	44648.06
555.17	44456.14
555.33	44683.17
555.50	44786.15
555.67	45212.13
555.83	44765.09
556.00	44790.83
556.16	45132.55
556.33	44767.43
556.50	44865.73
556.66	44739.34
556.83	44734.66
556.99	44992.12
557.16	45172.34
557.32	44954.67
557.49	45146.59
557.65	44893.82
557.82	44884.45
557.98	44804.88
558.15	45207.45
558.32	45165.32
558.48	45050.63
558.65	45638.11
558.81	44959.35
558.98	44952.33
559.14	45170.00
559.31	44891.48
559.47	44961.69
559.64	45209.79
559.80	45432.14
559.97	45432.14
560.13	44898.50
560.30	45336.18
560.46	44802.53
560.63	45483.63
560.79	45539.80
560.96	45773.86
561.12	45038.93
561.29	45146.59
561.45	45701.30
561.61	45230.85
561.78	45457.88
561.94	44921.90
562.11	45181.70
562.27	45195.74
562.44	45429.80
562.60	45485.97
562.77	45511.72
562.93	45371.28
563.10	45727.05
563.26	45160.64
563.42	45237.87
563.59	45544.48
563.75	45525.76
563.92	45570.23
564.08	45638.11
564.24	45710.66
564.41	45624.06
564.57	45626.40
564.74	45600.66
564.90	45549.17
565.07	45490.65
565.23	46000.89
565.39	45720.02
565.56	45815.99
565.72	45291.71
565.88	45759.81
566.05	45305.75
566.21	46204.52
566.38	45675.55
566.54	45750.45
566.70	46103.87
566.87	46047.70
567.03	45469.59
567.19	46052.38
567.36	46059.40
567.52	45773.86
567.68	45413.41
567.85	45862.80
568.01	46061.74
568.17	45399.37
568.34	45923.65
568.50	45785.56
568.66	45698.96
568.83	45631.08
568.99	45523.42
569.15	45394.69
569.32	45839.39
569.48	46075.79
569.64	46012.59
569.81	45911.95
569.97	45874.50
570.13	46026.63
570.30	45607.68
570.46	45254.26
570.62	45528.10
570.78	45352.56
570.95	45844.07
571.11	46080.47
571.27	45705.98
571.43	46202.18
571.60	45729.39
571.76	45464.91
571.92	45855.78
572.09	45769.18
572.25	46176.43
572.41	45876.84
572.57	46368.35
572.74	46047.70
572.90	45900.25
573.06	45881.52
573.22	45883.86
573.38	46094.51
573.55	45635.77
573.71	46160.05
573.87	46019.61
574.03	45832.37
574.20	45801.94
574.36	46138.98
574.52	46277.07
574.68	45701.30
574.84	46010.25
575.01	45993.87
575.17	45532.78
575.33	45663.85
575.49	46108.55
575.65	46103.87
575.82	46120.26
575.98	46012.59
576.14	46087.49
576.30	46164.73
576.46	45787.90
576.62	45778.54
576.79	45921.31
576.95	45745.77
577.11	46073.45
577.27	46398.78
577.43	45607.68
577.59	45818.33
577.75	45565.55
577.92	45801.94
578.08	45944.72
578.24	45771.52
578.40	46082.81
578.56	45832.37
578.72	45799.60
578.88	46129.62
579.04	46272.39
579.21	45584.27
579.37	46265.37
579.53	46209.20
579.69	46054.72
579.85	46014.93
580.01	46363.67
580.17	46014.93
580.33	45923.65
580.49	46342.61
580.65	46267.71
580.82	45970.46
580.98	45750.45
581.14	45944.72
581.30	46181.11
581.46	45937.69
581.62	46183.45
581.78	46169.41
581.94	46450.27
582.10	46387.08
582.26	46066.42
582.42	46272.39
582.58	46220.90
582.74	45895.56
582.90	46314.52
583.06	46670.28
583.22	46078.13
583.38	46103.87
583.54	46417.50
583.70	46080.47
583.86	46314.52
584.02	46033.66
584.18	46293.46
584.34	46096.85
584.50	46225.58
584.66	46181.11
584.82	45736.41
584.98	46469.00
585.14	46396.44
585.30	46199.83
585.46	46045.36
585.62	46195.15
585.78	46138.98
585.94	45865.14
586.10	46234.94
586.26	45991.53
586.42	46246.65
586.58	46309.84
586.74	46291.12
586.90	46014.93
587.06	45998.55
587.22	46377.72
587.38	46167.07
587.54	46080.47
587.70	46478.36
587.86	45872.16
588.02	45951.74
588.18	46227.92
588.34	46433.89
588.49	45027.23
588.65	45397.03
588.81	45256.60
588.97	45741.09
589.13	45769.18
589.29	45839.39
589.45	46071.10
589.61	46457.29
589.77	46562.62
589.93	46298.14
590.08	46415.16
