SpectraSuite Data File
++++++++++++++++++++++++++++++++++++
Date: Fri Oct 25 11:24:01 EDT 2013
User: price-jones
Dark Spectrum Present: No
Reference Spectrum Present: No
Number of Sampled Component Spectra: 1
Spectrometers: USB2+H05261
Integration Time (usec): 100000 (USB2+H05261)
Spectra Averaged: 1 (USB2+H05261)
Boxcar Smoothing: 0 (USB2+H05261)
Correct for Electrical Dark: No (USB2+H05261)
Strobe/Lamp Enabled: No (USB2+H05261)
Correct for Detector Non-linearity: No (USB2+H05261)
Correct for Stray Light: No (USB2+H05261)
Number of Pixels in Processed Spectrum: 2048
>>>>>Begin Processed Spectral Data<<<<<
365.73	299.59
365.92	299.59
366.12	299.59
366.32	159.16
366.52	135.75
366.72	107.66
366.91	86.60
367.11	58.51
367.31	98.30
367.51	124.05
367.70	131.07
367.90	84.26
368.10	72.56
368.30	60.85
368.49	131.07
368.69	184.90
368.89	135.75
369.09	142.77
369.28	177.88
369.48	170.86
369.68	156.82
369.87	156.82
370.07	212.99
370.27	348.74
370.47	311.29
370.66	561.73
370.86	655.35
371.06	650.67
371.25	638.97
371.45	613.22
371.65	718.54
371.84	650.67
372.04	746.63
372.24	657.69
372.44	681.10
372.63	716.20
372.83	739.61
373.03	828.55
373.22	734.93
373.42	711.52
373.62	744.29
373.81	830.89
374.01	819.19
374.21	821.53
374.40	774.72
374.60	823.87
374.79	826.21
374.99	840.25
375.19	763.01
375.38	828.55
375.58	760.67
375.78	854.30
375.97	819.19
376.17	870.68
376.37	873.02
376.56	788.76
376.76	828.55
376.95	861.32
377.15	882.38
377.35	917.49
377.54	964.30
377.74	891.74
377.93	858.98
378.13	903.45
378.33	945.58
378.52	1004.09
378.72	973.66
378.91	933.87
379.11	856.64
379.31	943.24
379.50	870.68
379.70	978.34
379.89	957.28
380.09	1011.11
380.28	1004.09
380.48	976.00
380.68	971.32
380.87	940.90
381.07	1062.60
381.26	1032.18
381.46	1027.50
381.65	976.00
381.85	1015.79
382.04	983.02
382.24	1100.05
382.43	1156.22
382.63	1181.97
382.83	1074.31
383.02	1097.71
383.22	1200.69
383.41	985.37
383.61	1104.73
383.80	1078.99
384.00	1025.15
384.19	1128.14
384.39	1132.82
384.58	1160.91
384.78	1156.22
384.97	1191.33
385.17	1165.59
385.36	1198.35
385.56	1149.20
385.75	1146.86
385.95	1153.88
386.14	1203.04
386.34	1088.35
386.53	1240.48
386.72	1198.35
386.92	1158.57
387.11	1270.91
387.31	1261.55
387.50	1193.67
387.70	1193.67
387.89	1270.91
388.09	1345.81
388.28	1371.55
388.48	1287.29
388.67	1343.47
388.86	1235.80
389.06	1320.06
389.25	1345.81
389.45	1315.38
389.64	1299.00
389.84	1355.17
390.03	1376.24
390.22	1362.19
390.42	1397.30
390.61	1387.94
390.81	1460.49
391.00	1453.47
391.19	1455.81
391.39	1519.01
391.58	1380.92
391.78	1350.49
391.97	1488.58
392.16	1430.07
392.36	1549.43
392.55	1568.16
392.75	1481.56
392.94	1549.43
393.13	1568.16
393.33	1554.12
393.52	1572.84
393.71	1713.27
393.91	1558.80
394.10	1504.96
394.29	1596.25
394.49	1516.67
394.68	1650.08
394.88	1558.80
395.07	1675.82
395.26	1624.33
395.46	1598.59
395.65	1769.44
395.84	1680.50
396.04	1748.38
396.23	1802.21
396.42	1764.76
396.62	1790.51
396.81	1755.40
397.00	1839.66
397.19	1778.81
397.39	1767.10
397.58	1825.62
397.77	1849.02
397.97	1863.07
398.16	1870.09
398.35	1881.79
398.55	1900.52
398.74	1921.58
398.93	1942.64
399.12	1944.99
399.32	1942.64
399.51	2001.16
399.70	2036.27
399.90	1886.47
400.09	2071.37
400.28	1980.09
400.47	1996.48
400.67	2136.91
400.86	2033.93
401.05	2001.16
401.24	2134.57
401.44	2104.14
401.63	2143.93
401.82	2228.19
402.01	2120.53
402.21	2197.76
402.40	2146.27
402.59	2263.30
402.78	2237.55
402.97	2289.04
403.17	2260.96
403.36	2211.81
403.55	2284.36
403.74	2270.32
403.93	2424.80
404.13	2347.56
404.32	2394.37
404.51	2462.24
404.70	2335.85
404.89	2340.54
405.09	2523.10
405.28	2429.48
405.47	2462.24
405.66	2473.95
405.85	2511.39
406.05	2457.56
406.24	2555.86
406.43	2544.16
406.62	2600.34
406.81	2668.21
407.00	2504.37
407.20	2579.27
407.39	2691.62
407.58	2705.66
407.77	2670.55
407.96	2696.30
408.15	2757.15
408.34	2920.99
408.54	2766.51
408.73	2614.38
408.92	2785.24
409.11	2881.20
409.30	2937.37
409.49	2988.86
409.68	2832.05
409.87	2942.05
410.07	3091.85
410.26	3009.93
410.45	3152.70
410.64	3038.02
410.83	3103.55
411.02	3192.49
411.21	3145.68
411.40	3143.34
411.59	3183.13
411.78	3262.71
411.98	3150.36
412.17	3351.65
412.36	3403.14
412.55	3391.44
412.74	3520.17
412.93	3342.28
413.12	3265.05
413.31	3552.93
413.50	3503.78
413.69	3550.59
413.88	3674.64
414.07	3566.98
414.26	3592.72
414.45	3644.21
414.64	3660.60
414.83	3775.28
415.02	3674.64
415.22	3721.45
415.41	3948.48
415.60	3943.80
415.79	3929.76
415.98	4058.49
416.17	3983.59
416.36	3915.72
416.55	3997.64
416.74	4093.60
416.93	4170.83
417.12	4100.62
417.31	4243.39
417.50	4365.10
417.69	4353.40
417.88	4266.80
418.07	4269.14
418.26	4177.86
418.45	4248.07
418.64	4503.19
418.83	4339.35
419.02	4505.53
419.21	4552.34
419.39	4423.61
419.58	4470.42
419.77	4470.42
419.96	4718.52
420.15	4704.48
420.34	4667.03
420.53	4519.57
420.72	4564.04
420.91	4575.75
421.10	4660.01
421.29	4791.08
421.48	4676.39
421.67	4636.60
421.86	4730.22
422.05	4863.63
422.24	4690.43
422.43	4964.28
422.61	4887.04
422.80	4950.23
422.99	5013.43
423.18	5149.18
423.37	4964.28
423.56	5018.11
423.75	4940.87
423.94	4816.82
424.13	4671.71
424.32	4753.63
424.50	4950.23
424.69	5179.61
424.88	5046.20
425.07	5013.43
425.26	4959.60
425.45	4954.91
425.64	5118.75
425.83	5090.67
426.01	5177.26
426.20	5165.56
426.39	5128.11
426.58	5088.32
426.77	5107.05
426.96	5177.26
427.15	5174.92
427.33	5245.14
427.52	5181.95
427.71	5273.23
427.90	5188.97
428.09	5294.29
428.28	5371.53
428.46	5355.15
428.65	5404.30
428.84	5453.45
429.03	5582.18
429.22	5317.70
429.40	5357.49
429.59	5284.93
429.78	5359.83
429.97	5327.06
430.16	5549.41
430.34	5694.52
430.53	5720.27
430.72	5547.07
430.91	5540.05
431.10	5631.33
431.28	5598.56
431.47	5717.93
431.66	5877.09
431.85	5778.78
432.03	5928.58
432.22	6169.65
432.41	5858.36
432.60	5804.53
432.79	5895.81
432.97	5961.34
433.16	6050.28
433.35	6001.13
433.54	6122.84
433.72	6176.67
433.91	6282.00
434.10	6214.12
434.28	6071.35
434.47	6176.67
434.66	6319.45
434.85	6450.52
435.03	6200.08
435.22	6237.53
435.41	6497.33
435.59	6328.81
435.78	6422.43
435.97	6506.69
436.16	6396.68
436.34	6452.86
436.53	6523.07
436.72	6722.02
436.90	6544.14
437.09	6703.29
437.28	6553.50
437.46	6635.42
437.65	6574.56
437.84	6846.07
438.02	6789.89
438.21	6513.71
438.40	6565.20
438.58	6958.41
438.77	7084.80
438.96	6998.20
439.14	7204.17
439.33	7190.13
439.52	7138.63
439.70	7365.67
439.89	7431.20
440.08	7431.20
440.26	7503.76
440.45	7470.99
440.63	7342.26
440.82	7632.49
441.01	7550.57
441.19	7618.44
441.38	7737.81
441.57	7665.25
441.75	7754.19
441.94	7861.86
442.12	7850.16
442.31	8077.19
442.50	8002.29
442.68	8042.08
442.87	8147.40
443.05	8201.24
443.24	8135.70
443.43	8430.61
443.61	8196.56
443.80	8369.76
443.98	8025.70
444.17	8088.89
444.35	8353.37
444.54	8432.95
444.73	8226.98
444.91	8336.99
445.10	8287.84
445.28	8334.65
445.47	8145.06
445.65	8336.99
445.84	8404.86
446.02	8402.52
446.21	8517.21
446.39	8374.44
446.58	8519.55
446.77	8479.76
446.95	8390.82
447.14	8557.00
447.32	8727.86
447.51	8451.67
447.69	8514.87
447.88	8580.40
448.06	8582.74
448.25	8423.59
448.43	8634.24
448.62	8702.11
448.80	8650.62
448.99	8685.73
449.17	8650.62
449.36	8847.22
449.54	8716.16
449.73	9004.04
449.91	9076.60
450.10	8982.98
450.28	9181.92
450.46	9151.49
450.65	9137.45
450.83	9177.24
451.02	8919.78
451.20	9430.02
451.39	9303.63
451.57	9149.15
451.76	9252.14
451.94	9151.49
452.13	9212.35
452.31	9479.17
452.49	9298.95
452.68	9490.87
452.86	9537.68
453.05	9406.61
453.23	9540.02
453.42	9359.80
453.60	9446.40
453.78	9736.63
453.97	9364.48
454.15	9565.77
454.34	9638.33
454.52	9893.44
454.70	9776.42
454.89	9755.35
455.07	9879.40
455.26	9872.38
455.44	10003.45
455.62	9921.53
455.81	10083.03
455.99	9802.16
456.17	10064.30
456.36	10066.64
456.54	10153.24
456.73	10181.33
456.91	10567.52
457.09	10492.62
457.28	10677.52
457.46	10277.29
457.64	10413.04
457.83	10534.75
458.01	10347.51
458.19	10764.12
458.38	10892.85
458.56	10691.57
458.74	10569.86
458.93	10677.52
459.11	10733.70
459.29	10705.61
459.48	10619.01
459.66	10855.40
459.84	10977.11
460.03	10920.94
460.21	10942.00
460.39	11019.24
460.57	10860.09
460.76	11342.24
460.94	11307.13
461.12	11290.74
461.31	11005.20
461.49	11194.78
461.67	11243.93
461.85	11466.28
462.04	11323.51
462.22	11492.03
462.40	11569.27
462.59	11470.97
462.77	11279.04
462.95	11777.58
463.13	11660.55
463.32	11592.67
463.50	11932.05
463.68	11758.85
463.86	11903.96
464.05	11831.41
464.23	11768.21
464.41	11988.22
464.59	11749.49
464.78	12109.93
464.96	12182.49
465.14	11992.90
465.32	12138.02
465.50	12123.98
465.69	12173.13
465.87	12180.15
466.05	12269.09
466.23	12023.33
466.41	12355.69
466.60	12554.63
466.78	12479.74
466.96	12159.08
467.14	12468.03
467.32	12407.18
467.51	12482.08
467.69	12126.32
467.87	12552.29
468.05	12643.57
468.23	12290.15
468.41	12741.88
468.60	12786.35
468.78	12704.43
468.96	12725.49
469.14	12643.57
469.32	13121.04
469.50	12774.64
469.69	13050.83
469.87	13165.51
470.05	13153.81
470.23	13287.22
470.41	13228.71
470.59	13413.61
470.77	13172.54
470.95	13355.10
471.14	13558.72
471.32	13231.05
471.50	13640.64
471.68	13694.47
471.86	13645.32
472.04	13933.21
472.22	14087.68
472.40	13715.54
472.58	13987.04
472.77	13958.96
472.95	14078.32
473.13	14626.01
473.31	14139.18
473.49	14288.97
473.67	14352.16
473.85	14228.12
474.03	14885.81
474.21	14656.43
474.39	14656.43
474.57	14913.89
474.75	15154.97
474.93	15016.88
475.12	15140.93
475.30	15194.76
475.48	15126.88
475.66	15396.04
475.84	14958.36
476.02	15630.10
476.20	15332.85
476.38	15946.07
476.56	16126.29
476.74	15976.50
476.92	16503.12
477.10	15950.75
477.28	16278.43
477.46	16336.94
477.64	16119.27
477.82	16575.67
478.00	16912.71
478.18	16926.75
478.36	17015.69
478.54	17114.00
478.72	17399.54
478.90	17235.70
479.08	17467.42
479.26	17879.35
479.44	17804.46
479.62	17792.75
479.80	18192.98
479.98	18274.90
480.16	18836.63
480.34	18312.35
480.52	18560.45
480.70	18675.13
480.88	18537.04
481.06	18951.32
481.24	18934.93
481.41	19066.00
481.59	19201.76
481.77	19300.06
481.95	19613.69
482.13	19981.15
482.31	19751.78
482.49	20365.00
482.67	20470.33
482.85	20446.92
483.03	20161.37
483.21	21156.10
483.39	20975.88
483.57	21378.45
483.74	21493.14
483.92	21378.45
484.10	21041.42
484.28	21638.25
484.46	22038.48
484.64	22677.45
484.82	22139.13
485.00	22583.83
485.18	22955.97
485.35	23054.28
485.53	22923.21
485.71	22860.01
485.89	23576.22
486.07	23714.31
486.25	23489.62
486.43	23770.48
486.61	24060.71
486.78	24088.79
486.96	23950.70
487.14	24954.79
487.32	24615.41
487.50	25144.38
487.68	25120.97
487.85	25458.01
488.03	25663.97
488.21	26272.51
488.39	25652.27
488.57	26298.26
488.75	26415.29
488.92	26628.27
489.10	27150.21
489.28	26838.92
489.46	27206.39
489.64	27154.90
489.81	27615.98
489.99	28027.92
490.17	27784.50
490.35	28126.22
490.53	28149.62
490.70	28666.88
490.88	28533.47
491.06	29209.89
491.24	29427.56
491.41	29282.44
491.59	29212.23
491.77	29729.48
491.95	29743.53
492.13	30211.64
492.30	30129.72
492.48	29785.66
492.66	30209.29
492.84	30419.94
493.01	30504.20
493.19	30583.78
493.37	31433.39
493.54	31470.84
493.72	31653.40
493.90	31969.38
494.08	31847.67
494.25	31908.52
494.43	32151.94
494.61	32767.50
494.79	32627.07
494.96	32582.60
495.14	32940.70
495.32	33055.39
495.49	33380.72
495.67	33205.18
495.85	33631.16
496.02	34026.71
496.20	34389.49
496.38	34469.07
496.55	34349.70
496.73	35218.04
496.91	34766.32
497.09	35079.95
497.26	35503.59
497.44	35033.14
497.62	35409.96
497.79	35704.87
497.97	35503.59
498.14	36060.63
498.32	36257.24
498.50	36346.18
498.67	37083.45
498.85	37048.34
499.03	36865.78
499.20	36631.72
499.38	36868.12
499.56	37525.81
499.73	37284.73
499.91	37249.63
500.08	37900.29
500.26	37633.47
500.44	37776.25
500.61	37956.47
500.79	38117.96
500.97	38146.05
501.14	38663.31
501.32	39056.52
501.49	38803.74
501.67	38866.94
501.84	39072.90
502.02	38700.76
502.20	38946.51
502.37	39416.96
502.55	39208.65
502.72	39555.05
502.90	39929.54
503.07	39409.94
503.25	40243.17
503.43	39878.05
503.60	40039.54
503.78	40776.81
503.95	40526.38
504.13	40533.40
504.30	40898.52
504.48	41216.83
504.65	41415.78
504.83	41303.43
505.01	41635.79
505.18	41038.95
505.36	41729.41
505.53	41530.47
505.71	41933.04
505.88	41851.12
506.06	41588.98
506.23	42433.91
506.41	41879.21
506.58	42319.23
506.76	42679.67
506.93	42841.17
507.11	42852.87
507.28	42506.47
507.46	42911.38
507.63	42958.19
507.81	43519.92
507.98	43119.69
508.16	43494.18
508.33	43709.50
508.50	43660.35
508.68	43852.28
508.85	44390.60
509.03	44123.78
509.20	44512.31
509.38	44411.67
509.55	44591.89
509.73	44650.40
509.90	44917.22
510.08	44512.31
510.25	44762.75
510.42	44912.54
510.60	44973.39
510.77	45691.94
510.95	45804.28
511.12	45333.84
511.30	45354.90
511.47	45799.60
511.64	45823.01
511.82	45797.26
511.99	46064.08
512.17	46263.03
512.34	46377.72
512.51	46424.53
512.69	46656.24
512.86	46571.98
513.04	47033.07
513.21	46452.61
513.38	46965.19
513.56	47021.36
513.73	46794.33
513.90	47173.50
514.08	47042.43
514.25	47384.15
514.43	47501.17
514.60	47810.12
514.77	47187.54
514.95	48013.75
515.12	47611.18
515.29	48137.80
515.47	48182.27
515.64	48259.51
515.81	48165.88
515.99	48381.21
516.16	48832.94
516.33	48446.75
516.51	49074.01
516.68	48474.84
516.85	48339.08
517.03	49088.06
517.20	49179.34
517.37	49027.20
517.54	49331.47
517.72	49427.43
517.89	49148.91
518.06	49544.46
518.24	49104.44
518.41	49359.56
518.58	49574.89
518.75	49354.88
518.93	49947.03
519.10	49509.35
519.27	49731.70
519.45	50244.28
519.62	50239.60
519.79	50129.59
519.96	50141.30
520.14	50375.35
520.31	50192.79
520.48	50897.29
520.65	50511.10
520.83	51175.81
521.00	50843.46
521.17	50677.28
521.34	50990.91
521.52	50820.05
521.69	50717.07
521.86	51217.94
522.03	51288.16
522.20	51222.62
522.38	51798.40
522.55	52039.47
522.72	51627.54
522.89	51337.31
523.07	51943.51
523.24	51810.10
523.41	51877.97
523.58	51409.87
523.75	51824.14
523.92	51885.00
524.10	52369.49
524.27	52224.37
524.44	51948.19
524.61	52238.42
524.78	52385.87
524.96	52285.23
525.13	52727.59
525.30	52758.02
525.47	52788.44
525.64	52184.58
525.81	52924.19
525.98	52741.63
526.16	52842.27
526.33	52662.05
526.50	53165.27
526.67	52715.89
526.84	53017.82
527.01	52870.36
527.18	53352.51
527.36	53343.15
527.53	53179.31
527.70	53291.66
527.87	53567.84
528.04	53483.58
528.21	53752.74
528.38	53600.61
528.55	53895.52
528.72	53654.44
528.89	53865.09
529.07	53609.97
529.24	53523.37
529.41	54000.84
529.58	53979.78
529.75	54108.50
529.92	53893.18
530.09	53876.79
530.26	53860.41
530.43	53827.64
530.60	53923.60
530.77	54380.01
530.94	54253.62
531.11	54365.96
531.28	54380.01
531.46	54508.74
531.63	54405.75
531.80	54349.58
531.97	54719.38
532.14	54653.85
532.31	54621.08
532.48	54422.14
532.65	54859.82
532.82	54651.51
532.99	54632.78
533.16	54347.24
533.33	54731.09
533.50	55014.29
533.67	55196.85
533.84	54457.24
534.01	55014.29
534.18	55152.38
534.35	55281.11
534.52	55168.77
534.69	55430.91
534.86	55409.84
535.03	55037.70
535.20	55313.88
535.37	55709.43
535.54	55515.17
535.71	55049.40
535.88	55564.32
536.05	55545.59
536.22	55529.21
536.38	55838.16
536.55	55522.19
536.72	55828.80
536.89	55835.82
537.06	55959.87
537.23	55936.46
537.40	55657.94
537.57	55772.63
537.74	55931.78
537.91	55957.53
538.08	56310.95
538.25	55819.44
538.42	55819.44
538.59	56107.32
538.75	56076.90
538.92	56013.70
539.09	56151.79
539.26	56320.31
539.43	56065.19
539.60	56212.65
539.77	56559.05
539.94	56690.12
540.11	56481.81
540.28	56413.93
540.44	56549.68
540.61	56435.00
540.78	56526.28
540.95	56238.39
541.12	56500.53
541.29	56521.60
541.46	56591.81
541.62	56800.12
541.79	56858.63
541.96	56779.06
542.13	56633.94
542.30	56905.44
542.47	56989.70
542.63	56989.70
542.80	57209.71
542.97	57106.73
543.14	57331.42
543.31	57223.76
543.48	57607.61
543.64	57523.35
543.81	57317.38
543.98	57495.26
544.15	57570.16
544.32	57366.53
544.48	57790.17
544.65	57579.52
544.82	57497.60
544.99	57322.06
545.16	57602.92
545.32	57399.30
545.49	58092.10
545.66	57895.49
545.83	57839.32
546.00	58026.56
546.16	57684.84
546.33	57787.83
546.50	57532.71
546.67	57743.36
546.83	57712.93
547.00	58064.01
547.17	58019.54
547.34	57886.13
547.50	58045.29
547.67	58372.96
547.84	58241.89
548.00	58412.75
548.17	58375.30
548.34	58176.36
548.51	58651.48
548.67	58286.36
548.84	58124.86
549.01	58113.16
549.18	58176.36
549.34	58482.97
549.51	58431.47
549.68	58220.83
549.84	58450.20
550.01	58635.10
550.18	58607.01
550.34	58447.86
550.51	58590.63
550.68	58691.27
550.84	58401.05
551.01	58820.00
551.18	58585.95
551.34	58752.13
551.51	58738.08
551.68	58665.53
551.84	58501.69
552.01	58419.77
552.18	58649.14
552.34	58815.32
552.51	58925.33
552.68	58752.13
552.84	58752.13
553.01	59210.87
553.18	58892.56
553.34	59091.51
553.51	58766.17
553.67	58831.71
553.84	59185.13
554.01	59243.64
554.17	59100.87
554.34	59278.75
554.51	59004.91
554.67	59049.38
554.84	59105.55
555.00	59194.49
555.17	59245.98
555.33	59112.57
555.50	59063.42
555.67	59011.93
555.83	59180.45
556.00	59426.20
556.16	59463.65
556.33	59489.40
556.50	59384.07
556.66	59653.23
556.83	59295.13
556.99	59405.14
557.16	59470.67
557.32	59599.40
557.49	59587.70
557.65	59297.47
557.82	59550.25
557.98	59465.99
558.15	59533.87
558.32	59592.38
558.48	59372.37
558.65	59515.14
558.81	59639.19
558.98	59870.90
559.14	59709.41
559.31	59695.36
559.47	59796.01
559.64	59849.84
559.80	59866.22
559.97	59819.41
560.13	59678.98
560.30	59730.47
560.46	59681.32
560.63	59852.18
560.79	59798.35
560.96	59962.18
561.12	60083.89
561.29	60144.75
561.45	59868.56
561.61	60102.62
561.78	60023.04
561.94	59924.74
562.11	59992.61
562.27	59980.91
562.44	60226.66
562.60	60165.81
562.77	60123.68
562.93	59875.58
563.10	60130.70
563.26	60212.62
563.42	60170.49
563.59	60348.37
563.75	60214.96
563.92	60198.58
564.08	60009.00
564.24	60336.67
564.41	60395.18
564.57	60259.43
564.74	60341.35
564.90	60140.07
565.07	60273.48
565.23	60383.48
565.39	60254.75
565.56	60360.08
565.72	60245.39
565.88	60247.73
566.05	60058.15
566.21	60233.69
566.38	60142.41
566.54	60362.42
566.70	60439.65
566.87	60580.09
567.03	60184.54
567.19	60533.28
567.36	60542.64
567.52	60411.57
567.68	60523.91
567.85	60481.78
568.01	60573.06
568.17	60580.09
568.34	60353.05
568.50	60397.52
568.66	60446.68
568.83	60397.52
568.99	60413.91
569.15	60556.68
569.32	60535.62
569.48	60608.17
569.64	60779.03
569.81	60339.01
569.97	60364.76
570.13	60704.13
570.30	60573.06
570.46	60694.77
570.62	60825.84
570.78	60603.49
570.95	60519.23
571.11	60706.47
571.27	60631.58
571.43	60706.47
571.60	61008.40
571.76	60570.72
571.92	60645.62
572.09	60706.47
572.25	60860.95
572.41	60629.24
572.57	60797.76
572.74	60807.12
572.90	60523.91
573.06	60757.97
573.22	60631.58
573.38	60837.54
573.55	60732.22
573.71	60917.12
573.87	60823.50
574.03	60713.50
574.20	61097.34
574.36	60631.58
574.52	60891.38
574.68	60931.17
574.84	60870.31
575.01	60774.35
575.17	60736.90
575.33	60772.01
575.49	60879.67
575.65	60905.42
575.82	60980.32
575.98	60996.70
576.14	61001.38
576.30	61008.40
576.46	60757.97
576.62	61087.98
576.79	60994.36
576.95	60795.42
577.11	61006.06
577.27	60828.18
577.43	60924.14
577.59	60884.36
577.75	60879.67
577.92	60896.06
578.08	60959.25
578.24	60816.48
578.40	61059.90
578.56	61127.77
578.72	60874.99
578.88	61254.16
579.04	61139.47
579.21	60900.74
579.37	60931.17
579.53	61179.26
579.69	60846.91
579.85	61062.24
580.01	60926.49
580.17	60828.18
580.33	60898.40
580.49	61139.47
580.65	60882.02
580.82	60804.78
580.98	60807.12
581.14	61169.90
581.30	61195.65
581.46	61027.13
581.62	61106.71
581.78	61003.72
581.94	61080.96
582.10	60954.57
582.26	60800.10
582.42	61160.54
582.58	61062.24
582.74	60926.49
582.90	60982.66
583.06	61095.00
583.22	61064.58
583.38	61141.81
583.54	61076.28
583.70	61027.13
583.86	61205.01
584.02	61092.66
584.18	61176.92
584.34	61139.47
584.50	61059.90
584.66	60874.99
584.82	61031.81
584.98	61256.50
585.14	61024.79
585.30	60966.27
585.46	61036.49
585.62	61258.84
585.78	61127.77
585.94	61057.56
586.10	61043.51
586.26	61052.87
586.42	61336.08
586.58	61242.46
586.74	61127.77
586.90	61132.45
587.06	61181.60
587.22	61322.04
587.38	61202.67
587.54	61413.32
587.70	61251.82
587.86	61181.60
588.02	61146.50
588.18	61307.99
588.34	61165.22
588.49	60928.83
