SpectraSuite Data File
++++++++++++++++++++++++++++++++++++
Date: Fri Oct 25 11:22:35 EDT 2013
User: price-jones
Dark Spectrum Present: No
Reference Spectrum Present: No
Number of Sampled Component Spectra: 1
Spectrometers: USB2+H05261
Integration Time (usec): 100000 (USB2+H05261)
Spectra Averaged: 1 (USB2+H05261)
Boxcar Smoothing: 0 (USB2+H05261)
Correct for Electrical Dark: No (USB2+H05261)
Strobe/Lamp Enabled: No (USB2+H05261)
Correct for Detector Non-linearity: No (USB2+H05261)
Correct for Stray Light: No (USB2+H05261)
Number of Pixels in Processed Spectrum: 2048
>>>>>Begin Processed Spectral Data<<<<<
365.73	205.97
365.92	205.97
366.12	205.97
366.32	163.84
366.52	51.49
366.72	140.43
366.91	95.96
367.11	170.86
367.31	100.64
367.51	124.05
367.70	196.60
367.90	107.66
368.10	117.03
368.30	191.92
368.49	177.88
368.69	128.73
368.89	161.50
369.09	212.99
369.28	128.73
369.48	112.35
369.68	133.41
369.87	170.86
370.07	166.18
370.27	198.95
370.47	318.31
370.66	571.09
370.86	716.20
371.06	655.35
371.25	702.16
371.45	645.99
371.65	741.95
371.84	662.37
372.04	702.16
372.24	699.82
372.44	664.71
372.63	718.54
372.83	772.38
373.03	798.12
373.22	753.65
373.42	821.53
373.62	779.40
373.81	753.65
374.01	835.57
374.21	781.74
374.40	791.10
374.60	880.04
374.79	751.31
374.99	737.27
375.19	791.10
375.38	800.46
375.58	777.06
375.78	889.40
375.97	816.85
376.17	866.00
376.37	835.57
376.56	795.78
376.76	849.61
376.95	877.70
377.15	990.05
377.35	863.66
377.54	856.64
377.74	863.66
377.93	929.19
378.13	912.81
378.33	943.24
378.52	887.06
378.72	964.30
378.91	933.87
379.11	966.64
379.31	873.02
379.50	966.64
379.70	1015.79
379.89	844.93
380.09	980.68
380.28	994.73
380.48	1013.45
380.68	980.68
380.87	1015.79
381.07	1064.94
381.26	1022.81
381.46	983.02
381.65	1055.58
381.85	990.05
382.04	1057.92
382.24	1046.22
382.43	992.39
382.63	1039.20
382.83	1104.73
383.02	1165.59
383.22	1205.38
383.41	1170.27
383.61	1032.18
383.80	1090.69
384.00	1041.54
384.19	1170.27
384.39	1214.74
384.58	1139.84
384.78	1116.44
384.97	1177.29
385.17	1149.20
385.36	1116.44
385.56	1172.61
385.75	1088.35
385.95	1186.65
386.14	1221.76
386.34	1177.29
386.53	1228.78
386.72	1167.93
386.92	1198.35
387.11	1261.55
387.31	1191.33
387.50	1291.98
387.70	1240.48
387.89	1233.46
388.09	1205.38
388.28	1280.27
388.48	1247.51
388.67	1263.89
388.86	1324.74
389.06	1369.21
389.25	1355.17
389.45	1299.00
389.64	1327.08
389.84	1306.02
390.03	1362.19
390.22	1451.13
390.42	1348.15
390.61	1383.26
390.81	1406.66
391.00	1401.98
391.19	1441.77
391.39	1383.26
391.58	1441.77
391.78	1437.09
391.97	1497.94
392.16	1509.65
392.36	1504.96
392.55	1423.05
392.75	1530.71
392.94	1554.12
393.13	1483.90
393.33	1500.28
393.52	1584.54
393.71	1526.03
393.91	1607.95
394.10	1689.87
394.29	1638.38
394.49	1535.39
394.68	1767.10
394.88	1643.06
395.07	1638.38
395.26	1579.86
395.46	1689.87
395.65	1654.76
395.84	1689.87
396.04	1750.72
396.23	1633.69
396.42	1699.23
396.62	1827.96
396.81	1753.06
397.00	1788.17
397.19	1842.00
397.39	1788.17
397.58	1781.15
397.77	1865.41
397.97	1935.62
398.16	1856.04
398.35	1870.09
398.55	1760.08
398.74	1940.30
398.93	1928.60
399.12	2062.01
399.32	1961.37
399.51	2017.54
399.70	1963.71
399.90	1982.43
400.09	2019.88
400.28	2106.48
400.47	2080.74
400.67	1928.60
400.86	2031.58
401.05	2033.93
401.24	2134.57
401.44	2183.72
401.63	2120.53
401.82	2165.00
402.01	2062.01
402.21	2120.53
402.40	2277.34
402.59	2209.47
402.78	2326.49
402.97	2223.51
403.17	2202.44
403.36	2244.57
403.55	2286.70
403.74	2385.01
403.93	2335.85
404.13	2450.54
404.32	2305.43
404.51	2431.82
404.70	2457.56
404.89	2354.58
405.09	2464.58
405.28	2534.80
405.47	2424.80
405.66	2612.04
405.85	2647.15
406.05	2424.80
406.24	2642.46
406.43	2656.51
406.62	2616.72
406.81	2803.96
407.00	2555.86
407.20	2679.91
407.39	2712.68
407.58	2656.51
407.77	2630.76
407.96	2724.38
408.15	2743.11
408.34	2726.72
408.54	2836.73
408.73	2883.54
408.92	2803.96
409.11	2780.56
409.30	2810.98
409.49	2839.07
409.68	2923.33
409.87	2958.44
410.07	3047.38
410.26	3019.29
410.45	3026.31
410.64	3049.72
410.83	3042.70
411.02	3176.11
411.21	3204.19
411.40	3180.79
411.59	3176.11
411.78	3171.43
411.98	3173.77
412.17	3440.59
412.36	3265.05
412.55	3375.05
412.74	3400.80
412.93	3459.31
413.12	3398.46
413.31	3574.00
413.50	3578.68
413.69	3482.72
413.88	3691.02
414.07	3602.08
414.26	3503.78
414.45	3658.26
414.64	3599.74
414.83	3803.37
415.02	3744.86
415.22	3873.59
415.41	3927.42
415.60	3824.44
415.79	3904.01
415.98	3885.29
416.17	4112.32
416.36	4086.58
416.55	4046.79
416.74	4049.13
416.93	3913.38
417.12	4173.18
417.31	4119.34
417.50	4142.75
417.69	4362.76
417.88	4304.25
418.07	4306.59
418.26	4210.62
418.45	4386.16
418.64	4552.34
418.83	4472.76
419.02	4472.76
419.21	4496.17
419.39	4510.21
419.58	4418.93
419.77	4535.96
419.96	4732.56
420.15	4655.33
420.34	4711.50
420.53	4571.07
420.72	4732.56
420.91	4657.67
421.10	4840.23
421.29	4737.24
421.48	4814.48
421.67	4784.06
421.86	4819.16
422.05	4826.18
422.24	4875.34
422.43	4910.44
422.61	4961.94
422.80	5029.81
422.99	4997.04
423.18	4870.65
423.37	5004.07
423.56	4980.66
423.75	5069.60
423.94	4910.44
424.13	4627.24
424.32	4760.65
424.50	5008.75
424.69	5153.86
424.88	5083.64
425.07	5027.47
425.26	5095.35
425.45	5081.30
425.64	4959.60
425.83	4997.04
426.01	5128.11
426.20	5093.01
426.39	5181.95
426.58	5015.77
426.77	5036.83
426.96	5123.43
427.15	5217.05
427.33	5114.07
427.52	5142.16
427.71	5364.51
427.90	5320.04
428.09	5413.66
428.28	5479.19
428.46	5572.82
428.65	5378.55
428.84	5554.09
429.03	5558.77
429.22	5439.40
429.40	5558.77
429.59	5446.43
429.78	5378.55
429.97	5408.98
430.16	5420.68
430.34	5593.88
430.53	5729.63
430.72	5753.04
430.91	5708.57
431.10	5600.90
431.28	5760.06
431.47	5902.83
431.66	5893.47
431.85	5935.60
432.03	5951.98
432.22	5977.73
432.41	6022.20
432.60	5811.55
432.79	5879.43
432.97	5905.17
433.16	6045.60
433.35	6162.63
433.54	6057.31
433.72	6296.04
433.91	6071.35
434.10	6169.65
434.28	6132.20
434.47	6225.82
434.66	6300.72
434.85	6218.80
435.03	6333.49
435.22	6331.15
435.41	6443.49
435.59	6492.65
435.78	6375.62
435.97	6642.44
436.16	6464.56
436.34	6661.16
436.53	6707.98
436.72	6633.08
436.90	6562.86
437.09	6803.94
437.28	6548.82
437.46	6609.67
437.65	6590.95
437.84	6923.30
438.02	6768.83
438.21	6925.65
438.40	6946.71
438.58	7108.21
438.77	7084.80
438.96	6787.55
439.14	7206.51
439.33	7190.13
439.52	7194.81
439.70	7281.41
439.89	7375.03
440.08	7583.34
440.26	7353.96
440.45	7447.58
440.63	7478.01
440.82	7754.19
441.01	7763.56
441.19	7648.87
441.38	7815.05
441.57	7737.81
441.75	7911.01
441.94	8072.51
442.12	8182.51
442.31	8121.66
442.50	8189.53
442.68	8091.23
442.87	8109.96
443.05	8112.30
443.24	8301.88
443.43	8074.85
443.61	8348.69
443.80	8379.12
443.98	8154.43
444.17	8032.72
444.35	8021.02
444.54	8468.06
444.73	8454.02
444.91	8276.13
445.10	8446.99
445.28	8395.50
445.47	8367.42
445.65	8557.00
445.84	8596.79
446.02	8568.70
446.21	8397.84
446.39	8596.79
446.58	8510.19
446.77	8608.49
446.95	8131.02
447.14	8491.46
447.32	8751.26
447.51	8524.23
447.69	8533.59
447.88	8599.13
448.06	8582.74
448.25	8636.58
448.43	8566.36
448.62	8695.09
448.80	8753.60
448.99	8671.68
449.17	8652.96
449.36	8713.81
449.54	8908.08
449.73	8978.30
449.91	9128.09
450.10	8896.38
450.28	9104.68
450.46	8924.46
450.65	9149.15
450.83	9146.81
451.02	8922.12
451.20	9224.05
451.39	9205.33
451.57	9177.24
451.76	9057.87
451.94	9362.14
452.13	9408.95
452.31	9497.89
452.49	9205.33
452.68	9121.07
452.86	9174.90
453.05	9535.34
453.23	9345.76
453.42	9287.25
453.60	9530.66
453.78	9479.17
453.97	9420.66
454.15	9696.84
454.34	9474.49
454.52	9678.12
454.70	9731.95
454.89	10017.49
455.07	9980.04
455.26	10108.77
455.44	9912.17
455.62	10022.17
455.81	10097.07
455.99	10347.51
456.17	10235.16
456.36	10300.70
456.54	10211.76
456.73	10195.37
456.91	10611.99
457.09	10441.13
457.28	10644.76
457.46	10391.98
457.64	10707.95
457.83	10434.11
458.01	10356.87
458.19	10736.04
458.38	10607.31
458.56	10705.61
458.74	10761.78
458.93	10710.29
459.11	10822.64
459.29	10731.36
459.48	10764.12
459.66	10792.21
459.84	11091.80
460.03	11194.78
460.21	11033.29
460.39	11171.38
460.57	11166.70
460.76	11089.46
460.94	11501.39
461.12	11077.76
461.31	11431.18
461.49	11162.01
461.67	11459.26
461.85	11726.08
462.04	11487.35
462.22	11992.90
462.40	11417.13
462.59	11805.66
462.77	11740.13
462.95	11686.29
463.13	11618.42
463.32	11770.55
463.50	12035.03
463.68	11922.69
463.86	11929.71
464.05	11646.51
464.23	11833.75
464.41	12133.34
464.59	11683.95
464.78	12575.70
464.96	11838.43
465.14	11871.20
465.32	12194.19
465.50	12243.34
465.69	12203.55
465.87	12430.59
466.05	12091.21
466.23	12297.17
466.41	12367.39
466.60	12482.08
466.78	12182.49
466.96	12362.71
467.14	12355.69
467.32	12346.33
467.51	12697.41
467.69	12278.45
467.87	12510.16
468.05	13029.76
468.23	12685.70
468.41	12397.82
468.60	12730.17
468.78	12875.29
468.96	12807.41
469.14	12931.46
469.32	12931.46
469.50	12863.58
469.69	13149.13
469.87	13177.22
470.05	13291.90
470.23	13369.14
470.41	13231.05
470.59	13343.39
470.77	13179.56
470.95	13544.68
471.14	13500.21
471.32	13298.92
471.50	13685.11
471.68	13631.28
471.86	13895.76
472.04	13783.41
472.22	14003.43
472.40	14010.45
472.58	13909.80
472.77	14038.53
472.95	14356.85
473.13	14871.76
473.31	14017.47
473.49	14401.32
473.67	14434.08
473.85	14326.42
474.03	14794.53
474.21	14663.46
474.39	14881.13
474.57	14743.03
474.75	15323.49
474.93	15154.97
475.12	15180.71
475.30	14934.96
475.48	15314.13
475.66	15321.15
475.84	15297.74
476.02	15613.71
476.20	15386.68
476.38	15889.90
476.56	16081.82
476.74	16088.84
476.92	15960.11
477.10	15829.04
477.28	16510.14
477.46	16322.90
477.64	16620.14
477.82	16570.99
478.00	17331.67
478.18	17069.53
478.36	17247.41
478.54	17132.72
478.72	17556.36
478.90	17596.15
479.08	17767.01
479.26	18080.64
479.44	17612.53
479.62	18111.07
479.80	18171.92
479.98	18267.88
480.16	18677.48
480.34	18581.51
480.52	18712.58
480.70	18871.74
480.88	18478.53
481.06	19199.41
481.24	18628.32
481.41	19087.07
481.59	19396.02
481.77	19814.98
481.95	19822.00
482.13	20056.05
482.31	19896.89
482.49	20189.46
482.67	20322.87
482.85	20786.30
483.03	21179.51
483.21	20954.82
483.39	20774.60
483.57	21010.99
483.74	21193.55
483.92	21420.58
484.10	21322.28
484.28	21682.72
484.46	21846.56
484.64	22750.01
484.82	22178.92
485.00	22356.80
485.18	23225.14
485.35	23264.92
485.53	23206.41
485.71	23136.20
485.89	23700.26
486.07	23697.92
486.25	23543.45
486.43	23826.65
486.61	24102.84
486.78	24355.61
486.96	24566.26
487.14	24870.53
487.32	24737.12
487.50	25081.18
487.68	25240.34
487.85	25378.43
488.03	25652.27
488.21	26202.30
488.39	26125.06
488.57	26291.24
488.75	26326.35
488.92	26478.48
489.10	27236.81
489.28	27161.92
489.46	27271.92
489.64	27220.43
489.81	27777.48
489.99	27946.00
490.17	28070.04
490.35	28048.98
490.53	28601.35
490.70	28594.32
490.88	29010.94
491.06	28999.24
491.24	28971.15
491.41	29741.19
491.59	29479.05
491.77	29525.86
491.95	29888.64
492.13	30106.31
492.30	29886.30
492.48	30782.73
492.66	30235.04
492.84	30462.07
493.01	30934.86
493.19	30904.43
493.37	31393.61
493.54	31564.46
493.72	31648.72
493.90	31529.36
494.08	32142.58
494.25	32226.84
494.43	32294.71
494.61	32790.91
494.79	32795.59
494.96	32554.51
495.14	33591.37
495.32	33235.61
495.49	33385.40
495.67	33270.72
495.85	33762.23
496.02	33998.62
496.20	34609.50
496.38	34595.46
496.55	34380.13
496.73	35035.48
496.91	34916.11
497.09	34960.58
497.26	35585.50
497.44	35468.48
497.62	35772.75
497.79	36215.11
497.97	35531.67
498.14	36308.73
498.32	36533.42
498.50	36392.99
498.67	37390.06
498.85	36875.14
499.03	37186.43
499.20	36992.17
499.38	37228.56
499.56	37525.81
499.73	37507.08
499.91	37607.73
500.08	37689.65
500.26	37706.03
500.44	38061.79
500.61	37797.31
500.79	38143.71
500.97	38415.21
501.14	38822.47
501.32	38607.14
501.49	38583.73
501.67	38864.60
501.84	39033.11
502.02	39290.57
502.20	39405.26
502.37	39548.03
502.55	40069.97
502.72	39707.19
502.90	40467.86
503.07	39770.38
503.25	39880.39
503.43	39910.82
503.60	40774.47
503.78	40765.11
503.95	40479.57
504.13	40931.29
504.30	41034.27
504.48	40706.60
504.65	41067.04
504.83	41542.17
505.01	41738.77
505.18	41588.98
505.36	42272.42
505.53	41586.64
505.71	41734.09
505.88	42082.83
506.06	41581.96
506.23	41963.46
506.41	42604.77
506.58	42600.09
506.76	42653.92
506.93	42794.36
507.11	42705.41
507.28	42871.59
507.46	42993.30
507.63	43646.31
507.81	43316.29
507.98	43299.91
508.16	43416.94
508.33	43578.43
508.50	43866.32
508.68	44126.12
508.85	44376.56
509.03	44215.06
509.20	44184.63
509.38	45090.42
509.55	44727.64
509.73	44535.71
509.90	45099.78
510.08	44573.16
510.25	44856.37
510.42	44942.97
510.60	45394.69
510.77	45633.42
510.95	45902.59
511.12	45366.60
511.30	45511.72
511.47	45635.77
511.64	46246.65
511.82	46248.99
511.99	46113.23
512.17	46700.71
512.34	45832.37
512.51	46433.89
512.69	46749.86
512.86	46653.90
513.04	47037.75
513.21	47016.68
513.38	47210.95
513.56	47061.15
513.73	47159.45
513.90	47456.70
514.08	47175.84
514.25	47395.85
514.43	47611.18
514.60	47817.14
514.77	47950.56
514.95	48224.40
515.12	47894.38
515.29	48385.89
515.47	48009.07
515.64	48542.71
515.81	48676.12
515.99	48390.58
516.16	48900.81
516.33	48729.95
516.51	48811.87
516.68	48385.89
516.85	48608.25
517.03	49081.03
517.20	49078.69
517.37	49071.67
517.54	49305.73
517.72	49448.50
517.89	49481.27
518.06	49303.38
518.24	49663.83
518.41	49602.97
518.58	49607.65
518.75	49317.43
518.93	49565.52
519.10	49588.93
519.27	49900.22
519.45	50068.74
519.62	50272.37
519.79	50225.56
519.96	50543.87
520.14	50293.43
520.31	50475.99
520.48	50855.16
520.65	50600.04
520.83	50981.55
521.00	51428.59
521.17	50887.93
521.34	50871.54
521.52	51480.08
521.69	50873.88
521.86	51468.38
522.03	51760.95
522.20	51683.71
522.38	51437.95
522.55	52041.81
522.72	51601.79
522.89	51667.33
523.07	51896.70
523.24	51882.66
523.41	51758.61
523.58	51587.75
523.75	52552.05
523.92	52053.51
524.10	52413.96
524.27	52449.06
524.44	52350.76
524.61	52360.12
524.78	52332.04
524.96	52418.64
525.13	52767.38
525.30	52952.28
525.47	52694.82
525.64	52538.01
525.81	52835.25
525.98	52889.09
526.16	52655.03
526.33	53109.10
526.50	53434.43
526.67	53001.43
526.84	52978.03
527.01	53336.13
527.18	53296.34
527.36	53162.93
527.53	53188.67
527.70	53698.91
527.87	53949.35
528.04	53614.65
528.21	53722.32
528.38	53640.40
528.55	53675.51
528.72	53783.17
528.89	53666.14
529.07	53616.99
529.24	53694.23
529.41	54059.35
529.58	54122.55
529.75	53635.72
529.92	53911.90
530.09	53883.81
530.26	54199.79
530.43	54136.59
530.60	54012.54
530.77	54298.09
530.94	54307.45
531.11	54632.78
531.28	54433.84
531.46	54607.04
531.63	54688.96
531.80	54651.51
531.97	54560.23
532.14	54738.11
532.31	54695.98
532.48	54869.18
532.65	54740.45
532.82	54869.18
532.99	55009.61
533.16	54808.32
533.33	55042.38
533.50	55243.66
533.67	55070.46
533.84	55077.49
534.01	55243.66
534.18	55136.00
534.35	55327.92
534.52	55533.89
534.69	55714.11
534.86	55435.59
535.03	55187.49
535.20	55346.65
535.37	55494.10
535.54	55662.62
535.71	55393.46
535.88	55856.88
536.05	55711.77
536.22	55870.93
536.38	55821.78
536.55	55807.73
536.72	55786.67
536.89	56048.81
537.06	55861.57
537.23	56147.11
537.40	55927.10
537.57	56222.01
537.74	55948.17
537.91	56376.48
538.08	56104.98
538.25	55882.63
538.42	56254.78
538.59	56552.02
538.75	56500.53
538.92	56062.85
539.09	56521.60
539.26	56406.91
539.43	56418.61
539.60	56467.76
539.77	56278.18
539.94	56760.33
540.11	56678.41
540.28	56842.25
540.44	56830.55
540.61	56694.80
540.78	56568.41
540.95	56860.97
541.12	56626.92
541.29	56671.39
541.46	56718.20
541.62	56989.70
541.79	56966.30
541.96	56626.92
542.13	56727.56
542.30	56992.04
542.47	57020.13
542.63	57174.61
542.80	57118.43
542.97	57406.32
543.14	57441.43
543.31	57198.01
543.48	57469.51
543.64	57804.21
543.81	57633.35
543.98	57396.96
544.15	57616.97
544.32	57698.89
544.48	57993.79
544.65	57621.65
544.82	57858.04
544.99	57427.38
545.16	57640.37
545.32	57808.89
545.49	58150.61
545.66	58061.67
545.83	57888.47
546.00	57853.36
546.16	58066.35
546.33	57703.57
546.50	57591.22
546.67	57935.28
546.83	57691.86
547.00	58061.67
547.17	58042.95
547.34	58042.95
547.50	58199.76
547.67	58396.37
547.84	58071.03
548.00	58433.81
548.17	58501.69
548.34	58384.66
548.51	58543.82
548.67	58660.85
548.84	58391.68
549.01	58239.55
549.18	58239.55
549.34	58473.60
549.51	58595.31
549.68	58541.48
549.84	58543.82
550.01	58611.70
550.18	58487.65
550.34	58672.55
550.51	58555.52
550.68	58855.11
550.84	58543.82
551.01	58768.51
551.18	58759.15
551.34	58812.98
551.51	58866.81
551.68	58677.23
551.84	58796.60
552.01	58639.78
552.18	58997.88
552.34	58836.39
552.51	58871.49
552.68	58763.83
552.84	59016.61
553.01	59159.38
553.18	59245.98
553.34	59040.01
553.51	59126.61
553.67	59004.91
553.84	59131.29
554.01	59093.85
554.17	59302.15
554.34	59339.60
554.51	59264.70
554.67	59344.28
554.84	59217.89
555.00	59339.60
555.17	59124.27
555.33	59477.69
555.50	59412.16
555.67	59255.34
555.83	59196.83
556.00	59320.88
556.16	59491.74
556.33	59552.59
556.50	59543.23
556.66	59777.28
556.83	59370.03
556.99	59634.51
557.16	59664.94
557.32	59735.15
557.49	59779.62
557.65	59571.32
557.82	59444.93
557.98	59597.06
558.15	59777.28
558.32	59774.94
558.48	59592.38
558.65	59629.83
558.81	59744.51
558.98	59756.22
559.14	59962.18
559.31	59840.48
559.47	59915.37
559.64	59976.23
559.80	59964.52
559.97	59880.27
560.13	59863.88
560.30	59817.07
560.46	59952.82
560.63	60055.81
560.79	59938.78
560.96	60205.60
561.12	60097.94
561.29	60074.53
561.45	59983.25
561.61	60093.25
561.78	60060.49
561.94	60126.02
562.11	60163.47
562.27	60245.39
562.44	60135.38
562.60	60430.29
562.77	60299.22
562.93	60090.91
563.10	60381.14
563.26	60170.49
563.42	60491.15
563.59	60257.09
563.75	60463.06
563.92	60346.03
564.08	60109.64
564.24	60533.28
564.41	60303.90
564.57	60367.10
564.74	60441.99
564.90	60477.10
565.07	60317.95
565.23	60207.94
565.39	60598.81
565.56	60385.82
565.72	60210.28
565.88	60381.14
566.05	60252.41
566.21	60385.82
566.38	60441.99
566.54	60413.91
566.70	60563.70
566.87	60481.78
567.03	60477.10
567.19	60654.98
567.36	60434.97
567.52	60467.74
567.68	60678.39
567.85	60533.28
568.01	60612.85
568.17	60582.43
568.34	60933.51
568.50	60519.23
568.66	60257.09
568.83	60680.73
568.99	60624.56
569.15	60802.44
569.32	60720.52
569.48	60589.45
569.64	60544.98
569.81	60598.81
569.97	60622.22
570.13	60568.38
570.30	60324.97
570.46	60718.18
570.62	60671.37
570.78	60685.41
570.95	60516.89
571.11	60832.86
571.27	60727.54
571.43	60727.54
571.60	60818.82
571.76	60940.53
571.92	60882.02
572.09	60910.10
572.25	60844.57
572.41	60533.28
572.57	60860.95
572.74	61090.32
572.90	60762.65
573.06	60748.60
573.22	60835.20
573.38	60818.82
573.55	60884.36
573.71	60963.93
573.87	60828.18
574.03	60671.37
574.20	60706.47
574.36	61027.13
574.52	60849.25
574.68	60994.36
574.84	61106.71
575.01	61003.72
575.17	60900.74
575.33	60963.93
575.49	60760.31
575.65	61179.26
575.82	61050.53
575.98	60970.96
576.14	61181.60
576.30	61031.81
576.46	61052.87
576.62	61090.32
576.79	61209.69
576.95	60772.01
577.11	60903.08
577.27	61057.56
577.43	61251.82
577.59	61020.11
577.75	60891.38
577.92	60931.17
578.08	60959.25
578.24	60975.64
578.40	61169.90
578.56	61240.12
578.72	61059.90
578.88	61235.44
579.04	61242.46
579.21	61125.43
579.37	61172.24
579.53	61193.31
579.69	60870.31
579.85	61256.50
580.01	60945.21
580.17	60793.07
580.33	60992.02
580.49	61235.44
580.65	61106.71
580.82	61024.79
580.98	61057.56
581.14	60938.19
581.30	61209.69
581.46	61071.60
581.62	60968.61
581.78	61001.38
581.94	61286.93
582.10	61188.63
582.26	61113.73
582.42	61013.08
582.58	61200.33
582.74	61195.65
582.90	61197.99
583.06	61015.43
583.22	61024.79
583.38	61132.45
583.54	61326.72
583.70	61186.28
583.86	61160.54
584.02	61176.92
584.18	61307.99
584.34	61212.03
584.50	61134.79
584.66	61102.03
584.82	61076.28
584.98	61389.91
585.14	61315.01
585.30	60865.63
585.46	61216.71
585.62	61265.86
585.78	61506.94
585.94	61190.97
586.10	61062.24
586.26	61223.73
586.42	61324.38
586.58	61375.87
586.74	61113.73
586.90	61144.16
587.06	61097.34
587.22	61216.71
587.38	61216.71
587.54	61453.11
587.70	61429.70
587.86	61331.40
588.02	61490.55
588.18	61427.36
588.34	61230.75
