SpectraSuite Data File
++++++++++++++++++++++++++++++++++++
Date: Fri Oct 25 11:23:23 EDT 2013
User: price-jones
Dark Spectrum Present: No
Reference Spectrum Present: No
Number of Sampled Component Spectra: 1
Spectrometers: USB2+H05261
Integration Time (usec): 100000 (USB2+H05261)
Spectra Averaged: 1 (USB2+H05261)
Boxcar Smoothing: 0 (USB2+H05261)
Correct for Electrical Dark: No (USB2+H05261)
Strobe/Lamp Enabled: No (USB2+H05261)
Correct for Detector Non-linearity: No (USB2+H05261)
Correct for Stray Light: No (USB2+H05261)
Number of Pixels in Processed Spectrum: 2048
>>>>>Begin Processed Spectral Data<<<<<
365.73	292.57
365.92	292.57
366.12	292.57
366.32	140.43
366.52	140.43
366.72	152.13
366.91	180.22
367.11	124.05
367.31	98.30
367.51	180.22
367.70	140.43
367.90	163.84
368.10	170.86
368.30	149.79
368.49	133.41
368.69	124.05
368.89	119.37
369.09	184.90
369.28	166.18
369.48	163.84
369.68	156.82
369.87	149.79
370.07	126.39
370.27	271.50
370.47	341.72
370.66	559.39
370.86	580.45
371.06	589.82
371.25	655.35
371.45	587.47
371.65	688.12
371.84	608.54
372.04	732.59
372.24	688.12
372.44	683.44
372.63	713.86
372.83	727.91
373.03	760.67
373.22	748.97
373.42	730.25
373.62	723.23
373.81	840.25
374.01	870.68
374.21	786.42
374.40	788.76
374.60	786.42
374.79	765.36
374.99	774.72
375.19	830.89
375.38	861.32
375.58	873.02
375.78	835.57
375.97	849.61
376.17	931.53
376.37	837.91
376.56	891.74
376.76	833.23
376.95	863.66
377.15	931.53
377.35	863.66
377.54	868.34
377.74	936.21
377.93	973.66
378.13	954.94
378.33	938.55
378.52	880.04
378.72	1034.52
378.91	952.60
379.11	957.28
379.31	961.96
379.50	931.53
379.70	971.32
379.89	945.58
380.09	917.49
380.28	908.13
380.48	973.66
380.68	875.36
380.87	987.71
381.07	887.06
381.26	1088.35
381.46	968.98
381.65	1020.47
381.85	1057.92
382.04	1060.26
382.24	987.71
382.43	966.64
382.63	1062.60
382.83	1132.82
383.02	1071.97
383.22	1177.29
383.41	1078.99
383.61	1053.24
383.80	1109.41
384.00	1018.13
384.19	1093.03
384.39	1207.72
384.58	1137.50
384.78	1149.20
384.97	1184.31
385.17	1100.05
385.36	1102.39
385.56	1172.61
385.75	1181.97
385.95	1179.63
386.14	1282.61
386.34	1210.06
386.53	1301.34
386.72	1203.04
386.92	1289.64
387.11	1240.48
387.31	1266.23
387.50	1238.14
387.70	1228.78
387.89	1284.95
388.09	1242.82
388.28	1277.93
388.48	1228.78
388.67	1343.47
388.86	1301.34
389.06	1329.42
389.25	1240.48
389.45	1366.87
389.64	1348.15
389.84	1409.00
390.03	1383.26
390.22	1357.51
390.42	1352.83
390.61	1355.17
390.81	1334.11
391.00	1357.51
391.19	1497.94
391.39	1427.73
391.58	1383.26
391.78	1427.73
391.97	1530.71
392.16	1495.60
392.36	1598.59
392.55	1448.79
392.75	1540.07
392.94	1561.14
393.13	1509.65
393.33	1572.84
393.52	1579.86
393.71	1528.37
393.91	1570.50
394.10	1633.69
394.29	1643.06
394.49	1605.61
394.68	1542.41
394.88	1617.31
395.07	1659.44
395.26	1692.21
395.46	1778.81
395.65	1713.27
395.84	1638.38
396.04	1816.26
396.23	1729.66
396.42	1739.02
396.62	1764.76
396.81	1811.57
397.00	1865.41
397.19	1771.79
397.39	1795.19
397.58	1816.26
397.77	1839.66
397.97	1893.49
398.16	1881.79
398.35	1844.34
398.55	1757.74
398.74	1916.90
398.93	1863.07
399.12	1970.73
399.32	1905.20
399.51	1834.98
399.70	2033.93
399.90	1966.05
400.09	1968.39
400.28	2038.61
400.47	2069.03
400.67	1991.80
400.86	2111.16
401.05	2087.76
401.24	2101.80
401.44	2069.03
401.63	2087.76
401.82	2104.14
402.01	2080.74
402.21	2207.13
402.40	2298.41
402.59	2267.98
402.78	2176.70
402.97	2253.94
403.17	2296.07
403.36	2228.19
403.55	2347.56
403.74	2326.49
403.93	2305.43
404.13	2342.88
404.32	2356.92
404.51	2385.01
404.70	2420.11
404.89	2523.10
405.09	2462.24
405.28	2548.84
405.47	2420.11
405.66	2504.37
405.85	2473.95
406.05	2530.12
406.24	2609.70
406.43	2551.18
406.62	2635.44
406.81	2663.53
407.00	2619.06
407.20	2654.17
407.39	2614.38
407.58	2677.57
407.77	2661.19
407.96	2679.91
408.15	2818.00
408.34	2747.79
408.54	2722.04
408.73	2832.05
408.92	2888.22
409.11	2850.77
409.30	2925.67
409.49	2885.88
409.68	2836.73
409.87	2939.71
410.07	2972.48
410.26	3070.78
410.45	2942.05
410.64	3033.33
410.83	3138.66
411.02	3038.02
411.21	3201.85
411.40	3080.14
411.59	3211.22
411.78	3314.20
411.98	3038.02
412.17	3314.20
412.36	3267.39
412.55	3279.09
412.74	3407.82
412.93	3527.19
413.12	3314.20
413.31	3578.68
413.50	3520.17
413.69	3578.68
413.88	3648.90
414.07	3707.41
414.26	3707.41
414.45	3669.96
414.64	3667.62
414.83	3782.31
415.02	3693.37
415.22	3887.63
415.41	3847.84
415.60	3819.75
415.79	3847.84
415.98	4109.98
416.17	4063.17
416.36	3868.91
416.55	4018.70
416.74	4084.23
416.93	4154.45
417.12	3978.91
417.31	4121.68
417.50	4301.90
417.69	4365.10
417.88	4348.72
418.07	4255.09
418.26	4297.22
418.45	4334.67
418.64	4496.17
418.83	4271.48
419.02	4451.70
419.21	4454.04
419.39	4592.13
419.58	4655.33
419.77	4533.62
419.96	4636.60
420.15	4545.32
420.34	4676.39
420.53	4620.22
420.72	4767.67
420.91	4788.74
421.10	4753.63
421.29	4938.53
421.48	4730.22
421.67	4760.65
421.86	4716.18
422.05	4807.46
422.24	4922.15
422.43	4936.19
422.61	5055.56
422.80	4954.91
422.99	4821.50
423.18	4957.25
423.37	4954.91
423.56	4924.49
423.75	4905.76
423.94	4987.68
424.13	4545.32
424.32	4896.40
424.50	4938.53
424.69	5151.52
424.88	5039.17
425.07	5076.62
425.26	5018.11
425.45	5004.07
425.64	5032.15
425.83	4952.57
426.01	5067.26
426.20	5076.62
426.39	4992.36
426.58	5088.32
426.77	5097.69
426.96	4983.00
427.15	5107.05
427.33	5111.73
427.52	5104.71
427.71	5291.95
427.90	5350.46
428.09	5322.38
428.28	5526.00
428.46	5472.17
428.65	5378.55
428.84	5275.57
429.03	5614.95
429.22	5418.34
429.40	5565.79
429.59	5572.82
429.78	5408.98
429.97	5338.76
430.16	5472.17
430.34	5579.84
430.53	5621.97
430.72	5708.57
430.91	5577.50
431.10	5547.07
431.28	5657.07
431.47	5813.89
431.66	5792.83
431.85	5778.78
432.03	5914.53
432.22	5830.27
432.41	5980.07
432.60	5951.98
432.79	6059.65
432.97	6064.33
433.16	6038.58
433.35	5940.28
433.54	6118.16
433.72	6026.88
433.91	6043.26
434.10	6300.72
434.28	6108.80
434.47	6263.27
434.66	6291.36
434.85	6310.08
435.03	6438.81
435.22	6394.34
435.41	6422.43
435.59	6387.32
435.78	6387.32
435.97	6583.93
436.16	6502.01
436.34	6443.49
436.53	6499.67
436.72	6729.04
436.90	6420.09
437.09	6698.61
437.28	6567.54
437.46	6595.63
437.65	6724.36
437.84	6862.45
438.02	6689.25
438.21	6717.34
438.40	6885.86
438.58	7122.25
438.77	7061.40
438.96	6981.82
439.14	7042.67
439.33	7000.54
439.52	7124.59
439.70	7316.51
439.89	7208.85
440.08	7508.44
440.26	7447.58
440.45	7220.55
440.63	7440.56
440.82	7705.04
441.01	7569.29
441.19	7646.53
441.38	7716.75
441.57	7754.19
441.75	7719.09
441.94	7936.76
442.12	7953.14
442.31	8009.31
442.50	8037.40
442.68	7960.16
442.87	8173.15
443.05	8226.98
443.24	8112.30
443.43	8215.28
443.61	8414.23
443.80	8470.40
443.98	7995.27
444.17	7934.42
444.35	8301.88
444.54	8383.80
444.73	8374.44
444.91	8421.25
445.10	8538.27
445.28	8304.22
445.47	8325.29
445.65	8243.37
445.84	8517.21
446.02	8517.21
446.21	8390.82
446.39	8241.03
446.58	8571.04
446.77	8608.49
446.95	8292.52
447.14	8631.90
447.32	8748.92
447.51	8566.36
447.69	8596.79
447.88	8779.35
448.06	8669.34
448.25	8667.00
448.43	8479.76
448.62	8667.00
448.80	8659.98
448.99	8774.67
449.17	8741.90
449.36	8828.50
449.54	8901.06
449.73	9020.42
449.91	9097.66
450.10	8978.30
450.28	9181.92
450.46	9057.87
450.65	9050.85
450.83	8990.00
451.02	8891.70
451.20	9167.88
451.39	9195.96
451.57	9158.52
451.76	9184.26
451.94	9188.94
452.13	9404.27
452.31	9296.61
452.49	8924.46
452.68	9404.27
452.86	9371.50
453.05	9418.32
453.23	9509.60
453.42	9327.03
453.60	9280.22
453.78	9767.06
453.97	9544.70
454.15	9600.88
454.34	9479.17
454.52	9659.39
454.70	9579.81
454.89	9970.68
455.07	9954.30
455.26	9961.32
455.44	9970.68
455.62	10015.15
455.81	10029.20
455.99	9973.02
456.17	10108.77
456.36	9954.30
456.54	10083.03
456.73	10349.85
456.91	10223.46
457.09	10562.84
457.28	10221.12
457.46	10272.61
457.64	10785.19
457.83	10530.07
458.01	10579.22
458.19	10527.73
458.38	10539.43
458.56	10892.85
458.74	10658.80
458.93	10703.27
459.11	10736.04
459.29	10736.04
459.48	10944.34
459.66	10834.34
459.84	11073.07
460.03	11173.72
460.21	11068.39
460.39	11145.63
460.57	11037.97
460.76	11236.91
460.94	11304.79
461.12	11253.30
461.31	11426.50
461.49	10942.00
461.67	11082.44
461.85	11623.10
462.04	11403.09
462.22	11527.14
462.40	11747.15
462.59	11590.33
462.77	11674.59
462.95	11719.06
463.13	11602.04
463.32	11634.80
463.50	11791.62
463.68	11709.70
463.86	11775.24
464.05	11494.37
464.23	11672.25
464.41	12051.42
464.59	11822.05
464.78	12163.76
464.96	12339.30
465.14	11796.30
465.32	12222.28
465.50	12322.92
465.69	12182.49
465.87	12215.26
466.05	12201.21
466.23	12400.16
466.41	12533.57
466.60	12538.25
466.78	12123.98
466.96	12407.18
467.14	12250.36
467.32	12671.66
467.51	12727.83
467.69	12327.60
467.87	12791.03
468.05	12830.82
468.23	12423.56
468.41	12404.84
468.60	12762.94
468.78	12954.87
468.96	12566.34
469.14	13022.74
469.32	13289.56
469.50	12856.56
469.69	13139.77
469.87	13209.98
470.05	13303.60
470.23	13341.05
470.41	13448.72
470.59	13420.63
470.77	13277.86
470.95	13338.71
471.14	13710.86
471.32	13217.01
471.50	13617.24
471.68	13612.56
471.86	13809.16
472.04	13708.52
472.22	14171.94
472.40	13659.37
472.58	13741.29
472.77	13965.98
472.95	14396.64
473.13	14850.70
473.31	14307.69
473.49	14249.18
473.67	14033.85
473.85	14239.82
474.03	14483.24
474.21	14604.94
474.39	14682.18
474.57	14759.42
474.75	14911.55
474.93	15073.05
475.12	14930.28
475.30	15417.11
475.48	15122.20
475.66	15112.84
475.84	15005.17
476.02	15108.16
476.20	15513.07
476.38	15421.79
476.56	15997.56
476.74	16002.24
476.92	16013.95
477.10	16095.86
477.28	16109.91
477.46	16119.27
477.64	16460.99
477.82	17001.65
478.00	16936.12
478.18	16807.39
478.36	17315.28
478.54	17439.33
478.72	17345.71
478.90	17198.26
479.08	17834.88
479.26	17703.81
479.44	17767.01
479.62	17898.08
479.80	17912.12
479.98	18508.96
480.16	18534.70
480.34	18696.20
480.52	18553.43
480.70	18937.27
480.88	18750.03
481.06	19154.94
481.24	18663.43
481.41	19187.71
481.59	19491.98
481.77	19482.62
481.95	19583.26
482.13	20004.56
482.31	19861.79
482.49	20479.69
482.67	20327.55
482.85	20430.54
483.03	20507.77
483.21	21071.84
483.39	21090.57
483.57	21095.25
483.74	21312.92
483.92	21216.96
484.10	21415.90
484.28	22066.57
484.46	22164.87
484.64	22335.73
484.82	22080.61
485.00	22354.46
485.18	22747.67
485.35	22979.38
485.53	22991.08
485.71	23035.55
485.89	23772.82
486.07	23311.74
486.25	23433.44
486.43	23913.25
486.61	23847.72
486.78	24322.85
486.96	24388.38
487.14	24418.81
487.32	24652.86
487.50	24797.98
487.68	25165.44
487.85	25319.92
488.03	25844.20
488.21	25872.28
488.39	26153.15
488.57	26347.41
488.75	26183.57
488.92	26551.04
489.10	26838.92
489.28	26981.70
489.46	27302.35
489.64	27367.88
489.81	28011.53
489.99	27983.44
490.17	28301.76
490.35	28411.76
490.53	28395.38
490.70	28402.40
490.88	28514.75
491.06	29085.84
491.24	28971.15
491.41	29303.51
491.59	29352.66
491.77	29565.65
491.95	30033.75
492.13	30089.93
492.30	30195.25
492.48	30052.48
492.66	30251.42
492.84	30609.53
493.01	30792.09
493.19	31091.68
493.37	31274.24
493.54	31400.63
493.72	31697.88
493.90	31681.49
494.08	32297.05
494.25	32173.00
494.43	32266.63
494.61	32673.88
494.79	32882.19
494.96	32781.54
495.14	32865.80
495.32	33298.80
495.49	33212.20
495.67	33394.76
495.85	33362.00
496.02	33869.89
496.20	34162.46
496.38	34274.80
496.55	34377.79
496.73	35103.35
496.91	34930.16
497.09	34726.53
497.26	35049.52
497.44	35421.67
497.62	35480.18
497.79	35847.64
497.97	36037.23
498.14	36287.67
498.32	36327.45
498.50	36514.70
498.67	36666.83
498.85	36404.69
499.03	37074.09
499.20	36783.86
499.38	37312.82
499.56	37427.51
499.73	37591.34
499.91	37195.79
500.08	37963.49
500.26	38012.64
500.44	38127.33
500.61	37963.49
500.79	37986.89
500.97	38368.40
501.14	38911.41
501.32	38873.96
501.49	39033.11
501.67	39428.66
501.84	38965.24
502.02	39072.90
502.20	38684.37
502.37	39597.18
502.55	39515.26
502.72	39985.71
502.90	39866.34
503.07	40165.93
503.25	40116.78
503.43	40353.18
503.60	40350.84
503.78	40821.28
503.95	40271.26
504.13	40825.96
504.30	41184.07
504.48	40631.70
504.65	40884.48
504.83	41383.01
505.01	41521.10
505.18	41240.24
505.36	42110.92
505.53	41687.28
505.71	41715.37
505.88	42298.16
506.06	41605.36
506.23	42239.65
506.41	42113.26
506.58	42141.35
506.76	42447.96
506.93	42469.02
507.11	42490.09
507.28	43145.44
507.46	42733.50
507.63	43143.09
507.81	43566.73
507.98	43330.34
508.16	43028.41
508.33	43426.30
508.50	43505.88
508.68	43711.84
508.85	43997.39
509.03	43854.62
509.20	44247.83
509.38	44655.08
509.55	44741.68
509.73	44367.20
509.90	44900.84
510.08	44406.98
510.25	44645.72
510.42	44758.06
510.60	45595.98
510.77	45572.57
510.95	45425.12
511.12	44783.81
511.30	45081.06
511.47	45787.90
511.64	45954.08
511.82	46312.18
511.99	45815.99
512.17	46075.79
512.34	46277.07
512.51	46237.28
512.69	46864.55
512.86	46424.53
513.04	46836.46
513.21	47000.30
513.38	46871.57
513.56	46899.65
513.73	47269.46
513.90	46948.81
514.08	46904.34
514.25	47627.56
514.43	47976.30
514.60	47920.13
514.77	47365.42
514.95	47894.38
515.12	47646.29
515.29	47416.91
515.47	48360.15
515.64	48233.76
515.81	48233.76
515.99	48357.81
516.16	48678.46
516.33	48741.66
516.51	48947.62
516.68	48783.79
516.85	48566.12
517.03	49045.93
517.20	48933.58
517.37	49141.89
517.54	49076.35
517.72	49329.13
517.89	49085.72
518.06	49404.03
518.24	49420.41
518.41	49474.24
518.58	49474.24
518.75	49659.15
518.93	50096.83
519.10	49518.71
519.27	49748.09
519.45	50211.51
519.62	50157.68
519.79	50031.29
519.96	50068.74
520.14	50424.50
520.31	50384.71
520.48	50525.14
520.65	50852.82
520.83	50845.80
521.00	50845.80
521.17	50726.43
521.34	50953.46
521.52	51236.67
521.69	51065.81
521.86	51367.74
522.03	51203.90
522.20	51089.21
522.38	51789.03
522.55	51667.33
522.72	51599.45
522.89	51817.12
523.07	51632.22
523.24	51613.49
523.41	51615.83
523.58	51510.51
523.75	52355.44
523.92	51920.10
524.10	51978.62
524.27	52278.21
524.44	52233.74
524.61	52385.87
524.78	52334.38
524.96	52580.13
525.13	52591.84
525.30	52563.75
525.47	52645.67
525.64	52739.29
525.81	52905.47
525.98	52825.89
526.16	52734.61
526.33	52914.83
526.50	53153.57
526.67	52982.71
526.84	53153.57
527.01	52919.51
527.18	53066.97
527.36	53268.25
527.53	53120.80
527.70	53434.43
527.87	53504.65
528.04	53041.22
528.21	53455.50
528.38	53357.19
528.55	53495.28
528.72	53558.48
528.89	53425.07
529.07	53670.82
529.24	53600.61
529.41	53911.90
529.58	53827.64
529.75	53776.15
529.92	53879.13
530.09	54265.32
530.26	54141.27
530.43	54370.64
530.60	53958.71
530.77	53902.54
530.94	54457.24
531.11	54307.45
531.28	54426.82
531.46	54066.38
531.63	54365.96
531.80	54396.39
531.97	54653.85
532.14	54824.71
532.31	54698.32
532.48	54644.49
532.65	54901.95
532.82	54574.27
532.99	54714.70
533.16	54665.55
533.33	54976.84
533.50	54813.01
533.67	54939.39
533.84	54969.82
534.01	54983.86
534.18	55269.41
534.35	55360.69
534.52	55412.18
534.69	55346.65
534.86	55381.76
535.03	55178.13
535.20	55423.89
535.37	55751.56
535.54	55337.29
535.71	55339.63
535.88	55423.89
536.05	55540.91
536.22	55777.31
536.38	55709.43
536.55	56083.92
536.72	55875.61
536.89	55774.97
537.06	55634.53
537.23	55798.37
537.40	55819.44
537.57	55976.25
537.74	56055.83
537.91	56371.80
538.08	55971.57
538.25	55779.65
538.42	56168.18
538.59	56416.27
538.75	56264.14
538.92	56383.51
539.09	56280.52
539.26	56416.27
539.43	56371.80
539.60	56133.07
539.77	56367.12
539.94	56683.09
540.11	56432.66
540.28	56678.41
540.44	56493.51
540.61	56629.26
540.78	56601.18
540.95	56580.11
541.12	56580.11
541.29	56626.92
541.46	56704.16
541.62	56526.28
541.79	57111.41
541.96	56739.27
542.13	56973.32
542.30	56832.89
542.47	57001.41
542.63	57001.41
542.80	56973.32
542.97	57289.29
543.14	57378.23
543.31	57434.41
543.48	57361.85
543.64	57371.21
543.81	57366.53
543.98	57488.24
544.15	57537.39
544.32	57640.37
544.48	57855.70
544.65	57565.48
544.82	57581.86
544.99	57195.67
545.16	57722.29
545.32	57741.02
545.49	57729.31
545.66	57916.56
545.83	57836.98
546.00	58017.20
546.16	57911.88
546.33	57549.09
546.50	57645.05
546.67	58026.56
546.83	57790.17
547.00	57958.69
547.17	57862.72
547.34	57930.60
547.50	58108.48
547.67	58302.74
547.84	58164.65
548.00	58216.14
548.17	58333.17
548.34	58204.44
548.51	58482.97
548.67	58319.13
548.84	58262.96
549.01	58288.70
549.18	58272.32
549.34	58480.63
549.51	58335.51
549.68	58464.24
549.84	58663.19
550.01	58667.87
550.18	58557.86
550.34	58394.03
550.51	58798.94
550.68	58583.61
550.84	58272.32
551.01	58623.40
551.18	58602.33
551.34	58733.40
551.51	58791.92
551.68	58492.33
551.84	58597.65
552.01	58649.14
552.18	58749.79
552.34	58653.82
552.51	58831.71
552.68	58595.31
552.84	58862.13
553.01	58920.65
553.18	58946.39
553.34	58890.22
553.51	58698.30
553.67	58988.52
553.84	59208.53
554.01	59105.55
554.17	59260.02
554.34	59145.34
554.51	59171.08
554.67	59121.93
554.84	59004.91
555.00	59288.11
555.17	59229.60
555.33	59201.51
555.50	59065.76
555.67	59224.92
555.83	59040.01
556.00	59281.09
556.16	59451.95
556.33	59260.02
556.50	59480.03
556.66	59540.89
556.83	59456.63
556.99	59505.78
557.16	59557.27
557.32	59683.66
557.49	59884.95
557.65	59398.12
557.82	59554.93
557.98	59384.07
558.15	59568.97
558.32	59475.35
558.48	59643.87
558.65	59566.63
558.81	59765.58
558.98	59494.08
559.14	59821.75
559.31	59870.90
559.47	59889.63
559.64	59906.01
559.80	59889.63
559.97	59948.14
560.13	59805.37
560.30	59791.33
560.46	59812.39
560.63	59941.12
560.79	59941.12
560.96	60025.38
561.12	60037.08
561.29	60090.91
561.45	59929.42
561.61	60032.40
561.78	59966.87
561.94	60046.44
562.11	59910.69
562.27	59915.37
562.44	60170.49
562.60	60221.98
562.77	60348.37
562.93	59889.63
563.10	60069.85
563.26	60011.34
563.42	60430.29
563.59	60027.72
563.75	60154.11
563.92	59987.93
564.08	60009.00
564.24	60306.24
564.41	60360.08
564.57	60537.96
564.74	60224.32
564.90	60399.86
565.07	60411.57
565.23	60179.85
565.39	60306.24
565.56	60488.80
565.72	60310.92
565.88	60409.23
566.05	60388.16
566.21	60271.14
566.38	60481.78
566.54	60626.90
566.70	60701.79
566.87	60533.28
567.03	60275.82
567.19	60666.69
567.36	60477.10
567.52	60449.02
567.68	60685.41
567.85	60554.34
568.01	60652.64
568.17	60554.34
568.34	60411.57
568.50	60388.16
568.66	60603.49
568.83	60734.56
568.99	60360.08
569.15	60570.72
569.32	60392.84
569.48	60598.81
569.64	60760.31
569.81	60594.13
569.97	60568.38
570.13	60519.23
570.30	60500.51
570.46	60626.90
570.62	60624.56
570.78	60669.03
570.95	60484.12
571.11	60814.14
571.27	60676.05
571.43	60711.16
571.60	60853.93
571.76	60727.54
571.92	60708.82
572.09	60725.20
572.25	60729.88
572.41	60575.40
572.57	60790.73
572.74	60917.12
572.90	60647.96
573.06	60725.20
573.22	60774.35
573.38	60788.39
573.55	60818.82
573.71	61090.32
573.87	60788.39
574.03	60814.14
574.20	60755.63
574.36	60647.96
574.52	60734.56
574.68	60851.59
574.84	60774.35
575.01	60992.02
575.17	60837.54
575.33	61165.22
575.49	60673.71
575.65	60966.27
575.82	60961.59
575.98	60994.36
576.14	61139.47
576.30	60952.23
576.46	60975.64
576.62	60772.01
576.79	60790.73
576.95	60907.76
577.11	60893.72
577.27	61071.60
577.43	61090.32
577.59	60823.50
577.75	60900.74
577.92	60947.55
578.08	60919.46
578.24	61118.41
578.40	60996.70
578.56	61167.56
578.72	61085.64
578.88	61158.20
579.04	61322.04
579.21	61043.51
579.37	61247.14
579.53	61183.94
579.69	60954.57
579.85	61137.13
580.01	61071.60
580.17	60860.95
580.33	61008.40
580.49	61148.84
580.65	61123.09
580.82	60858.61
580.98	60956.91
581.14	61055.21
581.30	61137.13
581.46	60947.55
581.62	60945.21
581.78	61167.56
581.94	61029.47
582.10	61045.85
582.26	60977.98
582.42	60956.91
582.58	61230.75
582.74	61085.64
582.90	61087.98
583.06	60910.10
583.22	60856.27
583.38	61020.11
583.54	61029.47
583.70	61317.35
583.86	61034.15
584.02	60949.89
584.18	61165.22
584.34	61022.45
584.50	61022.45
584.66	60985.00
584.82	60811.80
584.98	61176.92
585.14	61446.08
585.30	60959.25
585.46	61165.22
585.62	61244.80
585.78	61256.50
585.94	61043.51
586.10	61197.99
586.26	61324.38
586.42	61095.00
586.58	61235.44
586.74	61279.91
586.90	61111.39
587.06	61181.60
587.22	61319.70
587.38	61228.41
587.54	61296.29
587.70	61513.96
587.86	61256.50
588.02	61242.46
588.18	61436.72
588.34	61071.60
588.49	61270.54
