SpectraSuite Data File
++++++++++++++++++++++++++++++++++++
Date: Fri Oct 25 11:34:25 EDT 2013
User: price-jones
Dark Spectrum Present: No
Reference Spectrum Present: No
Number of Sampled Component Spectra: 1
Spectrometers: USB2+H05261
Integration Time (usec): 100000 (USB2+H05261)
Spectra Averaged: 1 (USB2+H05261)
Boxcar Smoothing: 0 (USB2+H05261)
Correct for Electrical Dark: No (USB2+H05261)
Strobe/Lamp Enabled: No (USB2+H05261)
Correct for Detector Non-linearity: No (USB2+H05261)
Correct for Stray Light: No (USB2+H05261)
Number of Pixels in Processed Spectrum: 2048
>>>>>Begin Processed Spectral Data<<<<<
365.73	259.80
365.92	259.80
366.12	259.80
366.32	182.56
366.52	154.48
366.72	180.22
366.91	173.20
367.11	196.60
367.31	147.45
367.51	163.84
367.70	201.29
367.90	184.90
368.10	140.43
368.30	180.22
368.49	145.11
368.69	248.10
368.89	184.90
369.09	191.92
369.28	243.42
369.48	276.18
369.68	320.65
369.87	227.03
370.07	203.63
370.27	255.12
370.47	330.02
370.66	423.64
370.86	493.85
371.06	622.58
371.25	571.09
371.45	505.56
371.65	547.69
371.84	482.15
372.04	533.64
372.24	678.76
372.44	561.73
372.63	547.69
372.83	512.58
373.03	526.62
373.22	653.01
373.42	690.46
373.62	526.62
373.81	620.24
374.01	636.63
374.21	688.12
374.40	634.29
374.60	594.50
374.79	566.41
374.99	655.35
375.19	653.01
375.38	608.54
375.58	669.39
375.78	617.90
375.97	702.16
376.17	699.82
376.37	638.97
376.56	695.14
376.76	655.35
376.95	690.46
377.15	744.29
377.35	657.69
377.54	770.04
377.74	615.56
377.93	638.97
378.13	674.07
378.33	755.99
378.52	725.57
378.72	751.31
378.91	636.63
379.11	683.44
379.31	667.05
379.50	660.03
379.70	739.61
379.89	692.80
380.09	711.52
380.28	681.10
380.48	744.29
380.68	711.52
380.87	667.05
381.07	692.80
381.26	788.76
381.46	819.19
381.65	767.70
381.85	763.01
382.04	765.36
382.24	746.63
382.43	777.06
382.63	746.63
382.83	765.36
383.02	842.59
383.22	896.43
383.41	765.36
383.61	748.97
383.80	788.76
384.00	903.45
384.19	826.21
384.39	854.30
384.58	753.65
384.78	781.74
384.97	894.08
385.17	854.30
385.36	798.12
385.56	791.10
385.75	755.99
385.95	898.77
386.14	858.98
386.34	863.66
386.53	875.36
386.72	842.59
386.92	863.66
387.11	917.49
387.31	856.64
387.50	959.62
387.70	945.58
387.89	880.04
388.09	835.57
388.28	842.59
388.48	854.30
388.67	931.53
388.86	847.27
389.06	926.85
389.25	915.15
389.45	894.08
389.64	985.37
389.84	959.62
390.03	961.96
390.22	1036.86
390.42	1001.75
390.61	980.68
390.81	933.87
391.00	938.55
391.19	990.05
391.39	933.87
391.58	1013.45
391.78	1048.56
391.97	1032.18
392.16	964.30
392.36	1050.90
392.55	1027.50
392.75	964.30
392.94	1055.58
393.13	1100.05
393.33	1041.54
393.52	1029.84
393.71	1055.58
393.91	1025.15
394.10	1057.92
394.29	1064.94
394.49	1041.54
394.68	1207.72
394.88	1057.92
395.07	1139.84
395.26	1057.92
395.46	1083.67
395.65	1165.59
395.84	1111.75
396.04	1226.44
396.23	1128.14
396.42	1165.59
396.62	1142.18
396.81	1158.57
397.00	1198.35
397.19	1163.25
397.39	1165.59
397.58	1284.95
397.77	1249.85
397.97	1268.57
398.16	1151.54
398.35	1259.21
398.55	1256.87
398.74	1303.68
398.93	1263.89
399.12	1261.55
399.32	1355.17
399.51	1287.29
399.70	1261.55
399.90	1291.98
400.09	1289.64
400.28	1331.76
400.47	1273.25
400.67	1331.76
400.86	1287.29
401.05	1392.62
401.24	1423.05
401.44	1378.58
401.63	1455.81
401.82	1404.32
402.01	1401.98
402.21	1460.49
402.40	1483.90
402.59	1439.43
402.78	1460.49
402.97	1399.64
403.17	1514.33
403.36	1521.35
403.55	1577.52
403.74	1537.73
403.93	1509.65
404.13	1584.54
404.32	1528.37
404.51	1607.95
404.70	1563.48
404.89	1493.26
405.09	1607.95
405.28	1724.97
405.47	1607.95
405.66	1589.22
405.85	1579.86
406.05	1682.85
406.24	1692.21
406.43	1661.78
406.62	1621.99
406.81	1748.38
407.00	1764.76
407.20	1750.72
407.39	1743.70
407.58	1839.66
407.77	1867.75
407.96	1774.13
408.15	1776.47
408.34	1776.47
408.54	1900.52
408.73	1806.89
408.92	1914.56
409.11	1881.79
409.30	1984.77
409.49	1884.13
409.68	2015.20
409.87	1984.77
410.07	2010.52
410.26	2047.97
410.45	2008.18
410.64	1998.82
410.83	2167.34
411.02	2047.97
411.21	2157.97
411.40	1998.82
411.59	2143.93
411.78	2148.61
411.98	2167.34
412.17	2111.16
412.36	2214.15
412.55	2326.49
412.74	2228.19
412.93	2232.87
413.12	2190.74
413.31	2277.34
413.50	2377.98
413.69	2359.26
413.88	2443.52
414.07	2349.90
414.26	2326.49
414.45	2392.03
414.64	2363.94
414.83	2551.18
415.02	2438.84
415.22	2480.97
415.41	2612.04
415.60	2605.02
415.79	2553.52
415.98	2590.97
416.17	2595.65
416.36	2640.12
416.55	2693.96
416.74	2761.83
416.93	2635.44
417.12	2700.98
417.31	2787.58
417.50	2803.96
417.69	2848.43
417.88	2850.77
418.07	2815.66
418.26	2799.28
418.45	3000.57
418.64	2965.46
418.83	2822.69
419.02	2846.09
419.21	2967.80
419.39	3108.23
419.58	3047.38
419.77	2958.44
419.96	3049.72
420.15	3047.38
420.34	2892.90
420.53	3061.42
420.72	3183.13
420.91	3150.36
421.10	3157.38
421.29	3194.83
421.48	3164.40
421.67	3164.40
421.86	3171.43
422.05	3267.39
422.24	3232.28
422.43	3178.45
422.61	3171.43
422.80	3199.51
422.99	3300.16
423.18	3337.60
423.37	3253.34
423.56	3398.46
423.75	3295.47
423.94	3286.11
424.13	3131.64
424.32	3150.36
424.50	3398.46
424.69	3428.88
424.88	3241.64
425.07	3293.13
425.26	3215.90
425.45	3297.81
425.64	3265.05
425.83	3426.54
426.01	3295.47
426.20	3442.93
426.39	3225.26
426.58	3346.97
426.77	3325.90
426.96	3424.20
427.15	3485.06
427.33	3438.25
427.52	3421.86
427.71	3482.72
427.90	3417.18
428.09	3452.29
428.28	3543.57
428.46	3543.57
428.65	3396.12
428.84	3527.19
429.03	3574.00
429.22	3559.95
429.40	3590.38
429.59	3492.08
429.78	3445.27
429.97	3428.88
430.16	3707.41
430.34	3688.68
430.53	3768.26
430.72	3707.41
430.91	3756.56
431.10	3684.00
431.28	3784.65
431.47	3789.33
431.66	3810.39
431.85	3801.03
432.03	3866.56
432.22	3964.87
432.41	3934.44
432.60	3969.55
432.79	3962.53
432.97	3899.33
433.16	3962.53
433.35	3873.59
433.54	4035.08
433.72	4025.72
433.91	3997.64
434.10	4004.66
434.28	4046.79
434.47	4128.70
434.66	3953.16
434.85	4030.40
435.03	4091.26
435.22	4170.83
435.41	4320.63
435.59	4327.65
435.78	4285.52
435.97	4168.49
436.16	4245.73
436.34	4219.99
436.53	4465.74
436.72	4507.87
436.90	4227.01
437.09	4334.67
437.28	4290.20
437.46	4290.20
437.65	4320.63
437.84	4423.61
438.02	4404.89
438.21	4517.23
438.40	4395.53
438.58	4641.28
438.77	4650.64
438.96	4531.28
439.14	4645.96
439.33	4798.10
439.52	4702.14
439.70	4730.22
439.89	4697.46
440.08	4814.48
440.26	4854.27
440.45	4774.69
440.63	4994.70
440.82	4903.42
441.01	4868.31
441.19	4990.02
441.38	4992.36
441.57	4919.81
441.75	5184.29
441.94	5100.03
442.12	5076.62
442.31	5291.95
442.50	5235.78
442.68	5170.24
442.87	5207.69
443.05	5228.76
443.24	5474.51
443.43	5193.65
443.61	5404.30
443.80	5502.60
443.98	5247.48
444.17	5039.17
444.35	5355.15
444.54	5474.51
444.73	5399.62
444.91	5380.89
445.10	5577.50
445.28	5430.04
445.47	5460.47
445.65	5437.06
445.84	5338.76
446.02	5467.49
446.21	5458.13
446.39	5355.15
446.58	5516.64
446.77	5607.92
446.95	5364.51
447.14	5542.39
447.32	5408.98
447.51	5495.58
447.69	5565.79
447.88	5645.37
448.06	5633.67
448.25	5575.16
448.43	5619.63
448.62	5591.54
448.80	5626.65
448.99	5738.99
449.17	5626.65
449.36	5504.94
449.54	5563.45
449.73	5722.61
449.91	5914.53
450.10	6029.22
450.28	6012.84
450.46	5769.42
450.65	6085.39
450.83	5982.41
451.02	5790.49
451.20	6008.16
451.39	5874.74
451.57	5874.74
451.76	5937.94
451.94	5963.68
452.13	6029.22
452.31	5930.92
452.49	6146.25
452.68	6176.67
452.86	6228.17
453.05	6141.57
453.23	6024.54
453.42	6179.01
453.60	5980.07
453.78	6125.18
453.97	6155.61
454.15	6249.23
454.34	5980.07
454.52	6083.05
454.70	6249.23
454.89	6235.19
455.07	6221.14
455.26	6387.32
455.44	6443.49
455.62	6392.00
455.81	6464.56
455.99	6469.24
456.17	6406.05
456.36	6413.07
456.54	6597.97
456.73	6733.72
456.91	6803.94
457.09	6707.98
457.28	6710.32
457.46	6668.19
457.64	6801.60
457.83	6764.15
458.01	6752.45
458.19	6951.39
458.38	6789.89
458.56	6986.50
458.74	6876.49
458.93	6857.77
459.11	6935.01
459.29	6773.51
459.48	7084.80
459.66	6937.35
459.84	7206.51
460.03	7145.66
460.21	7166.72
460.39	7063.74
460.57	7171.40
460.76	7103.53
460.94	7279.07
461.12	7321.20
461.31	7274.38
461.49	7103.53
461.67	7208.85
461.85	7328.22
462.04	7342.26
462.22	7784.62
462.40	7342.26
462.59	7431.20
462.77	7599.72
462.95	7552.91
463.13	7653.55
463.32	7576.31
463.50	7419.50
463.68	7522.48
463.86	7590.36
464.05	7520.14
464.23	7536.52
464.41	7634.83
464.59	7618.44
464.78	7812.71
464.96	7576.31
465.14	7700.36
465.32	7733.13
465.50	7751.85
465.69	7756.54
465.87	7889.95
466.05	7742.49
466.23	7817.39
466.41	7758.88
466.60	7943.78
466.78	7948.46
466.96	7740.15
467.14	7885.26
467.32	7969.52
467.51	8030.38
467.69	7824.41
467.87	7906.33
468.05	8212.94
468.23	8025.70
468.41	7941.44
468.60	8067.83
468.78	8018.68
468.96	8051.44
469.14	8294.86
469.32	8367.42
469.50	8013.99
469.69	8374.44
469.87	8493.80
470.05	8351.03
470.23	8320.60
470.41	8468.06
470.59	8423.59
470.77	8304.22
470.95	8512.53
471.14	8697.43
471.32	8484.44
471.50	8786.37
471.68	8720.84
471.86	8968.93
472.04	8777.01
472.22	8851.91
472.40	8912.76
472.58	9011.06
472.77	9128.09
472.95	8997.02
473.13	9357.46
473.31	8943.19
473.49	9078.94
473.67	8938.51
473.85	9401.93
474.03	9324.69
474.21	9376.19
474.39	9455.76
474.57	9397.25
474.75	9547.05
474.93	9446.40
475.12	9507.26
475.30	9593.86
475.48	9689.82
475.66	9685.14
475.84	9699.18
476.02	9881.74
476.20	9757.69
476.38	9970.68
476.56	10188.35
476.74	10125.16
476.92	10111.11
477.10	10061.96
477.28	10193.03
477.46	10239.84
477.64	10394.32
477.82	10448.15
478.00	10619.01
478.18	10523.05
478.36	10558.16
478.54	10808.59
478.72	10813.28
478.90	11066.05
479.08	11204.14
479.26	11084.78
479.44	11157.33
479.62	11227.55
479.80	11337.56
479.98	11627.78
480.16	11751.83
480.34	11597.35
480.52	11716.72
480.70	11763.53
480.88	11578.63
481.06	11915.67
481.24	11999.93
481.41	12116.95
481.59	12322.92
481.77	12311.22
481.95	12255.04
482.13	12512.50
482.31	12409.52
482.49	12652.94
482.67	12908.05
482.85	13046.15
483.03	12933.80
483.21	13280.20
483.39	13348.08
483.57	13163.17
483.74	13366.80
483.92	13383.18
484.10	13380.84
484.28	13750.65
484.46	13614.90
484.64	14244.50
484.82	13944.91
485.00	14033.85
485.18	14270.25
485.35	14391.95
485.53	14497.28
485.71	14286.63
485.89	14618.99
486.07	14796.87
486.25	14754.74
486.43	14656.43
486.61	15007.52
486.78	14951.34
486.96	15248.59
487.14	15435.83
487.32	15634.78
487.50	15765.85
487.68	15330.51
487.85	15868.83
488.03	15939.05
488.21	16332.26
488.39	16173.10
488.57	16194.17
488.75	16657.59
488.92	16669.30
489.10	16793.34
489.28	17003.99
489.46	17099.95
489.64	16816.75
489.81	17649.98
489.99	17465.08
490.17	17532.95
490.35	17905.10
490.53	18029.15
490.70	17998.72
490.88	17680.41
491.06	17872.33
491.24	18338.10
491.41	18317.03
491.59	18331.08
491.77	18321.71
491.95	18899.83
492.13	18813.23
492.30	18740.67
492.48	18911.53
492.66	19051.96
492.84	18941.96
493.01	19073.03
493.19	19236.86
493.37	19410.06
493.54	19470.92
493.72	20072.43
493.90	19592.62
494.08	19833.70
494.25	20053.71
494.43	20112.22
494.61	20318.19
494.79	20552.24
494.96	20484.37
495.14	20662.25
495.32	20879.92
495.49	20994.61
495.67	21018.01
495.85	20975.88
496.02	21165.46
496.20	21249.72
496.38	21656.98
496.55	21401.86
496.73	22059.55
496.91	21902.73
497.09	21930.82
497.26	22209.34
497.44	21818.47
497.62	21933.16
497.79	22288.92
497.97	22178.92
498.14	22398.93
498.32	22785.12
498.50	22932.57
498.67	22597.87
498.85	22684.47
499.03	23007.47
499.20	23108.11
499.38	23201.73
499.56	23197.05
499.73	23386.63
499.91	23428.76
500.08	23632.39
500.26	23489.62
500.44	23637.07
500.61	23388.97
500.79	23866.44
500.97	24194.12
501.14	24524.13
501.32	24322.85
501.49	24325.19
501.67	24224.54
501.84	24491.37
502.02	24540.52
502.20	24491.37
502.37	24582.65
502.55	24664.57
502.72	24664.57
502.90	24886.92
503.07	24765.21
503.25	25013.31
503.43	25200.55
503.60	25221.61
503.78	25364.39
503.95	25216.93
504.13	25446.30
504.30	25624.18
504.48	25699.08
504.65	25860.58
504.83	25837.17
505.01	26115.70
505.18	26003.35
505.36	26111.02
505.53	26181.23
505.71	26057.18
505.88	26462.10
506.06	25928.45
506.23	26562.74
506.41	26841.26
506.58	26277.19
506.76	26995.74
506.93	27026.17
507.11	26625.93
507.28	27016.80
507.46	26813.18
507.63	27384.27
507.81	27215.75
507.98	27035.53
508.16	27236.81
508.33	27562.15
508.50	27725.99
508.68	27342.14
508.85	27688.54
509.03	27725.99
509.20	27995.15
509.38	27758.75
509.55	28095.79
509.73	27735.35
509.90	27971.74
510.08	28259.63
510.25	28472.62
510.42	28594.32
510.60	28364.95
510.77	28835.40
510.95	29092.86
511.12	28868.17
511.30	28687.95
511.47	29022.64
511.64	28926.68
511.82	28992.22
511.99	28936.04
512.17	29139.67
512.34	29039.03
512.51	29474.37
512.69	29523.52
512.86	29507.13
513.04	29750.55
513.21	29553.94
513.38	29858.21
513.56	29376.06
513.73	29596.07
513.90	30066.52
514.08	29621.82
514.25	30263.13
514.43	30398.88
514.60	30525.27
514.77	30323.98
514.95	30403.56
515.12	30113.33
515.29	30485.48
515.47	30478.46
515.64	30764.00
515.81	30520.59
515.99	30792.09
516.16	31302.32
516.33	30995.71
516.51	31105.72
516.68	30852.94
516.85	31225.09
517.03	31531.70
517.20	31236.79
517.37	31461.48
517.54	31585.53
517.72	31613.62
517.89	31498.93
518.06	31618.30
518.24	31674.47
518.41	31868.73
518.58	31988.10
518.75	31927.25
518.93	31515.31
519.10	32163.64
519.27	32070.02
519.45	32163.64
519.62	32156.62
519.79	32299.39
519.96	32327.48
520.14	32278.33
520.31	32332.16
520.48	32732.39
520.65	32477.27
520.83	33528.17
521.00	32914.95
521.17	32783.88
521.34	32851.76
521.52	33024.96
521.69	33230.93
521.86	33446.26
522.03	33308.16
522.20	33235.61
522.38	33525.83
522.55	34005.64
522.72	33591.37
522.89	33418.17
523.07	33654.56
523.24	33792.65
523.41	33954.15
523.58	33830.10
523.75	34047.77
523.92	34068.84
524.10	33972.88
524.27	34106.29
524.44	34146.08
524.61	34326.30
524.78	34415.24
524.96	34314.59
525.13	34462.05
525.30	34469.07
525.47	34745.25
525.64	34415.24
525.81	34930.16
525.98	34871.64
526.16	34733.55
526.33	34719.51
526.50	35117.40
526.67	34902.07
526.84	35426.35
527.01	35112.72
527.18	35349.11
527.36	35407.62
527.53	35267.19
527.70	35622.95
527.87	35562.10
528.04	35222.72
528.21	35857.01
528.38	35608.91
528.55	35587.85
528.72	35419.33
528.89	36011.48
529.07	35667.42
529.24	35379.54
529.41	36055.95
529.58	36084.04
529.75	35529.33
529.92	36189.36
530.09	36435.12
530.26	35964.67
530.43	36486.61
530.60	36198.73
530.77	36467.89
530.94	36364.90
531.11	36425.76
531.28	36142.55
531.46	36449.16
531.63	36589.59
531.80	36659.81
531.97	36341.50
532.14	36615.34
532.31	36748.75
532.48	36978.12
532.65	37284.73
532.82	36945.36
532.99	37570.28
533.16	36886.84
533.33	37266.01
533.50	37275.37
533.67	37219.20
533.84	37055.36
534.01	37455.59
534.18	37097.49
534.35	37766.88
534.52	37900.29
534.69	37628.79
534.86	37432.19
535.03	37455.59
535.20	37509.43
535.37	37846.46
535.54	38012.64
535.71	37567.94
535.88	37982.21
536.05	38068.81
536.22	37642.84
536.38	37991.58
536.55	37741.14
536.72	38085.20
536.89	37837.10
537.06	37675.60
537.23	38534.58
537.40	38010.30
537.57	38218.61
537.74	37799.65
537.91	38522.88
538.08	38382.45
538.25	38429.26
538.42	38803.74
538.59	38824.81
538.75	38684.37
538.92	38948.85
539.09	39033.11
539.26	38885.66
539.43	38583.73
539.60	38628.20
539.77	38995.67
539.94	39218.02
540.11	39061.20
540.28	39154.82
540.44	39054.18
540.61	39447.39
540.78	39023.75
540.95	39283.55
541.12	39505.90
541.29	39175.89
541.46	39346.75
541.62	39077.58
541.79	39412.28
541.96	39159.50
542.13	39777.40
542.30	39438.03
542.47	39859.32
542.63	39573.78
542.80	39669.74
542.97	39524.63
543.14	40158.91
543.31	40297.00
543.48	40348.50
543.64	40720.64
543.81	40577.87
543.98	40215.08
544.15	40123.80
544.32	40397.65
544.48	40903.20
544.65	40449.14
544.82	40514.67
544.99	40463.18
545.16	40460.84
545.32	40301.68
545.49	40680.85
545.66	40685.53
545.83	41111.51
546.00	41069.38
546.16	40460.84
546.33	40627.02
546.50	40699.58
546.67	41160.66
546.83	40364.88
547.00	41083.42
547.17	40760.43
547.34	40828.30
547.50	41289.39
547.67	41661.54
547.84	41251.94
548.00	41415.78
548.17	41755.16
548.34	41038.95
548.51	41752.82
548.67	41661.54
548.84	41368.97
549.01	41380.67
549.18	41375.99
549.34	41418.12
549.51	41741.11
549.68	41790.27
549.84	41771.54
550.01	42316.89
550.18	41469.61
550.34	41993.89
550.51	41441.53
550.68	41619.41
550.84	41649.83
551.01	42202.20
551.18	42153.05
551.34	41855.80
551.51	42071.13
551.68	41558.55
551.84	42188.16
552.01	41794.95
552.18	42190.50
552.34	41911.97
552.51	42213.90
552.68	42061.77
552.84	42403.49
553.01	42478.38
553.18	42330.93
553.34	42384.76
553.51	42150.71
553.67	42398.80
553.84	42492.43
554.01	42663.28
554.17	42649.24
554.34	43147.78
554.51	42525.19
554.67	43051.81
554.84	42799.04
555.00	43133.73
555.17	42689.03
555.33	43002.66
555.50	42787.33
555.67	43077.56
555.83	42754.57
556.00	43105.65
556.16	43725.89
556.33	43185.22
556.50	43065.86
556.66	42946.49
556.83	43023.73
556.99	43349.06
557.16	43519.92
557.32	43393.53
557.49	43416.94
557.65	43255.44
557.82	43377.15
557.98	42997.98
558.15	43833.55
558.32	43433.32
558.48	42990.96
558.65	43349.06
558.81	43498.86
558.98	43529.28
559.14	43335.02
559.31	43423.96
559.47	43414.60
559.64	43688.44
559.80	43229.69
559.97	43746.95
560.13	43356.08
560.30	43807.81
560.46	44079.31
560.63	43789.08
560.79	43828.87
560.96	43714.19
561.12	43604.18
561.29	43782.06
561.45	43988.03
561.61	43585.46
561.78	43428.64
561.94	43915.47
562.11	43573.75
562.27	44395.28
562.44	44004.41
562.60	44046.54
562.77	44189.31
562.93	44058.24
563.10	44144.84
563.26	44034.84
563.42	44477.20
563.59	44289.96
563.75	43508.22
563.92	44025.48
564.08	44610.61
564.24	44610.61
564.41	44222.08
564.57	44535.71
564.74	44257.19
564.90	44215.06
565.07	44161.23
565.23	44018.46
565.39	44144.84
565.56	44500.61
565.72	44554.44
565.88	44336.77
566.05	44119.10
566.21	44336.77
566.38	44275.91
566.54	44486.56
566.70	44715.93
566.87	44545.08
567.03	44421.03
567.19	44844.66
567.36	44472.52
567.52	44694.87
567.68	45031.91
567.85	44683.17
568.01	44615.29
568.17	44343.79
568.34	44460.82
568.50	44552.10
568.66	44528.69
568.83	44811.90
568.99	44711.25
569.15	44891.48
569.32	44734.66
569.48	44879.77
569.64	44985.10
569.81	44823.60
569.97	45043.61
570.13	44715.93
570.30	44528.69
570.46	44823.60
570.62	44910.20
570.78	45092.76
570.95	45052.97
571.11	45275.32
571.27	45085.74
571.43	45151.27
571.60	44931.26
571.76	45017.86
571.92	44776.79
572.09	44957.01
572.25	44912.54
572.41	44762.75
572.57	45069.36
572.74	45645.13
572.90	44912.54
573.06	45256.60
573.22	45368.94
573.38	45331.50
573.55	45015.52
573.71	45160.64
573.87	44926.58
574.03	45020.20
574.20	45511.72
574.36	45134.89
574.52	44975.73
574.68	45008.50
574.84	45272.98
575.01	45635.77
575.17	45455.54
575.33	45090.42
575.49	45083.40
575.65	45022.54
575.82	45296.39
575.98	44872.75
576.14	45492.99
576.30	45336.18
576.46	45457.88
576.62	44975.73
576.79	45352.56
576.95	44580.18
577.11	45258.94
577.27	45317.45
577.43	44814.24
577.59	45106.80
577.75	45027.23
577.92	44980.42
578.08	45460.23
578.24	45387.67
578.40	45490.65
578.56	45382.99
578.72	45530.44
578.88	45406.39
579.04	45572.57
579.21	45490.65
579.37	45523.42
579.53	45476.61
579.69	45397.03
579.85	45364.26
580.01	45291.71
580.17	44954.67
580.33	45425.12
580.49	45368.94
580.65	45684.92
580.82	45375.97
580.98	45188.72
581.14	44802.53
581.30	46092.17
581.46	45270.64
581.62	45565.55
581.78	44947.65
581.94	45656.83
582.10	45474.27
582.26	45495.33
582.42	45762.15
582.58	45305.75
582.74	45387.67
582.90	45797.26
583.06	45713.00
583.22	45509.38
583.38	45668.53
583.54	45698.96
583.70	45443.84
583.86	45378.31
584.02	45780.88
584.18	45303.41
584.34	45762.15
584.50	45940.04
584.66	45794.92
584.82	45560.87
584.98	46101.53
585.14	45935.35
585.30	45588.95
585.46	45757.47
585.62	45385.33
585.78	45771.52
585.94	45551.51
586.10	45605.34
586.26	45443.84
586.42	45261.28
586.58	45928.33
586.74	45790.24
586.90	45134.89
587.06	45397.03
587.22	45560.87
587.38	45537.46
587.54	46181.11
587.70	46012.59
587.86	45713.00
588.02	45752.79
588.18	45703.64
588.34	45434.48
588.49	45916.63
588.65	45546.82
588.81	45734.07
588.97	45373.63
589.13	45858.12
589.29	45549.17
589.45	45825.35
589.61	45933.01
589.77	45979.82
589.93	45783.22
590.08	45804.28
