SpectraSuite Data File
++++++++++++++++++++++++++++++++++++
Date: Fri Oct 25 10:48:05 EDT 2013
User: price-jones
Dark Spectrum Present: No
Reference Spectrum Present: No
Number of Sampled Component Spectra: 1
Spectrometers: USB2+H05261
Integration Time (usec): 100000 (USB2+H05261)
Spectra Averaged: 1 (USB2+H05261)
Boxcar Smoothing: 0 (USB2+H05261)
Correct for Electrical Dark: No (USB2+H05261)
Strobe/Lamp Enabled: No (USB2+H05261)
Correct for Detector Non-linearity: No (USB2+H05261)
Correct for Stray Light: No (USB2+H05261)
Number of Pixels in Processed Spectrum: 2048
>>>>>Begin Processed Spectral Data<<<<<
365.73	124.05
365.92	124.05
366.12	124.05
366.32	49.15
366.52	74.90
366.72	112.35
366.91	21.06
367.11	98.30
367.31	16.38
367.51	0.00
367.70	117.03
367.90	16.38
368.10	98.30
368.30	18.72
368.49	56.17
368.69	56.17
368.89	77.24
369.09	49.15
369.28	81.92
369.48	77.24
369.68	88.94
369.87	105.32
370.07	79.58
370.27	107.66
370.47	229.37
370.66	423.64
370.86	395.55
371.06	491.51
371.25	477.47
371.45	437.68
371.65	440.02
371.84	444.70
372.04	449.38
372.24	472.79
372.44	514.92
372.63	484.49
372.83	468.11
373.03	477.47
373.22	458.74
373.42	475.13
373.62	500.87
373.81	482.15
374.01	589.82
374.21	517.26
374.40	533.64
374.60	528.96
374.79	603.86
374.99	538.32
375.19	479.81
375.38	568.75
375.58	585.13
375.78	575.77
375.97	674.07
376.17	629.60
376.37	599.18
376.56	645.99
376.76	561.73
376.95	561.73
377.15	638.97
377.35	631.94
377.54	531.30
377.74	486.83
377.93	592.16
378.13	564.07
378.33	674.07
378.52	559.39
378.72	589.82
378.91	667.05
379.11	617.90
379.31	634.29
379.50	524.28
379.70	617.90
379.89	664.71
380.09	608.54
380.28	681.10
380.48	648.33
380.68	533.64
380.87	685.78
381.07	610.88
381.26	777.06
381.46	704.50
381.65	746.63
381.85	744.29
382.04	660.03
382.24	718.54
382.43	674.07
382.63	711.52
382.83	716.20
383.02	711.52
383.22	699.82
383.41	697.48
383.61	669.39
383.80	704.50
384.00	784.08
384.19	716.20
384.39	706.84
384.58	744.29
384.78	718.54
384.97	807.48
385.17	758.33
385.36	730.25
385.56	781.74
385.75	781.74
385.95	720.88
386.14	800.46
386.34	758.33
386.53	828.55
386.72	802.80
386.92	805.14
387.11	816.85
387.31	802.80
387.50	774.72
387.70	828.55
387.89	807.48
388.09	800.46
388.28	819.19
388.48	791.10
388.67	830.89
388.86	826.21
389.06	784.08
389.25	908.13
389.45	842.59
389.64	812.17
389.84	901.11
390.03	847.27
390.22	959.62
390.42	887.06
390.61	901.11
390.81	957.28
391.00	961.96
391.19	903.45
391.39	929.19
391.58	929.19
391.78	1043.88
391.97	994.73
392.16	889.40
392.36	1029.84
392.55	922.17
392.75	924.51
392.94	889.40
393.13	1004.09
393.33	1029.84
393.52	983.02
393.71	976.00
393.91	1013.45
394.10	992.39
394.29	985.37
394.49	1046.22
394.68	1062.60
394.88	1034.52
395.07	1013.45
395.26	1041.54
395.46	1114.10
395.65	1055.58
395.84	1090.69
396.04	1114.10
396.23	1020.47
396.42	1095.37
396.62	1174.95
396.81	1116.44
397.00	1111.75
397.19	1254.53
397.39	1249.85
397.58	1261.55
397.77	1203.04
397.97	1184.31
398.16	1228.78
398.35	1252.19
398.55	1203.04
398.74	1299.00
398.93	1233.46
399.12	1275.59
399.32	1235.80
399.51	1327.08
399.70	1397.30
399.90	1355.17
400.09	1334.11
400.28	1404.32
400.47	1366.87
400.67	1467.52
400.86	1423.05
401.05	1390.28
401.24	1507.30
401.44	1334.11
401.63	1399.64
401.82	1521.35
402.01	1355.17
402.21	1521.35
402.40	1500.28
402.59	1453.47
402.78	1600.93
402.97	1596.25
403.17	1558.80
403.36	1666.46
403.55	1535.39
403.74	1638.38
403.93	1610.29
404.13	1582.20
404.32	1549.43
404.51	1685.19
404.70	1671.14
404.89	1741.36
405.09	1565.82
405.28	1748.38
405.47	1755.40
405.66	1687.53
405.85	1675.82
406.05	1741.36
406.24	1732.00
406.43	1734.34
406.62	1743.70
406.81	1795.19
407.00	1797.53
407.20	1732.00
407.39	1832.64
407.58	1870.09
407.77	1865.41
407.96	1799.87
408.15	2040.95
408.34	1844.34
408.54	2017.54
408.73	1968.39
408.92	1952.01
409.11	1987.11
409.30	1928.60
409.49	2012.86
409.68	2022.22
409.87	1933.28
410.07	1987.11
410.26	1970.73
410.45	2052.65
410.64	2127.55
410.83	2179.04
411.02	2085.42
411.21	2267.98
411.40	2242.23
411.59	2155.63
411.78	2186.06
411.98	2125.21
412.17	2258.62
412.36	2345.22
412.55	2242.23
412.74	2312.45
412.93	2349.90
413.12	2317.13
413.31	2434.16
413.50	2441.18
413.69	2403.73
413.88	2499.69
414.07	2527.78
414.26	2572.25
414.45	2532.46
414.64	2520.76
414.83	2642.46
415.02	2560.55
415.22	2693.96
415.41	2867.16
415.60	2736.09
415.79	2796.94
415.98	2792.26
416.17	2871.84
416.36	2827.37
416.55	2693.96
416.74	2860.13
416.93	2939.71
417.12	2930.35
417.31	2841.41
417.50	2860.13
417.69	3089.51
417.88	3047.38
418.07	3014.61
418.26	3059.08
418.45	2911.63
418.64	3159.72
418.83	2991.20
419.02	3042.70
419.21	3173.77
419.39	2960.78
419.58	2984.18
419.77	3080.14
419.96	3131.64
420.15	3176.11
420.34	3103.55
420.53	3152.70
420.72	3368.03
420.91	3176.11
421.10	3403.14
421.29	3328.24
421.48	3213.56
421.67	3503.78
421.86	3274.41
422.05	3414.84
422.24	3358.67
422.43	3433.57
422.61	3286.11
422.80	3335.26
422.99	3426.54
423.18	3487.40
423.37	3534.21
423.56	3471.01
423.75	3461.65
423.94	3417.18
424.13	3157.38
424.32	3290.79
424.50	3478.04
424.69	3527.19
424.88	3630.17
425.07	3400.80
425.26	3272.07
425.45	3480.38
425.64	3382.07
425.83	3435.91
426.01	3557.61
426.20	3449.95
426.39	3515.48
426.58	3590.38
426.77	3550.59
426.96	3534.21
427.15	3672.30
427.33	3730.81
427.52	3559.95
427.71	3611.45
427.90	3597.40
428.09	3555.27
428.28	3695.71
428.46	3822.09
428.65	3702.73
428.84	3824.44
429.03	3794.01
429.22	3646.55
429.40	3691.02
429.59	3763.58
429.78	3508.46
429.97	3501.44
430.16	3679.32
430.34	3740.18
430.53	3679.32
430.72	3761.24
430.91	3801.03
431.10	3768.26
431.28	4070.19
431.47	4095.94
431.66	3983.59
431.85	3978.91
432.03	4067.85
432.22	4196.58
432.41	4238.71
432.60	4053.81
432.79	3934.44
432.97	4131.05
433.16	4182.54
433.35	4032.74
433.54	4102.96
433.72	4170.83
433.91	4255.09
434.10	4208.28
434.28	4262.12
434.47	4217.65
434.66	4210.62
434.85	4334.67
435.03	4219.99
435.22	4290.20
435.41	4418.93
435.59	4318.29
435.78	4423.61
435.97	4503.19
436.16	4353.40
436.34	4400.21
436.53	4414.25
436.72	4540.64
436.90	4561.70
437.09	4671.71
437.28	4468.08
437.46	4599.15
437.65	4512.55
437.84	4578.09
438.02	4727.88
438.21	4589.79
438.40	4540.64
438.58	4807.46
438.77	4723.20
438.96	4795.76
439.14	4887.04
439.33	5022.79
439.52	4961.94
439.70	4964.28
439.89	5034.49
440.08	5027.47
440.26	4968.96
440.45	4950.23
440.63	5093.01
440.82	5301.31
441.01	5247.48
441.19	5268.55
441.38	5172.58
441.57	5294.29
441.75	5289.61
441.94	5427.70
442.12	5432.38
442.31	5432.38
442.50	5490.90
442.68	5511.96
442.87	5561.11
443.05	5626.65
443.24	5720.27
443.43	5701.54
443.61	5645.37
443.80	5748.36
443.98	5521.32
444.17	5387.91
444.35	5802.19
444.54	5912.19
444.73	5788.14
444.91	5769.42
445.10	5687.50
445.28	5706.23
445.47	5678.14
445.65	5717.93
445.84	5776.44
446.02	5668.78
446.21	5858.36
446.39	5797.51
446.58	5781.12
446.77	5870.06
446.95	5797.51
447.14	5750.70
447.32	5851.34
447.51	5834.96
447.69	5879.43
447.88	5823.25
448.06	5893.47
448.25	5820.91
448.43	5916.87
448.62	5778.78
448.80	5858.36
448.99	5863.04
449.17	5951.98
449.36	6010.50
449.54	6090.07
449.73	6188.38
449.91	6249.23
450.10	6059.65
450.28	6157.95
450.46	6197.74
450.65	6080.71
450.83	6237.53
451.02	6200.08
451.20	6373.28
451.39	6258.59
451.57	6179.01
451.76	6265.61
451.94	6436.47
452.13	6401.37
452.31	6282.00
452.49	6136.88
452.68	6438.81
452.86	6518.39
453.05	6291.36
453.23	6368.60
453.42	6368.60
453.60	6340.51
453.78	6370.94
453.97	6303.06
454.15	6434.13
454.34	6530.09
454.52	6647.12
454.70	6525.41
454.89	6434.13
455.07	6700.95
455.26	6736.06
455.44	6895.22
455.62	6656.48
455.81	6850.75
455.99	6799.26
456.17	6754.79
456.36	6813.30
456.54	6745.42
456.73	6946.71
456.91	7080.12
457.09	7145.66
457.28	7124.59
457.46	7047.35
457.64	7173.74
457.83	7133.95
458.01	7192.47
458.19	7307.15
458.38	7222.89
458.56	7307.15
458.74	7201.83
458.93	7159.70
459.11	7363.33
459.29	7344.60
459.48	7302.47
459.66	7379.71
459.84	7304.81
460.03	7447.58
460.21	7250.98
460.39	7407.80
460.57	7307.15
460.76	7456.95
460.94	7531.84
461.12	7686.32
461.31	7588.02
461.49	7669.94
461.67	7578.65
461.85	7838.45
462.04	7648.87
462.22	8217.62
462.40	8013.99
462.59	7660.57
462.77	7824.41
462.95	7861.86
463.13	7641.85
463.32	7763.56
463.50	7861.86
463.68	7854.84
463.86	7997.61
464.05	7801.01
464.23	7950.80
464.41	8081.87
464.59	7810.37
464.78	8248.05
464.96	7943.78
465.14	8168.47
465.32	8056.12
465.50	8114.64
465.69	8304.22
465.87	8070.17
466.05	8241.03
466.23	8114.64
466.41	8226.98
466.60	8374.44
466.78	8346.35
466.96	8154.43
467.14	8177.83
467.32	8252.73
467.51	8379.12
467.69	8009.31
467.87	8425.93
468.05	8531.25
468.23	8156.77
468.41	8308.90
468.60	8423.59
468.78	8571.04
468.96	8393.16
469.14	8709.13
469.32	8678.71
469.50	8446.99
469.69	8697.43
469.87	8762.97
470.05	8678.71
470.23	8861.27
470.41	8671.68
470.59	8910.42
470.77	8702.11
470.95	8826.16
471.14	9254.48
471.32	8793.39
471.50	8959.57
471.68	9032.13
471.86	9226.39
472.04	9123.41
472.22	9212.35
472.40	9090.64
472.58	9123.41
472.77	9174.90
472.95	9523.64
473.13	9607.90
473.31	9310.65
473.49	9373.85
473.67	9275.54
473.85	9586.83
474.03	9647.69
474.21	9540.02
474.39	9809.19
474.57	9886.42
474.75	9900.47
474.93	9905.15
475.12	9975.36
475.30	9966.00
475.48	9888.76
475.66	10228.14
475.84	10012.81
476.02	10045.58
476.20	10305.38
476.38	10420.06
476.56	10736.04
476.74	10391.98
476.92	10438.79
477.10	10445.81
477.28	10766.46
477.46	10792.21
477.64	10693.91
477.82	11047.33
478.00	11213.51
478.18	11157.33
478.36	11330.53
478.54	11066.05
478.72	11183.08
478.90	11489.69
479.08	11475.65
479.26	11599.70
479.44	11653.53
479.62	11775.24
479.80	11777.58
479.98	12032.69
480.16	12229.30
480.34	12238.66
480.52	12088.87
480.70	12109.93
480.88	12187.17
481.06	12156.74
481.24	12264.41
481.41	12674.00
481.59	12791.03
481.77	12950.18
481.95	12737.20
482.13	12849.54
482.31	13139.77
482.49	13209.98
482.67	13327.01
482.85	13331.69
483.03	13479.15
483.21	13378.50
483.39	13537.66
483.57	13701.50
483.74	14043.21
483.92	14043.21
484.10	13769.37
484.28	14260.88
484.46	14368.55
484.64	14670.48
484.82	14544.09
485.00	14530.05
485.18	14878.79
485.35	15070.71
485.53	14565.15
485.71	14817.93
485.89	14939.64
486.07	14841.34
486.25	15321.15
486.43	15281.36
486.61	15452.22
486.78	15723.72
486.96	15648.82
487.14	16009.26
487.32	15969.48
487.50	16086.50
487.68	16051.39
487.85	16273.74
488.03	16592.06
488.21	16746.53
488.39	16552.27
488.57	17027.40
488.75	17081.23
488.92	17336.35
489.10	17193.58
489.28	17289.54
489.46	17612.53
489.64	17635.94
489.81	18162.56
489.99	18073.62
490.17	18195.32
490.35	18324.05
490.53	18010.42
490.70	18272.56
490.88	17987.02
491.06	18710.24
491.24	18707.90
491.41	18628.32
491.59	18948.98
491.77	18932.59
491.95	19091.75
492.13	19520.07
492.30	19688.59
492.48	19435.81
492.66	19632.41
492.84	19730.72
493.01	19810.29
493.19	20058.39
493.37	20044.35
493.54	20077.12
493.72	20205.84
493.90	20383.73
494.08	20362.66
494.25	21092.91
494.43	20805.02
494.61	20964.18
494.79	21027.37
494.96	20996.95
495.14	21043.76
495.32	21252.06
495.49	21376.11
495.67	21387.82
495.85	22078.27
496.02	21694.43
496.20	22199.98
496.38	22122.74
496.55	22089.98
496.73	22317.01
496.91	22387.22
497.09	22806.18
497.26	22380.20
497.44	22871.72
497.62	22614.26
497.79	23068.32
497.97	22857.67
498.14	23173.64
498.32	23243.86
498.50	23157.26
498.67	23384.29
498.85	23798.57
499.03	23838.36
499.20	23747.08
499.38	23660.48
499.56	24072.41
499.73	24100.50
499.91	24311.14
500.08	24121.56
500.26	23840.70
500.44	24360.30
500.61	24407.11
500.79	24500.73
500.97	24463.28
501.14	24961.81
501.32	24615.41
501.49	24830.74
501.67	24840.11
501.84	25106.93
502.02	24959.47
502.20	25390.13
502.37	25291.83
502.55	25472.05
502.72	25195.87
502.90	25331.62
503.07	25366.73
503.25	25443.96
503.43	25628.87
503.60	25865.26
503.78	25762.28
503.95	25832.49
504.13	26047.82
504.30	25867.60
504.48	26155.49
504.65	26047.82
504.83	26398.90
505.01	26684.45
505.18	26354.43
505.36	26806.16
505.53	26742.96
505.71	26962.97
505.88	27255.54
506.06	26749.98
506.23	27154.90
506.41	26874.03
506.58	27136.17
506.76	26981.70
506.93	27358.52
507.11	27204.05
507.28	27374.91
507.46	27402.99
507.63	27360.86
507.81	27927.27
507.98	27417.04
508.16	28109.83
508.33	27885.14
508.50	27983.44
508.68	28271.33
508.85	28196.43
509.03	28034.94
509.20	28264.31
509.38	28556.88
509.55	29017.96
509.73	28589.64
509.90	28957.11
510.08	28954.77
510.25	28800.29
510.42	29053.07
510.60	29015.62
510.77	29125.63
510.95	29270.74
511.12	28945.41
511.30	29329.25
511.47	29355.00
511.64	29404.15
511.82	29579.69
511.99	29502.45
512.17	29788.00
512.34	29635.86
512.51	29933.11
512.69	30291.21
512.86	30057.16
513.04	30162.48
513.21	30164.82
513.38	30005.67
513.56	30136.74
513.73	30061.84
513.90	30106.31
514.08	30518.25
514.25	30562.72
514.43	30785.07
514.60	30366.11
514.77	30181.21
514.95	30869.33
515.12	31267.22
515.29	30986.35
515.47	31157.21
515.64	31388.92
515.81	31084.65
515.99	31185.30
516.16	31225.09
516.33	31033.16
516.51	31938.95
516.68	30962.95
516.85	31246.15
517.03	31318.71
517.20	31573.83
517.37	31854.69
517.54	31307.01
517.72	31622.98
517.89	31845.33
518.06	31388.92
518.24	31882.78
518.41	31681.49
518.58	31754.05
518.75	31775.11
518.93	31985.76
519.10	32641.11
519.27	32367.27
519.45	31967.04
519.62	32568.55
519.79	32643.45
519.96	32748.78
520.14	33097.52
520.31	32517.06
520.48	33326.89
520.65	32840.06
520.83	33067.09
521.00	33158.37
521.17	33188.80
521.34	33282.42
521.52	33495.41
521.69	33298.80
521.86	33710.74
522.03	33780.95
522.20	33635.84
522.38	33895.64
522.55	33745.84
522.72	33610.09
522.89	33883.94
523.07	33743.50
523.24	33766.91
523.41	34387.15
523.58	33900.32
523.75	34153.10
523.92	34431.62
524.10	34211.61
524.27	34382.47
524.44	34614.18
524.61	34546.31
524.78	34590.78
524.96	34518.22
525.13	34789.72
525.30	34911.43
525.47	35229.74
525.64	35093.99
525.81	34740.57
525.98	34953.56
526.16	34983.99
526.33	34419.92
526.50	35159.53
526.67	35044.84
526.84	35491.88
527.01	34995.69
527.18	35028.46
527.36	35655.72
527.53	35536.35
527.70	36180.00
527.87	36039.57
528.04	35634.66
528.21	35391.24
528.38	35545.72
528.55	35690.83
528.72	36048.93
528.89	36254.90
529.07	35761.05
529.24	35936.59
529.41	35917.86
529.58	35606.57
529.75	35988.08
529.92	36451.50
530.09	36165.96
530.26	36280.64
530.43	36629.38
530.60	36210.43
530.77	36704.28
530.94	36900.89
531.11	36383.63
531.28	36481.93
531.46	36467.89
531.63	36446.82
531.80	36781.52
531.97	37097.49
532.14	36971.10
532.31	37034.30
532.48	37085.79
532.65	37165.37
532.82	37263.67
532.99	37500.06
533.16	37064.72
533.33	37006.21
533.50	37446.23
533.67	37432.19
533.84	36917.27
534.01	37441.55
534.18	37186.43
534.35	37862.85
534.52	37516.45
534.69	37816.04
534.86	37464.96
535.03	37443.89
535.20	38040.73
535.37	38176.48
535.54	37771.57
535.71	37879.23
535.88	37621.77
536.05	37954.13
536.22	38094.56
536.38	38244.35
536.55	37951.79
536.72	38005.62
536.89	37544.53
537.06	38087.54
537.23	38628.20
537.40	38050.09
537.57	38220.95
537.74	38333.29
537.91	38689.06
538.08	38614.16
538.25	38349.68
538.42	38527.56
538.59	38735.87
538.75	38550.96
538.92	38651.61
539.09	39377.17
539.26	38625.86
539.43	39005.03
539.60	38817.78
539.77	38937.15
539.94	39342.06
540.11	39140.78
540.28	38822.47
540.44	38831.83
540.61	38873.96
540.78	39000.35
540.95	38682.03
541.12	38998.01
541.29	39037.80
541.46	38937.15
541.62	39236.74
541.79	39917.84
541.96	39023.75
542.13	38916.09
542.30	39438.03
542.47	39721.23
542.63	39517.60
542.80	39838.26
542.97	39756.34
543.14	39831.24
543.31	39927.20
543.48	39854.64
543.64	40615.32
543.81	40107.42
543.98	40196.36
544.15	40048.91
544.32	40376.58
544.48	40542.76
544.65	40203.38
544.82	40282.96
544.99	39847.62
545.16	40587.23
545.32	40657.45
545.49	40250.19
545.66	40655.11
545.83	40708.94
546.00	40673.83
546.16	40793.20
546.33	40404.67
546.50	40388.28
546.67	40402.33
546.83	40402.33
547.00	40465.52
547.17	40493.61
547.34	40678.51
547.50	40694.89
547.67	41392.37
547.84	40772.13
548.00	41263.64
548.17	41308.11
548.34	41116.19
548.51	41757.50
548.67	41413.44
548.84	41155.98
549.01	41359.61
549.18	41287.05
549.34	41366.63
549.51	41427.48
549.68	41717.71
549.84	41443.87
550.01	42241.99
550.18	40987.46
550.34	41556.21
550.51	41462.59
550.68	41544.51
550.84	41518.76
551.01	41757.50
551.18	41839.42
551.34	41263.64
551.51	41706.01
551.68	41474.29
551.84	41706.01
552.01	41663.88
552.18	41848.78
552.34	41668.56
552.51	41918.99
552.68	41715.37
552.84	42316.89
553.01	42260.71
553.18	41951.76
553.34	42344.97
553.51	41926.02
553.67	41975.17
553.84	42391.78
554.01	42494.77
554.17	42263.05
554.34	42403.49
554.51	42139.00
554.67	42258.37
554.84	42199.86
555.00	42506.47
555.17	42171.77
555.33	42464.34
555.50	42333.27
555.67	42258.37
555.83	42560.30
556.00	42637.54
556.16	42946.49
556.33	42834.14
556.50	42447.96
556.66	42731.16
556.83	42234.97
556.99	42508.81
557.16	42691.37
557.32	42260.71
557.49	42705.41
557.65	42700.73
557.82	42754.57
557.98	42714.78
558.15	42635.20
558.32	42670.31
558.48	42539.24
558.65	42885.64
558.81	43292.89
558.98	42576.69
559.14	43129.05
559.31	43178.20
559.47	43196.93
559.64	42937.13
559.80	43435.66
559.97	43229.69
560.13	43079.90
560.30	42827.12
560.46	43150.12
560.63	43107.99
560.79	43271.82
560.96	43203.95
561.12	43215.65
561.29	43154.80
561.45	43054.15
561.61	43615.88
561.78	43199.27
561.94	43208.63
562.11	43267.14
562.27	43297.57
562.44	43257.78
562.60	43372.47
562.77	43789.08
562.93	43206.29
563.10	43732.91
563.26	43058.84
563.42	43435.66
563.59	43346.72
563.75	43590.14
563.92	43056.50
564.08	43512.90
564.24	43524.60
564.41	43604.18
564.57	43548.01
564.74	43686.10
564.90	43594.82
565.07	43653.33
565.23	43512.90
565.39	43655.67
565.56	43360.76
565.72	43796.10
565.88	43695.46
566.05	43686.10
566.21	44058.24
566.38	43543.33
566.54	43789.08
566.70	43817.17
566.87	44236.12
567.03	43920.15
567.19	44355.49
567.36	43660.35
567.52	43660.35
567.68	43761.00
567.85	43992.71
568.01	43943.56
568.17	43803.13
568.34	43885.04
568.50	43559.71
568.66	43859.30
568.83	44025.48
568.99	43709.50
569.15	43875.68
569.32	43988.03
569.48	43955.26
569.64	44233.78
569.81	43880.36
569.97	44076.97
570.13	43892.07
570.30	44044.20
570.46	43608.86
570.62	43985.69
570.78	44002.07
570.95	43669.72
571.11	44282.94
571.27	43573.75
571.43	43611.20
571.60	43835.89
571.76	43833.55
571.92	43620.56
572.09	44224.42
572.25	44016.11
572.41	43681.42
572.57	44222.08
572.74	44219.74
572.90	44016.11
573.06	43995.05
573.22	44210.38
573.38	43973.98
573.55	43873.34
573.71	44423.37
573.87	44034.84
574.03	43505.88
574.20	43943.56
574.36	44210.38
574.52	43910.79
574.68	43906.11
574.84	44367.20
575.01	44378.90
575.17	44161.23
575.33	43456.73
575.49	44123.78
575.65	43903.77
575.82	44655.08
575.98	44409.32
576.14	44484.22
576.30	44411.67
576.46	43938.88
576.62	44105.06
576.79	44137.82
576.95	43667.37
577.11	43971.64
577.27	43786.74
577.43	44275.91
577.59	44275.91
577.75	44175.27
577.92	44002.07
578.08	43859.30
578.24	43772.70
578.40	43990.37
578.56	44336.77
578.72	44194.00
578.88	44137.82
579.04	44266.55
579.21	43725.89
579.37	44140.16
579.53	44287.62
579.69	43941.22
579.85	44250.17
580.01	44079.31
580.17	44308.68
580.33	44463.16
580.49	44673.81
580.65	44477.20
580.82	44334.43
580.98	44144.84
581.14	44215.06
581.30	44940.63
581.46	44116.76
581.62	44355.49
581.78	43686.10
581.94	44692.53
582.10	44219.74
582.26	44215.06
582.42	44561.46
582.58	43955.26
582.74	44292.30
582.90	44430.39
583.06	44381.24
583.22	44432.73
583.38	44652.74
583.54	44336.77
583.70	44652.74
583.86	44439.75
584.02	44116.76
584.18	44238.47
584.34	44622.31
584.50	44191.65
584.66	44381.24
584.82	44219.74
584.98	44535.71
585.14	43903.77
585.30	44329.75
585.46	44428.05
585.62	43992.71
585.78	44381.24
585.94	43988.03
586.10	44250.17
586.26	44304.00
586.42	44617.63
586.58	44554.44
586.74	44308.68
586.90	43718.87
587.06	44486.56
587.22	44140.16
587.38	44320.38
587.54	44591.89
587.70	44973.39
587.86	43943.56
588.02	44275.91
588.18	44257.19
588.34	44287.62
588.49	44067.61
588.65	44081.65
588.81	44247.83
588.97	44313.36
589.13	44186.97
589.29	44261.87
589.45	44219.74
589.61	44774.45
589.77	45184.04
589.93	44842.32
590.08	45036.59
590.24	44706.57
