SpectraSuite Data File
++++++++++++++++++++++++++++++++++++
Date: Fri Oct 25 11:25:22 EDT 2013
User: price-jones
Dark Spectrum Present: No
Reference Spectrum Present: No
Number of Sampled Component Spectra: 1
Spectrometers: USB2+H05261
Integration Time (usec): 100000 (USB2+H05261)
Spectra Averaged: 1 (USB2+H05261)
Boxcar Smoothing: 0 (USB2+H05261)
Correct for Electrical Dark: No (USB2+H05261)
Strobe/Lamp Enabled: No (USB2+H05261)
Correct for Detector Non-linearity: No (USB2+H05261)
Correct for Stray Light: No (USB2+H05261)
Number of Pixels in Processed Spectrum: 2048
>>>>>Begin Processed Spectral Data<<<<<
365.73	248.10
365.92	248.10
366.12	248.10
366.32	177.88
366.52	175.54
366.72	182.56
366.91	117.03
367.11	142.77
367.31	126.39
367.51	131.07
367.70	107.66
367.90	180.22
368.10	95.96
368.30	117.03
368.49	145.11
368.69	110.01
368.89	126.39
369.09	95.96
369.28	224.69
369.48	220.01
369.68	163.84
369.87	236.39
370.07	210.65
370.27	252.78
370.47	348.74
370.66	587.47
370.86	648.33
371.06	678.76
371.25	627.26
371.45	578.11
371.65	617.90
371.84	674.07
372.04	622.58
372.24	678.76
372.44	676.41
372.63	732.59
372.83	727.91
373.03	734.93
373.22	744.29
373.42	793.44
373.62	720.88
373.81	793.44
374.01	858.98
374.21	856.64
374.40	748.97
374.60	851.96
374.79	807.48
374.99	898.77
375.19	861.32
375.38	858.98
375.58	851.96
375.78	856.64
375.97	854.30
376.17	903.45
376.37	833.23
376.56	840.25
376.76	812.17
376.95	821.53
377.15	901.11
377.35	933.87
377.54	933.87
377.74	880.04
377.93	882.38
378.13	938.55
378.33	908.13
378.52	933.87
378.72	954.94
378.91	983.02
379.11	938.55
379.31	870.68
379.50	903.45
379.70	976.00
379.89	990.05
380.09	966.64
380.28	933.87
380.48	990.05
380.68	978.34
380.87	952.60
381.07	1004.09
381.26	973.66
381.46	954.94
381.65	936.21
381.85	1050.90
382.04	1071.97
382.24	1116.44
382.43	1107.07
382.63	978.34
382.83	1074.31
383.02	1196.01
383.22	1149.20
383.41	1074.31
383.61	1142.18
383.80	1203.04
384.00	1109.41
384.19	1137.50
384.39	1151.54
384.58	1174.95
384.78	1170.27
384.97	1188.99
385.17	1095.37
385.36	1196.01
385.56	1158.57
385.75	1097.71
385.95	1207.72
386.14	1231.12
386.34	1177.29
386.53	1233.46
386.72	1177.29
386.92	1235.80
387.11	1205.38
387.31	1221.76
387.50	1217.08
387.70	1198.35
387.89	1350.49
388.09	1350.49
388.28	1273.25
388.48	1266.23
388.67	1427.73
388.86	1343.47
389.06	1373.89
389.25	1345.81
389.45	1369.21
389.64	1327.08
389.84	1397.30
390.03	1306.02
390.22	1376.24
390.42	1310.70
390.61	1350.49
390.81	1399.64
391.00	1423.05
391.19	1446.45
391.39	1423.05
391.58	1352.83
391.78	1453.47
391.97	1526.03
392.16	1455.81
392.36	1469.86
392.55	1535.39
392.75	1432.41
392.94	1448.79
393.13	1437.09
393.33	1453.47
393.52	1514.33
393.71	1638.38
393.91	1584.54
394.10	1544.75
394.29	1659.44
394.49	1544.75
394.68	1668.80
394.88	1551.78
395.07	1619.65
395.26	1551.78
395.46	1727.32
395.65	1715.61
395.84	1757.74
396.04	1736.68
396.23	1741.36
396.42	1736.68
396.62	1746.04
396.81	1785.83
397.00	1767.10
397.19	1741.36
397.39	1844.34
397.58	1832.64
397.77	1764.76
397.97	1790.51
398.16	1760.08
398.35	1888.81
398.55	1867.75
398.74	1902.86
398.93	1966.05
399.12	1893.49
399.32	1893.49
399.51	1942.64
399.70	2057.33
399.90	1987.11
400.09	2078.40
400.28	2022.22
400.47	2062.01
400.67	2043.29
400.86	2143.93
401.05	2078.40
401.24	2015.20
401.44	2108.82
401.63	2097.12
401.82	2115.84
402.01	2087.76
402.21	2174.36
402.40	2204.78
402.59	2118.18
402.78	2221.17
402.97	2108.82
403.17	2143.93
403.36	2303.09
403.55	2202.44
403.74	2188.40
403.93	2356.92
404.13	2326.49
404.32	2277.34
404.51	2256.28
404.70	2385.01
404.89	2408.41
405.09	2506.71
405.28	2487.99
405.47	2443.52
405.66	2403.73
405.85	2516.08
406.05	2520.76
406.24	2548.84
406.43	2541.82
406.62	2635.44
406.81	2670.55
407.00	2457.56
407.20	2651.83
407.39	2626.08
407.58	2710.34
407.77	2576.93
407.96	2696.30
408.15	2785.24
408.34	2642.46
408.54	2724.38
408.73	2668.21
408.92	2773.53
409.11	2787.58
409.30	2944.39
409.49	2822.69
409.68	2904.60
409.87	2956.10
410.07	2967.80
410.26	2946.73
410.45	2965.46
410.64	2974.82
410.83	3131.64
411.02	3162.06
411.21	3297.81
411.40	3126.96
411.59	3253.34
411.78	3138.66
411.98	3258.03
412.17	3274.41
412.36	3297.81
412.55	3265.05
412.74	3272.07
412.93	3536.55
413.12	3234.62
413.31	3515.48
413.50	3466.33
413.69	3449.95
413.88	3431.23
414.07	3524.85
414.26	3543.57
414.45	3578.68
414.64	3613.79
414.83	3719.11
415.02	3831.46
415.22	3810.39
415.41	3950.82
415.60	3765.92
415.79	3920.40
415.98	3964.87
416.17	3845.50
416.36	3918.06
416.55	3833.80
416.74	4016.36
416.93	3990.61
417.12	3997.64
417.31	4046.79
417.50	4051.47
417.69	4262.12
417.88	4329.99
418.07	4170.83
418.26	4283.18
418.45	4430.63
418.64	4360.42
418.83	4451.70
419.02	4440.00
419.21	4496.17
419.39	4526.60
419.58	4540.64
419.77	4489.15
419.96	4568.73
420.15	4592.13
420.34	4669.37
420.53	4564.04
420.72	4718.52
420.91	4643.62
421.10	4727.88
421.29	4784.06
421.48	4788.74
421.67	4812.14
421.86	4744.27
422.05	4812.14
422.24	4688.09
422.43	4835.55
422.61	4805.12
422.80	4873.00
422.99	4975.98
423.18	4959.60
423.37	4901.08
423.56	4973.64
423.75	4889.38
423.94	4737.24
424.13	4669.37
424.32	4652.98
424.50	4873.00
424.69	5081.30
424.88	5060.24
425.07	4999.38
425.26	5048.54
425.45	4924.49
425.64	4933.85
425.83	4999.38
426.01	5102.37
426.20	4891.72
426.39	5074.28
426.58	4877.68
426.77	4910.44
426.96	5071.94
427.15	5100.03
427.33	5167.90
427.52	5111.73
427.71	5291.95
427.90	5146.84
428.09	5296.63
428.28	5174.92
428.46	5315.36
428.65	5345.78
428.84	5488.56
429.03	5474.51
429.22	5394.93
429.40	5565.79
429.59	5563.45
429.78	5334.08
429.97	5240.46
430.16	5497.92
430.34	5640.69
430.53	5584.52
430.72	5626.65
430.91	5598.56
431.10	5488.56
431.28	5710.91
431.47	5853.68
431.66	5743.67
431.85	5680.48
432.03	5963.68
432.22	6003.47
432.41	5951.98
432.60	5937.94
432.79	5879.43
432.97	6005.81
433.16	6045.60
433.35	5968.37
433.54	6047.94
433.72	6171.99
433.91	6111.14
434.10	6244.55
434.28	6125.18
434.47	6136.88
434.66	6232.85
434.85	6293.70
435.03	6242.21
435.22	6303.06
435.41	6450.52
435.59	6387.32
435.78	6368.60
435.97	6298.38
436.16	6328.81
436.34	6366.26
436.53	6415.41
436.72	6572.22
436.90	6457.54
437.09	6590.95
437.28	6415.41
437.46	6574.56
437.65	6555.84
437.84	6778.19
438.02	6707.98
438.21	6960.75
438.40	6630.74
438.58	6848.41
438.77	6885.86
438.96	6958.41
439.14	7000.54
439.33	7157.36
439.52	7248.64
439.70	7304.81
439.89	7194.81
440.08	7356.30
440.26	7232.26
440.45	7332.90
440.63	7328.22
440.82	7489.71
441.01	7375.03
441.19	7485.03
441.38	7578.65
441.57	7812.71
441.75	7810.37
441.94	7871.22
442.12	7772.92
442.31	8042.08
442.50	8032.72
442.68	7899.31
442.87	7801.01
443.05	8039.74
443.24	8191.88
443.43	7892.29
443.61	8245.71
443.80	8493.80
443.98	8023.36
444.17	7915.69
444.35	8121.66
444.54	8280.82
444.73	8163.79
444.91	8294.86
445.10	8451.67
445.28	8351.03
445.47	8299.54
445.65	8266.77
445.84	8234.00
446.02	8285.50
446.21	8542.96
446.39	8512.53
446.58	8517.21
446.77	8559.34
446.95	8297.20
447.14	8437.63
447.32	8379.12
447.51	8547.64
447.69	8465.72
447.88	8416.57
448.06	8395.50
448.25	8449.33
448.43	8753.60
448.62	8484.44
448.80	8404.86
448.99	8573.38
449.17	8613.17
449.36	8648.28
449.54	8723.18
449.73	8854.25
449.91	9071.92
450.10	8964.25
450.28	9081.28
450.46	9210.01
450.65	9071.92
450.83	9130.43
451.02	9029.79
451.20	9006.38
451.39	9266.18
451.57	9158.52
451.76	8905.74
451.94	9083.62
452.13	9352.78
452.31	9200.65
452.49	9334.06
452.68	9320.01
452.86	9153.84
453.05	9390.23
453.23	9570.45
453.42	9198.31
453.60	9437.04
453.78	9401.93
453.97	9156.18
454.15	9509.60
454.34	9305.97
454.52	9713.22
454.70	9504.92
454.89	9846.63
455.07	9626.62
455.26	9867.70
455.44	9867.70
455.62	9975.36
455.81	9863.02
455.99	9884.08
456.17	10052.60
456.36	10097.07
456.54	10221.12
456.73	10310.06
456.91	10317.08
457.09	10200.05
457.28	10572.20
457.46	10438.79
457.64	10506.66
457.83	10626.03
458.01	10406.02
458.19	10759.44
458.38	10459.85
458.56	10621.35
458.74	10541.77
458.93	10670.50
459.11	10817.96
459.29	10731.36
459.48	10619.01
459.66	10714.97
459.84	10752.42
460.03	10862.43
460.21	10874.13
460.39	11059.03
460.57	10953.71
460.76	11309.47
460.94	11117.54
461.12	11119.89
461.31	10977.11
461.49	10930.30
461.67	11229.89
461.85	11229.89
462.04	11255.64
462.22	11632.46
462.40	11662.89
462.59	11527.14
462.77	11662.89
462.95	11576.29
463.13	11477.99
463.32	11515.44
463.50	11749.49
463.68	11660.55
463.86	11831.41
464.05	11648.85
464.23	11634.80
464.41	11660.55
464.59	11658.21
464.78	12140.36
464.96	11918.01
465.14	11822.05
465.32	11882.90
465.50	12131.00
465.69	12154.40
465.87	11955.46
466.05	12020.99
466.23	12091.21
466.41	12102.91
466.60	12374.41
466.78	12056.10
466.96	11892.26
467.14	12128.66
467.32	12308.88
467.51	12524.21
467.69	12107.59
467.87	12166.10
468.05	12641.23
468.23	12210.57
468.41	12409.52
468.60	12423.56
468.78	12802.73
468.96	12250.36
469.14	12779.32
469.32	12779.32
469.50	12744.22
469.69	12975.93
469.87	12964.23
470.05	13043.81
470.23	13315.31
470.41	13214.66
470.59	13298.92
470.77	13015.72
470.95	13121.04
471.14	13490.85
471.32	13240.41
471.50	13401.91
471.68	13556.38
471.86	13535.32
472.04	13467.44
472.22	13989.38
472.40	13444.04
472.58	13659.37
472.77	13795.12
472.95	14029.17
473.13	14588.56
473.31	13987.04
473.49	13980.02
473.67	13956.61
473.85	14244.50
474.03	14595.58
474.21	14623.67
474.39	14644.73
474.57	14644.73
474.75	15007.52
474.93	15005.17
475.12	14803.89
475.30	15077.73
475.48	15302.42
475.66	15183.06
475.84	15082.41
476.02	15307.10
476.20	15232.21
476.38	15709.68
476.56	15829.04
476.74	15786.91
476.92	15899.26
477.10	15672.23
477.28	16147.36
477.46	16229.27
477.64	16109.91
477.82	16524.18
478.00	16793.34
478.18	16638.87
478.36	16950.16
478.54	16903.35
478.72	16940.80
478.90	17144.42
479.08	17350.39
479.26	17474.44
479.44	17521.25
479.62	17909.78
479.80	18078.30
479.98	18160.22
480.16	18476.19
480.34	18345.12
480.52	18501.93
480.70	18534.70
480.88	18335.76
481.06	18427.04
481.24	18625.98
481.41	18927.91
481.59	19164.31
481.77	19185.37
481.95	19323.46
482.13	19400.70
482.31	19857.10
482.49	20147.33
482.67	19969.45
482.85	20205.84
483.03	20669.27
483.21	20575.65
483.39	20617.78
483.57	20739.49
483.74	21078.86
483.92	21188.87
484.10	20896.30
484.28	21720.17
484.46	21862.94
484.64	22284.24
484.82	21816.13
485.00	22019.76
485.18	22649.36
485.35	22761.71
485.53	22534.68
485.71	23028.53
485.89	23260.24
486.07	23281.31
486.25	23470.89
486.43	23559.83
486.61	24196.46
486.78	23819.63
486.96	24149.65
487.14	24341.57
487.32	24470.30
487.50	24725.42
487.68	24680.95
487.85	25060.12
488.03	25357.36
488.21	25680.36
488.39	25493.12
488.57	25883.98
488.75	25942.50
488.92	26185.91
489.10	26586.15
489.28	26614.23
489.46	27002.76
489.64	26684.45
489.81	27300.01
489.99	27625.34
490.17	27821.95
490.35	27742.37
490.53	27899.19
490.70	28591.98
490.88	28158.99
491.06	28676.24
491.24	28861.15
491.41	28907.96
491.59	29057.75
491.77	29226.27
491.95	29490.75
492.13	29729.48
492.30	29584.37
492.48	30080.56
492.66	29752.89
492.84	29844.17
493.01	30443.35
493.19	30792.09
493.37	30864.64
493.54	31211.04
493.72	31295.30
493.90	31058.91
494.08	31318.71
494.25	31580.85
494.43	31892.14
494.61	32201.09
494.79	32065.34
494.96	31952.99
495.14	32549.83
495.32	33305.82
495.49	32900.91
495.67	32870.48
495.85	33064.75
496.02	33516.47
496.20	33720.10
496.38	33530.51
496.55	34199.91
496.73	34511.20
496.91	34370.77
497.09	34623.54
497.26	34700.78
497.44	34288.85
497.62	35243.79
497.79	35431.03
497.97	35353.79
498.14	36051.27
498.32	35824.24
498.50	36058.29
498.67	36278.30
498.85	36273.62
499.03	36343.84
499.20	36486.61
499.38	36613.00
499.56	36720.66
499.73	36921.95
499.91	36992.17
500.08	37205.16
500.26	36966.42
500.44	37563.26
500.61	37481.34
500.79	37574.96
500.97	38359.04
501.14	38632.88
501.32	38302.87
501.49	38176.48
501.67	38120.31
501.84	38417.55
502.02	38768.63
502.20	38827.15
502.37	38873.96
502.55	38967.58
502.72	39227.38
502.90	39864.00
503.07	39449.73
503.25	39807.83
503.43	39592.50
503.60	40081.67
503.78	39938.90
503.95	39552.71
504.13	40142.53
504.30	40449.14
504.48	40194.02
504.65	40772.13
504.83	41024.91
505.01	41097.47
505.18	41118.53
505.36	41361.95
505.53	41055.34
505.71	41574.94
505.88	41371.31
506.06	41125.55
506.23	41766.86
506.41	41823.03
506.58	41600.68
506.76	41897.93
506.93	42157.73
507.11	41998.57
507.28	41928.36
507.46	42288.80
507.63	42754.57
507.81	43077.56
507.98	42492.43
508.16	43168.84
508.33	43344.38
508.50	43077.56
508.68	43620.56
508.85	43737.59
509.03	43840.57
509.20	43784.40
509.38	44069.95
509.55	44322.72
509.73	44100.37
509.90	44561.46
510.08	44416.35
510.25	43973.98
510.42	44107.40
510.60	44678.49
510.77	45071.70
510.95	45095.10
511.12	44931.26
511.30	44978.07
511.47	45294.05
511.64	45378.31
511.82	45497.67
511.99	45177.02
512.17	45394.69
512.34	45663.85
512.51	45954.08
512.69	46256.01
512.86	46216.22
513.04	46639.86
513.21	46050.04
513.38	46312.18
513.56	46651.56
513.73	46525.17
513.90	46553.26
514.08	46410.48
514.25	46700.71
514.43	46894.97
514.60	46983.91
514.77	47255.42
514.95	47334.99
515.12	47206.26
515.29	47339.68
515.47	47641.60
515.64	47873.32
515.81	47545.64
515.99	47908.43
516.16	48170.57
516.33	48177.59
516.51	48748.68
516.68	48404.62
516.85	48165.88
517.03	48402.28
517.20	48722.93
517.37	48638.67
517.54	48830.60
517.72	48678.46
517.89	48636.33
518.06	48736.98
518.24	48985.07
518.41	48928.90
518.58	49354.88
518.75	49235.51
518.93	49464.88
519.10	49268.28
519.27	49467.22
519.45	49247.21
519.62	49567.87
519.79	49841.71
519.96	50162.36
520.14	49811.28
520.31	49893.20
520.48	50464.29
520.65	49895.54
520.83	50225.56
521.00	50330.88
521.17	49935.33
521.34	50553.23
521.52	50382.37
521.69	50623.45
521.86	50932.40
522.03	50777.92
522.20	51199.22
522.38	51302.20
522.55	51351.35
522.72	51213.26
522.89	51187.52
523.07	51339.65
523.24	51454.34
523.41	51398.16
523.58	51119.64
523.75	51351.35
523.92	51657.96
524.10	51739.88
524.27	51915.42
524.44	51515.19
524.61	51950.53
524.78	51599.45
524.96	51908.40
525.13	51896.70
525.30	51966.91
525.47	52299.27
525.64	52416.30
525.81	52442.04
525.98	52428.00
526.16	52587.16
526.33	52437.36
526.50	52755.68
526.67	52811.85
526.84	52605.88
527.01	52570.77
527.18	52903.13
527.36	52708.86
527.53	52921.85
527.70	53071.65
527.87	53125.48
528.04	53120.80
528.21	53071.65
528.38	53109.10
528.55	53537.41
528.72	53310.38
528.89	53326.77
529.07	53329.11
529.24	53347.83
529.41	53464.86
529.58	53382.94
529.75	53176.97
529.92	53249.53
530.09	53396.98
530.26	54003.18
530.43	53673.16
530.60	53544.44
530.77	53797.21
530.94	53961.05
531.11	53925.94
531.28	53815.94
531.46	54085.10
531.63	54157.66
531.80	53883.81
531.97	53954.03
532.14	54401.07
532.31	54248.94
532.48	54490.01
532.65	54457.24
532.82	54274.68
532.99	54585.97
533.16	54323.83
533.33	54440.86
533.50	54986.21
533.67	54761.51
533.84	54541.50
534.01	54705.34
534.18	54639.81
534.35	55049.40
534.52	54908.97
534.69	55023.65
534.86	55065.78
535.03	55075.15
535.20	54878.54
535.37	55377.08
535.54	54962.80
535.71	55377.08
535.88	55334.95
536.05	55292.82
536.22	55229.62
536.38	55356.01
536.55	55543.25
536.72	55451.97
536.89	55068.12
537.06	55538.57
537.23	55611.13
537.40	55255.37
537.57	55491.76
537.74	55695.39
537.91	55714.11
538.08	55831.14
538.25	55538.57
538.42	55721.13
538.59	56027.74
538.75	55667.30
538.92	56037.11
539.09	56067.53
539.26	56072.21
539.43	55943.48
539.60	55992.64
539.77	56095.62
539.94	56238.39
540.11	56254.78
540.28	56240.73
540.44	56383.51
540.61	56292.22
540.78	56268.82
540.95	56329.67
541.12	56243.07
541.29	56090.94
541.46	56533.30
541.62	56423.29
541.79	56678.41
541.96	56238.39
542.13	56378.82
542.30	56741.61
542.47	56666.71
542.63	56549.68
542.80	56673.73
542.97	57029.49
543.14	57240.14
543.31	56982.68
543.48	57001.41
543.64	57385.25
543.81	57359.51
543.98	57186.31
544.15	57190.99
544.32	57155.88
544.48	57310.36
544.65	57059.92
544.82	57525.69
544.99	57050.56
545.16	57567.82
545.32	57364.19
545.49	57741.02
545.66	57605.26
545.83	57324.40
546.00	57602.92
546.16	57403.98
546.33	57565.48
546.50	57588.88
546.67	57640.37
546.83	57354.83
547.00	57623.99
547.17	57401.64
547.34	57633.35
547.50	57914.22
547.67	57946.98
547.84	58047.63
548.00	57668.46
548.17	58021.88
548.34	57963.37
548.51	58005.50
548.67	58117.84
548.84	57907.19
549.01	57785.49
549.18	57954.00
549.34	58117.84
549.51	58227.85
549.68	58209.12
549.84	58185.72
550.01	58216.14
550.18	58202.10
550.34	58342.53
550.51	58342.53
550.68	58241.89
550.84	57942.30
551.01	58475.94
551.18	58295.72
551.34	58508.71
551.51	58599.99
551.68	58508.71
551.84	58590.63
552.01	58356.58
552.18	58557.86
552.34	58152.95
552.51	58576.59
552.68	58461.90
552.84	58745.11
553.01	58817.66
553.18	58656.17
553.34	58836.39
553.51	58518.07
553.67	58855.11
553.84	58780.21
554.01	58993.20
554.17	58915.96
554.34	58815.32
554.51	59063.42
554.67	58693.61
554.84	58656.17
555.00	58698.30
555.17	58567.23
555.33	58969.80
555.50	58864.47
555.67	59096.19
555.83	58845.75
556.00	58876.18
556.16	59238.96
556.33	59243.64
556.50	58873.84
556.66	59274.07
556.83	58983.84
556.99	59107.89
557.16	59372.37
557.32	59257.68
557.49	59325.56
557.65	59192.15
557.82	59302.15
557.98	59393.43
558.15	59241.30
558.32	59189.81
558.48	59248.32
558.65	59323.22
558.81	59461.31
558.98	59194.49
559.14	59426.20
559.31	59458.97
559.47	59285.77
559.64	59444.93
559.80	59629.83
559.97	59781.96
560.13	59377.05
560.30	59538.55
560.46	59550.25
560.63	59552.59
560.79	59662.60
560.96	59536.21
561.12	59662.60
561.29	59662.60
561.45	59632.17
561.61	59625.15
561.78	59594.72
561.94	59484.72
562.11	59800.69
562.27	59599.40
562.44	59758.56
562.60	59833.46
562.77	59887.29
562.93	59786.64
563.10	60102.62
563.26	59641.53
563.42	59788.98
563.59	60009.00
563.75	59884.95
563.92	59952.82
564.08	59847.50
564.24	60041.76
564.41	59751.54
564.57	59922.40
564.74	59973.89
564.90	59898.99
565.07	59856.86
565.23	60074.53
565.39	59983.25
565.56	60257.09
565.72	60069.85
565.88	60039.42
566.05	59992.61
566.21	60231.35
566.38	59990.27
566.54	60128.36
566.70	60205.60
566.87	60275.82
567.03	60109.64
567.19	60329.65
567.36	60126.02
567.52	60221.98
567.68	60360.08
567.85	60093.25
568.01	60212.62
568.17	60126.02
568.34	60303.90
568.50	60121.34
568.66	60481.78
568.83	60182.19
568.99	60200.92
569.15	60285.18
569.32	60484.12
569.48	60147.09
569.64	60449.02
569.81	60411.57
569.97	60303.90
570.13	60392.84
570.30	60257.09
570.46	60317.95
570.62	60355.39
570.78	60324.97
570.95	60165.81
571.11	60566.04
571.27	60537.96
571.43	60678.39
571.60	60460.72
571.76	60535.62
571.92	60603.49
572.09	60523.91
572.25	60360.08
572.41	60390.50
572.57	60495.83
572.74	60659.66
572.90	60285.18
573.06	60603.49
573.22	60388.16
573.38	60720.52
573.55	60446.68
573.71	60626.90
573.87	60596.47
574.03	60374.12
574.20	60636.26
574.36	60535.62
574.52	60498.17
574.68	60552.00
574.84	60666.69
575.01	60671.37
575.17	60615.19
575.33	60552.00
575.49	60488.80
575.65	60591.79
575.82	60708.82
575.98	60484.12
576.14	60757.97
576.30	60559.02
576.46	60687.75
576.62	60591.79
576.79	60594.13
576.95	60367.10
577.11	60643.28
577.27	60809.46
577.43	60683.07
577.59	60631.58
577.75	60720.52
577.92	60327.31
578.08	60624.56
578.24	60692.43
578.40	60828.18
578.56	60760.31
578.72	60650.30
578.88	60858.61
579.04	60821.16
579.21	60708.82
579.37	60849.25
579.53	60757.97
579.69	60444.33
579.85	60622.22
580.01	60587.11
580.17	60704.13
580.33	60900.74
580.49	60809.46
580.65	60912.44
580.82	60856.27
580.98	60825.84
581.14	60910.10
581.30	60886.70
581.46	60748.60
581.62	60786.05
581.78	60580.09
581.94	61001.38
582.10	60779.03
582.26	60898.40
582.42	60750.94
582.58	60900.74
582.74	60622.22
582.90	60715.84
583.06	60704.13
583.22	60734.56
583.38	60832.86
583.54	60912.44
583.70	60809.46
583.86	60802.44
584.02	60750.94
584.18	60884.36
584.34	60949.89
584.50	60867.97
584.66	60624.56
584.82	60846.91
584.98	61017.77
585.14	60933.51
585.30	60837.54
585.46	60884.36
585.62	60825.84
585.78	60903.08
585.94	60746.26
586.10	60860.95
586.26	60889.04
586.42	61048.19
586.58	61146.50
586.74	60921.80
586.90	60874.99
587.06	60842.23
587.22	61036.49
587.38	60762.65
587.54	61001.38
587.70	61207.35
587.86	60889.04
588.02	60874.99
588.18	61097.34
588.34	60938.19
588.49	61148.84
