SpectraSuite Data File
++++++++++++++++++++++++++++++++++++
Date: Fri Oct 25 10:43:55 EDT 2013
User: price-jones
Dark Spectrum Present: No
Reference Spectrum Present: No
Number of Sampled Component Spectra: 1
Spectrometers: USB2+H05261
Integration Time (usec): 100000 (USB2+H05261)
Spectra Averaged: 1 (USB2+H05261)
Boxcar Smoothing: 0 (USB2+H05261)
Correct for Electrical Dark: No (USB2+H05261)
Strobe/Lamp Enabled: No (USB2+H05261)
Correct for Detector Non-linearity: No (USB2+H05261)
Correct for Stray Light: No (USB2+H05261)
Number of Pixels in Processed Spectrum: 2048
>>>>>Begin Processed Spectral Data<<<<<
365.73	166.18
365.92	166.18
366.12	166.18
366.32	53.83
366.52	0.00
366.72	14.04
366.91	32.77
367.11	63.19
367.31	16.38
367.51	0.00
367.70	11.70
367.90	39.79
368.10	35.11
368.30	21.06
368.49	46.81
368.69	65.54
368.89	35.11
369.09	39.79
369.28	44.47
369.48	0.00
369.68	7.02
369.87	81.92
370.07	72.56
370.27	170.86
370.47	243.42
370.66	421.30
370.86	433.00
371.06	472.79
371.25	566.41
371.45	580.45
371.65	505.56
371.84	503.22
372.04	444.70
372.24	571.09
372.44	531.30
372.63	547.69
372.83	524.28
373.03	449.38
373.22	470.45
373.42	442.36
373.62	550.03
373.81	519.60
374.01	538.32
374.21	531.30
374.40	543.00
374.60	550.03
374.79	543.00
374.99	531.30
375.19	592.16
375.38	578.11
375.58	596.84
375.78	622.58
375.97	657.69
376.17	690.46
376.37	613.22
376.56	667.05
376.76	615.56
376.95	589.82
377.15	671.73
377.35	624.92
377.54	690.46
377.74	678.76
377.93	667.05
378.13	678.76
378.33	737.27
378.52	711.52
378.72	732.59
378.91	617.90
379.11	711.52
379.31	566.41
379.50	678.76
379.70	706.84
379.89	631.94
380.09	732.59
380.28	758.33
380.48	688.12
380.68	702.16
380.87	753.65
381.07	638.97
381.26	809.83
381.46	758.33
381.65	798.12
381.85	660.03
382.04	683.44
382.24	744.29
382.43	746.63
382.63	664.71
382.83	737.27
383.02	739.61
383.22	753.65
383.41	741.95
383.61	697.48
383.80	800.46
384.00	784.08
384.19	877.70
384.39	840.25
384.58	819.19
384.78	809.83
384.97	894.08
385.17	894.08
385.36	795.78
385.56	800.46
385.75	802.80
385.95	873.02
386.14	880.04
386.34	812.17
386.53	929.19
386.72	819.19
386.92	840.25
387.11	903.45
387.31	976.00
387.50	816.85
387.70	894.08
387.89	830.89
388.09	990.05
388.28	898.77
388.48	917.49
388.67	1013.45
388.86	940.90
389.06	1039.20
389.25	943.24
389.45	1039.20
389.64	1043.88
389.84	1015.79
390.03	1086.01
390.22	1135.16
390.42	1025.15
390.61	1128.14
390.81	1022.81
391.00	1095.37
391.19	1137.50
391.39	1191.33
391.58	1048.56
391.78	1097.71
391.97	1224.10
392.16	1015.79
392.36	1074.31
392.55	1163.25
392.75	1137.50
392.94	1025.15
393.13	1135.16
393.33	973.66
393.52	1032.18
393.71	1165.59
393.91	1137.50
394.10	1207.72
394.29	1121.12
394.49	1205.38
394.68	1111.75
394.88	1296.66
395.07	1198.35
395.26	1378.58
395.46	1277.93
395.65	1268.57
395.84	1303.68
396.04	1322.40
396.23	1200.69
396.42	1226.44
396.62	1240.48
396.81	1245.16
397.00	1301.34
397.19	1364.53
397.39	1444.11
397.58	1514.33
397.77	1416.02
397.97	1526.03
398.16	1516.67
398.35	1488.58
398.55	1554.12
398.74	1568.16
398.93	1668.80
399.12	1575.18
399.32	1519.01
399.51	1589.22
399.70	1717.95
399.90	1650.08
400.09	1694.55
400.28	1652.42
400.47	1650.08
400.67	1764.76
400.86	1741.36
401.05	1689.87
401.24	1785.83
401.44	1762.42
401.63	1886.47
401.82	1785.83
402.01	1739.02
402.21	1867.75
402.40	1886.47
402.59	1809.23
402.78	1832.64
402.97	1886.47
403.17	1893.49
403.36	1898.17
403.55	2026.90
403.74	1895.83
403.93	1991.80
404.13	1916.90
404.32	1959.03
404.51	1996.48
404.70	2047.97
404.89	1888.81
405.09	2176.70
405.28	2008.18
405.47	2071.37
405.66	2132.23
405.85	2143.93
406.05	2012.86
406.24	2108.82
406.43	2113.50
406.62	2202.44
406.81	2368.62
407.00	2153.29
407.20	2190.74
407.39	2197.76
407.58	2136.91
407.77	2347.56
407.96	2260.96
408.15	2326.49
408.34	2275.00
408.54	2450.54
408.73	2413.09
408.92	2441.18
409.11	2436.50
409.30	2483.31
409.49	2394.37
409.68	2422.45
409.87	2354.58
410.07	2401.39
410.26	2544.16
410.45	2377.98
410.64	2527.78
410.83	2663.53
411.02	2700.98
411.21	2658.85
411.40	2766.51
411.59	2778.22
411.78	2820.35
411.98	2712.68
412.17	2761.83
412.36	2766.51
412.55	2785.24
412.74	2836.73
412.93	2935.03
413.12	2803.96
413.31	2993.55
413.50	2885.88
413.69	2963.12
413.88	3075.46
414.07	3021.63
414.26	3087.17
414.45	3047.38
414.64	3204.19
414.83	3166.74
415.02	3246.32
415.22	3164.40
415.41	3243.98
415.60	3157.38
415.79	3485.06
415.98	3342.28
416.17	3508.46
416.36	3372.71
416.55	3421.86
416.74	3487.40
416.93	3255.69
417.12	3426.54
417.31	3353.99
417.50	3492.08
417.69	3620.81
417.88	3576.34
418.07	3515.48
418.26	3571.66
418.45	3592.72
418.64	3763.58
418.83	3730.81
419.02	3726.13
419.21	3847.84
419.39	3749.54
419.58	3758.90
419.77	3658.26
419.96	3843.16
420.15	3983.59
420.34	3899.33
420.53	3922.74
420.72	4067.85
420.91	4004.66
421.10	4058.49
421.29	4086.58
421.48	4084.23
421.67	4182.54
421.86	4011.68
422.05	4093.60
422.24	3896.99
422.43	3971.89
422.61	3920.40
422.80	4067.85
422.99	4105.30
423.18	4117.00
423.37	4121.68
423.56	4147.43
423.75	4035.08
423.94	4124.02
424.13	3904.01
424.32	3941.46
424.50	4147.43
424.69	4201.26
424.88	4131.05
425.07	4173.18
425.26	4196.58
425.45	4053.81
425.64	4210.62
425.83	4168.49
426.01	4273.82
426.20	4311.27
426.39	4212.96
426.58	4156.79
426.77	4070.19
426.96	4114.66
427.15	4109.98
427.33	4189.56
427.52	4227.01
427.71	4269.14
427.90	4255.09
428.09	4329.99
428.28	4379.14
428.46	4432.97
428.65	4273.82
428.84	4512.55
429.03	4355.74
429.22	4234.03
429.40	4217.65
429.59	4079.55
429.78	4028.06
429.97	4168.49
430.16	4074.87
430.34	4301.90
430.53	4407.23
430.72	4285.52
430.91	4449.36
431.10	4442.34
431.28	4816.82
431.47	4915.12
431.66	4842.57
431.85	4741.93
432.03	4718.52
432.22	4826.18
432.41	4847.25
432.60	4865.97
432.79	4875.34
432.97	4961.94
433.16	4919.81
433.35	4641.28
433.54	4772.35
433.72	4865.97
433.91	4814.48
434.10	5036.83
434.28	5034.49
434.47	4947.89
434.66	5118.75
434.85	5116.41
435.03	5130.45
435.22	5303.65
435.41	5348.12
435.59	5345.78
435.78	5437.06
435.97	5317.70
436.16	5462.81
436.34	5364.51
436.53	5305.99
436.72	5518.98
436.90	5385.57
437.09	5275.57
437.28	5210.03
437.46	5352.81
437.65	5432.38
437.84	5479.19
438.02	5413.66
438.21	5256.84
438.40	5233.44
438.58	5530.69
438.77	5699.20
438.96	5671.12
439.14	5891.13
439.33	5900.49
439.52	5963.68
439.70	6008.16
439.89	5905.17
440.08	6080.71
440.26	6003.47
440.45	6012.84
440.63	5994.11
440.82	6120.50
441.01	6188.38
441.19	6146.25
441.38	6420.09
441.57	6314.77
441.75	6490.31
441.94	6490.31
442.12	6609.67
442.31	6600.31
442.50	6548.82
442.68	6480.94
442.87	6551.16
443.05	6684.57
443.24	6895.22
443.43	6726.70
443.61	6733.72
443.80	6822.66
443.98	6663.51
444.17	6581.59
444.35	6757.13
444.54	6897.56
444.73	7042.67
444.91	6836.70
445.10	6733.72
445.28	6754.79
445.47	6684.57
445.65	6642.44
445.84	6834.36
446.02	6981.82
446.21	6813.30
446.39	7007.56
446.58	7002.88
446.77	6946.71
446.95	6775.85
447.14	6974.80
447.32	7021.61
447.51	7087.14
447.69	7056.72
447.88	7087.14
448.06	7178.42
448.25	7115.23
448.43	7056.72
448.62	7077.78
448.80	6984.16
448.99	7042.67
449.17	7356.30
449.36	7089.48
449.54	7330.56
449.73	7421.84
449.91	7470.99
450.10	7508.44
450.28	7627.81
450.46	7456.95
450.65	7707.38
450.83	7665.25
451.02	7459.29
451.20	7637.17
451.39	7548.23
451.57	7449.93
451.76	7386.73
451.94	7470.99
452.13	7503.76
452.31	7494.40
452.49	7438.22
452.68	7332.90
452.86	7447.58
453.05	7707.38
453.23	7658.23
453.42	7419.50
453.60	7541.21
453.78	7829.09
453.97	7826.75
454.15	7742.49
454.34	7644.19
454.52	7798.66
454.70	7651.21
454.89	8013.99
455.07	7721.43
455.26	7889.95
455.44	8046.76
455.62	8205.92
455.81	8215.28
455.99	8046.76
456.17	8276.13
456.36	8355.71
456.54	8250.39
456.73	8322.94
456.91	8498.49
457.09	8606.15
457.28	8669.34
457.46	8414.23
457.64	8451.67
457.83	8456.36
458.01	8372.10
458.19	8580.40
458.38	8531.25
458.56	8664.66
458.74	8554.66
458.93	8538.27
459.11	8702.11
459.29	8624.87
459.48	8828.50
459.66	8617.85
459.84	8489.12
460.03	8973.61
460.21	8826.16
460.39	8943.19
460.57	9069.58
460.76	8847.22
460.94	8931.48
461.12	8924.46
461.31	9149.15
461.49	9055.53
461.67	8922.12
461.85	9193.62
462.04	9128.09
462.22	9523.64
462.40	9652.37
462.59	9390.23
462.77	9497.89
462.95	9214.69
463.13	9355.12
463.32	9334.06
463.50	9411.29
463.68	9551.73
463.86	9315.33
464.05	9179.58
464.23	9312.99
464.41	9273.20
464.59	9153.84
464.78	9355.12
464.96	9441.72
465.14	9575.13
465.32	9549.39
465.50	9652.37
465.69	9692.16
465.87	9558.75
466.05	9678.12
466.23	9750.67
466.41	9535.34
466.60	9727.27
466.78	9696.84
466.96	9600.88
467.14	9699.18
467.32	10005.79
467.51	9755.35
467.69	9525.98
467.87	9635.99
468.05	10040.90
468.23	9839.61
468.41	9860.68
468.60	10078.35
468.78	10174.31
468.96	9935.57
469.14	9980.04
469.32	10026.86
469.50	9767.06
469.69	10183.67
469.87	10207.08
470.05	10045.58
470.23	10246.87
470.41	10129.84
470.59	10448.15
470.77	10258.57
470.95	10331.12
471.14	10401.34
471.32	10485.60
471.50	10661.14
471.68	10691.57
471.86	10846.04
472.04	10937.32
472.22	11222.87
472.40	10490.28
472.58	10684.55
472.77	11042.65
472.95	11019.24
473.13	11255.64
473.31	11101.16
473.49	10953.71
473.67	10878.81
473.85	11115.20
474.03	11470.97
474.21	11414.79
474.39	11487.35
474.57	11527.14
474.75	11690.98
474.93	11838.43
475.12	11442.88
475.30	11754.17
475.48	11852.47
475.66	11761.19
475.84	11882.90
476.02	11796.30
476.20	11819.71
476.38	12503.14
476.56	12030.35
476.74	12203.55
476.92	12348.67
477.10	12215.26
477.28	12589.74
477.46	12622.51
477.64	12709.11
477.82	12912.74
478.00	13039.12
478.18	12919.76
478.36	13139.77
478.54	13188.92
478.72	13188.92
478.90	13352.76
479.08	13774.05
479.26	13696.82
479.44	13544.68
479.62	13799.80
479.80	13785.76
479.98	14005.77
480.16	14314.72
480.34	14352.16
480.52	14232.80
480.70	14211.73
480.88	14111.09
481.06	14263.22
481.24	14504.30
481.41	14740.69
481.59	14981.77
481.77	14867.08
481.95	15000.49
482.13	14817.93
482.31	15166.67
482.49	15592.65
482.67	15616.05
482.85	15461.58
483.03	15756.49
483.21	15810.32
483.39	16135.65
483.57	15927.35
483.74	16044.37
483.92	16187.14
484.10	16180.12
484.28	16552.27
484.46	16910.37
484.64	17043.78
484.82	16758.24
485.00	16795.68
485.18	16954.84
485.35	17057.82
485.53	16327.58
485.71	16528.86
485.89	17291.88
486.07	16996.97
486.25	17109.32
486.43	17607.85
486.61	17717.86
486.78	17895.74
486.96	17912.12
487.14	18427.04
487.32	18319.37
487.50	18532.36
487.68	18759.39
487.85	18885.78
488.03	19077.71
488.21	19028.56
488.39	19342.19
488.57	19377.30
488.75	19363.25
488.92	19646.46
489.10	20224.57
489.28	20056.05
489.46	20154.35
489.64	20393.09
489.81	21041.42
489.99	21018.01
490.17	21240.36
490.35	21041.42
490.53	20858.85
490.70	21092.91
490.88	21324.62
491.06	21748.26
491.24	21479.10
491.41	21797.41
491.59	21593.78
491.77	21390.16
491.95	21673.36
492.13	22246.79
492.30	22066.57
492.48	22270.20
492.66	22424.67
492.84	22733.62
493.01	23019.17
493.19	22726.60
493.37	23065.98
493.54	23147.90
493.72	23618.35
493.90	23522.38
494.08	24074.75
494.25	24313.48
494.43	23943.68
494.61	24332.21
494.79	24411.79
494.96	24128.58
495.14	24332.21
495.32	24634.14
495.49	24535.84
495.67	24643.50
495.85	24786.27
496.02	25476.73
496.20	25151.40
496.38	25207.57
496.55	25422.90
496.73	26197.62
496.91	25830.15
497.09	25944.84
497.26	25970.58
497.44	26099.31
497.62	25895.69
497.79	26286.56
497.97	25820.79
498.14	26256.13
498.32	26361.45
498.50	26637.64
498.67	26927.86
498.85	26939.57
499.03	27178.30
499.20	27204.05
499.38	27484.91
499.56	27129.15
499.73	27194.68
499.91	27520.02
500.08	27398.31
500.26	27335.12
500.44	27332.78
500.61	27538.74
500.79	27655.77
500.97	27693.22
501.14	27967.06
501.32	27779.82
501.49	27742.37
501.67	28203.46
501.84	28201.11
502.02	28362.61
502.20	28570.92
502.37	28678.58
502.55	28737.10
502.72	29092.86
502.90	29055.41
503.07	29099.88
503.25	28945.41
503.43	28676.24
503.60	29181.80
503.78	29097.54
503.95	29195.84
504.13	29706.08
504.30	29535.22
504.48	29460.32
504.65	29528.20
504.83	30387.18
505.01	30106.31
505.18	30075.88
505.36	30679.74
505.53	30581.44
505.71	30778.04
505.88	30792.09
506.06	30223.34
506.23	30756.98
506.41	30738.26
506.58	30621.23
506.76	30756.98
506.93	31136.15
507.11	30923.16
507.28	31126.78
507.46	30820.17
507.63	31360.84
507.81	31225.09
507.98	31569.15
508.16	31386.58
508.33	31798.52
508.50	31779.79
508.68	31718.94
508.85	31859.37
509.03	32280.67
509.20	31718.94
509.38	32453.87
509.55	32105.13
509.73	32371.95
509.90	32210.45
510.08	32236.20
510.25	32730.05
510.42	32402.38
510.60	32945.38
510.77	32896.23
510.95	33207.52
511.12	32617.71
511.30	33195.82
511.47	33565.62
511.64	33249.65
511.82	33455.62
511.99	33268.37
512.17	33862.87
512.34	33326.89
512.51	33699.03
512.69	33844.15
512.86	33865.21
513.04	33919.04
513.21	33787.97
513.38	33645.20
513.56	33621.80
513.73	33610.09
513.90	34298.21
514.08	34307.57
514.25	34003.30
514.43	34253.74
514.60	34438.64
514.77	34328.64
514.95	34892.71
515.12	34415.24
515.29	34593.12
515.47	34902.07
515.64	34944.20
515.81	34726.53
515.99	34834.19
516.16	34820.15
516.33	34448.00
516.51	34593.12
516.68	34174.16
516.85	34501.84
517.03	34707.80
517.20	35079.95
517.37	35204.00
517.54	35501.25
517.72	35264.85
517.89	35166.55
518.06	35023.78
518.24	35131.44
518.41	35473.16
518.58	35690.83
518.75	35538.69
518.93	36093.40
519.10	35805.52
519.27	36182.34
519.45	35969.35
519.62	36528.74
519.79	36498.31
519.96	36236.17
520.14	36662.15
520.31	35938.93
520.48	36559.17
520.65	36168.30
520.83	37081.11
521.00	36856.42
521.17	37120.90
521.34	37319.84
521.52	37170.05
521.69	37331.54
521.86	37254.31
522.03	37486.02
522.20	37397.08
522.38	37556.24
522.55	37378.36
522.72	37823.06
522.89	37422.83
523.07	37471.98
523.24	37654.54
523.41	38230.31
523.58	38110.94
523.75	38576.71
523.92	38518.20
524.10	38426.92
524.27	38569.69
524.44	38234.99
524.61	38391.81
524.78	38684.37
524.96	38576.71
525.13	38972.26
525.30	38773.31
525.47	39281.21
525.64	38466.70
525.81	38785.02
525.98	38817.78
526.16	38646.93
526.33	38459.68
526.50	38305.21
526.67	38342.66
526.84	38457.34
527.01	38279.46
527.18	38644.59
527.36	39100.99
527.53	39835.92
527.70	39768.04
527.87	39634.63
528.04	39571.44
528.21	39580.80
528.38	39611.23
528.55	40123.80
528.72	39784.43
528.89	40060.61
529.07	39915.50
529.24	39732.93
529.41	40240.83
529.58	39999.76
529.75	39880.39
529.92	40346.15
530.09	40449.14
530.26	40210.40
530.43	40392.97
530.60	40308.71
530.77	40425.73
530.94	41081.08
531.11	40451.48
531.28	40493.61
531.46	40790.86
531.63	40435.10
531.80	40526.38
531.97	40428.07
532.14	40746.39
532.31	40109.76
532.48	40797.88
532.65	41324.50
532.82	40360.20
532.99	41076.40
533.16	40966.40
533.33	40879.80
533.50	41001.50
533.67	41151.30
533.84	41514.08
534.01	41261.30
534.18	41251.94
534.35	42206.88
534.52	41177.04
534.69	41394.71
534.86	42010.28
535.03	41504.72
535.20	41808.99
535.37	42167.09
535.54	41937.72
535.71	42115.60
535.88	41989.21
536.05	41734.09
536.22	42295.82
536.38	42307.52
536.55	41535.15
536.72	41720.05
536.89	41818.35
537.06	41762.18
537.23	42099.22
537.40	42131.98
537.57	42436.25
537.74	42595.41
537.91	42766.27
538.08	42169.43
538.25	42005.59
538.42	42417.53
538.59	42522.85
538.75	42160.07
538.92	42333.27
539.09	42555.62
539.26	42457.32
539.43	42164.75
539.60	42546.26
539.77	42129.64
539.94	42244.33
540.11	42087.51
540.28	42658.60
540.44	42576.69
540.61	42686.69
540.78	42389.44
540.95	42616.47
541.12	42810.74
541.29	42527.53
541.46	43103.31
541.62	43075.22
541.79	43161.82
541.96	42777.97
542.13	43309.27
542.30	42958.19
542.47	43215.65
542.63	43248.42
542.80	42869.25
542.97	43353.74
543.14	44219.74
543.31	44004.41
543.48	43878.02
543.64	44116.76
543.81	44364.85
543.98	44299.32
544.15	43428.64
544.32	43753.97
544.48	43906.11
544.65	44018.46
544.82	43817.17
544.99	44016.11
545.16	43908.45
545.32	44102.71
545.49	44570.82
545.66	44664.44
545.83	44568.48
546.00	44409.32
546.16	44065.27
546.33	44107.40
546.50	44325.07
546.67	44224.42
546.83	43878.02
547.00	44203.36
547.17	44409.32
547.34	44088.67
547.50	44165.91
547.67	44790.83
547.84	44259.53
548.00	44727.64
548.17	44589.55
548.34	44828.28
548.51	45036.59
548.67	45151.27
548.84	45111.49
549.01	44580.18
549.18	45083.40
549.34	44926.58
549.51	45020.20
549.68	44973.39
549.84	45162.98
550.01	45167.66
550.18	44720.62
550.34	44886.79
550.51	44706.57
550.68	45027.23
550.84	44528.69
551.01	45160.64
551.18	45081.06
551.34	45436.82
551.51	45427.46
551.68	45595.98
551.84	45443.84
552.01	45780.88
552.18	45277.66
552.34	44966.37
552.51	45132.55
552.68	45277.66
552.84	45574.91
553.01	45268.30
553.18	45773.86
553.34	45221.49
553.51	45270.64
553.67	45593.64
553.84	45904.93
554.01	45914.29
554.17	46246.65
554.34	46073.45
554.51	46181.11
554.67	45717.68
554.84	45860.46
555.00	46050.04
555.17	45418.10
555.33	45897.91
555.50	45766.84
555.67	45944.72
555.83	45811.31
556.00	45949.40
556.16	45935.35
556.33	45619.38
556.50	45567.89
556.66	45916.63
556.83	45492.99
556.99	45766.84
557.16	46440.91
557.32	46167.07
557.49	46248.99
557.65	45673.21
557.82	46319.20
557.98	46260.69
558.15	46045.36
558.32	46143.66
558.48	45872.16
558.65	46054.72
558.81	45954.08
558.98	45853.44
559.14	45830.03
559.31	46026.63
559.47	46127.28
559.64	46309.84
559.80	46272.39
559.97	46256.01
560.13	45544.48
560.30	46146.00
560.46	46071.10
560.63	46698.37
560.79	46600.07
560.96	46782.63
561.12	46534.53
561.29	46433.89
561.45	46358.99
561.61	46373.03
561.78	46298.14
561.94	46038.34
562.11	46014.93
562.27	46480.70
562.44	46944.12
562.60	46281.75
562.77	46756.88
562.93	46899.65
563.10	46756.88
563.26	46342.61
563.42	46696.03
563.59	46567.30
563.75	46567.30
563.92	46663.26
564.08	46885.61
564.24	46691.35
564.41	46838.80
564.57	46447.93
564.74	46443.25
564.90	46841.14
565.07	46621.13
565.23	46689.01
565.39	46726.46
565.56	46686.67
565.72	46419.84
565.88	46625.81
566.05	46457.29
566.21	46850.50
566.38	46300.48
566.54	46782.63
566.70	46768.58
566.87	46733.48
567.03	47044.77
567.19	47091.58
567.36	46890.29
567.52	47100.94
567.68	46883.27
567.85	46405.80
568.01	46721.77
568.17	46925.40
568.34	47044.77
568.50	46927.74
568.66	46902.00
568.83	46663.26
568.99	46326.22
569.15	46550.91
569.32	46358.99
569.48	46841.14
569.64	46857.52
569.81	47072.85
569.97	46548.57
570.13	46459.63
570.30	46623.47
570.46	46642.20
570.62	46492.40
570.78	46330.90
570.95	46295.80
571.11	46810.71
571.27	46731.14
571.43	46438.57
571.60	46990.94
571.76	46747.52
571.92	46550.91
572.09	46628.15
572.25	46649.22
572.41	46843.48
572.57	47145.41
572.74	47224.99
572.90	47136.05
573.06	47236.69
573.22	47014.34
573.38	46894.97
573.55	46693.69
573.71	47199.24
573.87	47124.35
574.03	46623.47
574.20	46845.82
574.36	47175.84
574.52	47185.20
574.68	47047.11
574.84	47187.54
575.01	46700.71
575.17	46649.22
575.33	46658.58
575.49	46717.09
575.65	47232.01
575.82	47026.04
575.98	47000.30
576.14	47082.22
576.30	46553.26
576.46	46890.29
576.62	46726.46
576.79	46777.95
576.95	46958.17
577.11	47009.66
577.27	46951.15
577.43	47058.81
577.59	47114.98
577.75	46665.60
577.92	46286.43
578.08	46703.05
578.24	46714.75
578.40	46712.41
578.56	46962.85
578.72	46777.95
578.88	47122.01
579.04	47274.14
579.21	46855.18
579.37	47105.62
579.53	47332.65
579.69	46548.57
579.85	46801.35
580.01	46920.72
580.17	46775.61
580.33	47009.66
580.49	47138.39
580.65	47086.90
580.82	47042.43
580.98	46965.19
581.14	47061.15
581.30	47100.94
581.46	47234.35
581.62	47505.85
581.78	46981.57
581.94	47477.77
582.10	47126.69
582.26	47164.14
582.42	46887.95
582.58	47058.81
582.74	46803.69
582.90	47367.76
583.06	47140.73
583.22	47356.06
583.38	47227.33
583.54	47370.10
583.70	46892.63
583.86	47557.35
584.02	47243.71
584.18	47124.35
584.34	47054.13
584.50	46944.12
584.66	47014.34
584.82	47086.90
584.98	47501.17
585.14	47110.30
585.30	47012.00
585.46	46838.80
585.62	47260.10
585.78	47185.20
585.94	46476.02
586.10	47009.66
586.26	46700.71
586.42	47269.46
586.58	47468.40
586.74	46930.08
586.90	47248.39
587.06	47058.81
587.22	47224.99
587.38	47304.57
587.54	46904.34
587.70	47140.73
587.86	46974.55
588.02	46986.25
588.18	47002.64
588.34	46951.15
588.49	46436.23
588.65	46270.05
588.81	46806.03
588.97	46321.54
589.13	46651.56
589.29	46810.71
589.45	46831.78
589.61	47023.70
589.77	46890.29
