SpectraSuite Data File
++++++++++++++++++++++++++++++++++++
Date: Fri Oct 25 10:48:30 EDT 2013
User: price-jones
Dark Spectrum Present: No
Reference Spectrum Present: No
Number of Sampled Component Spectra: 1
Spectrometers: USB2+H05261
Integration Time (usec): 100000 (USB2+H05261)
Spectra Averaged: 1 (USB2+H05261)
Boxcar Smoothing: 0 (USB2+H05261)
Correct for Electrical Dark: No (USB2+H05261)
Strobe/Lamp Enabled: No (USB2+H05261)
Correct for Detector Non-linearity: No (USB2+H05261)
Correct for Stray Light: No (USB2+H05261)
Number of Pixels in Processed Spectrum: 2048
>>>>>Begin Processed Spectral Data<<<<<
365.73	107.66
365.92	107.66
366.12	107.66
366.32	32.77
366.52	21.06
366.72	95.96
366.91	42.13
367.11	0.00
367.31	7.02
367.51	67.88
367.70	28.09
367.90	44.47
368.10	63.19
368.30	86.60
368.49	0.00
368.69	79.58
368.89	79.58
369.09	84.26
369.28	32.77
369.48	23.41
369.68	98.30
369.87	79.58
370.07	147.45
370.27	121.71
370.47	229.37
370.66	393.21
370.86	447.04
371.06	538.32
371.25	440.02
371.45	526.62
371.65	510.24
371.84	440.02
372.04	510.24
372.24	519.60
372.44	514.92
372.63	521.94
372.83	596.84
373.03	507.90
373.22	528.96
373.42	620.24
373.62	526.62
373.81	507.90
374.01	596.84
374.21	540.66
374.40	566.41
374.60	610.88
374.79	573.43
374.99	580.45
375.19	699.82
375.38	641.31
375.58	599.18
375.78	648.33
375.97	557.05
376.17	622.58
376.37	648.33
376.56	727.91
376.76	594.50
376.95	526.62
377.15	706.84
377.35	678.76
377.54	690.46
377.74	692.80
377.93	671.73
378.13	678.76
378.33	645.99
378.52	531.30
378.72	709.18
378.91	699.82
379.11	653.01
379.31	678.76
379.50	575.77
379.70	645.99
379.89	699.82
380.09	737.27
380.28	727.91
380.48	634.29
380.68	730.25
380.87	723.23
381.07	702.16
381.26	748.97
381.46	795.78
381.65	746.63
381.85	718.54
382.04	678.76
382.24	734.93
382.43	805.14
382.63	866.00
382.83	746.63
383.02	734.93
383.22	788.76
383.41	795.78
383.61	767.70
383.80	856.64
384.00	786.42
384.19	720.88
384.39	837.91
384.58	788.76
384.78	720.88
384.97	894.08
385.17	823.87
385.36	823.87
385.56	830.89
385.75	851.96
385.95	819.19
386.14	882.38
386.34	837.91
386.53	842.59
386.72	826.21
386.92	854.30
387.11	851.96
387.31	889.40
387.50	891.74
387.70	844.93
387.89	931.53
388.09	901.11
388.28	854.30
388.48	931.53
388.67	964.30
388.86	931.53
389.06	1043.88
389.25	1013.45
389.45	1076.65
389.64	966.64
389.84	1062.60
390.03	1039.20
390.22	992.39
390.42	1013.45
390.61	1039.20
390.81	1043.88
391.00	1123.46
391.19	1100.05
391.39	1130.48
391.58	1078.99
391.78	1114.10
391.97	1116.44
392.16	1081.33
392.36	1170.27
392.55	976.00
392.75	1039.20
392.94	1071.97
393.13	1020.47
393.33	1055.58
393.52	1064.94
393.71	1139.84
393.91	1093.03
394.10	1107.07
394.29	1224.10
394.49	1228.78
394.68	1249.85
394.88	1188.99
395.07	1188.99
395.26	1282.61
395.46	1235.80
395.65	1287.29
395.84	1284.95
396.04	1193.67
396.23	1277.93
396.42	1226.44
396.62	1200.69
396.81	1221.76
397.00	1341.13
397.19	1277.93
397.39	1299.00
397.58	1387.94
397.77	1331.76
397.97	1432.41
398.16	1514.33
398.35	1462.83
398.55	1500.28
398.74	1516.67
398.93	1533.05
399.12	1474.54
399.32	1577.52
399.51	1647.74
399.70	1614.97
399.90	1533.05
400.09	1624.33
400.28	1652.42
400.47	1591.56
400.67	1640.72
400.86	1710.93
401.05	1736.68
401.24	1727.32
401.44	1666.46
401.63	1844.34
401.82	1799.87
402.01	1762.42
402.21	1729.66
402.40	1806.89
402.59	1769.44
402.78	1802.21
402.97	1748.38
403.17	1813.92
403.36	1743.70
403.55	1785.83
403.74	1858.39
403.93	1933.28
404.13	1813.92
404.32	1954.35
404.51	1839.66
404.70	1895.83
404.89	1881.79
405.09	2015.20
405.28	1956.69
405.47	2094.78
405.66	2019.88
405.85	2031.58
406.05	2024.56
406.24	2066.69
406.43	2059.67
406.62	2101.80
406.81	2139.25
407.00	2083.08
407.20	2052.65
407.39	2150.95
407.58	2244.57
407.77	2197.76
407.96	2214.15
408.15	2232.87
408.34	2326.49
408.54	2291.38
408.73	2324.15
408.92	2457.56
409.11	2284.36
409.30	2338.20
409.49	2284.36
409.68	2319.47
409.87	2349.90
410.07	2338.20
410.26	2487.99
410.45	2399.05
410.64	2473.95
410.83	2457.56
411.02	2511.39
411.21	2562.89
411.40	2551.18
411.59	2630.76
411.78	2637.78
411.98	2586.29
412.17	2712.68
412.36	2696.30
412.55	2672.89
412.74	2689.28
412.93	2729.06
413.12	2686.94
413.31	2848.43
413.50	2885.88
413.69	2930.35
413.88	2991.20
414.07	2897.58
414.26	2913.97
414.45	2974.82
414.64	2953.76
414.83	3082.49
415.02	3068.44
415.22	3087.17
415.41	3063.76
415.60	3059.08
415.79	3091.85
415.98	3382.07
416.17	3276.75
416.36	3218.24
416.55	3180.79
416.74	3316.54
416.93	3311.86
417.12	3363.35
417.31	3405.48
417.50	3407.82
417.69	3534.21
417.88	3515.48
418.07	3382.07
418.26	3375.05
418.45	3473.36
418.64	3641.87
418.83	3536.55
419.02	3564.64
419.21	3648.90
419.39	3667.62
419.58	3681.66
419.77	3428.88
419.96	3707.41
420.15	3684.00
420.34	3712.09
420.53	3871.25
420.72	3852.52
420.91	3698.05
421.10	3826.78
421.29	3826.78
421.48	3791.67
421.67	3810.39
421.86	3875.93
422.05	3854.86
422.24	3815.07
422.43	3730.81
422.61	3927.42
422.80	4014.02
422.99	3915.72
423.18	3948.48
423.37	3960.19
423.56	4018.70
423.75	3906.35
423.94	3906.35
424.13	3768.26
424.32	3896.99
424.50	4198.92
424.69	4002.32
424.88	3988.27
425.07	3896.99
425.26	3971.89
425.45	3906.35
425.64	3955.51
425.83	4053.81
426.01	4091.26
426.20	4053.81
426.39	4042.11
426.58	4030.40
426.77	3927.42
426.96	4007.00
427.15	3925.08
427.33	4077.21
427.52	4056.15
427.71	4257.43
427.90	4119.34
428.09	4250.41
428.28	4245.73
428.46	4126.36
428.65	4168.49
428.84	4332.33
429.03	4496.17
429.22	4100.62
429.40	4058.49
429.59	4241.05
429.78	4126.36
429.97	4030.40
430.16	4002.32
430.34	4042.11
430.53	4255.09
430.72	4283.18
430.91	4184.88
431.10	4425.95
431.28	4390.84
431.47	4648.30
431.66	4667.03
431.85	4545.32
432.03	4594.47
432.22	4802.78
432.41	4552.34
432.60	4739.58
432.79	4667.03
432.97	4809.80
433.16	4695.11
433.35	4662.35
433.54	4599.15
433.72	4786.40
433.91	4784.06
434.10	4828.53
434.28	4711.50
434.47	4985.34
434.66	4720.86
434.85	4915.12
435.03	5093.01
435.22	4858.95
435.41	5146.84
435.59	5130.45
435.78	5144.50
435.97	5289.61
436.16	5195.99
436.34	5118.75
436.53	5130.45
436.72	5212.37
436.90	5050.88
437.09	5338.76
437.28	5158.54
437.46	5322.38
437.65	5231.10
437.84	5247.48
438.02	5254.50
438.21	5203.01
438.40	5172.58
438.58	5320.04
438.77	5572.82
438.96	5427.70
439.14	5544.73
439.33	5547.07
439.52	5750.70
439.70	5600.90
439.89	5659.42
440.08	5706.23
440.26	5713.25
440.45	5790.49
440.63	6045.60
440.82	5940.28
441.01	5987.09
441.19	5809.21
441.38	6071.35
441.57	6022.20
441.75	6139.23
441.94	6349.87
442.12	6335.83
442.31	6359.24
442.50	6422.43
442.68	6253.91
442.87	6324.13
443.05	6487.96
443.24	6452.86
443.43	6473.92
443.61	6497.33
443.80	6703.29
443.98	6338.17
444.17	6279.66
444.35	6569.88
444.54	6689.25
444.73	6487.96
444.91	6516.05
445.10	6551.16
445.28	6431.79
445.47	6202.42
445.65	6527.75
445.84	6469.24
446.02	6761.81
446.21	6726.70
446.39	6710.32
446.58	6651.80
446.77	6665.85
446.95	6595.63
447.14	6679.89
447.32	6960.75
447.51	6799.26
447.69	6588.61
447.88	6733.72
448.06	6839.05
448.25	6679.89
448.43	6738.40
448.62	6761.81
448.80	6768.83
448.99	6927.99
449.17	7007.56
449.36	6773.51
449.54	7075.44
449.73	7290.77
449.91	7136.29
450.10	7136.29
450.28	7129.27
450.46	7267.36
450.65	7157.36
450.83	7265.02
451.02	7213.53
451.20	7475.67
451.39	7412.48
451.57	7311.83
451.76	7295.45
451.94	7339.92
452.13	7213.53
452.31	7218.21
452.49	7157.36
452.68	7262.68
452.86	7166.72
453.05	7253.32
453.23	7534.18
453.42	7274.38
453.60	7578.65
453.78	7363.33
453.97	7475.67
454.15	7452.27
454.34	7442.90
454.52	7555.25
454.70	7527.16
454.89	7709.72
455.07	7756.54
455.26	7831.43
455.44	7873.56
455.62	7901.65
455.81	7632.49
455.99	7817.39
456.17	7822.07
456.36	7805.69
456.54	8081.87
456.73	8095.91
456.91	8194.22
457.09	8215.28
457.28	8170.81
457.46	8152.09
457.64	8081.87
457.83	8208.26
458.01	8046.76
458.19	8318.26
458.38	8241.03
458.56	8299.54
458.74	8222.30
458.93	8259.75
459.11	8428.27
459.29	8290.18
459.48	8432.95
459.66	8353.37
459.84	8458.70
460.03	8631.90
460.21	8489.12
460.39	8503.17
460.57	8617.85
460.76	8664.66
460.94	8395.50
461.12	8587.43
461.31	8638.92
461.49	8741.90
461.67	8896.38
461.85	8861.27
462.04	8758.28
462.22	9376.19
462.40	8856.59
462.59	8802.75
462.77	8919.78
462.95	9053.19
463.13	9062.55
463.32	8978.30
463.50	9125.75
463.68	9219.37
463.86	9291.93
464.05	9144.47
464.23	9008.72
464.41	9247.46
464.59	8908.08
464.78	9256.82
464.96	9041.49
465.14	9055.53
465.32	9355.12
465.50	9270.86
465.69	9322.35
465.87	9280.22
466.05	9362.14
466.23	9418.32
466.41	9383.21
466.60	9476.83
466.78	9198.31
466.96	9242.78
467.14	9397.25
467.32	9441.72
467.51	9528.32
467.69	9275.54
467.87	9500.23
468.05	9554.07
468.23	9554.07
468.41	9549.39
468.60	9652.37
468.78	9518.96
468.96	9411.29
469.14	9713.22
469.32	9851.31
469.50	9682.80
469.69	9760.03
469.87	9738.97
470.05	9958.98
470.23	10078.35
470.41	9750.67
470.59	10073.67
470.77	10160.27
470.95	9961.32
471.14	10160.27
471.32	10038.56
471.50	10501.98
471.68	10597.95
471.86	10408.36
472.04	10417.72
472.22	10626.03
472.40	10368.57
472.58	10356.87
472.77	10527.73
472.95	10635.39
473.13	10953.71
473.31	10572.20
473.49	10588.58
473.67	10775.83
473.85	10810.93
474.03	11047.33
474.21	10930.30
474.39	11164.36
474.57	11094.14
474.75	11117.54
474.93	11194.78
475.12	11250.96
475.30	11246.27
475.48	11222.87
475.66	11295.43
475.84	11515.44
476.02	11627.78
476.20	11447.56
476.38	11686.29
476.56	11922.69
476.74	11985.88
476.92	11660.55
477.10	12046.74
477.28	12276.11
477.46	12351.01
477.64	12159.08
477.82	12521.87
478.00	12805.07
478.18	12451.65
478.36	12556.97
478.54	12922.10
478.72	12779.32
478.90	12961.89
479.08	13163.17
479.26	13280.20
479.44	13256.79
479.62	13514.25
479.80	13373.82
479.98	13511.91
480.16	13563.40
480.34	13547.02
480.52	13774.05
480.70	13973.00
480.88	13998.74
481.06	14101.73
481.24	14239.82
481.41	14511.32
481.59	14562.81
481.77	14633.03
481.95	14560.47
482.13	14656.43
482.31	14792.19
482.49	15096.46
482.67	15353.91
482.85	15250.93
483.03	15241.57
483.21	15389.02
483.39	15496.69
483.57	15529.45
483.74	15719.04
483.92	15704.99
484.10	15665.21
484.28	15903.94
484.46	16432.90
484.64	16468.01
484.82	16166.08
485.00	16271.40
485.18	16407.16
485.35	16350.98
485.53	16187.14
485.71	16341.62
485.89	16713.77
486.07	16573.33
486.25	16835.47
486.43	17104.64
486.61	17069.53
486.78	17596.15
486.96	17577.42
487.14	17809.14
487.32	17731.90
487.50	18164.90
487.68	18223.41
487.85	18490.23
488.03	18773.44
488.21	18518.32
488.39	18766.42
488.57	18810.89
488.75	19026.21
488.92	19295.38
489.10	19536.45
489.28	19655.82
489.46	19939.02
489.64	19747.10
489.81	20180.10
489.99	20163.72
490.17	20332.23
490.35	20580.33
490.53	20805.02
490.70	20641.18
490.88	20692.68
491.06	20961.84
491.24	20858.85
491.41	20809.70
491.59	20835.45
491.77	20898.64
491.95	21144.40
492.13	21699.11
492.30	21774.00
492.48	21802.09
492.66	21876.99
492.84	22326.37
493.01	22237.43
493.19	22073.59
493.37	22546.38
493.54	22434.03
493.72	22803.84
493.90	22782.77
494.08	22998.10
494.25	23199.39
494.43	23358.55
494.61	23604.30
494.79	23754.10
494.96	23768.14
495.14	23606.64
495.32	23934.32
495.49	23913.25
495.67	23962.40
495.85	24156.67
496.02	24350.93
496.20	24758.19
496.38	24683.29
496.55	24758.19
496.73	25242.68
496.91	24893.94
497.09	25355.02
497.26	24959.47
497.44	25034.37
497.62	25605.46
497.79	25647.59
497.97	25294.17
498.14	25680.36
498.32	25539.93
498.50	25769.30
498.67	26328.69
498.85	26373.16
499.03	26387.20
499.20	26436.35
499.38	26588.49
499.56	26707.85
499.73	26733.60
499.91	26838.92
500.08	27068.30
500.26	26160.17
500.44	26962.97
500.61	26911.48
500.79	27091.70
500.97	27185.32
501.14	27199.37
501.32	27243.84
501.49	27421.72
501.67	27541.08
501.84	27630.02
502.02	27824.29
502.20	28032.60
502.37	28156.64
502.55	27922.59
502.72	28524.11
502.90	27894.50
503.07	27999.83
503.25	28474.96
503.43	28154.30
503.60	28624.75
503.78	28629.43
503.95	28170.69
504.13	29036.69
504.30	28907.96
504.48	28996.90
504.65	29317.55
504.83	29355.00
505.01	29207.55
505.18	29572.67
505.36	29919.07
505.53	29617.14
505.71	29970.56
505.88	30000.99
506.06	29635.86
506.23	29811.40
506.41	29998.65
506.58	30122.69
506.76	30464.41
506.93	30426.96
507.11	30253.76
507.28	30424.62
507.46	30082.91
507.63	30326.32
507.81	30616.55
507.98	30635.27
508.16	30902.09
508.33	30932.52
508.50	31103.38
508.68	31049.55
508.85	31452.12
509.03	31292.96
509.20	31110.40
509.38	31644.04
509.55	31723.62
509.73	31627.66
509.90	31292.96
510.08	31711.92
510.25	31952.99
510.42	31630.00
510.60	31882.78
510.77	32142.58
510.95	32491.32
511.12	32329.82
511.30	32128.53
511.47	32617.71
511.64	32776.86
511.82	32725.37
511.99	32421.10
512.17	32538.13
512.34	32369.61
512.51	33207.52
512.69	33132.62
512.86	33259.01
513.04	33631.16
513.21	33064.75
513.38	33251.99
513.56	32952.40
513.73	33134.96
513.90	33284.76
514.08	33275.40
514.25	33626.48
514.43	33516.47
514.60	33457.96
514.77	33469.66
514.95	33818.40
515.12	33787.97
515.29	33909.68
515.47	34417.58
515.64	34653.97
515.81	34242.04
515.99	34150.76
516.16	34132.03
516.33	33982.24
516.51	33876.91
516.68	33600.73
516.85	33890.96
517.03	33848.83
517.20	34417.58
517.37	34817.81
517.54	34576.73
517.72	34330.98
517.89	34473.75
518.06	34078.20
518.24	34576.73
518.41	34768.66
518.58	34838.87
518.75	34958.24
518.93	35072.93
519.10	35140.80
519.27	34953.56
519.45	35697.85
519.62	35742.32
519.79	35470.82
519.96	35613.59
520.14	35775.09
520.31	35707.21
520.48	35845.30
520.65	35693.17
520.83	36203.41
521.00	36268.94
521.17	36163.62
521.34	36275.96
521.52	36495.97
521.69	36671.51
521.86	36905.57
522.03	36470.23
522.20	36833.01
522.38	36559.17
522.55	36919.61
522.72	37008.55
522.89	36629.38
523.07	37141.96
523.24	37200.47
523.41	37610.07
523.58	36952.38
523.75	37340.91
523.92	37759.86
524.10	37502.40
524.27	38007.96
524.44	37600.71
524.61	37574.96
524.78	38242.01
524.96	37628.79
525.13	37809.01
525.30	38663.31
525.47	38382.45
525.64	38099.24
525.81	37916.68
525.98	38087.54
526.16	37790.29
526.33	37497.72
526.50	37851.14
526.67	37572.62
526.84	37415.80
527.01	37670.92
527.18	37869.87
527.36	38288.82
527.53	38761.61
527.70	39019.07
527.87	38775.66
528.04	39229.72
528.21	38967.58
528.38	38763.95
528.55	39096.31
528.72	39248.44
528.89	39276.53
529.07	39445.05
529.24	38642.24
529.41	39302.28
529.58	39421.64
529.75	39208.65
529.92	39466.11
530.09	39569.10
530.26	39625.27
530.43	40112.10
530.60	39332.70
530.77	39505.90
530.94	39995.07
531.11	39730.59
531.28	39775.06
531.46	39852.30
531.63	40161.25
531.80	39859.32
531.97	40093.38
532.14	39854.64
532.31	40116.78
532.48	39948.26
532.65	40133.17
532.82	40027.84
532.99	40495.95
533.16	39828.90
533.33	40402.33
533.50	40318.07
533.67	40458.50
533.84	40100.40
534.01	40706.60
534.18	40240.83
534.35	40451.48
534.52	40374.24
534.69	40940.65
534.86	40526.38
535.03	40711.28
535.20	40818.94
535.37	41464.93
535.54	41359.61
535.71	41127.89
535.88	40680.85
536.05	41347.90
536.22	41179.39
536.38	41273.01
536.55	41045.97
536.72	40776.81
536.89	41102.15
537.06	41078.74
537.23	41844.10
537.40	41308.11
537.57	41158.32
537.74	41535.15
537.91	41642.81
538.08	42148.37
538.25	41387.69
538.42	42012.62
538.59	42298.16
538.75	41703.67
538.92	41918.99
539.09	42029.00
539.26	42298.16
539.43	41825.37
539.60	41808.99
539.77	42347.31
539.94	41689.62
540.11	42316.89
540.28	41502.38
540.44	42073.47
540.61	41586.64
540.78	42115.60
540.95	41869.84
541.12	41759.84
541.29	42192.84
541.46	42258.37
541.62	42136.66
541.79	42937.13
541.96	42122.62
542.13	42394.12
542.30	42850.53
542.47	42485.40
542.63	42504.13
542.80	42700.73
542.97	43480.13
543.14	43297.57
543.31	43075.22
543.48	43213.31
543.64	43627.59
543.81	43365.45
543.98	43281.19
544.15	43374.81
544.32	43353.74
544.48	43981.01
544.65	43363.11
544.82	43503.54
544.99	43199.27
545.16	43655.67
545.32	43339.70
545.49	43725.89
545.66	43381.83
545.83	43157.14
546.00	44505.29
546.16	43662.69
546.33	43611.20
546.50	43405.23
546.67	43910.79
546.83	43388.85
547.00	43686.10
547.17	43878.02
547.34	43634.61
547.50	43744.61
547.67	44325.07
547.84	43674.40
548.00	44074.63
548.17	43887.39
548.34	43796.10
548.51	44325.07
548.67	44083.99
548.84	44332.09
549.01	44240.81
549.18	44198.68
549.34	44514.65
549.51	44524.01
549.68	44643.38
549.84	44575.50
550.01	44645.72
550.18	44023.14
550.34	44629.34
550.51	44458.48
550.68	44451.45
550.84	44114.42
551.01	44261.87
551.18	44748.70
551.34	44261.87
551.51	44807.22
551.68	44814.24
551.84	44917.22
552.01	44751.04
552.18	44905.52
552.34	44577.84
552.51	45214.47
552.68	44505.29
552.84	45034.25
553.01	45558.53
553.18	44931.26
553.34	44863.39
553.51	45177.02
553.67	45104.46
553.84	45097.44
554.01	45240.21
554.17	45174.68
554.34	45443.84
554.51	45514.06
554.67	45570.23
554.84	45492.99
555.00	45347.88
555.17	45209.79
555.33	45155.96
555.50	45605.34
555.67	45364.26
555.83	45500.01
556.00	45301.07
556.16	45794.92
556.33	45759.81
556.50	45254.26
556.66	45670.87
556.83	45006.16
556.99	45617.04
557.16	45603.00
557.32	45872.16
557.49	45963.44
557.65	45682.58
557.82	45741.09
557.98	45731.73
558.15	45881.52
558.32	45982.16
558.48	45177.02
558.65	46028.98
558.81	45689.60
558.98	45874.50
559.14	45425.12
559.31	45631.08
559.47	45507.04
559.64	45888.54
559.80	45954.08
559.97	46073.45
560.13	45785.56
560.30	45748.11
560.46	45670.87
560.63	45675.55
560.79	45825.35
560.96	46124.94
561.12	45806.62
561.29	45851.09
561.45	46333.24
561.61	46087.49
561.78	46138.98
561.94	45689.60
562.11	45745.77
562.27	45986.85
562.44	45876.84
562.60	46630.49
562.77	46457.29
562.93	46157.70
563.10	46181.11
563.26	45954.08
563.42	46553.26
563.59	46330.90
563.75	46209.20
563.92	46586.02
564.08	46651.56
564.24	46658.58
564.41	46457.29
564.57	46419.84
564.74	46253.67
564.90	46223.24
565.07	46803.69
565.23	45631.08
565.39	46361.33
565.56	46691.35
565.72	46202.18
565.88	46567.30
566.05	46305.16
566.21	46326.22
566.38	46497.08
566.54	46153.02
566.70	46485.38
566.87	46696.03
567.03	46621.13
567.19	46951.15
567.36	46230.26
567.52	46071.10
567.68	46731.14
567.85	46298.14
568.01	46380.06
568.17	46342.61
568.34	46230.26
568.50	46373.03
568.66	46185.79
568.83	46822.42
568.99	46747.52
569.15	46721.77
569.32	46506.44
569.48	46412.82
569.64	46660.92
569.81	46848.16
569.97	46286.43
570.13	46536.87
570.30	45937.69
570.46	46323.88
570.62	45947.06
570.78	46160.05
570.95	46443.25
571.11	46588.36
571.27	46663.26
571.43	46485.38
571.60	46583.68
571.76	46368.35
571.92	46761.56
572.09	46822.42
572.25	47019.02
572.41	46471.34
572.57	46307.50
572.74	47299.89
572.90	46801.35
573.06	46651.56
573.22	46684.33
573.38	46628.15
573.55	46298.14
573.71	46513.47
573.87	46316.86
574.03	46541.55
574.20	46843.48
574.36	46583.68
574.52	46813.05
574.68	46719.43
574.84	46307.50
575.01	46464.32
575.17	46445.59
575.33	46431.55
575.49	46415.16
575.65	47042.43
575.82	46721.77
575.98	46560.28
576.14	46642.20
576.30	47122.01
576.46	46749.86
576.62	46408.14
576.79	46808.37
576.95	46373.03
577.11	46616.45
577.27	46623.47
577.43	47049.45
577.59	46401.12
577.75	46483.04
577.92	46438.57
578.08	46174.09
578.24	46426.87
578.40	46555.60
578.56	46885.61
578.72	46782.63
578.88	47283.50
579.04	46625.81
579.21	46958.17
579.37	46684.33
579.53	46710.07
579.69	46646.88
579.85	46878.59
580.01	46780.29
580.17	46752.20
580.33	47349.04
580.49	46784.97
580.65	47117.32
580.82	46728.80
580.98	46806.03
581.14	46461.97
581.30	46967.53
581.46	46960.51
581.62	46960.51
581.78	46333.24
581.94	47210.95
582.10	46735.82
582.26	47405.21
582.42	47180.52
582.58	46967.53
582.74	46508.79
582.90	46869.23
583.06	47084.56
583.22	47082.22
583.38	46993.28
583.54	46965.19
583.70	46958.17
583.86	47136.05
584.02	46852.84
584.18	47126.69
584.34	47253.08
584.50	46869.23
584.66	46794.33
584.82	46759.22
584.98	47185.20
585.14	46820.08
585.30	45925.99
585.46	46876.25
585.62	46447.93
585.78	46623.47
585.94	46377.72
586.10	46674.96
586.26	46398.78
586.42	46845.82
586.58	46836.46
586.74	47009.66
586.90	47416.91
587.06	46625.81
587.22	46944.12
587.38	46703.05
587.54	47030.72
587.70	47040.09
587.86	47147.75
588.02	46752.20
588.18	47220.31
588.34	46696.03
588.49	46550.91
588.65	46366.01
588.81	46272.39
588.97	46368.35
589.13	46398.78
589.29	46363.67
589.45	46866.89
589.61	46473.68
589.77	46976.89
589.93	46843.48
