SpectraSuite Data File
++++++++++++++++++++++++++++++++++++
Date: Fri Oct 25 11:22:34 EDT 2013
User: price-jones
Dark Spectrum Present: No
Reference Spectrum Present: No
Number of Sampled Component Spectra: 1
Spectrometers: USB2+H05261
Integration Time (usec): 100000 (USB2+H05261)
Spectra Averaged: 1 (USB2+H05261)
Boxcar Smoothing: 0 (USB2+H05261)
Correct for Electrical Dark: No (USB2+H05261)
Strobe/Lamp Enabled: No (USB2+H05261)
Correct for Detector Non-linearity: No (USB2+H05261)
Correct for Stray Light: No (USB2+H05261)
Number of Pixels in Processed Spectrum: 2048
>>>>>Begin Processed Spectral Data<<<<<
365.73	271.50
365.92	271.50
366.12	271.50
366.32	105.32
366.52	63.19
366.72	187.24
366.91	102.98
367.11	72.56
367.31	112.35
367.51	112.35
367.70	152.13
367.90	173.20
368.10	142.77
368.30	128.73
368.49	100.64
368.69	119.37
368.89	142.77
369.09	170.86
369.28	173.20
369.48	121.71
369.68	182.56
369.87	149.79
370.07	220.01
370.27	255.12
370.47	290.23
370.66	566.41
370.86	617.90
371.06	704.50
371.25	683.44
371.45	622.58
371.65	720.88
371.84	662.37
372.04	739.61
372.24	706.84
372.44	774.72
372.63	699.82
372.83	692.80
373.03	713.86
373.22	723.23
373.42	774.72
373.62	896.43
373.81	828.55
374.01	828.55
374.21	828.55
374.40	816.85
374.60	765.36
374.79	791.10
374.99	788.76
375.19	805.14
375.38	856.64
375.58	819.19
375.78	767.70
375.97	884.72
376.17	931.53
376.37	844.93
376.56	812.17
376.76	805.14
376.95	849.61
377.15	917.49
377.35	936.21
377.54	968.98
377.74	873.02
377.93	849.61
378.13	1004.09
378.33	971.32
378.52	898.77
378.72	997.07
378.91	940.90
379.11	968.98
379.31	950.26
379.50	933.87
379.70	919.83
379.89	990.05
380.09	912.81
380.28	983.02
380.48	1004.09
380.68	971.32
380.87	945.58
381.07	976.00
381.26	1032.18
381.46	1050.90
381.65	950.26
381.85	1020.47
382.04	1036.86
382.24	1062.60
382.43	1018.13
382.63	1057.92
382.83	1088.35
383.02	1088.35
383.22	1111.75
383.41	1163.25
383.61	1186.65
383.80	1128.14
384.00	1139.84
384.19	1097.71
384.39	1139.84
384.58	1109.41
384.78	1170.27
384.97	1228.78
385.17	1125.80
385.36	1203.04
385.56	1163.25
385.75	1111.75
385.95	1186.65
386.14	1123.46
386.34	1247.51
386.53	1203.04
386.72	1205.38
386.92	1324.74
387.11	1219.42
387.31	1284.95
387.50	1254.53
387.70	1275.59
387.89	1275.59
388.09	1331.76
388.28	1259.21
388.48	1308.36
388.67	1310.70
388.86	1291.98
389.06	1238.14
389.25	1420.71
389.45	1277.93
389.64	1380.92
389.84	1299.00
390.03	1427.73
390.22	1390.28
390.42	1394.96
390.61	1380.92
390.81	1383.26
391.00	1446.45
391.19	1383.26
391.39	1467.52
391.58	1462.83
391.78	1404.32
391.97	1497.94
392.16	1467.52
392.36	1657.10
392.55	1612.63
392.75	1521.35
392.94	1509.65
393.13	1469.86
393.33	1413.68
393.52	1535.39
393.71	1600.93
393.91	1675.82
394.10	1626.67
394.29	1519.01
394.49	1621.99
394.68	1579.86
394.88	1650.08
395.07	1703.91
395.26	1694.55
395.46	1675.82
395.65	1708.59
395.84	1762.42
396.04	1783.49
396.23	1741.36
396.42	1755.40
396.62	1792.85
396.81	1846.68
397.00	1771.79
397.19	1820.94
397.39	1741.36
397.58	1893.49
397.77	1893.49
397.97	1842.00
398.16	1799.87
398.35	1898.17
398.55	1902.86
398.74	1877.11
398.93	1940.30
399.12	1905.20
399.32	1984.77
399.51	2005.84
399.70	2045.63
399.90	2106.48
400.09	2078.40
400.28	2024.56
400.47	2111.16
400.67	2169.68
400.86	1914.56
401.05	2125.21
401.24	2174.36
401.44	2087.76
401.63	2167.34
401.82	2157.97
402.01	2092.44
402.21	2260.96
402.40	2190.74
402.59	2155.63
402.78	2197.76
402.97	2223.51
403.17	2211.81
403.36	2228.19
403.55	2291.38
403.74	2424.80
403.93	2275.00
404.13	2349.90
404.32	2370.96
404.51	2345.22
404.70	2436.50
404.89	2518.42
405.09	2408.41
405.28	2553.52
405.47	2359.26
405.66	2553.52
405.85	2464.58
406.05	2523.10
406.24	2572.25
406.43	2607.36
406.62	2693.96
406.81	2628.42
407.00	2541.82
407.20	2691.62
407.39	2600.34
407.58	2691.62
407.77	2787.58
407.96	2684.59
408.15	2846.09
408.34	2710.34
408.54	2890.56
408.73	2839.07
408.92	2855.45
409.11	3002.91
409.30	2871.84
409.49	2944.39
409.68	2970.14
409.87	2963.12
410.07	3000.57
410.26	3012.27
410.45	2977.16
410.64	3084.83
410.83	3236.96
411.02	3138.66
411.21	3194.83
411.40	3183.13
411.59	3375.05
411.78	3293.13
411.98	3234.62
412.17	3325.90
412.36	3325.90
412.55	3386.76
412.74	3412.50
412.93	3452.29
413.12	3353.99
413.31	3510.80
413.50	3595.06
413.69	3531.87
413.88	3719.11
414.07	3684.00
414.26	3648.90
414.45	3695.71
414.64	3688.68
414.83	3826.78
415.02	3763.58
415.22	3894.65
415.41	3854.86
415.60	3927.42
415.79	3934.44
415.98	3857.20
416.17	4084.23
416.36	4093.60
416.55	4133.39
416.74	4175.52
416.93	4121.68
417.12	4311.27
417.31	4283.18
417.50	4201.26
417.69	4290.20
417.88	4411.91
418.07	4269.14
418.26	4304.25
418.45	4297.22
418.64	4564.04
418.83	4449.36
419.02	4531.28
419.21	4540.64
419.39	4566.39
419.58	4381.48
419.77	4566.39
419.96	4592.13
420.15	4690.43
420.34	4695.11
420.53	4692.77
420.72	4634.26
420.91	4681.07
421.10	4950.23
421.29	4833.21
421.48	4734.90
421.67	4634.26
421.86	4727.88
422.05	4809.80
422.24	4961.94
422.43	4828.53
422.61	4926.83
422.80	4971.30
422.99	4994.70
423.18	5107.05
423.37	4983.00
423.56	5060.24
423.75	4929.17
423.94	4851.93
424.13	4645.96
424.32	4868.31
424.50	5029.81
424.69	5128.11
424.88	5172.58
425.07	5004.07
425.26	4973.64
425.45	4961.94
425.64	4933.85
425.83	4985.34
426.01	5128.11
426.20	5053.22
426.39	5226.42
426.58	5074.28
426.77	5090.67
426.96	5172.58
427.15	5172.58
427.33	5111.73
427.52	5280.25
427.71	5359.83
427.90	5210.03
428.09	5334.08
428.28	5287.27
428.46	5406.64
428.65	5476.85
428.84	5528.35
429.03	5724.95
429.22	5418.34
429.40	5563.45
429.59	5605.58
429.78	5357.49
429.97	5228.76
430.16	5643.03
430.34	5717.93
430.53	5636.01
430.72	5778.78
430.91	5535.37
431.10	5769.42
431.28	5776.44
431.47	5804.53
431.66	5907.51
431.85	5870.06
432.03	5870.06
432.22	5926.24
432.41	5919.21
432.60	5942.62
432.79	5982.41
432.97	6115.82
433.16	6146.25
433.35	6050.28
433.54	6057.31
433.72	6249.23
433.91	6202.42
434.10	6246.89
434.28	6221.14
434.47	6251.57
434.66	6183.70
434.85	6478.60
435.03	6345.19
435.22	6239.87
435.41	6345.19
435.59	6406.05
435.78	6616.69
435.97	6462.22
436.16	6558.18
436.34	6408.39
436.53	6534.78
436.72	6801.60
436.90	6583.93
437.09	6677.55
437.28	6707.98
437.46	6691.59
437.65	6705.63
437.84	6679.89
438.02	6684.57
438.21	6745.42
438.40	6787.55
438.58	7108.21
438.77	7105.87
438.96	7009.90
439.14	7288.43
439.33	7279.07
439.52	7300.13
439.70	7372.69
439.89	7531.84
440.08	7382.05
440.26	7414.82
440.45	7379.71
440.63	7442.90
440.82	7801.01
441.01	7662.91
441.19	7733.13
441.38	7824.41
441.57	7859.52
441.75	7896.97
441.94	8140.38
442.12	8016.33
442.31	7999.95
442.50	8196.56
442.68	7939.10
442.87	8196.56
443.05	8222.30
443.24	8065.49
443.43	8142.72
443.61	8182.51
443.80	8549.98
443.98	7903.99
444.17	7920.37
444.35	8191.88
444.54	8531.25
444.73	8280.82
444.91	8362.73
445.10	8374.44
445.28	8512.53
445.47	8311.24
445.65	8287.84
445.84	8552.32
446.02	8552.32
446.21	8390.82
446.39	8568.70
446.58	8610.83
446.77	8465.72
446.95	8379.12
447.14	8526.57
447.32	8650.62
447.51	8566.36
447.69	8500.83
447.88	8744.24
448.06	8472.74
448.25	8744.24
448.43	8760.63
448.62	8554.66
448.80	8751.26
448.99	8753.60
449.17	8908.08
449.36	8795.73
449.54	8891.70
449.73	8966.59
449.91	8947.87
450.10	9163.20
450.28	9181.92
450.46	9280.22
450.65	9107.02
450.83	9102.34
451.02	9027.45
451.20	9277.88
451.39	9364.48
451.57	9350.44
451.76	9132.77
451.94	9420.66
452.13	9453.42
452.31	9369.16
452.49	9273.20
452.68	9523.64
452.86	9434.70
453.05	9528.32
453.23	9530.66
453.42	9418.32
453.60	9469.81
453.78	9448.74
453.97	9472.15
454.15	9664.07
454.34	9628.96
454.52	9762.37
454.70	9837.27
454.89	9640.67
455.07	9942.60
455.26	10080.69
455.44	10108.77
455.62	10010.47
455.81	9912.17
455.99	10176.65
456.17	10171.97
456.36	10083.03
456.54	10307.72
456.73	10134.52
456.91	10710.29
457.09	10492.62
457.28	10656.46
457.46	10389.64
457.64	10576.88
457.83	10562.84
458.01	10590.92
458.19	10949.03
458.38	10604.97
458.56	10843.70
458.74	10934.98
458.93	10593.26
459.11	10750.08
459.29	11126.91
459.48	10927.96
459.66	11002.86
459.84	11080.10
460.03	11253.30
460.21	11115.20
460.39	11112.86
460.57	11248.61
460.76	11363.30
460.94	11302.45
461.12	11431.18
461.31	11386.71
461.49	11215.85
461.67	11281.38
461.85	11590.33
462.04	11459.26
462.22	11939.07
462.40	11749.49
462.59	11822.05
462.77	11566.93
462.95	11761.19
463.13	11576.29
463.32	11683.95
463.50	11805.66
463.68	12131.00
463.86	11833.75
464.05	11815.02
464.23	11723.74
464.41	11803.32
464.59	11690.98
464.78	12226.96
464.96	12133.34
465.14	12044.40
465.32	12084.19
465.50	12236.32
465.69	12442.29
465.87	12276.11
466.05	12142.70
466.23	12327.60
466.41	12470.37
466.60	12580.38
466.78	12212.92
466.96	12276.11
467.14	12336.96
467.32	12430.59
467.51	12594.42
467.69	12435.27
467.87	12634.21
468.05	12676.34
468.23	12421.22
468.41	12678.68
468.60	12681.02
468.78	12847.20
468.96	12793.37
469.14	13029.76
469.32	13263.82
469.50	12720.81
469.69	13123.38
469.87	13268.50
470.05	13289.56
470.23	13273.18
470.41	13322.33
470.59	13638.30
470.77	13343.39
470.95	13561.06
471.14	13792.78
471.32	13596.17
471.50	13738.94
471.68	13722.56
471.86	13678.09
472.04	13855.97
472.22	14211.73
472.40	13591.49
472.58	13956.61
472.77	14066.62
472.95	14256.20
473.13	15084.75
473.31	14347.48
473.49	14331.10
473.67	14174.28
473.85	14284.29
474.03	14991.13
474.21	14644.73
474.39	14981.77
474.57	14890.49
474.75	15061.35
474.93	15070.71
475.12	15117.52
475.30	15267.31
475.48	15215.82
475.66	15267.31
475.84	15594.99
476.02	15538.82
476.20	15613.71
476.38	15819.68
476.56	16168.42
476.74	16173.10
476.92	16123.95
477.10	16004.58
477.28	16222.25
477.46	16578.01
477.64	16355.66
477.82	16622.48
478.00	17046.12
478.18	17153.79
478.36	17334.01
478.54	17181.87
478.72	17277.83
478.90	17776.37
479.08	17619.55
479.26	17989.36
479.44	17846.58
479.62	18101.70
479.80	17984.68
479.98	18211.71
480.16	18558.11
480.34	18340.44
480.52	18876.42
480.70	18948.98
480.88	18576.83
481.06	18953.66
481.24	19248.57
481.41	19288.35
481.59	19592.62
481.77	19393.68
481.95	19901.58
482.13	20044.35
482.31	19924.98
482.49	20608.42
482.67	20711.40
482.85	20711.40
483.03	20664.59
483.21	21062.48
483.39	21109.29
483.57	21144.40
483.74	21252.06
483.92	21502.50
484.10	21610.17
484.28	22047.85
484.46	22288.92
484.64	22555.74
484.82	21907.41
485.00	22670.43
485.18	22892.78
485.35	23253.22
485.53	22977.04
485.71	23506.00
485.89	23878.15
486.07	23330.46
486.25	23695.58
486.43	24287.74
486.61	24163.69
486.78	24285.40
486.96	24348.59
487.14	24821.38
487.32	25170.12
487.50	25188.85
487.68	25441.62
487.85	25158.42
488.03	25788.02
488.21	26253.79
488.39	25907.39
488.57	26721.90
488.75	26590.83
488.92	26771.05
489.10	27197.02
489.28	27243.84
489.46	27346.82
489.64	27316.39
489.81	28137.92
489.99	28067.70
490.17	27901.53
490.35	28512.41
490.53	28554.54
490.70	28638.80
490.88	28662.20
491.06	29163.08
491.24	29249.67
491.41	29308.19
491.59	29703.74
491.77	29809.06
491.95	29912.05
492.13	30162.48
492.30	30595.48
492.48	30202.27
492.66	30745.28
492.84	31077.63
493.01	30944.22
493.19	30967.63
493.37	31068.27
493.54	31688.51
493.72	31821.92
493.90	32013.85
494.08	32154.28
494.25	32367.27
494.43	32123.85
494.61	32863.46
494.79	32968.79
494.96	32566.21
495.14	33113.90
495.32	33546.90
495.49	33181.77
495.67	33352.63
495.85	33706.05
496.02	34333.32
496.20	34527.58
496.38	34375.45
496.55	34244.38
496.73	34752.27
496.91	34696.10
497.09	34991.01
497.26	34895.05
497.44	35442.73
497.62	35606.57
497.79	36105.10
497.97	35758.70
498.14	36016.16
498.32	36877.48
498.50	36755.77
498.67	37017.91
498.85	37024.93
499.03	37141.96
499.20	37083.45
499.38	37376.01
499.56	37179.41
499.73	37874.55
499.91	37867.53
500.08	38246.69
500.26	38092.22
500.44	37769.22
500.61	38396.49
500.79	38522.88
500.97	38492.45
501.14	39393.56
501.32	39426.32
501.49	39241.42
501.67	39323.34
501.84	39526.97
502.02	39229.72
502.20	39480.16
502.37	39407.60
502.55	39325.68
502.72	40041.88
502.90	40144.87
503.07	39955.29
503.25	40449.14
503.43	39976.35
503.60	40645.74
503.78	40687.87
503.95	41179.39
504.13	40914.90
504.30	40861.07
504.48	41209.81
504.65	41289.39
504.83	41727.07
505.01	41916.65
505.18	41617.07
505.36	42162.41
505.53	41680.26
505.71	41865.16
505.88	42249.01
506.06	41785.58
506.23	42373.06
506.41	42094.53
506.58	42740.52
506.76	42644.56
506.93	42862.23
507.11	42773.29
507.28	42920.74
507.46	43454.39
507.63	43299.91
507.81	43674.40
507.98	43466.09
508.16	43510.56
508.33	43557.37
508.50	43997.39
508.68	44074.63
508.85	44236.12
509.03	44477.20
509.20	44589.55
509.38	44992.12
509.55	44762.75
509.73	45174.68
509.90	45247.24
510.08	44814.24
510.25	44711.25
510.42	45097.44
510.60	45303.41
510.77	46141.32
510.95	46101.53
511.12	45975.14
511.30	45368.94
511.47	46398.78
511.64	46270.05
511.82	46518.15
511.99	46445.59
512.17	46211.54
512.34	46026.63
512.51	46782.63
512.69	46663.26
512.86	46923.06
513.04	47002.64
513.21	46824.76
513.38	46869.23
513.56	47583.09
513.73	47351.38
513.90	47587.77
514.08	47220.31
514.25	47779.70
514.43	47775.02
514.60	47732.89
514.77	48016.09
514.95	48308.66
515.12	48016.09
515.29	47943.53
515.47	48193.97
515.64	48498.24
515.81	48165.88
515.99	48776.76
516.16	48952.30
516.33	48732.29
516.51	49265.94
516.68	49057.63
516.85	48945.28
517.03	49132.53
517.20	49120.82
517.37	49528.08
517.54	49324.45
517.72	49612.34
517.89	49516.37
518.06	49605.31
518.24	49846.39
518.41	49851.07
518.58	49918.95
518.75	49633.40
518.93	49804.26
519.10	50024.27
519.27	50258.32
519.45	50162.36
519.62	50536.85
519.79	50265.34
519.96	50436.20
520.14	50410.46
520.31	50822.39
520.48	51063.47
520.65	50780.26
520.83	51330.29
521.00	50944.10
521.17	50901.97
521.34	51110.28
521.52	51201.56
521.69	51224.96
521.86	51625.20
522.03	51873.29
522.20	51807.76
522.38	52065.22
522.55	51444.98
522.72	51739.88
522.89	51922.44
523.07	51997.34
523.24	51746.90
523.41	52102.67
523.58	51908.40
523.75	52278.21
523.92	52430.34
524.10	52589.50
524.27	52444.38
524.44	52327.36
524.61	52502.90
524.78	52584.82
524.96	52437.36
525.13	52790.78
525.30	52746.31
525.47	53027.18
525.64	52987.39
525.81	53123.14
525.98	52987.39
526.16	53029.52
526.33	53127.82
526.50	53462.52
526.67	53237.83
526.84	53235.48
527.01	53088.03
527.18	53265.91
527.36	53506.99
527.53	53219.10
527.70	53553.80
527.87	53558.48
528.04	53518.69
528.21	53703.59
528.38	53642.74
528.55	53939.99
528.72	53872.11
528.89	53684.87
529.07	53703.59
529.24	53687.21
529.41	54157.66
529.58	53993.82
529.75	54174.04
529.92	54103.82
530.09	54307.45
530.26	54309.79
530.43	54527.46
530.60	54033.61
530.77	54017.22
530.94	54602.36
531.11	54026.59
531.28	54508.74
531.46	54560.23
531.63	54679.60
531.80	54656.19
531.97	54866.84
532.14	54632.78
532.31	54843.43
532.48	55110.25
532.65	55107.91
532.82	54672.57
532.99	55220.26
533.16	54871.52
533.33	55304.52
533.50	55077.49
533.67	55220.26
533.84	54955.78
534.01	55105.57
534.18	55215.58
534.35	55655.60
534.52	55646.24
534.69	55683.69
534.86	55554.96
535.03	55419.20
535.20	55526.87
535.37	55688.37
535.54	55676.66
535.71	55564.32
535.88	55796.03
536.05	55746.88
536.22	55973.91
536.38	55882.63
536.55	55924.76
536.72	55985.61
536.89	55952.85
537.06	55852.20
537.23	56074.55
537.40	55973.91
537.57	56079.24
537.74	56135.41
537.91	56280.52
538.08	56236.05
538.25	56233.71
538.42	56399.89
538.59	56554.36
538.75	55999.66
538.92	56261.80
539.09	56364.78
539.26	56470.11
539.43	56481.81
539.60	56530.96
539.77	56664.37
539.94	56669.05
540.11	56535.64
540.28	56687.78
540.44	56734.59
540.61	56896.08
540.78	56743.95
540.95	56699.48
541.12	56790.76
541.29	56772.03
541.46	56900.76
541.62	56959.28
541.79	56949.92
541.96	56750.97
542.13	56596.49
542.30	57155.88
542.47	57198.01
542.63	57202.69
542.80	57240.14
542.97	57216.74
543.14	57392.28
543.31	57570.16
543.48	57668.46
543.64	57785.49
543.81	57696.55
543.98	57743.36
544.15	57638.03
544.32	57687.18
544.48	58012.52
544.65	57635.69
544.82	57773.78
544.99	57460.15
545.16	57846.34
545.32	57675.48
545.49	57806.55
545.66	57860.38
545.83	57813.57
546.00	58073.37
546.16	58101.46
546.33	57984.43
546.50	57719.95
546.67	57925.92
546.83	57855.70
547.00	58014.86
547.17	58103.80
547.34	58089.76
547.50	58197.42
547.67	58412.75
547.84	58443.18
548.00	58389.34
548.17	58546.16
548.34	58349.56
548.51	58773.19
548.67	58335.51
548.84	58621.06
549.01	58223.17
549.18	58351.90
549.34	58527.44
549.51	58351.90
549.68	58433.81
549.84	58674.89
550.01	58782.55
550.18	58426.79
550.34	58770.85
550.51	58777.87
550.68	58841.07
550.84	58492.33
551.01	58745.11
551.18	59000.22
551.34	58700.64
551.51	58812.98
551.68	58871.49
551.84	58922.99
552.01	58855.11
552.18	58836.39
552.34	58567.23
552.51	59018.95
552.68	58965.12
552.84	58784.90
553.01	59192.15
553.18	59224.92
553.34	58955.75
553.51	58953.41
553.67	58944.05
553.84	59363.01
554.01	59011.93
554.17	59288.11
554.34	59377.05
554.51	58972.14
554.67	59430.88
554.84	59126.61
555.00	59304.49
555.17	59178.10
555.33	59208.53
555.50	59274.07
555.67	59229.60
555.83	59320.88
556.00	59395.77
556.16	59536.21
556.33	59641.53
556.50	59533.87
556.66	59700.04
556.83	59227.26
556.99	59592.38
557.16	59774.94
557.32	59657.91
557.49	59660.26
557.65	59807.71
557.82	59732.81
557.98	59571.32
558.15	59573.66
558.32	59568.97
558.48	59545.57
558.65	59714.09
558.81	59732.81
558.98	59793.67
559.14	59894.31
559.31	59994.95
559.47	60111.98
559.64	59999.63
559.80	60301.56
559.97	59973.89
560.13	59913.03
560.30	60074.53
560.46	60060.49
560.63	60100.28
560.79	59742.17
560.96	60020.70
561.12	59992.61
561.29	60252.41
561.45	60081.55
561.61	60182.19
561.78	60030.06
561.94	59971.55
562.11	60119.00
562.27	60243.05
562.44	60210.28
562.60	60303.90
562.77	60182.19
562.93	60214.96
563.10	60287.52
563.26	60299.22
563.42	60662.00
563.59	60231.35
563.75	60268.79
563.92	60341.35
564.08	60289.86
564.24	60601.15
564.41	60432.63
564.57	60416.25
564.74	60357.74
564.90	60289.86
565.07	60505.19
565.23	60362.42
565.39	60458.38
565.56	60505.19
565.72	60374.12
565.88	60502.85
566.05	60598.81
566.21	60460.72
566.38	60650.30
566.54	60664.35
566.70	60715.84
566.87	60690.09
567.03	60280.50
567.19	60804.78
567.36	60631.58
567.52	60498.17
567.68	60846.91
567.85	60619.88
568.01	60615.19
568.17	60477.10
568.34	60729.88
568.50	60725.20
568.66	60566.04
568.83	60519.23
568.99	60622.22
569.15	60664.35
569.32	60610.51
569.48	60739.24
569.64	60760.31
569.81	60736.90
569.97	60659.66
570.13	60807.12
570.30	60860.95
570.46	60701.79
570.62	61020.11
570.78	60760.31
570.95	60849.25
571.11	60598.81
571.27	60802.44
571.43	60807.12
571.60	61015.43
571.76	60898.40
571.92	60767.33
572.09	60919.46
572.25	60832.86
572.41	60615.19
572.57	60849.25
572.74	61169.90
572.90	60942.87
573.06	61085.64
573.22	60750.94
573.38	60673.71
573.55	60743.92
573.71	61130.11
573.87	60898.40
574.03	60851.59
574.20	61148.84
574.36	60767.33
574.52	60816.48
574.68	60926.49
574.84	61069.26
575.01	60933.51
575.17	61188.63
575.33	60959.25
575.49	60994.36
575.65	61291.61
575.82	61090.32
575.98	60949.89
576.14	61174.58
576.30	61045.85
576.46	61001.38
576.62	61020.11
576.79	61006.06
576.95	60959.25
577.11	61102.03
577.27	61020.11
577.43	61148.84
577.59	60912.44
577.75	60767.33
577.92	60846.91
578.08	61006.06
578.24	61015.43
578.40	61153.52
578.56	61293.95
578.72	60987.34
578.88	61413.32
579.04	61268.20
579.21	61216.71
579.37	61432.04
579.53	61312.67
579.69	60898.40
579.85	61102.03
580.01	61319.70
580.17	60938.19
580.33	61181.60
580.49	61230.75
580.65	61048.19
580.82	61031.81
580.98	61111.39
581.14	61102.03
581.30	61176.92
581.46	61228.41
581.62	61298.63
581.78	61228.41
581.94	61275.22
582.10	61181.60
582.26	61200.33
582.42	61251.82
582.58	61134.79
582.74	61216.71
582.90	61254.16
583.06	61087.98
583.22	60896.06
583.38	61261.18
583.54	61132.45
583.70	61233.10
583.86	61249.48
584.02	61216.71
584.18	61214.37
584.34	61322.04
584.50	61176.92
584.66	60966.27
584.82	61048.19
584.98	61343.10
585.14	61228.41
585.30	61118.41
585.46	61242.46
585.62	61050.53
585.78	61542.05
585.94	61190.97
586.10	61116.07
586.26	61183.94
586.42	61399.27
586.58	61289.27
586.74	61368.85
586.90	61195.65
587.06	61275.22
587.22	61439.06
587.38	61375.87
587.54	61642.69
587.70	61542.05
587.86	61506.94
588.02	61427.36
588.18	61413.32
588.34	61329.06
588.49	61223.73
