SpectraSuite Data File
++++++++++++++++++++++++++++++++++++
Date: Fri Oct 25 11:23:18 EDT 2013
User: price-jones
Dark Spectrum Present: No
Reference Spectrum Present: No
Number of Sampled Component Spectra: 1
Spectrometers: USB2+H05261
Integration Time (usec): 100000 (USB2+H05261)
Spectra Averaged: 1 (USB2+H05261)
Boxcar Smoothing: 0 (USB2+H05261)
Correct for Electrical Dark: No (USB2+H05261)
Strobe/Lamp Enabled: No (USB2+H05261)
Correct for Detector Non-linearity: No (USB2+H05261)
Correct for Stray Light: No (USB2+H05261)
Number of Pixels in Processed Spectrum: 2048
>>>>>Begin Processed Spectral Data<<<<<
365.73	220.01
365.92	220.01
366.12	220.01
366.32	152.13
366.52	105.32
366.72	98.30
366.91	35.11
367.11	105.32
367.31	131.07
367.51	138.09
367.70	77.24
367.90	154.48
368.10	149.79
368.30	131.07
368.49	131.07
368.69	131.07
368.89	180.22
369.09	135.75
369.28	168.52
369.48	175.54
369.68	205.97
369.87	149.79
370.07	168.52
370.27	182.56
370.47	271.50
370.66	587.47
370.86	650.67
371.06	681.10
371.25	734.93
371.45	620.24
371.65	711.52
371.84	664.71
372.04	746.63
372.24	734.93
372.44	744.29
372.63	681.10
372.83	711.52
373.03	774.72
373.22	716.20
373.42	781.74
373.62	774.72
373.81	795.78
374.01	816.85
374.21	800.46
374.40	870.68
374.60	830.89
374.79	779.40
374.99	908.13
375.19	814.51
375.38	802.80
375.58	908.13
375.78	908.13
375.97	894.08
376.17	854.30
376.37	868.34
376.56	781.74
376.76	802.80
376.95	908.13
377.15	884.72
377.35	873.02
377.54	947.92
377.74	882.38
377.93	933.87
378.13	1006.43
378.33	961.96
378.52	936.21
378.72	1018.13
378.91	980.68
379.11	973.66
379.31	1004.09
379.50	915.15
379.70	891.74
379.89	985.37
380.09	919.83
380.28	992.39
380.48	973.66
380.68	968.98
380.87	1053.24
381.07	1025.15
381.26	1053.24
381.46	1022.81
381.65	1071.97
381.85	1039.20
382.04	997.07
382.24	1022.81
382.43	1067.28
382.63	1071.97
382.83	980.68
383.02	1095.37
383.22	1050.90
383.41	1062.60
383.61	1081.33
383.80	1090.69
384.00	1062.60
384.19	1170.27
384.39	1146.86
384.58	1090.69
384.78	1128.14
384.97	1203.04
385.17	1135.16
385.36	1214.74
385.56	1174.95
385.75	1242.82
385.95	1221.76
386.14	1313.04
386.34	1249.85
386.53	1315.38
386.72	1205.38
386.92	1228.78
387.11	1217.08
387.31	1217.08
387.50	1191.33
387.70	1231.12
387.89	1259.21
388.09	1291.98
388.28	1207.72
388.48	1320.06
388.67	1247.51
388.86	1320.06
389.06	1334.11
389.25	1364.53
389.45	1327.08
389.64	1268.57
389.84	1364.53
390.03	1357.51
390.22	1495.60
390.42	1373.89
390.61	1380.92
390.81	1404.32
391.00	1390.28
391.19	1425.39
391.39	1514.33
391.58	1416.02
391.78	1476.88
391.97	1507.30
392.16	1528.37
392.36	1533.05
392.55	1507.30
392.75	1547.09
392.94	1556.46
393.13	1593.90
393.33	1460.49
393.52	1535.39
393.71	1605.61
393.91	1551.78
394.10	1607.95
394.29	1715.61
394.49	1570.50
394.68	1654.76
394.88	1661.78
395.07	1565.82
395.26	1736.68
395.46	1692.21
395.65	1678.16
395.84	1624.33
396.04	1884.13
396.23	1795.19
396.42	1767.10
396.62	1732.00
396.81	1767.10
397.00	1734.34
397.19	1729.66
397.39	1729.66
397.58	1804.55
397.77	1886.47
397.97	1792.85
398.16	1858.39
398.35	1959.03
398.55	1867.75
398.74	1853.70
398.93	1881.79
399.12	1834.98
399.32	1874.77
399.51	1975.41
399.70	1905.20
399.90	1989.46
400.09	2120.53
400.28	2022.22
400.47	2054.99
400.67	2157.97
400.86	2059.67
401.05	2085.42
401.24	2104.14
401.44	2092.44
401.63	2167.34
401.82	2097.12
402.01	2115.84
402.21	2139.25
402.40	2221.17
402.59	2354.58
402.78	2244.57
402.97	2305.43
403.17	2324.15
403.36	2326.49
403.55	2347.56
403.74	2375.64
403.93	2310.11
404.13	2459.90
404.32	2420.11
404.51	2356.92
404.70	2462.24
404.89	2370.96
405.09	2410.75
405.28	2420.11
405.47	2581.61
405.66	2445.86
405.85	2541.82
406.05	2539.48
406.24	2441.18
406.43	2637.78
406.62	2530.12
406.81	2635.44
407.00	2682.25
407.20	2628.42
407.39	2708.00
407.58	2778.22
407.77	2693.96
407.96	2834.39
408.15	2754.81
408.34	2832.05
408.54	2876.52
408.73	2911.63
408.92	2897.58
409.11	2963.12
409.30	2930.35
409.49	2911.63
409.68	3000.57
409.87	2911.63
410.07	3075.46
410.26	2995.89
410.45	2995.89
410.64	3066.10
410.83	3150.36
411.02	3269.73
411.21	3133.98
411.40	3131.64
411.59	3225.26
411.78	3183.13
411.98	3251.00
412.17	3426.54
412.36	3321.22
412.55	3361.01
412.74	3330.58
412.93	3494.42
413.12	3379.73
413.31	3562.30
413.50	3651.24
413.69	3550.59
413.88	3545.91
414.07	3651.24
414.26	3562.30
414.45	3700.39
414.64	3681.66
414.83	3709.75
415.02	3864.22
415.22	3829.12
415.41	3990.61
415.60	3768.26
415.79	3838.48
415.98	4091.26
416.17	3896.99
416.36	4065.51
416.55	4063.17
416.74	4194.24
416.93	3936.78
417.12	4175.52
417.31	4227.01
417.50	4170.83
417.69	4341.69
417.88	4393.19
418.07	4327.65
418.26	4383.82
418.45	4236.37
418.64	4432.97
418.83	4442.34
419.02	4491.49
419.21	4627.24
419.39	4517.23
419.58	4561.70
419.77	4411.91
419.96	4550.00
420.15	4613.20
420.34	4662.35
420.53	4622.56
420.72	4709.16
420.91	4786.40
421.10	4674.05
421.29	4915.12
421.48	4664.69
421.67	4784.06
421.86	4812.14
422.05	4823.84
422.24	4851.93
422.43	5085.98
422.61	4905.76
422.80	5116.41
422.99	5083.64
423.18	5100.03
423.37	4983.00
423.56	5057.90
423.75	4917.47
423.94	4875.34
424.13	4725.54
424.32	4905.76
424.50	5001.72
424.69	5177.26
424.88	5100.03
425.07	4880.02
425.26	4870.65
425.45	5135.14
425.64	4812.14
425.83	4990.02
426.01	5191.31
426.20	4945.55
426.39	5104.71
426.58	5107.05
426.77	5064.92
426.96	5163.22
427.15	5266.21
427.33	5390.25
427.52	5224.08
427.71	5371.53
427.90	5123.43
428.09	5355.15
428.28	5392.59
428.46	5474.51
428.65	5308.34
428.84	5575.16
429.03	5563.45
429.22	5404.30
429.40	5490.90
429.59	5664.10
429.78	5390.25
429.97	5359.83
430.16	5572.82
430.34	5661.76
430.53	5638.35
430.72	5607.92
430.91	5610.26
431.10	5699.20
431.28	5951.98
431.47	5912.19
431.66	6064.33
431.85	5912.19
432.03	6033.90
432.22	5989.43
432.41	5907.51
432.60	6071.35
432.79	5877.09
432.97	6155.61
433.16	6045.60
433.35	6064.33
433.54	6197.74
433.72	5933.26
433.91	6076.03
434.10	6078.37
434.28	6064.33
434.47	6331.15
434.66	6497.33
434.85	6516.05
435.03	6377.96
435.22	6483.28
435.41	6457.54
435.59	6516.05
435.78	6476.26
435.97	6509.03
436.16	6604.99
436.34	6370.94
436.53	6511.37
436.72	6677.55
436.90	6562.86
437.09	6595.63
437.28	6530.09
437.46	6527.75
437.65	6710.32
437.84	6705.63
438.02	7005.22
438.21	6839.05
438.40	6736.06
438.58	7052.03
438.77	7059.06
438.96	6965.43
439.14	7162.04
439.33	7332.90
439.52	7169.06
439.70	7239.28
439.89	7332.90
440.08	7337.58
440.26	7667.60
440.45	7391.41
440.63	7435.88
440.82	7559.93
441.01	7492.05
441.19	7599.72
441.38	7829.09
441.57	7899.31
441.75	7915.69
441.94	7939.10
442.12	8030.38
442.31	8049.10
442.50	7969.52
442.68	7936.76
442.87	8170.81
443.05	8351.03
443.24	8379.12
443.43	8255.07
443.61	8285.50
443.80	8547.64
443.98	8215.28
444.17	8004.63
444.35	8327.63
444.54	8369.76
444.73	8369.76
444.91	8273.79
445.10	8428.27
445.28	8451.67
445.47	8374.44
445.65	8435.29
445.84	8596.79
446.02	8575.72
446.21	8498.49
446.39	8601.47
446.58	8695.09
446.77	8641.26
446.95	8241.03
447.14	8706.79
447.32	8589.77
447.51	8617.85
447.69	8688.07
447.88	8662.32
448.06	8849.57
448.25	8575.72
448.43	8751.26
448.62	8552.32
448.80	8732.54
448.99	8781.69
449.17	8741.90
449.36	8786.37
449.54	8901.06
449.73	9025.11
449.91	9027.45
450.10	9114.05
450.28	9437.04
450.46	9235.75
450.65	8980.64
450.83	9057.87
451.02	9015.74
451.20	9275.54
451.39	9320.01
451.57	9233.41
451.76	9221.71
451.94	9329.38
452.13	9490.87
452.31	9495.55
452.49	9275.54
452.68	9420.66
452.86	9245.12
453.05	9514.28
453.23	9664.07
453.42	9303.63
453.60	9486.19
453.78	9659.39
453.97	9727.27
454.15	9408.95
454.34	9521.30
454.52	9778.76
454.70	9848.97
454.89	9837.27
455.07	10040.90
455.26	9811.53
455.44	10036.22
455.62	10111.11
455.81	9970.68
455.99	10033.88
456.17	9994.09
456.36	10176.65
456.54	10092.39
456.73	10186.01
456.91	10485.60
457.09	10579.22
457.28	10518.37
457.46	10534.75
457.64	10820.30
457.83	10827.32
458.01	10490.28
458.19	10810.93
458.38	10490.28
458.56	10574.54
458.74	10839.02
458.93	10782.85
459.11	10836.68
459.29	10832.00
459.48	10967.75
459.66	11180.74
459.84	10888.17
460.03	11260.32
460.21	10984.13
460.39	11136.27
460.57	10925.62
460.76	11164.36
460.94	11375.00
461.12	11206.48
461.31	11377.34
461.49	11190.10
461.67	11358.62
461.85	11426.50
462.04	11632.46
462.22	11562.25
462.40	11737.79
462.59	11693.32
462.77	11606.72
462.95	11705.02
463.13	11665.23
463.32	11756.51
463.50	11791.62
463.68	11896.94
463.86	11978.86
464.05	11707.36
464.23	11655.87
464.41	12037.38
464.59	11815.02
464.78	12343.99
464.96	11960.14
465.14	11915.67
465.32	12208.23
465.50	12121.63
465.69	12521.87
465.87	12187.17
466.05	12383.77
466.23	12493.78
466.41	12500.80
466.60	12674.00
466.78	12400.16
466.96	12355.69
467.14	12439.95
467.32	12538.25
467.51	12531.23
467.69	12374.41
467.87	12711.45
468.05	12533.57
468.23	12669.32
468.41	12489.10
468.60	12784.01
468.78	12884.65
468.96	12603.78
469.14	13020.40
469.32	13109.34
469.50	12849.54
469.69	13282.54
469.87	13179.56
470.05	13172.54
470.23	13549.36
470.41	13261.48
470.59	13591.49
470.77	13308.29
470.95	13364.46
471.14	13607.87
471.32	13373.82
471.50	13724.90
471.68	13886.40
471.86	13743.63
472.04	13923.85
472.22	14040.87
472.40	13614.90
472.58	13827.88
472.77	14164.92
472.95	14347.48
473.13	14841.34
473.31	14441.11
473.49	14036.19
473.67	14054.92
473.85	14607.28
474.03	14661.12
474.21	14626.01
474.39	14874.10
474.57	14944.32
474.75	15063.69
474.93	15136.24
475.12	14848.36
475.30	15421.79
475.48	15288.38
475.66	15339.87
475.84	15304.76
476.02	15719.04
476.20	15592.65
476.38	15822.02
476.56	16280.77
476.74	16252.68
476.92	16081.82
477.10	15810.32
477.28	16182.46
477.46	16159.06
477.64	16854.20
477.82	16688.02
478.00	17280.18
478.18	16716.11
478.36	17226.34
478.54	17584.44
478.72	17282.52
478.90	17509.55
479.08	17755.30
479.26	17762.33
479.44	17736.58
479.62	18192.98
479.80	18405.97
479.98	18249.16
480.16	18640.03
480.34	18480.87
480.52	18899.83
480.70	18911.53
480.88	18759.39
481.06	19323.46
481.24	19110.47
481.41	19248.57
481.59	19665.18
481.77	19683.91
481.95	19826.68
482.13	20102.86
482.31	20032.65
482.49	20526.50
482.67	20601.40
482.85	21067.16
483.03	20737.15
483.21	20835.45
483.39	21359.73
483.57	20994.61
483.74	21160.78
483.92	21355.05
484.10	21359.73
484.28	22092.32
484.46	22155.51
484.64	22628.30
484.82	22309.99
485.00	22412.97
485.18	23047.26
485.35	23381.95
485.53	22977.04
485.71	23335.14
485.89	23826.65
486.07	23592.60
486.25	23765.80
486.43	23843.04
486.61	23672.18
486.78	24439.87
486.96	24484.34
487.14	24725.42
487.32	25135.01
487.50	25001.60
487.68	25345.66
487.85	25481.41
488.03	25916.75
488.21	26115.70
488.39	26251.45
488.57	26572.10
488.75	26668.06
488.92	26930.20
489.10	26937.23
489.28	27222.77
489.46	27782.16
489.64	27447.46
489.81	27814.93
489.99	28217.50
490.17	28144.94
490.35	28753.48
490.53	28624.75
490.70	29062.43
490.88	28774.55
491.06	28940.72
491.24	29214.57
491.41	29600.76
491.59	29537.56
491.77	29544.58
491.95	30024.39
492.13	30040.78
492.30	30307.60
492.48	30417.60
492.66	30450.37
492.84	30705.49
493.01	30932.52
493.19	31089.34
493.37	31363.18
493.54	31489.57
493.72	32158.96
493.90	31576.17
494.08	32334.50
494.25	32208.11
494.43	32961.76
494.61	32662.18
494.79	32664.52
494.96	32879.85
495.14	33427.53
495.32	33701.37
495.49	33560.94
495.67	33647.54
495.85	33797.34
496.02	34321.62
496.20	34122.67
496.38	34361.40
496.55	34660.99
496.73	35669.76
496.91	34462.05
497.09	35335.07
497.26	35402.94
497.44	35290.60
497.62	35651.04
497.79	36369.58
497.97	35929.56
498.14	36531.08
498.32	36463.21
498.50	36552.15
498.67	36865.78
498.85	36844.71
499.03	37373.67
499.20	37181.75
499.38	37104.51
499.56	37322.18
499.73	37329.20
499.91	38019.66
500.08	38321.59
500.26	37642.84
500.44	38036.05
500.61	38286.48
500.79	38059.45
500.97	38387.13
501.14	38916.09
501.32	38754.59
501.49	39381.85
501.67	39175.89
501.84	39365.47
502.02	39295.25
502.20	39152.48
502.37	39796.13
502.55	39545.69
502.72	40165.93
502.90	40088.70
503.07	40009.12
503.25	40133.17
503.43	40257.21
503.60	40877.46
503.78	40879.80
503.95	41024.91
504.13	40605.95
504.30	41205.13
504.48	41254.28
504.65	41219.17
504.83	41549.19
505.01	41546.85
505.18	41794.95
505.36	42003.25
505.53	41844.10
505.71	41940.06
505.88	42412.85
506.06	42075.81
506.23	42270.08
506.41	42314.55
506.58	42131.98
506.76	42494.77
506.93	42986.28
507.11	42857.55
507.28	42876.27
507.46	42979.26
507.63	42841.17
507.81	43667.37
507.98	43316.29
508.16	43653.33
508.33	43496.52
508.50	43510.56
508.68	44041.86
508.85	44273.57
509.03	44318.04
509.20	44301.66
509.38	44575.50
509.55	44800.19
509.73	45186.38
509.90	45209.79
510.08	45027.23
510.25	45036.59
510.42	45280.00
510.60	45368.94
510.77	45268.30
510.95	46057.06
511.12	45277.66
511.30	45687.26
511.47	46169.41
511.64	45998.55
511.82	46389.42
511.99	45881.52
512.17	46183.45
512.34	46012.59
512.51	46674.96
512.69	46887.95
512.86	46827.10
513.04	46724.11
513.21	47185.20
513.38	47271.80
513.56	47203.92
513.73	47274.14
513.90	47391.17
514.08	47533.94
514.25	47597.13
514.43	47690.76
514.60	47852.25
514.77	47725.86
514.95	47861.61
515.12	47765.65
515.29	47821.83
515.47	48416.32
515.64	48626.97
515.81	48200.99
515.99	48802.51
516.16	48528.67
516.33	49125.50
516.51	49078.69
516.68	48514.62
516.85	49041.24
517.03	49546.80
517.20	49453.18
517.37	49251.89
517.54	49708.30
517.72	49125.50
517.89	49411.05
518.06	49928.31
518.24	49673.19
518.41	49560.84
518.58	50134.28
518.75	49635.74
518.93	49942.35
519.10	49633.40
519.27	50181.09
519.45	50080.44
519.62	50403.44
519.79	50195.13
519.96	50234.92
520.14	50445.57
520.31	50440.89
520.48	50796.65
520.65	50897.29
520.83	51187.52
521.00	50962.82
521.17	51023.68
521.34	51131.34
521.52	51323.27
521.69	51508.17
521.86	51253.05
522.03	51559.66
522.20	51796.06
522.38	52060.54
522.55	51639.24
522.72	51672.01
522.89	51564.34
523.07	52107.35
523.24	52013.73
523.41	51576.04
523.58	51494.13
523.75	52287.57
523.92	52172.88
524.10	52402.25
524.27	52175.22
524.44	52343.74
524.61	52732.27
524.78	52285.23
524.96	52589.50
525.13	52734.61
525.30	52739.29
525.47	52666.73
525.64	53043.56
525.81	53104.41
525.98	53249.53
526.16	53001.43
526.33	52947.60
526.50	53329.11
526.67	53277.61
526.84	53303.36
527.01	53385.28
527.18	53193.36
527.36	53411.02
527.53	53448.47
527.70	53504.65
527.87	53659.12
528.04	53502.31
528.21	54052.33
528.38	53294.00
528.55	53602.95
528.72	53605.29
528.89	53790.19
529.07	53963.39
529.24	53710.61
529.41	54134.25
529.58	54075.74
529.75	53975.09
529.92	54190.42
530.09	54206.81
530.26	54012.54
530.43	54129.57
530.60	54068.72
530.77	54232.55
530.94	54429.16
531.11	54246.60
531.28	54464.27
531.46	54490.01
531.63	54585.97
531.80	54461.93
531.97	54719.38
532.14	54927.69
532.31	54852.80
532.48	54611.72
532.65	55084.51
532.82	54576.61
532.99	54904.29
533.16	54983.86
533.33	55023.65
533.50	55246.00
533.67	55330.26
533.84	54866.84
534.01	55313.88
534.18	55274.09
534.35	55807.73
534.52	55381.76
534.69	55384.10
534.86	55814.76
535.03	55482.40
535.20	55466.02
535.37	55587.72
535.54	55821.78
535.71	55423.89
535.88	55711.77
536.05	55774.97
536.22	55653.26
536.38	56020.72
536.55	55887.31
536.72	56058.17
536.89	56093.28
537.06	56156.47
537.23	56170.52
537.40	55992.64
537.57	56053.49
537.74	56055.83
537.91	56259.46
538.08	55922.42
538.25	56009.02
538.42	56275.84
538.59	56254.78
538.75	56341.38
538.92	56285.20
539.09	56640.96
539.26	56498.19
539.43	56420.95
539.60	56435.00
539.77	56622.24
539.94	56750.97
540.11	56942.89
540.28	56760.33
540.44	56884.38
540.61	56736.93
540.78	56725.22
540.95	56666.71
541.12	56664.37
541.29	57045.88
541.46	56830.55
541.62	57088.01
541.79	56886.72
541.96	56643.30
542.13	56940.55
542.30	57104.39
542.47	57216.74
542.63	57078.64
542.80	57188.65
542.97	57338.44
543.14	57418.02
543.31	57485.90
543.48	57359.51
543.64	57794.85
543.81	57621.65
543.98	57359.51
544.15	57652.08
544.32	57574.84
544.48	57900.17
544.65	57696.55
544.82	57663.78
544.99	57551.43
545.16	57607.61
545.32	57623.99
545.49	57925.92
545.66	58124.86
545.83	58038.26
546.00	57792.51
546.16	57968.05
546.33	57876.77
546.50	57836.98
546.67	58028.90
546.83	57808.89
547.00	58014.86
547.17	58078.05
547.34	58106.14
547.50	58176.36
547.67	58284.02
547.84	58454.88
548.00	58466.58
548.17	58639.78
548.34	58436.16
548.51	58471.26
548.67	58522.76
548.84	58410.41
549.01	58396.37
549.18	58595.31
549.34	58557.86
549.51	58443.18
549.68	58693.61
549.84	58780.21
550.01	58838.73
550.18	58277.00
550.34	58667.87
550.51	58707.66
550.68	58686.59
550.84	58337.85
551.01	58836.39
551.18	58738.08
551.34	58824.68
551.51	58880.86
551.68	58834.05
551.84	58749.79
552.01	58934.69
552.18	59018.95
552.34	58897.24
552.51	58981.50
552.68	58862.13
552.84	58824.68
553.01	59189.81
553.18	58967.46
553.34	59011.93
553.51	59110.23
553.67	58951.07
553.84	59222.58
554.01	59257.68
554.17	59084.48
554.34	59327.90
554.51	59302.15
554.67	59150.02
554.84	59302.15
555.00	59227.26
555.17	59309.18
555.33	59346.62
555.50	59143.00
555.67	59255.34
555.83	59182.79
556.00	59444.93
556.16	59552.59
556.33	59547.91
556.50	59222.58
556.66	59735.15
556.83	59503.44
556.99	59573.66
557.16	59676.64
557.32	59655.57
557.49	59819.41
557.65	59704.73
557.82	59777.28
557.98	59669.62
558.15	59662.60
558.32	59765.58
558.48	59704.73
558.65	59695.36
558.81	59763.24
558.98	59906.01
559.14	59805.37
559.31	59800.69
559.47	59875.58
559.64	59952.82
559.80	60016.02
559.97	59941.12
560.13	59938.78
560.30	59920.05
560.46	60034.74
560.63	59870.90
560.79	60107.30
560.96	59980.91
561.12	59941.12
561.29	59959.84
561.45	60016.02
561.61	60133.04
561.78	60243.05
561.94	60041.76
562.11	60041.76
562.27	60278.16
562.44	60264.11
562.60	60149.43
562.77	60324.97
562.93	60074.53
563.10	60294.54
563.26	60126.02
563.42	60339.01
563.59	60186.88
563.75	60233.69
563.92	60334.33
564.08	60221.98
564.24	60374.12
564.41	60535.62
564.57	60221.98
564.74	60292.20
564.90	60343.69
565.07	60240.71
565.23	60470.08
565.39	60353.05
565.56	60514.55
565.72	60458.38
565.88	60465.40
566.05	60427.95
566.21	60594.13
566.38	60537.96
566.54	60664.35
566.70	60631.58
566.87	60694.77
567.03	60343.69
567.19	60704.13
567.36	60453.70
567.52	60383.48
567.68	60811.80
567.85	60701.79
568.01	60573.06
568.17	60673.71
568.34	60781.37
568.50	60654.98
568.66	60591.79
568.83	60786.05
568.99	60530.93
569.15	60645.62
569.32	60631.58
569.48	60626.90
569.64	60851.59
569.81	60835.20
569.97	60535.62
570.13	60657.32
570.30	60432.63
570.46	60807.12
570.62	60807.12
570.78	60711.16
570.95	60746.26
571.11	60966.27
571.27	60638.60
571.43	60835.20
571.60	60790.73
571.76	60933.51
571.92	61022.45
572.09	60956.91
572.25	60898.40
572.41	60753.29
572.57	60987.34
572.74	60940.53
572.90	60858.61
573.06	61179.26
573.22	60736.90
573.38	60802.44
573.55	60889.04
573.71	61141.81
573.87	60942.87
574.03	60860.95
574.20	60769.67
574.36	60926.49
574.52	60938.19
574.68	60870.31
574.84	61059.90
575.01	61169.90
575.17	60938.19
575.33	60678.39
575.49	60961.59
575.65	61006.06
575.82	61087.98
575.98	61183.94
576.14	61300.97
576.30	61071.60
576.46	60956.91
576.62	60795.42
576.79	60926.49
576.95	61001.38
577.11	61256.50
577.27	61055.21
577.43	61214.37
577.59	60832.86
577.75	61160.54
577.92	60905.42
578.08	61092.66
578.24	61064.58
578.40	61153.52
578.56	61165.22
578.72	61064.58
578.88	61200.33
579.04	61317.35
579.21	60961.59
579.37	61261.18
579.53	61286.93
579.69	60917.12
579.85	60860.95
580.01	61090.32
580.17	60849.25
580.33	61223.73
580.49	61186.28
580.65	61205.01
580.82	61008.40
580.98	61043.51
581.14	60865.63
581.30	61331.40
581.46	61120.75
581.62	61371.19
581.78	61102.03
581.94	61263.52
582.10	61190.97
582.26	61179.26
582.42	61221.39
582.58	61130.11
582.74	61057.56
582.90	61207.35
583.06	61144.16
583.22	61031.81
583.38	61052.87
583.54	61258.84
583.70	61235.44
583.86	61237.78
584.02	61045.85
584.18	61298.63
584.34	61312.67
584.50	61380.55
584.66	61155.86
584.82	61010.74
584.98	61329.06
585.14	61193.31
585.30	61153.52
585.46	61284.59
585.62	61474.17
585.78	61275.22
585.94	60942.87
586.10	61181.60
586.26	61160.54
586.42	61275.22
586.58	61315.01
586.74	61387.57
586.90	61125.43
587.06	61078.62
587.22	61502.26
587.38	61378.21
587.54	61441.40
587.70	61607.58
587.86	61375.87
588.02	61216.71
588.18	61546.73
588.34	61396.93
588.49	61413.32
