SpectraSuite Data File
++++++++++++++++++++++++++++++++++++
Date: Fri Oct 25 11:33:58 EDT 2013
User: price-jones
Dark Spectrum Present: No
Reference Spectrum Present: No
Number of Sampled Component Spectra: 1
Spectrometers: USB2+H05261
Integration Time (usec): 100000 (USB2+H05261)
Spectra Averaged: 1 (USB2+H05261)
Boxcar Smoothing: 0 (USB2+H05261)
Correct for Electrical Dark: No (USB2+H05261)
Strobe/Lamp Enabled: No (USB2+H05261)
Correct for Detector Non-linearity: No (USB2+H05261)
Correct for Stray Light: No (USB2+H05261)
Number of Pixels in Processed Spectrum: 2048
>>>>>Begin Processed Spectral Data<<<<<
365.73	304.27
365.92	304.27
366.12	304.27
366.32	196.60
366.52	210.65
366.72	212.99
366.91	168.52
367.11	177.88
367.31	175.54
367.51	182.56
367.70	147.45
367.90	198.95
368.10	161.50
368.30	128.73
368.49	189.58
368.69	184.90
368.89	196.60
369.09	173.20
369.28	217.67
369.48	273.84
369.68	222.35
369.87	243.42
370.07	201.29
370.27	250.44
370.47	369.80
370.66	360.44
370.86	503.22
371.06	521.94
371.25	547.69
371.45	533.64
371.65	552.37
371.84	479.81
372.04	507.90
372.24	566.41
372.44	571.09
372.63	585.13
372.83	620.24
373.03	624.92
373.22	657.69
373.42	599.18
373.62	674.07
373.81	613.22
374.01	667.05
374.21	688.12
374.40	643.65
374.60	683.44
374.79	622.58
374.99	629.60
375.19	683.44
375.38	627.26
375.58	685.78
375.78	671.73
375.97	648.33
376.17	739.61
376.37	678.76
376.56	704.50
376.76	704.50
376.95	706.84
377.15	709.18
377.35	727.91
377.54	741.95
377.74	706.84
377.93	657.69
378.13	727.91
378.33	713.86
378.52	704.50
378.72	667.05
378.91	634.29
379.11	713.86
379.31	709.18
379.50	718.54
379.70	720.88
379.89	779.40
380.09	795.78
380.28	753.65
380.48	709.18
380.68	709.18
380.87	755.99
381.07	814.51
381.26	788.76
381.46	744.29
381.65	727.91
381.85	765.36
382.04	767.70
382.24	770.04
382.43	727.91
382.63	770.04
382.83	814.51
383.02	716.20
383.22	807.48
383.41	732.59
383.61	814.51
383.80	858.98
384.00	805.14
384.19	741.95
384.39	823.87
384.58	835.57
384.78	870.68
384.97	863.66
385.17	830.89
385.36	866.00
385.56	861.32
385.75	830.89
385.95	849.61
386.14	940.90
386.34	823.87
386.53	887.06
386.72	889.40
386.92	842.59
387.11	887.06
387.31	851.96
387.50	842.59
387.70	856.64
387.89	873.02
388.09	863.66
388.28	910.47
388.48	800.46
388.67	896.43
388.86	917.49
389.06	889.40
389.25	947.92
389.45	1008.77
389.64	976.00
389.84	912.81
390.03	887.06
390.22	905.79
390.42	1011.11
390.61	1027.50
390.81	1008.77
391.00	1027.50
391.19	1006.43
391.39	973.66
391.58	987.71
391.78	1027.50
391.97	1022.81
392.16	1018.13
392.36	1034.52
392.55	1069.62
392.75	1114.10
392.94	966.64
393.13	1025.15
393.33	1057.92
393.52	1071.97
393.71	1064.94
393.91	1078.99
394.10	1011.11
394.29	1158.57
394.49	1078.99
394.68	1139.84
394.88	1123.46
395.07	1153.88
395.26	1111.75
395.46	1146.86
395.65	1151.54
395.84	1146.86
396.04	1214.74
396.23	1090.69
396.42	1219.42
396.62	1177.29
396.81	1196.01
397.00	1160.91
397.19	1259.21
397.39	1287.29
397.58	1252.19
397.77	1212.40
397.97	1242.82
398.16	1249.85
398.35	1259.21
398.55	1228.78
398.74	1249.85
398.93	1404.32
399.12	1256.87
399.32	1268.57
399.51	1266.23
399.70	1364.53
399.90	1355.17
400.09	1266.23
400.28	1376.24
400.47	1383.26
400.67	1409.00
400.86	1406.66
401.05	1303.68
401.24	1453.47
401.44	1423.05
401.63	1437.09
401.82	1401.98
402.01	1345.81
402.21	1481.56
402.40	1521.35
402.59	1509.65
402.78	1540.07
402.97	1547.09
403.17	1500.28
403.36	1462.83
403.55	1523.69
403.74	1563.48
403.93	1570.50
404.13	1511.99
404.32	1535.39
404.51	1640.72
404.70	1603.27
404.89	1593.90
405.09	1696.89
405.28	1614.97
405.47	1666.46
405.66	1657.10
405.85	1666.46
406.05	1746.04
406.24	1710.93
406.43	1636.03
406.62	1774.13
406.81	1806.89
407.00	1837.32
407.20	1717.95
407.39	1816.26
407.58	1797.53
407.77	1802.21
407.96	1806.89
408.15	1898.17
408.34	1851.36
408.54	1928.60
408.73	1987.11
408.92	1870.09
409.11	1905.20
409.30	2008.18
409.49	2066.69
409.68	2064.35
409.87	1996.48
410.07	1928.60
410.26	2118.18
410.45	2010.52
410.64	2059.67
410.83	2183.72
411.02	2125.21
411.21	2125.21
411.40	2104.14
411.59	2181.38
411.78	2097.12
411.98	2155.63
412.17	2188.40
412.36	2289.04
412.55	2319.47
412.74	2361.60
412.93	2298.41
413.12	2263.30
413.31	2572.25
413.50	2424.80
413.69	2382.67
413.88	2530.12
414.07	2572.25
414.26	2480.97
414.45	2476.29
414.64	2525.44
414.83	2572.25
415.02	2651.83
415.22	2693.96
415.41	2560.55
415.60	2537.14
415.79	2630.76
415.98	2747.79
416.17	2857.79
416.36	2640.12
416.55	2642.46
416.74	2738.43
416.93	2757.15
417.12	2864.82
417.31	2832.05
417.50	2712.68
417.69	3105.89
417.88	2993.55
418.07	2925.67
418.26	2913.97
418.45	2906.95
418.64	3035.67
418.83	2920.99
419.02	3007.59
419.21	3073.12
419.39	2956.10
419.58	2967.80
419.77	3056.74
419.96	3098.87
420.15	3105.89
420.34	3199.51
420.53	3169.09
420.72	3302.50
420.91	3255.69
421.10	3215.90
421.29	3286.11
421.48	3159.72
421.67	3265.05
421.86	3281.43
422.05	3169.09
422.24	3351.65
422.43	3393.78
422.61	3344.63
422.80	3375.05
422.99	3311.86
423.18	3365.69
423.37	3389.10
423.56	3391.44
423.75	3431.23
423.94	3323.56
424.13	3213.56
424.32	3108.23
424.50	3346.97
424.69	3524.85
424.88	3501.44
425.07	3304.84
425.26	3449.95
425.45	3424.20
425.64	3393.78
425.83	3332.92
426.01	3588.04
426.20	3478.04
426.39	3482.72
426.58	3489.74
426.77	3574.00
426.96	3445.27
427.15	3473.36
427.33	3564.64
427.52	3543.57
427.71	3520.17
427.90	3524.85
428.09	3604.42
428.28	3712.09
428.46	3674.64
428.65	3695.71
428.84	3819.75
429.03	3941.46
429.22	3655.92
429.40	3723.79
429.59	3655.92
429.78	3606.77
429.97	3595.06
430.16	3681.66
430.34	3824.44
430.53	3861.88
430.72	3918.06
430.91	3861.88
431.10	3822.09
431.28	3953.16
431.47	3899.33
431.66	3946.14
431.85	3894.65
432.03	4159.13
432.22	4238.71
432.41	4067.85
432.60	4107.64
432.79	4063.17
432.97	4124.02
433.16	4074.87
433.35	4018.70
433.54	4231.69
433.72	4187.22
433.91	4140.41
434.10	4243.39
434.28	4163.81
434.47	4250.41
434.66	4257.43
434.85	4313.61
435.03	4393.19
435.22	4346.37
435.41	4245.73
435.59	4393.19
435.78	4367.44
435.97	4294.88
436.16	4322.97
436.34	4273.82
436.53	4547.66
436.72	4528.94
436.90	4437.66
437.09	4444.68
437.28	4313.61
437.46	4395.53
437.65	4547.66
437.84	4620.22
438.02	4566.39
438.21	4454.04
438.40	4606.17
438.58	4734.90
438.77	4858.95
438.96	4643.62
439.14	4648.30
439.33	4702.14
439.52	4828.53
439.70	4828.53
439.89	4929.17
440.08	4856.61
440.26	4919.81
440.45	4952.57
440.63	5102.37
440.82	5198.33
441.01	5048.54
441.19	5090.67
441.38	5198.33
441.57	5207.69
441.75	5305.99
441.94	5350.46
442.12	5294.29
442.31	5586.86
442.50	5334.08
442.68	5313.02
442.87	5474.51
443.05	5425.36
443.24	5509.62
443.43	5535.37
443.61	5481.53
443.80	5790.49
443.98	5434.72
444.17	5308.34
444.35	5561.11
444.54	5659.42
444.73	5654.73
444.91	5458.13
445.10	5500.26
445.28	5558.77
445.47	5507.28
445.65	5586.86
445.84	5834.96
446.02	5734.31
446.21	5717.93
446.39	5657.07
446.58	5746.02
446.77	5598.56
446.95	5533.03
447.14	5774.10
447.32	5680.48
447.51	5661.76
447.69	5825.59
447.88	5636.01
448.06	5584.52
448.25	5881.77
448.43	5884.11
448.62	5785.80
448.80	5570.48
448.99	5760.06
449.17	5881.77
449.36	5884.11
449.54	5891.13
449.73	5666.44
449.91	6003.47
450.10	6008.16
450.28	6129.86
450.46	6033.90
450.65	6022.20
450.83	6176.67
451.02	6150.93
451.20	6071.35
451.39	5926.24
451.57	6176.67
451.76	6073.69
451.94	6221.14
452.13	6291.36
452.31	6314.77
452.49	6174.33
452.68	6504.35
452.86	6183.70
453.05	6277.32
453.23	6502.01
453.42	6242.21
453.60	6223.48
453.78	6464.56
453.97	6466.90
454.15	6417.75
454.34	6244.55
454.52	6546.48
454.70	6541.80
454.89	6382.64
455.07	6595.63
455.26	6616.69
455.44	6932.67
455.62	6689.25
455.81	6623.72
455.99	6623.72
456.17	6551.16
456.36	6815.64
456.54	6944.37
456.73	6956.07
456.91	7049.69
457.09	6937.35
457.28	7150.34
457.46	6935.01
457.64	6984.16
457.83	7112.89
458.01	7049.69
458.19	7082.46
458.38	7126.93
458.56	7267.36
458.74	6974.80
458.93	7129.27
459.11	7054.37
459.29	7234.60
459.48	7145.66
459.66	7073.10
459.84	7295.45
460.03	7300.13
460.21	7185.44
460.39	7227.57
460.57	7454.61
460.76	7360.98
460.94	7578.65
461.12	7499.08
461.31	7421.84
461.49	7272.04
461.67	7520.14
461.85	7438.22
462.04	7620.78
462.22	7962.50
462.40	7597.38
462.59	7543.55
462.77	7644.19
462.95	7859.52
463.13	7744.83
463.32	7782.28
463.50	7756.54
463.68	7925.05
463.86	8032.72
464.05	7859.52
464.23	7826.75
464.41	7946.12
464.59	7747.17
464.78	8042.08
464.96	7744.83
465.14	7803.35
465.32	8060.80
465.50	8063.15
465.69	8011.65
465.87	8109.96
466.05	8126.34
466.23	8175.49
466.41	8009.31
466.60	8456.36
466.78	8037.40
466.96	8004.63
467.14	8124.00
467.32	8238.69
467.51	8341.67
467.69	8128.68
467.87	8301.88
468.05	8301.88
468.23	8379.12
468.41	8271.45
468.60	8173.15
468.78	8521.89
468.96	8336.99
469.14	8582.74
469.32	8500.83
469.50	8313.58
469.69	8362.73
469.87	8762.97
470.05	8788.71
470.23	8744.24
470.41	8802.75
470.59	8840.20
470.77	8659.98
470.95	8655.30
471.14	9055.53
471.32	8781.69
471.50	8798.07
471.68	9071.92
471.86	9057.87
472.04	9083.62
472.22	9378.53
472.40	8992.34
472.58	9193.62
472.77	9097.66
472.95	9280.22
473.13	9476.83
473.31	9153.84
473.49	9404.27
473.67	9317.67
473.85	9586.83
474.03	9792.80
474.21	9631.30
474.39	9809.19
474.57	9687.48
474.75	9804.50
474.93	9870.04
475.12	9844.29
475.30	9837.27
475.48	9954.30
475.66	10176.65
475.84	10043.24
476.02	10272.61
476.20	10176.65
476.38	10434.11
476.56	10602.63
476.74	10370.91
476.92	10338.15
477.10	10560.50
477.28	10602.63
477.46	10527.73
477.64	10829.66
477.82	10897.53
478.00	11241.59
478.18	10972.43
478.36	10876.47
478.54	11248.61
478.72	11159.67
478.90	11234.57
479.08	11435.86
479.26	11470.97
479.44	11562.25
479.62	11513.10
479.80	11817.36
479.98	11925.03
480.16	12147.38
480.34	11700.34
480.52	12250.36
480.70	12131.00
480.88	12119.29
481.06	12306.54
481.24	12421.22
481.41	12486.76
481.59	12692.73
481.77	12463.35
481.95	12737.20
482.13	12830.82
482.31	12711.45
482.49	13275.52
482.67	13139.77
482.85	13465.10
483.03	13373.82
483.21	13598.51
483.39	13661.71
483.57	13490.85
483.74	13673.41
483.92	13881.72
484.10	13827.88
484.28	14230.46
484.46	14291.31
484.64	14389.61
484.82	14623.67
485.00	14445.79
485.18	14736.01
485.35	15232.21
485.53	14602.60
485.71	15044.96
485.89	15417.11
486.07	15370.30
486.25	15269.66
486.43	15337.53
486.61	15480.30
486.78	15487.32
486.96	15889.90
487.14	16060.76
487.32	15866.49
487.50	16173.10
487.68	16395.45
487.85	16453.97
488.03	16561.63
488.21	16865.90
488.39	16821.43
488.57	17132.72
488.75	16720.79
488.92	17186.55
489.10	17504.87
489.28	17483.80
489.46	17544.66
489.64	17776.37
489.81	17968.29
489.99	18075.96
490.17	18092.34
490.35	18373.21
490.53	18558.11
490.70	18188.30
490.88	18490.23
491.06	18611.94
491.24	18672.79
491.41	18714.92
491.59	18836.63
491.77	19091.75
491.95	19225.16
492.13	19552.84
492.30	19550.49
492.48	19590.28
492.66	19442.83
492.84	19892.21
493.01	20020.94
493.19	20182.44
493.37	19955.41
493.54	20116.90
493.72	20786.30
493.90	20423.51
494.08	20332.23
494.25	20961.84
494.43	20709.06
494.61	21181.85
494.79	21062.48
494.96	21296.53
495.14	21434.63
495.32	21806.77
495.49	21219.30
495.67	21799.75
495.85	22038.48
496.02	22036.14
496.20	22324.03
496.38	22101.68
496.55	22214.02
496.73	22625.96
496.91	22579.15
497.09	22396.59
497.26	22792.14
497.44	22735.96
497.62	22792.14
497.79	23276.63
497.97	23346.84
498.14	23229.82
498.32	23475.57
498.50	23414.72
498.67	23819.63
498.85	23550.47
499.03	23817.29
499.20	23896.87
499.38	23936.66
499.56	24002.19
499.73	24341.57
499.91	24491.37
500.08	24353.27
500.26	24549.88
500.44	24706.70
500.61	24617.75
500.79	24580.31
500.97	24725.42
501.14	25158.42
501.32	25277.79
501.49	25053.09
501.67	25340.98
501.84	25256.72
502.02	25275.45
502.20	25458.01
502.37	25090.54
502.55	25439.28
502.72	25638.23
502.90	25565.67
503.07	25579.71
503.25	25804.41
503.43	25509.50
503.60	26094.63
503.78	26148.46
503.95	26040.80
504.13	25851.22
504.30	26445.71
504.48	26253.79
504.65	27051.91
504.83	26436.35
505.01	27007.44
505.18	26508.91
505.36	26792.11
505.53	26639.98
505.71	27033.19
505.88	27304.69
506.06	27147.87
506.23	27253.20
506.41	27388.95
506.58	27557.47
506.76	27206.39
506.93	27908.55
507.11	27517.68
507.28	27751.73
507.46	27920.25
507.63	28102.81
507.81	28196.43
507.98	28343.89
508.16	28086.43
508.33	28685.61
508.50	28231.54
508.68	28360.27
508.85	28517.09
509.03	28739.44
509.20	28783.91
509.38	29053.07
509.55	29071.79
509.73	29057.75
509.90	29420.53
510.08	29294.14
510.25	29308.19
510.42	29336.27
510.60	29596.07
510.77	29797.36
510.95	29390.11
511.12	29385.43
511.30	29710.76
511.47	29839.49
511.64	29773.95
511.82	29916.73
511.99	29919.07
512.17	30089.93
512.34	30216.32
512.51	30572.08
512.69	30632.93
512.86	30419.94
513.04	30576.76
513.21	30597.82
513.38	30485.48
513.56	30866.98
513.73	31044.87
513.90	31009.76
514.08	30780.39
514.25	31309.35
514.43	31182.96
514.60	31618.30
514.77	31229.77
514.95	31494.25
515.12	31613.62
515.29	31571.49
515.47	31854.69
515.64	31770.43
515.81	31386.58
515.99	31960.02
516.16	32053.64
516.33	31967.04
516.51	31857.03
516.68	32287.69
516.85	32074.70
517.03	32374.29
517.20	32091.09
517.37	32116.83
517.54	32332.16
517.72	32811.97
517.89	32496.00
518.06	32411.74
518.24	32718.35
518.41	33057.73
518.58	32966.45
518.75	32727.71
518.93	33413.49
519.10	33116.24
519.27	33151.35
519.45	32950.06
519.62	33645.20
519.79	33556.26
519.96	33429.87
520.14	33301.14
520.31	33291.78
520.48	33586.69
520.65	33855.85
520.83	33989.26
521.00	34017.35
521.17	33792.65
521.34	34094.58
521.52	34085.22
521.69	34267.78
521.86	34132.03
522.03	34607.16
522.20	34684.40
522.38	34682.06
522.55	34417.58
522.72	34614.18
522.89	34637.59
523.07	35000.37
523.24	34888.03
523.41	35213.36
523.58	34759.30
523.75	34993.35
523.92	35152.51
524.10	35138.46
524.27	35405.28
524.44	35253.15
524.61	35440.39
524.78	35566.78
524.96	35578.48
525.13	35887.43
525.30	35821.90
525.47	35772.75
525.64	36144.89
525.81	35852.33
525.98	36123.83
526.16	35978.72
526.33	35885.09
526.50	36423.42
526.67	36297.03
526.84	36226.81
527.01	36196.38
527.18	36158.94
527.36	36503.00
527.53	36676.19
527.70	36893.86
527.87	36446.82
528.04	36664.49
528.21	36456.18
528.38	36849.39
528.55	36996.85
528.72	36854.08
528.89	37008.55
529.07	36926.63
529.24	36802.58
529.41	37305.80
529.58	36924.29
529.75	37352.61
529.92	37053.02
530.09	36837.69
530.26	37511.77
530.43	37244.94
530.60	37102.17
530.77	37413.46
530.94	37600.71
531.11	37509.43
531.28	37708.37
531.46	37607.73
531.63	37776.25
531.80	37762.20
531.97	38012.64
532.14	38230.31
532.31	38139.03
532.48	37984.55
532.65	38277.12
532.82	38340.32
532.99	38363.72
533.16	38024.34
533.33	38457.34
533.50	38279.46
533.67	38298.19
533.84	37977.53
534.01	38642.24
534.18	38579.05
534.35	38675.01
534.52	38763.95
534.69	39145.46
534.86	38789.70
535.03	38796.72
535.20	38906.73
535.37	39105.67
535.54	39206.31
535.71	39166.52
535.88	39463.77
536.05	39260.15
536.22	39157.16
536.38	39225.04
536.55	39248.44
536.72	39627.61
536.89	39377.17
537.06	38988.64
537.23	39550.37
537.40	39370.15
537.57	39791.45
537.74	39587.82
537.91	39894.43
538.08	39779.74
538.25	39821.87
538.42	39817.19
538.59	40219.77
538.75	39981.03
538.92	40119.12
539.09	40044.23
539.26	39894.43
539.43	39992.73
539.60	40191.68
539.77	40414.03
539.94	40624.68
540.11	39948.26
540.28	40339.13
540.44	40591.91
540.61	40509.99
540.78	40582.55
540.95	40582.55
541.12	40484.25
541.29	40479.57
541.46	40657.45
541.62	41170.02
541.79	40818.94
541.96	40439.78
542.13	40463.18
542.30	40545.10
542.47	40500.63
542.63	40903.20
542.80	41277.69
542.97	41298.75
543.14	41549.19
543.31	41483.66
543.48	41092.79
543.64	42375.40
543.81	41689.62
543.98	41493.02
544.15	41434.50
544.32	41823.03
544.48	42286.46
544.65	42014.96
544.82	42202.20
544.99	41387.69
545.16	42110.92
545.32	42429.23
545.49	41944.74
545.66	42080.49
545.83	41872.18
546.00	42447.96
546.16	42047.72
546.33	42272.42
546.50	41745.80
546.67	42188.16
546.83	41551.53
547.00	42309.86
547.17	42459.66
547.34	42122.62
547.50	42703.07
547.67	42946.49
547.84	42562.64
548.00	42597.75
548.17	43086.92
548.34	42780.31
548.51	42895.00
548.67	42918.40
548.84	43309.27
549.01	43068.20
549.18	43096.28
549.34	43571.41
549.51	43033.09
549.68	42700.73
549.84	42777.97
550.01	43192.25
550.18	42869.25
550.34	43133.73
550.51	43430.98
550.68	43365.45
550.84	43276.51
551.01	43353.74
551.18	43360.76
551.34	43576.09
551.51	43194.59
551.68	43950.58
551.84	43278.85
552.01	43594.82
552.18	42920.74
552.34	42953.51
552.51	43503.54
552.68	43358.42
552.84	43454.39
553.01	43950.58
553.18	43468.43
553.34	43950.58
553.51	43690.78
553.67	43985.69
553.84	44266.55
554.01	44364.85
554.17	43800.79
554.34	44257.19
554.51	44023.14
554.67	44018.46
554.84	44477.20
555.00	44184.63
555.17	44285.28
555.33	44156.55
555.50	44212.72
555.67	44119.10
555.83	44240.81
556.00	44549.76
556.16	44561.46
556.33	44980.42
556.50	44587.21
556.66	44306.34
556.83	43959.94
556.99	44603.59
557.16	44732.32
557.32	44538.05
557.49	44804.88
557.65	44418.69
557.82	44982.76
557.98	44566.14
558.15	44744.02
558.32	44935.95
558.48	44980.42
558.65	44982.76
558.81	44900.84
558.98	44781.47
559.14	44437.41
559.31	45041.27
559.47	44914.88
559.64	44432.73
559.80	45184.04
559.97	45387.67
560.13	44542.74
560.30	44886.79
560.46	45277.66
560.63	45226.17
560.79	45221.49
560.96	45219.15
561.12	45404.05
561.29	45326.81
561.45	45509.38
561.61	45668.53
561.78	45240.21
561.94	45418.10
562.11	45118.51
562.27	45500.01
562.44	45139.57
562.60	45624.06
562.77	45455.54
562.93	45422.78
563.10	45628.74
563.26	45338.52
563.42	45811.31
563.59	45287.03
563.75	45326.81
563.92	45560.87
564.08	45640.45
564.24	45600.66
564.41	45633.42
564.57	45965.78
564.74	45792.58
564.90	45390.01
565.07	45310.43
565.23	45759.81
565.39	45614.70
565.56	46043.02
565.72	45525.76
565.88	45773.86
566.05	45546.82
566.21	46040.68
566.38	45738.75
566.54	45904.93
566.70	46045.36
566.87	46031.32
567.03	45879.18
567.19	46447.93
567.36	45560.87
567.52	45869.82
567.68	46220.90
567.85	46021.95
568.01	46007.91
568.17	46003.23
568.34	46307.50
568.50	45986.85
568.66	45502.35
568.83	46323.88
568.99	46054.72
569.15	45972.80
569.32	45827.69
569.48	45591.30
569.64	46277.07
569.81	46548.57
569.97	46597.73
570.13	46185.79
570.30	46073.45
570.46	46490.06
570.62	46459.63
570.78	45893.22
570.95	46382.40
571.11	46466.66
571.27	46234.94
571.43	46197.49
571.60	45963.44
571.76	46115.58
571.92	46181.11
572.09	46146.00
572.25	46251.33
572.41	46075.79
572.57	46113.23
572.74	46962.85
572.90	46429.21
573.06	46574.32
573.22	46609.43
573.38	46398.78
573.55	46630.49
573.71	46749.86
573.87	46457.29
574.03	46518.15
574.20	46782.63
574.36	46595.38
574.52	46632.83
574.68	46368.35
574.84	47023.70
575.01	46946.47
575.17	46934.76
575.33	46747.52
575.49	46543.89
575.65	47154.77
575.82	46843.48
575.98	46195.15
576.14	46616.45
576.30	46990.94
576.46	46618.79
576.62	46326.22
576.79	47019.02
576.95	46248.99
577.11	46576.66
577.27	46473.68
577.43	46569.64
577.59	46445.59
577.75	46309.84
577.92	46120.26
578.08	46536.87
578.24	46813.05
578.40	46777.95
578.56	46930.08
578.72	46909.02
578.88	46850.50
579.04	46389.42
579.21	46763.90
579.37	46485.38
579.53	46759.22
579.69	46595.38
579.85	46405.80
580.01	46686.67
580.17	46674.96
580.33	46862.21
580.49	46883.27
580.65	46883.27
580.82	46590.70
580.98	46969.87
581.14	46749.86
581.30	47105.62
581.46	46759.22
581.62	46763.90
581.78	46817.74
581.94	47344.36
582.10	47000.30
582.26	47250.74
582.42	46803.69
582.58	46602.41
582.74	46267.71
582.90	46703.05
583.06	46829.44
583.22	46637.51
583.38	47168.82
583.54	46960.51
583.70	47166.48
583.86	46817.74
584.02	47140.73
584.18	47629.90
584.34	47330.31
584.50	47159.45
584.66	47239.03
584.82	46934.76
584.98	46983.91
585.14	47107.96
585.30	46745.18
585.46	47255.42
585.62	46351.97
585.78	47040.09
585.94	46953.49
586.10	47063.49
586.26	46452.61
586.42	46689.01
586.58	47068.17
586.74	47019.02
586.90	46604.75
587.06	46670.28
587.22	47129.03
587.38	46897.31
587.54	47143.07
587.70	47416.91
587.86	47227.33
588.02	47145.41
588.18	46705.39
588.34	46850.50
588.49	46967.53
588.65	46939.44
588.81	47049.45
588.97	46906.68
589.13	46754.54
589.29	47164.14
589.45	47229.67
589.61	47012.00
589.77	47098.60
589.93	47161.79
