SpectraSuite Data File
++++++++++++++++++++++++++++++++++++
Date: Fri Oct 25 11:26:02 EDT 2013
User: price-jones
Dark Spectrum Present: No
Reference Spectrum Present: No
Number of Sampled Component Spectra: 1
Spectrometers: USB2+H05261
Integration Time (usec): 100000 (USB2+H05261)
Spectra Averaged: 1 (USB2+H05261)
Boxcar Smoothing: 0 (USB2+H05261)
Correct for Electrical Dark: No (USB2+H05261)
Strobe/Lamp Enabled: No (USB2+H05261)
Correct for Detector Non-linearity: No (USB2+H05261)
Correct for Stray Light: No (USB2+H05261)
Number of Pixels in Processed Spectrum: 2048
>>>>>Begin Processed Spectral Data<<<<<
365.73	276.18
365.92	276.18
366.12	276.18
366.32	117.03
366.52	156.82
366.72	163.84
366.91	182.56
367.11	147.45
367.31	135.75
367.51	238.73
367.70	131.07
367.90	145.11
368.10	93.62
368.30	110.01
368.49	152.13
368.69	163.84
368.89	248.10
369.09	156.82
369.28	187.24
369.48	180.22
369.68	187.24
369.87	212.99
370.07	140.43
370.27	243.42
370.47	325.33
370.66	589.82
370.86	550.03
371.06	634.29
371.25	580.45
371.45	725.57
371.65	702.16
371.84	650.67
372.04	650.67
372.24	737.27
372.44	760.67
372.63	746.63
372.83	730.25
373.03	770.04
373.22	739.61
373.42	833.23
373.62	676.41
373.81	791.10
374.01	823.87
374.21	826.21
374.40	814.51
374.60	875.36
374.79	767.70
374.99	739.61
375.19	795.78
375.38	826.21
375.58	816.85
375.78	847.27
375.97	891.74
376.17	908.13
376.37	823.87
376.56	910.47
376.76	903.45
376.95	905.79
377.15	896.43
377.35	910.47
377.54	887.06
377.74	887.06
377.93	898.77
378.13	889.40
378.33	887.06
378.52	1001.75
378.72	950.26
378.91	976.00
379.11	894.08
379.31	917.49
379.50	912.81
379.70	978.34
379.89	1004.09
380.09	992.39
380.28	990.05
380.48	1034.52
380.68	1008.77
380.87	1060.26
381.07	980.68
381.26	1076.65
381.46	1025.15
381.65	1090.69
381.85	1013.45
382.04	1064.94
382.24	1128.14
382.43	1074.31
382.63	1137.50
382.83	1086.01
383.02	1095.37
383.22	1095.37
383.41	1100.05
383.61	1060.26
383.80	1128.14
384.00	1071.97
384.19	1057.92
384.39	1109.41
384.58	1181.97
384.78	1198.35
384.97	1214.74
385.17	1064.94
385.36	1132.82
385.56	1210.06
385.75	1111.75
385.95	1254.53
386.14	1207.72
386.34	1235.80
386.53	1203.04
386.72	1210.06
386.92	1249.85
387.11	1287.29
387.31	1212.40
387.50	1315.38
387.70	1299.00
387.89	1184.31
388.09	1252.19
388.28	1308.36
388.48	1350.49
388.67	1261.55
388.86	1277.93
389.06	1336.45
389.25	1364.53
389.45	1397.30
389.64	1357.51
389.84	1418.36
390.03	1409.00
390.22	1409.00
390.42	1287.29
390.61	1343.47
390.81	1397.30
391.00	1394.96
391.19	1455.81
391.39	1397.30
391.58	1472.20
391.78	1462.83
391.97	1490.92
392.16	1476.88
392.36	1533.05
392.55	1469.86
392.75	1577.52
392.94	1472.20
393.13	1607.95
393.33	1437.09
393.52	1509.65
393.71	1638.38
393.91	1511.99
394.10	1605.61
394.29	1652.42
394.49	1528.37
394.68	1661.78
394.88	1612.63
395.07	1748.38
395.26	1661.78
395.46	1654.76
395.65	1715.61
395.84	1771.79
396.04	1741.36
396.23	1837.32
396.42	1689.87
396.62	1724.97
396.81	1823.28
397.00	1811.57
397.19	1734.34
397.39	1834.98
397.58	1837.32
397.77	1874.77
397.97	1856.04
398.16	1916.90
398.35	1980.09
398.55	1811.57
398.74	1928.60
398.93	2069.03
399.12	2001.16
399.32	1907.54
399.51	1912.22
399.70	2064.35
399.90	1952.01
400.09	2031.58
400.28	1991.80
400.47	2071.37
400.67	2050.31
400.86	2022.22
401.05	2232.87
401.24	2160.31
401.44	2193.08
401.63	2141.59
401.82	2204.78
402.01	2186.06
402.21	2115.84
402.40	2125.21
402.59	2263.30
402.78	2209.47
402.97	2211.81
403.17	2239.89
403.36	2230.53
403.55	2286.70
403.74	2363.94
403.93	2429.48
404.13	2291.38
404.32	2396.71
404.51	2246.91
404.70	2370.96
404.89	2469.27
405.09	2469.27
405.28	2459.90
405.47	2532.46
405.66	2551.18
405.85	2410.75
406.05	2495.01
406.24	2551.18
406.43	2551.18
406.62	2656.51
406.81	2651.83
407.00	2459.90
407.20	2654.17
407.39	2715.02
407.58	2614.38
407.77	2813.32
407.96	2729.06
408.15	2810.98
408.34	2806.30
408.54	2775.88
408.73	2738.43
408.92	2766.51
409.11	2799.28
409.30	2902.26
409.49	2965.46
409.68	2979.50
409.87	3000.57
410.07	3059.08
410.26	2951.42
410.45	2920.99
410.64	2991.20
410.83	3047.38
411.02	3136.32
411.21	3162.06
411.40	3061.42
411.59	3171.43
411.78	3197.17
411.98	3194.83
412.17	3295.47
412.36	3424.20
412.55	3272.07
412.74	3372.71
412.93	3365.69
413.12	3421.86
413.31	3442.93
413.50	3552.93
413.69	3508.46
413.88	3623.15
414.07	3555.27
414.26	3630.17
414.45	3700.39
414.64	3756.56
414.83	3815.07
415.02	3730.81
415.22	3803.37
415.41	3875.93
415.60	3871.25
415.79	3936.78
415.98	3913.38
416.17	3852.52
416.36	3971.89
416.55	3845.50
416.74	4149.77
416.93	4004.66
417.12	4170.83
417.31	4102.96
417.50	4198.92
417.69	4255.09
417.88	4236.37
418.07	4320.63
418.26	4128.70
418.45	4334.67
418.64	4493.83
418.83	4440.00
419.02	4341.69
419.21	4348.72
419.39	4564.04
419.58	4404.89
419.77	4353.40
419.96	4521.92
420.15	4540.64
420.34	4594.47
420.53	4564.04
420.72	4624.90
420.91	4538.30
421.10	4758.31
421.29	4802.78
421.48	4685.75
421.67	4718.52
421.86	4858.95
422.05	4725.54
422.24	4798.10
422.43	4947.89
422.61	4954.91
422.80	4894.06
422.99	4826.18
423.18	4959.60
423.37	4854.27
423.56	4823.84
423.75	4873.00
423.94	4851.93
424.13	4585.11
424.32	4793.42
424.50	4975.98
424.69	5142.16
424.88	5078.96
425.07	4971.30
425.26	4947.89
425.45	4919.81
425.64	4952.57
425.83	5048.54
426.01	5095.35
426.20	5130.45
426.39	4971.30
426.58	4964.28
426.77	4898.74
426.96	4983.00
427.15	5013.43
427.33	5207.69
427.52	5366.85
427.71	5329.40
427.90	5172.58
428.09	5462.81
428.28	5423.02
428.46	5291.95
428.65	5315.36
428.84	5430.04
429.03	5551.75
429.22	5256.84
429.40	5469.83
429.59	5420.68
429.78	5411.32
429.97	5336.42
430.16	5554.09
430.34	5699.20
430.53	5507.28
430.72	5774.10
430.91	5666.44
431.10	5710.91
431.28	5865.38
431.47	5867.72
431.66	5839.64
431.85	5830.27
432.03	5790.49
432.22	5968.37
432.41	5891.13
432.60	5951.98
432.79	5891.13
432.97	6059.65
433.16	6061.99
433.35	5930.92
433.54	6024.54
433.72	6071.35
433.91	6183.70
434.10	6169.65
434.28	6113.48
434.47	6181.35
434.66	6092.41
434.85	6464.56
435.03	6228.17
435.22	6263.27
435.41	6380.30
435.59	6544.14
435.78	6417.75
435.97	6490.31
436.16	6282.00
436.34	6413.07
436.53	6588.61
436.72	6548.82
436.90	6448.18
437.09	6562.86
437.28	6387.32
437.46	6513.71
437.65	6469.24
437.84	6621.38
438.02	6705.63
438.21	6710.32
438.40	6593.29
438.58	6832.02
438.77	7035.65
438.96	6920.96
439.14	7061.40
439.33	6906.92
439.52	7311.83
439.70	7260.34
439.89	7379.71
440.08	7365.67
440.26	7449.93
440.45	7222.89
440.63	7557.59
440.82	7536.52
441.01	7520.14
441.19	7723.77
441.38	7552.91
441.57	7831.43
441.75	7906.33
441.94	7962.50
442.12	7976.55
442.31	8133.36
442.50	8042.08
442.68	7978.89
442.87	8009.31
443.05	7981.23
443.24	8234.00
443.43	8095.91
443.61	8147.40
443.80	8332.31
443.98	8138.04
444.17	7875.90
444.35	8236.35
444.54	8535.93
444.73	8271.45
444.91	8332.31
445.10	8301.88
445.28	8313.58
445.47	8313.58
445.65	8219.96
445.84	8379.12
446.02	8463.38
446.21	8367.42
446.39	8500.83
446.58	8657.64
446.77	8313.58
446.95	8311.24
447.14	8409.54
447.32	8585.08
447.51	8542.96
447.69	8510.19
447.88	8524.23
448.06	8383.80
448.25	8486.78
448.43	8699.77
448.62	8652.96
448.80	8477.42
448.99	8659.98
449.17	8652.96
449.36	8601.47
449.54	8856.59
449.73	9055.53
449.91	8922.12
450.10	8999.36
450.28	9034.47
450.46	9170.22
450.65	9219.37
450.83	9043.83
451.02	9144.47
451.20	9025.11
451.39	9195.96
451.57	9334.06
451.76	9193.62
451.94	9198.31
452.13	9392.57
452.31	9439.38
452.49	9097.66
452.68	9399.59
452.86	9296.61
453.05	9547.05
453.23	9575.13
453.42	9556.41
453.60	9352.78
453.78	9722.59
453.97	9467.47
454.15	9259.16
454.34	9472.15
454.52	9741.31
454.70	9673.43
454.89	9743.65
455.07	9701.52
455.26	9657.05
455.44	9874.72
455.62	9874.72
455.81	9825.57
455.99	10087.71
456.17	10036.22
456.36	10064.30
456.54	10153.24
456.73	10167.29
456.91	10553.48
457.09	10487.94
457.28	10539.43
457.46	10237.50
457.64	10417.72
457.83	10455.17
458.01	10324.10
458.19	10593.26
458.38	10544.11
458.56	10801.57
458.74	10494.96
458.93	10555.82
459.11	10743.06
459.29	10712.63
459.48	10630.71
459.66	10731.36
459.84	10848.38
460.03	11016.90
460.21	10970.09
460.39	11087.12
460.57	10909.24
460.76	11190.10
460.94	11199.46
461.12	10965.41
461.31	10970.09
461.49	11218.19
461.67	11290.74
461.85	11620.76
462.04	11042.65
462.22	12025.67
462.40	11623.10
462.59	11517.78
462.77	11590.33
462.95	11627.78
463.13	11669.91
463.32	11669.91
463.50	11800.98
463.68	11936.73
463.86	11800.98
464.05	11660.55
464.23	11618.42
464.41	12060.78
464.59	11791.62
464.78	12109.93
464.96	12145.04
465.14	11726.08
465.32	11843.11
465.50	12191.85
465.69	12215.26
465.87	12299.52
466.05	12135.68
466.23	12341.64
466.41	12121.63
466.60	12444.63
466.78	12184.83
466.96	12079.50
467.14	12250.36
467.32	12360.37
467.51	12437.61
467.69	12203.55
467.87	12453.99
468.05	12685.70
468.23	12517.18
468.41	12547.61
468.60	12395.48
468.78	12559.31
468.96	12620.17
469.14	12699.75
469.32	13062.53
469.50	12552.29
469.69	13116.36
469.87	12954.87
470.05	12954.87
470.23	13011.04
470.41	13107.00
470.59	13355.10
470.77	13334.03
470.95	13266.16
471.14	13523.62
471.32	13352.76
471.50	13626.60
471.68	13584.47
471.86	13593.83
472.04	13745.97
472.22	13820.86
472.40	13621.92
472.58	13568.09
472.77	13970.66
472.95	14071.30
473.13	14508.98
473.31	14080.66
473.49	14239.82
473.67	14090.02
473.85	14260.88
474.03	14682.18
474.21	14553.45
474.39	14663.46
474.57	14675.16
474.75	14747.72
474.93	14834.32
475.12	14927.94
475.30	15030.92
475.48	15023.90
475.66	15044.96
475.84	15063.69
476.02	15351.57
476.20	15475.62
476.38	15822.02
476.56	15836.06
476.74	15728.40
476.92	15812.66
477.10	16009.26
477.28	16159.06
477.46	16210.55
477.64	16208.21
477.82	16585.04
478.00	16968.88
478.18	16699.72
478.36	16922.07
478.54	17001.65
478.72	17050.80
478.90	17539.97
479.08	17551.68
479.26	17792.75
479.44	17341.03
479.62	17565.72
479.80	18031.49
479.98	18017.44
480.16	18403.63
480.34	18162.56
480.52	18597.90
480.70	18511.30
480.88	18174.26
481.06	18415.34
481.24	18775.78
481.41	19021.53
481.59	18995.79
481.77	19489.64
481.95	19337.51
482.13	19557.52
482.31	19798.59
482.49	20063.07
482.67	20325.21
482.85	20657.57
483.03	20563.95
483.21	20514.80
483.39	20840.13
483.57	20744.17
483.74	21074.18
483.92	21441.65
484.10	21259.09
484.28	21600.80
484.46	21778.68
484.64	22218.71
484.82	22134.45
485.00	22272.54
485.18	22668.09
485.35	22941.93
485.53	22733.62
485.71	23285.99
485.89	23377.27
486.07	23374.93
486.25	23351.52
486.43	23903.89
486.61	23861.76
486.78	24009.22
486.96	23838.36
487.14	24453.92
487.32	24386.04
487.50	24418.81
487.68	24950.11
487.85	25256.72
488.03	25546.95
488.21	26031.44
488.39	25544.61
488.57	25963.56
488.75	26302.94
488.92	26354.43
489.10	26551.04
489.28	26490.18
489.46	27260.22
489.64	26864.67
489.81	27353.84
489.99	27730.67
490.17	27632.36
490.35	27974.08
490.53	28098.13
490.70	28561.56
490.88	27988.13
491.06	29027.32
491.24	28936.04
491.41	28807.31
491.59	29158.39
491.77	29046.05
491.95	29579.69
492.13	29563.31
492.30	30216.32
492.48	29635.86
492.66	30199.93
492.84	30122.69
493.01	30644.63
493.19	30773.36
493.37	30836.56
493.54	31262.54
493.72	31344.45
493.90	31103.38
494.08	31789.16
494.25	32055.98
494.43	32048.96
494.61	31735.32
494.79	32531.11
494.96	32486.64
495.14	32879.85
495.32	33172.41
495.49	33071.77
495.67	32912.61
495.85	33462.64
496.02	33600.73
496.20	33944.79
496.38	33961.17
496.55	34438.64
496.73	34972.28
496.91	34513.54
497.09	34937.18
497.26	34745.25
497.44	35124.42
497.62	35194.64
497.79	35810.20
497.97	35779.77
498.14	35772.75
498.32	36385.97
498.50	36240.86
498.67	36575.55
498.85	36638.75
499.03	37074.09
499.20	36528.74
499.38	36989.83
499.56	36830.67
499.73	37022.59
499.91	37303.46
500.08	37500.06
500.26	37003.87
500.44	37373.67
500.61	37600.71
500.79	37717.73
500.97	38253.72
501.14	38602.46
501.32	38012.64
501.49	38506.49
501.67	38644.59
501.84	38979.28
502.02	38841.19
502.20	38752.25
502.37	39051.84
502.55	39395.90
502.72	39557.39
502.90	39234.40
503.07	39271.85
503.25	39840.60
503.43	39751.66
503.60	39725.91
503.78	39931.88
503.95	40547.44
504.13	40315.73
504.30	40549.78
504.48	40226.79
504.65	40865.75
504.83	40957.03
505.01	41380.67
505.18	41085.76
505.36	41411.10
505.53	41415.78
505.71	41116.19
505.88	41628.77
506.06	41495.36
506.23	42021.98
506.41	41612.38
506.58	41909.63
506.76	42309.86
506.93	42499.45
507.11	42412.85
507.28	42740.52
507.46	43112.67
507.63	42887.98
507.81	42815.42
507.98	42656.26
508.16	42803.72
508.33	43365.45
508.50	43449.70
508.68	43545.67
508.85	44016.11
509.03	43686.10
509.20	44095.69
509.38	44308.68
509.55	44367.20
509.73	44107.40
509.90	44865.73
510.08	44788.49
510.25	44648.06
510.42	44758.06
510.60	45303.41
510.77	45162.98
510.95	45368.94
511.12	45223.83
511.30	44996.80
511.47	45298.73
511.64	45338.52
511.82	45614.70
511.99	45137.23
512.17	46108.55
512.34	45689.60
512.51	46017.27
512.69	46218.56
512.86	46291.12
513.04	46312.18
513.21	46602.41
513.38	46567.30
513.56	46976.89
513.73	46845.82
513.90	46920.72
514.08	46656.24
514.25	47147.75
514.43	47646.29
514.60	47299.89
514.77	47309.25
514.95	47182.86
515.12	47217.97
515.29	47601.82
515.47	47707.14
515.64	48044.18
515.81	47641.60
515.99	48058.22
516.16	48636.33
516.33	47969.28
516.51	48559.09
516.68	48158.86
516.85	48758.04
517.03	49050.61
517.20	48978.05
517.37	48676.12
517.54	48774.42
517.72	48762.72
517.89	49205.08
518.06	49158.27
518.24	49158.27
518.41	49062.31
518.58	48720.59
518.75	49378.28
518.93	49535.10
519.10	49565.52
519.27	49844.05
519.45	49584.25
519.62	49628.72
519.79	50014.91
519.96	50255.98
520.14	50075.76
520.31	49947.03
520.48	50447.91
520.65	50274.71
520.83	50518.12
521.00	50651.53
521.17	50492.38
521.34	50454.93
521.52	50681.96
521.69	50410.46
521.86	51016.66
522.03	50770.90
522.20	50878.57
522.38	51344.33
522.55	51346.67
522.72	51000.27
522.89	51648.60
523.07	51695.41
523.24	51374.76
523.41	51641.58
523.58	51229.65
523.75	51779.67
523.92	51662.64
524.10	51854.57
524.27	52034.79
524.44	52097.98
524.61	51767.97
524.78	52062.88
524.96	52037.13
525.13	52266.50
525.30	52233.74
525.47	52390.55
525.64	52303.95
525.81	52493.54
525.98	52758.02
526.16	52722.91
526.33	52451.41
526.50	52523.96
526.67	52956.96
526.84	53073.99
527.01	52875.04
527.18	52729.93
527.36	52914.83
527.53	53158.25
527.70	53389.96
527.87	53258.89
528.04	53001.43
528.21	53179.31
528.38	53137.18
528.55	53408.68
528.72	53081.01
528.89	53183.99
529.07	53275.27
529.24	53165.27
529.41	53511.67
529.58	53602.95
529.75	53460.18
529.92	53481.24
530.09	53687.21
530.26	53858.07
530.43	53635.72
530.60	53893.18
530.77	53752.74
530.94	53921.26
531.11	54000.84
531.28	54157.66
531.46	54302.77
531.63	54270.00
531.80	54150.63
531.97	54258.30
532.14	54380.01
532.31	54174.04
532.48	54497.03
532.65	54513.42
532.82	54284.04
532.99	54880.88
533.16	54541.50
533.33	54597.68
533.50	54873.86
533.67	54878.54
533.84	54550.87
534.01	55105.57
534.18	55065.78
534.35	55295.16
534.52	54869.18
534.69	55014.29
534.86	55072.81
535.03	55058.76
535.20	55035.36
535.37	55267.07
535.54	55388.78
535.71	55327.92
535.88	55348.99
536.05	55547.93
536.22	55540.91
536.38	55489.42
536.55	55405.16
536.72	55468.36
536.89	55576.02
537.06	55578.36
537.23	55901.36
537.40	55409.84
537.57	55587.72
537.74	55557.30
537.91	56114.34
538.08	55798.37
538.25	55693.05
538.42	56123.71
538.59	55646.24
538.75	55779.65
538.92	56133.07
539.09	56392.87
539.26	55908.38
539.43	55828.80
539.60	56142.43
539.77	56261.80
539.94	56542.66
540.11	56350.74
540.28	56329.67
540.44	56584.79
540.61	56552.02
540.78	56451.38
540.95	56350.74
541.12	56395.21
541.29	56357.76
541.46	56699.48
541.62	56554.36
541.79	56519.26
541.96	56458.40
542.13	56666.71
542.30	56287.54
542.47	56800.12
542.63	56896.08
542.80	56720.54
542.97	57144.18
543.14	57134.82
543.31	57165.24
543.48	57113.75
543.64	57354.83
543.81	57340.78
543.98	57478.88
544.15	57340.78
544.32	57167.58
544.48	57574.84
544.65	57270.57
544.82	57223.76
544.99	57301.00
545.16	57528.03
545.32	57385.25
545.49	57687.18
545.66	57771.44
545.83	57584.20
546.00	57659.10
546.16	57546.75
546.33	57244.82
546.50	57546.75
546.67	57764.42
546.83	57385.25
547.00	57607.61
547.17	57528.03
547.34	57598.24
547.50	58059.33
547.67	57996.13
547.84	57844.00
548.00	58113.16
548.17	58204.44
548.34	57902.51
548.51	58225.51
548.67	58162.31
548.84	58190.40
549.01	57897.83
549.18	58087.42
549.34	58220.83
549.51	58251.25
549.68	58389.34
549.84	58450.20
550.01	58253.59
550.18	58127.20
550.34	58260.62
550.51	58417.43
550.68	58323.81
550.84	57982.09
551.01	58206.78
551.18	58410.41
551.34	58398.71
551.51	58497.01
551.68	58592.97
551.84	58494.67
552.01	58461.90
552.18	58569.57
552.34	58316.79
552.51	58735.74
552.68	58557.86
552.84	58555.52
553.01	58871.49
553.18	58749.79
553.34	58857.45
553.51	58866.81
553.67	58873.84
553.84	58915.96
554.01	58763.83
554.17	58958.09
554.34	58859.79
554.51	58939.37
554.67	58915.96
554.84	59110.23
555.00	59014.27
555.17	58937.03
555.33	58953.41
555.50	59178.10
555.67	58983.84
555.83	59032.99
556.00	59288.11
556.16	59344.28
556.33	59229.60
556.50	59077.46
556.66	59334.92
556.83	59098.53
556.99	59449.61
557.16	59451.95
557.32	59414.50
557.49	59650.89
557.65	59269.39
557.82	59255.34
557.98	59250.66
558.15	59388.75
558.32	59599.40
558.48	59437.90
558.65	59449.61
558.81	59330.24
558.98	59475.35
559.14	59547.91
559.31	59627.49
559.47	59529.19
559.64	59583.02
559.80	59601.74
559.97	59669.62
560.13	59625.15
560.30	59749.20
560.46	59606.42
560.63	59810.05
560.79	59765.58
560.96	59835.80
561.12	59711.75
561.29	59796.01
561.45	59681.32
561.61	59725.79
561.78	59840.48
561.94	59650.89
562.11	59812.39
562.27	59927.08
562.44	60046.44
562.60	59931.76
562.77	59695.36
562.93	59763.24
563.10	59934.10
563.26	59805.37
563.42	60116.66
563.59	59934.10
563.75	59868.56
563.92	59955.16
564.08	60046.44
564.24	60009.00
564.41	59931.76
564.57	59875.58
564.74	60172.83
564.90	60074.53
565.07	60006.65
565.23	60182.19
565.39	60006.65
565.56	60299.22
565.72	60081.55
565.88	60046.44
566.05	60034.74
566.21	60191.56
566.38	60020.70
566.54	60079.21
566.70	60369.44
566.87	60268.79
567.03	60023.04
567.19	60200.92
567.36	60334.33
567.52	60186.88
567.68	60563.70
567.85	59997.29
568.01	60371.78
568.17	60186.88
568.34	60299.22
568.50	60287.52
568.66	60175.17
568.83	60369.44
568.99	60140.07
569.15	60556.68
569.32	60278.16
569.48	60296.88
569.64	60411.57
569.81	60238.37
569.97	60418.59
570.13	60397.52
570.30	60200.92
570.46	60313.26
570.62	60549.66
570.78	60357.74
570.95	60392.84
571.11	60523.91
571.27	60369.44
571.43	60584.77
571.60	60776.69
571.76	60334.33
571.92	60463.06
572.09	60537.96
572.25	60446.68
572.41	60285.18
572.57	60608.17
572.74	60748.60
572.90	60432.63
573.06	60472.42
573.22	60526.25
573.38	60493.49
573.55	60605.83
573.71	60772.01
573.87	60776.69
574.03	60537.96
574.20	60683.07
574.36	60645.62
574.52	60781.37
574.68	60582.43
574.84	60910.10
575.01	60757.97
575.17	60874.99
575.33	60582.43
575.49	60692.43
575.65	60662.00
575.82	60877.33
575.98	60659.66
576.14	60874.99
576.30	60809.46
576.46	60713.50
576.62	60797.76
576.79	60783.71
576.95	60701.79
577.11	60757.97
577.27	60996.70
577.43	60851.59
577.59	60664.35
577.75	60774.35
577.92	60584.77
578.08	60767.33
578.24	60938.19
578.40	60879.67
578.56	60933.51
578.72	60669.03
578.88	60926.49
579.04	60856.27
579.21	60816.48
579.37	60994.36
579.53	60963.93
579.69	60692.43
579.85	60563.70
580.01	60594.13
580.17	60692.43
580.33	60928.83
580.49	60900.74
580.65	60903.08
580.82	60889.04
580.98	60809.46
581.14	60882.02
581.30	60989.68
581.46	60790.73
581.62	60914.78
581.78	60811.80
581.94	61057.56
582.10	60718.18
582.26	60891.38
582.42	60963.93
582.58	61102.03
582.74	60870.31
582.90	60954.57
583.06	60851.59
583.22	60816.48
583.38	60914.78
583.54	60753.29
583.70	61181.60
583.86	61013.08
584.02	60802.44
584.18	61024.79
584.34	60886.70
584.50	61031.81
584.66	60860.95
584.82	60858.61
584.98	61087.98
585.14	60994.36
585.30	60823.50
585.46	61106.71
585.62	60898.40
585.78	61087.98
585.94	60788.39
586.10	60924.14
586.26	60933.51
586.42	61071.60
586.58	61078.62
586.74	61020.11
586.90	60919.46
587.06	60945.21
587.22	61109.05
587.38	61139.47
587.54	61228.41
587.70	61013.08
587.86	61050.53
588.02	61153.52
588.18	61195.65
588.34	60992.02
