SpectraSuite Data File
++++++++++++++++++++++++++++++++++++
Date: Fri Oct 25 10:48:34 EDT 2013
User: price-jones
Dark Spectrum Present: No
Reference Spectrum Present: No
Number of Sampled Component Spectra: 1
Spectrometers: USB2+H05261
Integration Time (usec): 100000 (USB2+H05261)
Spectra Averaged: 1 (USB2+H05261)
Boxcar Smoothing: 0 (USB2+H05261)
Correct for Electrical Dark: No (USB2+H05261)
Strobe/Lamp Enabled: No (USB2+H05261)
Correct for Detector Non-linearity: No (USB2+H05261)
Correct for Stray Light: No (USB2+H05261)
Number of Pixels in Processed Spectrum: 2048
>>>>>Begin Processed Spectral Data<<<<<
365.73	135.75
365.92	135.75
366.12	135.75
366.32	70.22
366.52	0.00
366.72	49.15
366.91	42.13
367.11	25.75
367.31	58.51
367.51	35.11
367.70	32.77
367.90	100.64
368.10	0.00
368.30	81.92
368.49	25.75
368.69	70.22
368.89	25.75
369.09	4.68
369.28	86.60
369.48	60.85
369.68	98.30
369.87	117.03
370.07	91.28
370.27	168.52
370.47	241.08
370.66	390.87
370.86	407.25
371.06	479.81
371.25	447.04
371.45	423.64
371.65	514.92
371.84	521.94
372.04	489.17
372.24	552.37
372.44	545.34
372.63	535.98
372.83	458.74
373.03	599.18
373.22	573.43
373.42	620.24
373.62	580.45
373.81	599.18
374.01	627.26
374.21	594.50
374.40	503.22
374.60	622.58
374.79	514.92
374.99	627.26
375.19	627.26
375.38	648.33
375.58	587.47
375.78	575.77
375.97	610.88
376.17	690.46
376.37	622.58
376.56	610.88
376.76	589.82
376.95	643.65
377.15	709.18
377.35	662.37
377.54	664.71
377.74	711.52
377.93	653.01
378.13	711.52
378.33	709.18
378.52	676.41
378.72	798.12
378.91	657.69
379.11	704.50
379.31	676.41
379.50	709.18
379.70	779.40
379.89	690.46
380.09	767.70
380.28	758.33
380.48	777.06
380.68	734.93
380.87	725.57
381.07	758.33
381.26	751.31
381.46	725.57
381.65	699.82
381.85	774.72
382.04	823.87
382.24	737.27
382.43	772.38
382.63	709.18
382.83	748.97
383.02	713.86
383.22	737.27
383.41	739.61
383.61	713.86
383.80	873.02
384.00	854.30
384.19	805.14
384.39	851.96
384.58	870.68
384.78	809.83
384.97	915.15
385.17	774.72
385.36	882.38
385.56	922.17
385.75	835.57
385.95	802.80
386.14	924.51
386.34	936.21
386.53	952.60
386.72	788.76
386.92	812.17
387.11	898.77
387.31	919.83
387.50	915.15
387.70	985.37
387.89	973.66
388.09	961.96
388.28	929.19
388.48	957.28
388.67	980.68
388.86	1018.13
389.06	985.37
389.25	1102.39
389.45	1069.62
389.64	1013.45
389.84	1039.20
390.03	1060.26
390.22	1100.05
390.42	997.07
390.61	1015.79
390.81	1125.80
391.00	1118.78
391.19	1177.29
391.39	1088.35
391.58	1111.75
391.78	1146.86
391.97	1151.54
392.16	1114.10
392.36	1102.39
392.55	1116.44
392.75	1041.54
392.94	1074.31
393.13	1067.28
393.33	1027.50
393.52	1100.05
393.71	1109.41
393.91	1090.69
394.10	1193.67
394.29	1226.44
394.49	1064.94
394.68	1270.91
394.88	1320.06
395.07	1329.42
395.26	1306.02
395.46	1287.29
395.65	1245.16
395.84	1289.64
396.04	1247.51
396.23	1160.91
396.42	1214.74
396.62	1249.85
396.81	1142.18
397.00	1254.53
397.19	1345.81
397.39	1387.94
397.58	1406.66
397.77	1444.11
397.97	1418.36
398.16	1507.30
398.35	1563.48
398.55	1586.88
398.74	1488.58
398.93	1654.76
399.12	1596.25
399.32	1582.20
399.51	1584.54
399.70	1582.20
399.90	1586.88
400.09	1640.72
400.28	1696.89
400.47	1659.44
400.67	1739.02
400.86	1734.34
401.05	1760.08
401.24	1799.87
401.44	1792.85
401.63	1727.32
401.82	1781.15
402.01	1785.83
402.21	1989.46
402.40	1846.68
402.59	1764.76
402.78	1874.77
402.97	1865.41
403.17	2003.50
403.36	1956.69
403.55	1935.62
403.74	1968.39
403.93	1996.48
404.13	2038.61
404.32	1982.43
404.51	1956.69
404.70	2090.10
404.89	1998.82
405.09	2148.61
405.28	1984.77
405.47	2038.61
405.66	2003.50
405.85	2111.16
406.05	2125.21
406.24	1991.80
406.43	2083.08
406.62	2113.50
406.81	2153.29
407.00	2078.40
407.20	2188.40
407.39	2218.83
407.58	2275.00
407.77	2237.55
407.96	2230.53
408.15	2377.98
408.34	2368.62
408.54	2293.72
408.73	2354.58
408.92	2473.95
409.11	2441.18
409.30	2422.45
409.49	2373.30
409.68	2354.58
409.87	2368.62
410.07	2370.96
410.26	2513.74
410.45	2490.33
410.64	2551.18
410.83	2574.59
411.02	2595.65
411.21	2722.04
411.40	2731.41
411.59	2867.16
411.78	2729.06
411.98	2806.30
412.17	2747.79
412.36	2668.21
412.55	2843.75
412.74	2810.98
412.93	2808.64
413.12	2775.88
413.31	3103.55
413.50	2892.90
413.69	2986.52
413.88	3045.04
414.07	3068.44
414.26	3094.19
414.45	3033.33
414.64	3138.66
414.83	3159.72
415.02	3143.34
415.22	3143.34
415.41	3253.34
415.60	3211.22
415.79	3262.71
415.98	3468.67
416.17	3302.50
416.36	3391.44
416.55	3386.76
416.74	3459.31
416.93	3393.78
417.12	3361.01
417.31	3412.50
417.50	3524.85
417.69	3646.55
417.88	3602.08
418.07	3555.27
418.26	3590.38
418.45	3599.74
418.64	3660.60
418.83	3775.28
419.02	3684.00
419.21	3660.60
419.39	3691.02
419.58	3721.45
419.77	3754.22
419.96	3920.40
420.15	3840.82
420.34	3782.31
420.53	3936.78
420.72	4004.66
420.91	3859.54
421.10	3817.41
421.29	4053.81
421.48	3864.22
421.67	4028.06
421.86	4018.70
422.05	3964.87
422.24	3981.25
422.43	3850.18
422.61	4023.38
422.80	3943.80
422.99	3995.29
423.18	4067.85
423.37	4049.13
423.56	4044.45
423.75	4035.08
423.94	4030.40
424.13	3896.99
424.32	4016.36
424.50	4196.58
424.69	3997.64
424.88	4121.68
425.07	4180.20
425.26	3911.04
425.45	4065.51
425.64	4072.53
425.83	4086.58
426.01	4184.88
426.20	4229.35
426.39	4121.68
426.58	3992.95
426.77	4131.05
426.96	4105.30
427.15	4100.62
427.33	4276.16
427.52	4161.47
427.71	4292.54
427.90	4292.54
428.09	4262.12
428.28	4332.33
428.46	4376.80
428.65	4241.05
428.84	4507.87
429.03	4521.92
429.22	4278.50
429.40	4299.56
429.59	4173.18
429.78	4154.45
429.97	4042.11
430.16	4168.49
430.34	4332.33
430.53	4283.18
430.72	4325.31
430.91	4313.61
431.10	4334.67
431.28	4664.69
431.47	4807.46
431.66	4880.02
431.85	4615.54
432.03	4802.78
432.22	4765.33
432.41	4711.50
432.60	4980.66
432.79	4807.46
432.97	5004.07
433.16	4884.70
433.35	4861.29
433.54	4793.42
433.72	4833.21
433.91	4802.78
434.10	4968.96
434.28	4966.62
434.47	5057.90
434.66	5097.69
434.85	5188.97
435.03	5085.98
435.22	5022.79
435.41	5320.04
435.59	5320.04
435.78	5221.74
435.97	5322.38
436.16	5289.61
436.34	5193.65
436.53	5411.32
436.72	5432.38
436.90	5322.38
437.09	5416.00
437.28	5465.15
437.46	5273.23
437.65	5343.44
437.84	5305.99
438.02	5348.12
438.21	5289.61
438.40	5282.59
438.58	5537.71
438.77	5495.58
438.96	5621.97
439.14	5811.55
439.33	5783.46
439.52	5774.10
439.70	5874.74
439.89	5881.77
440.08	5900.49
440.26	5996.45
440.45	5792.83
440.63	6024.54
440.82	6340.51
441.01	6080.71
441.19	6216.46
441.38	6300.72
441.57	6342.85
441.75	6450.52
441.94	6628.40
442.12	6579.25
442.31	6642.44
442.50	6380.30
442.68	6476.26
442.87	6546.48
443.05	6684.57
443.24	6740.74
443.43	6569.88
443.61	6553.50
443.80	7021.61
443.98	6506.69
444.17	6480.94
444.35	6719.68
444.54	6707.98
444.73	6719.68
444.91	6698.61
445.10	6663.51
445.28	6733.72
445.47	6705.63
445.65	6623.72
445.84	6775.85
446.02	6806.28
446.21	6724.36
446.39	6724.36
446.58	7026.29
446.77	7143.32
446.95	6935.01
447.14	7014.59
447.32	7070.76
447.51	6949.05
447.69	6841.39
447.88	6913.94
448.06	6925.65
448.25	6825.00
448.43	6956.07
448.62	7000.54
448.80	6939.69
448.99	7119.91
449.17	7297.79
449.36	7131.61
449.54	7098.84
449.73	7234.60
449.91	7480.35
450.10	7300.13
450.28	7611.42
450.46	7330.56
450.65	7412.48
450.83	7531.84
451.02	7478.01
451.20	7550.57
451.39	7651.21
451.57	7412.48
451.76	7482.69
451.94	7419.50
452.13	7573.97
452.31	7529.50
452.49	7396.09
452.68	7524.82
452.86	7681.64
453.05	7445.24
453.23	7611.42
453.42	7566.95
453.60	7662.91
453.78	7770.58
453.97	7648.87
454.15	7508.44
454.34	7630.15
454.52	7906.33
454.70	7817.39
454.89	7845.48
455.07	7765.90
455.26	7810.37
455.44	7822.07
455.62	8011.65
455.81	8067.83
455.99	8016.33
456.17	8060.80
456.36	8161.45
456.54	8477.42
456.73	8224.64
456.91	8346.35
457.09	8425.93
457.28	8510.19
457.46	8416.57
457.64	8533.59
457.83	8376.78
458.01	8290.18
458.19	8669.34
458.38	8486.78
458.56	8627.21
458.74	8498.49
458.93	8561.68
459.11	8423.59
459.29	8624.87
459.48	8664.66
459.66	8519.55
459.84	8767.65
460.03	8884.67
460.21	8713.81
460.39	8854.25
460.57	8798.07
460.76	8980.64
460.94	9025.11
461.12	8961.91
461.31	8997.02
461.49	8961.91
461.67	8898.72
461.85	9210.01
462.04	9018.08
462.22	9614.92
462.40	9345.76
462.59	9055.53
462.77	9142.13
462.95	9359.80
463.13	9219.37
463.32	9263.84
463.50	9064.89
463.68	9305.97
463.86	9266.18
464.05	9228.73
464.23	9371.50
464.41	9114.05
464.59	9282.56
464.78	9617.26
464.96	9411.29
465.14	9437.04
465.32	9804.50
465.50	9659.39
465.69	9841.95
465.87	9467.47
466.05	9577.47
466.23	9619.60
466.41	9579.81
466.60	9638.33
466.78	9565.77
466.96	9479.17
467.14	9715.56
467.32	9652.37
467.51	9975.36
467.69	9568.11
467.87	9713.22
468.05	9912.17
468.23	9514.28
468.41	9872.38
468.60	9956.64
468.78	9905.15
468.96	10033.88
469.14	10043.24
469.32	10232.82
469.50	9879.40
469.69	10141.54
469.87	10263.25
470.05	10148.56
470.23	10225.80
470.41	10153.24
470.59	10225.80
470.77	10197.71
470.95	10380.28
471.14	10340.49
471.32	10394.32
471.50	10494.96
471.68	10590.92
471.86	10576.88
472.04	10637.73
472.22	10937.32
472.40	10782.85
472.58	10817.96
472.77	10817.96
472.95	10843.70
473.13	11241.59
473.31	10787.53
473.49	11016.90
473.67	10913.92
473.85	11068.39
474.03	11459.26
474.21	11538.84
474.39	11428.84
474.57	11290.74
474.75	11435.86
474.93	11569.27
475.12	11712.04
475.30	11597.35
475.48	11604.38
475.66	11845.45
475.84	11449.90
476.02	11878.22
476.20	12049.08
476.38	12004.61
476.56	12655.28
476.74	12252.70
476.92	12428.24
477.10	12020.99
477.28	12617.83
477.46	12549.95
477.64	12594.42
477.82	12727.83
478.00	12952.52
478.18	12716.13
478.36	13048.49
478.54	13172.54
478.72	13104.66
478.90	13558.72
479.08	13411.27
479.26	13736.60
479.44	13708.52
479.62	13834.91
479.80	13872.36
479.98	14071.30
480.16	14197.69
480.34	13898.10
480.52	14375.57
480.70	14113.43
480.88	14228.12
481.06	14347.48
481.24	14417.70
481.41	14698.56
481.59	14834.32
481.77	14913.89
481.95	14939.64
482.13	15208.80
482.31	14958.36
482.49	15213.48
482.67	15194.76
482.85	15712.02
483.03	15550.52
483.21	15538.82
483.39	15896.92
483.57	15655.84
483.74	16074.80
483.92	16365.03
484.10	16095.86
484.28	16468.01
484.46	16453.97
484.64	16870.58
484.82	16589.72
485.00	16898.67
485.18	16884.62
485.35	17135.06
485.53	16673.98
485.71	16624.83
485.89	17142.08
486.07	17163.15
486.25	17142.08
486.43	17109.32
486.61	17427.63
486.78	17804.46
486.96	18188.30
487.14	18174.26
487.32	18207.03
487.50	18654.07
487.68	18750.03
487.85	18902.17
488.03	18988.77
488.21	19309.42
488.39	19077.71
488.57	19304.74
488.75	19477.94
488.92	20016.26
489.10	19943.70
489.28	20100.52
489.46	20402.45
489.64	20395.43
489.81	20739.49
489.99	20849.49
490.17	20931.41
490.35	21170.15
490.53	21076.52
490.70	21057.80
490.88	21305.90
491.06	21781.03
491.24	21617.19
491.41	21465.05
491.59	21678.04
491.77	21312.92
491.95	21717.83
492.13	21991.67
492.30	22427.01
492.48	22263.18
492.66	22871.72
492.84	22394.25
493.01	22670.43
493.19	22579.15
493.37	23098.75
493.54	23019.17
493.72	23655.79
493.90	23508.34
494.08	23817.29
494.25	23950.70
494.43	23950.70
494.61	24247.95
494.79	24084.11
494.96	24334.55
495.14	24388.38
495.32	24613.07
495.49	24383.70
495.67	24732.44
495.85	25125.65
496.02	25088.20
496.20	25462.69
496.38	25205.23
496.55	25120.97
496.73	25942.50
496.91	25881.64
497.09	25750.57
497.26	25790.36
497.44	25881.64
497.62	26160.17
497.79	25970.58
497.97	25724.83
498.14	26333.37
498.32	26637.64
498.50	26373.16
498.67	26834.24
498.85	27063.61
499.03	27410.01
499.20	26918.50
499.38	27360.86
499.56	27332.78
499.73	27241.50
499.91	27164.26
500.08	27529.38
500.26	27349.16
500.44	27278.94
500.61	27632.36
500.79	27417.04
500.97	27796.20
501.14	27878.12
501.32	27985.79
501.49	27960.04
501.67	27922.59
501.84	28491.34
502.02	28350.91
502.20	28704.33
502.37	28467.94
502.55	28870.51
502.72	28713.69
502.90	29067.11
503.07	29167.76
503.25	29160.73
503.43	29020.30
503.60	28826.04
503.78	29369.04
503.95	29116.26
504.13	29308.19
504.30	29610.12
504.48	29600.76
504.65	30064.18
504.83	29975.24
505.01	30199.93
505.18	29905.02
505.36	30508.88
505.53	30199.93
505.71	30876.35
505.88	30878.69
506.06	30122.69
506.23	30448.03
506.41	30700.81
506.58	30487.82
506.76	30698.47
506.93	31168.91
507.11	30712.51
507.28	31154.87
507.46	30899.75
507.63	30965.29
507.81	31555.10
507.98	30951.24
508.16	31625.32
508.33	31452.12
508.50	31674.47
508.68	31695.53
508.85	32165.98
509.03	31810.22
509.20	32423.44
509.38	32364.93
509.55	32348.54
509.73	32432.80
509.90	32727.71
510.08	32397.70
510.25	32458.55
510.42	32940.70
510.60	32655.15
510.77	32730.05
510.95	33308.16
511.12	32737.07
511.30	32966.45
511.47	33366.68
511.64	33123.26
511.82	33511.79
511.99	33385.40
512.17	33574.98
512.34	33495.41
512.51	33816.06
512.69	33706.05
512.86	33619.46
513.04	33825.42
513.21	34087.56
513.38	33897.98
513.56	33986.92
513.73	33706.05
513.90	34288.85
514.08	33890.96
514.25	34300.55
514.43	34068.84
514.60	34494.82
514.77	34169.48
514.95	34785.04
515.12	34469.07
515.29	34543.97
515.47	34859.94
515.64	35173.57
515.81	35009.73
515.99	34771.00
516.16	34632.91
516.33	34515.88
516.51	34354.38
516.68	34359.06
516.85	34195.23
517.03	34841.21
517.20	34925.47
517.37	35660.40
517.54	35552.74
517.72	35379.54
517.89	35311.66
518.06	34869.30
518.24	35173.57
518.41	35136.12
518.58	35208.68
518.75	35431.03
518.93	35945.95
519.10	35915.52
519.27	36395.33
519.45	36189.36
519.62	36343.84
519.79	36776.84
519.96	36554.49
520.14	36603.64
520.31	36107.44
520.48	36194.04
520.65	36685.56
520.83	37151.32
521.00	37284.73
521.17	37095.15
521.34	37198.13
521.52	37148.98
521.69	37446.23
521.86	37464.96
522.03	37446.23
522.20	37584.32
522.38	37649.86
522.55	37769.22
522.72	37677.94
522.89	37596.03
523.07	37670.92
523.24	37521.13
523.41	37947.11
523.58	37993.92
523.75	38565.01
523.92	38253.72
524.10	38401.17
524.27	38721.82
524.44	38401.17
524.61	38836.51
524.78	38309.89
524.96	39056.52
525.13	38785.02
525.30	39143.12
525.47	38871.62
525.64	38656.29
525.81	38845.87
525.98	38506.49
526.16	38557.99
526.33	38396.49
526.50	38876.30
526.67	38422.23
526.84	39061.20
527.01	38983.96
527.18	38899.70
527.36	39257.81
527.53	39416.96
527.70	39833.58
527.87	39866.34
528.04	39407.60
528.21	39739.96
528.38	39945.92
528.55	39882.73
528.72	39725.91
528.89	40388.28
529.07	39927.20
529.24	39531.65
529.41	40226.79
529.58	39854.64
529.75	40076.99
529.92	40046.57
530.09	40320.41
530.26	40334.45
530.43	40299.34
530.60	40486.59
530.77	40311.05
530.94	40760.43
531.11	40570.85
531.28	40924.27
531.46	40348.50
531.63	40683.19
531.80	40765.11
531.97	40603.61
532.14	40643.40
532.31	40215.08
532.48	40280.62
532.65	40982.78
532.82	40786.18
532.99	40910.22
533.16	40800.22
533.33	40957.03
533.50	41549.19
533.67	41127.89
533.84	40847.03
534.01	41275.35
534.18	41151.30
534.35	41591.32
534.52	41684.94
534.69	41366.63
534.86	41628.77
535.03	41523.44
535.20	42014.96
535.37	42122.62
535.54	42108.58
535.71	41574.94
535.88	41876.86
536.05	41518.76
536.22	42167.09
536.38	42202.20
536.55	41975.17
536.72	42249.01
536.89	42059.43
537.06	41965.81
537.23	42274.76
537.40	42431.57
537.57	42258.37
537.74	42307.52
537.91	42621.16
538.08	42600.09
538.25	42192.84
538.42	42115.60
538.59	42239.65
538.75	42473.70
538.92	42529.87
539.09	42679.67
539.26	42787.33
539.43	42366.04
539.60	42579.03
539.77	42597.75
539.94	42890.32
540.11	42604.77
540.28	42909.04
540.44	42319.23
540.61	42787.33
540.78	42511.15
540.95	42979.26
541.12	42829.46
541.29	42822.44
541.46	42997.98
541.62	43250.76
541.79	43325.66
541.96	42319.23
542.13	42937.13
542.30	43445.02
542.47	42925.42
542.63	43421.62
542.80	43035.43
542.97	43704.82
543.14	43969.30
543.31	43728.23
543.48	43662.69
543.64	44182.29
543.81	44154.21
543.98	44292.30
544.15	43969.30
544.32	44196.34
544.48	44872.75
544.65	43845.26
544.82	44245.49
544.99	43391.19
545.16	44011.43
545.32	44107.40
545.49	44573.16
545.66	44678.49
545.83	44385.92
546.00	44858.71
546.16	44037.18
546.33	44336.77
546.50	44332.09
546.67	44509.97
546.83	43725.89
547.00	44465.50
547.17	44058.24
547.34	44308.68
547.50	44748.70
547.67	44741.68
547.84	44765.09
548.00	44568.48
548.17	45256.60
548.34	44856.37
548.51	45296.39
548.67	45177.02
548.84	45003.82
549.01	45151.27
549.18	44793.17
549.34	45200.43
549.51	45151.27
549.68	44985.10
549.84	45146.59
550.01	45853.44
550.18	45387.67
550.34	45427.46
550.51	45324.47
550.68	45280.00
550.84	44739.34
551.01	45111.49
551.18	45483.63
551.34	45312.77
551.51	45404.05
551.68	45933.01
551.84	45710.66
552.01	44741.68
552.18	45483.63
552.34	44964.03
552.51	45689.60
552.68	45329.16
552.84	45457.88
553.01	46469.00
553.18	45656.83
553.34	45563.21
553.51	45392.35
553.67	45640.45
553.84	46054.72
554.01	45841.73
554.17	46082.81
554.34	46202.18
554.51	45851.09
554.67	46164.73
554.84	45848.75
555.00	46040.68
555.17	45897.91
555.33	46241.96
555.50	45825.35
555.67	46012.59
555.83	46529.85
556.00	45909.61
556.16	46415.16
556.33	46380.06
556.50	46127.28
556.66	46396.44
556.83	45591.30
556.99	46506.44
557.16	46527.51
557.32	45911.95
557.49	46642.20
557.65	46459.63
557.82	46321.54
557.98	46576.66
558.15	45982.16
558.32	46689.01
558.48	46286.43
558.65	46370.69
558.81	46192.81
558.98	46560.28
559.14	46314.52
559.31	46677.30
559.47	46408.14
559.64	46234.94
559.80	46377.72
559.97	46504.10
560.13	46089.83
560.30	46454.95
560.46	46878.59
560.63	46644.54
560.79	46967.53
560.96	47044.77
561.12	46724.11
561.29	46382.40
561.45	46773.27
561.61	46600.07
561.78	45907.27
561.94	46960.51
562.11	46756.88
562.27	46506.44
562.44	46717.09
562.60	46824.76
562.77	46918.38
562.93	46670.28
563.10	47234.35
563.26	46717.09
563.42	46969.87
563.59	46679.64
563.75	46836.46
563.92	47107.96
564.08	46799.01
564.24	47103.28
564.41	47014.34
564.57	46679.64
564.74	46845.82
564.90	46604.75
565.07	46742.84
565.23	46532.19
565.39	47129.03
565.56	47077.54
565.72	46417.50
565.88	46740.50
566.05	47145.41
566.21	47164.14
566.38	46724.11
566.54	46850.50
566.70	47129.03
566.87	47318.61
567.03	47159.45
567.19	47828.85
567.36	47299.89
567.52	46749.86
567.68	47131.37
567.85	46731.14
568.01	46754.54
568.17	47145.41
568.34	47295.21
568.50	47437.98
568.66	46855.18
568.83	47491.81
568.99	46782.63
569.15	47224.99
569.32	46878.59
569.48	46639.86
569.64	47192.22
569.81	47201.58
569.97	47056.47
570.13	47332.65
570.30	46859.87
570.46	46562.62
570.62	46344.95
570.78	46813.05
570.95	46773.27
571.11	46873.91
571.27	46913.70
571.43	47192.22
571.60	47442.66
571.76	47122.01
571.92	46810.71
572.09	47243.71
572.25	47482.45
572.41	47164.14
572.57	47372.44
572.74	47922.47
572.90	47746.93
573.06	47393.51
573.22	47718.84
573.38	47136.05
573.55	47283.50
573.71	47669.69
573.87	47407.55
574.03	47316.27
574.20	47386.49
574.36	47227.33
574.52	47037.75
574.68	47318.61
574.84	47154.77
575.01	47093.92
575.17	47009.66
575.33	46937.10
575.49	46911.36
575.65	47461.38
575.82	47129.03
575.98	47599.47
576.14	47374.78
576.30	47562.03
576.46	47393.51
576.62	47180.52
576.79	47313.93
576.95	46911.36
577.11	47227.33
577.27	47288.18
577.43	47430.96
577.59	47117.32
577.75	46735.82
577.92	46759.22
578.08	46892.63
578.24	47145.41
578.40	47461.38
578.56	47386.49
578.72	47423.93
578.88	47423.93
579.04	47669.69
579.21	47157.11
579.37	47019.02
579.53	47168.82
579.69	46927.74
579.85	47316.27
580.01	47295.21
580.17	47477.77
580.33	47426.28
580.49	47683.73
580.65	47704.80
580.82	47676.71
580.98	47028.38
581.14	47220.31
581.30	47566.71
581.46	47379.46
581.62	47709.48
581.78	47718.84
581.94	47587.77
582.10	47327.97
582.26	47442.66
582.42	47821.83
582.58	47529.26
582.74	47033.07
582.90	47873.32
583.06	47325.63
583.22	47473.09
583.38	47491.81
583.54	47559.69
583.70	47903.74
583.86	47587.77
584.02	47189.88
584.18	47271.80
584.34	47405.21
584.50	47674.37
584.66	47477.77
584.82	47440.32
584.98	47688.42
585.14	47426.28
585.30	47346.70
585.46	47433.30
585.62	47133.71
585.78	47320.95
585.94	46880.93
586.10	47442.66
586.26	46892.63
586.42	47889.70
586.58	47313.93
586.74	47482.45
586.90	47208.61
587.06	47470.75
587.22	47473.09
587.38	47107.96
587.54	47180.52
587.70	47686.07
587.86	47737.57
588.02	47391.17
588.18	47477.77
588.34	47033.07
588.49	46906.68
588.65	46813.05
588.81	47161.79
588.97	47033.07
589.13	47009.66
589.29	47002.64
589.45	47058.81
589.61	47206.26
589.77	47466.06
