SpectraSuite Data File
++++++++++++++++++++++++++++++++++++
Date: Fri Oct 25 11:24:00 EDT 2013
User: price-jones
Dark Spectrum Present: No
Reference Spectrum Present: No
Number of Sampled Component Spectra: 1
Spectrometers: USB2+H05261
Integration Time (usec): 100000 (USB2+H05261)
Spectra Averaged: 1 (USB2+H05261)
Boxcar Smoothing: 0 (USB2+H05261)
Correct for Electrical Dark: No (USB2+H05261)
Strobe/Lamp Enabled: No (USB2+H05261)
Correct for Detector Non-linearity: No (USB2+H05261)
Correct for Stray Light: No (USB2+H05261)
Number of Pixels in Processed Spectrum: 2048
>>>>>Begin Processed Spectral Data<<<<<
365.73	257.46
365.92	257.46
366.12	257.46
366.32	201.29
366.52	215.33
366.72	217.67
366.91	91.28
367.11	166.18
367.31	131.07
367.51	149.79
367.70	175.54
367.90	163.84
368.10	126.39
368.30	112.35
368.49	154.48
368.69	135.75
368.89	236.39
369.09	170.86
369.28	145.11
369.48	93.62
369.68	208.31
369.87	227.03
370.07	117.03
370.27	205.97
370.47	325.33
370.66	601.52
370.86	561.73
371.06	603.86
371.25	648.33
371.45	620.24
371.65	718.54
371.84	685.78
372.04	732.59
372.24	589.82
372.44	638.97
372.63	748.97
372.83	856.64
373.03	772.38
373.22	697.48
373.42	755.99
373.62	716.20
373.81	791.10
374.01	884.72
374.21	760.67
374.40	767.70
374.60	777.06
374.79	730.25
374.99	901.11
375.19	751.31
375.38	851.96
375.58	896.43
375.78	772.38
375.97	877.70
376.17	826.21
376.37	821.53
376.56	828.55
376.76	863.66
376.95	837.91
377.15	854.30
377.35	823.87
377.54	929.19
377.74	809.83
377.93	898.77
378.13	945.58
378.33	929.19
378.52	950.26
378.72	940.90
378.91	950.26
379.11	978.34
379.31	961.96
379.50	922.17
379.70	978.34
379.89	968.98
380.09	882.38
380.28	926.85
380.48	954.94
380.68	1004.09
380.87	940.90
381.07	1062.60
381.26	980.68
381.46	936.21
381.65	1029.84
381.85	1053.24
382.04	1039.20
382.24	1076.65
382.43	1116.44
382.63	1036.86
382.83	1144.52
383.02	1100.05
383.22	1057.92
383.41	1050.90
383.61	1048.56
383.80	1167.93
384.00	1139.84
384.19	1210.06
384.39	1210.06
384.58	1252.19
384.78	1205.38
384.97	1081.33
385.17	1048.56
385.36	1055.58
385.56	1186.65
385.75	1224.10
385.95	1184.31
386.14	1165.59
386.34	1242.82
386.53	1184.31
386.72	1224.10
386.92	1151.54
387.11	1219.42
387.31	1203.04
387.50	1355.17
387.70	1249.85
387.89	1214.74
388.09	1282.61
388.28	1252.19
388.48	1263.89
388.67	1345.81
388.86	1383.26
389.06	1322.40
389.25	1385.60
389.45	1336.45
389.64	1273.25
389.84	1322.40
390.03	1425.39
390.22	1437.09
390.42	1355.17
390.61	1362.19
390.81	1362.19
391.00	1476.88
391.19	1432.41
391.39	1390.28
391.58	1446.45
391.78	1526.03
391.97	1486.24
392.16	1488.58
392.36	1596.25
392.55	1460.49
392.75	1586.88
392.94	1516.67
393.13	1483.90
393.33	1575.18
393.52	1523.69
393.71	1636.03
393.91	1593.90
394.10	1533.05
394.29	1582.20
394.49	1504.96
394.68	1589.22
394.88	1607.95
395.07	1699.23
395.26	1668.80
395.46	1647.74
395.65	1659.44
395.84	1797.53
396.04	1795.19
396.23	1743.70
396.42	1678.16
396.62	1755.40
396.81	1748.38
397.00	1916.90
397.19	1802.21
397.39	1811.57
397.58	1811.57
397.77	1757.74
397.97	1860.73
398.16	1877.11
398.35	1853.70
398.55	1846.68
398.74	1842.00
398.93	1881.79
399.12	1970.73
399.32	1942.64
399.51	1998.82
399.70	2069.03
399.90	2064.35
400.09	2143.93
400.28	2043.29
400.47	1898.17
400.67	2050.31
400.86	2139.25
401.05	2040.95
401.24	2069.03
401.44	2134.57
401.63	2169.68
401.82	2188.40
402.01	2143.93
402.21	2186.06
402.40	2246.91
402.59	2221.17
402.78	2253.94
402.97	2249.25
403.17	2167.34
403.36	2275.00
403.55	2223.51
403.74	2345.22
403.93	2385.01
404.13	2443.52
404.32	2335.85
404.51	2333.51
404.70	2513.74
404.89	2366.28
405.09	2593.31
405.28	2403.73
405.47	2513.74
405.66	2497.35
405.85	2630.76
406.05	2523.10
406.24	2562.89
406.43	2647.15
406.62	2633.10
406.81	2712.68
407.00	2719.70
407.20	2616.72
407.39	2649.49
407.58	2647.15
407.77	2895.24
407.96	2848.43
408.15	2850.77
408.34	2782.90
408.54	2799.28
408.73	2815.66
408.92	2881.20
409.11	2920.99
409.30	2984.18
409.49	2913.97
409.68	3047.38
409.87	2878.86
410.07	3033.33
410.26	3080.14
410.45	3129.30
410.64	3098.87
410.83	3108.23
411.02	3016.95
411.21	3215.90
411.40	3007.59
411.59	3328.24
411.78	3307.18
411.98	3110.57
412.17	3206.53
412.36	3300.16
412.55	3351.65
412.74	3459.31
412.93	3389.10
413.12	3410.16
413.31	3655.92
413.50	3510.80
413.69	3632.51
413.88	3674.64
414.07	3688.68
414.26	3641.87
414.45	3599.74
414.64	3707.41
414.83	3684.00
415.02	3789.33
415.22	3775.28
415.41	4028.06
415.60	3974.23
415.79	3995.29
415.98	3971.89
416.17	4007.00
416.36	4016.36
416.55	4018.70
416.74	4180.20
416.93	4060.83
417.12	4299.56
417.31	4224.67
417.50	4147.43
417.69	4198.92
417.88	4269.14
418.07	4264.46
418.26	4423.61
418.45	4283.18
418.64	4531.28
418.83	4383.82
419.02	4318.29
419.21	4514.89
419.39	4538.30
419.58	4554.68
419.77	4355.74
419.96	4514.89
420.15	4643.62
420.34	4514.89
420.53	4681.07
420.72	4779.37
420.91	4681.07
421.10	4779.37
421.29	4877.68
421.48	4781.71
421.67	4770.01
421.86	4903.42
422.05	4924.49
422.24	4748.95
422.43	5074.28
422.61	4933.85
422.80	4912.78
422.99	4954.91
423.18	5163.22
423.37	5163.22
423.56	4954.91
423.75	5055.56
423.94	4910.44
424.13	4594.47
424.32	4662.35
424.50	4950.23
424.69	4910.44
424.88	5191.31
425.07	4980.66
425.26	4880.02
425.45	4908.10
425.64	4873.00
425.83	4858.95
426.01	5071.94
426.20	5142.16
426.39	5020.45
426.58	4973.64
426.77	5041.51
426.96	5184.29
427.15	5144.50
427.33	5298.97
427.52	5064.92
427.71	5338.76
427.90	5261.52
428.09	5315.36
428.28	5322.38
428.46	5392.59
428.65	5465.15
428.84	5577.50
429.03	5659.42
429.22	5245.14
429.40	5458.13
429.59	5469.83
429.78	5343.44
429.97	5303.65
430.16	5481.53
430.34	5710.91
430.53	5809.21
430.72	5741.33
430.91	5568.13
431.10	5591.54
431.28	5750.70
431.47	5799.85
431.66	5860.70
431.85	5991.77
432.03	5987.09
432.22	5989.43
432.41	5984.75
432.60	5905.17
432.79	6010.50
432.97	6141.57
433.16	5994.11
433.35	5970.71
433.54	6230.51
433.72	6153.27
433.91	6078.37
434.10	6169.65
434.28	6146.25
434.47	6216.46
434.66	6162.63
434.85	6235.19
435.03	6193.06
435.22	6328.81
435.41	6394.34
435.59	6366.26
435.78	6588.61
435.97	6567.54
436.16	6558.18
436.34	6307.74
436.53	6518.39
436.72	6628.40
436.90	6424.77
437.09	6597.97
437.28	6438.81
437.46	6583.93
437.65	6576.91
437.84	6885.86
438.02	6785.21
438.21	6729.04
438.40	6661.16
438.58	7049.69
438.77	6846.07
438.96	7087.14
439.14	7206.51
439.33	7049.69
439.52	7103.53
439.70	7417.16
439.89	7520.14
440.08	7543.55
440.26	7440.56
440.45	7300.13
440.63	7536.52
440.82	7606.74
441.01	7529.50
441.19	7749.51
441.38	7723.77
441.57	7892.29
441.75	7793.98
441.94	8044.42
442.12	8121.66
442.31	8095.91
442.50	8049.10
442.68	8032.72
442.87	8177.83
443.05	8215.28
443.24	8360.39
443.43	8124.00
443.61	8255.07
443.80	8601.47
443.98	8147.40
444.17	7967.18
444.35	8133.36
444.54	8360.39
444.73	8308.90
444.91	8196.56
445.10	8421.25
445.28	8498.49
445.47	8346.35
445.65	8325.29
445.84	8526.57
446.02	8580.40
446.21	8671.68
446.39	8383.80
446.58	8505.51
446.77	8571.04
446.95	8369.76
447.14	8561.68
447.32	8645.94
447.51	8538.27
447.69	8393.16
447.88	8896.38
448.06	8561.68
448.25	8629.56
448.43	8767.65
448.62	8964.25
448.80	8685.73
448.99	8592.11
449.17	8706.79
449.36	8531.25
449.54	8896.38
449.73	9069.58
449.91	9069.58
450.10	8732.54
450.28	9202.99
450.46	9146.81
450.65	8915.10
450.83	8966.59
451.02	9057.87
451.20	9202.99
451.39	9153.84
451.57	9221.71
451.76	9212.35
451.94	9387.89
452.13	9350.44
452.31	9350.44
452.49	9291.93
452.68	9233.41
452.86	9315.33
453.05	9659.39
453.23	9617.26
453.42	9542.36
453.60	9561.09
453.78	9666.41
453.97	9408.95
454.15	9631.30
454.34	9568.11
454.52	9724.93
454.70	9689.82
454.89	9851.31
455.07	9977.70
455.26	9818.55
455.44	10031.54
455.62	9734.29
455.81	10003.45
455.99	10214.10
456.17	10209.42
456.36	9998.77
456.54	10349.85
456.73	10399.00
456.91	10644.76
457.09	10445.81
457.28	10265.59
457.46	10576.88
457.64	10583.90
457.83	10602.63
458.01	10443.47
458.19	10644.76
458.38	10527.73
458.56	10787.53
458.74	10890.51
458.93	10904.56
459.11	10736.04
459.29	10834.34
459.48	10979.45
459.66	10794.55
459.84	10913.92
460.03	11199.46
460.21	11002.86
460.39	10995.84
460.57	11049.67
460.76	11077.76
460.94	11358.62
461.12	11288.40
461.31	11379.68
461.49	11192.44
461.67	11279.04
461.85	11447.56
462.04	11344.58
462.22	11604.38
462.40	11796.30
462.59	11571.61
462.77	11653.53
462.95	11763.53
463.13	11634.80
463.32	11892.26
463.50	11915.67
463.68	11808.00
463.86	12222.28
464.05	11763.53
464.23	11681.61
464.41	12044.40
464.59	11639.48
464.78	12098.23
464.96	12156.74
465.14	12030.35
465.32	12067.80
465.50	12318.24
465.69	12372.07
465.87	12156.74
466.05	12182.49
466.23	12226.96
466.41	12255.04
466.60	12510.16
466.78	12468.03
466.96	12215.26
467.14	12299.52
467.32	12435.27
467.51	12674.00
467.69	12149.72
467.87	12566.34
468.05	12730.17
468.23	12519.53
468.41	12528.89
468.60	12629.53
468.78	12718.47
468.96	12547.61
469.14	12784.01
469.32	12999.34
469.50	12924.44
469.69	13200.62
469.87	13188.92
470.05	13336.37
470.23	13415.95
470.41	13327.01
470.59	13572.77
470.77	13144.45
470.95	13303.60
471.14	13633.62
471.32	13476.80
471.50	13633.62
471.68	13652.34
471.86	13642.98
472.04	13853.63
472.22	14200.03
472.40	13806.82
472.58	13862.99
472.77	13909.80
472.95	14017.47
473.13	15087.09
473.31	14125.13
473.49	14420.04
473.67	14136.84
473.85	14548.77
474.03	14803.89
474.21	14614.30
474.39	14939.64
474.57	14810.91
474.75	15145.61
474.93	14824.95
475.12	15063.69
475.30	15215.82
475.48	14967.73
475.66	15187.74
475.84	15386.68
476.02	15496.69
476.20	15552.86
476.38	16051.39
476.56	16107.57
476.74	16042.03
476.92	15990.54
477.10	15882.88
477.28	16236.30
477.46	16278.43
477.64	16301.83
477.82	16669.30
478.00	17193.58
478.18	17067.19
478.36	16994.63
478.54	17057.82
478.72	17172.51
478.90	17563.38
479.08	17956.59
479.26	17839.56
479.44	17949.57
479.62	17769.35
479.80	18153.20
479.98	18312.35
480.16	18436.40
480.34	18487.89
480.52	18829.61
480.70	18895.14
480.88	18593.22
481.06	18853.02
481.24	18733.65
481.41	19054.30
481.59	19711.99
481.77	19840.72
481.95	19798.59
482.13	19569.22
482.31	19798.59
482.49	20376.70
482.67	20421.17
482.85	20467.98
483.03	20512.46
483.21	21020.35
483.39	21216.96
483.57	21181.85
483.74	21390.16
483.92	21378.45
484.10	21628.89
484.28	21916.78
484.46	22143.81
484.64	22436.38
484.82	22359.14
485.00	22775.75
485.18	22862.35
485.35	22991.08
485.53	23009.81
485.71	23136.20
485.89	23934.32
486.07	23482.59
486.25	23658.14
486.43	23861.76
486.61	24112.20
486.78	24189.44
486.96	24355.61
487.14	24706.70
487.32	24863.51
487.50	25170.12
487.68	25488.43
487.85	25617.16
488.03	25790.36
488.21	25893.35
488.39	25963.56
488.57	26185.91
488.75	26333.37
488.92	26525.29
489.10	26897.44
489.28	27145.53
489.46	27377.25
489.64	26923.18
489.81	27758.75
489.99	27812.59
490.17	27843.01
490.35	28489.00
490.53	28606.03
490.70	28847.10
490.88	28886.89
491.06	28856.46
491.24	28964.13
491.41	29376.06
491.59	29624.16
491.77	29509.47
491.95	30019.71
492.13	30012.69
492.30	30094.61
492.48	30253.76
492.66	30391.86
492.84	30661.02
493.01	31206.36
493.19	30677.40
493.37	31145.51
493.54	31232.11
493.72	31887.46
493.90	31660.43
494.08	31735.32
494.25	32456.21
494.43	32540.47
494.61	32720.69
494.79	32884.53
494.96	32826.01
495.14	32938.36
495.32	33640.52
495.49	33654.56
495.67	33097.52
495.85	33965.85
496.02	33944.79
496.20	34391.83
496.38	33802.02
496.55	34377.79
496.73	35091.65
496.91	34796.74
497.09	35000.37
497.26	35419.33
497.44	35496.56
497.62	35452.09
497.79	36201.07
497.97	36165.96
498.14	36673.85
498.32	36430.44
498.50	36172.98
498.67	36652.79
498.85	36849.39
499.03	36825.99
499.20	37317.50
499.38	36788.54
499.56	37258.99
499.73	37422.83
499.91	37497.72
500.08	37862.85
500.26	37780.93
500.44	38045.41
500.61	38335.63
500.79	37954.13
500.97	38328.61
501.14	38838.85
501.32	39023.75
501.49	38993.32
501.67	39030.77
501.84	39393.56
502.02	39271.85
502.20	39225.04
502.37	39615.91
502.55	39466.11
502.72	39793.79
502.90	40002.10
503.07	39662.72
503.25	39763.36
503.43	39995.07
503.60	40657.45
503.78	40467.86
503.95	40392.97
504.13	40725.32
504.30	41031.93
504.48	40762.77
504.65	41053.00
504.83	41879.21
505.01	41443.87
505.18	41249.60
505.36	41965.81
505.53	41413.44
505.71	41701.32
505.88	42136.66
506.06	41811.33
506.23	42520.51
506.41	42356.67
506.58	42415.19
506.76	42396.46
506.93	42871.59
507.11	42572.00
507.28	43164.16
507.46	43037.77
507.63	43297.57
507.81	43271.82
507.98	42909.04
508.16	43896.75
508.33	43955.26
508.50	44144.84
508.68	44374.22
508.85	44158.89
509.03	44430.39
509.20	44542.74
509.38	44645.72
509.55	44739.34
509.73	44472.52
509.90	44767.43
510.08	44856.37
510.25	45434.48
510.42	45132.55
510.60	45338.52
510.77	45883.86
510.95	46036.00
511.12	45736.41
511.30	45572.57
511.47	45773.86
511.64	45607.68
511.82	45904.93
511.99	45804.28
512.17	46113.23
512.34	46005.57
512.51	46478.36
512.69	47042.43
512.86	46953.49
513.04	46780.29
513.21	46951.15
513.38	47576.07
513.56	47136.05
513.73	46979.23
513.90	47133.71
514.08	47037.75
514.25	47845.23
514.43	47526.92
514.60	47704.80
514.77	47629.90
514.95	47971.62
515.12	47966.94
515.29	47782.04
515.47	48095.67
515.64	48086.31
515.81	48048.86
515.99	48409.30
516.16	48498.24
516.33	48509.94
516.51	48802.51
516.68	48615.27
516.85	48804.85
517.03	49291.68
517.20	48718.25
517.37	49130.19
517.54	48931.24
517.72	49354.88
517.89	49144.23
518.06	49411.05
518.24	49408.71
518.41	49462.54
518.58	49806.60
518.75	49600.63
518.93	49907.24
519.10	49586.59
519.27	50337.90
519.45	50176.40
519.62	50120.23
519.79	50246.62
519.96	50223.22
520.14	50354.29
520.31	50265.34
520.48	50735.79
520.65	50841.12
520.83	50899.63
521.00	50761.54
521.17	51091.55
521.34	50852.82
521.52	50920.70
521.69	51138.36
521.86	51398.16
522.03	51267.09
522.20	51657.96
522.38	51805.42
522.55	51360.72
522.72	51697.75
522.89	51805.42
523.07	51810.10
523.24	51887.34
523.41	52088.62
523.58	51784.35
523.75	52102.67
523.92	51749.24
524.10	52170.54
524.27	52502.90
524.44	52322.68
524.61	52210.33
524.78	52315.65
524.96	52587.16
525.13	52591.84
525.30	52715.89
525.47	52851.64
525.64	52767.38
525.81	52736.95
525.98	53160.59
526.16	52893.77
526.33	52891.43
526.50	53544.44
526.67	53102.07
526.84	52896.11
527.01	53001.43
527.18	53036.54
527.36	53174.63
527.53	53174.63
527.70	53724.66
527.87	53769.13
528.04	53389.96
528.21	53354.85
528.38	53916.58
528.55	53867.43
528.72	53495.28
528.89	53872.11
529.07	53691.89
529.24	53652.10
529.41	53923.60
529.58	54106.16
529.75	54068.72
529.92	54019.56
530.09	54127.23
530.26	54246.60
530.43	54232.55
530.60	53797.21
530.77	53975.09
530.94	54246.60
531.11	54267.66
531.28	54471.29
531.46	54546.18
531.63	54695.98
531.80	54597.68
531.97	54518.10
532.14	54630.44
532.31	54588.31
532.48	54710.02
532.65	54852.80
532.82	54656.19
532.99	54946.42
533.16	54539.16
533.33	54983.86
533.50	55049.40
533.67	55105.57
533.84	54920.67
534.01	54927.69
534.18	54927.69
534.35	55487.08
534.52	55145.36
534.69	55461.33
534.86	55377.08
535.03	55164.09
535.20	55473.04
535.37	55423.89
535.54	55749.22
535.71	55580.70
535.88	55531.55
536.05	55526.87
536.22	55739.86
536.38	55847.52
536.55	55831.14
536.72	55704.75
536.89	55807.73
537.06	55985.61
537.23	55779.65
537.40	55833.48
537.57	56154.13
537.74	56336.69
537.91	56100.30
538.08	56016.04
538.25	56004.34
538.42	56097.96
538.59	56189.24
538.75	56027.74
538.92	55859.23
539.09	56060.51
539.26	56353.08
539.43	56423.29
539.60	56514.58
539.77	56374.14
539.94	56662.03
540.11	56647.99
540.28	56219.67
540.44	56657.35
540.61	56552.02
540.78	56507.55
540.95	56498.19
541.12	56587.13
541.29	56699.48
541.46	57013.11
541.62	56795.44
541.79	56919.49
541.96	56664.37
542.13	56753.31
542.30	56657.35
542.47	56912.47
542.63	56891.40
542.80	57134.82
542.97	57315.04
543.14	57495.26
543.31	57212.06
543.48	57553.77
543.64	57724.63
543.81	57502.28
543.98	57652.08
544.15	57567.82
544.32	57602.92
544.48	57879.11
544.65	57464.83
544.82	57647.39
544.99	57392.28
545.16	57806.55
545.32	57694.21
545.49	57932.94
545.66	58021.88
545.83	57876.77
546.00	57982.09
546.16	57846.34
546.33	57858.04
546.50	57666.12
546.67	57916.56
546.83	57710.59
547.00	57958.69
547.17	57907.19
547.34	57993.79
547.50	58300.40
547.67	58368.28
547.84	58230.19
548.00	58169.33
548.17	58717.02
548.34	58333.17
548.51	58298.06
548.67	58291.04
548.84	58213.80
549.01	58300.40
549.18	58333.17
549.34	58368.28
549.51	58272.32
549.68	58592.97
549.84	58504.03
550.01	58803.62
550.18	58518.07
550.34	58534.46
550.51	58569.57
550.68	58438.50
550.84	58450.20
551.01	58796.60
551.18	58702.98
551.34	58592.97
551.51	58798.94
551.68	58754.47
551.84	58607.01
552.01	58583.61
552.18	58791.92
552.34	58660.85
552.51	58908.94
552.68	58728.72
552.84	58897.24
553.01	59028.31
553.18	58810.64
553.34	59004.91
553.51	58920.65
553.67	59100.87
553.84	59236.62
554.01	59077.46
554.17	59126.61
554.34	59311.52
554.51	59355.99
554.67	58969.80
554.84	59337.26
555.00	59243.64
555.17	59040.01
555.33	59220.23
555.50	59138.32
555.67	59196.83
555.83	59023.63
556.00	59248.32
556.16	59505.78
556.33	59402.80
556.50	59501.10
556.66	59290.45
556.83	59372.37
556.99	59573.66
557.16	59746.86
557.32	59707.07
557.49	59657.91
557.65	59451.95
557.82	59578.34
557.98	59601.74
558.15	59641.53
558.32	59480.03
558.48	59505.78
558.65	59779.62
558.81	59421.52
558.98	59508.12
559.14	59611.10
559.31	59955.16
559.47	59770.26
559.64	59887.29
559.80	59835.80
559.97	59807.71
560.13	59732.81
560.30	59737.49
560.46	59987.93
560.63	60048.78
560.79	59868.56
560.96	59866.22
561.12	60037.08
561.29	60207.94
561.45	60048.78
561.61	59973.89
561.78	60044.10
561.94	60060.49
562.11	60130.70
562.27	60013.68
562.44	60198.58
562.60	60193.90
562.77	60156.45
562.93	60069.85
563.10	60184.54
563.26	60053.47
563.42	60441.99
563.59	59999.63
563.75	60243.05
563.92	60245.39
564.08	60250.07
564.24	60310.92
564.41	60172.83
564.57	60406.89
564.74	60409.23
564.90	60353.05
565.07	60395.18
565.23	60320.29
565.39	60278.16
565.56	60444.33
565.72	60491.15
565.88	60252.41
566.05	60165.81
566.21	60294.54
566.38	60530.93
566.54	60573.06
566.70	60409.23
566.87	60498.17
567.03	60343.69
567.19	60402.21
567.36	60441.99
567.52	60444.33
567.68	60502.85
567.85	60493.49
568.01	60678.39
568.17	60439.65
568.34	60514.55
568.50	60512.21
568.66	60495.83
568.83	60734.56
568.99	60376.46
569.15	60507.53
569.32	60664.35
569.48	60250.07
569.64	60797.76
569.81	60601.15
569.97	60472.42
570.13	60825.84
570.30	60472.42
570.46	60673.71
570.62	60842.23
570.78	60715.84
570.95	60933.51
571.11	60774.35
571.27	60610.51
571.43	60654.98
571.60	60874.99
571.76	60795.42
571.92	60725.20
572.09	60746.26
572.25	60708.82
572.41	60647.96
572.57	60753.29
572.74	60879.67
572.90	60706.47
573.06	60762.65
573.22	60790.73
573.38	60596.47
573.55	60694.77
573.71	61080.96
573.87	60872.65
574.03	60776.69
574.20	60853.93
574.36	60788.39
574.52	60809.46
574.68	60837.54
574.84	61055.21
575.01	60811.80
575.17	61048.19
575.33	60921.80
575.49	60877.33
575.65	60788.39
575.82	61031.81
575.98	60898.40
576.14	61205.01
576.30	60940.53
576.46	60994.36
576.62	60912.44
576.79	60989.68
576.95	60736.90
577.11	60821.16
577.27	61034.15
577.43	60889.04
577.59	60725.20
577.75	60956.91
577.92	60734.56
578.08	60940.53
578.24	61090.32
578.40	61071.60
578.56	61413.32
578.72	61013.08
578.88	61179.26
579.04	61137.13
579.21	60996.70
579.37	61212.03
579.53	61059.90
579.69	60940.53
579.85	60858.61
580.01	61120.75
580.17	61080.96
580.33	61020.11
580.49	61228.41
580.65	61137.13
580.82	61038.83
580.98	60917.12
581.14	60832.86
581.30	61017.77
581.46	61073.94
581.62	61165.22
581.78	61158.20
581.94	61155.86
582.10	61130.11
582.26	60968.61
582.42	60959.25
582.58	61151.18
582.74	60999.04
582.90	61193.31
583.06	61167.56
583.22	60896.06
583.38	60917.12
583.54	61137.13
583.70	61247.14
583.86	61043.51
584.02	61127.77
584.18	61216.71
584.34	61132.45
584.50	61183.94
584.66	61116.07
584.82	60945.21
584.98	61326.72
585.14	61146.50
585.30	61095.00
585.46	61200.33
585.62	61228.41
585.78	61310.33
585.94	60942.87
586.10	61406.30
586.26	61286.93
586.42	61202.67
586.58	61312.67
586.74	61102.03
586.90	61261.18
587.06	61073.94
587.22	61165.22
587.38	61436.72
587.54	61375.87
587.70	61352.46
587.86	61329.06
588.02	61350.12
588.18	61457.79
588.34	61223.73
588.49	61347.78
