SpectraSuite Data File
++++++++++++++++++++++++++++++++++++
Date: Fri Oct 25 10:44:22 EDT 2013
User: price-jones
Dark Spectrum Present: No
Reference Spectrum Present: No
Number of Sampled Component Spectra: 1
Spectrometers: USB2+H05261
Integration Time (usec): 100000 (USB2+H05261)
Spectra Averaged: 1 (USB2+H05261)
Boxcar Smoothing: 0 (USB2+H05261)
Correct for Electrical Dark: No (USB2+H05261)
Strobe/Lamp Enabled: No (USB2+H05261)
Correct for Detector Non-linearity: No (USB2+H05261)
Correct for Stray Light: No (USB2+H05261)
Number of Pixels in Processed Spectrum: 2048
>>>>>Begin Processed Spectral Data<<<<<
365.73	79.58
365.92	79.58
366.12	79.58
366.32	0.00
366.52	23.41
366.72	14.04
366.91	25.75
367.11	67.88
367.31	0.00
367.51	11.70
367.70	44.47
367.90	25.75
368.10	0.00
368.30	44.47
368.49	42.13
368.69	37.45
368.89	65.54
369.09	23.41
369.28	18.72
369.48	72.56
369.68	9.36
369.87	42.13
370.07	84.26
370.27	152.13
370.47	236.39
370.66	341.72
370.86	416.62
371.06	435.34
371.25	484.49
371.45	430.66
371.65	482.15
371.84	442.36
372.04	498.53
372.24	425.98
372.44	414.27
372.63	493.85
372.83	540.66
373.03	535.98
373.22	524.28
373.42	470.45
373.62	547.69
373.81	524.28
374.01	610.88
374.21	624.92
374.40	564.07
374.60	543.00
374.79	606.20
374.99	636.63
375.19	704.50
375.38	676.41
375.58	622.58
375.78	603.86
375.97	599.18
376.17	629.60
376.37	634.29
376.56	657.69
376.76	683.44
376.95	592.16
377.15	559.39
377.35	664.71
377.54	662.37
377.74	636.63
377.93	692.80
378.13	681.10
378.33	669.39
378.52	641.31
378.72	685.78
378.91	674.07
379.11	662.37
379.31	697.48
379.50	734.93
379.70	720.88
379.89	760.67
380.09	699.82
380.28	770.04
380.48	748.97
380.68	702.16
380.87	737.27
381.07	741.95
381.26	779.40
381.46	716.20
381.65	753.65
381.85	858.98
382.04	777.06
382.24	725.57
382.43	755.99
382.63	688.12
382.83	688.12
383.02	746.63
383.22	699.82
383.41	734.93
383.61	788.76
383.80	777.06
384.00	767.70
384.19	882.38
384.39	781.74
384.58	748.97
384.78	809.83
384.97	830.89
385.17	730.25
385.36	791.10
385.56	779.40
385.75	816.85
385.95	840.25
386.14	837.91
386.34	833.23
386.53	926.85
386.72	873.02
386.92	908.13
387.11	861.32
387.31	898.77
387.50	957.28
387.70	833.23
387.89	901.11
388.09	971.32
388.28	889.40
388.48	938.55
388.67	976.00
388.86	947.92
389.06	938.55
389.25	1034.52
389.45	938.55
389.64	1057.92
389.84	1048.56
390.03	1013.45
390.22	994.73
390.42	1011.11
390.61	1074.31
390.81	1095.37
391.00	1069.62
391.19	1050.90
391.39	1144.52
391.58	1074.31
391.78	1088.35
391.97	1081.33
392.16	1151.54
392.36	1064.94
392.55	1081.33
392.75	1013.45
392.94	999.41
393.13	1025.15
393.33	1039.20
393.52	1076.65
393.71	1083.67
393.91	1146.86
394.10	1097.71
394.29	1153.88
394.49	1125.80
394.68	1100.05
394.88	1299.00
395.07	1210.06
395.26	1289.64
395.46	1231.12
395.65	1343.47
395.84	1247.51
396.04	1228.78
396.23	1177.29
396.42	1043.88
396.62	1259.21
396.81	1160.91
397.00	1282.61
397.19	1329.42
397.39	1390.28
397.58	1430.07
397.77	1451.13
397.97	1507.30
398.16	1565.82
398.35	1469.86
398.55	1472.20
398.74	1516.67
398.93	1511.99
399.12	1493.26
399.32	1586.88
399.51	1582.20
399.70	1685.19
399.90	1724.97
400.09	1643.06
400.28	1806.89
400.47	1668.80
400.67	1624.33
400.86	1724.97
401.05	1785.83
401.24	1783.49
401.44	1774.13
401.63	1708.59
401.82	1860.73
402.01	1837.32
402.21	1767.10
402.40	1837.32
402.59	1849.02
402.78	1886.47
402.97	1844.34
403.17	1954.35
403.36	1844.34
403.55	1893.49
403.74	1893.49
403.93	1921.58
404.13	1811.57
404.32	1820.94
404.51	1996.48
404.70	2031.58
404.89	1893.49
405.09	2125.21
405.28	2026.90
405.47	2024.56
405.66	2026.90
405.85	2052.65
406.05	2090.10
406.24	2036.27
406.43	2069.03
406.62	2193.08
406.81	2094.78
407.00	2244.57
407.20	2172.02
407.39	2108.82
407.58	2153.29
407.77	2307.77
407.96	2300.75
408.15	2314.79
408.34	2253.94
408.54	2401.39
408.73	2338.20
408.92	2382.67
409.11	2452.88
409.30	2370.96
409.49	2377.98
409.68	2410.75
409.87	2333.51
410.07	2485.65
410.26	2443.52
410.45	2487.99
410.64	2537.14
410.83	2731.41
411.02	2539.48
411.21	2726.72
411.40	2825.03
411.59	2715.02
411.78	2810.98
411.98	2729.06
412.17	2733.75
412.36	2829.71
412.55	2775.88
412.74	2789.92
412.93	2846.09
413.12	2918.65
413.31	2974.82
413.50	2963.12
413.69	2995.89
413.88	3026.31
414.07	3098.87
414.26	3023.97
414.45	3054.40
414.64	3077.80
414.83	3269.73
415.02	3190.15
415.22	3206.53
415.41	3274.41
415.60	3236.96
415.79	3260.37
415.98	3295.47
416.17	3396.12
416.36	3309.52
416.55	3339.94
416.74	3389.10
416.93	3304.84
417.12	3517.83
417.31	3595.06
417.50	3473.36
417.69	3618.47
417.88	3578.68
418.07	3531.87
418.26	3665.28
418.45	3655.92
418.64	3667.62
418.83	3803.37
419.02	3665.28
419.21	3721.45
419.39	3779.97
419.58	3637.19
419.77	3618.47
419.96	3728.47
420.15	3887.63
420.34	3719.11
420.53	3941.46
420.72	3786.99
420.91	3913.38
421.10	4035.08
421.29	3943.80
421.48	3955.51
421.67	3906.35
421.86	3955.51
422.05	3913.38
422.24	3990.61
422.43	4018.70
422.61	3934.44
422.80	4131.05
422.99	4058.49
423.18	4112.32
423.37	3974.23
423.56	3925.08
423.75	4023.38
423.94	3976.57
424.13	3899.33
424.32	3836.14
424.50	4121.68
424.69	4163.81
424.88	4194.24
425.07	3960.19
425.26	4147.43
425.45	4035.08
425.64	4053.81
425.83	4145.09
426.01	4201.26
426.20	4007.00
426.39	4126.36
426.58	3985.93
426.77	4023.38
426.96	3967.21
427.15	4124.02
427.33	4147.43
427.52	4161.47
427.71	4388.50
427.90	4325.31
428.09	4306.59
428.28	4442.34
428.46	4369.78
428.65	4458.72
428.84	4276.16
429.03	4379.14
429.22	4283.18
429.40	4292.54
429.59	4341.69
429.78	4009.34
429.97	4063.17
430.16	4074.87
430.34	4318.29
430.53	4430.63
430.72	4273.82
430.91	4395.53
431.10	4498.51
431.28	4739.58
431.47	4814.48
431.66	4786.40
431.85	4795.76
432.03	4734.90
432.22	4882.36
432.41	4734.90
432.60	4704.48
432.79	4940.87
432.97	5006.41
433.16	4957.25
433.35	4610.86
433.54	4791.08
433.72	4882.36
433.91	4849.59
434.10	4865.97
434.28	4947.89
434.47	4964.28
434.66	5104.71
434.85	5228.76
435.03	5029.81
435.22	5165.56
435.41	5259.18
435.59	5266.21
435.78	5256.84
435.97	5383.23
436.16	5247.48
436.34	5434.72
436.53	5219.39
436.72	5533.03
436.90	5172.58
437.09	5324.72
437.28	5242.80
437.46	5320.04
437.65	5411.32
437.84	5378.55
438.02	5364.51
438.21	5247.48
438.40	5327.06
438.58	5579.84
438.77	5582.18
438.96	5607.92
439.14	5652.39
439.33	5900.49
439.52	5741.33
439.70	5827.93
439.89	5870.06
440.08	5987.09
440.26	5998.79
440.45	5895.81
440.63	5905.17
440.82	6176.67
441.01	6197.74
441.19	6181.35
441.38	6218.80
441.57	6181.35
441.75	6511.37
441.94	6558.18
442.12	6459.88
442.31	6698.61
442.50	6654.14
442.68	6541.80
442.87	6527.75
443.05	6394.34
443.24	6574.56
443.43	6651.80
443.61	6724.36
443.80	6885.86
443.98	6768.83
444.17	6427.11
444.35	6703.29
444.54	6677.55
444.73	6761.81
444.91	6677.55
445.10	6810.96
445.28	6740.74
445.47	6619.04
445.65	6677.55
445.84	6799.26
446.02	6806.28
446.21	6717.34
446.39	6775.85
446.58	6785.21
446.77	6822.66
446.95	6759.47
447.14	6841.39
447.32	6986.50
447.51	7077.78
447.69	7037.99
447.88	6995.86
448.06	6906.92
448.25	6839.05
448.43	7084.80
448.62	7012.24
448.80	6895.22
448.99	7002.88
449.17	6951.39
449.36	7098.84
449.54	7201.83
449.73	7403.11
449.91	7522.48
450.10	7302.47
450.28	7445.24
450.46	7274.38
450.65	7531.84
450.83	7478.01
451.02	7438.22
451.20	7447.58
451.39	7393.75
451.57	7407.80
451.76	7328.22
451.94	7510.78
452.13	7564.61
452.31	7487.37
452.49	7452.27
452.68	7403.11
452.86	7382.05
453.05	7611.42
453.23	7616.10
453.42	7461.63
453.60	7599.72
453.78	7611.42
453.97	7791.64
454.15	7669.94
454.34	7616.10
454.52	7812.71
454.70	7749.51
454.89	7822.07
455.07	7707.38
455.26	7801.01
455.44	8236.35
455.62	8114.64
455.81	7960.16
455.99	8304.22
456.17	8112.30
456.36	8156.77
456.54	8011.65
456.73	8365.07
456.91	8526.57
457.09	8428.27
457.28	8454.02
457.46	8196.56
457.64	8451.67
457.83	8355.71
458.01	8100.59
458.19	8503.17
458.38	8489.12
458.56	8575.72
458.74	8664.66
458.93	8449.33
459.11	8554.66
459.29	8610.83
459.48	8730.20
459.66	8535.93
459.84	8641.26
460.03	8793.39
460.21	8964.25
460.39	8723.18
460.57	8741.90
460.76	9085.96
460.94	8940.85
461.12	8945.53
461.31	8992.34
461.49	8945.53
461.67	8840.20
461.85	9102.34
462.04	9163.20
462.22	9324.69
462.40	9334.06
462.59	9200.65
462.77	9170.22
462.95	9097.66
463.13	9231.07
463.32	9355.12
463.50	9378.53
463.68	9451.08
463.86	9413.63
464.05	9128.09
464.23	9151.49
464.41	9483.85
464.59	9238.09
464.78	9511.94
464.96	9495.55
465.14	9420.66
465.32	9528.32
465.50	9790.46
465.69	9516.62
465.87	9603.22
466.05	9540.02
466.23	9493.21
466.41	9661.73
466.60	9671.09
466.78	9565.77
466.96	9465.13
467.14	9579.81
467.32	9867.70
467.51	9554.07
467.69	9612.58
467.87	9895.78
468.05	9923.87
468.23	9795.14
468.41	9563.43
468.60	9748.33
468.78	9968.34
468.96	9919.19
469.14	9977.70
469.32	10066.64
469.50	9860.68
469.69	10113.45
469.87	10111.11
470.05	9966.00
470.23	10246.87
470.41	10132.18
470.59	10118.14
470.77	10216.44
470.95	10523.05
471.14	10518.37
471.32	10209.42
471.50	10885.83
471.68	10466.88
471.86	10747.74
472.04	10703.27
472.22	11012.22
472.40	10864.77
472.58	10834.34
472.77	10782.85
472.95	10881.15
473.13	11260.32
473.31	10841.36
473.49	10839.02
473.67	10937.32
473.85	10934.98
474.03	11323.51
474.21	11335.21
474.39	11583.31
474.57	11281.38
474.75	11618.42
474.93	11461.60
475.12	11445.22
475.30	11566.93
475.48	11557.57
475.66	11517.78
475.84	11398.41
476.02	11698.00
476.20	11623.10
476.38	12194.19
476.56	12510.16
476.74	12154.40
476.92	12201.21
477.10	12131.00
477.28	12592.08
477.46	12833.16
477.64	12800.39
477.82	12737.20
478.00	12957.21
478.18	12975.93
478.36	13193.60
478.54	13125.72
478.72	13099.98
478.90	13362.12
479.08	13640.64
479.26	13565.74
479.44	13584.47
479.62	13495.53
479.80	13713.20
479.98	13874.70
480.16	14347.48
480.34	14232.80
480.52	14422.38
480.70	14452.81
480.88	14242.16
481.06	14345.14
481.24	14422.38
481.41	14899.85
481.59	15084.75
481.77	14860.06
481.95	15136.24
482.13	15213.48
482.31	14860.06
482.49	15461.58
482.67	15288.38
482.85	15538.82
483.03	15398.38
483.21	15667.55
483.39	15742.44
483.57	15875.85
483.74	16175.44
483.92	16128.63
484.10	16107.57
484.28	16187.14
484.46	16496.10
484.64	16470.35
484.82	16673.98
485.00	16610.78
485.18	16872.92
485.35	16959.52
485.53	16631.85
485.71	16580.36
485.89	17067.19
486.07	17076.55
486.25	16842.50
486.43	17352.73
486.61	17645.30
486.78	17790.41
486.96	17741.26
487.14	18438.74
487.32	18387.25
487.50	18602.58
487.68	19058.98
487.85	19047.28
488.03	18904.51
488.21	19302.40
488.39	18806.20
488.57	19309.42
488.75	19417.08
488.92	19728.38
489.10	19957.75
489.28	19936.68
489.46	20280.74
489.64	20269.04
489.81	20798.00
489.99	20652.89
490.17	21055.46
490.35	20847.15
490.53	20732.47
490.70	21034.39
490.88	21179.51
491.06	21596.12
491.24	20982.90
491.41	21495.48
491.59	21619.53
491.77	21202.91
491.95	21584.42
492.13	21933.16
492.30	22174.24
492.48	22192.96
492.66	22398.93
492.84	22223.39
493.01	22431.69
493.19	22621.28
493.37	22801.50
493.54	23023.85
493.72	23070.66
493.90	23414.72
494.08	23529.41
494.25	23971.77
494.43	23718.99
494.61	23878.15
494.79	24430.51
494.96	24294.76
495.14	24156.67
495.32	24383.70
495.49	24606.05
495.67	24680.95
495.85	24828.40
496.02	25165.44
496.20	25324.60
496.38	25289.49
496.55	25656.95
496.73	26178.89
496.91	25553.97
497.09	25727.17
497.26	25806.75
497.44	25961.22
497.62	26043.14
497.79	26225.70
497.97	25781.00
498.14	26066.55
498.32	26333.37
498.50	26410.60
498.67	27091.70
498.85	26768.71
499.03	27016.80
499.20	26780.41
499.38	27215.75
499.56	27026.17
499.73	27300.01
499.91	27550.45
500.08	27295.33
500.26	27410.01
500.44	27400.65
500.61	27388.95
500.79	27557.47
500.97	27559.81
501.14	27828.97
501.32	27613.64
501.49	27821.95
501.67	28301.76
501.84	28517.09
502.02	28177.71
502.20	28460.91
502.37	28334.53
502.55	28512.41
502.72	28514.75
502.90	28680.92
503.07	28804.97
503.25	28858.81
503.43	29008.60
503.60	28811.99
503.78	28938.38
503.95	28968.81
504.13	29408.83
504.30	29575.01
504.48	29380.74
504.65	29598.41
504.83	29940.13
505.01	30029.07
505.18	30024.39
505.36	30272.49
505.53	30087.59
505.71	30789.75
505.88	30375.47
506.06	30176.53
506.23	30534.63
506.41	30384.83
506.58	30581.44
506.76	30356.75
506.93	30862.30
507.11	30899.75
507.28	31098.70
507.46	30675.06
507.63	31096.36
507.81	30991.03
507.98	31262.54
508.16	31562.12
508.33	31281.26
508.50	31304.67
508.68	32105.13
508.85	32165.98
509.03	31962.36
509.20	31770.43
509.38	32332.16
509.55	32297.05
509.73	32070.02
509.90	32063.00
510.08	32100.45
510.25	32044.27
510.42	32517.06
510.60	32528.77
510.77	32507.70
510.95	32978.15
511.12	32893.89
511.30	33102.20
511.47	33666.27
511.64	33401.79
511.82	33596.05
511.99	33165.39
512.17	33113.90
512.34	33479.02
512.51	33343.27
512.69	33596.05
512.86	33710.74
513.04	34096.92
513.21	34029.05
513.38	33680.31
513.56	33818.40
513.73	33448.60
513.90	33867.55
514.08	33851.17
514.25	34267.78
514.43	33965.85
514.60	34298.21
514.77	34284.17
514.95	34792.06
515.12	34438.64
515.29	34078.20
515.47	34726.53
515.64	34675.04
515.81	34899.73
515.99	34543.97
516.16	34864.62
516.33	34288.85
516.51	34721.85
516.68	34195.23
516.85	33621.80
517.03	34263.10
517.20	34782.70
517.37	35166.55
517.54	35285.92
517.72	35093.99
517.89	35061.22
518.06	34918.45
518.24	34808.45
518.41	35129.10
518.58	35187.61
518.75	35344.43
518.93	35800.83
519.10	35728.28
519.27	35910.84
519.45	35821.90
519.62	36156.60
519.79	36002.12
519.96	36273.62
520.14	36446.82
520.31	36362.56
520.48	36163.62
520.65	36432.78
520.83	36692.58
521.00	37102.17
521.17	36823.65
521.34	36931.31
521.52	37518.79
521.69	37170.05
521.86	37570.28
522.03	36999.19
522.20	37397.08
522.38	37294.10
522.55	37525.81
522.72	37703.69
522.89	37392.40
523.07	37397.08
523.24	37205.16
523.41	38012.64
523.58	38227.97
523.75	38366.06
523.92	38169.46
524.10	38274.78
524.27	38092.22
524.44	37804.33
524.61	38728.84
524.78	38375.42
524.96	38469.04
525.13	38232.65
525.30	39049.50
525.47	39021.41
525.64	38944.17
525.81	38305.21
525.98	38597.77
526.16	38579.05
526.33	38497.13
526.50	38637.56
526.67	38314.57
526.84	37949.45
527.01	38160.09
527.18	38682.03
527.36	39112.69
527.53	39299.94
527.70	39559.73
527.87	39505.90
528.04	39421.64
528.21	39559.73
528.38	39344.41
528.55	39810.17
528.72	40002.10
528.89	40112.10
529.07	39938.90
529.24	39702.51
529.41	40027.84
529.58	39643.99
529.75	40013.80
529.92	39709.53
530.09	40231.47
530.26	40072.31
530.43	40390.62
530.60	40484.25
530.77	40381.26
530.94	40535.74
531.11	40662.13
531.28	40549.78
531.46	40233.81
531.63	40491.27
531.80	40498.29
531.97	40065.29
532.14	40217.43
532.31	40128.48
532.48	40620.00
532.65	40519.35
532.82	40538.08
532.99	40711.28
533.16	40538.08
533.33	40402.33
533.50	40947.67
533.67	41308.11
533.84	40725.32
534.01	41324.50
534.18	40935.97
534.35	41333.86
534.52	41045.97
534.69	41219.17
534.86	41511.74
535.03	41500.04
535.20	41963.46
535.37	41832.39
535.54	42113.26
535.71	41411.10
535.88	41551.53
536.05	41551.53
536.22	41738.77
536.38	41563.23
536.55	41823.03
536.72	41600.68
536.89	41502.38
537.06	41713.03
537.23	41813.67
537.40	41720.05
537.57	42274.76
537.74	41926.02
537.91	42146.03
538.08	42157.73
538.25	42080.49
538.42	41975.17
538.59	42426.89
538.75	42171.77
538.92	42424.55
539.09	42462.00
539.26	42553.28
539.43	42281.78
539.60	42440.93
539.77	42485.40
539.94	42337.95
540.11	42220.92
540.28	42330.93
540.44	42588.39
540.61	42141.35
540.78	42646.90
540.95	42122.62
541.12	42457.32
541.29	42637.54
541.46	42583.71
541.62	42855.21
541.79	43426.30
541.96	42754.57
542.13	42621.16
542.30	42883.30
542.47	42810.74
542.63	43262.46
542.80	43131.39
542.97	43997.39
543.14	43824.19
543.31	43662.69
543.48	43775.04
543.64	44079.31
543.81	44128.46
543.98	44189.31
544.15	44158.89
544.32	43871.00
544.48	44020.80
544.65	44184.63
544.82	44013.77
544.99	43484.81
545.16	43599.50
545.32	43948.24
545.49	44610.61
545.66	44027.82
545.83	44186.97
546.00	44240.81
546.16	43992.71
546.33	44058.24
546.50	43819.51
546.67	44264.21
546.83	43892.07
547.00	44280.60
547.17	44135.48
547.34	43803.13
547.50	44329.75
547.67	44252.51
547.84	44624.65
548.00	44034.84
548.17	44987.44
548.34	44793.17
548.51	44898.50
548.67	44753.38
548.84	44786.15
549.01	44804.88
549.18	44465.50
549.34	44514.65
549.51	44783.81
549.68	45097.44
549.84	44900.84
550.01	45141.91
550.18	44765.09
550.34	45001.48
550.51	45034.25
550.68	45020.20
550.84	44795.51
551.01	45612.36
551.18	45404.05
551.34	45146.59
551.51	45006.16
551.68	45291.71
551.84	45212.13
552.01	45191.06
552.18	45184.04
552.34	45294.05
552.51	45338.52
552.68	45502.35
552.84	45605.34
553.01	45450.86
553.18	45315.11
553.34	45319.79
553.51	45045.95
553.67	45420.44
553.84	46099.19
554.01	45862.80
554.17	45467.25
554.34	45579.59
554.51	45642.79
554.67	46061.74
554.84	45443.84
555.00	45771.52
555.17	45591.30
555.33	45890.88
555.50	45481.29
555.67	45862.80
555.83	45528.10
556.00	45900.25
556.16	45759.81
556.33	45598.32
556.50	45720.02
556.66	46082.81
556.83	45598.32
556.99	45715.34
557.16	46057.06
557.32	45954.08
557.49	46146.00
557.65	45778.54
557.82	46106.21
557.98	46146.00
558.15	45677.90
558.32	46087.49
558.48	45502.35
558.65	45783.22
558.81	45595.98
558.98	46017.27
559.14	45710.66
559.31	45956.42
559.47	45720.02
559.64	46450.27
559.80	46183.45
559.97	46630.49
560.13	46024.29
560.30	45890.88
560.46	46174.09
560.63	46417.50
560.79	46623.47
560.96	46454.95
561.12	46511.13
561.29	46396.44
561.45	45797.26
561.61	46288.77
561.78	45986.85
561.94	46092.17
562.11	45998.55
562.27	46679.64
562.44	46272.39
562.60	46508.79
562.77	46632.83
562.93	46763.90
563.10	46473.68
563.26	46265.37
563.42	46494.74
563.59	46635.17
563.75	45933.01
563.92	46515.81
564.08	46576.66
564.24	46623.47
564.41	46616.45
564.57	46637.51
564.74	46370.69
564.90	46358.99
565.07	46628.15
565.23	46464.32
565.39	46670.28
565.56	46660.92
565.72	45986.85
565.88	46529.85
566.05	46326.22
566.21	46637.51
566.38	46211.54
566.54	46571.98
566.70	46766.24
566.87	47075.19
567.03	46550.91
567.19	46934.76
567.36	46600.07
567.52	46651.56
567.68	46674.96
567.85	46808.37
568.01	46791.99
568.17	46794.33
568.34	47004.98
568.50	46899.65
568.66	46101.53
568.83	47164.14
568.99	46541.55
569.15	46586.02
569.32	46808.37
569.48	46740.50
569.64	47283.50
569.81	46962.85
569.97	46447.93
570.13	46588.36
570.30	46820.08
570.46	46213.88
570.62	46178.77
570.78	46543.89
570.95	46557.94
571.11	47304.57
571.27	46511.13
571.43	46946.47
571.60	46806.03
571.76	46590.70
571.92	46749.86
572.09	46932.42
572.25	47065.83
572.41	46794.33
572.57	47007.32
572.74	47374.78
572.90	46967.53
573.06	47077.54
573.22	46705.39
573.38	46696.03
573.55	46845.82
573.71	46747.52
573.87	47180.52
574.03	46904.34
574.20	47075.19
574.36	46967.53
574.52	46904.34
574.68	47023.70
574.84	46932.42
575.01	46906.68
575.17	46677.30
575.33	46689.01
575.49	46380.06
575.65	47051.79
575.82	46995.62
575.98	46892.63
576.14	47103.28
576.30	47393.51
576.46	46934.76
576.62	46873.91
576.79	46616.45
576.95	46773.27
577.11	46864.55
577.27	47091.58
577.43	47072.85
577.59	46527.51
577.75	46539.21
577.92	46171.75
578.08	46714.75
578.24	46560.28
578.40	46628.15
578.56	47033.07
578.72	46976.89
578.88	46728.80
579.04	47037.75
579.21	46768.58
579.37	46749.86
579.53	47028.38
579.69	46412.82
579.85	46405.80
580.01	47253.08
580.17	47147.75
580.33	47199.24
580.49	47267.12
580.65	46791.99
580.82	46813.05
580.98	46932.42
581.14	47271.80
581.30	47124.35
581.46	47100.94
581.62	47545.64
581.78	47215.63
581.94	47405.21
582.10	47035.41
582.26	47173.50
582.42	46763.90
582.58	47133.71
582.74	46686.67
582.90	46742.84
583.06	47302.23
583.22	47058.81
583.38	47393.51
583.54	47543.30
583.70	47021.36
583.86	47342.02
584.02	46918.38
584.18	47152.43
584.34	47033.07
584.50	46550.91
584.66	46897.31
584.82	46864.55
584.98	47332.65
585.14	47356.06
585.30	47107.96
585.46	47175.84
585.62	46604.75
585.78	47033.07
585.94	46328.56
586.10	47129.03
586.26	47136.05
586.42	47236.69
586.58	47222.65
586.74	47002.64
586.90	46932.42
587.06	47297.55
587.22	46831.78
587.38	46775.61
587.54	47217.97
587.70	47021.36
587.86	47140.73
588.02	47082.22
588.18	47391.17
588.34	46892.63
588.49	46817.74
588.65	46382.40
588.81	46501.76
588.97	46665.60
589.13	46342.61
589.29	46539.21
589.45	46871.57
589.61	46693.69
589.77	47124.35
589.93	46745.18
