SpectraSuite Data File
++++++++++++++++++++++++++++++++++++
Date: Fri Oct 25 10:48:27 EDT 2013
User: price-jones
Dark Spectrum Present: No
Reference Spectrum Present: No
Number of Sampled Component Spectra: 1
Spectrometers: USB2+H05261
Integration Time (usec): 100000 (USB2+H05261)
Spectra Averaged: 1 (USB2+H05261)
Boxcar Smoothing: 0 (USB2+H05261)
Correct for Electrical Dark: No (USB2+H05261)
Strobe/Lamp Enabled: No (USB2+H05261)
Correct for Detector Non-linearity: No (USB2+H05261)
Correct for Stray Light: No (USB2+H05261)
Number of Pixels in Processed Spectrum: 2048
>>>>>Begin Processed Spectral Data<<<<<
365.73	86.60
365.92	86.60
366.12	86.60
366.32	105.32
366.52	39.79
366.72	60.85
366.91	44.47
367.11	65.54
367.31	7.02
367.51	9.36
367.70	0.00
367.90	46.81
368.10	81.92
368.30	91.28
368.49	0.00
368.69	42.13
368.89	77.24
369.09	42.13
369.28	23.41
369.48	51.49
369.68	60.85
369.87	173.20
370.07	110.01
370.27	105.32
370.47	187.24
370.66	402.57
370.86	383.85
371.06	463.43
371.25	547.69
371.45	491.51
371.65	454.06
371.84	510.24
372.04	468.11
372.24	496.19
372.44	552.37
372.63	472.79
372.83	521.94
373.03	458.74
373.22	528.96
373.42	547.69
373.62	568.75
373.81	578.11
374.01	582.79
374.21	629.60
374.40	554.71
374.60	571.09
374.79	554.71
374.99	613.22
375.19	643.65
375.38	575.77
375.58	540.66
375.78	552.37
375.97	571.09
376.17	585.13
376.37	613.22
376.56	629.60
376.76	657.69
376.95	674.07
377.15	678.76
377.35	664.71
377.54	638.97
377.74	610.88
377.93	617.90
378.13	615.56
378.33	669.39
378.52	669.39
378.72	711.52
378.91	676.41
379.11	709.18
379.31	746.63
379.50	711.52
379.70	688.12
379.89	730.25
380.09	737.27
380.28	653.01
380.48	674.07
380.68	692.80
380.87	662.37
381.07	737.27
381.26	669.39
381.46	732.59
381.65	704.50
381.85	709.18
382.04	711.52
382.24	737.27
382.43	685.78
382.63	702.16
382.83	734.93
383.02	833.23
383.22	734.93
383.41	739.61
383.61	727.91
383.80	711.52
384.00	844.93
384.19	826.21
384.39	870.68
384.58	809.83
384.78	828.55
384.97	880.04
385.17	866.00
385.36	830.89
385.56	767.70
385.75	788.76
385.95	884.72
386.14	840.25
386.34	861.32
386.53	873.02
386.72	851.96
386.92	940.90
387.11	858.98
387.31	889.40
387.50	917.49
387.70	821.53
387.89	940.90
388.09	842.59
388.28	840.25
388.48	1001.75
388.67	936.21
388.86	992.39
389.06	1018.13
389.25	961.96
389.45	1004.09
389.64	964.30
389.84	931.53
390.03	1004.09
390.22	961.96
390.42	980.68
390.61	1118.78
390.81	950.26
391.00	943.24
391.19	1083.67
391.39	1050.90
391.58	1041.54
391.78	1102.39
391.97	1137.50
392.16	999.41
392.36	1039.20
392.55	1034.52
392.75	924.51
392.94	1013.45
393.13	1071.97
393.33	1034.52
393.52	1004.09
393.71	1130.48
393.91	1097.71
394.10	1022.81
394.29	1100.05
394.49	1090.69
394.68	1193.67
394.88	1083.67
395.07	1263.89
395.26	1205.38
395.46	1184.31
395.65	1263.89
395.84	1259.21
396.04	1329.42
396.23	1188.99
396.42	1179.63
396.62	1181.97
396.81	1158.57
397.00	1280.27
397.19	1301.34
397.39	1287.29
397.58	1296.66
397.77	1313.04
397.97	1411.34
398.16	1310.70
398.35	1467.52
398.55	1397.30
398.74	1476.88
398.93	1504.96
399.12	1448.79
399.32	1467.52
399.51	1493.26
399.70	1533.05
399.90	1451.13
400.09	1579.86
400.28	1610.29
400.47	1486.24
400.67	1556.46
400.86	1544.75
401.05	1600.93
401.24	1724.97
401.44	1645.40
401.63	1743.70
401.82	1739.02
402.01	1652.42
402.21	1610.29
402.40	1614.97
402.59	1715.61
402.78	1682.85
402.97	1778.81
403.17	1687.53
403.36	1729.66
403.55	1879.45
403.74	1832.64
403.93	1830.30
404.13	1919.24
404.32	1839.66
404.51	1846.68
404.70	1844.34
404.89	1783.49
405.09	1947.33
405.28	1851.36
405.47	1933.28
405.66	1996.48
405.85	1865.41
406.05	1914.56
406.24	2059.67
406.43	2005.84
406.62	1944.99
406.81	2148.61
407.00	1973.07
407.20	1961.37
407.39	2022.22
407.58	2085.42
407.77	2106.48
407.96	2097.12
408.15	2122.87
408.34	2155.63
408.54	2129.89
408.73	2113.50
408.92	2239.89
409.11	2232.87
409.30	2260.96
409.49	2195.42
409.68	2200.10
409.87	2253.94
410.07	2328.83
410.26	2326.49
410.45	2282.02
410.64	2324.15
410.83	2492.67
411.02	2429.48
411.21	2455.22
411.40	2338.20
411.59	2340.54
411.78	2586.29
411.98	2607.36
412.17	2532.46
412.36	2668.21
412.55	2677.57
412.74	2555.86
412.93	2626.08
413.12	2619.06
413.31	2841.41
413.50	2663.53
413.69	2708.00
413.88	2867.16
414.07	2785.24
414.26	2787.58
414.45	2909.29
414.64	2902.26
414.83	2953.76
415.02	3054.40
415.22	2974.82
415.41	3042.70
415.60	3089.51
415.79	3152.70
415.98	3129.30
416.17	3122.27
416.36	3101.21
416.55	3150.36
416.74	3206.53
416.93	3180.79
417.12	3229.94
417.31	3332.92
417.50	3222.92
417.69	3391.44
417.88	3433.57
418.07	3293.13
418.26	3417.18
418.45	3440.59
418.64	3569.32
418.83	3574.00
419.02	3342.28
419.21	3478.04
419.39	3442.93
419.58	3433.57
419.77	3445.27
419.96	3630.17
420.15	3557.61
420.34	3590.38
420.53	3770.60
420.72	3784.65
420.91	3686.34
421.10	3716.77
421.29	3779.97
421.48	3672.30
421.67	3812.73
421.86	3653.58
422.05	3716.77
422.24	3735.50
422.43	3812.73
422.61	3737.84
422.80	3843.16
422.99	3810.39
423.18	3981.25
423.37	3950.82
423.56	3887.63
423.75	3836.14
423.94	3733.15
424.13	3721.45
424.32	3747.20
424.50	3819.75
424.69	3929.76
424.88	3833.80
425.07	3735.50
425.26	3784.65
425.45	3794.01
425.64	3901.67
425.83	3896.99
426.01	4004.66
426.20	3901.67
426.39	4007.00
426.58	3836.14
426.77	3878.27
426.96	3861.88
427.15	3791.67
427.33	3852.52
427.52	4049.13
427.71	4121.68
427.90	4058.49
428.09	4173.18
428.28	4124.02
428.46	4187.22
428.65	4100.62
428.84	4222.33
429.03	4147.43
429.22	3939.12
429.40	4189.56
429.59	4100.62
429.78	3990.61
429.97	3794.01
430.16	3908.69
430.34	4105.30
430.53	4208.28
430.72	4152.11
430.91	4194.24
431.10	4149.77
431.28	4348.72
431.47	4365.10
431.66	4655.33
431.85	4507.87
432.03	4390.84
432.22	4512.55
432.41	4535.96
432.60	4594.47
432.79	4606.17
432.97	4737.24
433.16	4535.96
433.35	4440.00
433.54	4622.56
433.72	4432.97
433.91	4615.54
434.10	4706.82
434.28	4674.05
434.47	4662.35
434.66	4788.74
434.85	4770.01
435.03	4947.89
435.22	4812.14
435.41	5004.07
435.59	4992.36
435.78	4999.38
435.97	5039.17
436.16	5022.79
436.34	4915.12
436.53	5064.92
436.72	5093.01
436.90	5015.77
437.09	4952.57
437.28	4894.06
437.46	5015.77
437.65	5036.83
437.84	5132.79
438.02	5238.12
438.21	5083.64
438.40	5078.96
438.58	5287.27
438.77	5338.76
438.96	5249.82
439.14	5416.00
439.33	5621.97
439.52	5516.64
439.70	5446.43
439.89	5411.32
440.08	5575.16
440.26	5542.39
440.45	5565.79
440.63	5668.78
440.82	5820.91
441.01	5743.67
441.19	5806.87
441.38	5970.71
441.57	5867.72
441.75	5954.32
441.94	6195.40
442.12	6129.86
442.31	6256.25
442.50	6183.70
442.68	6183.70
442.87	6160.29
443.05	6214.12
443.24	6270.30
443.43	6246.89
443.61	6270.30
443.80	6597.97
443.98	6200.08
444.17	6073.69
444.35	6267.95
444.54	6548.82
444.73	6345.19
444.91	6356.90
445.10	6305.40
445.28	6200.08
445.47	5987.09
445.65	6363.92
445.84	6314.77
446.02	6427.11
446.21	6352.21
446.39	6445.84
446.58	6541.80
446.77	6441.15
446.95	6473.92
447.14	6483.28
447.32	6555.84
447.51	6394.34
447.69	6408.39
447.88	6574.56
448.06	6431.79
448.25	6509.03
448.43	6590.95
448.62	6520.73
448.80	6539.46
448.99	6541.80
449.17	6689.25
449.36	6574.56
449.54	6939.69
449.73	7068.42
449.91	6960.75
450.10	6949.05
450.28	7171.40
450.46	7028.63
450.65	7145.66
450.83	7047.35
451.02	7091.82
451.20	6904.58
451.39	6942.03
451.57	6998.20
451.76	7016.93
451.94	6965.43
452.13	7040.33
452.31	7101.19
452.49	7012.24
452.68	7080.12
452.86	7089.48
453.05	6977.14
453.23	6995.86
453.42	7063.74
453.60	7042.67
453.78	7377.37
453.97	7126.93
454.15	7152.68
454.34	7358.64
454.52	7349.28
454.70	7417.16
454.89	7356.30
455.07	7377.37
455.26	7531.84
455.44	7681.64
455.62	7463.97
455.81	7524.82
455.99	7742.49
456.17	7342.26
456.36	7686.32
456.54	7688.66
456.73	7698.02
456.91	8023.36
457.09	7822.07
457.28	8100.59
457.46	7873.56
457.64	7761.22
457.83	7868.88
458.01	7936.76
458.19	7971.86
458.38	8032.72
458.56	8210.60
458.74	8084.21
458.93	8006.97
459.11	8339.33
459.29	8084.21
459.48	8058.46
459.66	8126.34
459.84	8109.96
460.03	8308.90
460.21	8477.42
460.39	8362.73
460.57	8439.97
460.76	8353.37
460.94	8564.02
461.12	8306.56
461.31	8329.97
461.49	8540.61
461.67	8425.93
461.85	8786.37
462.04	8582.74
462.22	9043.83
462.40	8755.94
462.59	8575.72
462.77	8741.90
462.95	8711.47
463.13	8678.71
463.32	8744.24
463.50	8706.79
463.68	8802.75
463.86	8826.16
464.05	8603.81
464.23	8638.92
464.41	8734.88
464.59	8561.68
464.78	8947.87
464.96	8791.05
465.14	8734.88
465.32	8901.06
465.50	9146.81
465.69	8884.67
465.87	9078.94
466.05	9123.41
466.23	9081.28
466.41	8952.55
466.60	9104.68
466.78	9050.85
466.96	9193.62
467.14	9137.45
467.32	9125.75
467.51	9523.64
467.69	8997.02
467.87	9294.27
468.05	9312.99
468.23	9160.86
468.41	9277.88
468.60	9174.90
468.78	9474.49
468.96	9437.04
469.14	9633.64
469.32	9741.31
469.50	9198.31
469.69	9554.07
469.87	9561.09
470.05	9418.32
470.23	9490.87
470.41	9570.45
470.59	9638.33
470.77	9729.61
470.95	9830.25
471.14	10029.20
471.32	9888.76
471.50	10146.22
471.68	10087.71
471.86	10171.97
472.04	10375.59
472.22	10431.77
472.40	10080.69
472.58	10427.09
472.77	10197.71
472.95	10312.40
473.13	10525.39
473.31	10150.90
473.49	10380.28
473.67	10476.24
473.85	10499.64
474.03	10984.13
474.21	10675.18
474.39	10771.15
474.57	10892.85
474.75	10771.15
474.93	10970.09
475.12	11000.52
475.30	10981.79
475.48	10979.45
475.66	11314.15
475.84	11033.29
476.02	11049.67
476.20	11052.01
476.38	11382.03
476.56	11456.92
476.74	11461.60
476.92	11466.28
477.10	11688.64
477.28	11595.01
477.46	11555.22
477.64	11957.80
477.82	11822.05
478.00	12184.83
478.18	12451.65
478.36	12264.41
478.54	12402.50
478.72	12554.63
478.90	12416.54
479.08	12968.91
479.26	12868.27
479.44	13062.53
479.62	13092.96
479.80	13205.30
479.98	13088.28
480.16	13439.36
480.34	13280.20
480.52	13200.62
480.70	13497.87
480.88	13614.90
481.06	13540.00
481.24	13549.36
481.41	13879.38
481.59	14150.88
481.77	14251.52
481.95	14291.31
482.13	14193.01
482.31	14235.14
482.49	14707.93
482.67	14307.69
482.85	14672.82
483.03	15192.42
483.21	14885.81
483.39	15122.20
483.57	15173.69
483.74	15300.08
483.92	15328.17
484.10	15382.00
484.28	15742.44
484.46	15925.00
484.64	16070.12
484.82	15868.83
485.00	16191.83
485.18	16140.33
485.35	16121.61
485.53	15910.96
485.71	15967.13
485.89	16070.12
486.07	16175.44
486.25	16507.80
486.43	16631.85
486.61	16730.15
486.78	16929.09
486.96	16830.79
487.14	17523.59
487.32	17820.84
487.50	17507.21
487.68	17792.75
487.85	17949.57
488.03	18129.79
488.21	18251.50
488.39	18333.42
488.57	18590.88
488.75	18368.52
488.92	18534.70
489.10	18977.06
489.28	19154.94
489.46	19213.46
489.64	19449.85
489.81	19672.20
489.99	19990.52
490.17	19791.57
490.35	19934.34
490.53	19910.94
490.70	20009.24
490.88	19871.15
491.06	20680.97
491.24	20233.93
491.41	20418.83
491.59	20526.50
491.77	20332.23
491.95	20755.87
492.13	20940.77
492.30	21085.89
492.48	21610.17
492.66	21502.50
492.84	21729.53
493.01	21486.12
493.19	21710.81
493.37	21813.79
493.54	21982.31
493.72	22214.02
493.90	22054.87
494.08	22485.53
494.25	22724.26
494.43	22888.10
494.61	22991.08
494.79	23087.04
494.96	23447.49
495.14	23192.37
495.32	23513.02
495.49	23356.21
495.67	23428.76
495.85	23449.83
496.02	23981.13
496.20	23892.19
496.38	24184.76
496.55	23817.29
496.73	24498.39
496.91	24353.27
497.09	24577.97
497.26	25006.28
497.44	24517.11
497.62	24671.59
497.79	25062.46
497.97	24474.98
498.14	24992.24
498.32	25514.18
498.50	25628.87
498.67	25628.87
498.85	25591.42
499.03	25984.63
499.20	26003.35
499.38	25802.07
499.56	26094.63
499.73	25923.77
499.91	26356.77
500.08	26422.31
500.26	25968.24
500.44	26342.73
500.61	26190.59
500.79	26302.94
500.97	26700.83
501.14	26635.30
501.32	26518.27
501.49	26813.18
501.67	27007.44
501.84	27061.27
502.02	27030.85
502.20	27843.01
502.37	27454.48
502.55	27550.45
502.72	27686.20
502.90	27868.76
503.07	27625.34
503.25	27826.63
503.43	27845.35
503.60	27800.88
503.78	27740.03
503.95	27960.04
504.13	28217.50
504.30	28212.82
504.48	28446.87
504.65	28659.86
504.83	28320.48
505.01	28514.75
505.18	28636.45
505.36	28961.79
505.53	29001.58
505.71	29055.41
505.88	29226.27
506.06	29071.79
506.23	29252.02
506.41	28875.19
506.58	29544.58
506.76	29408.83
506.93	29270.74
507.11	29329.25
507.28	29834.81
507.46	29675.65
507.63	29582.03
507.81	29923.75
507.98	29661.61
508.16	30279.51
508.33	29986.94
508.50	29944.81
508.68	30424.62
508.85	30546.33
509.03	30492.50
509.20	30876.35
509.38	30665.70
509.55	30998.06
509.73	31082.31
509.90	30759.32
510.08	30923.16
510.25	31192.32
510.42	31295.30
510.60	31365.52
510.77	31353.82
510.95	31473.18
511.12	31534.04
511.30	31906.18
511.47	31910.86
511.64	31878.10
511.82	32091.09
511.99	32313.44
512.17	31941.29
512.34	31866.39
512.51	32098.11
512.69	32339.18
512.86	32079.38
513.04	32835.38
513.21	32538.13
513.38	32500.68
513.56	32271.31
513.73	32559.19
513.90	32711.33
514.08	32601.32
514.25	33001.55
514.43	32940.70
514.60	32563.87
514.77	32666.86
514.95	33429.87
515.12	33394.76
515.29	33158.37
515.47	33752.87
515.64	33670.95
515.81	33795.00
515.99	33259.01
516.16	33455.62
516.33	33336.25
516.51	33731.80
516.68	32987.51
516.85	32816.65
517.03	33422.85
517.20	33717.76
517.37	34141.39
517.54	34015.01
517.72	34066.50
517.89	34216.29
518.06	33928.41
518.24	34150.76
518.41	34075.86
518.58	34438.64
518.75	34183.52
518.93	35215.70
519.10	34553.33
519.27	34583.76
519.45	34920.79
519.62	35124.42
519.79	35288.26
519.96	35557.42
520.14	35297.62
520.31	34852.92
520.48	35194.64
520.65	35384.22
520.83	35658.06
521.00	35524.65
521.17	35775.09
521.34	35721.26
521.52	35477.84
521.69	35924.88
521.86	36133.19
522.03	35667.42
522.20	36100.42
522.38	36261.92
522.55	36222.13
522.72	35950.63
522.89	36432.78
523.07	36311.07
523.24	36217.45
523.41	36725.35
523.58	36652.79
523.75	37053.02
523.92	37106.85
524.10	36844.71
524.27	36666.83
524.44	36893.86
524.61	37029.62
524.78	37020.25
524.96	37209.84
525.13	37041.32
525.30	37769.22
525.47	38019.66
525.64	37170.05
525.81	37198.13
525.98	37392.40
526.16	37343.25
526.33	37022.59
526.50	37483.68
526.67	37315.16
526.84	37233.24
527.01	37413.46
527.18	37673.26
527.36	38036.05
527.53	38155.41
527.70	38696.08
527.87	38258.40
528.04	37963.49
528.21	38260.74
528.38	38279.46
528.55	38686.71
528.72	38270.10
528.89	38873.96
529.07	38312.23
529.24	38064.13
529.41	38876.30
529.58	38106.26
529.75	38595.43
529.92	38298.19
530.09	38447.98
530.26	39288.23
530.43	39295.25
530.60	38785.02
530.77	38333.29
530.94	39082.27
531.11	39316.32
531.28	38621.18
531.46	39232.06
531.63	39494.20
531.80	39175.89
531.97	39206.31
532.14	39227.38
532.31	38813.10
532.48	39175.89
532.65	39571.44
532.82	39536.33
532.99	39854.64
533.16	39321.00
533.33	39814.85
533.50	40327.43
533.67	39335.04
533.84	39763.36
534.01	39978.69
534.18	40044.23
534.35	40140.19
534.52	40018.48
534.69	40350.84
534.86	40252.53
535.03	40151.89
535.20	40156.57
535.37	40701.92
535.54	40528.72
535.71	40362.54
535.88	40402.33
536.05	39981.03
536.22	40900.86
536.38	40465.52
536.55	40631.70
536.72	40526.38
536.89	40046.57
537.06	40741.71
537.23	40912.56
537.40	40856.39
537.57	40722.98
537.74	40505.31
537.91	40919.59
538.08	41509.40
538.25	40769.79
538.42	40793.20
538.59	41469.61
538.75	40538.08
538.92	41083.42
539.09	41212.15
539.26	41060.02
539.43	41179.39
539.60	41069.38
539.77	41312.80
539.94	41530.47
540.11	41160.66
540.28	41123.21
540.44	41366.63
540.61	41677.92
540.78	41443.87
540.95	41443.87
541.12	41366.63
541.29	41610.04
541.46	41752.82
541.62	41359.61
541.79	42073.47
541.96	41478.97
542.13	41537.49
542.30	42136.66
542.47	42113.26
542.63	42021.98
542.80	42021.98
542.97	42562.64
543.14	42642.22
543.31	42373.06
543.48	42419.87
543.64	43072.88
543.81	42459.66
543.98	42380.08
544.15	42609.45
544.32	42473.70
544.48	42885.64
544.65	42974.58
544.82	43042.45
544.99	42691.37
545.16	42960.53
545.32	42302.84
545.49	42993.30
545.66	43330.34
545.83	43290.55
546.00	43201.61
546.16	43044.79
546.33	42981.60
546.50	42335.61
546.67	42696.05
546.83	42913.72
547.00	43093.94
547.17	43194.59
547.34	43157.14
547.50	43110.33
547.67	43452.05
547.84	43161.82
548.00	43892.07
548.17	43725.89
548.34	43594.82
548.51	43608.86
548.67	43648.65
548.84	43959.94
549.01	43328.00
549.18	43695.46
549.34	43838.23
549.51	43885.04
549.68	43990.37
549.84	43966.96
550.01	44016.11
550.18	43447.36
550.34	43264.80
550.51	43702.48
550.68	43941.22
550.84	43381.83
551.01	43791.42
551.18	43887.39
551.34	43957.60
551.51	43959.94
551.68	43807.81
551.84	44390.60
552.01	43990.37
552.18	44147.18
552.34	44362.51
552.51	44481.88
552.68	43882.70
552.84	44526.35
553.01	44645.72
553.18	44533.37
553.34	44381.24
553.51	44388.26
553.67	44570.82
553.84	44744.02
554.01	44612.95
554.17	45132.55
554.34	44601.25
554.51	44694.87
554.67	44711.25
554.84	44746.36
555.00	44528.69
555.17	44741.68
555.33	45165.32
555.50	44734.66
555.67	44502.95
555.83	44624.65
556.00	44926.58
556.16	45088.08
556.33	45198.09
556.50	44648.06
556.66	44907.86
556.83	44781.47
556.99	45139.57
557.16	45097.44
557.32	45048.29
557.49	45326.81
557.65	44762.75
557.82	44765.09
557.98	45027.23
558.15	45123.19
558.32	45495.33
558.48	44882.11
558.65	44982.76
558.81	45043.61
558.98	44865.73
559.14	45048.29
559.31	44889.13
559.47	45102.12
559.64	45434.48
559.80	45797.26
559.97	45748.11
560.13	45153.62
560.30	45305.75
560.46	45766.84
560.63	45258.94
560.79	45485.97
560.96	45682.58
561.12	45787.90
561.29	45251.92
561.45	45179.36
561.61	45593.64
561.78	45556.19
561.94	45443.84
562.11	45535.12
562.27	45380.65
562.44	45471.93
562.60	45675.55
562.77	45577.25
562.93	45331.50
563.10	45378.31
563.26	45195.74
563.42	45326.81
563.59	45010.84
563.75	45701.30
563.92	45804.28
564.08	45984.51
564.24	45975.14
564.41	45986.85
564.57	45485.97
564.74	45893.22
564.90	45661.51
565.07	46106.21
565.23	45645.13
565.39	45567.89
565.56	45415.76
565.72	45621.72
565.88	45607.68
566.05	45907.27
566.21	45638.11
566.38	45312.77
566.54	45485.97
566.70	46293.46
566.87	46099.19
567.03	45757.47
567.19	46153.02
567.36	46031.32
567.52	46012.59
567.68	45804.28
567.85	45710.66
568.01	46045.36
568.17	45858.12
568.34	45591.30
568.50	46089.83
568.66	45769.18
568.83	46078.13
568.99	45785.56
569.15	45785.56
569.32	45443.84
569.48	45284.68
569.64	45911.95
569.81	46047.70
569.97	45855.78
570.13	45982.16
570.30	45619.38
570.46	45820.67
570.62	45713.00
570.78	45598.32
570.95	45633.42
571.11	45998.55
571.27	45991.53
571.43	45731.73
571.60	46251.33
571.76	45617.04
571.92	46019.61
572.09	45961.10
572.25	46225.58
572.41	46515.81
572.57	45677.90
572.74	46431.55
572.90	46064.08
573.06	46415.16
573.22	46424.53
573.38	46567.30
573.55	46380.06
573.71	46700.71
573.87	45979.82
574.03	45745.77
574.20	46155.36
574.36	45659.17
574.52	46143.66
574.68	45869.82
574.84	46136.64
575.01	45928.33
575.17	45897.91
575.33	45642.79
575.49	45584.27
575.65	46150.68
575.82	46373.03
575.98	46265.37
576.14	46419.84
576.30	46611.77
576.46	46169.41
576.62	46129.62
576.79	45918.97
576.95	45827.69
577.11	46167.07
577.27	46307.50
577.43	46209.20
577.59	45937.69
577.75	46220.90
577.92	45624.06
578.08	45764.49
578.24	45525.76
578.40	46197.49
578.56	46415.16
578.72	46153.02
578.88	46260.69
579.04	46000.89
579.21	46241.96
579.37	46080.47
579.53	46202.18
579.69	45801.94
579.85	46330.90
580.01	46555.60
580.17	46061.74
580.33	46569.64
580.49	46202.18
580.65	45895.56
580.82	46506.44
580.98	46141.32
581.14	45748.11
581.30	46555.60
581.46	46281.75
581.62	46017.27
581.78	45776.20
581.94	47215.63
582.10	46162.39
582.26	46429.21
582.42	46167.07
582.58	46136.64
582.74	45876.84
582.90	46291.12
583.06	46419.84
583.22	46487.72
583.38	46082.81
583.54	46251.33
583.70	46026.63
583.86	46073.45
584.02	45858.12
584.18	46459.63
584.34	46288.77
584.50	46197.49
584.66	46309.84
584.82	46181.11
584.98	46405.80
585.14	46113.23
585.30	46103.87
585.46	46087.49
585.62	46251.33
585.78	45914.29
585.94	46192.81
586.10	46202.18
586.26	46279.41
586.42	46749.86
586.58	46408.14
586.74	46644.54
586.90	46361.33
587.06	46028.98
587.22	46197.49
587.38	46136.64
587.54	46717.09
587.70	46199.83
587.86	46398.78
588.02	46593.04
588.18	46419.84
588.34	46377.72
588.49	45893.22
588.65	45853.44
588.81	45853.44
588.97	45895.56
589.13	45713.00
589.29	46157.70
589.45	46241.96
589.61	46057.06
589.77	46497.08
589.93	46225.58
