SpectraSuite Data File
++++++++++++++++++++++++++++++++++++
Date: Fri Oct 25 11:26:10 EDT 2013
User: price-jones
Dark Spectrum Present: No
Reference Spectrum Present: No
Number of Sampled Component Spectra: 1
Spectrometers: USB2+H05261
Integration Time (usec): 100000 (USB2+H05261)
Spectra Averaged: 1 (USB2+H05261)
Boxcar Smoothing: 0 (USB2+H05261)
Correct for Electrical Dark: No (USB2+H05261)
Strobe/Lamp Enabled: No (USB2+H05261)
Correct for Detector Non-linearity: No (USB2+H05261)
Correct for Stray Light: No (USB2+H05261)
Number of Pixels in Processed Spectrum: 2048
>>>>>Begin Processed Spectral Data<<<<<
365.73	208.31
365.92	208.31
366.12	208.31
366.32	72.56
366.52	133.41
366.72	117.03
366.91	79.58
367.11	149.79
367.31	163.84
367.51	175.54
367.70	152.13
367.90	161.50
368.10	142.77
368.30	180.22
368.49	191.92
368.69	210.65
368.89	154.48
369.09	133.41
369.28	170.86
369.48	184.90
369.68	163.84
369.87	198.95
370.07	184.90
370.27	252.78
370.47	362.78
370.66	653.01
370.86	671.73
371.06	643.65
371.25	697.48
371.45	655.35
371.65	732.59
371.84	692.80
372.04	627.26
372.24	702.16
372.44	816.85
372.63	699.82
372.83	746.63
373.03	711.52
373.22	713.86
373.42	767.70
373.62	711.52
373.81	774.72
374.01	770.04
374.21	844.93
374.40	828.55
374.60	873.02
374.79	819.19
374.99	774.72
375.19	847.27
375.38	830.89
375.58	840.25
375.78	779.40
375.97	875.36
376.17	945.58
376.37	847.27
376.56	887.06
376.76	905.79
376.95	898.77
377.15	968.98
377.35	891.74
377.54	842.59
377.74	912.81
377.93	959.62
378.13	882.38
378.33	905.79
378.52	891.74
378.72	985.37
378.91	973.66
379.11	1001.75
379.31	931.53
379.50	976.00
379.70	943.24
379.89	908.13
380.09	950.26
380.28	1053.24
380.48	933.87
380.68	964.30
380.87	976.00
381.07	1018.13
381.26	1039.20
381.46	1095.37
381.65	1027.50
381.85	1001.75
382.04	1029.84
382.24	1015.79
382.43	1090.69
382.63	1111.75
382.83	1071.97
383.02	1139.84
383.22	1165.59
383.41	1097.71
383.61	966.64
383.80	1090.69
384.00	1076.65
384.19	1057.92
384.39	1149.20
384.58	1104.73
384.78	1135.16
384.97	1207.72
385.17	1100.05
385.36	1125.80
385.56	1217.08
385.75	1104.73
385.95	1121.12
386.14	1198.35
386.34	1177.29
386.53	1228.78
386.72	1193.67
386.92	1249.85
387.11	1256.87
387.31	1217.08
387.50	1205.38
387.70	1188.99
387.89	1289.64
388.09	1282.61
388.28	1289.64
388.48	1282.61
388.67	1439.43
388.86	1245.16
389.06	1406.66
389.25	1448.79
389.45	1385.60
389.64	1301.34
389.84	1366.87
390.03	1380.92
390.22	1306.02
390.42	1418.36
390.61	1320.06
390.81	1446.45
391.00	1446.45
391.19	1448.79
391.39	1404.32
391.58	1497.94
391.78	1469.86
391.97	1561.14
392.16	1483.90
392.36	1509.65
392.55	1504.96
392.75	1544.75
392.94	1521.35
393.13	1483.90
393.33	1530.71
393.52	1540.07
393.71	1624.33
393.91	1554.12
394.10	1483.90
394.29	1739.02
394.49	1661.78
394.68	1797.53
394.88	1692.21
395.07	1685.19
395.26	1696.89
395.46	1645.40
395.65	1774.13
395.84	1757.74
396.04	1769.44
396.23	1708.59
396.42	1783.49
396.62	1781.15
396.81	1750.72
397.00	1846.68
397.19	1720.29
397.39	1792.85
397.58	1813.92
397.77	1781.15
397.97	1827.96
398.16	1839.66
398.35	1872.43
398.55	1893.49
398.74	1907.54
398.93	1998.82
399.12	1935.62
399.32	1832.64
399.51	1940.30
399.70	2062.01
399.90	1956.69
400.09	2050.31
400.28	2038.61
400.47	1968.39
400.67	2003.50
400.86	2043.29
401.05	2050.31
401.24	2017.54
401.44	2106.48
401.63	2174.36
401.82	2059.67
402.01	2047.97
402.21	2083.08
402.40	2204.78
402.59	2162.66
402.78	2146.27
402.97	2296.07
403.17	2321.81
403.36	2228.19
403.55	2284.36
403.74	2399.05
403.93	2455.22
404.13	2375.64
404.32	2303.09
404.51	2429.48
404.70	2487.99
404.89	2415.43
405.09	2424.80
405.28	2492.67
405.47	2480.97
405.66	2565.23
405.85	2509.05
406.05	2492.67
406.24	2562.89
406.43	2619.06
406.62	2623.74
406.81	2691.62
407.00	2602.68
407.20	2595.65
407.39	2555.86
407.58	2708.00
407.77	2649.49
407.96	2700.98
408.15	2686.94
408.34	2626.08
408.54	2794.60
408.73	2745.45
408.92	2822.69
409.11	2834.39
409.30	2888.22
409.49	2855.45
409.68	2920.99
409.87	2925.67
410.07	2979.50
410.26	2977.16
410.45	3038.02
410.64	3082.49
410.83	3084.83
411.02	3162.06
411.21	3192.49
411.40	3178.45
411.59	3236.96
411.78	3192.49
411.98	3185.47
412.17	3232.28
412.36	3325.90
412.55	3412.50
412.74	3391.44
412.93	3288.45
413.12	3253.34
413.31	3480.38
413.50	3529.53
413.69	3557.61
413.88	3510.80
414.07	3627.83
414.26	3646.55
414.45	3641.87
414.64	3751.88
414.83	3763.58
415.02	3861.88
415.22	3892.31
415.41	3978.91
415.60	3831.46
415.79	3887.63
415.98	3904.01
416.17	3894.65
416.36	3896.99
416.55	4051.47
416.74	3941.46
416.93	4063.17
417.12	4170.83
417.31	4203.60
417.50	4053.81
417.69	4177.86
417.88	4425.95
418.07	4224.67
418.26	4273.82
418.45	4147.43
418.64	4411.91
418.83	4334.67
419.02	4325.31
419.21	4493.83
419.39	4484.47
419.58	4564.04
419.77	4547.66
419.96	4514.89
420.15	4477.44
420.34	4550.00
420.53	4566.39
420.72	4692.77
420.91	4575.75
421.10	4643.62
421.29	4791.08
421.48	4753.63
421.67	4767.67
421.86	4863.63
422.05	4819.16
422.24	4959.60
422.43	4802.78
422.61	4835.55
422.80	4882.36
422.99	4873.00
423.18	4950.23
423.37	5050.88
423.56	5027.47
423.75	4793.42
423.94	4823.84
424.13	4697.46
424.32	4697.46
424.50	4861.29
424.69	5104.71
424.88	4926.83
425.07	4990.02
425.26	4870.65
425.45	4887.04
425.64	4873.00
425.83	5060.24
426.01	5020.45
426.20	4943.21
426.39	5034.49
426.58	5036.83
426.77	5083.64
426.96	5078.96
427.15	5242.80
427.33	5324.72
427.52	5186.63
427.71	5167.90
427.90	5158.54
428.09	5317.70
428.28	5430.04
428.46	5359.83
428.65	5345.78
428.84	5406.64
429.03	5521.32
429.22	5366.85
429.40	5544.73
429.59	5500.26
429.78	5273.23
429.97	5273.23
430.16	5406.64
430.34	5628.99
430.53	5621.97
430.72	5507.28
430.91	5497.92
431.10	5544.73
431.28	5701.54
431.47	5696.86
431.66	5783.46
431.85	5607.92
432.03	5947.30
432.22	5839.64
432.41	5984.75
432.60	5760.06
432.79	5823.25
432.97	5923.90
433.16	6001.13
433.35	6003.47
433.54	6059.65
433.72	6071.35
433.91	6050.28
434.10	6136.88
434.28	5954.32
434.47	6286.68
434.66	6162.63
434.85	6256.25
435.03	6303.06
435.22	6069.01
435.41	6576.91
435.59	6361.58
435.78	6438.81
435.97	6445.84
436.16	6431.79
436.34	6417.75
436.53	6471.58
436.72	6705.63
436.90	6518.39
437.09	6497.33
437.28	6438.81
437.46	6392.00
437.65	6534.78
437.84	6569.88
438.02	6691.59
438.21	6839.05
438.40	6668.19
438.58	6799.26
438.77	6923.30
438.96	6855.43
439.14	7037.99
439.33	7260.34
439.52	7236.94
439.70	7279.07
439.89	7288.43
440.08	7269.70
440.26	7389.07
440.45	7335.24
440.63	7482.69
440.82	7566.95
441.01	7435.88
441.19	7485.03
441.38	7803.35
441.57	7686.32
441.75	7815.05
441.94	7838.45
442.12	7999.95
442.31	8002.29
442.50	8011.65
442.68	8030.38
442.87	7999.95
443.05	8084.21
443.24	8124.00
443.43	8053.78
443.61	8042.08
443.80	8397.84
443.98	7852.50
444.17	7829.09
444.35	8306.56
444.54	8191.88
444.73	8191.88
444.91	8159.11
445.10	8383.80
445.28	8360.39
445.47	8138.04
445.65	8205.92
445.84	8489.12
446.02	8360.39
446.21	8198.90
446.39	8458.70
446.58	8407.20
446.77	8526.57
446.95	8231.66
447.14	8404.86
447.32	8580.40
447.51	8304.22
447.69	8379.12
447.88	8402.52
448.06	8540.61
448.25	8578.06
448.43	8704.45
448.62	8531.25
448.80	8620.19
448.99	8496.14
449.17	8561.68
449.36	8409.54
449.54	8849.57
449.73	8840.20
449.91	8915.10
450.10	8884.67
450.28	8947.87
450.46	9125.75
450.65	8968.93
450.83	9039.15
451.02	9013.40
451.20	9231.07
451.39	9158.52
451.57	9207.67
451.76	9160.86
451.94	9109.36
452.13	9289.59
452.31	9341.08
452.49	9116.39
452.68	9427.68
452.86	9430.02
453.05	9207.67
453.23	9277.88
453.42	9446.40
453.60	9205.33
453.78	9589.17
453.97	9427.68
454.15	9481.51
454.34	9305.97
454.52	9530.66
454.70	9509.60
454.89	9628.96
455.07	9533.00
455.26	9975.36
455.44	9841.95
455.62	9722.59
455.81	9774.08
455.99	9998.77
456.17	9956.64
456.36	9940.26
456.54	9980.04
456.73	10221.12
456.91	10087.71
457.09	10270.27
457.28	10406.02
457.46	10293.68
457.64	10403.68
457.83	10169.63
458.01	10391.98
458.19	10640.08
458.38	10476.24
458.56	10471.56
458.74	10546.45
458.93	10539.43
459.11	10436.45
459.29	10700.93
459.48	10827.32
459.66	10771.15
459.84	10874.13
460.03	10883.49
460.21	10888.17
460.39	10967.75
460.57	10850.72
460.76	11124.57
460.94	11185.42
461.12	11215.85
461.31	11112.86
461.49	11204.14
461.67	11037.97
461.85	11391.39
462.04	11248.61
462.22	11648.85
462.40	11620.76
462.59	11625.44
462.77	11400.75
462.95	11620.76
463.13	11473.31
463.32	11686.29
463.50	11742.47
463.68	11775.24
463.86	12013.97
464.05	11557.57
464.23	11747.15
464.41	11885.24
464.59	11438.20
464.78	12229.30
464.96	12037.38
465.14	11878.22
465.32	11992.90
465.50	12053.76
465.69	11990.56
465.87	11889.92
466.05	12191.85
466.23	12180.15
466.41	11981.20
466.60	12198.87
466.78	12322.92
466.96	12336.96
467.14	12409.52
467.32	12404.84
467.51	12339.30
467.69	12299.52
467.87	12561.66
468.05	12468.03
468.23	12304.20
468.41	12386.12
468.60	12367.39
468.78	12858.90
468.96	12379.09
469.14	12835.50
469.32	12987.63
469.50	12524.21
469.69	12781.67
469.87	13013.38
470.05	13060.19
470.23	13406.59
470.41	12879.97
470.59	13259.13
470.77	13422.97
470.95	13338.71
471.14	13579.79
471.32	13074.23
471.50	13547.02
471.68	13523.62
471.86	13507.23
472.04	13654.69
472.22	14001.08
472.40	13827.88
472.58	13350.42
472.77	13689.79
472.95	14127.47
473.13	14469.19
473.31	14195.35
473.49	14115.77
473.67	14040.87
473.85	14031.51
474.03	14630.69
474.21	14473.87
474.39	14565.15
474.57	14565.15
474.75	14684.52
474.93	14846.02
475.12	14913.89
475.30	14927.94
475.48	15267.31
475.66	14808.57
475.84	14895.17
476.02	15161.99
476.20	15302.42
476.38	15735.42
476.56	15728.40
476.74	15763.51
476.92	15749.46
477.10	15566.90
477.28	15815.00
477.46	15971.82
477.64	16102.89
477.82	16231.62
478.00	16641.21
478.18	16835.47
478.36	16898.67
478.54	16847.18
478.72	16996.97
478.90	17273.15
479.08	17418.27
479.26	17649.98
479.44	17429.97
479.62	17743.60
479.80	17867.65
479.98	18031.49
480.16	18703.22
480.34	18253.84
480.52	18614.28
480.70	18270.22
480.88	18291.29
481.06	18541.72
481.24	18981.74
481.41	19126.86
481.59	19393.68
481.77	19094.09
481.95	19398.36
482.13	19545.81
482.31	19351.55
482.49	20161.37
482.67	19878.17
482.85	20339.26
483.03	20568.63
483.21	20690.34
483.39	21184.19
483.57	20751.19
483.74	20704.38
483.92	21415.90
484.10	21092.91
484.28	21413.56
484.46	21619.53
484.64	22202.32
484.82	21907.41
485.00	22361.48
485.18	22703.20
485.35	22780.43
485.53	22843.63
485.71	22958.31
485.89	23159.60
486.07	23040.23
486.25	23187.69
486.43	23520.04
486.61	23524.72
486.78	23917.93
486.96	24285.40
487.14	24435.19
487.32	24343.91
487.50	24458.60
487.68	24915.00
487.85	25270.76
488.03	25371.41
488.21	25598.44
488.39	25649.93
488.57	25893.35
488.75	25984.63
488.92	26216.34
489.10	26244.43
489.28	26569.76
489.46	26939.57
489.64	26909.14
489.81	27419.38
489.99	27311.71
490.17	27630.02
490.35	27950.68
490.53	27679.18
490.70	28561.56
490.88	28243.24
491.06	28563.90
491.24	28517.09
491.41	29209.89
491.59	29237.97
491.77	29244.99
491.95	29572.67
492.13	29591.39
492.30	29839.49
492.48	29689.70
492.66	29949.50
492.84	30157.80
493.01	30630.59
493.19	30408.24
493.37	30806.13
493.54	30965.29
493.72	31489.57
493.90	31108.06
494.08	31529.36
494.25	31264.88
494.43	31625.32
494.61	31941.29
494.79	32409.40
494.96	32453.87
495.14	32671.54
495.32	32905.59
495.49	32973.47
495.67	32954.74
495.85	33380.72
496.02	33579.67
496.20	33535.20
496.38	33795.00
496.55	33914.36
496.73	34707.80
496.91	34284.17
497.09	34700.78
497.26	35056.54
497.44	35189.95
497.62	35257.83
497.79	35674.45
497.97	35295.28
498.14	35529.33
498.32	36266.60
498.50	35952.97
498.67	36334.48
498.85	36158.94
499.03	36486.61
499.20	36542.78
499.38	36828.33
499.56	36718.32
499.73	36980.46
499.91	37048.34
500.08	37294.10
500.26	37301.12
500.44	37137.28
500.61	37186.43
500.79	37270.69
500.97	37755.18
501.14	38080.52
501.32	38300.53
501.49	38328.61
501.67	38476.07
501.84	38707.78
502.02	38321.59
502.20	38653.95
502.37	39040.14
502.55	39360.79
502.72	38930.13
502.90	39269.51
503.07	39363.13
503.25	39576.12
503.43	39641.65
503.60	39950.60
503.78	40287.64
503.95	39964.65
504.13	40369.56
504.30	40783.83
504.48	40184.66
504.65	40711.28
504.83	40313.39
505.01	40996.82
505.18	41125.55
505.36	40987.46
505.53	40928.95
505.71	41471.95
505.88	41375.99
506.06	41408.76
506.23	41799.63
506.41	41748.14
506.58	42103.90
506.76	41942.40
506.93	42017.30
507.11	42326.25
507.28	42293.48
507.46	42209.22
507.63	42691.37
507.81	43042.45
507.98	42792.01
508.16	42958.19
508.33	43264.80
508.50	43625.25
508.68	43356.08
508.85	43700.14
509.03	43772.70
509.20	43667.37
509.38	44282.94
509.55	44177.61
509.73	44507.63
509.90	44142.50
510.08	44603.59
510.25	44669.12
510.42	44186.97
510.60	45289.37
510.77	44575.50
510.95	44910.20
511.12	45118.51
511.30	45095.10
511.47	44987.44
511.64	45216.81
511.82	45729.39
511.99	45588.95
512.17	45640.45
512.34	45537.46
512.51	46005.57
512.69	46045.36
512.86	46469.00
513.04	46403.46
513.21	46471.34
513.38	46714.75
513.56	46948.81
513.73	46419.84
513.90	46663.26
514.08	46670.28
514.25	47463.72
514.43	47669.69
514.60	47430.96
514.77	47119.66
514.95	47557.35
515.12	47531.60
515.29	47330.31
515.47	47704.80
515.64	47770.33
515.81	47688.42
515.99	47852.25
516.16	48135.46
516.33	48083.97
516.51	48334.40
516.68	48215.04
516.85	48512.28
517.03	48505.26
517.20	48865.70
517.37	48275.89
517.54	48697.19
517.72	48790.81
517.89	48760.38
518.06	49038.90
518.24	49066.99
518.41	48844.64
518.58	49317.43
518.75	48910.17
518.93	49312.75
519.10	49275.30
519.27	49392.33
519.45	49633.40
519.62	49443.82
519.79	49841.71
519.96	49827.66
520.14	49986.82
520.31	49717.66
520.48	50284.07
520.65	50429.18
520.83	50335.56
521.00	50382.37
521.17	50464.29
521.34	50471.31
521.52	50412.80
521.69	50557.91
521.86	50841.12
522.03	51096.24
522.20	51281.14
522.38	51505.83
522.55	50937.08
522.72	51110.28
522.89	51026.02
523.07	51569.02
523.24	51100.92
523.41	51271.78
523.58	51231.99
523.75	51442.63
523.92	51538.60
524.10	51842.87
524.27	51716.48
524.44	51959.89
524.61	51934.15
524.78	52278.21
524.96	51760.95
525.13	51945.85
525.30	52240.76
525.47	52406.94
525.64	52250.12
525.81	52519.28
525.98	52102.67
526.16	52463.11
526.33	52446.72
526.50	52570.77
526.67	52495.88
526.84	52921.85
527.01	52743.97
527.18	52697.16
527.36	52788.44
527.53	53055.26
527.70	53242.51
527.87	52884.40
528.04	52926.53
528.21	53118.46
528.38	53095.05
528.55	53429.75
528.72	53272.93
528.89	53191.01
529.07	53052.92
529.24	53045.90
529.41	53432.09
529.58	53516.35
529.75	53612.31
529.92	53577.20
530.09	53677.85
530.26	54000.84
530.43	53916.58
530.60	53460.18
530.77	54160.00
530.94	54155.32
531.11	53921.26
531.28	53858.07
531.46	54138.93
531.63	54082.76
531.80	54047.65
531.97	54078.08
532.14	54127.23
532.31	54340.22
532.48	54431.50
532.65	54471.29
532.82	54199.79
532.99	54775.56
533.16	54333.20
533.33	54581.29
533.50	54908.97
533.67	54593.00
533.84	54464.27
534.01	54656.19
534.18	54569.59
534.35	54859.82
534.52	54817.69
534.69	54927.69
534.86	55072.81
535.03	54915.99
535.20	55033.02
535.37	55339.63
535.54	55166.43
535.71	55297.50
535.88	55154.72
536.05	55236.64
536.22	55510.49
536.38	55412.18
536.55	55365.37
536.72	55283.45
536.89	54986.21
537.06	55386.44
537.23	55838.16
537.40	55302.18
537.57	55653.26
537.74	55498.78
537.91	55943.48
538.08	55920.08
538.25	55580.70
538.42	55641.56
538.59	55955.19
538.75	55983.27
538.92	55753.90
539.09	55859.23
539.26	55906.04
539.43	55969.23
539.60	55789.01
539.77	56294.56
539.94	56355.42
540.11	56144.77
540.28	56537.98
540.44	56107.32
540.61	56165.84
540.78	56020.72
540.95	56385.85
541.12	56399.89
541.29	56381.16
541.46	56322.65
541.62	56556.70
541.79	56378.82
541.96	56409.25
542.13	56219.67
542.30	56371.80
542.47	56589.47
542.63	56617.56
542.80	56615.22
542.97	56818.84
543.14	57092.69
543.31	56942.89
543.48	56989.70
543.64	57174.61
543.81	57296.31
543.98	57216.74
544.15	57106.73
544.32	57249.50
544.48	57642.71
544.65	57230.78
544.82	57338.44
544.99	57066.94
545.16	57317.38
545.32	57141.84
545.49	57535.05
545.66	57443.77
545.83	57385.25
546.00	57464.83
546.16	57467.17
546.33	57284.61
546.50	57268.23
546.67	57558.45
546.83	57343.12
547.00	57801.87
547.17	57521.01
547.34	57584.20
547.50	57918.90
547.67	57820.59
547.84	57836.98
548.00	57752.72
548.17	58183.38
548.34	57946.98
548.51	58134.23
548.67	58019.54
548.84	57918.90
549.01	57928.26
549.18	57818.25
549.34	58202.10
549.51	58162.31
549.68	58305.09
549.84	58284.02
550.01	58319.13
550.18	58234.87
550.34	58394.03
550.51	58216.14
550.68	58506.37
550.84	58195.08
551.01	58534.46
551.18	58511.05
551.34	58372.96
551.51	58379.98
551.68	58415.09
551.84	58365.94
552.01	58330.83
552.18	58529.78
552.34	58443.18
552.51	58394.03
552.68	58398.71
552.84	58569.57
553.01	58822.34
553.18	58684.25
553.34	58784.90
553.51	58623.40
553.67	58812.98
553.84	58815.32
554.01	58852.77
554.17	58791.92
554.34	58731.06
554.51	58810.64
554.67	59145.34
554.84	58852.77
555.00	58937.03
555.17	58822.34
555.33	58965.12
555.50	58803.62
555.67	58815.32
555.83	58965.12
556.00	58866.81
556.16	59262.36
556.33	59032.99
556.50	59093.85
556.66	59468.33
556.83	59082.14
556.99	59473.01
557.16	59384.07
557.32	59325.56
557.49	59327.90
557.65	59009.59
557.82	59222.58
557.98	59253.00
558.15	59346.62
558.32	59245.98
558.48	59054.06
558.65	59487.06
558.81	59260.02
558.98	59475.35
559.14	59175.76
559.31	59423.86
559.47	59306.83
559.64	59592.38
559.80	59433.22
559.97	59650.89
560.13	59536.21
560.30	59414.50
560.46	59636.85
560.63	59676.64
560.79	59632.17
560.96	59760.90
561.12	59730.47
561.29	59732.81
561.45	59838.14
561.61	59821.75
561.78	59618.13
561.94	59543.23
562.11	59657.91
562.27	59812.39
562.44	59599.40
562.60	59730.47
562.77	59838.14
562.93	59643.87
563.10	59948.14
563.26	59742.17
563.42	60109.64
563.59	59908.35
563.75	59957.50
563.92	59955.16
564.08	59779.62
564.24	60074.53
564.41	59938.78
564.57	59868.56
564.74	60065.17
564.90	59990.27
565.07	59803.03
565.23	60069.85
565.39	60051.12
565.56	59983.25
565.72	60011.34
565.88	59845.16
566.05	60048.78
566.21	59917.71
566.38	60231.35
566.54	60111.98
566.70	60465.40
566.87	59976.23
567.03	59950.48
567.19	60404.55
567.36	60128.36
567.52	60186.88
567.68	60591.79
567.85	60207.94
568.01	60243.05
568.17	60109.64
568.34	60170.49
568.50	60191.56
568.66	60212.62
568.83	60158.79
568.99	60186.88
569.15	60280.50
569.32	60264.11
569.48	60423.27
569.64	60420.93
569.81	60343.69
569.97	60156.45
570.13	60388.16
570.30	60140.07
570.46	60324.97
570.62	60350.71
570.78	60271.14
570.95	60371.78
571.11	60381.14
571.27	60285.18
571.43	60498.17
571.60	60493.49
571.76	60512.21
571.92	60418.59
572.09	60331.99
572.25	60423.27
572.41	60460.72
572.57	60322.63
572.74	60486.46
572.90	60449.02
573.06	60313.26
573.22	60491.15
573.38	60598.81
573.55	60287.52
573.71	60760.31
573.87	60547.32
574.03	60465.40
574.20	60425.61
574.36	60542.64
574.52	60654.98
574.68	60498.17
574.84	60610.51
575.01	60589.45
575.17	60554.34
575.33	60664.35
575.49	60535.62
575.65	60617.53
575.82	60736.90
575.98	60746.26
576.14	60907.76
576.30	60729.88
576.46	60425.61
576.62	60690.09
576.79	60617.53
576.95	60547.32
577.11	60671.37
577.27	60783.71
577.43	60488.80
577.59	60563.70
577.75	60676.05
577.92	60493.49
578.08	60488.80
578.24	60570.72
578.40	60858.61
578.56	60797.76
578.72	60783.71
578.88	60704.13
579.04	60917.12
579.21	60633.92
579.37	60907.76
579.53	60807.12
579.69	60690.09
579.85	60776.69
580.01	60601.15
580.17	60416.25
580.33	60729.88
580.49	60760.31
580.65	60797.76
580.82	60603.49
580.98	60636.26
581.14	60713.50
581.30	60956.91
581.46	60781.37
581.62	60835.20
581.78	60610.51
581.94	60839.89
582.10	60657.32
582.26	60804.78
582.42	60865.63
582.58	60804.78
582.74	60818.82
582.90	60858.61
583.06	60790.73
583.22	60470.08
583.38	60774.35
583.54	60818.82
583.70	60809.46
583.86	60938.19
584.02	60645.62
584.18	60879.67
584.34	60949.89
584.50	60687.75
584.66	60823.50
584.82	60617.53
584.98	61059.90
585.14	60846.91
585.30	60926.49
585.46	60914.78
585.62	60816.48
585.78	61024.79
585.94	60905.42
586.10	60970.96
586.26	60638.60
586.42	60919.46
586.58	61015.43
586.74	60959.25
586.90	60947.55
587.06	60907.76
587.22	61006.06
587.38	60867.97
587.54	60762.65
587.70	60945.21
587.86	61169.90
588.02	60987.34
588.18	60977.98
588.34	60849.25
588.49	60917.12
