SpectraSuite Data File
++++++++++++++++++++++++++++++++++++
Date: Fri Oct 25 10:44:02 EDT 2013
User: price-jones
Dark Spectrum Present: No
Reference Spectrum Present: No
Number of Sampled Component Spectra: 1
Spectrometers: USB2+H05261
Integration Time (usec): 100000 (USB2+H05261)
Spectra Averaged: 1 (USB2+H05261)
Boxcar Smoothing: 0 (USB2+H05261)
Correct for Electrical Dark: No (USB2+H05261)
Strobe/Lamp Enabled: No (USB2+H05261)
Correct for Detector Non-linearity: No (USB2+H05261)
Correct for Stray Light: No (USB2+H05261)
Number of Pixels in Processed Spectrum: 2048
>>>>>Begin Processed Spectral Data<<<<<
365.73	140.43
365.92	140.43
366.12	140.43
366.32	107.66
366.52	32.77
366.72	49.15
366.91	0.00
367.11	0.00
367.31	42.13
367.51	28.09
367.70	25.75
367.90	14.04
368.10	0.00
368.30	9.36
368.49	81.92
368.69	42.13
368.89	105.32
369.09	91.28
369.28	88.94
369.48	77.24
369.68	67.88
369.87	58.51
370.07	84.26
370.27	140.43
370.47	196.60
370.66	365.12
370.86	458.74
371.06	421.30
371.25	472.79
371.45	475.13
371.65	505.56
371.84	477.47
372.04	491.51
372.24	470.45
372.44	489.17
372.63	580.45
372.83	554.71
373.03	505.56
373.22	498.53
373.42	475.13
373.62	475.13
373.81	603.86
374.01	613.22
374.21	575.77
374.40	613.22
374.60	608.54
374.79	608.54
374.99	599.18
375.19	589.82
375.38	629.60
375.58	489.17
375.78	627.26
375.97	592.16
376.17	627.26
376.37	657.69
376.56	657.69
376.76	554.71
376.95	631.94
377.15	622.58
377.35	596.84
377.54	664.71
377.74	655.35
377.93	667.05
378.13	638.97
378.33	711.52
378.52	650.67
378.72	685.78
378.91	648.33
379.11	622.58
379.31	617.90
379.50	601.52
379.70	748.97
379.89	697.48
380.09	685.78
380.28	723.23
380.48	660.03
380.68	667.05
380.87	634.29
381.07	793.44
381.26	793.44
381.46	702.16
381.65	713.86
381.85	697.48
382.04	624.92
382.24	767.70
382.43	688.12
382.63	753.65
382.83	720.88
383.02	737.27
383.22	727.91
383.41	678.76
383.61	809.83
383.80	699.82
384.00	671.73
384.19	800.46
384.39	826.21
384.58	851.96
384.78	842.59
384.97	898.77
385.17	800.46
385.36	856.64
385.56	805.14
385.75	830.89
385.95	826.21
386.14	938.55
386.34	924.51
386.53	889.40
386.72	870.68
386.92	894.08
387.11	807.48
387.31	947.92
387.50	870.68
387.70	929.19
387.89	915.15
388.09	924.51
388.28	908.13
388.48	882.38
388.67	999.41
388.86	1022.81
389.06	1022.81
389.25	1027.50
389.45	1001.75
389.64	1039.20
389.84	1004.09
390.03	1086.01
390.22	1008.77
390.42	987.71
390.61	954.94
390.81	1111.75
391.00	1025.15
391.19	1067.28
391.39	1193.67
391.58	1036.86
391.78	1088.35
391.97	1069.62
392.16	1020.47
392.36	1121.12
392.55	1125.80
392.75	1100.05
392.94	968.98
393.13	978.34
393.33	1078.99
393.52	1217.08
393.71	1172.61
393.91	1029.84
394.10	1130.48
394.29	1167.93
394.49	1167.93
394.68	1289.64
394.88	1273.25
395.07	1322.40
395.26	1240.48
395.46	1245.16
395.65	1317.72
395.84	1219.42
396.04	1259.21
396.23	1224.10
396.42	1261.55
396.62	1240.48
396.81	1240.48
397.00	1284.95
397.19	1357.51
397.39	1423.05
397.58	1401.98
397.77	1392.62
397.97	1523.69
398.16	1460.49
398.35	1519.01
398.55	1455.81
398.74	1563.48
398.93	1542.41
399.12	1540.07
399.32	1568.16
399.51	1593.90
399.70	1605.61
399.90	1544.75
400.09	1626.67
400.28	1650.08
400.47	1563.48
400.67	1703.91
400.86	1748.38
401.05	1788.17
401.24	1764.76
401.44	1837.32
401.63	1771.79
401.82	1701.57
402.01	1729.66
402.21	1802.21
402.40	1809.23
402.59	1827.96
402.78	1851.36
402.97	1832.64
403.17	1865.41
403.36	1799.87
403.55	1881.79
403.74	1984.77
403.93	1884.13
404.13	1987.11
404.32	2001.16
404.51	1884.13
404.70	1947.33
404.89	1900.52
405.09	1970.73
405.28	2038.61
405.47	1998.82
405.66	2111.16
405.85	2090.10
406.05	2120.53
406.24	2050.31
406.43	2118.18
406.62	2064.35
406.81	2239.89
407.00	2040.95
407.20	2040.95
407.39	2153.29
407.58	2165.00
407.77	2221.17
407.96	2310.11
408.15	2375.64
408.34	2251.60
408.54	2342.88
408.73	2394.37
408.92	2347.56
409.11	2392.03
409.30	2445.86
409.49	2385.01
409.68	2324.15
409.87	2326.49
410.07	2300.75
410.26	2415.43
410.45	2417.77
410.64	2607.36
410.83	2670.55
411.02	2590.97
411.21	2731.41
411.40	2684.59
411.59	2658.85
411.78	2633.10
411.98	2649.49
412.17	2621.40
412.36	2752.47
412.55	2808.64
412.74	2747.79
412.93	2829.71
413.12	2827.37
413.31	2991.20
413.50	2836.73
413.69	2963.12
413.88	2984.18
414.07	2956.10
414.26	2979.50
414.45	3052.06
414.64	2991.20
414.83	3211.22
415.02	3178.45
415.22	3166.74
415.41	3138.66
415.60	3180.79
415.79	3246.32
415.98	3323.56
416.17	3323.56
416.36	3337.60
416.55	3276.75
416.74	3351.65
416.93	3346.97
417.12	3318.88
417.31	3377.39
417.50	3541.23
417.69	3618.47
417.88	3562.30
418.07	3405.48
418.26	3590.38
418.45	3524.85
418.64	3691.02
418.83	3644.21
419.02	3707.41
419.21	3819.75
419.39	3646.55
419.58	3765.92
419.77	3700.39
419.96	3838.48
420.15	3889.97
420.34	3761.24
420.53	3904.01
420.72	3791.67
420.91	4016.36
421.10	3969.55
421.29	4077.21
421.48	3875.93
421.67	3899.33
421.86	3829.12
422.05	3885.29
422.24	3925.08
422.43	3992.95
422.61	4046.79
422.80	4074.87
422.99	4053.81
423.18	4112.32
423.37	4128.70
423.56	4060.83
423.75	4060.83
423.94	4028.06
424.13	3751.88
424.32	3852.52
424.50	4133.39
424.69	4156.79
424.88	4049.13
425.07	3999.98
425.26	4051.47
425.45	4074.87
425.64	4124.02
425.83	4117.00
426.01	4138.07
426.20	4079.55
426.39	4065.51
426.58	4023.38
426.77	4119.34
426.96	4091.26
427.15	4056.15
427.33	4252.75
427.52	4152.11
427.71	4306.59
427.90	4077.21
428.09	4528.94
428.28	4053.81
428.46	4091.26
428.65	4320.63
428.84	4442.34
429.03	4421.27
429.22	4107.64
429.40	4393.19
429.59	4365.10
429.78	4100.62
429.97	4079.55
430.16	4077.21
430.34	4154.45
430.53	4238.71
430.72	4243.39
430.91	4315.95
431.10	4512.55
431.28	4844.91
431.47	4730.22
431.66	4706.82
431.85	4753.63
432.03	4781.71
432.22	4709.16
432.41	4774.69
432.60	4781.71
432.79	4947.89
432.97	4819.16
433.16	4961.94
433.35	4709.16
433.54	4842.57
433.72	4910.44
433.91	4652.98
434.10	4795.76
434.28	4966.62
434.47	5020.45
434.66	4950.23
434.85	5135.14
435.03	5004.07
435.22	5116.41
435.41	5369.19
435.59	5224.08
435.78	5200.67
435.97	5355.15
436.16	5348.12
436.34	5404.30
436.53	5207.69
436.72	5376.21
436.90	5416.00
437.09	5558.77
437.28	5149.18
437.46	5273.23
437.65	5256.84
437.84	5418.34
438.02	5401.96
438.21	5397.28
438.40	5324.72
438.58	5638.35
438.77	5582.18
438.96	5617.29
439.14	5631.33
439.33	5757.72
439.52	5912.19
439.70	5755.38
439.89	5921.56
440.08	5921.56
440.26	5987.09
440.45	5870.06
440.63	5851.34
440.82	6258.59
441.01	6078.37
441.19	6043.26
441.38	6260.93
441.57	6235.19
441.75	6328.81
441.94	6466.90
442.12	6396.68
442.31	6572.22
442.50	6569.88
442.68	6464.56
442.87	6544.14
443.05	6630.74
443.24	6581.59
443.43	6541.80
443.61	6518.39
443.80	6707.98
443.98	6635.42
444.17	6471.58
444.35	6668.19
444.54	6899.90
444.73	6892.88
444.91	6717.34
445.10	6640.10
445.28	6628.40
445.47	6569.88
445.65	6523.07
445.84	6663.51
446.02	6679.89
446.21	6768.83
446.39	6726.70
446.58	6918.62
446.77	6892.88
446.95	6729.04
447.14	6916.28
447.32	7047.35
447.51	6853.09
447.69	6923.30
447.88	6956.07
448.06	6869.47
448.25	7136.29
448.43	7068.42
448.62	7143.32
448.80	6913.94
448.99	7194.81
449.17	7016.93
449.36	7054.37
449.54	7007.56
449.73	7368.01
449.91	7365.67
450.10	7265.02
450.28	7571.63
450.46	7592.70
450.65	7339.92
450.83	7604.40
451.02	7353.96
451.20	7520.14
451.39	7487.37
451.57	7592.70
451.76	7627.81
451.94	7300.13
452.13	7552.91
452.31	7475.67
452.49	7293.11
452.68	7651.21
452.86	7515.46
453.05	7688.66
453.23	7517.80
453.42	7506.10
453.60	7414.82
453.78	7583.34
453.97	7602.06
454.15	7754.19
454.34	7555.25
454.52	7693.34
454.70	7569.29
454.89	7747.17
455.07	7873.56
455.26	7906.33
455.44	7761.22
455.62	8002.29
455.81	8074.85
455.99	7911.01
456.17	8109.96
456.36	7936.76
456.54	8154.43
456.73	8322.94
456.91	8243.37
457.09	8266.77
457.28	8716.16
457.46	8250.39
457.64	8404.86
457.83	8493.80
458.01	8557.00
458.19	8489.12
458.38	8355.71
458.56	8751.26
458.74	8362.73
458.93	8575.72
459.11	8477.42
459.29	8367.42
459.48	8512.53
459.66	8580.40
459.84	8779.35
460.03	8891.70
460.21	8933.82
460.39	8858.93
460.57	8795.73
460.76	8875.31
460.94	8915.10
461.12	8858.93
461.31	8847.22
461.49	9039.15
461.67	9015.74
461.85	9406.61
462.04	8990.00
462.22	9708.54
462.40	9228.73
462.59	8999.36
462.77	9034.47
462.95	9301.29
463.13	9163.20
463.32	9291.93
463.50	9170.22
463.68	9217.03
463.86	9284.91
464.05	9270.86
464.23	9224.05
464.41	9448.74
464.59	9249.80
464.78	9439.38
464.96	9352.78
465.14	9102.34
465.32	9635.99
465.50	9516.62
465.69	9682.80
465.87	9413.63
466.05	9626.62
466.23	9348.10
466.41	9472.15
466.60	9778.76
466.78	9444.06
466.96	9568.11
467.14	9722.59
467.32	9708.54
467.51	9870.04
467.69	9495.55
467.87	9561.09
468.05	9888.76
468.23	9731.95
468.41	9753.01
468.60	9736.63
468.78	9860.68
468.96	9846.63
469.14	10111.11
469.32	9935.57
469.50	9851.31
469.69	9865.36
469.87	10188.35
470.05	10054.94
470.23	10211.76
470.41	10150.90
470.59	10331.12
470.77	10092.39
470.95	10218.78
471.14	10509.01
471.32	10134.52
471.50	10729.02
471.68	10595.61
471.86	10654.12
472.04	10539.43
472.22	10712.63
472.40	10611.99
472.58	10686.89
472.77	10710.29
472.95	10899.87
473.13	11040.31
473.31	10792.21
473.49	10860.09
473.67	11028.60
473.85	11173.72
474.03	11201.80
474.21	11543.52
474.39	11417.13
474.57	11138.61
474.75	11307.13
474.93	11707.36
475.12	11126.91
475.30	11733.11
475.48	11363.30
475.66	11477.99
475.84	11751.83
476.02	11641.82
476.20	11779.92
476.38	11887.58
476.56	12219.94
476.74	12023.33
476.92	12131.00
477.10	12210.57
477.28	12571.02
477.46	12627.19
477.64	12659.96
477.82	12706.77
478.00	12943.16
478.18	12688.04
478.36	13004.02
478.54	13004.02
478.72	13130.41
478.90	13319.99
479.08	13708.52
479.26	13598.51
479.44	13645.32
479.62	13626.60
479.80	13717.88
479.98	13727.24
480.16	14008.11
480.34	13893.42
480.52	14218.75
480.70	14038.53
480.88	14054.92
481.06	14457.49
481.24	14279.61
481.41	14541.75
481.59	14920.92
481.77	14796.87
481.95	14946.66
482.13	15005.17
482.31	14970.07
482.49	15218.16
482.67	15452.22
482.85	15501.37
483.03	15447.54
483.21	15887.56
483.39	15613.71
483.57	15592.65
483.74	15864.15
483.92	15953.09
484.10	15988.20
484.28	16388.43
484.46	16493.76
484.64	17142.08
484.82	16376.73
485.00	16437.58
485.18	16989.95
485.35	16905.69
485.53	16613.12
485.71	16519.50
485.89	16851.86
486.07	17053.14
486.25	17144.42
486.43	17043.78
486.61	17851.27
486.78	17757.64
486.96	17687.43
487.14	18001.06
487.32	18214.05
487.50	18441.08
487.68	18445.76
487.85	19019.19
488.03	18930.25
488.21	18902.17
488.39	19337.51
488.57	19274.31
488.75	19171.33
488.92	19592.62
489.10	19934.34
489.28	19819.66
489.46	20201.16
489.64	20135.63
489.81	20669.27
489.99	20800.34
490.17	21088.23
490.35	21156.10
490.53	20802.68
490.70	20737.15
490.88	20938.43
491.06	21406.54
491.24	21310.58
491.41	21352.71
491.59	21392.50
491.77	21305.90
491.95	21610.17
492.13	21640.59
492.30	22085.30
492.48	22181.26
492.66	22682.13
492.84	22497.23
493.01	22424.67
493.19	22712.56
493.37	22534.68
493.54	22895.12
493.72	23201.73
493.90	23075.34
494.08	23515.36
494.25	24112.20
494.43	24123.90
494.61	24109.86
494.79	24208.16
494.96	24198.80
495.14	24350.93
495.32	24638.82
495.49	24238.59
495.67	24584.99
495.85	24837.76
496.02	24947.77
496.20	24996.92
496.38	24982.88
496.55	24917.34
496.73	25830.15
496.91	25610.14
497.09	25722.49
497.26	25905.05
497.44	25586.74
497.62	25944.84
497.79	25982.29
497.97	25710.78
498.14	25984.63
498.32	26214.00
498.50	26380.18
498.67	26789.77
498.85	26466.78
499.03	27000.42
499.20	26864.67
499.38	26965.31
499.56	27002.76
499.73	27089.36
499.91	27288.31
500.08	27435.76
500.26	27168.94
500.44	27346.82
500.61	27578.53
500.79	27363.20
500.97	27545.76
501.14	27784.50
501.32	27552.79
501.49	27887.48
501.67	28002.17
501.84	27852.38
502.02	28149.62
502.20	28102.81
502.37	28877.53
502.55	28313.46
502.72	28701.99
502.90	28954.77
503.07	28591.98
503.25	28889.23
503.43	28666.88
503.60	28776.89
503.78	28617.73
503.95	28980.51
504.13	29188.82
504.30	29663.95
504.48	29347.98
504.65	29687.36
504.83	29912.05
505.01	29958.86
505.18	29893.32
505.36	30211.64
505.53	30209.29
505.71	30459.73
505.88	30331.00
506.06	30096.95
506.23	30305.26
506.41	30359.09
506.58	30291.21
506.76	30895.07
506.93	30941.88
507.11	30918.48
507.28	30623.57
507.46	30731.23
507.63	30859.96
507.81	30822.51
507.98	30754.64
508.16	31133.81
508.33	30876.35
508.50	31400.63
508.68	32020.87
508.85	31737.66
509.03	31842.99
509.20	31597.23
509.38	31964.70
509.55	31983.42
509.73	31967.04
509.90	32182.37
510.08	32112.15
510.25	31791.50
510.42	31971.72
510.60	32542.81
510.77	32435.14
510.95	32875.16
511.12	32465.57
511.30	32601.32
511.47	33109.22
511.64	33013.26
511.82	33443.91
511.99	32903.25
512.17	32954.74
512.34	33207.52
512.51	33354.97
512.69	33401.79
512.86	33633.50
513.04	33713.08
513.21	33589.03
513.38	33820.74
513.56	33476.68
513.73	33315.19
513.90	33816.06
514.08	33755.21
514.25	33619.46
514.43	33902.66
514.60	34162.46
514.77	34401.19
514.95	34429.28
515.12	34532.26
515.29	34518.22
515.47	34508.86
515.64	34888.03
515.81	34719.51
515.99	34550.99
516.16	34218.63
516.33	34361.40
516.51	34377.79
516.68	34022.03
516.85	33521.15
517.03	34553.33
517.20	34803.77
517.37	34670.36
517.54	35199.32
517.72	34930.16
517.89	34410.56
518.06	34565.03
518.24	34841.21
518.41	35232.08
518.58	35402.94
518.75	35716.58
518.93	35756.36
519.10	35164.21
519.27	36196.38
519.45	35936.59
519.62	35833.60
519.79	36217.45
519.96	36102.76
520.14	36130.85
520.31	36095.74
520.48	36102.76
520.65	36093.40
520.83	36718.32
521.00	36580.23
521.17	36378.95
521.34	36811.95
521.52	36898.55
521.69	36769.82
521.86	37046.00
522.03	37368.99
522.20	37167.71
522.38	37111.53
522.55	36917.27
522.72	36891.52
522.89	37549.21
523.07	37493.04
523.24	37387.72
523.41	37656.88
523.58	37551.56
523.75	38483.09
523.92	38005.62
524.10	38089.88
524.27	38094.56
524.44	37865.19
524.61	38375.42
524.78	38148.39
524.96	38026.68
525.13	38703.10
525.30	38604.80
525.47	38569.69
525.64	38628.20
525.81	38256.06
525.98	38117.96
526.16	37759.86
526.33	37865.19
526.50	38384.79
526.67	37841.78
526.84	38110.94
527.01	38469.04
527.18	38401.17
527.36	38953.54
527.53	39009.71
527.70	39203.97
527.87	39140.78
528.04	39070.56
528.21	39009.71
528.38	39700.17
528.55	39529.31
528.72	39505.90
528.89	39704.85
529.07	39864.00
529.24	39391.22
529.41	39543.35
529.58	39480.16
529.75	39566.76
529.92	39833.58
530.09	39941.24
530.26	40168.27
530.43	40219.77
530.60	39812.51
530.77	40081.67
530.94	40278.28
531.11	39866.34
531.28	40582.55
531.46	40648.08
531.63	40587.23
531.80	40547.44
531.97	40109.76
532.14	40680.85
532.31	39793.79
532.48	40201.04
532.65	40519.35
532.82	40170.61
532.99	40732.34
533.16	40554.46
533.33	40685.53
533.50	40744.05
533.67	40942.99
533.84	40465.52
534.01	40797.88
534.18	40711.28
534.35	41237.90
534.52	40978.10
534.69	41713.03
534.86	41062.36
535.03	41057.68
535.20	41401.74
535.37	41787.92
535.54	42302.84
535.71	41453.23
535.88	41425.14
536.05	41202.79
536.22	41331.52
536.38	41748.14
536.55	41200.45
536.72	41469.61
536.89	41373.65
537.06	41469.61
537.23	41968.15
537.40	41904.95
537.57	41736.43
537.74	42206.88
537.91	41965.81
538.08	42082.83
538.25	41495.36
538.42	42401.14
538.59	42286.46
538.75	41888.57
538.92	42199.86
539.09	42335.61
539.26	42153.05
539.43	42256.03
539.60	41998.57
539.77	41895.59
539.94	42480.72
540.11	41853.46
540.28	42527.53
540.44	42501.79
540.61	42333.27
540.78	42012.62
540.95	42323.91
541.12	42237.31
541.29	42700.73
541.46	42351.99
541.62	42787.33
541.79	42869.25
541.96	42679.67
542.13	42682.01
542.30	43171.18
542.47	42895.00
542.63	42892.66
542.80	42871.59
542.97	43299.91
543.14	43201.61
543.31	43353.74
543.48	43360.76
543.64	43796.10
543.81	43723.55
543.98	43854.62
544.15	43810.15
544.32	43723.55
544.48	43936.54
544.65	43880.36
544.82	43882.70
544.99	43531.62
545.16	43742.27
545.32	43494.18
545.49	44360.17
545.66	43941.22
545.83	44477.20
546.00	44332.09
546.16	43920.15
546.33	43555.03
546.50	43819.51
546.67	44053.56
546.83	43470.77
547.00	44030.16
547.17	43639.29
547.34	44004.41
547.50	44119.10
547.67	44219.74
547.84	44301.66
548.00	44058.24
548.17	44505.29
548.34	44758.06
548.51	44692.53
548.67	44638.70
548.84	44619.97
549.01	44432.73
549.18	44432.73
549.34	44355.49
549.51	44914.88
549.68	44762.75
549.84	44999.14
550.01	44678.49
550.18	44491.24
550.34	45095.10
550.51	44615.29
550.68	44861.05
550.84	44346.13
551.01	44818.92
551.18	44947.65
551.34	44788.49
551.51	45221.49
551.68	45270.64
551.84	44893.82
552.01	45057.65
552.18	44739.34
552.34	45097.44
552.51	45020.20
552.68	44601.25
552.84	45280.00
553.01	45095.10
553.18	45502.35
553.34	45036.59
553.51	44858.71
553.67	45368.94
553.84	45539.80
554.01	45535.12
554.17	45715.34
554.34	45357.24
554.51	45319.79
554.67	45668.53
554.84	45375.97
555.00	45815.99
555.17	45462.57
555.33	45586.61
555.50	45595.98
555.67	45621.72
555.83	45244.90
556.00	45581.93
556.16	46073.45
556.33	45453.20
556.50	45745.77
556.66	45390.01
556.83	45085.74
556.99	45778.54
557.16	45853.44
557.32	45703.64
557.49	46050.04
557.65	45556.19
557.82	45640.45
557.98	45762.15
558.15	46146.00
558.32	45972.80
558.48	45736.41
558.65	45617.04
558.81	45830.03
558.98	45687.26
559.14	45607.68
559.31	45801.94
559.47	46099.19
559.64	46115.58
559.80	45975.14
559.97	46218.56
560.13	45979.82
560.30	45762.15
560.46	45815.99
560.63	46120.26
560.79	46279.41
560.96	46529.85
561.12	45958.76
561.29	45734.07
561.45	46124.94
561.61	46036.00
561.78	45947.06
561.94	45804.28
562.11	45837.05
562.27	46237.28
562.44	46176.43
562.60	46237.28
562.77	46415.16
562.93	46286.43
563.10	46717.09
563.26	46319.20
563.42	46368.35
563.59	46059.40
563.75	46054.72
563.92	46192.81
564.08	46763.90
564.24	46742.84
564.41	46689.01
564.57	46265.37
564.74	46216.22
564.90	46230.26
565.07	46141.32
565.23	46265.37
565.39	46433.89
565.56	46237.28
565.72	46146.00
565.88	46733.48
566.05	46316.86
566.21	46466.66
566.38	46518.15
566.54	46291.12
566.70	46866.89
566.87	46789.65
567.03	46351.97
567.19	46564.96
567.36	46571.98
567.52	46611.77
567.68	46691.35
567.85	46237.28
568.01	46911.36
568.17	46349.63
568.34	46618.79
568.50	46586.02
568.66	46665.60
568.83	46396.44
568.99	45834.71
569.15	46094.51
569.32	46440.91
569.48	46478.36
569.64	46667.94
569.81	46707.73
569.97	46382.40
570.13	46696.03
570.30	46075.79
570.46	46562.62
570.62	46075.79
570.78	46480.70
570.95	46089.83
571.11	46305.16
571.27	46653.90
571.43	46351.97
571.60	46714.75
571.76	46595.38
571.92	46522.83
572.09	46607.09
572.25	46614.11
572.41	47093.92
572.57	46630.49
572.74	46890.29
572.90	46955.83
573.06	46590.70
573.22	46394.10
573.38	46745.18
573.55	46464.32
573.71	46967.53
573.87	47365.42
574.03	46483.04
574.20	46337.93
574.36	46426.87
574.52	46667.94
574.68	46480.70
574.84	46911.36
575.01	46927.74
575.17	46511.13
575.33	46841.14
575.49	46471.34
575.65	47220.31
575.82	46646.88
575.98	46796.67
576.14	46520.49
576.30	47107.96
576.46	46485.38
576.62	46595.38
576.79	46550.91
576.95	46546.23
577.11	46490.06
577.27	46953.49
577.43	46871.57
577.59	46674.96
577.75	46567.30
577.92	46527.51
578.08	46635.17
578.24	46375.37
578.40	46707.73
578.56	46457.29
578.72	46869.23
578.88	46944.12
579.04	46775.61
579.21	46990.94
579.37	46869.23
579.53	47004.98
579.69	46312.18
579.85	46321.54
580.01	46623.47
580.17	46686.67
580.33	46490.06
580.49	47037.75
580.65	46679.64
580.82	46972.21
580.98	46576.66
581.14	46742.84
581.30	47079.88
581.46	46705.39
581.62	46770.93
581.78	46665.60
581.94	46745.18
582.10	47070.51
582.26	47215.63
582.42	46962.85
582.58	47363.08
582.74	46609.43
582.90	46883.27
583.06	46850.50
583.22	46813.05
583.38	47213.29
583.54	47257.76
583.70	46983.91
583.86	47112.64
584.02	46639.86
584.18	47124.35
584.34	47065.83
584.50	47147.75
584.66	46794.33
584.82	46696.03
584.98	47175.84
585.14	46878.59
585.30	46974.55
585.46	46747.52
585.62	46644.54
585.78	46719.43
585.94	46447.93
586.10	46452.61
586.26	46611.77
586.42	46696.03
586.58	47339.68
586.74	46831.78
586.90	46707.73
587.06	46986.25
587.22	46864.55
587.38	46883.27
587.54	46719.43
587.70	46988.60
587.86	47119.66
588.02	46405.80
588.18	47051.79
588.34	46567.30
588.49	46366.01
588.65	46110.89
588.81	46138.98
588.97	46499.42
589.13	46277.07
589.29	46546.23
589.45	46944.12
589.61	46916.04
589.77	46972.21
