SpectraSuite Data File
++++++++++++++++++++++++++++++++++++
Date: Fri Oct 25 11:34:30 EDT 2013
User: price-jones
Dark Spectrum Present: No
Reference Spectrum Present: No
Number of Sampled Component Spectra: 1
Spectrometers: USB2+H05261
Integration Time (usec): 100000 (USB2+H05261)
Spectra Averaged: 1 (USB2+H05261)
Boxcar Smoothing: 0 (USB2+H05261)
Correct for Electrical Dark: No (USB2+H05261)
Strobe/Lamp Enabled: No (USB2+H05261)
Correct for Detector Non-linearity: No (USB2+H05261)
Correct for Stray Light: No (USB2+H05261)
Number of Pixels in Processed Spectrum: 2048
>>>>>Begin Processed Spectral Data<<<<<
365.73	294.91
365.92	294.91
366.12	294.91
366.32	154.48
366.52	212.99
366.72	166.18
366.91	191.92
367.11	241.08
367.31	147.45
367.51	243.42
367.70	161.50
367.90	180.22
368.10	149.79
368.30	208.31
368.49	198.95
368.69	212.99
368.89	173.20
369.09	173.20
369.28	236.39
369.48	215.33
369.68	196.60
369.87	280.86
370.07	231.71
370.27	344.06
370.47	318.31
370.66	543.00
370.86	543.00
371.06	514.92
371.25	514.92
371.45	477.47
371.65	627.26
371.84	512.58
372.04	613.22
372.24	510.24
372.44	538.32
372.63	589.82
372.83	648.33
373.03	685.78
373.22	514.92
373.42	606.20
373.62	601.52
373.81	660.03
374.01	671.73
374.21	653.01
374.40	589.82
374.60	571.09
374.79	599.18
374.99	608.54
375.19	676.41
375.38	655.35
375.58	617.90
375.78	739.61
375.97	664.71
376.17	662.37
376.37	772.38
376.56	617.90
376.76	667.05
376.95	627.26
377.15	641.31
377.35	709.18
377.54	725.57
377.74	627.26
377.93	720.88
378.13	650.67
378.33	697.48
378.52	660.03
378.72	706.84
378.91	781.74
379.11	702.16
379.31	657.69
379.50	681.10
379.70	755.99
379.89	755.99
380.09	690.46
380.28	732.59
380.48	781.74
380.68	711.52
380.87	753.65
381.07	748.97
381.26	765.36
381.46	861.32
381.65	699.82
381.85	718.54
382.04	741.95
382.24	767.70
382.43	746.63
382.63	741.95
382.83	737.27
383.02	805.14
383.22	842.59
383.41	681.10
383.61	791.10
383.80	770.04
384.00	664.71
384.19	896.43
384.39	800.46
384.58	837.91
384.78	793.44
384.97	791.10
385.17	894.08
385.36	730.25
385.56	812.17
385.75	730.25
385.95	882.38
386.14	849.61
386.34	800.46
386.53	823.87
386.72	868.34
386.92	908.13
387.11	844.93
387.31	842.59
387.50	861.32
387.70	924.51
387.89	812.17
388.09	851.96
388.28	889.40
388.48	894.08
388.67	910.47
388.86	933.87
389.06	828.55
389.25	861.32
389.45	964.30
389.64	866.00
389.84	966.64
390.03	959.62
390.22	936.21
390.42	926.85
390.61	947.92
390.81	903.45
391.00	896.43
391.19	1011.11
391.39	954.94
391.58	1022.81
391.78	905.79
391.97	952.60
392.16	966.64
392.36	1022.81
392.55	1046.22
392.75	1027.50
392.94	1097.71
393.13	1025.15
393.33	1039.20
393.52	1022.81
393.71	1121.12
393.91	1123.46
394.10	1022.81
394.29	1086.01
394.49	994.73
394.68	1118.78
394.88	1076.65
395.07	1207.72
395.26	1170.27
395.46	1142.18
395.65	1156.22
395.84	1132.82
396.04	1104.73
396.23	1181.97
396.42	1160.91
396.62	1125.80
396.81	1156.22
397.00	1132.82
397.19	1118.78
397.39	1163.25
397.58	1170.27
397.77	1170.27
397.97	1282.61
398.16	1249.85
398.35	1210.06
398.55	1224.10
398.74	1174.95
398.93	1327.08
399.12	1224.10
399.32	1254.53
399.51	1310.70
399.70	1315.38
399.90	1331.76
400.09	1350.49
400.28	1327.08
400.47	1284.95
400.67	1469.86
400.86	1287.29
401.05	1261.55
401.24	1387.94
401.44	1441.77
401.63	1502.62
401.82	1495.60
402.01	1301.34
402.21	1472.20
402.40	1476.88
402.59	1369.21
402.78	1446.45
402.97	1371.55
403.17	1523.69
403.36	1502.62
403.55	1404.32
403.74	1558.80
403.93	1526.03
404.13	1483.90
404.32	1516.67
404.51	1481.56
404.70	1584.54
404.89	1542.41
405.09	1673.48
405.28	1605.61
405.47	1544.75
405.66	1549.43
405.85	1605.61
406.05	1689.87
406.24	1626.67
406.43	1654.76
406.62	1757.74
406.81	1776.47
407.00	1722.63
407.20	1645.40
407.39	1687.53
407.58	1727.32
407.77	1750.72
407.96	1717.95
408.15	1748.38
408.34	1849.02
408.54	1839.66
408.73	1764.76
408.92	1893.49
409.11	1963.71
409.30	1895.83
409.49	1837.32
409.68	2010.52
409.87	1820.94
410.07	1930.94
410.26	1989.46
410.45	2054.99
410.64	1989.46
410.83	2005.84
411.02	2022.22
411.21	2139.25
411.40	2066.69
411.59	2092.44
411.78	2139.25
411.98	2162.66
412.17	2153.29
412.36	2200.10
412.55	2165.00
412.74	2139.25
412.93	2209.47
413.12	2162.66
413.31	2431.82
413.50	2375.64
413.69	2272.66
413.88	2396.71
414.07	2401.39
414.26	2431.82
414.45	2380.32
414.64	2424.80
414.83	2422.45
415.02	2392.03
415.22	2562.89
415.41	2551.18
415.60	2506.71
415.79	2546.50
415.98	2546.50
416.17	2668.21
416.36	2665.87
416.55	2757.15
416.74	2656.51
416.93	2677.57
417.12	2719.70
417.31	2754.81
417.50	2745.45
417.69	2923.33
417.88	2761.83
418.07	2818.00
418.26	2839.07
418.45	2918.65
418.64	2939.71
418.83	2960.78
419.02	2916.31
419.21	2942.05
419.39	3075.46
419.58	2871.84
419.77	2862.48
419.96	3059.08
420.15	3075.46
420.34	3021.63
420.53	3084.83
420.72	3042.70
420.91	3080.14
421.10	3124.62
421.29	3122.27
421.48	3192.49
421.67	3117.59
421.86	3276.75
422.05	3171.43
422.24	3122.27
422.43	3269.73
422.61	3274.41
422.80	3293.13
422.99	3178.45
423.18	3300.16
423.37	3337.60
423.56	3211.22
423.75	3164.40
423.94	3173.77
424.13	3049.72
424.32	3112.91
424.50	3255.69
424.69	3412.50
424.88	3428.88
425.07	3330.58
425.26	3211.22
425.45	3272.07
425.64	3185.47
425.83	3330.58
426.01	3267.39
426.20	3290.79
426.39	3435.91
426.58	3309.52
426.77	3316.54
426.96	3433.57
427.15	3337.60
427.33	3494.42
427.52	3552.93
427.71	3410.16
427.90	3534.21
428.09	3559.95
428.28	3419.52
428.46	3468.67
428.65	3510.80
428.84	3625.49
429.03	3714.43
429.22	3583.36
429.40	3548.25
429.59	3571.66
429.78	3501.44
429.97	3426.54
430.16	3709.75
430.34	3733.15
430.53	3667.62
430.72	3810.39
430.91	3859.54
431.10	3674.64
431.28	3751.88
431.47	3925.08
431.66	3749.54
431.85	3934.44
432.03	3854.86
432.22	3911.04
432.41	3953.16
432.60	3978.91
432.79	3941.46
432.97	3784.65
433.16	3932.10
433.35	3957.85
433.54	4002.32
433.72	4053.81
433.91	3957.85
434.10	4161.47
434.28	4128.70
434.47	4086.58
434.66	4084.23
434.85	4145.09
435.03	4056.15
435.22	4051.47
435.41	4252.75
435.59	4313.61
435.78	4278.50
435.97	4430.63
436.16	4245.73
436.34	4355.74
436.53	4318.29
436.72	4514.89
436.90	4280.84
437.09	4554.68
437.28	4184.88
437.46	4315.95
437.65	4308.93
437.84	4416.59
438.02	4451.70
438.21	4423.61
438.40	4484.47
438.58	4512.55
438.77	4592.13
438.96	4491.49
439.14	4706.82
439.33	4664.69
439.52	4585.11
439.70	4669.37
439.89	4915.12
440.08	4854.27
440.26	4856.61
440.45	4840.23
440.63	5118.75
440.82	4868.31
441.01	4936.19
441.19	4971.30
441.38	4954.91
441.57	5118.75
441.75	4954.91
441.94	5125.77
442.12	5064.92
442.31	5212.37
442.50	5296.63
442.68	5174.92
442.87	5221.74
443.05	5373.87
443.24	5310.68
443.43	5177.26
443.61	5277.91
443.80	5500.26
443.98	5165.56
444.17	5261.52
444.35	5364.51
444.54	5341.10
444.73	5317.70
444.91	5465.15
445.10	5598.56
445.28	5486.22
445.47	5376.21
445.65	5315.36
445.84	5423.02
446.02	5434.72
446.21	5462.81
446.39	5500.26
446.58	5659.42
446.77	5430.04
446.95	5383.23
447.14	5584.52
447.32	5628.99
447.51	5348.12
447.69	5352.81
447.88	5628.99
448.06	5645.37
448.25	5521.32
448.43	5551.75
448.62	5692.18
448.80	5645.37
448.99	5645.37
449.17	5757.72
449.36	5603.24
449.54	5664.10
449.73	5717.93
449.91	5755.38
450.10	5769.42
450.28	6015.18
450.46	5881.77
450.65	5816.23
450.83	5827.93
451.02	5916.87
451.20	5912.19
451.39	5935.60
451.57	5811.55
451.76	5902.83
451.94	5900.49
452.13	6052.63
452.31	5991.77
452.49	5804.53
452.68	6008.16
452.86	5916.87
453.05	6090.07
453.23	6008.16
453.42	6040.92
453.60	5874.74
453.78	6216.46
453.97	5982.41
454.15	6057.31
454.34	6141.57
454.52	6420.09
454.70	6314.77
454.89	6354.55
455.07	6326.47
455.26	6420.09
455.44	6408.39
455.62	6368.60
455.81	6328.81
455.99	6516.05
456.17	6565.20
456.36	6499.67
456.54	6731.38
456.73	6686.91
456.91	6684.57
457.09	6675.21
457.28	6766.49
457.46	6654.14
457.64	6743.08
457.83	6761.81
458.01	6602.65
458.19	6724.36
458.38	6871.81
458.56	6855.43
458.74	6944.37
458.93	6825.00
459.11	6965.43
459.29	6895.22
459.48	6956.07
459.66	7138.63
459.84	7075.44
460.03	7204.17
460.21	7110.55
460.39	7185.44
460.57	7110.55
460.76	7265.02
460.94	7250.98
461.12	7164.38
461.31	7187.79
461.49	7126.93
461.67	6979.48
461.85	7321.20
462.04	7463.97
462.22	7665.25
462.40	7499.08
462.59	7365.67
462.77	7433.54
462.95	7431.20
463.13	7353.96
463.32	7410.14
463.50	7412.48
463.68	7501.42
463.86	7721.43
464.05	7524.82
464.23	7559.93
464.41	7522.48
464.59	7531.84
464.78	7744.83
464.96	7620.78
465.14	7351.62
465.32	7676.96
465.50	7770.58
465.69	7953.14
465.87	7875.90
466.05	7861.86
466.23	7894.63
466.41	7911.01
466.60	7981.23
466.78	7691.00
466.96	7742.49
467.14	7882.92
467.32	7812.71
467.51	8105.28
467.69	7955.48
467.87	8016.33
468.05	7826.75
468.23	7981.23
468.41	7932.08
468.60	8142.72
468.78	8212.94
468.96	8126.34
469.14	8234.00
469.32	8322.94
469.50	8105.28
469.69	8257.41
469.87	8344.01
470.05	8362.73
470.23	8332.31
470.41	8301.88
470.59	8531.25
470.77	8248.05
470.95	8442.31
471.14	8716.16
471.32	8348.69
471.50	8594.45
471.68	8564.02
471.86	8542.96
472.04	8966.59
472.22	8912.76
472.40	8718.50
472.58	8769.99
472.77	9071.92
472.95	9067.24
473.13	9263.84
473.31	9064.89
473.49	9029.79
473.67	8812.12
473.85	9167.88
474.03	9320.01
474.21	9235.75
474.39	9455.76
474.57	9240.44
474.75	9467.47
474.93	9563.43
475.12	9643.01
475.30	9528.32
475.48	9657.05
475.66	9680.46
475.84	9551.73
476.02	9743.65
476.20	9853.66
476.38	9963.66
476.56	10097.07
476.74	9982.38
476.92	9809.19
477.10	10120.48
477.28	10270.27
477.46	10143.88
477.64	10307.72
477.82	10431.77
478.00	10766.46
478.18	10597.95
478.36	10349.85
478.54	10930.30
478.72	11105.84
478.90	10977.11
479.08	11082.44
479.26	11176.06
479.44	11227.55
479.62	11190.10
479.80	11403.09
479.98	11459.26
480.16	11800.98
480.34	11599.70
480.52	11815.02
480.70	11707.36
480.88	11756.51
481.06	11946.09
481.24	12049.08
481.41	12187.17
481.59	12077.16
481.77	12145.04
481.95	12112.27
482.13	12470.37
482.31	12306.54
482.49	12774.64
482.67	12769.96
482.85	12858.90
483.03	12755.92
483.21	13001.68
483.39	12989.97
483.57	13048.49
483.74	13509.57
483.92	13266.16
484.10	13493.19
484.28	13607.87
484.46	13720.22
484.64	13991.72
484.82	13743.63
485.00	14120.45
485.18	14197.69
485.35	14398.98
485.53	14244.50
485.71	14523.02
485.89	14497.28
486.07	14717.29
486.25	14743.03
486.43	14881.13
486.61	15056.67
486.78	15056.67
486.96	15286.04
487.14	15281.36
487.32	15199.44
487.50	15281.36
487.68	15667.55
487.85	15871.17
488.03	16095.86
488.21	16081.82
488.39	16315.87
488.57	16294.81
488.75	16617.80
488.92	16521.84
489.10	16608.44
489.28	16652.91
489.46	16978.25
489.64	16851.86
489.81	17305.92
489.99	17336.35
490.17	17317.62
490.35	17408.90
490.53	17418.27
490.70	17834.88
490.88	17811.48
491.06	17963.61
491.24	18150.85
491.41	18293.63
491.59	18122.77
491.77	18129.79
491.95	18340.44
492.13	18562.79
492.30	18972.38
492.48	18600.24
492.66	18876.42
492.84	18944.30
493.01	19248.57
493.19	19358.57
493.37	19555.18
493.54	19386.66
493.72	19920.30
493.90	19807.95
494.08	19878.17
494.25	20006.90
494.43	20205.84
494.61	20198.82
494.79	20105.20
494.96	20210.53
495.14	20322.87
495.32	20606.08
495.49	20594.37
495.67	20531.18
495.85	20877.58
496.02	21064.82
496.20	21451.01
496.38	21228.66
496.55	21656.98
496.73	21832.52
496.91	21568.04
497.09	21928.48
497.26	21935.50
497.44	22024.44
497.62	22181.26
497.79	22508.93
497.97	22197.64
498.14	22656.39
498.32	22932.57
498.50	23112.79
498.67	22726.60
498.85	22719.58
499.03	22838.95
499.20	23026.19
499.38	22937.25
499.56	23103.43
499.73	23239.18
499.91	23367.91
500.08	23777.50
500.26	23410.04
500.44	23688.56
500.61	23693.24
500.79	23651.11
500.97	24137.94
501.14	24041.98
501.32	24004.53
501.49	24182.42
501.67	24039.64
501.84	24105.18
502.02	24383.70
502.20	24507.75
502.37	24687.97
502.55	24673.93
502.72	24762.87
502.90	24842.45
503.07	24364.98
503.25	24781.59
503.43	24931.39
503.60	25064.80
503.78	25219.27
503.95	25076.50
504.13	25603.12
504.30	25549.29
504.48	25647.59
504.65	25621.84
504.83	25989.31
505.01	25998.67
505.18	25579.71
505.36	26108.68
505.53	25954.20
505.71	26125.06
505.88	26267.83
506.06	26015.05
506.23	26246.77
506.41	26120.38
506.58	26551.04
506.76	26618.91
506.93	26656.36
507.11	26752.32
507.28	26604.87
507.46	27016.80
507.63	27112.77
507.81	27143.19
507.98	27143.19
508.16	27197.02
508.33	27447.46
508.50	27201.71
508.68	27576.19
508.85	27709.60
509.03	27426.40
509.20	27456.82
509.38	27838.33
509.55	27938.97
509.73	28226.86
509.90	28496.02
510.08	28203.46
510.25	28116.86
510.42	28259.63
510.60	28369.63
510.77	28500.70
510.95	29134.99
511.12	28503.04
511.30	28610.71
511.47	29020.30
511.64	28936.04
511.82	28797.95
511.99	28987.53
512.17	29191.16
512.34	28907.96
512.51	29092.86
512.69	29469.69
512.86	29436.92
513.04	29493.09
513.21	29626.50
513.38	29443.94
513.56	29727.14
513.73	29640.54
513.90	29598.41
514.08	29858.21
514.25	30169.51
514.43	30036.09
514.60	29776.30
514.77	30359.09
514.95	30778.04
515.12	30277.17
515.29	30146.10
515.47	30345.05
515.64	30738.26
515.81	30288.87
515.99	30593.14
516.16	30902.09
516.33	30705.49
516.51	30869.33
516.68	31117.42
516.85	31054.23
517.03	31129.12
517.20	31246.15
517.37	31147.85
517.54	31377.22
517.72	31630.00
517.89	31110.40
518.06	31154.87
518.24	31379.56
518.41	31615.96
518.58	31765.75
518.75	31658.09
518.93	31999.80
519.10	31665.11
519.27	32070.02
519.45	32060.66
519.62	32147.26
519.79	31974.06
519.96	31910.86
520.14	32259.60
520.31	32348.54
520.48	32528.77
520.65	32496.00
520.83	32374.29
521.00	32561.53
521.17	32919.63
521.34	32957.08
521.52	32872.82
521.69	33193.48
521.86	33266.03
522.03	33369.02
522.20	33338.59
522.38	33418.17
522.55	33535.20
522.72	33462.64
522.89	33420.51
523.07	34040.75
523.24	33624.14
523.41	33724.78
523.58	33584.35
523.75	34066.50
523.92	33663.93
524.10	34054.79
524.27	34061.82
524.44	33998.62
524.61	34155.44
524.78	33874.57
524.96	34356.72
525.13	34642.27
525.30	34607.16
525.47	34705.46
525.64	34125.01
525.81	35166.55
525.98	34740.57
526.16	34548.65
526.33	34569.71
526.50	34888.03
526.67	35292.94
526.84	34916.11
527.01	34845.90
527.18	34668.02
527.36	34983.99
527.53	34869.30
527.70	35592.53
527.87	35770.41
528.04	35136.12
528.21	35370.18
528.38	35428.69
528.55	35772.75
528.72	35868.71
528.89	36060.63
529.07	35438.05
529.24	35601.89
529.41	35819.56
529.58	35786.79
529.75	35697.85
529.92	35791.47
530.09	35999.78
530.26	35639.34
530.43	36077.02
530.60	36109.78
530.77	35931.90
530.94	36301.71
531.11	35957.65
531.28	36400.01
531.46	36624.70
531.63	36573.21
531.80	36203.41
531.97	36561.51
532.14	36320.43
532.31	36659.81
532.48	36996.85
532.65	36900.89
532.82	36952.38
532.99	37043.66
533.16	36622.36
533.33	36851.73
533.50	36966.42
533.67	37361.97
533.84	36849.39
534.01	36875.14
534.18	36730.03
534.35	37303.46
534.52	37078.77
534.69	37577.30
534.86	37301.12
535.03	37266.01
535.20	37502.40
535.37	37743.48
535.54	37982.21
535.71	37429.85
535.88	38094.56
536.05	37464.96
536.22	38232.65
536.38	37668.58
536.55	37715.39
536.72	37825.40
536.89	37867.53
537.06	37886.25
537.23	38279.46
537.40	38382.45
537.57	37689.65
537.74	37755.18
537.91	38459.68
538.08	38391.81
538.25	38419.89
538.42	38431.60
538.59	38426.92
538.75	38223.29
538.92	38677.35
539.09	38693.74
539.26	38972.26
539.43	38305.21
539.60	38733.53
539.77	38892.68
539.94	38766.29
540.11	39023.75
540.28	39117.37
540.44	38895.02
540.61	38967.58
540.78	39023.75
540.95	38733.53
541.12	39260.15
541.29	38944.17
541.46	39260.15
541.62	39112.69
541.79	38953.54
541.96	39093.97
542.13	39140.78
542.30	39344.41
542.47	39257.81
542.63	39477.82
542.80	39494.20
542.97	39693.15
543.14	39995.07
543.31	39803.15
543.48	39856.98
543.64	40282.96
543.81	40247.85
543.98	40025.50
544.15	40030.18
544.32	40549.78
544.48	40048.91
544.65	39887.41
544.82	40505.31
544.99	40343.81
545.16	40069.97
545.32	40533.40
545.49	40720.64
545.66	41057.68
545.83	41205.13
546.00	40725.32
546.16	40460.84
546.33	40395.31
546.50	40367.22
546.67	40900.86
546.83	40437.44
547.00	40428.07
547.17	41003.85
547.34	40414.03
547.50	41200.45
547.67	41324.50
547.84	41125.55
548.00	41031.93
548.17	41450.89
548.34	41383.01
548.51	41184.07
548.67	41450.89
548.84	41102.15
549.01	41523.44
549.18	41537.49
549.34	41429.82
549.51	41949.42
549.68	41748.14
549.84	41352.58
550.01	41703.67
550.18	41799.63
550.34	41450.89
550.51	42366.04
550.68	41979.85
550.84	41401.74
551.01	42045.38
551.18	41727.07
551.34	41275.35
551.51	41830.05
551.68	41696.64
551.84	41874.52
552.01	41612.38
552.18	41825.37
552.34	42143.69
552.51	42190.50
552.68	41874.52
552.84	42403.49
553.01	41834.74
553.18	42445.62
553.34	42396.46
553.51	42227.95
553.67	41998.57
553.84	42300.50
554.01	42326.25
554.17	42293.48
554.34	42635.20
554.51	42344.97
554.67	43082.24
554.84	42735.84
555.00	42714.78
555.17	42628.18
555.33	42660.94
555.50	42904.36
555.67	42890.32
555.83	42581.37
556.00	43000.32
556.16	43400.55
556.33	43299.91
556.50	43124.37
556.66	42679.67
556.83	42792.01
556.99	43079.90
557.16	42995.64
557.32	43124.37
557.49	43379.49
557.65	43002.66
557.82	43103.31
557.98	43388.85
558.15	43388.85
558.32	43019.05
558.48	43285.87
558.65	43433.32
558.81	43253.10
558.98	43227.35
559.14	42990.96
559.31	43456.73
559.47	43402.89
559.64	43622.90
559.80	43482.47
559.97	43826.53
560.13	43206.29
560.30	43515.24
560.46	43817.17
560.63	43604.18
560.79	43522.26
560.96	43529.28
561.12	43702.48
561.29	43868.66
561.45	43798.44
561.61	43786.74
561.78	43810.15
561.94	43592.48
562.11	43569.07
562.27	43910.79
562.44	43791.42
562.60	44006.75
562.77	44020.80
562.93	43803.13
563.10	43992.71
563.26	43882.70
563.42	44105.06
563.59	43924.83
563.75	44055.90
563.92	43803.13
564.08	43917.81
564.24	44093.35
564.41	43929.51
564.57	44123.78
564.74	44376.56
564.90	43896.75
565.07	43835.89
565.23	44189.31
565.39	44184.63
565.56	44198.68
565.72	44203.36
565.88	44072.29
566.05	44224.42
566.21	44362.51
566.38	44355.49
566.54	44198.68
566.70	44273.57
566.87	44371.88
567.03	44128.46
567.19	44231.44
567.36	44168.25
567.52	44135.48
567.68	44687.85
567.85	44186.97
568.01	44484.22
568.17	44453.79
568.34	44329.75
568.50	44811.90
568.66	44287.62
568.83	44493.58
568.99	44364.85
569.15	44250.17
569.32	44357.83
569.48	44451.45
569.64	44631.68
569.81	44514.65
569.97	44435.07
570.13	44505.29
570.30	44268.89
570.46	44570.82
570.62	44795.51
570.78	44811.90
570.95	44275.91
571.11	45230.85
571.27	44737.00
571.43	44804.88
571.60	44512.31
571.76	44055.90
571.92	44601.25
572.09	44325.07
572.25	44818.92
572.41	45050.63
572.57	44978.07
572.74	45116.17
572.90	44701.89
573.06	44996.80
573.22	45191.06
573.38	44868.07
573.55	45345.54
573.71	45256.60
573.87	44753.38
574.03	44957.01
574.20	44512.31
574.36	44912.54
574.52	45006.16
574.68	45034.25
574.84	45305.75
575.01	44804.88
575.17	45364.26
575.33	45235.53
575.49	45017.86
575.65	45006.16
575.82	45263.62
575.98	44699.55
576.14	45406.39
576.30	45366.60
576.46	45193.40
576.62	45155.96
576.79	44793.17
576.95	44577.84
577.11	45038.93
577.27	45015.52
577.43	45022.54
577.59	44694.87
577.75	44769.77
577.92	44992.12
578.08	44928.92
578.24	45003.82
578.40	45436.82
578.56	45212.13
578.72	44896.16
578.88	45088.08
579.04	44884.45
579.21	45256.60
579.37	44996.80
579.53	45268.30
579.69	44788.49
579.85	45109.14
580.01	44914.88
580.17	45099.78
580.33	45514.06
580.49	45268.30
580.65	44952.33
580.82	44870.41
580.98	44851.69
581.14	45029.57
581.30	45338.52
581.46	45127.87
581.62	45001.48
581.78	44809.56
581.94	45563.21
582.10	45015.52
582.26	45357.24
582.42	45162.98
582.58	45392.35
582.74	45141.91
582.90	45172.34
583.06	45570.23
583.22	45170.00
583.38	45261.28
583.54	45228.51
583.70	45338.52
583.86	45282.34
584.02	45345.54
584.18	45794.92
584.34	45343.20
584.50	45427.46
584.66	45516.40
584.82	45656.83
584.98	45867.48
585.14	45628.74
585.30	44865.73
585.46	45488.31
585.62	45090.42
585.78	45226.17
585.94	45202.77
586.10	45420.44
586.26	45354.90
586.42	45324.47
586.58	45766.84
586.74	45240.21
586.90	45141.91
587.06	45514.06
587.22	45418.10
587.38	45179.36
587.54	45455.54
587.70	45790.24
587.86	45516.40
588.02	45127.87
588.18	45633.42
588.34	45492.99
588.49	46000.89
588.65	45177.02
588.81	45483.63
588.97	45855.78
589.13	45134.89
589.29	45394.69
589.45	45659.17
589.61	45598.32
589.77	45411.07
589.93	45759.81
590.08	45434.48
