SpectraSuite Data File
++++++++++++++++++++++++++++++++++++
Date: Fri Oct 25 11:25:24 EDT 2013
User: price-jones
Dark Spectrum Present: No
Reference Spectrum Present: No
Number of Sampled Component Spectra: 1
Spectrometers: USB2+H05261
Integration Time (usec): 100000 (USB2+H05261)
Spectra Averaged: 1 (USB2+H05261)
Boxcar Smoothing: 0 (USB2+H05261)
Correct for Electrical Dark: No (USB2+H05261)
Strobe/Lamp Enabled: No (USB2+H05261)
Correct for Detector Non-linearity: No (USB2+H05261)
Correct for Stray Light: No (USB2+H05261)
Number of Pixels in Processed Spectrum: 2048
>>>>>Begin Processed Spectral Data<<<<<
365.73	252.78
365.92	252.78
366.12	252.78
366.32	135.75
366.52	32.77
366.72	177.88
366.91	105.32
367.11	112.35
367.31	119.37
367.51	135.75
367.70	126.39
367.90	161.50
368.10	166.18
368.30	100.64
368.49	67.88
368.69	159.16
368.89	131.07
369.09	182.56
369.28	163.84
369.48	161.50
369.68	95.96
369.87	208.31
370.07	198.95
370.27	273.84
370.47	278.52
370.66	617.90
370.86	601.52
371.06	660.03
371.25	683.44
371.45	613.22
371.65	657.69
371.84	608.54
372.04	653.01
372.24	690.46
372.44	760.67
372.63	638.97
372.83	744.29
373.03	819.19
373.22	713.86
373.42	823.87
373.62	816.85
373.81	755.99
374.01	849.61
374.21	760.67
374.40	821.53
374.60	830.89
374.79	858.98
374.99	842.59
375.19	828.55
375.38	779.40
375.58	847.27
375.78	905.79
375.97	903.45
376.17	950.26
376.37	802.80
376.56	858.98
376.76	877.70
376.95	905.79
377.15	905.79
377.35	877.70
377.54	894.08
377.74	976.00
377.93	915.15
378.13	1041.54
378.33	866.00
378.52	926.85
378.72	961.96
378.91	1008.77
379.11	884.72
379.31	919.83
379.50	887.06
379.70	954.94
379.89	983.02
380.09	938.55
380.28	976.00
380.48	877.70
380.68	940.90
380.87	980.68
381.07	1032.18
381.26	1078.99
381.46	1034.52
381.65	1015.79
381.85	1029.84
382.04	1039.20
382.24	1015.79
382.43	1093.03
382.63	1071.97
382.83	1071.97
383.02	1123.46
383.22	1111.75
383.41	1032.18
383.61	1116.44
383.80	1172.61
384.00	1109.41
384.19	1076.65
384.39	1149.20
384.58	1130.48
384.78	1121.12
384.97	1137.50
385.17	1132.82
385.36	1121.12
385.56	1121.12
385.75	1151.54
385.95	1149.20
386.14	1151.54
386.34	1165.59
386.53	1249.85
386.72	1203.04
386.92	1188.99
387.11	1327.08
387.31	1261.55
387.50	1294.32
387.70	1203.04
387.89	1315.38
388.09	1371.55
388.28	1310.70
388.48	1341.13
388.67	1299.00
388.86	1280.27
389.06	1263.89
389.25	1299.00
389.45	1242.82
389.64	1198.35
389.84	1416.02
390.03	1364.53
390.22	1338.79
390.42	1366.87
390.61	1282.61
390.81	1385.60
391.00	1413.68
391.19	1439.43
391.39	1430.07
391.58	1476.88
391.78	1413.68
391.97	1504.96
392.16	1476.88
392.36	1540.07
392.55	1493.26
392.75	1507.30
392.94	1469.86
393.13	1535.39
393.33	1521.35
393.52	1582.20
393.71	1526.03
393.91	1659.44
394.10	1556.46
394.29	1577.52
394.49	1570.50
394.68	1659.44
394.88	1570.50
395.07	1717.95
395.26	1558.80
395.46	1764.76
395.65	1729.66
395.84	1748.38
396.04	1820.94
396.23	1701.57
396.42	1629.01
396.62	1785.83
396.81	1741.36
397.00	1734.34
397.19	1713.27
397.39	1783.49
397.58	1846.68
397.77	1856.04
397.97	1769.44
398.16	1804.55
398.35	1970.73
398.55	1856.04
398.74	1851.36
398.93	1975.41
399.12	1902.86
399.32	1914.56
399.51	1909.88
399.70	1919.24
399.90	2003.50
400.09	2024.56
400.28	2092.44
400.47	2026.90
400.67	2031.58
400.86	2033.93
401.05	2076.06
401.24	2057.33
401.44	2017.54
401.63	2106.48
401.82	2214.15
402.01	2129.89
402.21	2228.19
402.40	2237.55
402.59	2204.78
402.78	2253.94
402.97	2235.21
403.17	2354.58
403.36	2242.23
403.55	2331.17
403.74	2310.11
403.93	2370.96
404.13	2284.36
404.32	2452.88
404.51	2347.56
404.70	2356.92
404.89	2385.01
405.09	2462.24
405.28	2551.18
405.47	2490.33
405.66	2349.90
405.85	2473.95
406.05	2476.29
406.24	2485.65
406.43	2438.84
406.62	2551.18
406.81	2614.38
407.00	2621.40
407.20	2621.40
407.39	2612.04
407.58	2682.25
407.77	2635.44
407.96	2724.38
408.15	2724.38
408.34	2855.45
408.54	2792.26
408.73	2857.79
408.92	2761.83
409.11	2771.19
409.30	2829.71
409.49	2850.77
409.68	2930.35
409.87	2860.13
410.07	3009.93
410.26	2970.14
410.45	3021.63
410.64	3075.46
410.83	3110.57
411.02	3201.85
411.21	3152.70
411.40	3155.04
411.59	3105.89
411.78	3220.58
411.98	3101.21
412.17	3218.24
412.36	3344.63
412.55	3346.97
412.74	3344.63
412.93	3386.76
413.12	3316.54
413.31	3463.99
413.50	3534.21
413.69	3412.50
413.88	3543.57
414.07	3552.93
414.26	3552.93
414.45	3648.90
414.64	3772.94
414.83	3569.32
415.02	3726.13
415.22	3768.26
415.41	3836.14
415.60	3786.99
415.79	3964.87
415.98	3899.33
416.17	3985.93
416.36	3992.95
416.55	3941.46
416.74	4018.70
416.93	4042.11
417.12	4142.75
417.31	4280.84
417.50	4187.22
417.69	4278.50
417.88	4236.37
418.07	4219.99
418.26	4259.78
418.45	4334.67
418.64	4491.49
418.83	4500.85
419.02	4418.93
419.21	4402.55
419.39	4482.13
419.58	4489.15
419.77	4447.02
419.96	4503.19
420.15	4578.09
420.34	4507.87
420.53	4575.75
420.72	4638.94
420.91	4662.35
421.10	4660.01
421.29	4786.40
421.48	4692.77
421.67	4725.54
421.86	4739.58
422.05	4781.71
422.24	4727.88
422.43	4891.72
422.61	4865.97
422.80	4809.80
422.99	4842.57
423.18	4940.87
423.37	4954.91
423.56	4566.39
423.75	4959.60
423.94	4922.15
424.13	4557.02
424.32	4725.54
424.50	5018.11
424.69	5064.92
424.88	5032.15
425.07	5020.45
425.26	4887.04
425.45	4968.96
425.64	4868.31
425.83	4938.53
426.01	5064.92
426.20	5006.41
426.39	4919.81
426.58	5125.77
426.77	5048.54
426.96	5001.72
427.15	5085.98
427.33	5315.36
427.52	4975.98
427.71	5256.84
427.90	5240.46
428.09	5249.82
428.28	5224.08
428.46	5357.49
428.65	5280.25
428.84	5364.51
429.03	5497.92
429.22	5238.12
429.40	5380.89
429.59	5572.82
429.78	5242.80
429.97	5219.39
430.16	5329.40
430.34	5568.13
430.53	5626.65
430.72	5699.20
430.91	5633.67
431.10	5430.04
431.28	5647.71
431.47	5619.63
431.66	5846.66
431.85	5760.06
432.03	5856.02
432.22	5975.39
432.41	5837.30
432.60	5860.70
432.79	6003.47
432.97	5797.51
433.16	6127.52
433.35	6033.90
433.54	5973.05
433.72	5996.45
433.91	6083.05
434.10	6115.82
434.28	6005.81
434.47	6153.27
434.66	6221.14
434.85	6333.49
435.03	6218.80
435.22	6258.59
435.41	6347.53
435.59	6436.47
435.78	6310.08
435.97	6459.88
436.16	6476.26
436.34	6321.79
436.53	6279.66
436.72	6551.16
436.90	6307.74
437.09	6415.41
437.28	6300.72
437.46	6457.54
437.65	6590.95
437.84	6700.95
438.02	6609.67
438.21	6593.29
438.40	6710.32
438.58	6956.07
438.77	6951.39
438.96	6843.73
439.14	7007.56
439.33	6930.33
439.52	7094.16
439.70	7239.28
439.89	7435.88
440.08	7267.36
440.26	7353.96
440.45	7192.47
440.63	7438.22
440.82	7613.76
441.01	7473.33
441.19	7667.60
441.38	7719.09
441.57	7763.56
441.75	7646.53
441.94	7847.82
442.12	7824.41
442.31	7943.78
442.50	7978.89
442.68	7864.20
442.87	8044.42
443.05	8154.43
443.24	8030.38
443.43	8163.79
443.61	8058.46
443.80	8472.74
443.98	8006.97
444.17	7960.16
444.35	8231.66
444.54	8346.35
444.73	8329.97
444.91	8381.46
445.10	8163.79
445.28	8248.05
445.47	8121.66
445.65	8280.82
445.84	8446.99
446.02	8311.24
446.21	8299.54
446.39	8336.99
446.58	8432.95
446.77	8163.79
446.95	8191.88
447.14	8454.02
447.32	8514.87
447.51	8549.98
447.69	8594.45
447.88	8465.72
448.06	8547.64
448.25	8358.05
448.43	8552.32
448.62	8678.71
448.80	8463.38
448.99	8428.27
449.17	8648.28
449.36	8599.13
449.54	8613.17
449.73	8779.35
449.91	8973.61
450.10	8631.90
450.28	9130.43
450.46	8915.10
450.65	8769.99
450.83	9181.92
451.02	9135.11
451.20	8964.25
451.39	8910.42
451.57	9083.62
451.76	8917.44
451.94	9163.20
452.13	9090.64
452.31	9327.03
452.49	8992.34
452.68	9383.21
452.86	9294.27
453.05	9303.63
453.23	9406.61
453.42	9245.12
453.60	9392.57
453.78	9666.41
453.97	9338.74
454.15	9408.95
454.34	9446.40
454.52	9694.50
454.70	9624.28
454.89	9895.78
455.07	9776.42
455.26	9682.80
455.44	9774.08
455.62	9905.15
455.81	9727.27
455.99	10022.17
456.17	9980.04
456.36	10029.20
456.54	10033.88
456.73	10076.01
456.91	10431.77
457.09	10326.44
457.28	10565.18
457.46	10380.28
457.64	10560.50
457.83	10413.04
458.01	10235.16
458.19	10546.45
458.38	10586.24
458.56	10438.79
458.74	10670.50
458.93	10707.95
459.11	10567.52
459.29	10700.93
459.48	10782.85
459.66	10775.83
459.84	10593.26
460.03	10782.85
460.21	10939.66
460.39	10951.37
460.57	10803.91
460.76	10951.37
460.94	11190.10
461.12	11016.90
461.31	10930.30
461.49	11084.78
461.67	11176.06
461.85	11367.98
462.04	11232.23
462.22	11822.05
462.40	11754.17
462.59	11403.09
462.77	11630.12
462.95	11538.84
463.13	11676.93
463.32	11609.06
463.50	11611.40
463.68	11770.55
463.86	11779.92
464.05	11733.11
464.23	11712.04
464.41	11690.98
464.59	11569.27
464.78	12187.17
464.96	11791.62
465.14	11786.94
465.32	12077.16
465.50	12039.72
465.69	12395.48
465.87	11964.82
466.05	12177.81
466.23	11906.31
466.41	12418.88
466.60	12559.31
466.78	12049.08
466.96	12149.72
467.14	12131.00
467.32	12435.27
467.51	12564.00
467.69	11969.50
467.87	12538.25
468.05	12493.78
468.23	12152.06
468.41	12472.71
468.60	12589.74
468.78	12475.06
468.96	12442.29
469.14	12795.71
469.32	12847.20
469.50	12636.55
469.69	12870.61
469.87	13069.55
470.05	12720.81
470.23	13050.83
470.41	13104.66
470.59	13013.38
470.77	13020.40
470.95	13233.39
471.14	13399.57
471.32	13451.06
471.50	13540.00
471.68	13626.60
471.86	13504.89
472.04	13540.00
472.22	14207.05
472.40	13556.38
472.58	13729.58
472.77	13958.96
472.95	13996.40
473.13	14494.94
473.31	14008.11
473.49	14291.31
473.67	14017.47
473.85	14122.79
474.03	14593.24
474.21	14590.90
474.39	14675.16
474.57	14684.52
474.75	14759.42
474.93	14998.15
475.12	14944.32
475.30	14909.21
475.48	15019.22
475.66	15070.71
475.84	15044.96
476.02	15283.70
476.20	15131.56
476.38	15592.65
476.56	15861.81
476.74	15810.32
476.92	15915.64
477.10	15634.78
477.28	15981.18
477.46	16098.20
477.64	16161.40
477.82	16542.91
478.00	16748.87
478.18	17027.40
478.36	17034.42
478.54	17137.40
478.72	17123.36
478.90	17345.71
479.08	17231.02
479.26	17397.20
479.44	17565.72
479.62	17762.33
479.80	18106.38
479.98	17989.36
480.16	18445.76
480.34	18157.88
480.52	18412.99
480.70	18731.31
480.88	18412.99
481.06	18602.58
481.24	18625.98
481.41	19297.72
481.59	19058.98
481.77	19335.17
481.95	19360.91
482.13	19857.10
482.31	19524.75
482.49	20149.67
482.67	19992.86
482.85	20418.83
483.03	20465.64
483.21	20339.26
483.39	20912.69
483.57	20910.35
483.74	21046.10
483.92	21221.64
484.10	21226.32
484.28	21490.80
484.46	21504.84
484.64	22466.80
484.82	21872.31
485.00	21951.88
485.18	22759.37
485.35	22504.25
485.53	22735.96
485.71	22934.91
485.89	23452.17
486.07	23117.47
486.25	22803.84
486.43	23426.42
486.61	23770.48
486.78	23810.27
486.96	23814.95
487.14	24404.77
487.32	24306.46
487.50	24992.24
487.68	25006.28
487.85	25172.46
488.03	25137.35
488.21	25446.30
488.39	25724.83
488.57	25731.85
488.75	25912.07
488.92	26391.88
489.10	26368.48
489.28	26302.94
489.46	27101.06
489.64	26654.02
489.81	27597.26
489.99	27384.27
490.17	27641.73
490.35	27929.61
490.53	28002.17
490.70	28489.00
490.88	27826.63
491.06	28521.77
491.24	28353.25
491.41	28769.86
491.59	29244.99
491.77	29088.18
491.95	29340.96
492.13	29518.84
492.30	29619.48
492.48	29809.06
492.66	30251.42
492.84	30246.74
493.01	30794.43
493.19	30288.87
493.37	31040.18
493.54	31143.17
493.72	31342.11
493.90	31281.26
494.08	31648.72
494.25	31480.21
494.43	32163.64
494.61	31803.20
494.79	31878.10
494.96	32322.80
495.14	32261.94
495.32	33179.43
495.49	32594.30
495.67	33214.54
495.85	33280.08
496.02	33596.05
496.20	33668.61
496.38	33905.00
496.55	33390.08
496.73	34710.14
496.91	34700.78
497.09	34586.10
497.26	34974.63
497.44	34841.21
497.62	35026.12
497.79	35601.89
497.97	35103.35
498.14	36116.81
498.32	35758.70
498.50	35569.12
498.67	36144.89
498.85	35871.05
499.03	36238.51
499.20	36392.99
499.38	36706.62
499.56	36797.90
499.73	37134.94
499.91	37434.53
500.08	37205.16
500.26	37179.41
500.44	37432.19
500.61	37860.51
500.79	37904.98
500.97	38040.73
501.14	38295.85
501.32	38314.57
501.49	38146.05
501.67	38705.44
501.84	38600.12
502.02	38249.03
502.20	39344.41
502.37	38885.66
502.55	38532.24
502.72	39227.38
502.90	39339.72
503.07	39365.47
503.25	39428.66
503.43	39587.82
503.60	40198.70
503.78	39742.30
503.95	40308.71
504.13	40142.53
504.30	40430.41
504.48	40559.14
504.65	40907.88
504.83	41027.25
505.01	40957.03
505.18	40837.67
505.36	41497.70
505.53	40832.99
505.71	41621.75
505.88	41532.81
506.06	41031.93
506.23	41556.21
506.41	41553.87
506.58	41471.95
506.76	42171.77
506.93	42286.46
507.11	42387.10
507.28	42459.66
507.46	42995.64
507.63	43023.73
507.81	43044.79
507.98	42621.16
508.16	42859.89
508.33	42939.47
508.50	43152.46
508.68	43426.30
508.85	43391.19
509.03	43690.78
509.20	43648.65
509.38	44023.14
509.55	44226.76
509.73	44219.74
509.90	44594.23
510.08	44126.12
510.25	44313.36
510.42	44594.23
510.60	44790.83
510.77	45350.22
510.95	44999.14
511.12	44861.05
511.30	44882.11
511.47	44896.16
511.64	44744.02
511.82	45476.61
511.99	45422.78
512.17	45591.30
512.34	45282.34
512.51	45904.93
512.69	46010.25
512.86	46096.85
513.04	46354.31
513.21	46206.86
513.38	46429.21
513.56	46838.80
513.73	46972.21
513.90	46644.54
514.08	46141.32
514.25	46878.59
514.43	47367.76
514.60	46974.55
514.77	47285.84
514.95	47077.54
515.12	47061.15
515.29	47494.15
515.47	47646.29
515.64	48081.63
515.81	47634.58
515.99	47751.61
516.16	48278.23
516.33	48112.05
516.51	48261.85
516.68	48306.32
516.85	48200.99
517.03	48964.01
517.20	48818.89
517.37	48577.82
517.54	48655.06
517.72	48538.03
517.89	48591.86
518.06	49233.17
518.24	49050.61
518.41	49062.31
518.58	49017.84
518.75	48828.26
518.93	49177.00
519.10	49617.02
519.27	49420.41
519.45	49413.39
519.62	49792.56
519.79	49617.02
519.96	49911.92
520.14	50028.95
520.31	49916.61
520.48	50225.56
520.65	49855.75
520.83	50417.48
521.00	50396.42
521.17	50354.29
521.34	50586.00
521.52	50677.28
521.69	50492.38
521.86	50773.24
522.03	50782.60
522.20	50625.79
522.38	51173.47
522.55	51316.25
522.72	51189.86
522.89	50934.74
523.07	51524.55
523.24	51206.24
523.41	51372.42
523.58	51187.52
523.75	51550.30
523.92	51566.68
524.10	51594.77
524.27	51400.50
524.44	51987.98
524.61	52025.43
524.78	51913.08
524.96	51615.83
525.13	52184.58
525.30	51889.68
525.47	52238.42
525.64	52109.69
525.81	52177.56
525.98	52313.31
526.16	52231.40
526.33	52467.79
526.50	52861.00
526.67	52542.69
526.84	52804.83
527.01	52704.18
527.18	52875.04
527.36	52868.02
527.53	53050.58
527.70	52919.51
527.87	53298.68
528.04	53029.52
528.21	53272.93
528.38	53202.72
528.55	53394.64
528.72	53132.50
528.89	53251.87
529.07	53317.40
529.24	53027.18
529.41	53635.72
529.58	53471.88
529.75	53584.22
529.92	53827.64
530.09	53619.33
530.26	53759.76
530.43	53886.15
530.60	53584.22
530.77	53677.85
530.94	53612.31
531.11	53867.43
531.28	53890.83
531.46	54124.89
531.63	54120.21
531.80	54082.76
531.97	54181.06
532.14	54365.96
532.31	54319.15
532.48	54440.86
532.65	54408.09
532.82	54237.23
532.99	54429.16
533.16	54375.33
533.33	54703.00
533.50	54775.56
533.67	54583.63
533.84	54424.48
534.01	54616.40
534.18	54473.63
534.35	54876.20
534.52	55072.81
534.69	55121.96
534.86	55009.61
535.03	54897.27
535.20	55065.78
535.37	55096.21
535.54	55168.77
535.71	55341.97
535.88	55412.18
536.05	55316.22
536.22	55138.34
536.38	55166.43
536.55	55480.06
536.72	55323.24
536.89	55524.53
537.06	55435.59
537.23	55515.17
537.40	55564.32
537.57	55681.34
537.74	55583.04
537.91	55800.71
538.08	55576.02
538.25	55526.87
538.42	55793.69
538.59	55959.87
538.75	55716.45
538.92	55985.61
539.09	56002.00
539.26	55980.93
539.43	56100.30
539.60	56186.90
539.77	55964.55
539.94	56250.09
540.11	56350.74
540.28	56383.51
540.44	56381.16
540.61	56474.79
540.78	56343.72
540.95	56161.15
541.12	56163.50
541.29	56301.59
541.46	56243.07
541.62	56514.58
541.79	56699.48
541.96	55962.21
542.13	56278.18
542.30	56392.87
542.47	56516.92
542.63	56491.17
542.80	56856.29
542.97	56968.64
543.14	57036.51
543.31	57010.77
543.48	56935.87
543.64	57364.19
543.81	57317.38
543.98	57244.82
544.15	57282.27
544.32	57146.52
544.48	57436.75
544.65	57071.62
544.82	57207.37
544.99	57167.58
545.16	57345.47
545.32	57172.27
545.49	57623.99
545.66	57305.68
545.83	57640.37
546.00	57607.61
546.16	57408.66
546.33	57308.02
546.50	57441.43
546.67	57764.42
546.83	57375.89
547.00	57609.95
547.17	57570.16
547.34	57663.78
547.50	57719.95
547.67	57958.69
547.84	57661.44
548.00	57998.48
548.17	58010.18
548.34	57829.96
548.51	58028.90
548.67	58085.07
548.84	58017.20
549.01	57851.02
549.18	58131.89
549.34	58136.57
549.51	58241.89
549.68	58284.02
549.84	58096.78
550.01	58333.17
550.18	58087.42
550.34	58197.42
550.51	58403.39
550.68	58246.57
550.84	58035.92
551.01	58436.16
551.18	58262.96
551.34	58265.30
551.51	58408.07
551.68	58415.09
551.84	58548.50
552.01	58253.59
552.18	58752.13
552.34	58445.52
552.51	58644.46
552.68	58391.68
552.84	58487.65
553.01	58595.31
553.18	58899.58
553.34	58705.32
553.51	58506.37
553.67	58773.19
553.84	58710.00
554.01	58798.94
554.17	58829.37
554.34	58894.90
554.51	58873.84
554.67	58766.17
554.84	58990.86
555.00	58829.37
555.17	58780.21
555.33	58831.71
555.50	59018.95
555.67	58841.07
555.83	58937.03
556.00	58983.84
556.16	59248.32
556.33	59049.38
556.50	59201.51
556.66	59178.10
556.83	59196.83
556.99	59185.13
557.16	59367.69
557.32	59381.73
557.49	59487.06
557.65	59107.89
557.82	59260.02
557.98	59110.23
558.15	59264.70
558.32	59302.15
558.48	59114.91
558.65	59100.87
558.81	59304.49
558.98	59447.27
559.14	59470.67
559.31	59491.74
559.47	59426.20
559.64	59664.94
559.80	59622.81
559.97	59447.27
560.13	59465.99
560.30	59674.30
560.46	59606.42
560.63	59803.03
560.79	59716.43
560.96	59800.69
561.12	59594.72
561.29	59597.06
561.45	59568.97
561.61	59725.79
561.78	59751.54
561.94	59763.24
562.11	59657.91
562.27	59597.06
562.44	59629.83
562.60	59955.16
562.77	59889.63
562.93	59721.11
563.10	59796.01
563.26	59744.51
563.42	60001.97
563.59	59992.61
563.75	59840.48
563.92	59898.99
564.08	59803.03
564.24	60142.41
564.41	59957.50
564.57	60037.08
564.74	59945.80
564.90	59849.84
565.07	60027.72
565.23	60060.49
565.39	60130.70
565.56	60128.36
565.72	59999.63
565.88	60100.28
566.05	59842.82
566.21	59835.80
566.38	60114.32
566.54	60116.66
566.70	60182.19
566.87	60196.24
567.03	59966.87
567.19	60282.84
567.36	60203.26
567.52	59997.29
567.68	60350.71
567.85	60229.01
568.01	60261.77
568.17	60107.30
568.34	60301.56
568.50	60086.23
568.66	60357.74
568.83	60369.44
568.99	60062.83
569.15	60140.07
569.32	60088.57
569.48	60296.88
569.64	60378.80
569.81	60493.49
569.97	60306.24
570.13	60261.77
570.30	60334.33
570.46	60341.35
570.62	60420.93
570.78	60470.08
570.95	60285.18
571.11	60505.19
571.27	60245.39
571.43	60404.55
571.60	60413.91
571.76	60259.43
571.92	60697.11
572.09	60528.59
572.25	60432.63
572.41	60320.29
572.57	60484.12
572.74	60453.70
572.90	60423.27
573.06	60458.38
573.22	60310.92
573.38	60643.28
573.55	60505.19
573.71	60643.28
573.87	60575.40
574.03	60561.36
574.20	60605.83
574.36	60507.53
574.52	60542.64
574.68	60516.89
574.84	60748.60
575.01	60580.09
575.17	60563.70
575.33	60666.69
575.49	60580.09
575.65	60603.49
575.82	60587.11
575.98	60659.66
576.14	61183.94
576.30	60673.71
576.46	60376.46
576.62	60509.87
576.79	60734.56
576.95	60619.88
577.11	60671.37
577.27	60687.75
577.43	60764.99
577.59	60619.88
577.75	60706.47
577.92	60591.79
578.08	60676.05
578.24	60678.39
578.40	60732.22
578.56	60741.58
578.72	60783.71
578.88	60900.74
579.04	60961.59
579.21	60633.92
579.37	60818.82
579.53	60935.85
579.69	60397.52
579.85	60704.13
580.01	60879.67
580.17	60795.42
580.33	60772.01
580.49	60846.91
580.65	60692.43
580.82	60727.54
580.98	60591.79
581.14	60797.76
581.30	60809.46
581.46	60706.47
581.62	60828.18
581.78	60669.03
581.94	60718.18
582.10	60669.03
582.26	60772.01
582.42	60889.04
582.58	60842.23
582.74	60666.69
582.90	60956.91
583.06	60837.54
583.22	60821.16
583.38	60825.84
583.54	60779.03
583.70	60839.89
583.86	60825.84
584.02	60610.51
584.18	60870.31
584.34	60713.50
584.50	60814.14
584.66	60636.26
584.82	60650.30
584.98	61036.49
585.14	60961.59
585.30	60748.60
585.46	60863.29
585.62	61015.43
585.78	61113.73
585.94	60537.96
586.10	60963.93
586.26	60589.45
586.42	60928.83
586.58	61006.06
586.74	60715.84
586.90	60985.00
587.06	60858.61
587.22	60842.23
587.38	60977.98
587.54	60987.34
587.70	61078.62
587.86	60938.19
588.02	61300.97
588.18	60977.98
588.34	60849.25
588.49	61043.51
