SpectraSuite Data File
++++++++++++++++++++++++++++++++++++
Date: Fri Oct 25 11:23:56 EDT 2013
User: price-jones
Dark Spectrum Present: No
Reference Spectrum Present: No
Number of Sampled Component Spectra: 1
Spectrometers: USB2+H05261
Integration Time (usec): 100000 (USB2+H05261)
Spectra Averaged: 1 (USB2+H05261)
Boxcar Smoothing: 0 (USB2+H05261)
Correct for Electrical Dark: No (USB2+H05261)
Strobe/Lamp Enabled: No (USB2+H05261)
Correct for Detector Non-linearity: No (USB2+H05261)
Correct for Stray Light: No (USB2+H05261)
Number of Pixels in Processed Spectrum: 2048
>>>>>Begin Processed Spectral Data<<<<<
365.73	245.76
365.92	245.76
366.12	245.76
366.32	170.86
366.52	110.01
366.72	194.26
366.91	100.64
367.11	135.75
367.31	142.77
367.51	131.07
367.70	128.73
367.90	203.63
368.10	152.13
368.30	124.05
368.49	98.30
368.69	140.43
368.89	161.50
369.09	131.07
369.28	198.95
369.48	110.01
369.68	205.97
369.87	210.65
370.07	147.45
370.27	315.97
370.47	292.57
370.66	629.60
370.86	596.84
371.06	660.03
371.25	692.80
371.45	653.01
371.65	692.80
371.84	704.50
372.04	601.52
372.24	767.70
372.44	697.48
372.63	791.10
372.83	711.52
373.03	779.40
373.22	737.27
373.42	758.33
373.62	697.48
373.81	748.97
374.01	779.40
374.21	734.93
374.40	835.57
374.60	856.64
374.79	816.85
374.99	798.12
375.19	777.06
375.38	868.34
375.58	800.46
375.78	816.85
375.97	842.59
376.17	947.92
376.37	798.12
376.56	873.02
376.76	849.61
376.95	873.02
377.15	851.96
377.35	849.61
377.54	973.66
377.74	915.15
377.93	847.27
378.13	945.58
378.33	877.70
378.52	854.30
378.72	961.96
378.91	992.39
379.11	976.00
379.31	952.60
379.50	1022.81
379.70	952.60
379.89	1020.47
380.09	950.26
380.28	917.49
380.48	1006.43
380.68	1043.88
380.87	978.34
381.07	1039.20
381.26	1029.84
381.46	1053.24
381.65	1076.65
381.85	1015.79
382.04	1034.52
382.24	1111.75
382.43	1055.58
382.63	1121.12
382.83	1114.10
383.02	1116.44
383.22	1118.78
383.41	1111.75
383.61	1076.65
383.80	1160.91
384.00	1149.20
384.19	1186.65
384.39	1172.61
384.58	1156.22
384.78	1144.52
384.97	1100.05
385.17	1198.35
385.36	1167.93
385.56	1121.12
385.75	1146.86
385.95	1263.89
386.14	1221.76
386.34	1114.10
386.53	1238.14
386.72	1231.12
386.92	1221.76
387.11	1275.59
387.31	1289.64
387.50	1238.14
387.70	1296.66
387.89	1287.29
388.09	1341.13
388.28	1249.85
388.48	1263.89
388.67	1331.76
388.86	1376.24
389.06	1362.19
389.25	1387.94
389.45	1245.16
389.64	1416.02
389.84	1324.74
390.03	1362.19
390.22	1390.28
390.42	1446.45
390.61	1416.02
390.81	1432.41
391.00	1432.41
391.19	1530.71
391.39	1488.58
391.58	1423.05
391.78	1423.05
391.97	1526.03
392.16	1474.54
392.36	1458.15
392.55	1488.58
392.75	1479.22
392.94	1547.09
393.13	1554.12
393.33	1497.94
393.52	1472.20
393.71	1657.10
393.91	1547.09
394.10	1462.83
394.29	1577.52
394.49	1661.78
394.68	1605.61
394.88	1598.59
395.07	1586.88
395.26	1565.82
395.46	1682.85
395.65	1741.36
395.84	1607.95
396.04	1806.89
396.23	1769.44
396.42	1748.38
396.62	1760.08
396.81	1736.68
397.00	1678.16
397.19	1769.44
397.39	1853.70
397.58	1790.51
397.77	1762.42
397.97	1860.73
398.16	1858.39
398.35	1886.47
398.55	1776.47
398.74	1802.21
398.93	1900.52
399.12	2003.50
399.32	1872.43
399.51	1961.37
399.70	2008.18
399.90	1963.71
400.09	1975.41
400.28	2073.71
400.47	2003.50
400.67	2139.25
400.86	2038.61
401.05	2017.54
401.24	2022.22
401.44	2153.29
401.63	2064.35
401.82	2134.57
402.01	2157.97
402.21	2139.25
402.40	2101.80
402.59	2239.89
402.78	2223.51
402.97	2214.15
403.17	2230.53
403.36	2019.88
403.55	2347.56
403.74	2298.41
403.93	2349.90
404.13	2335.85
404.32	2347.56
404.51	2448.20
404.70	2546.50
404.89	2342.88
405.09	2487.99
405.28	2464.58
405.47	2487.99
405.66	2490.33
405.85	2534.80
406.05	2466.92
406.24	2443.52
406.43	2562.89
406.62	2656.51
406.81	2607.36
407.00	2544.16
407.20	2595.65
407.39	2537.14
407.58	2759.49
407.77	2745.45
407.96	2801.62
408.15	2696.30
408.34	2665.87
408.54	2778.22
408.73	2743.11
408.92	2853.11
409.11	2799.28
409.30	2888.22
409.49	2958.44
409.68	2979.50
409.87	2991.20
410.07	3061.42
410.26	2848.43
410.45	3075.46
410.64	3016.95
410.83	3211.22
411.02	3187.81
411.21	3141.00
411.40	3054.40
411.59	3232.28
411.78	3112.91
411.98	3187.81
412.17	3251.00
412.36	3302.50
412.55	3412.50
412.74	3379.73
412.93	3403.14
413.12	3358.67
413.31	3456.97
413.50	3541.23
413.69	3478.04
413.88	3695.71
414.07	3496.76
414.26	3646.55
414.45	3653.58
414.64	3604.42
414.83	3648.90
415.02	3779.97
415.22	3843.16
415.41	3955.51
415.60	3777.62
415.79	3840.82
415.98	3857.20
416.17	4046.79
416.36	3955.51
416.55	3983.59
416.74	4074.87
416.93	4121.68
417.12	4191.90
417.31	4170.83
417.50	4358.08
417.69	4273.82
417.88	4313.61
418.07	4208.28
418.26	4306.59
418.45	4360.42
418.64	4472.76
418.83	4498.51
419.02	4491.49
419.21	4374.46
419.39	4505.53
419.58	4507.87
419.77	4470.42
419.96	4542.98
420.15	4774.69
420.34	4311.27
420.53	4568.73
420.72	4692.77
420.91	4681.07
421.10	4741.93
421.29	4765.33
421.48	4603.83
421.67	4858.95
421.86	4786.40
422.05	4865.97
422.24	4702.14
422.43	4833.21
422.61	4842.57
422.80	4968.96
422.99	4954.91
423.18	4938.53
423.37	5027.47
423.56	4856.61
423.75	4938.53
423.94	4882.36
424.13	4510.21
424.32	4786.40
424.50	5071.94
424.69	5006.41
424.88	5055.56
425.07	4896.40
425.26	4971.30
425.45	5188.97
425.64	4964.28
425.83	4896.40
426.01	5057.90
426.20	5078.96
426.39	5102.37
426.58	5100.03
426.77	5100.03
426.96	5263.86
427.15	5135.14
427.33	5214.71
427.52	5078.96
427.71	5233.44
427.90	5357.49
428.09	5427.70
428.28	5284.93
428.46	5359.83
428.65	5224.08
428.84	5526.00
429.03	5582.18
429.22	5242.80
429.40	5467.49
429.59	5488.56
429.78	5366.85
429.97	5348.12
430.16	5572.82
430.34	5612.60
430.53	5673.46
430.72	5619.63
430.91	5554.09
431.10	5551.75
431.28	5790.49
431.47	5851.34
431.66	5757.72
431.85	5799.85
432.03	5930.92
432.22	5984.75
432.41	6017.52
432.60	5874.74
432.79	5813.89
432.97	6069.01
433.16	6179.01
433.35	5980.07
433.54	6108.80
433.72	6022.20
433.91	5975.39
434.10	6076.03
434.28	6087.73
434.47	6265.61
434.66	6179.01
434.85	6314.77
435.03	6375.62
435.22	6129.86
435.41	6738.40
435.59	6422.43
435.78	6356.90
435.97	6569.88
436.16	6469.24
436.34	6464.56
436.53	6478.60
436.72	6698.61
436.90	6478.60
437.09	6693.93
437.28	6670.53
437.46	6609.67
437.65	6665.85
437.84	6750.10
438.02	6740.74
438.21	6710.32
438.40	6836.70
438.58	7084.80
438.77	7185.44
438.96	6862.45
439.14	6949.05
439.33	7028.63
439.52	7176.08
439.70	7293.11
439.89	7534.18
440.08	7356.30
440.26	7449.93
440.45	7356.30
440.63	7606.74
440.82	7721.43
441.01	7595.04
441.19	7543.55
441.38	7784.62
441.57	7571.63
441.75	7866.54
441.94	7908.67
442.12	7882.92
442.31	8053.78
442.50	8037.40
442.68	7992.93
442.87	8154.43
443.05	8210.60
443.24	8297.20
443.43	8074.85
443.61	8381.46
443.80	8264.43
443.98	8046.76
444.17	7946.12
444.35	8283.16
444.54	8599.13
444.73	8210.60
444.91	8428.27
445.10	8339.33
445.28	8386.14
445.47	8276.13
445.65	8311.24
445.84	8327.63
446.02	8362.73
446.21	8414.23
446.39	8306.56
446.58	8531.25
446.77	8315.92
446.95	8409.54
447.14	8512.53
447.32	8557.00
447.51	8631.90
447.69	8580.40
447.88	8615.51
448.06	8315.92
448.25	8549.98
448.43	8564.02
448.62	8585.08
448.80	8699.77
448.99	8566.36
449.17	8678.71
449.36	8802.75
449.54	8849.57
449.73	8952.55
449.91	9025.11
450.10	8931.48
450.28	8992.34
450.46	8896.38
450.65	8910.42
450.83	9114.05
451.02	8957.23
451.20	9146.81
451.39	9284.91
451.57	8924.46
451.76	9100.00
451.94	9020.42
452.13	9411.29
452.31	9312.99
452.49	9263.84
452.68	9362.14
452.86	9343.42
453.05	9446.40
453.23	9423.00
453.42	9390.23
453.60	9341.08
453.78	9399.59
453.97	9614.92
454.15	9575.13
454.34	9483.85
454.52	9657.05
454.70	9657.05
454.89	9736.63
455.07	9909.83
455.26	9884.08
455.44	9970.68
455.62	9968.34
455.81	9916.85
455.99	9846.63
456.17	10188.35
456.36	10171.97
456.54	10251.55
456.73	10235.16
456.91	10373.25
457.09	10541.77
457.28	10448.15
457.46	10277.29
457.64	10511.35
457.83	10434.11
458.01	10359.21
458.19	10846.04
458.38	10490.28
458.56	10621.35
458.74	10635.39
458.93	10466.88
459.11	10789.87
459.29	10614.33
459.48	10700.93
459.66	10841.36
459.84	10656.46
460.03	11126.91
460.21	10993.50
460.39	10853.06
460.57	10977.11
460.76	11281.38
460.94	11311.81
461.12	11206.48
461.31	11222.87
461.49	11260.32
461.67	11192.44
461.85	11208.83
462.04	11253.30
462.22	11337.56
462.40	11761.19
462.59	11520.12
462.77	11283.72
462.95	11604.38
463.13	11580.97
463.32	11716.72
463.50	11742.47
463.68	11772.89
463.86	11782.26
464.05	11445.22
464.23	11737.79
464.41	11920.35
464.59	11754.17
464.78	12341.64
464.96	12098.23
465.14	11847.79
465.32	11964.82
465.50	12154.40
465.69	12156.74
465.87	12177.81
466.05	12009.29
466.23	12116.95
466.41	12198.87
466.60	12706.77
466.78	12091.21
466.96	12367.39
467.14	12219.94
467.32	12444.63
467.51	12608.47
467.69	12215.26
467.87	12320.58
468.05	12507.82
468.23	12634.21
468.41	12418.88
468.60	12416.54
468.78	12655.28
468.96	12702.09
469.14	12999.34
469.32	12858.90
469.50	13020.40
469.69	13057.85
469.87	13071.89
470.05	13287.22
470.23	13221.69
470.41	12978.27
470.59	13188.92
470.77	13275.52
470.95	13570.43
471.14	13774.05
471.32	12996.99
471.50	13650.00
471.68	13586.81
471.86	13638.30
472.04	13867.67
472.22	13771.71
472.40	13692.13
472.58	14066.62
472.77	13963.64
472.95	14132.15
473.13	14375.57
473.31	14382.59
473.49	14342.80
473.67	14200.03
473.85	14176.62
474.03	14490.26
474.21	14331.10
474.39	14719.63
474.57	14656.43
474.75	14593.24
474.93	14949.00
475.12	15054.33
475.30	15096.46
475.48	14972.41
475.66	15351.57
475.84	15082.41
476.02	15220.50
476.20	15442.85
476.38	15653.50
476.56	15770.53
476.74	15840.75
476.92	15819.68
477.10	15772.87
477.28	16065.44
477.46	15836.06
477.64	16018.63
477.82	16353.32
478.00	16769.94
478.18	16620.14
478.36	17064.85
478.54	17224.00
478.72	17191.23
478.90	17474.44
479.08	17671.04
479.26	17750.62
479.44	17579.76
479.62	17785.73
479.80	18017.44
479.98	18078.30
480.16	18590.88
480.34	18412.99
480.52	18530.02
480.70	18658.75
480.88	18415.34
481.06	19147.92
481.24	18593.22
481.41	19080.05
481.59	19499.00
481.77	19826.68
481.95	19637.09
482.13	19672.20
482.31	20046.69
482.49	20177.76
482.67	19964.77
482.85	20437.56
483.03	20498.41
483.21	20732.47
483.39	20992.26
483.57	21088.23
483.74	21111.63
483.92	21362.07
484.10	21235.68
484.28	21635.91
484.46	21923.80
484.64	22260.84
484.82	21949.54
485.00	22181.26
485.18	22494.89
485.35	22909.16
485.53	23220.45
485.71	23061.30
485.89	23608.98
486.07	23262.58
486.25	23339.82
486.43	23653.45
486.61	23623.03
486.78	24027.94
486.96	24159.01
487.14	24624.78
487.32	24601.37
487.50	24814.36
487.68	24858.83
487.85	25294.17
488.03	25539.93
488.21	25743.55
488.39	25743.55
488.57	26080.59
488.75	26258.47
488.92	26335.71
489.10	26944.25
489.28	26611.89
489.46	27182.98
489.64	26993.40
489.81	27957.70
489.99	27737.69
490.17	27917.91
490.35	28088.77
490.53	28233.88
490.70	28577.94
490.88	28306.44
491.06	28964.13
491.24	28919.66
491.41	28929.02
491.59	29572.67
491.77	29436.92
491.95	29481.39
492.13	29598.41
492.30	30094.61
492.48	30008.01
492.66	30134.40
492.84	30483.14
493.01	30611.87
493.19	30504.20
493.37	31101.04
493.54	30866.98
493.72	31477.86
493.90	31847.67
494.08	31622.98
494.25	31765.75
494.43	32079.38
494.61	32421.10
494.79	32407.06
494.96	32390.67
495.14	32694.94
495.32	33254.33
495.49	33289.44
495.67	33586.69
495.85	33673.29
496.02	33998.62
496.20	33993.94
496.38	33811.38
496.55	33656.90
496.73	35035.48
496.91	34581.42
497.09	35044.84
497.26	35000.37
497.44	35311.66
497.62	35372.52
497.79	35945.95
497.97	35885.09
498.14	35716.58
498.32	36285.33
498.50	36343.84
498.67	36217.45
498.85	36240.86
499.03	37057.70
499.20	36772.16
499.38	36891.52
499.56	36889.18
499.73	37053.02
499.91	37088.13
500.08	37738.80
500.26	37399.42
500.44	37663.90
500.61	38087.54
500.79	37799.65
500.97	38293.50
501.14	38462.02
501.32	38347.34
501.49	38560.33
501.67	38885.66
501.84	38689.06
502.02	38813.10
502.20	38817.78
502.37	39215.68
502.55	39409.94
502.72	39372.49
502.90	39695.49
503.07	39576.12
503.25	39758.68
503.43	39995.07
503.60	40163.59
503.78	40102.74
503.95	40219.77
504.13	40898.52
504.30	40659.79
504.48	40348.50
504.65	40676.17
504.83	40828.30
505.01	41411.10
505.18	41471.95
505.36	41088.10
505.53	41425.14
505.71	41511.74
505.88	41556.21
506.06	41574.94
506.23	42204.54
506.41	41883.89
506.58	42380.08
506.76	42103.90
506.93	42431.57
507.11	42567.32
507.28	42567.32
507.46	42899.68
507.63	43253.10
507.81	43358.42
507.98	43339.70
508.16	42969.90
508.33	43367.79
508.50	43243.74
508.68	43405.23
508.85	43873.34
509.03	43981.01
509.20	44149.53
509.38	44479.54
509.55	44182.29
509.73	44636.36
509.90	44755.72
510.08	44320.38
510.25	44275.91
510.42	44795.51
510.60	44896.16
510.77	45251.92
510.95	45272.98
511.12	45382.99
511.30	45427.46
511.47	45638.11
511.64	45413.41
511.82	45736.41
511.99	45329.16
512.17	45853.44
512.34	45846.41
512.51	46227.92
512.69	46485.38
512.86	46543.89
513.04	46653.90
513.21	47019.02
513.38	46707.73
513.56	46972.21
513.73	46459.63
513.90	46958.17
514.08	46988.60
514.25	47367.76
514.43	47409.89
514.60	47372.44
514.77	47552.66
514.95	47353.72
515.12	47477.77
515.29	47831.19
515.47	48151.84
515.64	48177.59
515.81	47721.18
515.99	48186.95
516.16	48472.49
516.33	48121.41
516.51	48788.47
516.68	48769.74
516.85	48404.62
517.03	49209.76
517.20	48825.92
517.37	48999.12
517.54	49024.86
517.72	48996.77
517.89	48720.59
518.06	49186.36
518.24	49329.13
518.41	49141.89
518.58	49310.41
518.75	49738.72
518.93	49488.29
519.10	49502.33
519.27	49673.19
519.45	49579.57
519.62	49752.77
519.79	49830.01
519.96	49792.56
520.14	50265.34
520.31	49954.05
520.48	50389.39
520.65	50480.67
520.83	50639.83
521.00	50497.06
521.17	50571.96
521.34	50937.08
521.52	51033.04
521.69	50920.70
521.86	51166.45
522.03	51007.29
522.20	51316.25
522.38	51414.55
522.55	51159.43
522.72	51416.89
522.89	51449.66
523.07	51704.77
523.24	51686.05
523.41	51782.01
523.58	51517.53
523.75	51948.19
523.92	51725.84
524.10	52238.42
524.27	52287.57
524.44	52107.35
524.61	52346.08
524.78	52020.75
524.96	52538.01
525.13	52488.85
525.30	52196.29
525.47	52353.10
525.64	52678.44
525.81	52533.32
525.98	52495.88
526.16	52769.72
526.33	52697.16
526.50	52615.24
526.67	52783.76
526.84	52963.98
527.01	53144.20
527.18	52863.34
527.36	52814.19
527.53	53081.01
527.70	53275.27
527.87	53305.70
528.04	53038.88
528.21	53792.53
528.38	53532.73
528.55	53219.10
528.72	53221.44
528.89	53727.00
529.07	53467.20
529.24	53703.59
529.41	53820.62
529.58	53640.40
529.75	53635.72
529.92	53593.59
530.09	53909.56
530.26	53846.36
530.43	54293.41
530.60	53956.37
530.77	53827.64
530.94	54167.02
531.11	54068.72
531.28	54188.08
531.46	54377.67
531.63	54216.17
531.80	54340.22
531.97	54316.81
532.14	54457.24
532.31	54251.28
532.48	54326.17
532.65	54742.79
532.82	54646.83
532.99	54705.34
533.16	54497.03
533.33	54721.72
533.50	55030.68
533.67	54918.33
533.84	54710.02
534.01	54679.60
534.18	54871.52
534.35	55377.08
534.52	55346.65
534.69	55353.67
534.86	55229.62
535.03	55255.37
535.20	54953.44
535.37	55559.64
535.54	55440.27
535.71	55281.11
535.88	55437.93
536.05	55274.09
536.22	55601.77
536.38	55856.88
536.55	55552.62
536.72	55735.18
536.89	55597.09
537.06	55426.23
537.23	55690.71
537.40	55704.75
537.57	55742.20
537.74	55870.93
537.91	55828.80
538.08	55868.59
538.25	55756.24
538.42	56062.85
538.59	56203.28
538.75	55896.67
538.92	55870.93
539.09	56362.44
539.26	56212.65
539.43	56217.33
539.60	56477.13
539.77	56193.92
539.94	56519.26
540.11	56191.58
540.28	56594.15
540.44	56568.41
540.61	56685.43
540.78	56388.19
540.95	56446.70
541.12	56334.35
541.29	56252.44
541.46	56542.66
541.62	56498.19
541.79	56818.84
541.96	56514.58
542.13	56526.28
542.30	56788.42
542.47	56919.49
542.63	56931.19
542.80	56938.21
542.97	57357.17
543.14	57282.27
543.31	57394.62
543.48	57230.78
543.64	57584.20
543.81	57359.51
543.98	57462.49
544.15	57464.83
544.32	57591.22
544.48	57670.80
544.65	57453.13
544.82	57403.98
544.99	57293.97
545.16	57483.56
545.32	57497.60
545.49	57790.17
545.66	57755.06
545.83	57780.81
546.00	57478.88
546.16	57631.01
546.33	57640.37
546.50	57408.66
546.67	57717.61
546.83	57663.78
547.00	57780.81
547.17	57893.15
547.34	57841.66
547.50	57682.50
547.67	57968.05
547.84	58136.57
548.00	58330.83
548.17	58452.54
548.34	58337.85
548.51	58309.77
548.67	58312.11
548.84	57909.53
549.01	57958.69
549.18	57982.09
549.34	58387.00
549.51	58398.71
549.68	58590.63
549.84	58485.31
550.01	58571.91
550.18	58431.47
550.34	58482.97
550.51	58520.41
550.68	58482.97
550.84	58174.02
551.01	58695.95
551.18	58403.39
551.34	58590.63
551.51	58377.64
551.68	58602.33
551.84	58454.88
552.01	58604.67
552.18	58471.26
552.34	58859.79
552.51	58883.20
552.68	58494.67
552.84	58721.70
553.01	59147.68
553.18	58894.90
553.34	58784.90
553.51	58754.47
553.67	58724.04
553.84	59098.53
554.01	59035.33
554.17	58932.35
554.34	58901.92
554.51	59037.67
554.67	58974.48
554.84	59054.06
555.00	59180.45
555.17	58915.96
555.33	58944.05
555.50	58930.01
555.67	58883.20
555.83	58908.94
556.00	59208.53
556.16	59395.77
556.33	59185.13
556.50	59082.14
556.66	59463.65
556.83	59227.26
556.99	59360.67
557.16	59538.55
557.32	59533.87
557.49	59674.30
557.65	59309.18
557.82	59458.97
557.98	59458.97
558.15	59199.17
558.32	59648.55
558.48	59269.39
558.65	59475.35
558.81	59470.67
558.98	59437.90
559.14	59688.34
559.31	59861.54
559.47	59674.30
559.64	59826.43
559.80	59664.94
559.97	59742.17
560.13	59538.55
560.30	59707.07
560.46	59643.87
560.63	59842.82
560.79	59936.44
560.96	59927.08
561.12	59955.16
561.29	59838.14
561.45	59887.29
561.61	59884.95
561.78	59615.79
561.94	59751.54
562.11	59889.63
562.27	60004.31
562.44	60039.42
562.60	60189.22
562.77	60001.97
562.93	59976.23
563.10	60016.02
563.26	59821.75
563.42	60104.96
563.59	60090.91
563.75	59847.50
563.92	60062.83
564.08	59826.43
564.24	60268.79
564.41	60104.96
564.57	60315.61
564.74	60177.51
564.90	60130.70
565.07	59936.44
565.23	60069.85
565.39	60207.94
565.56	60310.92
565.72	60144.75
565.88	60200.92
566.05	60072.19
566.21	60196.24
566.38	60350.71
566.54	60250.07
566.70	60184.54
566.87	60453.70
567.03	60076.87
567.19	60460.72
567.36	60317.95
567.52	60420.93
567.68	60701.79
567.85	60247.73
568.01	60516.89
568.17	60219.64
568.34	60507.53
568.50	60392.84
568.66	60383.48
568.83	60502.85
568.99	60378.80
569.15	60512.21
569.32	60423.27
569.48	60306.24
569.64	60502.85
569.81	60526.25
569.97	60474.76
570.13	60427.95
570.30	60647.96
570.46	60687.75
570.62	60521.57
570.78	60622.22
570.95	60589.45
571.11	60467.74
571.27	60493.49
571.43	60507.53
571.60	60764.99
571.76	60601.15
571.92	60381.14
572.09	60701.79
572.25	60774.35
572.41	60523.91
572.57	60706.47
572.74	60659.66
572.90	60694.77
573.06	60727.54
573.22	60650.30
573.38	60598.81
573.55	60542.64
573.71	60755.63
573.87	60760.31
574.03	60711.16
574.20	60589.45
574.36	60568.38
574.52	60755.63
574.68	60804.78
574.84	60795.42
575.01	60694.77
575.17	60720.52
575.33	60519.23
575.49	60594.13
575.65	60903.08
575.82	60879.67
575.98	60846.91
576.14	61102.03
576.30	60680.73
576.46	60659.66
576.62	60619.88
576.79	60882.02
576.95	60662.00
577.11	61099.68
577.27	60903.08
577.43	60860.95
577.59	60701.79
577.75	60776.69
577.92	60654.98
578.08	60678.39
578.24	60914.78
578.40	60830.52
578.56	60837.54
578.72	60865.63
578.88	61017.77
579.04	61127.77
579.21	61078.62
579.37	60748.60
579.53	61069.26
579.69	60781.37
579.85	60748.60
580.01	60830.52
580.17	60893.72
580.33	60837.54
580.49	60921.80
580.65	60952.23
580.82	60821.16
580.98	60811.80
581.14	60760.31
581.30	61069.26
581.46	60926.49
581.62	60942.87
581.78	60987.34
581.94	61048.19
582.10	60970.96
582.26	61095.00
582.42	60905.42
582.58	60961.59
582.74	60832.86
582.90	60743.92
583.06	61010.74
583.22	60952.23
583.38	61041.17
583.54	60872.65
583.70	60947.55
583.86	60954.57
584.02	60952.23
584.18	61048.19
584.34	60739.24
584.50	61080.96
584.66	60935.85
584.82	60870.31
584.98	61043.51
585.14	60942.87
585.30	60926.49
585.46	61118.41
585.62	61048.19
585.78	61059.90
585.94	60835.20
586.10	61031.81
586.26	60985.00
586.42	61109.05
586.58	61041.17
586.74	61087.98
586.90	61022.45
587.06	60973.30
587.22	61176.92
587.38	61148.84
587.54	61137.13
587.70	61270.54
587.86	61151.18
588.02	61181.60
588.18	61312.67
588.34	61057.56
