SpectraSuite Data File
++++++++++++++++++++++++++++++++++++
Date: Fri Oct 25 11:25:08 EDT 2013
User: price-jones
Dark Spectrum Present: No
Reference Spectrum Present: No
Number of Sampled Component Spectra: 1
Spectrometers: USB2+H05261
Integration Time (usec): 100000 (USB2+H05261)
Spectra Averaged: 1 (USB2+H05261)
Boxcar Smoothing: 0 (USB2+H05261)
Correct for Electrical Dark: No (USB2+H05261)
Strobe/Lamp Enabled: No (USB2+H05261)
Correct for Detector Non-linearity: No (USB2+H05261)
Correct for Stray Light: No (USB2+H05261)
Number of Pixels in Processed Spectrum: 2048
>>>>>Begin Processed Spectral Data<<<<<
365.73	255.12
365.92	255.12
366.12	255.12
366.32	191.92
366.52	161.50
366.72	152.13
366.91	81.92
367.11	152.13
367.31	177.88
367.51	119.37
367.70	166.18
367.90	166.18
368.10	145.11
368.30	145.11
368.49	105.32
368.69	131.07
368.89	163.84
369.09	161.50
369.28	154.48
369.48	133.41
369.68	217.67
369.87	133.41
370.07	236.39
370.27	215.33
370.47	332.36
370.66	550.03
370.86	641.31
371.06	702.16
371.25	737.27
371.45	650.67
371.65	631.94
371.84	662.37
372.04	713.86
372.24	699.82
372.44	702.16
372.63	716.20
372.83	727.91
373.03	690.46
373.22	795.78
373.42	669.39
373.62	662.37
373.81	809.83
374.01	849.61
374.21	837.91
374.40	779.40
374.60	823.87
374.79	793.44
374.99	866.00
375.19	849.61
375.38	763.01
375.58	833.23
375.78	887.06
375.97	847.27
376.17	954.94
376.37	887.06
376.56	842.59
376.76	786.42
376.95	847.27
377.15	952.60
377.35	868.34
377.54	877.70
377.74	903.45
377.93	875.36
378.13	908.13
378.33	938.55
378.52	1006.43
378.72	884.72
378.91	882.38
379.11	931.53
379.31	915.15
379.50	908.13
379.70	966.64
379.89	964.30
380.09	1018.13
380.28	931.53
380.48	933.87
380.68	954.94
380.87	1025.15
381.07	983.02
381.26	1041.54
381.46	1022.81
381.65	1055.58
381.85	1025.15
382.04	1001.75
382.24	1041.54
382.43	1097.71
382.63	1018.13
382.83	1074.31
383.02	1093.03
383.22	1130.48
383.41	1149.20
383.61	1043.88
383.80	1104.73
384.00	1083.67
384.19	1109.41
384.39	1142.18
384.58	1177.29
384.78	1121.12
384.97	1137.50
385.17	1142.18
385.36	1219.42
385.56	1212.40
385.75	1163.25
385.95	1177.29
386.14	1207.72
386.34	1200.69
386.53	1240.48
386.72	1130.48
386.92	1329.42
387.11	1205.38
387.31	1191.33
387.50	1203.04
387.70	1324.74
387.89	1320.06
388.09	1296.66
388.28	1289.64
388.48	1294.32
388.67	1252.19
388.86	1268.57
389.06	1275.59
389.25	1282.61
389.45	1294.32
389.64	1315.38
389.84	1338.79
390.03	1467.52
390.22	1404.32
390.42	1224.10
390.61	1366.87
390.81	1303.68
391.00	1439.43
391.19	1479.22
391.39	1420.71
391.58	1497.94
391.78	1469.86
391.97	1495.60
392.16	1521.35
392.36	1540.07
392.55	1493.26
392.75	1488.58
392.94	1497.94
393.13	1500.28
393.33	1598.59
393.52	1589.22
393.71	1540.07
393.91	1551.78
394.10	1528.37
394.29	1521.35
394.49	1650.08
394.68	1638.38
394.88	1591.56
395.07	1680.50
395.26	1734.34
395.46	1706.25
395.65	1732.00
395.84	1659.44
396.04	1724.97
396.23	1739.02
396.42	1762.42
396.62	1771.79
396.81	1715.61
397.00	1736.68
397.19	1795.19
397.39	1832.64
397.58	1830.30
397.77	1837.32
397.97	1804.55
398.16	1816.26
398.35	1937.96
398.55	1818.60
398.74	1839.66
398.93	1856.04
399.12	1982.43
399.32	1933.28
399.51	1970.73
399.70	1926.26
399.90	1982.43
400.09	1963.71
400.28	2019.88
400.47	1996.48
400.67	1973.07
400.86	1980.09
401.05	2078.40
401.24	2153.29
401.44	2113.50
401.63	2064.35
401.82	2134.57
402.01	2200.10
402.21	2277.34
402.40	2260.96
402.59	2169.68
402.78	2200.10
402.97	2251.60
403.17	2244.57
403.36	2246.91
403.55	2326.49
403.74	2368.62
403.93	2361.60
404.13	2317.13
404.32	2373.30
404.51	2347.56
404.70	2389.69
404.89	2445.86
405.09	2462.24
405.28	2499.69
405.47	2413.09
405.66	2541.82
405.85	2406.07
406.05	2457.56
406.24	2399.05
406.43	2565.23
406.62	2583.95
406.81	2644.81
407.00	2544.16
407.20	2654.17
407.39	2635.44
407.58	2630.76
407.77	2597.99
407.96	2705.66
408.15	2801.62
408.34	2761.83
408.54	2850.77
408.73	2764.17
408.92	2726.72
409.11	2754.81
409.30	2836.73
409.49	2920.99
409.68	2803.96
409.87	2970.14
410.07	3047.38
410.26	3002.91
410.45	2951.42
410.64	3014.61
410.83	3084.83
411.02	3173.77
411.21	3166.74
411.40	3150.36
411.59	3227.60
411.78	3206.53
411.98	3126.96
412.17	3241.64
412.36	3227.60
412.55	3328.24
412.74	3370.37
412.93	3447.61
413.12	3398.46
413.31	3435.91
413.50	3389.10
413.69	3473.36
413.88	3574.00
414.07	3515.48
414.26	3623.15
414.45	3674.64
414.64	3665.28
414.83	3604.42
415.02	3653.58
415.22	3749.54
415.41	3901.67
415.60	3939.12
415.79	3976.57
415.98	3995.29
416.17	4039.76
416.36	3796.35
416.55	3934.44
416.74	4149.77
416.93	4058.49
417.12	4117.00
417.31	4191.90
417.50	4119.34
417.69	4255.09
417.88	4245.73
418.07	4241.05
418.26	4280.84
418.45	4325.31
418.64	4425.95
418.83	4250.41
419.02	4437.66
419.21	4458.72
419.39	4519.57
419.58	4465.74
419.77	4655.33
419.96	4517.23
420.15	4493.83
420.34	4664.69
420.53	4690.43
420.72	4589.79
420.91	4564.04
421.10	4610.86
421.29	4924.49
421.48	4535.96
421.67	4713.84
421.86	4711.50
422.05	4844.91
422.24	4816.82
422.43	4777.03
422.61	4905.76
422.80	4842.57
422.99	4814.48
423.18	4950.23
423.37	4933.85
423.56	4905.76
423.75	4905.76
423.94	4856.61
424.13	4477.44
424.32	4702.14
424.50	5039.17
424.69	4971.30
424.88	5200.67
425.07	4894.06
425.26	4957.25
425.45	4990.02
425.64	4933.85
425.83	5032.15
426.01	5039.17
426.20	5050.88
426.39	4985.34
426.58	5020.45
426.77	4943.21
426.96	5057.90
427.15	5008.75
427.33	5151.52
427.52	5247.48
427.71	5210.03
427.90	5181.95
428.09	5263.86
428.28	5385.57
428.46	5156.20
428.65	5268.55
428.84	5416.00
429.03	5483.88
429.22	5287.27
429.40	5460.47
429.59	5357.49
429.78	5210.03
429.97	5345.78
430.16	5474.51
430.34	5671.12
430.53	5596.22
430.72	5823.25
430.91	5706.23
431.10	5650.05
431.28	5659.42
431.47	5809.21
431.66	5996.45
431.85	5572.82
432.03	5827.93
432.22	6019.86
432.41	5935.60
432.60	5802.19
432.79	6003.47
432.97	6097.10
433.16	6061.99
433.35	5949.64
433.54	5973.05
433.72	6076.03
433.91	6029.22
434.10	6104.12
434.28	6104.12
434.47	6256.25
434.66	6052.63
434.85	6253.91
435.03	6164.97
435.22	6204.76
435.41	6478.60
435.59	6286.68
435.78	6249.23
435.97	6413.07
436.16	6314.77
436.34	6541.80
436.53	6293.70
436.72	6654.14
436.90	6614.35
437.09	6401.37
437.28	6420.09
437.46	6693.93
437.65	6492.65
437.84	6612.01
438.02	6925.65
438.21	6679.89
438.40	6722.02
438.58	6857.77
438.77	6939.69
438.96	6731.38
439.14	6998.20
439.33	7194.81
439.52	7021.61
439.70	7101.19
439.89	7211.19
440.08	7499.08
440.26	7414.82
440.45	7255.66
440.63	7323.54
440.82	7552.91
441.01	7470.99
441.19	7595.04
441.38	7679.30
441.57	7613.76
441.75	7630.15
441.94	7822.07
442.12	7920.37
442.31	7985.91
442.50	8051.44
442.68	7822.07
442.87	8044.42
443.05	8128.68
443.24	8191.88
443.43	8042.08
443.61	7922.71
443.80	8489.12
443.98	8060.80
444.17	7927.39
444.35	8135.70
444.54	8241.03
444.73	8332.31
444.91	8222.30
445.10	8423.59
445.28	8451.67
445.47	8147.40
445.65	8376.78
445.84	8395.50
446.02	8482.10
446.21	8446.99
446.39	8393.16
446.58	8383.80
446.77	8355.71
446.95	8264.43
447.14	8463.38
447.32	8451.67
447.51	8287.84
447.69	8435.29
447.88	8519.55
448.06	8580.40
448.25	8409.54
448.43	8741.90
448.62	8411.89
448.80	8344.01
448.99	8402.52
449.17	8578.06
449.36	8812.12
449.54	8758.28
449.73	8915.10
449.91	9076.60
450.10	8905.74
450.28	8997.02
450.46	8833.18
450.65	8985.32
450.83	9022.77
451.02	9128.09
451.20	9088.30
451.39	9179.58
451.57	9046.17
451.76	9055.53
451.94	9308.31
452.13	9277.88
452.31	9202.99
452.49	9060.21
452.68	9423.00
452.86	9369.16
453.05	9186.60
453.23	9495.55
453.42	9394.91
453.60	9327.03
453.78	9612.58
453.97	9188.94
454.15	9495.55
454.34	9390.23
454.52	9736.63
454.70	9572.79
454.89	9837.27
455.07	9795.14
455.26	9970.68
455.44	10015.15
455.62	9858.34
455.81	9664.07
455.99	9944.94
456.17	10239.84
456.36	9916.85
456.54	10260.91
456.73	10197.71
456.91	10223.46
457.09	10420.06
457.28	10501.98
457.46	10239.84
457.64	10415.38
457.83	10251.55
458.01	10361.55
458.19	10754.76
458.38	10384.96
458.56	10803.91
458.74	10724.33
458.93	10600.29
459.11	10370.91
459.29	10565.18
459.48	10843.70
459.66	10724.33
459.84	10619.01
460.03	10995.84
460.21	10956.05
460.39	10930.30
460.57	10832.00
460.76	10932.64
460.94	11147.97
461.12	11124.57
461.31	11098.82
461.49	10981.79
461.67	11035.63
461.85	11304.79
462.04	11337.56
462.22	11789.28
462.40	11489.69
462.59	11377.34
462.77	11522.46
462.95	11506.07
463.13	11463.94
463.32	11379.68
463.50	11758.85
463.68	11751.83
463.86	11552.88
464.05	11709.70
464.23	11520.12
464.41	11908.65
464.59	11620.76
464.78	12070.14
464.96	12065.46
465.14	11864.18
465.32	11857.15
465.50	12098.23
465.69	12182.49
465.87	12233.98
466.05	12084.19
466.23	12006.95
466.41	12198.87
466.60	12453.99
466.78	12077.16
466.96	12081.85
467.14	12072.48
467.32	12285.47
467.51	12629.53
467.69	11948.43
467.87	12166.10
468.05	12697.41
468.23	12652.94
468.41	12484.42
468.60	12566.34
468.78	12531.23
468.96	12542.93
469.14	12872.95
469.32	12762.94
469.50	12589.74
469.69	12683.36
469.87	13083.59
470.05	12929.12
470.23	13198.28
470.41	13144.45
470.59	13200.62
470.77	13209.98
470.95	13221.69
471.14	13441.70
471.32	12919.76
471.50	13528.30
471.68	13633.62
471.86	13781.07
472.04	13516.59
472.22	13762.35
472.40	13685.11
472.58	13811.50
472.77	14078.32
472.95	14050.24
473.13	14384.93
473.31	13881.72
473.49	14083.00
473.67	14356.85
473.85	14272.59
474.03	14417.70
474.21	14696.22
474.39	14745.38
474.57	14663.46
474.75	14827.29
474.93	15101.14
475.12	14562.81
475.30	15019.22
475.48	15019.22
475.66	15014.54
475.84	15112.84
476.02	15215.82
476.20	15246.25
476.38	15742.44
476.56	15913.30
476.74	16084.16
476.92	15770.53
477.10	15704.99
477.28	15953.09
477.46	15978.84
477.64	16393.11
477.82	16414.18
478.00	16889.31
478.18	16744.19
478.36	16856.54
478.54	16973.56
478.72	17151.45
478.90	17422.95
479.08	17191.23
479.26	17355.07
479.44	17776.37
479.62	18022.12
479.80	17881.69
479.98	17954.25
480.16	18445.76
480.34	18228.09
480.52	18368.52
480.70	18338.10
480.88	18513.64
481.06	18546.40
481.24	18909.19
481.41	19033.24
481.59	19084.73
481.77	19419.42
481.95	19679.22
482.13	19889.87
482.31	19566.88
482.49	19995.20
482.67	20182.44
482.85	20168.40
483.03	20453.94
483.21	20489.05
483.39	20592.03
483.57	21074.18
483.74	21172.49
483.92	21359.73
484.10	21025.03
484.28	21523.57
484.46	21750.60
484.64	22160.19
484.82	22097.00
485.00	22335.73
485.18	22656.39
485.35	23033.21
485.53	23173.64
485.71	22766.39
485.89	23208.75
486.07	23571.54
486.25	23353.87
486.43	23611.32
486.61	23452.17
486.78	23931.98
486.96	23611.32
487.14	24470.30
487.32	24744.14
487.50	25050.75
487.68	25083.52
487.85	25076.50
488.03	25378.43
488.21	25809.09
488.39	25675.68
488.57	25811.43
488.75	26136.76
488.92	26672.74
489.10	26850.63
489.28	26321.66
489.46	27068.30
489.64	26913.82
489.81	27562.15
489.99	27550.45
490.17	27503.64
490.35	28343.89
490.53	28048.98
490.70	28414.10
490.88	27960.04
491.06	28765.18
491.24	28716.03
491.41	28828.38
491.59	29078.82
491.77	29352.66
491.95	29626.50
492.13	29858.21
492.30	29614.80
492.48	29905.02
492.66	30529.95
492.84	30225.68
493.01	30740.60
493.19	30499.52
493.37	30934.86
493.54	30934.86
493.72	31442.76
493.90	31480.21
494.08	31660.43
494.25	32098.11
494.43	31639.36
494.61	32437.48
494.79	31826.60
494.96	32165.98
495.14	32921.98
495.32	32753.46
495.49	32952.40
495.67	33039.00
495.85	33347.95
496.02	33729.46
496.20	33947.13
496.38	33834.78
496.55	33827.76
496.73	34766.32
496.91	34401.19
497.09	34824.83
497.26	34515.88
497.44	34785.04
497.62	34820.15
497.79	35402.94
497.97	35442.73
498.14	35875.73
498.32	36184.68
498.50	35501.25
498.67	36608.32
498.85	36477.25
499.03	36481.93
499.20	36503.00
499.38	37053.02
499.56	37219.20
499.73	36706.62
499.91	37254.31
500.08	37308.14
500.26	36809.61
500.44	37694.33
500.61	37717.73
500.79	37399.42
500.97	38146.05
501.14	38382.45
501.32	38155.41
501.49	38398.83
501.67	38504.15
501.84	38532.24
502.02	38866.94
502.20	39218.02
502.37	39098.65
502.55	39084.61
502.72	39182.91
502.90	39164.18
503.07	39026.09
503.25	39566.76
503.43	39756.34
503.60	39861.66
503.78	39880.39
503.95	39866.34
504.13	40383.60
504.30	40730.00
504.48	40439.78
504.65	40360.20
504.83	40978.10
505.01	41528.13
505.18	41027.25
505.36	41179.39
505.53	41310.46
505.71	41251.94
505.88	41727.07
506.06	41500.04
506.23	42141.35
506.41	41811.33
506.58	41979.85
506.76	42307.52
506.93	42274.76
507.11	41839.42
507.28	42555.62
507.46	42672.65
507.63	43166.50
507.81	42820.10
507.98	42660.94
508.16	42707.76
508.33	43274.16
508.50	43463.75
508.68	43068.20
508.85	43538.65
509.03	43330.34
509.20	43863.98
509.38	44268.89
509.55	43981.01
509.73	44554.44
509.90	44189.31
510.08	44208.04
510.25	44570.82
510.42	44584.86
510.60	44788.49
510.77	45064.67
510.95	45008.50
511.12	45041.27
511.30	44992.12
511.47	45457.88
511.64	45556.19
511.82	45958.76
511.99	45769.18
512.17	46066.42
512.34	45633.42
512.51	46368.35
512.69	46316.86
512.86	45839.39
513.04	46557.94
513.21	46443.25
513.38	46480.70
513.56	46564.96
513.73	46438.57
513.90	46555.60
514.08	46810.71
514.25	47157.11
514.43	47302.23
514.60	47098.60
514.77	46976.89
514.95	47859.27
515.12	47372.44
515.29	47297.55
515.47	47789.06
515.64	47723.52
515.81	47503.51
515.99	47999.71
516.16	48144.82
516.33	47985.66
516.51	48289.93
516.68	48301.64
516.85	48271.21
517.03	48863.36
517.20	49010.82
517.37	48699.53
517.54	48516.96
517.72	48758.04
517.89	49277.64
518.06	49296.36
518.24	49059.97
518.41	49074.01
518.58	49471.90
518.75	49134.87
518.93	48905.49
519.10	48978.05
519.27	49848.73
519.45	49705.96
519.62	49661.49
519.79	49673.19
519.96	49694.25
520.14	49553.82
520.31	50202.15
520.48	50157.68
520.65	50183.43
520.83	50415.14
521.00	50199.81
521.17	50688.98
521.34	50508.76
521.52	50499.40
521.69	51035.38
521.86	50906.65
522.03	50857.50
522.20	50838.78
522.38	51302.20
522.55	51299.86
522.72	51224.96
522.89	51152.41
523.07	51341.99
523.24	51503.49
523.41	51519.87
523.58	51105.60
523.75	51824.14
523.92	51676.69
524.10	52013.73
524.27	51760.95
524.44	52116.71
524.61	51660.30
524.78	52119.05
524.96	51941.17
525.13	52002.02
525.30	52355.44
525.47	52367.15
525.64	52219.69
525.81	52622.26
525.98	52381.19
526.16	52500.56
526.33	52172.88
526.50	52678.44
526.67	52666.73
526.84	53123.14
527.01	52598.86
527.18	52643.33
527.36	52704.18
527.53	52879.72
527.70	53258.89
527.87	53158.25
528.04	53120.80
528.21	53275.27
528.38	53251.87
528.55	53394.64
528.72	53130.16
528.89	53340.81
529.07	53003.77
529.24	53181.65
529.41	53322.08
529.58	53506.99
529.75	53495.28
529.92	53670.82
530.09	53848.71
530.26	53567.84
530.43	53762.11
530.60	53542.10
530.77	53858.07
530.94	53766.79
531.11	53888.49
531.28	54075.74
531.46	54073.40
531.63	54293.41
531.80	54267.66
531.97	54253.62
532.14	54482.99
532.31	54365.96
532.48	54328.52
532.65	54567.25
532.82	54398.73
532.99	54607.04
533.16	54403.41
533.33	54763.85
533.50	54546.18
533.67	54679.60
533.84	54539.16
534.01	54543.84
534.18	55178.13
534.35	55196.85
534.52	54836.41
534.69	55061.10
534.86	55381.76
535.03	54944.08
535.20	55040.04
535.37	55351.33
535.54	55337.29
535.71	55009.61
535.88	55559.64
536.05	55124.30
536.22	55545.59
536.38	55468.36
536.55	55470.70
536.72	55274.09
536.89	55271.75
537.06	55482.40
537.23	55533.89
537.40	55524.53
537.57	55569.00
537.74	55611.13
537.91	55969.23
538.08	55735.18
538.25	55758.58
538.42	55861.57
538.59	56158.81
538.75	55690.71
538.92	55791.35
539.09	56069.87
539.26	55985.61
539.43	55861.57
539.60	56315.63
539.77	56062.85
539.94	56409.25
540.11	56477.13
540.28	56399.89
540.44	56336.69
540.61	56374.14
540.78	56278.18
540.95	56353.08
541.12	56074.55
541.29	56563.73
541.46	56385.85
541.62	56556.70
541.79	56680.75
541.96	56322.65
542.13	56357.76
542.30	56669.05
542.47	56755.65
542.63	56886.72
542.80	56741.61
542.97	57092.69
543.14	56924.17
543.31	57034.17
543.48	57310.36
543.64	57357.17
543.81	57174.61
543.98	57303.34
544.15	57286.95
544.32	57286.95
544.48	57401.64
544.65	57310.36
544.82	57347.81
544.99	57209.71
545.16	57338.44
545.32	57284.61
545.49	57586.54
545.66	57567.82
545.83	57616.97
546.00	57668.46
546.16	57518.67
546.33	57488.24
546.50	57296.31
546.67	57600.58
546.83	57263.55
547.00	57825.28
547.17	57623.99
547.34	57890.81
547.50	57771.44
547.67	57996.13
547.84	57911.88
548.00	58092.10
548.17	58192.74
548.34	57925.92
548.51	58220.83
548.67	58291.04
548.84	58199.76
549.01	57916.56
549.18	58122.52
549.34	57893.15
549.51	58120.18
549.68	58120.18
549.84	58351.90
550.01	58328.49
550.18	58115.50
550.34	58298.06
550.51	58398.71
550.68	58328.49
550.84	58040.60
551.01	58492.33
551.18	58412.75
551.34	58543.82
551.51	58532.12
551.68	58452.54
551.84	58452.54
552.01	58295.72
552.18	58590.63
552.34	58419.77
552.51	58602.33
552.68	58487.65
552.84	58672.55
553.01	58688.93
553.18	58621.06
553.34	58838.73
553.51	58801.28
553.67	58812.98
553.84	58967.46
554.01	58932.35
554.17	58885.54
554.34	58899.58
554.51	58894.90
554.67	58997.88
554.84	59063.42
555.00	59028.31
555.17	58983.84
555.33	58911.28
555.50	58742.77
555.67	58958.09
555.83	59040.01
556.00	59051.72
556.16	59217.89
556.33	59098.53
556.50	59140.66
556.66	59044.69
556.83	59021.29
556.99	59400.46
557.16	59519.82
557.32	59393.43
557.49	59353.65
557.65	59318.54
557.82	59348.96
557.98	59304.49
558.15	59262.36
558.32	59416.84
558.48	59042.35
558.65	59323.22
558.81	59131.29
558.98	59561.95
559.14	59648.55
559.31	59428.54
559.47	59573.66
559.64	59557.27
559.80	59793.67
559.97	59674.30
560.13	59653.23
560.30	59587.70
560.46	59662.60
560.63	59709.41
560.79	59545.57
560.96	59924.74
561.12	59817.07
561.29	59540.89
561.45	59929.42
561.61	59660.26
561.78	59910.69
561.94	59632.17
562.11	59627.49
562.27	59660.26
562.44	59746.86
562.60	59971.55
562.77	59859.20
562.93	59760.90
563.10	59917.71
563.26	59950.48
563.42	60137.72
563.59	59826.43
563.75	59746.86
563.92	59896.65
564.08	60018.36
564.24	60041.76
564.41	60214.96
564.57	60027.72
564.74	59917.71
564.90	59908.35
565.07	59756.22
565.23	60140.07
565.39	60069.85
565.56	60191.56
565.72	59992.61
565.88	59941.12
566.05	59887.29
566.21	60004.31
566.38	60037.08
566.54	60097.94
566.70	60079.21
566.87	60013.68
567.03	60172.83
567.19	60444.33
567.36	60140.07
567.52	60013.68
567.68	60378.80
567.85	60329.65
568.01	60114.32
568.17	60257.09
568.34	60364.76
568.50	60287.52
568.66	60271.14
568.83	60449.02
568.99	60179.85
569.15	60343.69
569.32	60287.52
569.48	60175.17
569.64	60420.93
569.81	60444.33
569.97	60184.54
570.13	60413.91
570.30	60399.86
570.46	60381.14
570.62	60432.63
570.78	60381.14
570.95	60484.12
571.11	60498.17
571.27	60322.63
571.43	60353.05
571.60	60343.69
571.76	60505.19
571.92	60654.98
572.09	60430.29
572.25	60598.81
572.41	60271.14
572.57	60505.19
572.74	60844.57
572.90	60432.63
573.06	60671.37
573.22	60509.87
573.38	60500.51
573.55	60362.42
573.71	60559.02
573.87	60701.79
574.03	60334.33
574.20	60411.57
574.36	60458.38
574.52	60659.66
574.68	60797.76
574.84	60671.37
575.01	60418.59
575.17	60589.45
575.33	60687.75
575.49	60423.27
575.65	60706.47
575.82	60757.97
575.98	60849.25
576.14	60713.50
576.30	60678.39
576.46	60650.30
576.62	60800.10
576.79	60615.19
576.95	60425.61
577.11	60601.15
577.27	60669.03
577.43	60666.69
577.59	60809.46
577.75	60734.56
577.92	60598.81
578.08	60767.33
578.24	60617.53
578.40	60823.50
578.56	60980.32
578.72	60680.73
578.88	60933.51
579.04	60945.21
579.21	60746.26
579.37	60788.39
579.53	60907.76
579.69	60528.59
579.85	60743.92
580.01	60573.06
580.17	60776.69
580.33	60952.23
580.49	60750.94
580.65	60757.97
580.82	60858.61
580.98	60711.16
581.14	60764.99
581.30	60947.55
581.46	60610.51
581.62	61080.96
581.78	60790.73
581.94	60903.08
582.10	60687.75
582.26	60654.98
582.42	60584.77
582.58	60935.85
582.74	60669.03
582.90	60753.29
583.06	60989.68
583.22	60994.36
583.38	60940.53
583.54	60830.52
583.70	60853.93
583.86	61071.60
584.02	60825.84
584.18	60999.04
584.34	60774.35
584.50	60734.56
584.66	60736.90
584.82	60699.45
584.98	60973.30
585.14	60860.95
585.30	60786.05
585.46	60952.23
585.62	60846.91
585.78	61083.30
585.94	60793.07
586.10	60837.54
586.26	60947.55
586.42	60975.64
586.58	61020.11
586.74	60886.70
586.90	61144.16
587.06	60889.04
587.22	60980.32
587.38	61008.40
587.54	61008.40
587.70	61087.98
587.86	60959.25
588.02	61071.60
588.18	60867.97
588.34	60931.17
588.49	61057.56
