SpectraSuite Data File
++++++++++++++++++++++++++++++++++++
Date: Fri Oct 25 11:23:26 EDT 2013
User: price-jones
Dark Spectrum Present: No
Reference Spectrum Present: No
Number of Sampled Component Spectra: 1
Spectrometers: USB2+H05261
Integration Time (usec): 100000 (USB2+H05261)
Spectra Averaged: 1 (USB2+H05261)
Boxcar Smoothing: 0 (USB2+H05261)
Correct for Electrical Dark: No (USB2+H05261)
Strobe/Lamp Enabled: No (USB2+H05261)
Correct for Detector Non-linearity: No (USB2+H05261)
Correct for Stray Light: No (USB2+H05261)
Number of Pixels in Processed Spectrum: 2048
>>>>>Begin Processed Spectral Data<<<<<
365.73	196.60
365.92	196.60
366.12	196.60
366.32	212.99
366.52	170.86
366.72	159.16
366.91	77.24
367.11	114.69
367.31	117.03
367.51	135.75
367.70	161.50
367.90	112.35
368.10	70.22
368.30	133.41
368.49	74.90
368.69	138.09
368.89	124.05
369.09	147.45
369.28	156.82
369.48	161.50
369.68	133.41
369.87	217.67
370.07	210.65
370.27	285.55
370.47	259.80
370.66	601.52
370.86	676.41
371.06	676.41
371.25	631.94
371.45	671.73
371.65	690.46
371.84	645.99
372.04	641.31
372.24	788.76
372.44	727.91
372.63	744.29
372.83	781.74
373.03	807.48
373.22	770.04
373.42	798.12
373.62	720.88
373.81	718.54
374.01	863.66
374.21	741.95
374.40	844.93
374.60	807.48
374.79	840.25
374.99	870.68
375.19	851.96
375.38	786.42
375.58	826.21
375.78	851.96
375.97	858.98
376.17	894.08
376.37	887.06
376.56	882.38
376.76	816.85
376.95	875.36
377.15	849.61
377.35	880.04
377.54	882.38
377.74	844.93
377.93	985.37
378.13	835.57
378.33	926.85
378.52	882.38
378.72	924.51
378.91	952.60
379.11	884.72
379.31	964.30
379.50	1013.45
379.70	1034.52
379.89	1008.77
380.09	971.32
380.28	952.60
380.48	1022.81
380.68	950.26
380.87	1025.15
381.07	1027.50
381.26	1025.15
381.46	1011.11
381.65	1088.35
381.85	1025.15
382.04	1029.84
382.24	1006.43
382.43	1020.47
382.63	1093.03
382.83	1022.81
383.02	1078.99
383.22	1156.22
383.41	1130.48
383.61	1067.28
383.80	1144.52
384.00	1179.63
384.19	1196.01
384.39	1191.33
384.58	1160.91
384.78	1291.98
384.97	1146.86
385.17	1240.48
385.36	1205.38
385.56	1203.04
385.75	1116.44
385.95	1174.95
386.14	1357.51
386.34	1214.74
386.53	1125.80
386.72	1245.16
386.92	1219.42
387.11	1306.02
387.31	1233.46
387.50	1135.16
387.70	1228.78
387.89	1350.49
388.09	1184.31
388.28	1259.21
388.48	1341.13
388.67	1331.76
388.86	1310.70
389.06	1306.02
389.25	1397.30
389.45	1277.93
389.64	1313.04
389.84	1397.30
390.03	1366.87
390.22	1448.79
390.42	1432.41
390.61	1277.93
390.81	1420.71
391.00	1474.54
391.19	1427.73
391.39	1432.41
391.58	1423.05
391.78	1460.49
391.97	1486.24
392.16	1516.67
392.36	1476.88
392.55	1448.79
392.75	1558.80
392.94	1451.13
393.13	1453.47
393.33	1596.25
393.52	1598.59
393.71	1554.12
393.91	1540.07
394.10	1502.62
394.29	1600.93
394.49	1640.72
394.68	1621.99
394.88	1612.63
395.07	1657.10
395.26	1647.74
395.46	1664.12
395.65	1699.23
395.84	1626.67
396.04	1839.66
396.23	1689.87
396.42	1746.04
396.62	1881.79
396.81	1806.89
397.00	1736.68
397.19	1834.98
397.39	1804.55
397.58	1832.64
397.77	1863.07
397.97	1830.30
398.16	1884.13
398.35	1867.75
398.55	1860.73
398.74	2008.18
398.93	1898.17
399.12	1895.83
399.32	1778.81
399.51	1919.24
399.70	1933.28
399.90	1994.14
400.09	1996.48
400.28	2036.27
400.47	2031.58
400.67	2094.78
400.86	2136.91
401.05	2115.84
401.24	2118.18
401.44	2094.78
401.63	2157.97
401.82	2202.44
402.01	2200.10
402.21	2251.60
402.40	2216.49
402.59	2242.23
402.78	2237.55
402.97	2300.75
403.17	2289.04
403.36	2296.07
403.55	2188.40
403.74	2303.09
403.93	2410.75
404.13	2492.67
404.32	2438.84
404.51	2359.26
404.70	2392.03
404.89	2436.50
405.09	2373.30
405.28	2555.86
405.47	2586.29
405.66	2576.93
405.85	2569.91
406.05	2607.36
406.24	2605.02
406.43	2527.78
406.62	2647.15
406.81	2651.83
407.00	2539.48
407.20	2672.89
407.39	2658.85
407.58	2635.44
407.77	2862.48
407.96	2780.56
408.15	2691.62
408.34	2656.51
408.54	2754.81
408.73	2836.73
408.92	2857.79
409.11	2944.39
409.30	2825.03
409.49	2967.80
409.68	2932.69
409.87	3087.17
410.07	2923.33
410.26	2958.44
410.45	3033.33
410.64	2942.05
410.83	3150.36
411.02	3215.90
411.21	3253.34
411.40	3138.66
411.59	3159.72
411.78	3126.96
411.98	3204.19
412.17	3379.73
412.36	3321.22
412.55	3297.81
412.74	3363.35
412.93	3463.99
413.12	3510.80
413.31	3452.29
413.50	3353.99
413.69	3440.59
413.88	3630.17
414.07	3513.14
414.26	3674.64
414.45	3665.28
414.64	3686.34
414.83	3786.99
415.02	3840.82
415.22	3864.22
415.41	3957.85
415.60	3941.46
415.79	3948.48
415.98	4011.68
416.17	3892.31
416.36	3901.67
416.55	3894.65
416.74	4121.68
416.93	4046.79
417.12	4138.07
417.31	4149.77
417.50	4372.12
417.69	4386.16
417.88	4191.90
418.07	4325.31
418.26	4322.97
418.45	4191.90
418.64	4545.32
418.83	4444.68
419.02	4369.78
419.21	4519.57
419.39	4512.55
419.58	4496.17
419.77	4468.08
419.96	4603.83
420.15	4594.47
420.34	4683.41
420.53	4650.64
420.72	4746.61
420.91	4669.37
421.10	4594.47
421.29	4706.82
421.48	4695.11
421.67	4704.48
421.86	4760.65
422.05	4812.14
422.24	4805.12
422.43	4929.17
422.61	4990.02
422.80	4896.40
422.99	4891.72
423.18	5160.88
423.37	5107.05
423.56	5008.75
423.75	4889.38
423.94	4877.68
424.13	4545.32
424.32	4880.02
424.50	4938.53
424.69	5331.74
424.88	4994.70
425.07	5020.45
425.26	4997.04
425.45	4992.36
425.64	5011.09
425.83	5093.01
426.01	4992.36
426.20	5062.58
426.39	5097.69
426.58	5193.65
426.77	5188.97
426.96	5078.96
427.15	5226.42
427.33	5345.78
427.52	5156.20
427.71	5313.02
427.90	5252.16
428.09	5376.21
428.28	5458.13
428.46	5432.38
428.65	5289.61
428.84	5411.32
429.03	5474.51
429.22	5446.43
429.40	5603.24
429.59	5603.24
429.78	5371.53
429.97	5146.84
430.16	5460.47
430.34	5650.05
430.53	5685.16
430.72	5717.93
430.91	5685.16
431.10	5610.26
431.28	5743.67
431.47	5867.72
431.66	5879.43
431.85	5940.28
432.03	6017.52
432.22	5949.64
432.41	5881.77
432.60	5816.23
432.79	5830.27
432.97	5942.62
433.16	6195.40
433.35	5881.77
433.54	6003.47
433.72	6043.26
433.91	6059.65
434.10	6160.29
434.28	6136.88
434.47	6277.32
434.66	6422.43
434.85	6352.21
435.03	6186.04
435.22	6291.36
435.41	6487.96
435.59	6565.20
435.78	6504.35
435.97	6431.79
436.16	6434.13
436.34	6377.96
436.53	6588.61
436.72	6619.04
436.90	6296.04
437.09	6633.08
437.28	6551.16
437.46	6654.14
437.65	6619.04
437.84	6829.68
438.02	6693.93
438.21	6640.10
438.40	6801.60
438.58	7052.03
438.77	7037.99
438.96	6986.50
439.14	7138.63
439.33	7070.76
439.52	7325.88
439.70	7316.51
439.89	7417.16
440.08	7346.94
440.26	7318.86
440.45	7398.43
440.63	7562.27
440.82	7754.19
441.01	7403.11
441.19	7513.12
441.38	7625.47
441.57	7791.64
441.75	7712.07
441.94	7915.69
442.12	7871.22
442.31	8067.83
442.50	8063.15
442.68	8189.53
442.87	8091.23
443.05	8051.44
443.24	8215.28
443.43	8030.38
443.61	8131.02
443.80	8643.60
443.98	8056.12
444.17	7812.71
444.35	8297.20
444.54	8280.82
444.73	8353.37
444.91	8327.63
445.10	8475.08
445.28	8491.46
445.47	8346.35
445.65	8222.30
445.84	8580.40
446.02	8575.72
446.21	8393.16
446.39	8507.85
446.58	8418.91
446.77	8503.17
446.95	8362.73
447.14	8524.23
447.32	8493.80
447.51	8643.60
447.69	8552.32
447.88	8582.74
448.06	8573.38
448.25	8690.41
448.43	8564.02
448.62	8559.34
448.80	8613.17
448.99	8589.77
449.17	8685.73
449.36	8800.41
449.54	8858.93
449.73	8879.99
449.91	9092.98
450.10	8971.27
450.28	9170.22
450.46	8961.91
450.65	8982.98
450.83	9163.20
451.02	9090.64
451.20	9163.20
451.39	9266.18
451.57	9226.39
451.76	9111.71
451.94	8971.27
452.13	9397.25
452.31	9369.16
452.49	9282.56
452.68	9511.94
452.86	9451.08
453.05	9654.71
453.23	9549.39
453.42	9369.16
453.60	9301.29
453.78	9699.18
453.97	9493.21
454.15	9610.24
454.34	9425.34
454.52	9741.31
454.70	9671.09
454.89	9678.12
455.07	9720.24
455.26	9764.72
455.44	9802.16
455.62	9736.63
455.81	10045.58
455.99	10139.20
456.17	9996.43
456.36	10186.01
456.54	10031.54
456.73	10139.20
456.91	10424.75
457.09	10424.75
457.28	10572.20
457.46	10403.68
457.64	10579.22
457.83	10619.01
458.01	10597.95
458.19	10724.33
458.38	10654.12
458.56	10860.09
458.74	10738.38
458.93	10586.24
459.11	10562.84
459.29	11136.27
459.48	10857.75
459.66	10750.08
459.84	10953.71
460.03	11063.71
460.21	10995.84
460.39	10920.94
460.57	11016.90
460.76	11206.48
460.94	11328.19
461.12	11379.68
461.31	11211.17
461.49	11143.29
461.67	11358.62
461.85	11316.49
462.04	11370.32
462.22	11702.68
462.40	11562.25
462.59	11501.39
462.77	11555.22
462.95	11726.08
463.13	11723.74
463.32	11655.87
463.50	11861.84
463.68	11602.04
463.86	11854.81
464.05	11793.96
464.23	11782.26
464.41	12035.03
464.59	11700.34
464.78	12198.87
464.96	12112.27
465.14	11957.80
465.32	12051.42
465.50	12212.92
465.69	12229.30
465.87	12233.98
466.05	12013.97
466.23	12039.72
466.41	12425.90
466.60	12449.31
466.78	12088.87
466.96	12308.88
467.14	12252.70
467.32	12294.83
467.51	12482.08
467.69	12559.31
467.87	12627.19
468.05	12538.25
468.23	12299.52
468.41	12561.66
468.60	12865.92
468.78	12760.60
468.96	12723.15
469.14	12835.50
469.32	13163.17
469.50	12947.84
469.69	13198.28
469.87	13102.32
470.05	13256.79
470.23	13411.27
470.41	13207.64
470.59	13399.57
470.77	13294.24
470.95	13406.59
471.14	13467.44
471.32	13163.17
471.50	13422.97
471.68	13467.44
471.86	13722.56
472.04	13799.80
472.22	14256.20
472.40	13781.07
472.58	13984.70
472.77	13827.88
472.95	14389.61
473.13	14649.41
473.31	14024.49
473.49	14024.49
473.67	14125.13
473.85	14267.91
474.03	14792.19
474.21	14736.01
474.39	14839.00
474.57	14686.86
474.75	15290.72
474.93	15314.13
475.12	15215.82
475.30	15234.55
475.48	15101.14
475.66	15206.46
475.84	15047.30
476.02	15576.27
476.20	15545.84
476.38	15709.68
476.56	16077.14
476.74	15903.94
476.92	16149.70
477.10	15641.80
477.28	16091.18
477.46	16365.03
477.64	16262.04
477.82	16596.74
478.00	16985.27
478.18	16875.26
478.36	17067.19
478.54	17151.45
478.72	17476.78
478.90	17359.75
479.08	17703.81
479.26	17549.34
479.44	17937.87
479.62	17490.82
479.80	18188.30
479.98	18398.95
480.16	18504.28
480.34	18527.68
480.52	18735.99
480.70	18698.54
480.88	18480.87
481.06	18773.44
481.24	18948.98
481.41	19187.71
481.59	19522.41
481.77	19536.45
481.95	19740.08
482.13	19812.63
482.31	19777.53
482.49	20240.95
482.67	20313.51
482.85	20341.60
483.03	20250.32
483.21	20889.28
483.39	21128.02
483.57	20840.13
483.74	21341.00
483.92	21561.02
484.10	21310.58
484.28	21905.07
484.46	22192.96
484.64	22239.77
484.82	22192.96
485.00	22443.40
485.18	22810.86
485.35	23047.26
485.53	22855.33
485.71	22747.67
485.89	23688.56
486.07	23491.96
486.25	23445.15
486.43	23454.51
486.61	24046.66
486.78	24161.35
486.96	24521.79
487.14	24783.93
487.32	24629.46
487.50	24856.49
487.68	25003.94
487.85	25399.49
488.03	25675.68
488.21	25692.06
488.39	26368.48
488.57	26132.08
488.75	26478.48
488.92	26593.17
489.10	26597.85
489.28	26962.97
489.46	26967.65
489.64	27147.87
489.81	27831.31
489.99	27859.40
490.17	27768.12
490.35	28507.72
490.53	28641.14
490.70	28402.40
490.88	28388.36
491.06	28849.44
491.24	29184.14
491.41	29268.40
491.59	29088.18
491.77	29748.21
491.95	29883.96
492.13	29942.47
492.30	30246.74
492.48	30230.36
492.66	30560.37
492.84	30429.30
493.01	30408.24
493.19	30731.23
493.37	31051.89
493.54	31126.78
493.72	31915.54
493.90	31868.73
494.08	31997.46
494.25	32098.11
494.43	32285.35
494.61	32474.93
494.79	32421.10
494.96	32547.49
495.14	32968.79
495.32	33247.31
495.49	33390.08
495.67	33020.28
495.85	33631.16
496.02	33909.68
496.20	34012.66
496.38	33961.17
496.55	34113.31
496.73	34948.88
496.91	34384.81
497.09	35185.27
497.26	35129.10
497.44	35093.99
497.62	35311.66
497.79	36177.66
497.97	35700.19
498.14	36011.48
498.32	36046.59
498.50	36683.22
498.67	36575.55
498.85	37158.34
499.03	37060.04
499.20	36549.81
499.38	37081.11
499.56	37181.75
499.73	37249.63
499.91	37816.04
500.08	37769.22
500.26	37406.44
500.44	37565.60
500.61	38199.88
500.79	37736.46
500.97	38726.50
501.14	38925.45
501.32	38766.29
501.49	38279.46
501.67	38993.32
501.84	38918.43
502.02	39082.27
502.20	39391.22
502.37	39508.24
502.55	39489.52
502.72	39452.07
502.90	39454.41
503.07	39697.83
503.25	40095.72
503.43	39992.73
503.60	40158.91
503.78	40680.85
503.95	40715.96
504.13	40343.81
504.30	40517.01
504.48	40353.18
504.65	40875.12
504.83	41518.76
505.01	41277.69
505.18	41481.31
505.36	41830.05
505.53	41172.36
505.71	41727.07
505.88	42026.66
506.06	41661.54
506.23	42230.29
506.41	42291.14
506.58	42068.79
506.76	42368.38
506.93	42705.41
507.11	42845.85
507.28	42696.05
507.46	42665.63
507.63	43049.47
507.81	43463.75
507.98	42899.68
508.16	43222.67
508.33	43543.33
508.50	43643.97
508.68	43475.45
508.85	44142.50
509.03	44039.52
509.20	44205.70
509.38	44481.88
509.55	44250.17
509.73	44591.89
509.90	44601.25
510.08	44891.48
510.25	44795.51
510.42	45422.78
510.60	45223.83
510.77	45315.11
510.95	45542.14
511.12	45282.34
511.30	45415.76
511.47	45265.96
511.64	45572.57
511.82	46167.07
511.99	45881.52
512.17	46167.07
512.34	46024.29
512.51	46710.07
512.69	46670.28
512.86	46576.66
513.04	46693.69
513.21	46553.26
513.38	47196.90
513.56	47388.83
513.73	46904.34
513.90	47098.60
514.08	47206.26
514.25	47491.81
514.43	47674.37
514.60	47744.59
514.77	47721.18
514.95	47845.23
515.12	48023.11
515.29	47955.24
515.47	48039.50
515.64	48374.19
515.81	48341.42
515.99	48458.45
516.16	48769.74
516.33	48435.05
516.51	49354.88
516.68	48776.76
516.85	48732.29
517.03	49191.04
517.20	49022.52
517.37	48631.65
517.54	48877.41
517.72	49127.84
517.89	49230.83
518.06	49109.12
518.24	49111.46
518.41	49275.30
518.58	49729.36
518.75	49488.29
518.93	50047.68
519.10	49518.71
519.27	49876.82
519.45	49830.01
519.62	50188.11
519.79	50157.68
519.96	50096.83
520.14	50363.65
520.31	50272.37
520.48	50873.88
520.65	50581.32
520.83	50958.14
521.00	51112.62
521.17	50483.01
521.34	50623.45
521.52	51054.11
521.69	50838.78
521.86	51182.84
522.03	51409.87
522.20	51309.22
522.38	51491.79
522.55	51526.89
522.72	51349.01
522.89	51416.89
523.07	51917.76
523.24	51594.77
523.41	52046.49
523.58	51494.13
523.75	52053.51
523.92	52107.35
524.10	52168.20
524.27	52137.77
524.44	52317.99
524.61	52374.17
524.78	52116.71
524.96	52430.34
525.13	52666.73
525.30	52554.39
525.47	52596.52
525.64	52371.83
525.81	52692.48
525.98	52935.90
526.16	52626.95
526.33	52893.77
526.50	53132.50
526.67	52741.63
526.84	53354.85
527.01	52849.30
527.18	53020.16
527.36	53071.65
527.53	53102.07
527.70	53675.51
527.87	53375.92
528.04	53076.33
528.21	53539.75
528.38	53588.91
528.55	53415.71
528.72	53483.58
528.89	53607.63
529.07	53656.78
529.24	53392.30
529.41	53883.81
529.58	53755.08
529.75	53701.25
529.92	53947.01
530.09	53970.41
530.26	53958.71
530.43	54351.92
530.60	53757.42
530.77	54049.99
530.94	54358.94
531.11	54066.38
531.28	54234.89
531.46	54426.82
531.63	54382.35
531.80	54302.77
531.97	54672.57
532.14	54611.72
532.31	54564.91
532.48	54937.05
532.65	54920.67
532.82	54536.82
532.99	54857.48
533.16	54529.80
533.33	54925.35
533.50	55121.96
533.67	55018.97
533.84	55154.72
534.01	54918.33
534.18	55058.76
534.35	55288.13
534.52	55093.87
534.69	55426.23
534.86	55437.93
535.03	55367.71
535.20	55334.95
535.37	55529.21
535.54	55552.62
535.71	55433.25
535.88	55674.32
536.05	55758.58
536.22	55416.86
536.38	55945.83
536.55	55707.09
536.72	55824.12
536.89	55625.17
537.06	55983.27
537.23	55903.70
537.40	55828.80
537.57	55899.01
537.74	55962.21
537.91	56308.61
538.08	56259.46
538.25	55791.35
538.42	56041.79
538.59	56200.94
538.75	55697.73
538.92	56261.80
539.09	56306.27
539.26	56261.80
539.43	56245.41
539.60	56278.18
539.77	56804.80
539.94	56619.90
540.11	56353.08
540.28	56502.87
540.44	56484.15
540.61	56453.72
540.78	56718.20
540.95	56605.86
541.12	56369.46
541.29	56542.66
541.46	56673.73
541.62	56743.95
541.79	56640.96
541.96	56594.15
542.13	56762.67
542.30	56594.15
542.47	56900.76
542.63	57125.46
542.80	57015.45
542.97	57193.33
543.14	57134.82
543.31	57352.49
543.48	57434.41
543.64	57490.58
543.81	57415.68
543.98	57357.17
544.15	57621.65
544.32	57577.18
544.48	57542.07
544.65	57408.66
544.82	57621.65
544.99	57403.98
545.16	57570.16
545.32	57588.88
545.49	57766.76
545.66	57883.79
545.83	57858.04
546.00	57822.93
546.16	57949.32
546.33	57471.85
546.50	57516.32
546.67	57939.96
546.83	57666.12
547.00	57916.56
547.17	57829.96
547.34	57979.75
547.50	58054.65
547.67	58300.40
547.84	57902.51
548.00	58225.51
548.17	58300.40
548.34	58101.46
548.51	58457.22
548.67	58370.62
548.84	58365.94
549.01	58358.92
549.18	58461.90
549.34	58258.27
549.51	58337.85
549.68	58269.98
549.84	58265.30
550.01	58754.47
550.18	58429.13
550.34	58515.73
550.51	58656.17
550.68	58464.24
550.84	58328.49
551.01	58721.70
551.18	58571.91
551.34	58614.04
551.51	58543.82
551.68	58681.91
551.84	58705.32
552.01	58475.94
552.18	59014.27
552.34	58644.46
552.51	58848.09
552.68	58670.21
552.84	58698.30
553.01	59185.13
553.18	59051.72
553.34	59037.67
553.51	58850.43
553.67	58780.21
553.84	59025.97
554.01	58946.39
554.17	59285.77
554.34	59058.74
554.51	59000.22
554.67	59051.72
554.84	59091.51
555.00	59044.69
555.17	59224.92
555.33	59058.74
555.50	58986.18
555.67	59037.67
555.83	59004.91
556.00	59234.28
556.16	59372.37
556.33	59531.53
556.50	59344.28
556.66	59456.63
556.83	59110.23
556.99	59686.00
557.16	59690.68
557.32	59428.54
557.49	59868.56
557.65	59629.83
557.82	59463.65
557.98	59447.27
558.15	59262.36
558.32	59671.96
558.48	59491.74
558.65	59505.78
558.81	59484.72
558.98	59774.94
559.14	59564.29
559.31	59629.83
559.47	59604.08
559.64	59838.14
559.80	60034.74
559.97	59877.93
560.13	59732.81
560.30	59716.43
560.46	59987.93
560.63	59969.21
560.79	59877.93
560.96	59994.95
561.12	60044.10
561.29	59948.14
561.45	60109.64
561.61	59838.14
561.78	59913.03
561.94	59941.12
562.11	59882.61
562.27	60004.31
562.44	60210.28
562.60	59962.18
562.77	59908.35
562.93	59948.14
563.10	60236.03
563.26	59945.80
563.42	60458.38
563.59	60137.72
563.75	60079.21
563.92	60250.07
564.08	60189.22
564.24	60261.77
564.41	60360.08
564.57	60343.69
564.74	60179.85
564.90	60296.88
565.07	60294.54
565.23	60147.09
565.39	60252.41
565.56	60226.66
565.72	60147.09
565.88	60463.06
566.05	60177.51
566.21	60224.32
566.38	60374.12
566.54	60514.55
566.70	60437.31
566.87	60509.87
567.03	60317.95
567.19	60568.38
567.36	60306.24
567.52	60378.80
567.68	60715.84
567.85	60519.23
568.01	60734.56
568.17	60350.71
568.34	60324.97
568.50	60329.65
568.66	60540.30
568.83	60657.32
568.99	60313.26
569.15	60425.61
569.32	60694.77
569.48	60364.76
569.64	60535.62
569.81	60427.95
569.97	60360.08
570.13	60612.85
570.30	60367.10
570.46	60683.07
570.62	60617.53
570.78	60760.31
570.95	60654.98
571.11	60760.31
571.27	60629.24
571.43	60757.97
571.60	60743.92
571.76	60566.04
571.92	60619.88
572.09	60776.69
572.25	60823.50
572.41	60711.16
572.57	60720.52
572.74	61003.72
572.90	60622.22
573.06	60896.06
573.22	60800.10
573.38	60650.30
573.55	60781.37
573.71	61024.79
573.87	60889.04
574.03	60645.62
574.20	60598.81
574.36	60910.10
574.52	60882.02
574.68	61132.45
574.84	60942.87
575.01	60870.31
575.17	60779.03
575.33	60746.26
575.49	60809.46
575.65	60704.13
575.82	60720.52
575.98	60985.00
576.14	60816.48
576.30	60924.14
576.46	60774.35
576.62	60699.45
576.79	60853.93
576.95	60760.31
577.11	60842.23
577.27	60963.93
577.43	60853.93
577.59	60931.17
577.75	60825.84
577.92	60877.33
578.08	60970.96
578.24	60956.91
578.40	61205.01
578.56	60996.70
578.72	61034.15
578.88	61102.03
579.04	61219.05
579.21	61123.09
579.37	61263.52
579.53	61113.73
579.69	60809.46
579.85	60828.18
580.01	60891.38
580.17	60914.78
580.33	61106.71
580.49	61183.94
580.65	61111.39
580.82	60968.61
580.98	61022.45
581.14	60905.42
581.30	61233.10
581.46	60797.76
581.62	61034.15
581.78	60849.25
581.94	61137.13
582.10	61045.85
582.26	61169.90
582.42	60938.19
582.58	60935.85
582.74	61078.62
582.90	61095.00
583.06	61092.66
583.22	60802.44
583.38	61038.83
583.54	61256.50
583.70	61092.66
583.86	61179.26
584.02	61034.15
584.18	61235.44
584.34	61193.31
584.50	61137.13
584.66	61022.45
584.82	60928.83
584.98	61207.35
585.14	61270.54
585.30	61064.58
585.46	61062.24
585.62	61209.69
585.78	61317.35
585.94	61015.43
586.10	61125.43
586.26	61296.29
586.42	61123.09
586.58	61104.37
586.74	61214.37
586.90	61043.51
587.06	60980.32
587.22	61329.06
587.38	61223.73
587.54	61300.97
587.70	61357.14
587.86	61153.52
588.02	61279.91
588.18	61284.59
588.34	61240.12
