SpectraSuite Data File
++++++++++++++++++++++++++++++++++++
Date: Fri Oct 25 11:34:48 EDT 2013
User: price-jones
Dark Spectrum Present: No
Reference Spectrum Present: No
Number of Sampled Component Spectra: 1
Spectrometers: USB2+H05261
Integration Time (usec): 100000 (USB2+H05261)
Spectra Averaged: 1 (USB2+H05261)
Boxcar Smoothing: 0 (USB2+H05261)
Correct for Electrical Dark: No (USB2+H05261)
Strobe/Lamp Enabled: No (USB2+H05261)
Correct for Detector Non-linearity: No (USB2+H05261)
Correct for Stray Light: No (USB2+H05261)
Number of Pixels in Processed Spectrum: 2048
>>>>>Begin Processed Spectral Data<<<<<
365.73	278.52
365.92	278.52
366.12	278.52
366.32	208.31
366.52	208.31
366.72	168.52
366.91	184.90
367.11	114.69
367.31	168.52
367.51	145.11
367.70	135.75
367.90	175.54
368.10	166.18
368.30	126.39
368.49	208.31
368.69	248.10
368.89	161.50
369.09	184.90
369.28	257.46
369.48	175.54
369.68	212.99
369.87	255.12
370.07	264.48
370.27	198.95
370.47	311.29
370.66	484.49
370.86	468.11
371.06	503.22
371.25	601.52
371.45	505.56
371.65	524.28
371.84	477.47
372.04	643.65
372.24	624.92
372.44	636.63
372.63	564.07
372.83	596.84
373.03	641.31
373.22	566.41
373.42	498.53
373.62	566.41
373.81	599.18
374.01	660.03
374.21	631.94
374.40	631.94
374.60	624.92
374.79	662.37
374.99	638.97
375.19	678.76
375.38	594.50
375.58	734.93
375.78	662.37
375.97	641.31
376.17	657.69
376.37	704.50
376.56	720.88
376.76	550.03
376.95	688.12
377.15	730.25
377.35	725.57
377.54	671.73
377.74	688.12
377.93	566.41
378.13	704.50
378.33	695.14
378.52	720.88
378.72	739.61
378.91	669.39
379.11	674.07
379.31	667.05
379.50	739.61
379.70	748.97
379.89	711.52
380.09	709.18
380.28	713.86
380.48	688.12
380.68	676.41
380.87	723.23
381.07	772.38
381.26	767.70
381.46	781.74
381.65	746.63
381.85	709.18
382.04	681.10
382.24	851.96
382.43	779.40
382.63	739.61
382.83	751.31
383.02	802.80
383.22	751.31
383.41	718.54
383.61	840.25
383.80	814.51
384.00	798.12
384.19	744.29
384.39	896.43
384.58	826.21
384.78	816.85
384.97	805.14
385.17	765.36
385.36	828.55
385.56	833.23
385.75	830.89
385.95	791.10
386.14	861.32
386.34	875.36
386.53	894.08
386.72	828.55
386.92	912.81
387.11	835.57
387.31	779.40
387.50	784.08
387.70	833.23
387.89	767.70
388.09	844.93
388.28	875.36
388.48	905.79
388.67	922.17
388.86	936.21
389.06	1001.75
389.25	896.43
389.45	931.53
389.64	835.57
389.84	983.02
390.03	849.61
390.22	889.40
390.42	964.30
390.61	894.08
390.81	889.40
391.00	999.41
391.19	994.73
391.39	887.06
391.58	978.34
391.78	973.66
391.97	1006.43
392.16	1034.52
392.36	1107.07
392.55	957.28
392.75	994.73
392.94	945.58
393.13	1015.79
393.33	1057.92
393.52	1006.43
393.71	1114.10
393.91	980.68
394.10	1121.12
394.29	1004.09
394.49	1015.79
394.68	1081.33
394.88	1018.13
395.07	1053.24
395.26	1109.41
395.46	1100.05
395.65	1116.44
395.84	1174.95
396.04	1163.25
396.23	1226.44
396.42	1128.14
396.62	1158.57
396.81	1275.59
397.00	1048.56
397.19	1231.12
397.39	1221.76
397.58	1193.67
397.77	1233.46
397.97	1221.76
398.16	1219.42
398.35	1205.38
398.55	1261.55
398.74	1291.98
398.93	1212.40
399.12	1294.32
399.32	1249.85
399.51	1228.78
399.70	1376.24
399.90	1345.81
400.09	1336.45
400.28	1315.38
400.47	1266.23
400.67	1359.85
400.86	1334.11
401.05	1345.81
401.24	1341.13
401.44	1418.36
401.63	1425.39
401.82	1355.17
402.01	1451.13
402.21	1416.02
402.40	1399.64
402.59	1427.73
402.78	1362.19
402.97	1355.17
403.17	1420.71
403.36	1432.41
403.55	1537.73
403.74	1497.94
403.93	1516.67
404.13	1474.54
404.32	1621.99
404.51	1509.65
404.70	1511.99
404.89	1575.18
405.09	1575.18
405.28	1664.12
405.47	1554.12
405.66	1605.61
405.85	1631.35
406.05	1631.35
406.24	1614.97
406.43	1657.10
406.62	1724.97
406.81	1734.34
407.00	1722.63
407.20	1654.76
407.39	1682.85
407.58	1764.76
407.77	1820.94
407.96	1706.25
408.15	1781.15
408.34	1867.75
408.54	1785.83
408.73	1816.26
408.92	1865.41
409.11	1783.49
409.30	1996.48
409.49	1926.26
409.68	1952.01
409.87	1902.86
410.07	1975.41
410.26	1956.69
410.45	1764.76
410.64	2047.97
410.83	2012.86
411.02	2010.52
411.21	2036.27
411.40	1952.01
411.59	2111.16
411.78	2127.55
411.98	2033.93
412.17	2193.08
412.36	2040.95
412.55	2148.61
412.74	2120.53
412.93	2195.42
413.12	2214.15
413.31	2375.64
413.50	2232.87
413.69	2310.11
413.88	2326.49
414.07	2296.07
414.26	2340.54
414.45	2359.26
414.64	2429.48
414.83	2509.05
415.02	2457.56
415.22	2392.03
415.41	2506.71
415.60	2445.86
415.79	2593.31
415.98	2672.89
416.17	2602.68
416.36	2509.05
416.55	2637.78
416.74	2663.53
416.93	2724.38
417.12	2642.46
417.31	2605.02
417.50	2731.41
417.69	2888.22
417.88	2796.94
418.07	2799.28
418.26	2686.94
418.45	2913.97
418.64	2916.31
418.83	2761.83
419.02	2925.67
419.21	3089.51
419.39	2995.89
419.58	2818.00
419.77	2822.69
419.96	3016.95
420.15	2993.55
420.34	3028.65
420.53	3026.31
420.72	2953.76
420.91	3056.74
421.10	3094.19
421.29	3068.44
421.48	3000.57
421.67	3126.96
421.86	3173.77
422.05	3096.53
422.24	3117.59
422.43	3103.55
422.61	3171.43
422.80	3201.85
422.99	3201.85
423.18	3194.83
423.37	3246.32
423.56	3204.19
423.75	3314.20
423.94	3234.62
424.13	2869.50
424.32	3084.83
424.50	3279.09
424.69	3314.20
424.88	3192.49
425.07	3192.49
425.26	3206.53
425.45	3286.11
425.64	3178.45
425.83	3248.66
426.01	3323.56
426.20	3269.73
426.39	3162.06
426.58	3335.26
426.77	3288.45
426.96	3321.22
427.15	3410.16
427.33	3405.48
427.52	3372.71
427.71	3468.67
427.90	3339.94
428.09	3412.50
428.28	3449.95
428.46	3566.98
428.65	3475.70
428.84	3609.11
429.03	3576.34
429.22	3349.31
429.40	3625.49
429.59	3559.95
429.78	3435.91
429.97	3356.33
430.16	3534.21
430.34	3578.68
430.53	3754.22
430.72	3740.18
430.91	3681.66
431.10	3669.96
431.28	3880.61
431.47	3803.37
431.66	3658.26
431.85	3761.24
432.03	3852.52
432.22	3796.35
432.41	3866.56
432.60	3948.48
432.79	3878.27
432.97	3889.97
433.16	3852.52
433.35	3737.84
433.54	3911.04
433.72	3969.55
433.91	4030.40
434.10	3913.38
434.28	3997.64
434.47	4021.04
434.66	3957.85
434.85	4035.08
435.03	3880.61
435.22	4002.32
435.41	4344.03
435.59	4142.75
435.78	4252.75
435.97	4224.67
436.16	4112.32
436.34	4187.22
436.53	4205.94
436.72	4339.35
436.90	4201.26
437.09	4332.33
437.28	4212.96
437.46	4285.52
437.65	4243.39
437.84	4397.87
438.02	4379.14
438.21	4444.68
438.40	4276.16
438.58	4503.19
438.77	4662.35
438.96	4472.76
439.14	4552.34
439.33	4571.07
439.52	4753.63
439.70	4620.22
439.89	4765.33
440.08	4821.50
440.26	4748.95
440.45	4655.33
440.63	4713.84
440.82	4891.72
441.01	4905.76
441.19	4896.40
441.38	4978.32
441.57	5125.77
441.75	4873.00
441.94	5020.45
442.12	5144.50
442.31	5158.54
442.50	5064.92
442.68	5046.20
442.87	5188.97
443.05	5193.65
443.24	5343.44
443.43	5247.48
443.61	5268.55
443.80	5516.64
443.98	5174.92
444.17	4950.23
444.35	5282.59
444.54	5280.25
444.73	5343.44
444.91	5336.42
445.10	5261.52
445.28	5221.74
445.47	5263.86
445.65	5315.36
445.84	5406.64
446.02	5322.38
446.21	5139.82
446.39	5308.34
446.58	5401.96
446.77	5497.92
446.95	5313.02
447.14	5586.86
447.32	5441.75
447.51	5392.59
447.69	5320.04
447.88	5366.85
448.06	5472.17
448.25	5408.98
448.43	5439.40
448.62	5521.32
448.80	5376.21
448.99	5528.35
449.17	5652.39
449.36	5528.35
449.54	5710.91
449.73	5694.52
449.91	5722.61
450.10	5778.78
450.28	5860.70
450.46	5734.31
450.65	5785.80
450.83	5696.86
451.02	5792.83
451.20	5764.74
451.39	5741.33
451.57	5860.70
451.76	5738.99
451.94	5849.00
452.13	5879.43
452.31	6045.60
452.49	5881.77
452.68	5977.73
452.86	5991.77
453.05	6101.78
453.23	6003.47
453.42	5991.77
453.60	5996.45
453.78	6090.07
453.97	6040.92
454.15	5994.11
454.34	5935.60
454.52	6183.70
454.70	6218.80
454.89	6026.88
455.07	6195.40
455.26	6221.14
455.44	6274.98
455.62	6347.53
455.81	6225.82
455.99	6375.62
456.17	6202.42
456.36	6282.00
456.54	6293.70
456.73	6370.94
456.91	6691.59
457.09	6473.92
457.28	6726.70
457.46	6583.93
457.64	6602.65
457.83	6684.57
458.01	6686.91
458.19	6630.74
458.38	6707.98
458.56	6810.96
458.74	6815.64
458.93	6726.70
459.11	6731.38
459.29	6644.78
459.48	7007.56
459.66	6895.22
459.84	6766.49
460.03	7117.57
460.21	6869.47
460.39	6892.88
460.57	7204.17
460.76	7049.69
460.94	6981.82
461.12	6956.07
461.31	7023.95
461.49	7157.36
461.67	7056.72
461.85	7368.01
462.04	7112.89
462.22	7363.33
462.40	7321.20
462.59	7222.89
462.77	7119.91
462.95	7253.32
463.13	7157.36
463.32	7330.56
463.50	7288.43
463.68	7468.65
463.86	7260.34
464.05	7325.88
464.23	7494.40
464.41	7386.73
464.59	7290.77
464.78	7712.07
464.96	7435.88
465.14	7276.73
465.32	7501.42
465.50	7754.19
465.69	7578.65
465.87	7676.96
466.05	7573.97
466.23	7758.88
466.41	7613.76
466.60	8025.70
466.78	7566.95
466.96	7735.47
467.14	7719.09
467.32	7850.16
467.51	8009.31
467.69	7625.47
467.87	7962.50
468.05	7988.25
468.23	7770.58
468.41	7978.89
468.60	8042.08
468.78	7962.50
468.96	8065.49
469.14	8107.62
469.32	8049.10
469.50	7960.16
469.69	7918.03
469.87	8231.66
470.05	8257.41
470.23	8224.64
470.41	8362.73
470.59	8133.36
470.77	8327.63
470.95	8400.18
471.14	8479.76
471.32	8299.54
471.50	8491.46
471.68	8578.06
471.86	8425.93
472.04	8650.62
472.22	8737.22
472.40	8514.87
472.58	8559.34
472.77	8695.09
472.95	8971.27
473.13	9165.54
473.31	8828.50
473.49	8758.28
473.67	8954.89
473.85	9043.83
474.03	8961.91
474.21	9156.18
474.39	9439.38
474.57	9268.52
474.75	9341.08
474.93	9348.10
475.12	9444.06
475.30	9593.86
475.48	9364.48
475.66	9430.02
475.84	9369.16
476.02	9776.42
476.20	9460.45
476.38	9813.87
476.56	9928.55
476.74	9940.26
476.92	9888.76
477.10	9853.66
477.28	10143.88
477.46	10211.76
477.64	10335.81
477.82	10310.06
478.00	10719.65
478.18	10190.69
478.36	10469.22
478.54	10576.88
478.72	10752.42
478.90	10801.57
479.08	11094.14
479.26	10939.66
479.44	10815.62
479.62	11145.63
479.80	11145.63
479.98	11162.01
480.16	11335.21
480.34	11414.79
480.52	11660.55
480.70	11316.49
480.88	11442.88
481.06	11634.80
481.24	11779.92
481.41	11768.21
481.59	11719.06
481.77	12004.61
481.95	12166.10
482.13	12131.00
482.31	12058.44
482.49	12355.69
482.67	12517.18
482.85	12744.22
483.03	12765.28
483.21	12748.90
483.39	12987.63
483.57	12690.38
483.74	13205.30
483.92	13041.46
484.10	13074.23
484.28	13422.97
484.46	13731.92
484.64	13685.11
484.82	13476.80
485.00	13834.91
485.18	14057.26
485.35	14281.95
485.53	13912.14
485.71	14328.76
485.89	14469.19
486.07	14459.83
486.25	14338.12
486.43	14754.74
486.61	14670.48
486.78	14888.15
486.96	14876.44
487.14	15002.83
487.32	15173.69
487.50	15014.54
487.68	15492.01
487.85	15583.29
488.03	15466.26
488.21	15829.04
488.39	16135.65
488.57	15936.71
488.75	16093.52
488.92	16170.76
489.10	16676.32
489.28	16524.18
489.46	16779.30
489.64	16748.87
489.81	16931.44
489.99	17069.53
490.17	17083.57
490.35	17195.92
490.53	17481.46
490.70	17397.20
490.88	17390.18
491.06	17511.89
491.24	17706.15
491.41	17778.71
491.59	17926.16
491.77	17514.23
491.95	17912.12
492.13	18504.28
492.30	18546.40
492.48	18515.98
492.66	18710.24
492.84	18572.15
493.01	19159.63
493.19	19005.15
493.37	18773.44
493.54	19349.21
493.72	19548.15
493.90	19278.99
494.08	19826.68
494.25	19672.20
494.43	19730.72
494.61	19866.47
494.79	19758.80
494.96	19723.69
495.14	19934.34
495.32	20280.74
495.49	20688.00
495.67	20229.25
495.85	20428.20
496.02	20772.25
496.20	20877.58
496.38	21151.42
496.55	20957.16
496.73	21558.67
496.91	21392.50
497.09	21018.01
497.26	21092.91
497.44	21263.77
497.62	21687.40
497.79	21893.37
497.97	21898.05
498.14	22143.81
498.32	22342.75
498.50	22419.99
498.67	22635.32
498.85	22352.12
499.03	22838.95
499.20	22721.92
499.38	22614.26
499.56	22810.86
499.73	23014.49
499.91	23058.96
500.08	23295.35
500.26	23005.13
500.44	23126.83
500.61	23051.94
500.79	23346.84
500.97	23454.51
501.14	23800.91
501.32	23976.45
501.49	23669.84
501.67	23889.85
501.84	23927.30
502.02	23964.75
502.20	23943.68
502.37	24224.54
502.55	23908.57
502.72	24123.90
502.90	24690.31
503.07	24159.01
503.25	24402.43
503.43	24641.16
503.60	24943.09
503.78	24999.26
503.95	24755.85
504.13	24968.84
504.30	25041.39
504.48	25317.57
504.65	24947.77
504.83	25448.64
505.01	25542.27
505.18	25280.13
505.36	25668.66
505.53	25411.20
505.71	25813.77
505.88	25661.63
506.06	25500.14
506.23	25413.54
506.41	25656.95
506.58	25876.96
506.76	26424.65
506.93	26333.37
507.11	25888.67
507.28	26169.53
507.46	26403.58
507.63	26387.20
507.81	26827.22
507.98	26260.81
508.16	26642.32
508.33	26874.03
508.50	26778.07
508.68	26721.90
508.85	26890.41
509.03	26988.72
509.20	27234.47
509.38	27393.63
509.55	27342.14
509.73	27524.70
509.90	27566.83
510.08	27751.73
510.25	27435.76
510.42	27789.18
510.60	27618.32
510.77	27758.75
510.95	28500.70
511.12	28053.66
511.30	27679.18
511.47	27723.65
511.64	28203.46
511.82	28507.72
511.99	28343.89
512.17	28657.52
512.34	28374.31
512.51	28699.65
512.69	29024.98
512.86	28809.65
513.04	29032.00
513.21	28926.68
513.38	28655.18
513.56	29322.23
513.73	28521.77
513.90	29390.11
514.08	29057.75
514.25	29432.24
514.43	29755.23
514.60	29364.36
514.77	29600.76
514.95	29830.13
515.12	29677.99
515.29	29757.57
515.47	29977.58
515.64	30302.92
515.81	29926.09
515.99	30141.42
516.16	30258.45
516.33	30136.74
516.51	30279.51
516.68	30312.28
516.85	30403.56
517.03	30663.36
517.20	30637.61
517.37	30642.29
517.54	30803.79
517.72	31159.55
517.89	30719.53
518.06	30885.71
518.24	31005.08
518.41	30780.39
518.58	31164.23
518.75	30796.77
518.93	30845.92
519.10	31314.03
519.27	31428.71
519.45	31070.61
519.62	31644.04
519.79	31721.28
519.96	31672.13
520.14	31709.58
520.31	31550.42
520.48	32119.17
520.65	31545.74
520.83	32498.34
521.00	32268.97
521.17	32402.38
521.34	31854.69
521.52	32601.32
521.69	32266.63
521.86	32381.31
522.03	32683.24
522.20	32699.62
522.38	32996.87
522.55	32926.66
522.72	32699.62
522.89	33113.90
523.07	33134.96
523.24	33188.80
523.41	33088.15
523.58	32996.87
523.75	33383.06
523.92	33041.34
524.10	33280.08
524.27	32985.17
524.44	33717.76
524.61	33324.55
524.78	33472.00
524.96	33778.61
525.13	33617.11
525.30	33766.91
525.47	34162.46
525.64	33848.83
525.81	33940.11
525.98	34000.96
526.16	33940.11
526.33	33954.15
526.50	34223.31
526.67	34059.48
526.84	34164.80
527.01	34125.01
527.18	34239.70
527.36	34485.45
527.53	34628.23
527.70	34871.64
527.87	34885.68
528.04	34941.86
528.21	34600.14
528.38	34487.79
528.55	35192.30
528.72	34635.25
528.89	35236.77
529.07	34635.25
529.24	34951.22
529.41	35196.98
529.58	35054.20
529.75	35068.25
529.92	35466.14
530.09	34962.92
530.26	35445.07
530.43	35522.31
530.60	35442.73
530.77	35299.96
530.94	35786.79
531.11	35372.52
531.28	35620.61
531.46	35686.15
531.63	35618.27
531.80	35880.41
531.97	35878.07
532.14	35969.35
532.31	35957.65
532.48	36517.04
532.65	35880.41
532.82	35924.88
532.99	36257.24
533.16	36278.30
533.33	36282.98
533.50	36526.40
533.67	36163.62
533.84	35992.76
534.01	36264.26
534.18	36325.11
534.35	36985.15
534.52	36985.15
534.69	36985.15
534.86	36767.48
535.03	37085.79
535.20	36957.06
535.37	37085.79
535.54	36924.29
535.71	36884.50
535.88	36807.26
536.05	37371.33
536.22	37027.28
536.38	37006.21
536.55	37060.04
536.72	37240.26
536.89	36999.19
537.06	37151.32
537.23	37308.14
537.40	37336.23
537.57	37092.81
537.74	37518.79
537.91	37867.53
538.08	37581.98
538.25	37359.63
538.42	37717.73
538.59	37787.95
538.75	37921.36
538.92	37972.85
539.09	37944.76
539.26	38150.73
539.43	37680.28
539.60	37706.03
539.77	37846.46
539.94	38476.07
540.11	38192.86
540.28	38375.42
540.44	38199.88
540.61	37893.27
540.78	38623.52
540.95	38291.16
541.12	38209.25
541.29	38251.38
541.46	38120.31
541.62	38607.14
541.79	38712.46
541.96	38181.16
542.13	38728.84
542.30	38682.03
542.47	38557.99
542.63	39248.44
542.80	38920.77
542.97	39358.45
543.14	39489.52
543.31	39241.42
543.48	38848.21
543.64	39365.47
543.81	39548.03
543.98	39222.70
544.15	39388.88
544.32	39431.01
544.48	39842.94
544.65	39651.02
544.82	39758.68
544.99	39445.05
545.16	39838.26
545.32	39379.51
545.49	39868.69
545.66	40407.01
545.83	40142.53
546.00	39992.73
546.16	39990.39
546.33	39885.07
546.50	39775.06
546.67	39847.62
546.83	39856.98
547.00	39828.90
547.17	39601.86
547.34	40341.47
547.50	40168.27
547.67	40491.27
547.84	40196.36
548.00	40147.21
548.17	40889.16
548.34	40655.11
548.51	40669.15
548.67	40378.92
548.84	40289.98
549.01	40524.04
549.18	40313.39
549.34	40999.16
549.51	40837.67
549.68	40804.90
549.84	40877.46
550.01	40989.80
550.18	40547.44
550.34	40767.45
550.51	40868.09
550.68	41081.08
550.84	40687.87
551.01	40924.27
551.18	40900.86
551.34	40832.99
551.51	41069.38
551.68	41205.13
551.84	41099.81
552.01	41212.15
552.18	41036.61
552.34	40832.99
552.51	41254.28
552.68	41006.19
552.84	41420.46
553.01	41383.01
553.18	40758.09
553.34	41296.41
553.51	41254.28
553.67	41968.15
553.84	41663.88
554.01	41579.62
554.17	41621.75
554.34	42164.75
554.51	41500.04
554.67	41457.91
554.84	41600.68
555.00	41977.51
555.17	41549.19
555.33	42054.75
555.50	41596.00
555.67	42071.13
555.83	41827.71
556.00	41860.48
556.16	42169.43
556.33	42302.84
556.50	42117.94
556.66	41951.76
556.83	42106.24
556.99	42698.39
557.16	42237.31
557.32	42293.48
557.49	42497.11
557.65	42141.35
557.82	42590.73
557.98	42263.05
558.15	42045.38
558.32	42527.53
558.48	42363.70
558.65	42419.87
558.81	42377.74
558.98	42267.73
559.14	42300.50
559.31	42522.85
559.47	42939.47
559.64	42597.75
559.80	42703.07
559.97	42623.50
560.13	42593.07
560.30	42359.02
560.46	42990.96
560.63	42756.91
560.79	42948.83
560.96	42784.99
561.12	42895.00
561.29	42967.55
561.45	43232.04
561.61	43236.72
561.78	42913.72
561.94	43166.50
562.11	43164.16
562.27	43079.90
562.44	43161.82
562.60	43412.26
562.77	42932.45
562.93	43047.13
563.10	43194.59
563.26	43473.11
563.42	43571.41
563.59	42899.68
563.75	42656.26
563.92	42958.19
564.08	42974.58
564.24	43454.39
564.41	43452.05
564.57	43452.05
564.74	43323.32
564.90	43351.40
565.07	43330.34
565.23	43147.78
565.39	43580.78
565.56	43110.33
565.72	43007.34
565.88	43447.36
566.05	43405.23
566.21	43391.19
566.38	43215.65
566.54	43356.08
566.70	43604.18
566.87	43269.48
567.03	43510.56
567.19	43484.81
567.36	43826.53
567.52	43585.46
567.68	44102.71
567.85	43749.29
568.01	43992.71
568.17	43213.31
568.34	43866.32
568.50	43859.30
568.66	43313.95
568.83	43749.29
568.99	43814.83
569.15	43770.36
569.32	43868.66
569.48	43459.07
569.64	44039.52
569.81	44046.54
569.97	44004.41
570.13	43999.73
570.30	43716.53
570.46	43456.73
570.62	43641.63
570.78	43658.01
570.95	43878.02
571.11	44268.89
571.27	43880.36
571.43	44107.40
571.60	44072.29
571.76	44158.89
571.92	43863.98
572.09	44002.07
572.25	43662.69
572.41	43901.43
572.57	43569.07
572.74	44098.03
572.90	44051.22
573.06	44435.07
573.22	43674.40
573.38	44465.50
573.55	44053.56
573.71	44311.02
573.87	44439.75
574.03	43938.88
574.20	44294.64
574.36	44231.44
574.52	44460.82
574.68	44289.96
574.84	44781.47
575.01	43985.69
575.17	44535.71
575.33	44596.57
575.49	44184.63
575.65	44313.36
575.82	44659.76
575.98	44009.09
576.14	44479.54
576.30	44968.71
576.46	44119.10
576.62	44306.34
576.79	44163.57
576.95	44067.61
577.11	44306.34
577.27	44278.25
577.43	44182.29
577.59	44224.42
577.75	44144.84
577.92	43894.41
578.08	44121.44
578.24	44081.65
578.40	44751.04
578.56	44545.08
578.72	44582.52
578.88	44374.22
579.04	44472.52
579.21	43964.62
579.37	44624.65
579.53	44418.69
579.69	44231.44
579.85	44299.32
580.01	44430.39
580.17	44315.70
580.33	44547.42
580.49	44406.98
580.65	44645.72
580.82	44500.61
580.98	44027.82
581.14	44561.46
581.30	44942.97
581.46	44306.34
581.62	44072.29
581.78	44406.98
581.94	44364.85
582.10	44308.68
582.26	44678.49
582.42	44779.13
582.58	44048.88
582.74	43910.79
582.90	44788.49
583.06	44505.29
583.22	44477.20
583.38	44839.98
583.54	44741.68
583.70	43873.34
583.86	45059.99
584.02	44505.29
584.18	44903.18
584.34	44666.78
584.50	45139.57
584.66	44924.24
584.82	44554.44
584.98	44722.96
585.14	44446.77
585.30	44629.34
585.46	44619.97
585.62	44502.95
585.78	44786.15
585.94	44037.18
586.10	44612.95
586.26	44392.94
586.42	44774.45
586.58	44938.29
586.74	44753.38
586.90	44245.49
587.06	44708.91
587.22	44769.77
587.38	44760.40
587.54	44622.31
587.70	44975.73
587.86	44371.88
588.02	44809.56
588.18	44126.12
588.34	44575.50
588.49	45038.93
588.65	44364.85
588.81	44727.64
588.97	44711.25
589.13	44961.69
589.29	44545.08
589.45	45174.68
589.61	44741.68
589.77	44816.58
589.93	44804.88
590.08	45162.98
590.24	44907.86
