SpectraSuite Data File
++++++++++++++++++++++++++++++++++++
Date: Fri Oct 25 11:25:42 EDT 2013
User: price-jones
Dark Spectrum Present: No
Reference Spectrum Present: No
Number of Sampled Component Spectra: 1
Spectrometers: USB2+H05261
Integration Time (usec): 100000 (USB2+H05261)
Spectra Averaged: 1 (USB2+H05261)
Boxcar Smoothing: 0 (USB2+H05261)
Correct for Electrical Dark: No (USB2+H05261)
Strobe/Lamp Enabled: No (USB2+H05261)
Correct for Detector Non-linearity: No (USB2+H05261)
Correct for Stray Light: No (USB2+H05261)
Number of Pixels in Processed Spectrum: 2048
>>>>>Begin Processed Spectral Data<<<<<
365.73	217.67
365.92	217.67
366.12	217.67
366.32	124.05
366.52	126.39
366.72	194.26
366.91	124.05
367.11	121.71
367.31	93.62
367.51	126.39
367.70	163.84
367.90	161.50
368.10	124.05
368.30	189.58
368.49	140.43
368.69	110.01
368.89	156.82
369.09	163.84
369.28	175.54
369.48	166.18
369.68	170.86
369.87	234.05
370.07	229.37
370.27	212.99
370.47	327.68
370.66	557.05
370.86	608.54
371.06	660.03
371.25	723.23
371.45	568.75
371.65	636.63
371.84	667.05
372.04	713.86
372.24	690.46
372.44	720.88
372.63	763.01
372.83	788.76
373.03	681.10
373.22	716.20
373.42	807.48
373.62	763.01
373.81	830.89
374.01	877.70
374.21	727.91
374.40	842.59
374.60	910.47
374.79	837.91
374.99	821.53
375.19	880.04
375.38	798.12
375.58	849.61
375.78	854.30
375.97	894.08
376.17	851.96
376.37	844.93
376.56	887.06
376.76	802.80
376.95	777.06
377.15	929.19
377.35	912.81
377.54	835.57
377.74	851.96
377.93	912.81
378.13	882.38
378.33	924.51
378.52	851.96
378.72	901.11
378.91	947.92
379.11	929.19
379.31	980.68
379.50	964.30
379.70	1001.75
379.89	1015.79
380.09	933.87
380.28	1018.13
380.48	1022.81
380.68	1055.58
380.87	1039.20
381.07	1027.50
381.26	997.07
381.46	1086.01
381.65	1053.24
381.85	1029.84
382.04	985.37
382.24	1055.58
382.43	1036.86
382.63	1064.94
382.83	997.07
383.02	1137.50
383.22	1130.48
383.41	1088.35
383.61	1135.16
383.80	1057.92
384.00	1074.31
384.19	1144.52
384.39	1212.40
384.58	1144.52
384.78	1102.39
384.97	1123.46
385.17	1137.50
385.36	1086.01
385.56	1123.46
385.75	1198.35
385.95	1153.88
386.14	1207.72
386.34	1158.57
386.53	1144.52
386.72	1184.31
386.92	1203.04
387.11	1221.76
387.31	1233.46
387.50	1228.78
387.70	1294.32
387.89	1313.04
388.09	1259.21
388.28	1296.66
388.48	1315.38
388.67	1334.11
388.86	1240.48
389.06	1378.58
389.25	1289.64
389.45	1390.28
389.64	1263.89
389.84	1352.83
390.03	1364.53
390.22	1310.70
390.42	1324.74
390.61	1409.00
390.81	1390.28
391.00	1437.09
391.19	1401.98
391.39	1404.32
391.58	1439.43
391.78	1453.47
391.97	1540.07
392.16	1540.07
392.36	1607.95
392.55	1563.48
392.75	1523.69
392.94	1523.69
393.13	1511.99
393.33	1530.71
393.52	1547.09
393.71	1678.16
393.91	1610.29
394.10	1521.35
394.29	1577.52
394.49	1540.07
394.68	1666.46
394.88	1619.65
395.07	1645.40
395.26	1689.87
395.46	1661.78
395.65	1806.89
395.84	1638.38
396.04	1769.44
396.23	1799.87
396.42	1645.40
396.62	1781.15
396.81	1708.59
397.00	1790.51
397.19	1825.62
397.39	1823.28
397.58	1818.60
397.77	1760.08
397.97	1781.15
398.16	1863.07
398.35	1973.07
398.55	1898.17
398.74	1818.60
398.93	1952.01
399.12	1863.07
399.32	1839.66
399.51	1928.60
399.70	2062.01
399.90	1966.05
400.09	2054.99
400.28	2052.65
400.47	2069.03
400.67	2038.61
400.86	2087.76
401.05	2204.78
401.24	2092.44
401.44	2047.97
401.63	2064.35
401.82	2087.76
402.01	2125.21
402.21	2148.61
402.40	2186.06
402.59	2148.61
402.78	2225.85
402.97	2258.62
403.17	2207.13
403.36	2265.64
403.55	2335.85
403.74	2347.56
403.93	2452.88
404.13	2349.90
404.32	2370.96
404.51	2345.22
404.70	2361.60
404.89	2368.62
405.09	2471.61
405.28	2389.69
405.47	2457.56
405.66	2509.05
405.85	2429.48
406.05	2502.03
406.24	2504.37
406.43	2532.46
406.62	2539.48
406.81	2658.85
407.00	2555.86
407.20	2642.46
407.39	2635.44
407.58	2686.94
407.77	2759.49
407.96	2663.53
408.15	2822.69
408.34	2717.36
408.54	2918.65
408.73	2780.56
408.92	2890.56
409.11	2789.92
409.30	2874.18
409.49	2883.54
409.68	2850.77
409.87	2956.10
410.07	2960.78
410.26	3007.59
410.45	3002.91
410.64	3007.59
410.83	2991.20
411.02	3152.70
411.21	3007.59
411.40	3258.03
411.59	3166.74
411.78	3180.79
411.98	3089.51
412.17	3213.56
412.36	3304.84
412.55	3400.80
412.74	3363.35
412.93	3531.87
413.12	3358.67
413.31	3375.05
413.50	3412.50
413.69	3456.97
413.88	3513.14
414.07	3658.26
414.26	3604.42
414.45	3592.72
414.64	3569.32
414.83	3765.92
415.02	3801.03
415.22	3934.44
415.41	3751.88
415.60	3840.82
415.79	3707.41
415.98	3784.65
416.17	3983.59
416.36	4028.06
416.55	3899.33
416.74	4044.45
416.93	3946.14
417.12	4133.39
417.31	4105.30
417.50	4201.26
417.69	4304.25
417.88	4196.58
418.07	4236.37
418.26	4098.28
418.45	4432.97
418.64	4540.64
418.83	4285.52
419.02	4440.00
419.21	4463.40
419.39	4528.94
419.58	4411.91
419.77	4465.74
419.96	4472.76
420.15	4561.70
420.34	4648.30
420.53	4496.17
420.72	4671.71
420.91	4720.86
421.10	4634.26
421.29	4718.52
421.48	4566.39
421.67	4755.97
421.86	4559.36
422.05	4800.44
422.24	4688.09
422.43	4805.12
422.61	4746.61
422.80	5046.20
422.99	4961.94
423.18	4929.17
423.37	5022.79
423.56	4915.12
423.75	4840.23
423.94	4847.25
424.13	4636.60
424.32	4744.27
424.50	4908.10
424.69	5095.35
424.88	4985.34
425.07	4868.31
425.26	4922.15
425.45	4950.23
425.64	4915.12
425.83	4858.95
426.01	5170.24
426.20	4966.62
426.39	4908.10
426.58	5074.28
426.77	4943.21
426.96	5151.52
427.15	5224.08
427.33	5177.26
427.52	5064.92
427.71	5305.99
427.90	5259.18
428.09	5343.44
428.28	5214.71
428.46	5284.93
428.65	5352.81
428.84	5434.72
429.03	5462.81
429.22	5221.74
429.40	5359.83
429.59	5582.18
429.78	5455.79
429.97	5151.52
430.16	5303.65
430.34	5523.66
430.53	5612.60
430.72	5537.71
430.91	5441.75
431.10	5504.94
431.28	5673.46
431.47	5830.27
431.66	5708.57
431.85	5841.98
432.03	5860.70
432.22	5963.68
432.41	5923.90
432.60	5856.02
432.79	5996.45
432.97	5895.81
433.16	6146.25
433.35	5863.04
433.54	6031.56
433.72	6113.48
433.91	6132.20
434.10	6225.82
434.28	6127.52
434.47	6300.72
434.66	6066.67
434.85	6338.17
435.03	6342.85
435.22	6108.80
435.41	6389.66
435.59	6483.28
435.78	6345.19
435.97	6370.94
436.16	6480.94
436.34	6452.86
436.53	6326.47
436.72	6490.31
436.90	6403.71
437.09	6448.18
437.28	6497.33
437.46	6516.05
437.65	6492.65
437.84	6677.55
438.02	6672.87
438.21	6743.08
438.40	6719.68
438.58	6906.92
438.77	7056.72
438.96	6871.81
439.14	7014.59
439.33	7164.38
439.52	7204.17
439.70	7295.45
439.89	7424.18
440.08	7281.41
440.26	7440.56
440.45	7279.07
440.63	7389.07
440.82	7555.25
441.01	7426.52
441.19	7805.69
441.38	7482.69
441.57	7588.02
441.75	7707.38
441.94	7894.63
442.12	7786.96
442.31	7918.03
442.50	7896.97
442.68	7878.24
442.87	7833.77
443.05	7943.78
443.24	8116.98
443.43	8140.38
443.61	7995.27
443.80	8358.05
443.98	8032.72
444.17	7723.77
444.35	8163.79
444.54	8404.86
444.73	8196.56
444.91	8224.64
445.10	8201.24
445.28	8248.05
445.47	8205.92
445.65	8557.00
445.84	8177.83
446.02	8482.10
446.21	8283.16
446.39	8540.61
446.58	8470.40
446.77	8402.52
446.95	8271.45
447.14	8456.36
447.32	8454.02
447.51	8381.46
447.69	8355.71
447.88	8542.96
448.06	8348.69
448.25	8505.51
448.43	8430.61
448.62	8383.80
448.80	8425.93
448.99	8617.85
449.17	8884.67
449.36	8526.57
449.54	8786.37
449.73	8814.46
449.91	9022.77
450.10	8847.22
450.28	9046.17
450.46	8987.66
450.65	8938.51
450.83	8924.46
451.02	8898.72
451.20	9233.41
451.39	8950.21
451.57	9179.58
451.76	9177.24
451.94	9158.52
452.13	9329.38
452.31	9219.37
452.49	9128.09
452.68	9345.76
452.86	9247.46
453.05	9329.38
453.23	9521.30
453.42	9458.10
453.60	9200.65
453.78	9364.48
453.97	9596.20
454.15	9298.95
454.34	9371.50
454.52	9593.86
454.70	9535.34
454.89	9614.92
455.07	9654.71
455.26	9741.31
455.44	9628.96
455.62	9696.84
455.81	10045.58
455.99	9951.96
456.17	10036.22
456.36	9797.48
456.54	10076.01
456.73	10108.77
456.91	10207.08
457.09	10513.69
457.28	10513.69
457.46	10223.46
457.64	10464.54
457.83	10415.38
458.01	10146.22
458.19	10682.20
458.38	10623.69
458.56	10597.95
458.74	10661.14
458.93	10574.54
459.11	10560.50
459.29	10754.76
459.48	10567.52
459.66	10595.61
459.84	10871.79
460.03	11143.29
460.21	10925.62
460.39	10719.65
460.57	11063.71
460.76	11005.20
460.94	11026.26
461.12	11229.89
461.31	11154.99
461.49	11110.52
461.67	11197.12
461.85	11356.28
462.04	11325.85
462.22	11693.32
462.40	11595.01
462.59	11449.90
462.77	11520.12
462.95	11461.60
463.13	11520.12
463.32	11445.22
463.50	11761.19
463.68	11674.59
463.86	11763.53
464.05	11723.74
464.23	11709.70
464.41	11805.66
464.59	11669.91
464.78	11981.20
464.96	12187.17
465.14	11653.53
465.32	11875.88
465.50	11929.71
465.69	12004.61
465.87	12032.69
466.05	12138.02
466.23	12056.10
466.41	12121.63
466.60	12086.53
466.78	12257.39
466.96	12334.62
467.14	12241.00
467.32	12365.05
467.51	12086.53
467.69	12189.51
467.87	12402.50
468.05	12358.03
468.23	12463.35
468.41	12463.35
468.60	12351.01
468.78	12751.24
468.96	12500.80
469.14	12823.80
469.32	12868.27
469.50	12629.53
469.69	13060.19
469.87	13076.57
470.05	12744.22
470.23	13153.81
470.41	12999.34
470.59	13195.94
470.77	13121.04
470.95	13102.32
471.14	13437.02
471.32	13151.47
471.50	13437.02
471.68	13366.80
471.86	13760.01
472.04	13804.48
472.22	14111.09
472.40	13458.08
472.58	13713.20
472.77	13921.51
472.95	14015.13
473.13	14307.69
473.31	13930.87
473.49	14115.77
473.67	14146.20
473.85	14235.14
474.03	14368.55
474.21	14452.81
474.39	14637.71
474.57	14537.07
474.75	14883.47
474.93	14691.54
475.12	14831.97
475.30	15389.02
475.48	14831.97
475.66	14970.07
475.84	15030.92
476.02	15225.18
476.20	15094.11
476.38	15580.95
476.56	15840.75
476.74	15791.59
476.92	15651.16
477.10	15543.50
477.28	15850.11
477.46	16229.27
477.64	16217.57
477.82	16035.01
478.00	16851.86
478.18	16702.06
478.36	16781.64
478.54	16854.20
478.72	17055.48
478.90	17144.42
479.08	17476.78
479.26	17479.12
479.44	17554.02
479.62	18059.57
479.80	17832.54
479.98	17937.87
480.16	18324.05
480.34	18066.60
480.52	18562.79
480.70	18394.27
480.88	18073.62
481.06	18820.25
481.24	18532.36
481.41	19005.15
481.59	19456.87
481.77	19309.42
481.95	19499.00
482.13	19459.21
482.31	19576.24
482.49	20400.11
482.67	19941.36
482.85	20313.51
483.03	20411.81
483.21	20458.62
483.39	20802.68
483.57	20758.21
483.74	21341.00
483.92	21263.77
484.10	21092.91
484.28	21734.21
484.46	21734.21
484.64	22148.49
484.82	22036.14
485.00	22169.55
485.18	22754.69
485.35	22845.97
485.53	22808.52
485.71	22874.06
485.89	23632.39
486.07	23002.78
486.25	23051.94
486.43	23470.89
486.61	23580.90
486.78	23857.08
486.96	24011.56
487.14	24142.63
487.32	24219.86
487.50	24790.95
487.68	24884.58
487.85	24781.59
488.03	25127.99
488.21	25397.15
488.39	25675.68
488.57	25799.73
488.75	25860.58
488.92	26118.04
489.10	26368.48
489.28	26684.45
489.46	26787.43
489.64	26824.88
489.81	27227.45
489.99	27271.92
490.17	27246.18
490.35	27913.23
490.53	28102.81
490.70	28142.60
490.88	27990.47
491.06	28601.35
491.24	28629.43
491.41	28851.78
491.59	29259.04
491.77	29249.67
491.95	29420.53
492.13	29689.70
492.30	30038.44
492.48	29598.41
492.66	30087.59
492.84	29972.90
493.01	30202.27
493.19	30574.42
493.37	30693.79
493.54	30874.01
493.72	31445.10
493.90	31239.13
494.08	31470.84
494.25	31817.24
494.43	31894.48
494.61	32187.05
494.79	32666.86
494.96	32060.66
495.14	32521.74
495.32	33191.14
495.49	33221.56
495.67	32488.98
495.85	33249.65
496.02	33259.01
496.20	33919.04
496.38	34251.40
496.55	33813.72
496.73	34555.67
496.91	34642.27
497.09	34487.79
497.26	34892.71
497.44	34904.41
497.62	35159.53
497.79	35721.26
497.97	35227.40
498.14	35931.90
498.32	35885.09
498.50	35931.90
498.67	36177.66
498.85	36374.27
499.03	36662.15
499.20	36446.82
499.38	36591.94
499.56	36804.92
499.73	37139.62
499.91	36669.17
500.08	37584.32
500.26	37453.25
500.44	37331.54
500.61	37287.07
500.79	37305.80
500.97	37713.05
501.14	38272.44
501.32	38410.53
501.49	38398.83
501.67	38775.66
501.84	39391.22
502.02	38520.54
502.20	39112.69
502.37	38625.86
502.55	39138.44
502.72	39028.43
502.90	39405.26
503.07	38911.41
503.25	39641.65
503.43	39672.08
503.60	39360.79
503.78	39852.30
503.95	39941.24
504.13	40306.37
504.30	40395.31
504.48	40528.72
504.65	40357.86
504.83	40746.39
505.01	40907.88
505.18	40924.27
505.36	41612.38
505.53	41373.65
505.71	41235.56
505.88	41486.00
506.06	40973.42
506.23	42047.72
506.41	41717.71
506.58	41858.14
506.76	41778.56
506.93	42120.28
507.11	42040.70
507.28	42387.10
507.46	42429.23
507.63	42260.71
507.81	42880.95
507.98	42663.28
508.16	42810.74
508.33	43061.18
508.50	43292.89
508.68	43164.16
508.85	43627.59
509.03	43739.93
509.20	43835.89
509.38	44130.80
509.55	44058.24
509.73	44388.26
509.90	44514.65
510.08	44603.59
510.25	44362.51
510.42	44458.48
510.60	44832.96
510.77	44849.35
510.95	45118.51
511.12	44634.02
511.30	44989.78
511.47	45015.52
511.64	45249.58
511.82	45329.16
511.99	45230.85
512.17	45492.99
512.34	45544.48
512.51	46113.23
512.69	46129.62
512.86	45640.45
513.04	46160.05
513.21	46433.89
513.38	46129.62
513.56	46850.50
513.73	46436.23
513.90	46635.17
514.08	46232.60
514.25	46927.74
514.43	47365.42
514.60	46843.48
514.77	47393.51
514.95	47547.98
515.12	47227.33
515.29	47311.59
515.47	47838.21
515.64	47646.29
515.81	47423.93
515.99	47620.54
516.16	48203.33
516.33	47856.93
516.51	48308.66
516.68	48205.67
516.85	48399.94
517.03	48669.10
517.20	48559.09
517.37	48362.49
517.54	48814.21
517.72	48655.06
517.89	48587.18
518.06	49125.50
518.24	48971.03
518.41	49202.74
518.58	48985.07
518.75	49036.56
518.93	49036.56
519.10	49476.58
519.27	49155.93
519.45	49490.63
519.62	49553.82
519.79	49858.09
519.96	49511.69
520.14	49921.29
520.31	49752.77
520.48	50153.00
520.65	50167.04
520.83	50295.77
521.00	50356.63
521.17	50429.18
521.34	50419.82
521.52	50497.06
521.69	50501.74
521.86	50866.86
522.03	50941.76
522.20	51161.77
522.38	51327.95
522.55	51356.03
522.72	51096.24
522.89	50993.25
523.07	51730.52
523.24	50967.51
523.41	51323.27
523.58	51246.03
523.75	51508.17
523.92	51547.96
524.10	51576.04
524.27	51707.12
524.44	51753.93
524.61	52081.60
524.78	51838.18
524.96	52013.73
525.13	51882.66
525.30	51901.38
525.47	51983.30
525.64	52128.41
525.81	52404.59
525.98	52458.43
526.16	52252.46
526.33	52552.05
526.50	52500.56
526.67	52350.76
526.84	52673.76
527.01	52580.13
527.18	53020.16
527.36	52832.91
527.53	52956.96
527.70	53286.98
527.87	52882.06
528.04	52743.97
528.21	53268.25
528.38	53078.67
528.55	53258.89
528.72	53565.50
528.89	52968.66
529.07	53207.40
529.24	53483.58
529.41	53647.42
529.58	53408.68
529.75	53263.57
529.92	53624.01
530.09	53446.13
530.26	53560.82
530.43	53813.60
530.60	53642.74
530.77	53504.65
530.94	54042.97
531.11	54040.63
531.28	54122.55
531.46	53956.37
531.63	53750.40
531.80	53904.88
531.97	54244.26
532.14	54035.95
532.31	54321.49
532.48	54358.94
532.65	54681.94
532.82	54450.22
532.99	54602.36
533.16	54248.94
533.33	54597.68
533.50	54742.79
533.67	54630.44
533.84	54419.80
534.01	54663.21
534.18	54583.63
534.35	54768.54
534.52	54855.14
534.69	54941.74
534.86	55119.62
535.03	54925.35
535.20	55206.22
535.37	54908.97
535.54	55145.36
535.71	54990.89
535.88	55161.75
536.05	55248.35
536.22	55447.29
536.38	55543.25
536.55	55257.71
536.72	55330.26
536.89	55243.66
537.06	55580.70
537.23	55374.73
537.40	55316.22
537.57	55531.55
537.74	55784.33
537.91	55835.82
538.08	55760.92
538.25	55566.66
538.42	55842.84
538.59	55800.71
538.75	55833.48
538.92	55812.41
539.09	56039.45
539.26	55870.93
539.43	55838.16
539.60	56020.72
539.77	56130.73
539.94	56107.32
540.11	56308.61
540.28	56126.05
540.44	56427.98
540.61	56350.74
540.78	56121.37
540.95	56030.08
541.12	56355.42
541.29	56453.72
541.46	56310.95
541.62	56240.73
541.79	56706.50
541.96	56266.48
542.13	56306.27
542.30	56411.59
542.47	56729.90
542.63	56844.59
542.80	56713.52
542.97	56912.47
543.14	56926.51
543.31	56980.34
543.48	56896.08
543.64	57319.72
543.81	57298.65
543.98	57298.65
544.15	57043.54
544.32	57141.84
544.48	57315.04
544.65	57375.89
544.82	57317.38
544.99	57326.74
545.16	57361.85
545.32	57265.89
545.49	57633.35
545.66	57331.42
545.83	57443.77
546.00	57626.33
546.16	57357.17
546.33	57490.58
546.50	57233.12
546.67	57757.40
546.83	57293.97
547.00	57542.07
547.17	57612.29
547.34	57504.62
547.50	57607.61
547.67	57776.12
547.84	57813.57
548.00	57757.40
548.17	57946.98
548.34	57989.11
548.51	58071.03
548.67	58047.63
548.84	58064.01
549.01	57944.64
549.18	57925.92
549.34	58241.89
549.51	57841.66
549.68	58211.46
549.84	58321.47
550.01	58288.70
550.18	58120.18
550.34	58295.72
550.51	58370.62
550.68	57977.41
550.84	58241.89
551.01	58499.35
551.18	58267.64
551.34	58300.40
551.51	58480.63
551.68	58391.68
551.84	58372.96
552.01	58227.85
552.18	58288.70
552.34	58300.40
552.51	58574.25
552.68	58525.10
552.84	58489.99
553.01	58918.31
553.18	58501.69
553.34	58719.36
553.51	58614.04
553.67	58618.72
553.84	58803.62
554.01	58901.92
554.17	58876.18
554.34	58791.92
554.51	58899.58
554.67	59016.61
554.84	58688.93
555.00	58642.12
555.17	58791.92
555.33	58841.07
555.50	58803.62
555.67	58742.77
555.83	58775.53
556.00	58993.20
556.16	59290.45
556.33	59089.16
556.50	58894.90
556.66	59489.40
556.83	59016.61
556.99	59180.45
557.16	59524.50
557.32	59227.26
557.49	59491.74
557.65	59040.01
557.82	59128.95
557.98	59054.06
558.15	59278.75
558.32	59320.88
558.48	59227.26
558.65	59295.13
558.81	59348.96
558.98	59571.32
559.14	59538.55
559.31	59442.59
559.47	59519.82
559.64	59447.27
559.80	59564.29
559.97	59451.95
560.13	59468.33
560.30	59353.65
560.46	59592.38
560.63	59667.28
560.79	59566.63
560.96	59709.41
561.12	59653.23
561.29	59730.47
561.45	59709.41
561.61	59723.45
561.78	59655.57
561.94	59414.50
562.11	59522.16
562.27	59955.16
562.44	59742.17
562.60	59788.98
562.77	59915.37
562.93	59608.76
563.10	59849.84
563.26	59898.99
563.42	60074.53
563.59	59821.75
563.75	59760.90
563.92	59681.32
564.08	59840.48
564.24	59994.95
564.41	59997.29
564.57	60020.70
564.74	59941.12
564.90	60020.70
565.07	59980.91
565.23	59985.59
565.39	60025.38
565.56	59922.40
565.72	59973.89
565.88	60046.44
566.05	60107.30
566.21	59971.55
566.38	60025.38
566.54	59971.55
566.70	60123.68
566.87	60336.67
567.03	60030.06
567.19	60081.55
567.36	60313.26
567.52	60034.74
567.68	60282.84
567.85	60313.26
568.01	60369.44
568.17	60233.69
568.34	60306.24
568.50	59957.50
568.66	60123.68
568.83	60133.04
568.99	60273.48
569.15	60336.67
569.32	60240.71
569.48	60130.70
569.64	60420.93
569.81	60523.91
569.97	60219.64
570.13	60282.84
570.30	60182.19
570.46	60254.75
570.62	60353.05
570.78	60315.61
570.95	60156.45
571.11	60390.50
571.27	60278.16
571.43	60308.58
571.60	60467.74
571.76	60285.18
571.92	60456.04
572.09	60432.63
572.25	60437.31
572.41	60374.12
572.57	60456.04
572.74	60669.03
572.90	60479.44
573.06	60514.55
573.22	60341.35
573.38	60568.38
573.55	60523.91
573.71	60638.60
573.87	60437.31
574.03	60240.71
574.20	60542.64
574.36	60458.38
574.52	60507.53
574.68	60629.24
574.84	60612.85
575.01	60633.92
575.17	60530.93
575.33	60505.19
575.49	60371.78
575.65	60570.72
575.82	60664.35
575.98	60662.00
576.14	60732.22
576.30	60580.09
576.46	60528.59
576.62	60516.89
576.79	60512.21
576.95	60467.74
577.11	60598.81
577.27	60638.60
577.43	60786.05
577.59	60690.09
577.75	60643.28
577.92	60554.34
578.08	60601.15
578.24	60860.95
578.40	60851.59
578.56	60872.65
578.72	60839.89
578.88	60757.97
579.04	60823.50
579.21	60617.53
579.37	60809.46
579.53	60708.82
579.69	60622.22
579.85	60526.25
580.01	60652.64
580.17	60439.65
580.33	60720.52
580.49	60945.21
580.65	60856.27
580.82	60629.24
580.98	60603.49
581.14	60638.60
581.30	60837.54
581.46	60786.05
581.62	61010.74
581.78	60729.88
581.94	60786.05
582.10	60757.97
582.26	60783.71
582.42	60713.50
582.58	61017.77
582.74	60711.16
582.90	60825.84
583.06	60879.67
583.22	60678.39
583.38	60753.29
583.54	60720.52
583.70	60767.33
583.86	61034.15
584.02	60612.85
584.18	61066.92
584.34	60900.74
584.50	60776.69
584.66	60678.39
584.82	60645.62
584.98	61008.40
585.14	60676.05
585.30	60809.46
585.46	60844.57
585.62	60917.12
585.78	60858.61
585.94	60631.58
586.10	60945.21
586.26	60919.46
586.42	60835.20
586.58	60898.40
586.74	61247.14
586.90	60851.59
587.06	60874.99
587.22	60898.40
587.38	60828.18
587.54	60919.46
587.70	61130.11
587.86	60816.48
588.02	60973.30
588.18	61167.56
588.34	60748.60
588.49	60956.91
