SpectraSuite Data File
++++++++++++++++++++++++++++++++++++
Date: Fri Oct 25 11:26:23 EDT 2013
User: price-jones
Dark Spectrum Present: No
Reference Spectrum Present: No
Number of Sampled Component Spectra: 1
Spectrometers: USB2+H05261
Integration Time (usec): 100000 (USB2+H05261)
Spectra Averaged: 1 (USB2+H05261)
Boxcar Smoothing: 0 (USB2+H05261)
Correct for Electrical Dark: No (USB2+H05261)
Strobe/Lamp Enabled: No (USB2+H05261)
Correct for Detector Non-linearity: No (USB2+H05261)
Correct for Stray Light: No (USB2+H05261)
Number of Pixels in Processed Spectrum: 2048
>>>>>Begin Processed Spectral Data<<<<<
365.73	203.63
365.92	203.63
366.12	203.63
366.32	189.58
366.52	135.75
366.72	138.09
366.91	74.90
367.11	114.69
367.31	133.41
367.51	105.32
367.70	168.52
367.90	187.24
368.10	152.13
368.30	201.29
368.49	161.50
368.69	250.44
368.89	208.31
369.09	91.28
369.28	147.45
369.48	196.60
369.68	149.79
369.87	187.24
370.07	234.05
370.27	201.29
370.47	386.19
370.66	559.39
370.86	629.60
371.06	711.52
371.25	781.74
371.45	671.73
371.65	702.16
371.84	669.39
372.04	671.73
372.24	730.25
372.44	727.91
372.63	699.82
372.83	765.36
373.03	720.88
373.22	746.63
373.42	741.95
373.62	755.99
373.81	772.38
374.01	828.55
374.21	800.46
374.40	802.80
374.60	833.23
374.79	781.74
374.99	849.61
375.19	863.66
375.38	734.93
375.58	880.04
375.78	943.24
375.97	919.83
376.17	922.17
376.37	931.53
376.56	910.47
376.76	798.12
376.95	863.66
377.15	943.24
377.35	889.40
377.54	880.04
377.74	983.02
377.93	919.83
378.13	898.77
378.33	952.60
378.52	912.81
378.72	938.55
378.91	877.70
379.11	901.11
379.31	922.17
379.50	959.62
379.70	999.41
379.89	1050.90
380.09	933.87
380.28	1060.26
380.48	1076.65
380.68	940.90
380.87	1032.18
381.07	1100.05
381.26	999.41
381.46	1029.84
381.65	1013.45
381.85	1015.79
382.04	1001.75
382.24	1083.67
382.43	1032.18
382.63	1132.82
382.83	1076.65
383.02	1095.37
383.22	1095.37
383.41	1123.46
383.61	1102.39
383.80	1191.33
384.00	1231.12
384.19	1160.91
384.39	1172.61
384.58	1163.25
384.78	1121.12
384.97	1116.44
385.17	1160.91
385.36	1139.84
385.56	1203.04
385.75	1137.50
385.95	1158.57
386.14	1261.55
386.34	1219.42
386.53	1284.95
386.72	1142.18
386.92	1259.21
387.11	1172.61
387.31	1235.80
387.50	1228.78
387.70	1254.53
387.89	1221.76
388.09	1294.32
388.28	1287.29
388.48	1320.06
388.67	1336.45
388.86	1263.89
389.06	1317.72
389.25	1329.42
389.45	1357.51
389.64	1453.47
389.84	1315.38
390.03	1338.79
390.22	1345.81
390.42	1423.05
390.61	1329.42
390.81	1322.40
391.00	1373.89
391.19	1472.20
391.39	1404.32
391.58	1472.20
391.78	1558.80
391.97	1488.58
392.16	1444.11
392.36	1504.96
392.55	1528.37
392.75	1460.49
392.94	1565.82
393.13	1600.93
393.33	1507.30
393.52	1570.50
393.71	1661.78
393.91	1708.59
394.10	1607.95
394.29	1544.75
394.49	1612.63
394.68	1570.50
394.88	1589.22
395.07	1696.89
395.26	1631.35
395.46	1645.40
395.65	1689.87
395.84	1659.44
396.04	1781.15
396.23	1650.08
396.42	1795.19
396.62	1792.85
396.81	1762.42
397.00	1795.19
397.19	1715.61
397.39	1781.15
397.58	1797.53
397.77	1856.04
397.97	1769.44
398.16	1832.64
398.35	1837.32
398.55	1895.83
398.74	1874.77
398.93	1884.13
399.12	1956.69
399.32	1874.77
399.51	2019.88
399.70	1977.75
399.90	2012.86
400.09	2113.50
400.28	2076.06
400.47	2057.33
400.67	2012.86
400.86	2108.82
401.05	1970.73
401.24	2078.40
401.44	2080.74
401.63	2136.91
401.82	2052.65
402.01	2106.48
402.21	2190.74
402.40	2153.29
402.59	2200.10
402.78	2099.46
402.97	2251.60
403.17	2225.85
403.36	2375.64
403.55	2340.54
403.74	2310.11
403.93	2354.58
404.13	2385.01
404.32	2410.75
404.51	2342.88
404.70	2366.28
404.89	2462.24
405.09	2480.97
405.28	2523.10
405.47	2544.16
405.66	2377.98
405.85	2497.35
406.05	2562.89
406.24	2581.61
406.43	2530.12
406.62	2560.55
406.81	2621.40
407.00	2532.46
407.20	2626.08
407.39	2633.10
407.58	2689.28
407.77	2684.59
407.96	2839.07
408.15	2682.25
408.34	2670.55
408.54	2771.19
408.73	2878.86
408.92	2736.09
409.11	2883.54
409.30	2820.35
409.49	2972.48
409.68	2916.31
409.87	2839.07
410.07	2958.44
410.26	2974.82
410.45	2864.82
410.64	3073.12
410.83	3108.23
411.02	3126.96
411.21	3108.23
411.40	3080.14
411.59	3061.42
411.78	3117.59
411.98	3190.15
412.17	3293.13
412.36	3255.69
412.55	3316.54
412.74	3349.31
412.93	3328.24
413.12	3330.58
413.31	3375.05
413.50	3510.80
413.69	3524.85
413.88	3515.48
414.07	3590.38
414.26	3646.55
414.45	3658.26
414.64	3665.28
414.83	3705.07
415.02	3695.71
415.22	3796.35
415.41	3786.99
415.60	3845.50
415.79	3911.04
415.98	3943.80
416.17	3913.38
416.36	3969.55
416.55	3999.98
416.74	4060.83
416.93	4025.72
417.12	4119.34
417.31	4170.83
417.50	4093.60
417.69	4227.01
417.88	4217.65
418.07	4241.05
418.26	4308.93
418.45	4257.43
418.64	4425.95
418.83	4301.90
419.02	4554.68
419.21	4510.21
419.39	4430.63
419.58	4360.42
419.77	4430.63
419.96	4442.34
420.15	4561.70
420.34	4486.81
420.53	4514.89
420.72	4568.73
420.91	4643.62
421.10	4706.82
421.29	4826.18
421.48	4557.02
421.67	4758.31
421.86	4919.81
422.05	4791.08
422.24	4784.06
422.43	4784.06
422.61	4802.78
422.80	4835.55
422.99	4919.81
423.18	4912.78
423.37	4973.64
423.56	4933.85
423.75	4877.68
423.94	4851.93
424.13	4524.26
424.32	4636.60
424.50	5025.13
424.69	4992.36
424.88	5027.47
425.07	4912.78
425.26	4826.18
425.45	4821.50
425.64	4910.44
425.83	4978.32
426.01	5015.77
426.20	5018.11
426.39	5100.03
426.58	4938.53
426.77	4966.62
426.96	5102.37
427.15	4959.60
427.33	5263.86
427.52	5027.47
427.71	5193.65
427.90	5160.88
428.09	5348.12
428.28	5128.11
428.46	5334.08
428.65	5458.13
428.84	5542.39
429.03	5401.96
429.22	5282.59
429.40	5338.76
429.59	5259.18
429.78	5212.37
429.97	5369.19
430.16	5565.79
430.34	5383.23
430.53	5640.69
430.72	5647.71
430.91	5689.84
431.10	5488.56
431.28	5699.20
431.47	5827.93
431.66	5856.02
431.85	5724.95
432.03	5940.28
432.22	6122.84
432.41	5947.30
432.60	5867.72
432.79	5935.60
432.97	5947.30
433.16	5928.58
433.35	5907.51
433.54	6066.67
433.72	6094.76
433.91	6026.88
434.10	6029.22
434.28	6223.48
434.47	6115.82
434.66	6174.33
434.85	6277.32
435.03	6279.66
435.22	6237.53
435.41	6349.87
435.59	6232.85
435.78	6431.79
435.97	6363.92
436.16	6314.77
436.34	6155.61
436.53	6413.07
436.72	6417.75
436.90	6317.11
437.09	6803.94
437.28	6406.05
437.46	6581.59
437.65	6710.32
437.84	6895.22
438.02	6665.85
438.21	6677.55
438.40	6576.91
438.58	6703.29
438.77	7016.93
438.96	6878.83
439.14	6988.84
439.33	7110.55
439.52	7185.44
439.70	7250.98
439.89	7335.24
440.08	7152.68
440.26	7321.20
440.45	7187.79
440.63	7375.03
440.82	7487.37
441.01	7403.11
441.19	7428.86
441.38	7782.28
441.57	7639.51
441.75	7815.05
441.94	7831.43
442.12	7866.54
442.31	7885.26
442.50	7899.31
442.68	7775.26
442.87	7908.67
443.05	8021.02
443.24	8243.37
443.43	7885.26
443.61	8070.17
443.80	8292.52
443.98	7868.88
444.17	7985.91
444.35	8105.28
444.54	8297.20
444.73	8262.09
444.91	7997.61
445.10	8329.97
445.28	8283.16
445.47	8329.97
445.65	8182.51
445.84	8444.65
446.02	8299.54
446.21	8292.52
446.39	8512.53
446.58	8313.58
446.77	8519.55
446.95	8351.03
447.14	8468.06
447.32	8461.04
447.51	8372.10
447.69	8226.98
447.88	8386.14
448.06	8578.06
448.25	8346.35
448.43	8475.08
448.62	8533.59
448.80	8374.44
448.99	8517.21
449.17	8526.57
449.36	8634.24
449.54	8828.50
449.73	8975.95
449.91	8751.26
450.10	8828.50
450.28	8926.80
450.46	8777.01
450.65	9053.19
450.83	9090.64
451.02	8940.85
451.20	9022.77
451.39	8980.64
451.57	9109.36
451.76	8905.74
451.94	9064.89
452.13	9343.42
452.31	9289.59
452.49	9142.13
452.68	9188.94
452.86	9233.41
453.05	9415.98
453.23	9298.95
453.42	9287.25
453.60	9146.81
453.78	9479.17
453.97	9359.80
454.15	9245.12
454.34	9394.91
454.52	9617.26
454.70	9666.41
454.89	9584.49
455.07	9689.82
455.26	9701.52
455.44	9858.34
455.62	9856.00
455.81	9851.31
455.99	9827.91
456.17	9881.74
456.36	9783.44
456.54	9921.53
456.73	9973.02
456.91	10352.19
457.09	10403.68
457.28	10377.94
457.46	10422.41
457.64	10410.70
457.83	10511.35
458.01	10314.74
458.19	10611.99
458.38	10518.37
458.56	10532.41
458.74	10574.54
458.93	10328.78
459.11	10569.86
459.29	10670.50
459.48	10644.76
459.66	10553.48
459.84	11021.58
460.03	10881.15
460.21	11049.67
460.39	10731.36
460.57	11030.94
460.76	11185.42
460.94	10991.16
461.12	11190.10
461.31	11066.05
461.49	11007.54
461.67	10895.19
461.85	11529.48
462.04	11250.96
462.22	11639.48
462.40	11382.03
462.59	11398.41
462.77	11339.90
462.95	11609.06
463.13	11669.91
463.32	11424.15
463.50	11606.72
463.68	11674.59
463.86	11768.21
464.05	11800.98
464.23	11417.13
464.41	11829.07
464.59	11517.78
464.78	11995.25
464.96	11903.96
465.14	11637.14
465.32	11793.96
465.50	12145.04
465.69	12044.40
465.87	12166.10
466.05	11918.01
466.23	12116.95
466.41	11997.59
466.60	12315.90
466.78	12032.69
466.96	11943.75
467.14	12046.74
467.32	12133.34
467.51	12461.01
467.69	11995.25
467.87	12222.28
468.05	12477.40
468.23	12365.05
468.41	12336.96
468.60	12517.18
468.78	12835.50
468.96	12414.20
469.14	12795.71
469.32	12627.19
469.50	12603.78
469.69	12945.50
469.87	13069.55
470.05	13109.34
470.23	13139.77
470.41	13071.89
470.59	13008.70
470.77	13074.23
470.95	13174.88
471.14	13610.22
471.32	13071.89
471.50	13518.93
471.68	13547.02
471.86	13439.36
472.04	13465.10
472.22	13956.61
472.40	13446.38
472.58	14022.15
472.77	13809.16
472.95	14324.08
473.13	14326.42
473.31	13832.57
473.49	13987.04
473.67	13991.72
473.85	14193.01
474.03	14434.08
474.21	14567.49
474.39	14614.30
474.57	14448.13
474.75	14721.97
474.93	14956.02
475.12	14750.06
475.30	15026.24
475.48	14930.28
475.66	15286.04
475.84	15042.62
476.02	15501.37
476.20	15365.62
476.38	15470.94
476.56	16058.42
476.74	15903.94
476.92	15798.62
477.10	15702.65
477.28	15889.90
477.46	16004.58
477.64	16259.70
477.82	16592.06
478.00	16681.00
478.18	16446.94
478.36	16933.78
478.54	17064.85
478.72	17062.51
478.90	17341.03
479.08	17427.63
479.26	17572.74
479.44	17565.72
479.62	17671.04
479.80	17797.43
479.98	18178.94
480.16	18789.82
480.34	18001.06
480.52	18354.48
480.70	18583.85
480.88	18312.35
481.06	18757.05
481.24	18876.42
481.41	19150.26
481.59	19096.43
481.77	19274.31
481.95	19377.30
482.13	19824.34
482.31	19609.01
482.49	19796.25
482.67	20102.86
482.85	20449.26
483.03	20641.18
483.21	20526.50
483.39	20580.33
483.57	20636.50
483.74	21111.63
483.92	21113.97
484.10	20961.84
484.28	21516.54
484.46	21823.16
484.64	22132.11
484.82	21638.25
485.00	22129.77
485.18	22640.00
485.35	22799.16
485.53	22661.07
485.71	22977.04
485.89	22972.36
486.07	22806.18
486.25	23005.13
486.43	22981.72
486.61	23510.68
486.78	24037.30
486.96	23929.64
487.14	24203.48
487.32	24224.54
487.50	24603.71
487.68	24650.52
487.85	24854.15
488.03	25504.82
488.21	25741.21
488.39	25748.23
488.57	25937.82
488.75	25961.22
488.92	26038.46
489.10	26761.69
489.28	26583.80
489.46	26927.86
489.64	26492.52
489.81	27274.26
489.99	27613.64
490.17	27700.24
490.35	27725.99
490.53	28044.30
490.70	27967.06
490.88	27873.44
491.06	29015.62
491.24	28484.32
491.41	29074.13
491.59	29209.89
491.77	28910.30
491.95	29631.18
492.13	29563.31
492.30	29174.78
492.48	30087.59
492.66	29986.94
492.84	30008.01
493.01	30398.88
493.19	30483.14
493.37	30785.07
493.54	30862.30
493.72	31040.18
493.90	31204.02
494.08	31164.23
494.25	31690.85
494.43	31459.14
494.61	32205.77
494.79	32673.88
494.96	32325.14
495.14	32486.64
495.32	33326.89
495.49	33167.73
495.67	33024.96
495.85	33455.62
496.02	33694.35
496.20	33883.94
496.38	33895.64
496.55	33703.71
496.73	34438.64
496.91	34263.10
497.09	34703.12
497.26	34513.54
497.44	34595.46
497.62	34920.79
497.79	35531.67
497.97	34848.24
498.14	35644.02
498.32	35639.34
498.50	35938.93
498.67	36318.09
498.85	36254.90
499.03	35969.35
499.20	36250.22
499.38	36533.42
499.56	36840.03
499.73	36751.09
499.91	36959.40
500.08	37565.60
500.26	36992.17
500.44	37209.84
500.61	37418.14
500.79	37865.19
500.97	38082.86
501.14	38632.88
501.32	38012.64
501.49	38480.75
501.67	38550.96
501.84	38499.47
502.02	38485.43
502.20	38576.71
502.37	38913.75
502.55	38696.08
502.72	39409.94
502.90	38745.23
503.07	39288.23
503.25	39786.77
503.43	39292.91
503.60	39529.31
503.78	39641.65
503.95	39679.10
504.13	40140.19
504.30	40109.76
504.48	40294.66
504.65	40669.15
504.83	40891.50
505.01	41022.57
505.18	40971.08
505.36	41418.12
505.53	40514.67
505.71	41141.94
505.88	41661.54
506.06	41048.32
506.23	41897.93
506.41	41841.76
506.58	41614.72
506.76	41734.09
506.93	42136.66
507.11	42094.53
507.28	42323.91
507.46	42094.53
507.63	42447.96
507.81	42897.34
507.98	42925.42
508.16	42831.80
508.33	42986.28
508.50	43805.47
508.68	42803.72
508.85	43484.81
509.03	43629.93
509.20	43400.55
509.38	44236.12
509.55	44032.50
509.73	44676.15
509.90	44423.37
510.08	44320.38
510.25	44226.76
510.42	44229.10
510.60	44767.43
510.77	44765.09
510.95	45181.70
511.12	45022.54
511.30	44793.17
511.47	44935.95
511.64	44800.19
511.82	45322.13
511.99	45226.17
512.17	45574.91
512.34	45619.38
512.51	45949.40
512.69	46103.87
512.86	45998.55
513.04	46323.88
513.21	46129.62
513.38	46370.69
513.56	46609.43
513.73	46382.40
513.90	46766.24
514.08	46749.86
514.25	47086.90
514.43	47056.47
514.60	47054.13
514.77	47054.13
514.95	47526.92
515.12	47138.39
515.29	47016.68
515.47	47639.26
515.64	47604.16
515.81	47756.29
515.99	47784.38
516.16	48488.88
516.33	48121.41
516.51	48090.99
516.68	48053.54
516.85	48250.14
517.03	48540.37
517.20	48755.70
517.37	48727.61
517.54	48222.06
517.72	48765.06
517.89	48980.39
518.06	49258.91
518.24	49074.01
518.41	48727.61
518.58	49099.76
518.75	49322.11
518.93	49125.50
519.10	49202.74
519.27	49694.25
519.45	49235.51
519.62	49516.37
519.79	49815.96
519.96	49808.94
520.14	49528.08
520.31	49670.85
520.48	49965.76
520.65	50014.91
520.83	50291.09
521.00	50583.66
521.17	50326.20
521.34	50494.72
521.52	50391.73
521.69	50614.08
521.86	50663.24
522.03	50485.36
522.20	50789.62
522.38	51288.16
522.55	51185.18
522.72	50773.24
522.89	51133.68
523.07	51351.35
523.24	51009.64
523.41	51543.28
523.58	51208.58
523.75	51419.23
523.92	51349.01
524.10	51601.79
524.27	51641.58
524.44	51978.62
524.61	51758.61
524.78	51973.94
524.96	51803.08
525.13	51990.32
525.30	52224.37
525.47	52226.71
525.64	52264.16
525.81	51992.66
525.98	52535.66
526.16	51997.34
526.33	52259.48
526.50	52732.27
526.67	52523.96
526.84	52832.91
527.01	52645.67
527.18	52385.87
527.36	52725.25
527.53	52823.55
527.70	53249.53
527.87	52893.77
528.04	52884.40
528.21	53066.97
528.38	53116.12
528.55	53528.05
528.72	53181.65
528.89	53382.94
529.07	52802.49
529.24	53258.89
529.41	53528.05
529.58	53303.36
529.75	53698.91
529.92	53392.30
530.09	53759.76
530.26	54066.38
530.43	53797.21
530.60	53801.89
530.77	53499.97
530.94	54012.54
531.11	53827.64
531.28	53858.07
531.46	53925.94
531.63	53944.67
531.80	54071.06
531.97	54412.77
532.14	54223.19
532.31	54131.91
532.48	54124.89
532.65	54532.14
532.82	54408.09
532.99	54468.95
533.16	54110.85
533.33	54602.36
533.50	54546.18
533.67	54616.40
533.84	54452.56
534.01	54707.68
534.18	54504.06
534.35	54960.46
534.52	54707.68
534.69	54983.86
534.86	55267.07
535.03	54660.87
535.20	54939.39
535.37	55014.29
535.54	54855.14
535.71	55267.07
535.88	55159.41
536.05	55269.41
536.22	55271.75
536.38	55498.78
536.55	55426.23
536.72	55257.71
536.89	55360.69
537.06	55353.67
537.23	55604.11
537.40	55491.76
537.57	55246.00
537.74	55522.19
537.91	55793.69
538.08	55662.62
538.25	55571.34
538.42	55753.90
538.59	56032.42
538.75	55585.38
538.92	55847.52
539.09	55868.59
539.26	56062.85
539.43	55966.89
539.60	56062.85
539.77	56023.06
539.94	56308.61
540.11	56170.52
540.28	56240.73
540.44	56072.21
540.61	56334.35
540.78	56200.94
540.95	56163.50
541.12	56219.67
541.29	56161.15
541.46	56390.53
541.62	56306.27
541.79	56542.66
541.96	56236.05
542.13	56430.32
542.30	56385.85
542.47	56535.64
542.63	56652.67
542.80	56549.68
542.97	57073.96
543.14	57036.51
543.31	56926.51
543.48	57055.24
543.64	57317.38
543.81	57408.66
543.98	57052.90
544.15	57041.20
544.32	57193.33
544.48	57396.96
544.65	57279.93
544.82	57312.70
544.99	57113.75
545.16	56996.73
545.32	57172.27
545.49	57455.47
545.66	57268.23
545.83	57305.68
546.00	57530.37
546.16	57364.19
546.33	57305.68
546.50	57190.99
546.67	57446.11
546.83	57151.20
547.00	57696.55
547.17	57495.26
547.34	57717.61
547.50	57598.24
547.67	57958.69
547.84	57949.32
548.00	58064.01
548.17	57956.35
548.34	57965.71
548.51	58056.99
548.67	58279.34
548.84	57647.39
549.01	57705.91
549.18	57900.17
549.34	58082.73
549.51	58017.20
549.68	58185.72
549.84	58171.67
550.01	58031.24
550.18	57989.11
550.34	58155.29
550.51	58021.88
550.68	58272.32
550.84	57925.92
551.01	58438.50
551.18	58307.43
551.34	58265.30
551.51	58401.05
551.68	58520.41
551.84	58265.30
552.01	58389.34
552.18	58436.16
552.34	58295.72
552.51	58621.06
552.68	58166.99
552.84	58307.43
553.01	58599.99
553.18	58408.07
553.34	58702.98
553.51	58532.12
553.67	58752.13
553.84	58747.45
554.01	58820.00
554.17	58843.41
554.34	58869.15
554.51	58890.22
554.67	58906.60
554.84	58695.95
555.00	58639.78
555.17	58754.47
555.33	58749.79
555.50	58700.64
555.67	58759.15
555.83	58798.94
556.00	58866.81
556.16	59157.04
556.33	59323.22
556.50	59028.31
556.66	59061.08
556.83	58955.75
556.99	58829.37
557.16	59440.24
557.32	59231.94
557.49	59489.40
557.65	58960.44
557.82	59199.17
557.98	59224.92
558.15	59332.58
558.32	59203.85
558.48	59348.96
558.65	59220.23
558.81	59344.28
558.98	59318.54
559.14	59405.14
559.31	59480.03
559.47	59423.86
559.64	59632.17
559.80	59393.43
559.97	59561.95
560.13	59348.96
560.30	59503.44
560.46	59573.66
560.63	59732.81
560.79	59524.50
560.96	59583.02
561.12	59707.07
561.29	59744.51
561.45	59590.04
561.61	59627.49
561.78	59758.56
561.94	59550.25
562.11	59601.74
562.27	59646.21
562.44	59929.42
562.60	59683.66
562.77	59994.95
562.93	59522.16
563.10	60048.78
563.26	59664.94
563.42	59976.23
563.59	59840.48
563.75	59765.58
563.92	59915.37
564.08	59877.93
564.24	59913.03
564.41	59807.71
564.57	59945.80
564.74	59985.59
564.90	60130.70
565.07	59910.69
565.23	59994.95
565.39	59831.11
565.56	59917.71
565.72	59854.52
565.88	60044.10
566.05	59978.57
566.21	59971.55
566.38	60102.62
566.54	59985.59
566.70	59992.61
566.87	60212.62
567.03	59966.87
567.19	60278.16
567.36	60097.94
567.52	60065.17
567.68	60207.94
567.85	60186.88
568.01	60406.89
568.17	60062.83
568.34	60294.54
568.50	60357.74
568.66	60179.85
568.83	60360.08
568.99	60308.58
569.15	60252.41
569.32	60301.56
569.48	60296.88
569.64	60430.29
569.81	60163.47
569.97	60109.64
570.13	60273.48
570.30	60144.75
570.46	60278.16
570.62	60156.45
570.78	60224.32
570.95	60212.62
571.11	60509.87
571.27	60324.97
571.43	60238.37
571.60	60486.46
571.76	60317.95
571.92	60339.01
572.09	60247.73
572.25	60381.14
572.41	60329.65
572.57	60357.74
572.74	60624.56
572.90	60198.58
573.06	60310.92
573.22	60526.25
573.38	60640.94
573.55	60404.55
573.71	60626.90
573.87	60467.74
574.03	60240.71
574.20	60664.35
574.36	60481.78
574.52	60687.75
574.68	60711.16
574.84	60645.62
575.01	60657.32
575.17	60463.06
575.33	60406.89
575.49	60341.35
575.65	60526.25
575.82	60706.47
575.98	60596.47
576.14	60526.25
576.30	60526.25
576.46	60420.93
576.62	60467.74
576.79	60484.12
576.95	60355.39
577.11	60713.50
577.27	60662.00
577.43	60685.41
577.59	60425.61
577.75	60596.47
577.92	60472.42
578.08	60460.72
578.24	60706.47
578.40	60802.44
578.56	60706.47
578.72	60596.47
578.88	60741.58
579.04	60865.63
579.21	60692.43
579.37	60942.87
579.53	60769.67
579.69	60456.04
579.85	60687.75
580.01	60474.76
580.17	60692.43
580.33	60612.85
580.49	60844.57
580.65	60697.11
580.82	60757.97
580.98	60622.22
581.14	60631.58
581.30	60793.07
581.46	60654.98
581.62	60673.71
581.78	60706.47
581.94	60743.92
582.10	60662.00
582.26	60556.68
582.42	60825.84
582.58	60739.24
582.74	60715.84
582.90	60673.71
583.06	60601.15
583.22	60772.01
583.38	60804.78
583.54	60577.75
583.70	60764.99
583.86	60715.84
584.02	60713.50
584.18	60928.83
584.34	60739.24
584.50	60821.16
584.66	60713.50
584.82	60608.17
584.98	60954.57
585.14	60835.20
585.30	60776.69
585.46	61116.07
585.62	60870.31
585.78	61036.49
585.94	60757.97
586.10	60676.05
586.26	60772.01
586.42	60867.97
586.58	61104.37
586.74	60870.31
586.90	60884.36
587.06	60970.96
587.22	60884.36
587.38	60926.49
587.54	60842.23
587.70	61015.43
587.86	60884.36
588.02	60891.38
588.18	61066.92
588.34	60846.91
588.49	60931.17
