SpectraSuite Data File
++++++++++++++++++++++++++++++++++++
Date: Fri Oct 25 11:26:10 EDT 2013
User: price-jones
Dark Spectrum Present: No
Reference Spectrum Present: No
Number of Sampled Component Spectra: 1
Spectrometers: USB2+H05261
Integration Time (usec): 100000 (USB2+H05261)
Spectra Averaged: 1 (USB2+H05261)
Boxcar Smoothing: 0 (USB2+H05261)
Correct for Electrical Dark: No (USB2+H05261)
Strobe/Lamp Enabled: No (USB2+H05261)
Correct for Detector Non-linearity: No (USB2+H05261)
Correct for Stray Light: No (USB2+H05261)
Number of Pixels in Processed Spectrum: 2048
>>>>>Begin Processed Spectral Data<<<<<
365.73	259.80
365.92	259.80
366.12	259.80
366.32	203.63
366.52	163.84
366.72	145.11
366.91	124.05
367.11	159.16
367.31	67.88
367.51	191.92
367.70	117.03
367.90	156.82
368.10	147.45
368.30	147.45
368.49	128.73
368.69	121.71
368.89	124.05
369.09	189.58
369.28	110.01
369.48	124.05
369.68	203.63
369.87	205.97
370.07	250.44
370.27	271.50
370.47	332.36
370.66	622.58
370.86	702.16
371.06	638.97
371.25	648.33
371.45	683.44
371.65	669.39
371.84	641.31
372.04	720.88
372.24	655.35
372.44	713.86
372.63	660.03
372.83	734.93
373.03	786.42
373.22	770.04
373.42	779.40
373.62	819.19
373.81	844.93
374.01	828.55
374.21	828.55
374.40	861.32
374.60	837.91
374.79	880.04
374.99	898.77
375.19	870.68
375.38	908.13
375.58	807.48
375.78	891.74
375.97	805.14
376.17	877.70
376.37	760.67
376.56	875.36
376.76	858.98
376.95	866.00
377.15	938.55
377.35	992.39
377.54	835.57
377.74	875.36
377.93	926.85
378.13	896.43
378.33	1008.77
378.52	938.55
378.72	924.51
378.91	910.47
379.11	903.45
379.31	945.58
379.50	966.64
379.70	1008.77
379.89	1034.52
380.09	1027.50
380.28	966.64
380.48	976.00
380.68	1025.15
380.87	1020.47
381.07	1018.13
381.26	1093.03
381.46	1008.77
381.65	992.39
381.85	1027.50
382.04	1022.81
382.24	1100.05
382.43	1062.60
382.63	1090.69
382.83	1062.60
383.02	1135.16
383.22	1029.84
383.41	1121.12
383.61	1135.16
383.80	1118.78
384.00	1130.48
384.19	1203.04
384.39	1081.33
384.58	1181.97
384.78	1160.91
384.97	1142.18
385.17	1228.78
385.36	1123.46
385.56	1200.69
385.75	1205.38
385.95	1231.12
386.14	1261.55
386.34	1142.18
386.53	1254.53
386.72	1188.99
386.92	1184.31
387.11	1327.08
387.31	1277.93
387.50	1273.25
387.70	1231.12
387.89	1280.27
388.09	1235.80
388.28	1268.57
388.48	1320.06
388.67	1277.93
388.86	1359.85
389.06	1348.15
389.25	1289.64
389.45	1465.18
389.64	1385.60
389.84	1364.53
390.03	1420.71
390.22	1341.13
390.42	1315.38
390.61	1409.00
390.81	1465.18
391.00	1378.58
391.19	1439.43
391.39	1432.41
391.58	1507.30
391.78	1507.30
391.97	1493.26
392.16	1469.86
392.36	1563.48
392.55	1645.40
392.75	1521.35
392.94	1549.43
393.13	1481.56
393.33	1502.62
393.52	1500.28
393.71	1563.48
393.91	1488.58
394.10	1591.56
394.29	1610.29
394.49	1570.50
394.68	1638.38
394.88	1645.40
395.07	1682.85
395.26	1710.93
395.46	1685.19
395.65	1673.48
395.84	1699.23
396.04	1832.64
396.23	1755.40
396.42	1724.97
396.62	1799.87
396.81	1769.44
397.00	1682.85
397.19	1727.32
397.39	1844.34
397.58	1954.35
397.77	1769.44
397.97	1884.13
398.16	1799.87
398.35	1774.13
398.55	1907.54
398.74	1933.28
398.93	1881.79
399.12	1926.26
399.32	1909.88
399.51	1970.73
399.70	2057.33
399.90	2040.95
400.09	1980.09
400.28	2087.76
400.47	1996.48
400.67	2012.86
400.86	2080.74
401.05	2015.20
401.24	2024.56
401.44	2078.40
401.63	2181.38
401.82	2172.02
402.01	2160.31
402.21	2183.72
402.40	2186.06
402.59	2267.98
402.78	2188.40
402.97	2221.17
403.17	2216.49
403.36	2265.64
403.55	2289.04
403.74	2244.57
403.93	2228.19
404.13	2422.45
404.32	2438.84
404.51	2382.67
404.70	2417.77
404.89	2373.30
405.09	2373.30
405.28	2431.82
405.47	2429.48
405.66	2525.44
405.85	2424.80
406.05	2485.65
406.24	2530.12
406.43	2684.59
406.62	2689.28
406.81	2717.36
407.00	2644.81
407.20	2583.95
407.39	2579.27
407.58	2855.45
407.77	2794.60
407.96	2654.17
408.15	2789.92
408.34	2729.06
408.54	2775.88
408.73	2754.81
408.92	2799.28
409.11	2897.58
409.30	2916.31
409.49	2839.07
409.68	2972.48
409.87	3030.99
410.07	3023.97
410.26	2977.16
410.45	3094.19
410.64	3054.40
410.83	3068.44
411.02	3045.04
411.21	3026.31
411.40	3063.76
411.59	3234.62
411.78	3075.46
411.98	3173.77
412.17	3321.22
412.36	3286.11
412.55	3246.32
412.74	3421.86
412.93	3339.94
413.12	3265.05
413.31	3555.27
413.50	3468.67
413.69	3520.17
413.88	3583.36
414.07	3510.80
414.26	3609.11
414.45	3583.36
414.64	3679.32
414.83	3742.52
415.02	3740.18
415.22	3845.50
415.41	3824.44
415.60	3887.63
415.79	3885.29
415.98	4035.08
416.17	3988.27
416.36	3864.22
416.55	3946.14
416.74	4131.05
416.93	4049.13
417.12	4058.49
417.31	4177.86
417.50	4109.98
417.69	4229.35
417.88	4102.96
418.07	4276.16
418.26	4294.88
418.45	4372.12
418.64	4297.22
418.83	4362.76
419.02	4507.87
419.21	4613.20
419.39	4491.49
419.58	4575.75
419.77	4442.34
419.96	4638.94
420.15	4627.24
420.34	4683.41
420.53	4575.75
420.72	4638.94
420.91	4631.92
421.10	4823.84
421.29	4854.27
421.48	4720.86
421.67	4606.17
421.86	4648.30
422.05	4748.95
422.24	4840.23
422.43	4830.87
422.61	4947.89
422.80	4952.57
422.99	4865.97
423.18	4947.89
423.37	4945.55
423.56	4990.02
423.75	5046.20
423.94	4730.22
424.13	4753.63
424.32	4720.86
424.50	4999.38
424.69	5102.37
424.88	5172.58
425.07	4973.64
425.26	4957.25
425.45	4908.10
425.64	4999.38
425.83	5018.11
426.01	4975.98
426.20	5025.13
426.39	4964.28
426.58	5135.14
426.77	4961.94
426.96	5146.84
427.15	5020.45
427.33	5210.03
427.52	5235.78
427.71	5249.82
427.90	5191.31
428.09	5284.93
428.28	5383.23
428.46	5261.52
428.65	5427.70
428.84	5411.32
429.03	5439.40
429.22	5284.93
429.40	5486.22
429.59	5479.19
429.78	5238.12
429.97	5280.25
430.16	5561.11
430.34	5628.99
430.53	5657.07
430.72	5731.97
430.91	5645.37
431.10	5668.78
431.28	5621.97
431.47	5788.14
431.66	5816.23
431.85	5792.83
432.03	5902.83
432.22	6061.99
432.41	5959.00
432.60	5886.45
432.79	5867.72
432.97	5923.90
433.16	6092.41
433.35	5998.79
433.54	5975.39
433.72	6061.99
433.91	6239.87
434.10	6211.78
434.28	6057.31
434.47	6277.32
434.66	6239.87
434.85	6190.72
435.03	6396.68
435.22	6356.90
435.41	6502.01
435.59	6300.72
435.78	6520.73
435.97	6483.28
436.16	6450.52
436.34	6333.49
436.53	6399.02
436.72	6689.25
436.90	6506.69
437.09	6775.85
437.28	6445.84
437.46	6621.38
437.65	6825.00
437.84	6883.52
438.02	6731.38
438.21	6937.35
438.40	6782.87
438.58	7014.59
438.77	7026.29
438.96	6895.22
439.14	6991.18
439.33	7052.03
439.52	7201.83
439.70	7204.17
439.89	7218.21
440.08	7239.28
440.26	7335.24
440.45	7325.88
440.63	7515.46
440.82	7573.97
441.01	7632.49
441.19	7403.11
441.38	7599.72
441.57	7597.38
441.75	7803.35
441.94	7838.45
442.12	7798.66
442.31	7997.61
442.50	8109.96
442.68	7974.21
442.87	7920.37
443.05	7985.91
443.24	8203.58
443.43	8112.30
443.61	8182.51
443.80	8262.09
443.98	8056.12
444.17	7658.23
444.35	8084.21
444.54	8283.16
444.73	8411.89
444.91	8194.22
445.10	8084.21
445.28	8470.40
445.47	8273.79
445.65	8341.67
445.84	8280.82
446.02	8561.68
446.21	8306.56
446.39	8386.14
446.58	8587.43
446.77	8575.72
446.95	8217.62
447.14	8465.72
447.32	8587.43
447.51	8348.69
447.69	8411.89
447.88	8430.61
448.06	8512.53
448.25	8580.40
448.43	8650.62
448.62	8454.02
448.80	8566.36
448.99	8674.03
449.17	8737.22
449.36	8395.50
449.54	8781.69
449.73	8957.23
449.91	8926.80
450.10	9041.49
450.28	9036.81
450.46	9310.65
450.65	9139.79
450.83	8898.72
451.02	9081.28
451.20	9128.09
451.39	9109.36
451.57	9092.98
451.76	8940.85
451.94	8973.61
452.13	9420.66
452.31	9317.67
452.49	9252.14
452.68	9427.68
452.86	9364.48
453.05	9514.28
453.23	9568.11
453.42	9158.52
453.60	9334.06
453.78	9533.00
453.97	9380.87
454.15	9481.51
454.34	9579.81
454.52	9621.94
454.70	9675.77
454.89	9710.88
455.07	9785.78
455.26	9841.95
455.44	9970.68
455.62	9956.64
455.81	9937.91
455.99	10050.26
456.17	10054.94
456.36	10230.48
456.54	10202.40
456.73	10267.93
456.91	10616.67
457.09	10518.37
457.28	10544.11
457.46	10424.75
457.64	10607.31
457.83	10422.41
458.01	10469.22
458.19	10654.12
458.38	10403.68
458.56	10581.56
458.74	10771.15
458.93	10771.15
459.11	10565.18
459.29	10551.14
459.48	10677.52
459.66	10937.32
459.84	10902.22
460.03	11178.40
460.21	11103.50
460.39	10841.36
460.57	10895.19
460.76	11431.18
460.94	11126.91
461.12	11169.04
461.31	11044.99
461.49	11253.30
461.67	11215.85
461.85	11466.28
462.04	11164.36
462.22	11894.60
462.40	11520.12
462.59	11346.92
462.77	11363.30
462.95	11719.06
463.13	11683.95
463.32	11700.34
463.50	11679.27
463.68	11580.97
463.86	11988.22
464.05	11459.26
464.23	11562.25
464.41	12112.27
464.59	11398.41
464.78	12020.99
464.96	11882.90
465.14	11819.71
465.32	12233.98
465.50	12156.74
465.69	12278.45
465.87	12161.42
466.05	12145.04
466.23	12201.21
466.41	12219.94
466.60	12421.22
466.78	12175.47
466.96	12219.94
467.14	12161.42
467.32	12313.56
467.51	12407.18
467.69	12280.79
467.87	12514.84
468.05	12566.34
468.23	12484.42
468.41	12381.43
468.60	12437.61
468.78	12872.95
468.96	12505.48
469.14	12947.84
469.32	12842.52
469.50	12587.40
469.69	13167.85
469.87	13060.19
470.05	13032.10
470.23	13055.51
470.41	12968.91
470.59	13214.66
470.77	13235.73
470.95	13198.28
471.14	13514.25
471.32	13090.62
471.50	13675.75
471.68	13537.66
471.86	13474.46
472.04	13741.29
472.22	13783.41
472.40	13467.44
472.58	13736.60
472.77	13907.46
472.95	14003.43
473.13	14663.46
473.31	14211.73
473.49	14029.17
473.67	14394.29
473.85	14403.66
474.03	14513.66
474.21	14366.21
474.39	14834.32
474.57	14508.98
474.75	14876.44
474.93	14810.91
475.12	14951.34
475.30	15009.86
475.48	15133.90
475.66	15197.10
475.84	14934.96
476.02	15262.63
476.20	15208.80
476.38	15683.93
476.56	15770.53
476.74	15962.45
476.92	15730.74
477.10	15655.84
477.28	16142.67
477.46	15978.84
477.64	16315.87
477.82	16615.46
478.00	16856.54
478.18	16594.40
478.36	16996.97
478.54	17193.58
478.72	17025.06
478.90	17280.18
479.08	17680.41
479.26	17778.71
479.44	17710.83
479.62	17720.20
479.80	17958.93
479.98	18040.85
480.16	18572.15
480.34	18441.08
480.52	18551.09
480.70	18735.99
480.88	18431.72
481.06	18682.16
481.24	18661.09
481.41	19014.51
481.59	19389.00
481.77	19847.74
481.95	19548.15
482.13	19747.10
482.31	19374.95
482.49	20301.81
482.67	20142.65
482.85	20255.00
483.03	20325.21
483.21	20706.72
483.39	21076.52
483.57	20889.28
483.74	21013.33
483.92	21619.53
484.10	20917.37
484.28	21701.45
484.46	21619.53
484.64	22326.37
484.82	22216.36
485.00	22223.39
485.18	22813.20
485.35	22965.34
485.53	22876.40
485.71	22857.67
485.89	23651.11
486.07	23215.77
486.25	23386.63
486.43	23445.15
486.61	23697.92
486.78	24170.71
486.96	24243.27
487.14	24306.46
487.32	24687.97
487.50	24744.14
487.68	24922.02
487.85	25165.44
488.03	25317.57
488.21	25755.26
488.39	25741.21
488.57	25991.65
488.75	26089.95
488.92	26668.06
489.10	26639.98
489.28	26574.44
489.46	27211.07
489.64	26775.73
489.81	27372.57
489.99	27747.05
490.17	27835.99
490.35	27988.13
490.53	28341.55
490.70	28163.67
490.88	28184.73
491.06	28706.67
491.24	29029.66
491.41	28861.15
491.59	29336.27
491.77	29244.99
491.95	29788.00
492.13	29893.32
492.30	29764.59
492.48	29909.71
492.66	30167.16
492.84	30164.82
493.01	30558.03
493.19	30546.33
493.37	30801.45
493.54	31395.95
493.72	31555.10
493.90	31325.73
494.08	31931.93
494.25	31747.03
494.43	32046.62
494.61	32191.73
494.79	32521.74
494.96	32238.54
495.14	32751.12
495.32	33228.59
495.49	32917.29
495.67	33153.69
495.85	33617.11
496.02	33516.47
496.20	34099.26
496.38	33722.44
496.55	34146.08
496.73	34801.43
496.91	34448.00
497.09	34609.50
497.26	34941.86
497.44	34487.79
497.62	35171.23
497.79	35676.79
497.97	35414.65
498.14	36114.47
498.32	35789.13
498.50	36170.64
498.67	36397.67
498.85	36535.76
499.03	36177.66
499.20	36456.18
499.38	36996.85
499.56	36837.69
499.73	37343.25
499.91	37413.46
500.08	37397.08
500.26	37380.70
500.44	37598.37
500.61	37804.33
500.79	37394.74
500.97	37823.06
501.14	38356.70
501.32	38204.56
501.49	38525.22
501.67	38391.81
501.84	38810.76
502.02	39208.65
502.20	38974.60
502.37	38974.60
502.55	39393.56
502.72	39555.05
502.90	39482.50
503.07	39559.73
503.25	39222.70
503.43	39735.27
503.60	40147.21
503.78	40004.44
503.95	40039.54
504.13	40542.76
504.30	40549.78
504.48	40341.47
504.65	40634.04
504.83	40577.87
505.01	41343.22
505.18	40971.08
505.36	41462.59
505.53	41214.49
505.71	41476.63
505.88	41600.68
506.06	41155.98
506.23	41818.35
506.41	41951.76
506.58	41940.06
506.76	41890.91
506.93	42536.90
507.11	42162.41
507.28	42644.56
507.46	42639.88
507.63	42876.27
507.81	43033.09
507.98	43260.12
508.16	42909.04
508.33	43824.19
508.50	43496.52
508.68	43835.89
508.85	43557.37
509.03	43557.37
509.20	43447.36
509.38	44266.55
509.55	44575.50
509.73	44137.82
509.90	44725.30
510.08	44264.21
510.25	44769.77
510.42	44313.36
510.60	44982.76
510.77	44889.13
510.95	45455.54
511.12	44722.96
511.30	45296.39
511.47	45249.58
511.64	45413.41
511.82	45759.81
511.99	45827.69
512.17	45666.19
512.34	45663.85
512.51	46202.18
512.69	46096.85
512.86	46342.61
513.04	46424.53
513.21	46616.45
513.38	46721.77
513.56	46862.21
513.73	46712.41
513.90	46597.73
514.08	46443.25
514.25	47295.21
514.43	47395.85
514.60	47187.54
514.77	47260.10
514.95	47311.59
515.12	47400.53
515.29	47337.33
515.47	47693.10
515.64	48350.79
515.81	48006.73
515.99	48109.71
516.16	47885.02
516.33	48252.48
516.51	48568.46
516.68	48449.09
516.85	48215.04
517.03	48776.76
517.20	48931.24
517.37	48715.91
517.54	48893.79
517.72	49024.86
517.89	49102.10
518.06	49301.04
518.24	49418.07
518.41	48987.41
518.58	49488.29
518.75	49324.45
518.93	49474.24
519.10	49366.58
519.27	49404.03
519.45	49701.28
519.62	49762.13
519.79	49560.84
519.96	50033.63
520.14	50225.56
520.31	49928.31
520.48	50426.84
520.65	50356.63
520.83	50560.25
521.00	50721.75
521.17	50827.07
521.34	50424.50
521.52	50997.93
521.69	50848.14
521.86	51007.29
522.03	51070.49
522.20	51344.33
522.38	51622.86
522.55	51536.26
522.72	51105.60
522.89	50962.82
523.07	51585.41
523.24	51264.75
523.41	51629.88
523.58	51152.41
523.75	51737.54
523.92	51655.62
524.10	51709.46
524.27	52097.98
524.44	51772.65
524.61	52055.85
524.78	52215.01
524.96	52289.91
525.13	52397.57
525.30	52409.28
525.47	52467.79
525.64	52589.50
525.81	52619.92
525.98	52718.23
526.16	52191.61
526.33	52715.89
526.50	52790.78
526.67	52973.34
526.84	53090.37
527.01	52802.49
527.18	52956.96
527.36	52917.17
527.53	53027.18
527.70	53504.65
527.87	52994.41
528.04	52830.57
528.21	53338.47
528.38	53418.05
528.55	53771.47
528.72	53214.42
528.89	53272.93
529.07	53179.31
529.24	53303.36
529.41	53780.83
529.58	53593.59
529.75	53542.10
529.92	53759.76
530.09	53691.89
530.26	53897.86
530.43	53741.04
530.60	53734.02
530.77	53635.72
530.94	54171.70
531.11	53752.74
531.28	54202.13
531.46	54333.20
531.63	54190.42
531.80	54307.45
531.97	54237.23
532.14	54239.57
532.31	54401.07
532.48	54248.94
532.65	54347.24
532.82	54223.19
532.99	54337.88
533.16	54396.39
533.33	54724.07
533.50	54855.14
533.67	54817.69
533.84	54873.86
534.01	54827.05
534.18	55234.30
534.35	55241.32
534.52	54813.01
534.69	55154.72
534.86	55192.17
535.03	54908.97
535.20	55178.13
535.37	54974.50
535.54	55444.95
535.71	55107.91
535.88	55386.44
536.05	55489.42
536.22	55608.79
536.38	55564.32
536.55	55487.08
536.72	55627.51
536.89	55196.85
537.06	55402.82
537.23	55772.63
537.40	55346.65
537.57	55590.06
537.74	55749.22
537.91	55948.17
538.08	55732.84
538.25	55613.47
538.42	55632.19
538.59	56039.45
538.75	55915.40
538.92	55749.22
539.09	56320.31
539.26	56044.13
539.43	56051.15
539.60	56282.86
539.77	56231.37
539.94	56465.42
540.11	55978.59
540.28	56376.48
540.44	56385.85
540.61	56306.27
540.78	56315.63
540.95	56563.73
541.12	56278.18
541.29	56577.77
541.46	56322.65
541.62	56484.15
541.79	56781.40
541.96	56418.61
542.13	56395.21
542.30	56704.16
542.47	57024.81
542.63	56858.63
542.80	56837.57
542.97	56961.62
543.14	57153.54
543.31	57085.67
543.48	57144.18
543.64	57373.55
543.81	57214.40
543.98	57153.54
544.15	57144.18
544.32	57106.73
544.48	57488.24
544.65	57347.81
544.82	57427.38
544.99	57324.40
545.16	57710.59
545.32	57317.38
545.49	57684.84
545.66	57797.19
545.83	57350.15
546.00	57696.55
546.16	57584.20
546.33	57396.96
546.50	57446.11
546.67	57895.49
546.83	57326.74
547.00	57750.38
547.17	57853.36
547.34	57991.45
547.50	57722.29
547.67	58099.12
547.84	57939.96
548.00	58169.33
548.17	57925.92
548.34	58181.04
548.51	58241.89
548.67	58211.46
548.84	58117.84
549.01	58028.90
549.18	58131.89
549.34	58166.99
549.51	58110.82
549.68	58396.37
549.84	58286.36
550.01	58543.82
550.18	58110.82
550.34	58401.05
550.51	58499.35
550.68	58288.70
550.84	58171.67
551.01	58555.52
551.18	58440.84
551.34	58445.52
551.51	58482.97
551.68	58717.02
551.84	58618.72
552.01	58248.91
552.18	58693.61
552.34	58419.77
552.51	58726.38
552.68	58581.27
552.84	58639.78
553.01	58958.09
553.18	58752.13
553.34	58901.92
553.51	58719.36
553.67	58789.58
553.84	58834.05
554.01	59032.99
554.17	58969.80
554.34	59128.95
554.51	58939.37
554.67	59100.87
554.84	58960.44
555.00	58880.86
555.17	58852.77
555.33	59042.35
555.50	58955.75
555.67	59135.98
555.83	58827.02
556.00	58995.54
556.16	59374.71
556.33	59241.30
556.50	59084.48
556.66	59306.83
556.83	59138.32
556.99	59510.46
557.16	59538.55
557.32	59306.83
557.49	59702.38
557.65	59224.92
557.82	59217.89
557.98	59363.01
558.15	59433.22
558.32	59421.52
558.48	59269.39
558.65	59302.15
558.81	59327.90
558.98	59552.59
559.14	59297.47
559.31	59756.22
559.47	59934.10
559.64	59653.23
559.80	59564.29
559.97	59531.53
560.13	59667.28
560.30	59718.77
560.46	59812.39
560.63	59854.52
560.79	59812.39
560.96	59842.82
561.12	59880.27
561.29	59842.82
561.45	60006.65
561.61	59929.42
561.78	59927.08
561.94	59629.83
562.11	59756.22
562.27	59765.58
562.44	59833.46
562.60	59950.48
562.77	60072.19
562.93	59730.47
563.10	59964.52
563.26	59917.71
563.42	60184.54
563.59	60219.64
563.75	59915.37
563.92	59931.76
564.08	60088.57
564.24	60250.07
564.41	60034.74
564.57	60236.03
564.74	59950.48
564.90	60018.36
565.07	60278.16
565.23	60154.11
565.39	60182.19
565.56	60327.31
565.72	60317.95
565.88	60303.90
566.05	60133.04
566.21	60037.08
566.38	59985.59
566.54	60224.32
566.70	60500.51
566.87	60231.35
567.03	60135.38
567.19	60430.29
567.36	60196.24
567.52	60491.15
567.68	60526.25
567.85	60224.32
568.01	60355.39
568.17	60360.08
568.34	60427.95
568.50	60224.32
568.66	60252.41
568.83	60275.82
568.99	60229.01
569.15	60399.86
569.32	60378.80
569.48	60285.18
569.64	60491.15
569.81	60257.09
569.97	60095.60
570.13	60411.57
570.30	60430.29
570.46	60470.08
570.62	60446.68
570.78	60392.84
570.95	60552.00
571.11	60523.91
571.27	60390.50
571.43	60397.52
571.60	60556.68
571.76	60619.88
571.92	60748.60
572.09	60640.94
572.25	60521.57
572.41	60355.39
572.57	60491.15
572.74	60530.93
572.90	60303.90
573.06	60594.13
573.22	60441.99
573.38	60467.74
573.55	60652.64
573.71	60687.75
573.87	60596.47
574.03	60577.75
574.20	60874.99
574.36	60626.90
574.52	60631.58
574.68	60530.93
574.84	60793.07
575.01	60598.81
575.17	60729.88
575.33	60882.02
575.49	60554.34
575.65	60816.48
575.82	60903.08
575.98	60704.13
576.14	60982.66
576.30	60860.95
576.46	60687.75
576.62	60575.40
576.79	60760.31
576.95	60556.68
577.11	60713.50
577.27	60779.03
577.43	60783.71
577.59	60774.35
577.75	60797.76
577.92	60537.96
578.08	60722.86
578.24	60722.86
578.40	60879.67
578.56	60708.82
578.72	60769.67
578.88	61003.72
579.04	60905.42
579.21	60734.56
579.37	61050.53
579.53	60893.72
579.69	60664.35
579.85	60912.44
580.01	60804.78
580.17	60816.48
580.33	60844.57
580.49	60729.88
580.65	60959.25
580.82	60919.46
580.98	60882.02
581.14	60516.89
581.30	61006.06
581.46	60814.14
581.62	60814.14
581.78	60891.38
581.94	60959.25
582.10	60882.02
582.26	60914.78
582.42	61029.47
582.58	60928.83
582.74	60762.65
582.90	60898.40
583.06	60811.80
583.22	60715.84
583.38	60956.91
583.54	60818.82
583.70	61029.47
583.86	60963.93
584.02	60720.52
584.18	60734.56
584.34	60870.31
584.50	60853.93
584.66	60832.86
584.82	60872.65
584.98	61109.05
585.14	60949.89
585.30	61003.72
585.46	61006.06
585.62	60818.82
585.78	61176.92
585.94	60757.97
586.10	60807.12
586.26	61022.45
586.42	60900.74
586.58	61029.47
586.74	61097.34
586.90	60788.39
587.06	60797.76
587.22	60949.89
587.38	60842.23
587.54	61022.45
587.70	61249.48
587.86	61118.41
588.02	61008.40
588.18	61305.65
588.34	61038.83
