SpectraSuite Data File
++++++++++++++++++++++++++++++++++++
Date: Fri Oct 25 10:43:58 EDT 2013
User: price-jones
Dark Spectrum Present: No
Reference Spectrum Present: No
Number of Sampled Component Spectra: 1
Spectrometers: USB2+H05261
Integration Time (usec): 100000 (USB2+H05261)
Spectra Averaged: 1 (USB2+H05261)
Boxcar Smoothing: 0 (USB2+H05261)
Correct for Electrical Dark: No (USB2+H05261)
Strobe/Lamp Enabled: No (USB2+H05261)
Correct for Detector Non-linearity: No (USB2+H05261)
Correct for Stray Light: No (USB2+H05261)
Number of Pixels in Processed Spectrum: 2048
>>>>>Begin Processed Spectral Data<<<<<
365.73	145.11
365.92	145.11
366.12	145.11
366.32	49.15
366.52	0.00
366.72	67.88
366.91	0.00
367.11	11.70
367.31	0.00
367.51	0.00
367.70	0.00
367.90	21.06
368.10	9.36
368.30	14.04
368.49	9.36
368.69	72.56
368.89	25.75
369.09	56.17
369.28	51.49
369.48	0.00
369.68	37.45
369.87	46.81
370.07	93.62
370.27	74.90
370.47	229.37
370.66	315.97
370.86	435.34
371.06	491.51
371.25	521.94
371.45	444.70
371.65	479.81
371.84	414.27
372.04	416.62
372.24	458.74
372.44	543.00
372.63	514.92
372.83	533.64
373.03	578.11
373.22	507.90
373.42	526.62
373.62	521.94
373.81	594.50
374.01	531.30
374.21	538.32
374.40	512.58
374.60	589.82
374.79	589.82
374.99	580.45
375.19	580.45
375.38	648.33
375.58	582.79
375.78	587.47
375.97	566.41
376.17	688.12
376.37	561.73
376.56	627.26
376.76	629.60
376.95	615.56
377.15	690.46
377.35	678.76
377.54	674.07
377.74	631.94
377.93	645.99
378.13	645.99
378.33	631.94
378.52	671.73
378.72	730.25
378.91	622.58
379.11	774.72
379.31	690.46
379.50	683.44
379.70	706.84
379.89	713.86
380.09	753.65
380.28	716.20
380.48	730.25
380.68	643.65
380.87	678.76
381.07	758.33
381.26	748.97
381.46	678.76
381.65	727.91
381.85	763.01
382.04	664.71
382.24	751.31
382.43	636.63
382.63	678.76
382.83	681.10
383.02	765.36
383.22	725.57
383.41	683.44
383.61	653.01
383.80	760.67
384.00	807.48
384.19	826.21
384.39	844.93
384.58	798.12
384.78	896.43
384.97	826.21
385.17	866.00
385.36	800.46
385.56	786.42
385.75	915.15
385.95	786.42
386.14	903.45
386.34	868.34
386.53	819.19
386.72	835.57
386.92	919.83
387.11	880.04
387.31	837.91
387.50	837.91
387.70	791.10
387.89	858.98
388.09	887.06
388.28	898.77
388.48	1020.47
388.67	933.87
388.86	894.08
389.06	901.11
389.25	1022.81
389.45	1025.15
389.64	971.32
389.84	1039.20
390.03	1074.31
390.22	1029.84
390.42	1086.01
390.61	1025.15
390.81	1018.13
391.00	1025.15
391.19	1167.93
391.39	1107.07
391.58	1156.22
391.78	1029.84
391.97	1095.37
392.16	1029.84
392.36	1086.01
392.55	1053.24
392.75	1027.50
392.94	1008.77
393.13	994.73
393.33	976.00
393.52	1078.99
393.71	1114.10
393.91	1067.28
394.10	1121.12
394.29	1196.01
394.49	1191.33
394.68	1240.48
394.88	1221.76
395.07	1299.00
395.26	1270.91
395.46	1256.87
395.65	1242.82
395.84	1226.44
396.04	1184.31
396.23	1160.91
396.42	1153.88
396.62	1181.97
396.81	1210.06
397.00	1301.34
397.19	1240.48
397.39	1317.72
397.58	1406.66
397.77	1385.60
397.97	1434.75
398.16	1329.42
398.35	1481.56
398.55	1563.48
398.74	1511.99
398.93	1502.62
399.12	1502.62
399.32	1523.69
399.51	1551.78
399.70	1535.39
399.90	1619.65
400.09	1579.86
400.28	1614.97
400.47	1661.78
400.67	1509.65
400.86	1657.10
401.05	1734.34
401.24	1654.76
401.44	1694.55
401.63	1748.38
401.82	1715.61
402.01	1666.46
402.21	1774.13
402.40	1774.13
402.59	1881.79
402.78	1739.02
402.97	1830.30
403.17	1849.02
403.36	1816.26
403.55	1863.07
403.74	1877.11
403.93	1851.36
404.13	1966.05
404.32	1877.11
404.51	1867.75
404.70	1914.56
404.89	1877.11
405.09	1980.09
405.28	1989.46
405.47	1916.90
405.66	2054.99
405.85	1933.28
406.05	2069.03
406.24	2031.58
406.43	2022.22
406.62	2047.97
406.81	2244.57
407.00	2078.40
407.20	2050.31
407.39	2176.70
407.58	2188.40
407.77	2167.34
407.96	2242.23
408.15	2256.28
408.34	2270.32
408.54	2307.77
408.73	2333.51
408.92	2258.62
409.11	2389.69
409.30	2298.41
409.49	2221.17
409.68	2363.94
409.87	2356.92
410.07	2331.17
410.26	2373.30
410.45	2235.21
410.64	2420.11
410.83	2527.78
411.02	2532.46
411.21	2607.36
411.40	2616.72
411.59	2747.79
411.78	2670.55
411.98	2619.06
412.17	2637.78
412.36	2705.66
412.55	2731.41
412.74	2656.51
412.93	2768.85
413.12	2820.35
413.31	2911.63
413.50	2848.43
413.69	2888.22
413.88	3038.02
414.07	3066.10
414.26	2874.18
414.45	3148.02
414.64	3030.99
414.83	3038.02
415.02	3075.46
415.22	3157.38
415.41	3225.26
415.60	3211.22
415.79	3213.56
415.98	3353.99
416.17	3293.13
416.36	3297.81
416.55	3309.52
416.74	3262.71
416.93	3314.20
417.12	3339.94
417.31	3344.63
417.50	3346.97
417.69	3520.17
417.88	3578.68
418.07	3433.57
418.26	3494.42
418.45	3590.38
418.64	3705.07
418.83	3592.72
419.02	3684.00
419.21	3651.24
419.39	3641.87
419.58	3641.87
419.77	3548.25
419.96	3637.19
420.15	3712.09
420.34	3637.19
420.53	3810.39
420.72	3824.44
420.91	3920.40
421.10	3817.41
421.29	3854.86
421.48	3843.16
421.67	3955.51
421.86	3770.60
422.05	3789.33
422.24	3880.61
422.43	3889.97
422.61	3885.29
422.80	4070.19
422.99	4021.04
423.18	3939.12
423.37	3875.93
423.56	3932.10
423.75	3950.82
423.94	3978.91
424.13	3817.41
424.32	3833.80
424.50	3962.53
424.69	4147.43
424.88	4159.13
425.07	3957.85
425.26	3889.97
425.45	3957.85
425.64	4037.42
425.83	3962.53
426.01	4007.00
426.20	4187.22
426.39	4014.02
426.58	4039.76
426.77	3962.53
426.96	4053.81
427.15	3999.98
427.33	4044.45
427.52	4187.22
427.71	4229.35
427.90	4131.05
428.09	4269.14
428.28	4250.41
428.46	4138.07
428.65	4124.02
428.84	4269.14
429.03	4360.42
429.22	4215.30
429.40	4383.82
429.59	4102.96
429.78	4128.70
429.97	4074.87
430.16	4037.42
430.34	4117.00
430.53	4257.43
430.72	4217.65
430.91	4294.88
431.10	4447.02
431.28	4421.27
431.47	4610.86
431.66	4732.56
431.85	4463.40
432.03	4575.75
432.22	4720.86
432.41	4690.43
432.60	4725.54
432.79	4842.57
432.97	4819.16
433.16	4891.72
433.35	4652.98
433.54	4582.77
433.72	4580.43
433.91	4685.75
434.10	4882.36
434.28	4812.14
434.47	4908.10
434.66	4971.30
434.85	4807.46
435.03	5067.26
435.22	5027.47
435.41	5139.82
435.59	5207.69
435.78	5198.33
435.97	5277.91
436.16	5095.35
436.34	5214.71
436.53	5345.78
436.72	5268.55
436.90	5184.29
437.09	5146.84
437.28	5111.73
437.46	5167.90
437.65	5224.08
437.84	5359.83
438.02	5294.29
438.21	5310.68
438.40	5280.25
438.58	5345.78
438.77	5448.77
438.96	5448.77
439.14	5547.07
439.33	5621.97
439.52	5664.10
439.70	5708.57
439.89	5788.14
440.08	5816.23
440.26	5799.85
440.45	5734.31
440.63	5811.55
440.82	5919.21
441.01	5987.09
441.19	6052.63
441.38	6094.76
441.57	6183.70
441.75	6162.63
441.94	6452.86
442.12	6377.96
442.31	6469.24
442.50	6310.08
442.68	6387.32
442.87	6333.49
443.05	6457.54
443.24	6583.93
443.43	6651.80
443.61	6621.38
443.80	6712.66
443.98	6392.00
444.17	6324.13
444.35	6633.08
444.54	6722.02
444.73	6457.54
444.91	6452.86
445.10	6551.16
445.28	6537.12
445.47	6490.31
445.65	6588.61
445.84	6614.35
446.02	6663.51
446.21	6588.61
446.39	6490.31
446.58	6740.74
446.77	6773.51
446.95	6665.85
447.14	6773.51
447.32	6942.03
447.51	6743.08
447.69	6715.00
447.88	6862.45
448.06	6867.13
448.25	6773.51
448.43	6864.79
448.62	6979.48
448.80	6904.58
448.99	6916.28
449.17	6930.33
449.36	7070.76
449.54	6974.80
449.73	7145.66
449.91	7145.66
450.10	7136.29
450.28	7454.61
450.46	7431.20
450.65	7260.34
450.83	7274.38
451.02	7316.51
451.20	7250.98
451.39	7239.28
451.57	7332.90
451.76	7274.38
451.94	7307.15
452.13	7391.41
452.31	7199.49
452.49	7234.60
452.68	7180.76
452.86	7314.17
453.05	7449.93
453.23	7611.42
453.42	7246.30
453.60	7403.11
453.78	7581.00
453.97	7531.84
454.15	7564.61
454.34	7492.05
454.52	7585.68
454.70	7669.94
454.89	7735.47
455.07	7784.62
455.26	7749.51
455.44	7779.94
455.62	7859.52
455.81	7871.22
455.99	8088.89
456.17	7873.56
456.36	7918.03
456.54	8004.63
456.73	8074.85
456.91	8147.40
457.09	8149.75
457.28	8355.71
457.46	8168.47
457.64	8203.58
457.83	8128.68
458.01	8072.51
458.19	8472.74
458.38	8250.39
458.56	8454.02
458.74	8297.20
458.93	8376.78
459.11	8388.48
459.29	8344.01
459.48	8627.21
459.66	8346.35
459.84	8308.90
460.03	8690.41
460.21	8645.94
460.39	8587.43
460.57	8599.13
460.76	8865.95
460.94	8908.08
461.12	8690.41
461.31	8772.33
461.49	8798.07
461.67	8917.44
461.85	8959.57
462.04	8788.71
462.22	8994.68
462.40	8795.73
462.59	8994.68
462.77	8966.59
462.95	8922.12
463.13	8919.78
463.32	8912.76
463.50	9158.52
463.68	9114.05
463.86	9132.77
464.05	9078.94
464.23	8879.99
464.41	9081.28
464.59	9018.08
464.78	9156.18
464.96	9032.13
465.14	9301.29
465.32	9289.59
465.50	9364.48
465.69	9504.92
465.87	9366.82
466.05	9352.78
466.23	9383.21
466.41	9401.93
466.60	9263.84
466.78	9315.33
466.96	9228.73
467.14	9385.55
467.32	9282.56
467.51	9617.26
467.69	9369.16
467.87	9568.11
468.05	9687.48
468.23	9753.01
468.41	9584.49
468.60	9589.17
468.78	9675.77
468.96	9504.92
469.14	9958.98
469.32	9923.87
469.50	9603.22
469.69	10017.49
469.87	10078.35
470.05	10076.01
470.23	10183.67
470.41	10134.52
470.59	9872.38
470.77	10085.37
470.95	10186.01
471.14	10097.07
471.32	10064.30
471.50	10321.76
471.68	10326.44
471.86	10448.15
472.04	10675.18
472.22	10628.37
472.40	10483.26
472.58	10296.02
472.77	10665.82
472.95	10686.89
473.13	10970.09
473.31	10670.50
473.49	10684.55
473.67	10672.84
473.85	10736.04
474.03	11166.70
474.21	11037.97
474.39	11227.55
474.57	11169.04
474.75	11337.56
474.93	11335.21
475.12	11250.96
475.30	11433.52
475.48	11623.10
475.66	11379.68
475.84	11250.96
476.02	11637.14
476.20	11775.24
476.38	11850.13
476.56	12032.69
476.74	11875.88
476.92	11817.36
477.10	11695.66
477.28	11985.88
477.46	12341.64
477.64	12444.63
477.82	12549.95
478.00	12943.16
478.18	12685.70
478.36	12690.38
478.54	12812.09
478.72	12706.77
478.90	12784.01
479.08	13062.53
479.26	13125.72
479.44	13446.38
479.62	13385.52
479.80	13455.74
479.98	13493.19
480.16	13853.63
480.34	13813.84
480.52	13809.16
480.70	13790.44
480.88	13797.46
481.06	14293.65
481.24	14111.09
481.41	14216.41
481.59	14401.32
481.77	14539.41
481.95	14511.32
482.13	14752.40
482.31	14499.62
482.49	15161.99
482.67	15159.65
482.85	14988.79
483.03	15360.94
483.21	15618.39
483.39	15646.48
483.57	15616.05
483.74	15651.16
483.92	15967.13
484.10	15737.76
484.28	16042.03
484.46	16198.85
484.64	16526.52
484.82	15955.43
485.00	16278.43
485.18	16484.39
485.35	16613.12
485.53	16147.36
485.71	16322.90
485.89	16823.77
486.07	16615.46
486.25	16821.43
486.43	17111.66
486.61	17202.94
486.78	17502.53
486.96	17628.92
487.14	18003.40
487.32	17816.16
487.50	18272.56
487.68	18129.79
487.85	18487.89
488.03	18506.62
488.21	18934.93
488.39	18778.12
488.57	18766.42
488.75	18899.83
488.92	19257.93
489.10	19463.90
489.28	19541.13
489.46	19594.96
489.64	19651.14
489.81	20372.02
489.99	20472.67
490.17	20180.10
490.35	20606.08
490.53	20556.93
490.70	20769.91
490.88	20538.20
491.06	21128.02
491.24	20957.16
491.41	20999.29
491.59	21046.10
491.77	20744.17
491.95	21284.83
492.13	21495.48
492.30	21830.18
492.48	21968.27
492.66	21734.21
492.84	22188.28
493.01	22312.33
493.19	22043.17
493.37	22572.13
493.54	22815.54
493.72	23084.70
493.90	22916.19
494.08	22995.76
494.25	23583.24
494.43	23377.27
494.61	23396.00
494.79	23718.99
494.96	23931.98
495.14	23805.59
495.32	24142.63
495.49	24142.63
495.67	23901.55
495.85	24133.26
496.02	24470.30
496.20	24449.24
496.38	24573.28
496.55	24795.64
496.73	25333.96
496.91	25113.95
497.09	25039.05
497.26	25729.51
497.44	25638.23
497.62	25549.29
497.79	25902.71
497.97	25305.87
498.14	25724.83
498.32	25853.56
498.50	25649.93
498.67	26539.33
498.85	26237.41
499.03	26583.80
499.20	26448.05
499.38	26558.06
499.56	26567.42
499.73	26630.62
499.91	26918.50
500.08	27091.70
500.26	26787.43
500.44	26995.74
500.61	27199.37
500.79	27147.87
500.97	27236.81
501.14	27405.33
501.32	27400.65
501.49	27285.97
501.67	27725.99
501.84	27571.51
502.02	27798.54
502.20	28142.60
502.37	28318.14
502.55	28224.52
502.72	28400.06
502.90	28243.24
503.07	28268.99
503.25	28819.02
503.43	28100.47
503.60	28187.07
503.78	28224.52
503.95	28549.85
504.13	28744.12
504.30	28690.29
504.48	29041.37
504.65	29163.08
504.83	29315.21
505.01	29675.65
505.18	29605.44
505.36	30202.27
505.53	29441.60
505.71	30232.70
505.88	29970.56
506.06	29605.44
506.23	30235.04
506.41	29881.62
506.58	30284.19
506.76	30548.67
506.93	30707.83
507.11	30300.58
507.28	30183.55
507.46	30185.89
507.63	30614.21
507.81	30874.01
507.98	30164.82
508.16	30644.63
508.33	31007.42
508.50	30955.93
508.68	31365.52
508.85	31892.14
509.03	31201.68
509.20	31077.63
509.38	31637.02
509.55	31459.14
509.73	31625.32
509.90	31608.93
510.08	31957.67
510.25	31548.08
510.42	31800.86
510.60	32278.33
510.77	31955.33
510.95	32411.74
511.12	32240.88
511.30	32306.41
511.47	32760.48
511.64	32507.70
511.82	32849.42
511.99	32453.87
512.17	32615.37
512.34	32854.10
512.51	32856.44
512.69	33156.03
512.86	33708.40
513.04	33446.26
513.21	33317.53
513.38	33387.74
513.56	33137.30
513.73	33439.23
513.90	33074.11
514.08	33378.38
514.25	33301.14
514.43	33404.13
514.60	33352.63
514.77	33474.34
514.95	33574.98
515.12	33954.15
515.29	34328.64
515.47	34307.57
515.64	34185.86
515.81	34129.69
515.99	34038.41
516.16	34108.63
516.33	33706.05
516.51	33958.83
516.68	33923.72
516.85	33259.01
517.03	33497.75
517.20	34066.50
517.37	34646.95
517.54	34735.89
517.72	34602.48
517.89	34237.36
518.06	34153.10
518.24	34438.64
518.41	34462.05
518.58	35147.82
518.75	35171.23
518.93	35409.96
519.10	35173.57
519.27	35421.67
519.45	35346.77
519.62	35302.30
519.79	35838.28
519.96	35782.11
520.14	35964.67
520.31	35566.78
520.48	35803.17
520.65	35896.80
520.83	36229.15
521.00	36268.94
521.17	36332.14
521.34	36018.50
521.52	36755.77
521.69	36472.57
521.86	36577.89
522.03	36830.67
522.20	36357.88
522.38	36605.98
522.55	36844.71
522.72	36966.42
522.89	36519.38
523.07	37022.59
523.24	36996.85
523.41	37303.46
523.58	37387.72
523.75	37593.68
523.92	37633.47
524.10	37638.15
524.27	37621.77
524.44	37813.70
524.61	37801.99
524.78	37567.94
524.96	37816.04
525.13	37839.44
525.30	37823.06
525.47	38316.91
525.64	37907.32
525.81	37963.49
525.98	37696.67
526.16	37963.49
526.33	37368.99
526.50	37752.84
526.67	37532.83
526.84	37560.92
527.01	37745.82
527.18	38162.43
527.36	38780.34
527.53	38553.30
527.70	38965.24
527.87	39079.92
528.04	38981.62
528.21	38976.94
528.38	38824.81
528.55	39337.38
528.72	39063.54
528.89	39304.62
529.07	39206.31
529.24	38880.98
529.41	39431.01
529.58	39098.65
529.75	39220.36
529.92	39093.97
530.09	39768.04
530.26	39489.52
530.43	39503.56
530.60	39704.85
530.77	39440.37
530.94	39793.79
531.11	39739.96
531.28	39477.82
531.46	39798.47
531.63	40093.38
531.80	39828.90
531.97	39447.39
532.14	39770.38
532.31	39615.91
532.48	39861.66
532.65	40261.90
532.82	39510.58
532.99	40025.50
533.16	40535.74
533.33	40718.30
533.50	40266.58
533.67	40364.88
533.84	40336.79
534.01	40533.40
534.18	40196.36
534.35	40444.46
534.52	40357.86
534.69	40779.15
534.86	40722.98
535.03	40926.61
535.20	40886.82
535.37	41123.21
535.54	41317.48
535.71	40692.55
535.88	40992.14
536.05	41209.81
536.22	41017.89
536.38	41277.69
536.55	41296.41
536.72	40879.80
536.89	40727.66
537.06	40957.03
537.23	41567.91
537.40	41476.63
537.57	41448.55
537.74	41619.41
537.91	41720.05
538.08	41572.60
538.25	41563.23
538.42	41762.18
538.59	41977.51
538.75	41085.76
538.92	41537.49
539.09	41977.51
539.26	41968.15
539.43	41839.42
539.60	41993.89
539.77	41841.76
539.94	41958.78
540.11	41848.78
540.28	42017.30
540.44	41979.85
540.61	41942.40
540.78	41390.03
540.95	41776.22
541.12	41680.26
541.29	41916.65
541.46	41893.25
541.62	42485.40
541.79	42782.65
541.96	41687.28
542.13	42047.72
542.30	42319.23
542.47	42108.58
542.63	42157.73
542.80	42342.63
542.97	42625.84
543.14	43131.39
543.31	42857.55
543.48	42555.62
543.64	43440.34
543.81	43124.37
543.98	43533.96
544.15	43353.74
544.32	43400.55
544.48	43496.52
544.65	43491.83
544.82	43583.12
544.99	42890.32
545.16	43220.33
545.32	43136.07
545.49	43882.70
545.66	43742.27
545.83	43875.68
546.00	43878.02
546.16	43573.75
546.33	43805.47
546.50	43309.27
546.67	43665.03
546.83	43372.47
547.00	43438.00
547.17	43459.07
547.34	43423.96
547.50	43969.30
547.67	43641.63
547.84	43742.27
548.00	43854.62
548.17	44423.37
548.34	44147.18
548.51	44446.77
548.67	44069.95
548.84	44165.91
549.01	43849.94
549.18	43981.01
549.34	44502.95
549.51	44498.26
549.68	44399.96
549.84	44435.07
550.01	44444.43
550.18	44163.57
550.34	44320.38
550.51	44119.10
550.68	44516.99
550.84	44306.34
551.01	44643.38
551.18	44554.44
551.34	44406.98
551.51	44924.24
551.68	44362.51
551.84	44535.71
552.01	44552.10
552.18	44690.19
552.34	44353.15
552.51	44708.91
552.68	44268.89
552.84	44739.34
553.01	45074.04
553.18	44505.29
553.34	44648.06
553.51	44617.63
553.67	44704.23
553.84	45338.52
554.01	45017.86
554.17	45275.32
554.34	45102.12
554.51	45177.02
554.67	45158.30
554.84	45366.60
555.00	44807.22
555.17	44598.91
555.33	45134.89
555.50	44751.04
555.67	45230.85
555.83	45048.29
556.00	45148.93
556.16	45776.20
556.33	45059.99
556.50	45120.85
556.66	45633.42
556.83	45067.02
556.99	45155.96
557.16	45783.22
557.32	45635.77
557.49	45188.72
557.65	45558.53
557.82	45258.94
557.98	45179.36
558.15	45518.74
558.32	45504.70
558.48	45249.58
558.65	45392.35
558.81	45069.36
558.98	45427.46
559.14	45713.00
559.31	45127.87
559.47	45626.40
559.64	45766.84
559.80	45298.73
559.97	45507.04
560.13	45595.98
560.30	45713.00
560.46	45411.07
560.63	45741.09
560.79	45553.85
560.96	46115.58
561.12	45794.92
561.29	45846.41
561.45	45736.41
561.61	45603.00
561.78	45853.44
561.94	45560.87
562.11	45535.12
562.27	45574.91
562.44	46190.47
562.60	46373.03
562.77	45937.69
562.93	46021.95
563.10	45935.35
563.26	45598.32
563.42	45933.01
563.59	45677.90
563.75	45411.07
563.92	46291.12
564.08	46010.25
564.24	46408.14
564.41	46017.27
564.57	45937.69
564.74	45649.81
564.90	46103.87
565.07	45897.91
565.23	46089.83
565.39	46101.53
565.56	45741.09
565.72	45930.67
565.88	45794.92
566.05	45638.11
566.21	45675.55
566.38	46298.14
566.54	46115.58
566.70	46389.42
566.87	46770.93
567.03	46129.62
567.19	46738.16
567.36	46286.43
567.52	46213.88
567.68	46101.53
567.85	46148.34
568.01	46473.68
568.17	46092.17
568.34	46274.73
568.50	46307.50
568.66	45509.38
568.83	46333.24
568.99	45989.19
569.15	46698.37
569.32	46045.36
569.48	46043.02
569.64	46630.49
569.81	46380.06
569.97	46244.30
570.13	46361.33
570.30	45832.37
570.46	45703.64
570.62	45935.35
570.78	45921.31
570.95	46054.72
571.11	46071.10
571.27	46270.05
571.43	45734.07
571.60	46075.79
571.76	46241.96
571.92	46433.89
572.09	46291.12
572.25	46588.36
572.41	46293.46
572.57	46321.54
572.74	46691.35
572.90	46543.89
573.06	46440.91
573.22	46522.83
573.38	46246.65
573.55	46281.75
573.71	46319.20
573.87	46452.61
574.03	46637.51
574.20	46979.23
574.36	46040.68
574.52	46073.45
574.68	46705.39
574.84	46394.10
575.01	46321.54
575.17	46305.16
575.33	46288.77
575.49	46368.35
575.65	46375.37
575.82	46153.02
575.98	46431.55
576.14	46670.28
576.30	46663.26
576.46	46600.07
576.62	46267.71
576.79	46333.24
576.95	45844.07
577.11	46536.87
577.27	46398.78
577.43	46064.08
577.59	46143.66
577.75	46206.86
577.92	45928.33
578.08	46330.90
578.24	46195.15
578.40	46138.98
578.56	46543.89
578.72	46576.66
578.88	46396.44
579.04	46564.96
579.21	46429.21
579.37	46363.67
579.53	46546.23
579.69	46525.17
579.85	46562.62
580.01	46667.94
580.17	46213.88
580.33	46251.33
580.49	46553.26
580.65	46707.73
580.82	46557.94
580.98	46614.11
581.14	46274.73
581.30	46492.40
581.46	46644.54
581.62	46525.17
581.78	46209.20
581.94	46419.84
582.10	46843.48
582.26	46337.93
582.42	46457.29
582.58	46387.08
582.74	46195.15
582.90	46796.67
583.06	46705.39
583.22	46473.68
583.38	46892.63
583.54	47138.39
583.70	46433.89
583.86	46588.36
584.02	46012.59
584.18	46525.17
584.34	46820.08
584.50	46281.75
584.66	46270.05
584.82	46330.90
584.98	46525.17
585.14	46876.25
585.30	46225.58
585.46	46520.49
585.62	46150.68
585.78	46623.47
585.94	46204.52
586.10	46562.62
586.26	46096.85
586.42	46660.92
586.58	46892.63
586.74	46604.75
586.90	46185.79
587.06	45689.60
587.22	46532.19
587.38	46543.89
587.54	46476.02
587.70	46555.60
587.86	46733.48
588.02	46387.08
588.18	47065.83
588.34	46038.34
588.49	45837.05
588.65	45907.27
588.81	45911.95
588.97	46316.86
589.13	45659.17
589.29	46284.09
589.45	46527.51
589.61	46459.63
589.77	46225.58
589.93	46382.40
