SpectraSuite Data File
++++++++++++++++++++++++++++++++++++
Date: Fri Oct 25 11:33:37 EDT 2013
User: price-jones
Dark Spectrum Present: No
Reference Spectrum Present: No
Number of Sampled Component Spectra: 1
Spectrometers: USB2+H05261
Integration Time (usec): 100000 (USB2+H05261)
Spectra Averaged: 1 (USB2+H05261)
Boxcar Smoothing: 0 (USB2+H05261)
Correct for Electrical Dark: No (USB2+H05261)
Strobe/Lamp Enabled: No (USB2+H05261)
Correct for Detector Non-linearity: No (USB2+H05261)
Correct for Stray Light: No (USB2+H05261)
Number of Pixels in Processed Spectrum: 2048
>>>>>Begin Processed Spectral Data<<<<<
365.73	227.03
365.92	227.03
366.12	227.03
366.32	196.60
366.52	205.97
366.72	168.52
366.91	217.67
367.11	217.67
367.31	236.39
367.51	152.13
367.70	182.56
367.90	182.56
368.10	163.84
368.30	119.37
368.49	145.11
368.69	215.33
368.89	189.58
369.09	163.84
369.28	119.37
369.48	128.73
369.68	229.37
369.87	269.16
370.07	245.76
370.27	266.82
370.47	315.97
370.66	458.74
370.86	505.56
371.06	547.69
371.25	645.99
371.45	507.90
371.65	514.92
371.84	475.13
372.04	535.98
372.24	503.22
372.44	561.73
372.63	528.96
372.83	528.96
373.03	592.16
373.22	566.41
373.42	645.99
373.62	669.39
373.81	667.05
374.01	664.71
374.21	688.12
374.40	669.39
374.60	711.52
374.79	648.33
374.99	571.09
375.19	634.29
375.38	613.22
375.58	603.86
375.78	713.86
375.97	636.63
376.17	622.58
376.37	592.16
376.56	592.16
376.76	702.16
376.95	748.97
377.15	746.63
377.35	641.31
377.54	667.05
377.74	622.58
377.93	723.23
378.13	732.59
378.33	699.82
378.52	662.37
378.72	760.67
378.91	744.29
379.11	709.18
379.31	720.88
379.50	667.05
379.70	784.08
379.89	681.10
380.09	674.07
380.28	674.07
380.48	758.33
380.68	746.63
380.87	788.76
381.07	779.40
381.26	770.04
381.46	767.70
381.65	741.95
381.85	704.50
382.04	763.01
382.24	812.17
382.43	842.59
382.63	807.48
382.83	777.06
383.02	877.70
383.22	751.31
383.41	765.36
383.61	802.80
383.80	779.40
384.00	786.42
384.19	851.96
384.39	903.45
384.58	786.42
384.78	800.46
384.97	856.64
385.17	821.53
385.36	884.72
385.56	819.19
385.75	823.87
385.95	898.77
386.14	805.14
386.34	779.40
386.53	828.55
386.72	868.34
386.92	847.27
387.11	901.11
387.31	851.96
387.50	929.19
387.70	844.93
387.89	938.55
388.09	971.32
388.28	966.64
388.48	861.32
388.67	997.07
388.86	884.72
389.06	1036.86
389.25	880.04
389.45	1036.86
389.64	905.79
389.84	957.28
390.03	954.94
390.22	943.24
390.42	976.00
390.61	1029.84
390.81	992.39
391.00	912.81
391.19	997.07
391.39	1050.90
391.58	992.39
391.78	1039.20
391.97	1004.09
392.16	973.66
392.36	1036.86
392.55	976.00
392.75	994.73
392.94	1088.35
393.13	1050.90
393.33	1074.31
393.52	1149.20
393.71	1034.52
393.91	1088.35
394.10	1074.31
394.29	1081.33
394.49	1006.43
394.68	1111.75
394.88	1123.46
395.07	1214.74
395.26	1170.27
395.46	1107.07
395.65	1266.23
395.84	1163.25
396.04	1224.10
396.23	1282.61
396.42	1221.76
396.62	1256.87
396.81	1135.16
397.00	1252.19
397.19	1210.06
397.39	1203.04
397.58	1245.16
397.77	1280.27
397.97	1261.55
398.16	1191.33
398.35	1228.78
398.55	1322.40
398.74	1261.55
398.93	1336.45
399.12	1280.27
399.32	1313.04
399.51	1343.47
399.70	1357.51
399.90	1397.30
400.09	1385.60
400.28	1416.02
400.47	1364.53
400.67	1404.32
400.86	1444.11
401.05	1362.19
401.24	1406.66
401.44	1432.41
401.63	1392.62
401.82	1504.96
402.01	1511.99
402.21	1406.66
402.40	1462.83
402.59	1469.86
402.78	1483.90
402.97	1502.62
403.17	1493.26
403.36	1514.33
403.55	1568.16
403.74	1650.08
403.93	1526.03
404.13	1596.25
404.32	1603.27
404.51	1575.18
404.70	1685.19
404.89	1563.48
405.09	1717.95
405.28	1680.50
405.47	1535.39
405.66	1701.57
405.85	1713.27
406.05	1750.72
406.24	1736.68
406.43	1680.50
406.62	1797.53
406.81	1846.68
407.00	1771.79
407.20	1809.23
407.39	1827.96
407.58	1853.70
407.77	1849.02
407.96	1832.64
408.15	1823.28
408.34	1893.49
408.54	1823.28
408.73	1923.92
408.92	1832.64
409.11	1898.17
409.30	2017.54
409.49	2078.40
409.68	2022.22
409.87	1935.62
410.07	2136.91
410.26	2080.74
410.45	2015.20
410.64	2076.06
410.83	2195.42
411.02	2085.42
411.21	2104.14
411.40	2092.44
411.59	2150.95
411.78	2232.87
411.98	2202.44
412.17	2228.19
412.36	2188.40
412.55	2291.38
412.74	2256.28
412.93	2342.88
413.12	2312.45
413.31	2394.37
413.50	2523.10
413.69	2413.09
413.88	2445.86
414.07	2480.97
414.26	2626.08
414.45	2506.71
414.64	2551.18
414.83	2495.01
415.02	2607.36
415.22	2548.84
415.41	2647.15
415.60	2572.25
415.79	2677.57
415.98	2768.85
416.17	2668.21
416.36	2789.92
416.55	2623.74
416.74	2773.53
416.93	2792.26
417.12	2799.28
417.31	2904.60
417.50	2956.10
417.69	2949.08
417.88	2939.71
418.07	2843.75
418.26	2930.35
418.45	3084.83
418.64	3080.14
418.83	3112.91
419.02	3061.42
419.21	3075.46
419.39	3103.55
419.58	3197.17
419.77	3045.04
419.96	3038.02
420.15	3220.58
420.34	3236.96
420.53	3131.64
420.72	3295.47
420.91	3276.75
421.10	3325.90
421.29	3243.98
421.48	3332.92
421.67	3353.99
421.86	3405.48
422.05	3286.11
422.24	3363.35
422.43	3318.88
422.61	3358.67
422.80	3454.63
422.99	3321.22
423.18	3475.70
423.37	3442.93
423.56	3391.44
423.75	3368.03
423.94	3328.24
424.13	3176.11
424.32	3290.79
424.50	3407.82
424.69	3611.45
424.88	3578.68
425.07	3384.41
425.26	3410.16
425.45	3400.80
425.64	3389.10
425.83	3463.99
426.01	3503.78
426.20	3468.67
426.39	3562.30
426.58	3365.69
426.77	3522.51
426.96	3499.10
427.15	3541.23
427.33	3590.38
427.52	3548.25
427.71	3616.13
427.90	3552.93
428.09	3665.28
428.28	3688.68
428.46	3726.13
428.65	3637.19
428.84	3791.67
429.03	3843.16
429.22	3536.55
429.40	3747.20
429.59	3805.71
429.78	3796.35
429.97	3660.60
430.16	3758.90
430.34	3974.23
430.53	3915.72
430.72	3861.88
430.91	3777.62
431.10	3864.22
431.28	3854.86
431.47	4023.38
431.66	4032.74
431.85	4007.00
432.03	4037.42
432.22	4163.81
432.41	4084.23
432.60	4121.68
432.79	4049.13
432.97	4140.41
433.16	4231.69
433.35	4109.98
433.54	4156.79
433.72	4241.05
433.91	4131.05
434.10	4133.39
434.28	4145.09
434.47	4196.58
434.66	4259.78
434.85	4166.15
435.03	4306.59
435.22	4456.38
435.41	4566.39
435.59	4421.27
435.78	4339.35
435.97	4479.79
436.16	4484.47
436.34	4550.00
436.53	4437.66
436.72	4573.41
436.90	4423.61
437.09	4512.55
437.28	4383.82
437.46	4482.13
437.65	4519.57
437.84	4690.43
438.02	4681.07
438.21	4638.94
438.40	4580.43
438.58	4786.40
438.77	4746.61
438.96	4685.75
439.14	4910.44
439.33	4910.44
439.52	5015.77
439.70	4938.53
439.89	4999.38
440.08	4917.47
440.26	5036.83
440.45	5027.47
440.63	5163.22
440.82	5224.08
441.01	5041.51
441.19	5146.84
441.38	5287.27
441.57	5336.42
441.75	5371.53
441.94	5392.59
442.12	5497.92
442.31	5362.17
442.50	5383.23
442.68	5380.89
442.87	5577.50
443.05	5406.64
443.24	5556.43
443.43	5582.18
443.61	5771.76
443.80	5778.78
443.98	5322.38
444.17	5266.21
444.35	5673.46
444.54	5710.91
444.73	5694.52
444.91	5671.12
445.10	5610.26
445.28	5694.52
445.47	5638.35
445.65	5710.91
445.84	5722.61
446.02	5900.49
446.21	5706.23
446.39	5764.74
446.58	5886.45
446.77	5722.61
446.95	5610.26
447.14	5685.16
447.32	5813.89
447.51	5706.23
447.69	5706.23
447.88	5790.49
448.06	5858.36
448.25	5753.04
448.43	5813.89
448.62	5902.83
448.80	5713.25
448.99	5900.49
449.17	6019.86
449.36	5933.26
449.54	6174.33
449.73	6129.86
449.91	6169.65
450.10	6031.56
450.28	6073.69
450.46	6190.72
450.65	6111.14
450.83	6076.03
451.02	6258.59
451.20	6293.70
451.39	6235.19
451.57	6258.59
451.76	6160.29
451.94	6326.47
452.13	6361.58
452.31	6274.98
452.49	6253.91
452.68	6209.44
452.86	6279.66
453.05	6298.38
453.23	6546.48
453.42	6293.70
453.60	6321.79
453.78	6450.52
453.97	6202.42
454.15	6335.83
454.34	6394.34
454.52	6661.16
454.70	6457.54
454.89	6616.69
455.07	6537.12
455.26	6698.61
455.44	6782.87
455.62	6682.23
455.81	6705.63
455.99	6717.34
456.17	6869.47
456.36	6932.67
456.54	6902.24
456.73	6874.15
456.91	7227.57
457.09	7152.68
457.28	6970.12
457.46	6958.41
457.64	7136.29
457.83	7269.70
458.01	7094.16
458.19	7358.64
458.38	7087.14
458.56	7337.58
458.74	7197.15
458.93	7075.44
459.11	7030.97
459.29	7304.81
459.48	7218.21
459.66	7297.79
459.84	7293.11
460.03	7461.63
460.21	7435.88
460.39	7431.20
460.57	7466.31
460.76	7559.93
460.94	7639.51
461.12	7412.48
461.31	7606.74
461.49	7634.83
461.67	7536.52
461.85	7676.96
462.04	7590.36
462.22	7983.57
462.40	7779.94
462.59	7616.10
462.77	7662.91
462.95	7854.84
463.13	7801.01
463.32	7772.92
463.50	7822.07
463.68	8009.31
463.86	7932.08
464.05	7911.01
464.23	7911.01
464.41	8018.68
464.59	7896.97
464.78	8044.42
464.96	8030.38
465.14	8013.99
465.32	8081.87
465.50	8215.28
465.69	8119.32
465.87	8201.24
466.05	8395.50
466.23	8210.60
466.41	8175.49
466.60	8418.91
466.78	8147.40
466.96	8203.58
467.14	8241.03
467.32	8336.99
467.51	8409.54
467.69	8320.60
467.87	8437.63
468.05	8444.65
468.23	8451.67
468.41	8376.78
468.60	8463.38
468.78	8465.72
468.96	8512.53
469.14	8662.32
469.32	8674.03
469.50	8414.23
469.69	8681.05
469.87	8795.73
470.05	8610.83
470.23	8865.95
470.41	8891.70
470.59	9048.51
470.77	8894.04
470.95	8975.95
471.14	9057.87
471.32	8664.66
471.50	9210.01
471.68	9013.40
471.86	9125.75
472.04	9156.18
472.22	9373.85
472.40	9067.24
472.58	9277.88
472.77	9336.40
472.95	9476.83
473.13	9694.50
473.31	9390.23
473.49	9497.89
473.67	9518.96
473.85	9614.92
474.03	9856.00
474.21	9710.88
474.39	9870.04
474.57	9823.23
474.75	9832.59
474.93	9867.70
475.12	10033.88
475.30	10090.05
475.48	9977.70
475.66	10277.29
475.84	10153.24
476.02	10186.01
476.20	10396.66
476.38	10539.43
476.56	10635.39
476.74	10607.31
476.92	10640.08
477.10	10579.22
477.28	10623.69
477.46	10806.25
477.64	10871.79
477.82	10824.98
478.00	11225.21
478.18	11452.24
478.36	11173.72
478.54	11265.00
478.72	11403.09
478.90	11496.71
479.08	11393.73
479.26	11765.87
479.44	11793.96
479.62	11964.82
479.80	11910.99
479.98	12072.48
480.16	12217.60
480.34	11995.25
480.52	12292.49
480.70	12271.43
480.88	12095.89
481.06	12308.88
481.24	12311.22
481.41	12493.78
481.59	12919.76
481.77	12744.22
481.95	12947.84
482.13	12971.25
482.31	13001.68
482.49	13362.12
482.67	13305.95
482.85	13699.16
483.03	13813.84
483.21	13586.81
483.39	13806.82
483.57	13738.94
483.74	13970.66
483.92	13886.40
484.10	14342.80
484.28	14314.72
484.46	14200.03
484.64	14941.98
484.82	14441.11
485.00	14682.18
485.18	14754.74
485.35	15105.82
485.53	15236.89
485.71	15386.68
485.89	15438.17
486.07	15318.81
486.25	15648.82
486.43	15587.97
486.61	15655.84
486.78	15810.32
486.96	15880.53
487.14	16196.51
487.32	16088.84
487.50	16255.02
487.68	16643.55
487.85	16563.97
488.03	16765.26
488.21	17064.85
488.39	17008.67
488.57	17081.23
488.75	17177.19
488.92	17408.90
489.10	17649.98
489.28	17575.08
489.46	17926.16
489.64	17799.77
489.81	18066.60
489.99	18221.07
490.17	18192.98
490.35	18462.15
490.53	18761.73
490.70	18750.03
490.88	18565.13
491.06	18902.17
491.24	19236.86
491.41	19021.53
491.59	19384.32
491.77	19173.67
491.95	19456.87
492.13	19655.82
492.30	19803.27
492.48	19733.06
492.66	19695.61
492.84	19943.70
493.01	20512.46
493.19	20194.14
493.37	20360.32
493.54	20533.52
493.72	20695.02
493.90	20737.15
494.08	20610.76
494.25	21003.97
494.43	21074.18
494.61	21394.84
494.79	21116.31
494.96	21488.46
495.14	21593.78
495.32	21752.94
495.49	21635.91
495.67	21975.29
495.85	21717.83
496.02	22167.21
496.20	22403.61
496.38	22359.14
496.55	22628.30
496.73	23260.24
496.91	22888.10
497.09	22923.21
497.26	23068.32
497.44	22871.72
497.62	23234.50
497.79	23864.10
497.97	23503.66
498.14	23285.99
498.32	23740.05
498.50	23772.82
498.67	23819.63
498.85	23943.68
499.03	24259.65
499.20	24350.93
499.38	24144.97
499.56	24372.00
499.73	24528.81
499.91	24809.68
500.08	24987.56
500.26	24425.83
500.44	24807.34
500.61	24704.35
500.79	24760.53
500.97	25385.45
501.14	25383.11
501.32	25397.15
501.49	25427.58
501.67	25631.21
501.84	25752.91
502.02	25462.69
502.20	25902.71
502.37	26038.46
502.55	25696.74
502.72	26059.52
502.90	25996.33
503.07	26246.77
503.25	26148.46
503.43	26326.35
503.60	26157.83
503.78	26314.64
503.95	26801.47
504.13	26483.16
504.30	26766.37
504.48	26721.90
504.65	27009.78
504.83	26904.46
505.01	26881.05
505.18	26986.38
505.36	27454.48
505.53	27145.53
505.71	27503.64
505.88	27220.43
506.06	27168.94
506.23	27742.37
506.41	27995.15
506.58	27747.05
506.76	27658.11
506.93	28283.03
507.11	27934.29
507.28	28201.11
507.46	28170.69
507.63	28601.35
507.81	28575.60
507.98	28268.99
508.16	28334.53
508.33	28851.78
508.50	28772.21
508.68	28594.32
508.85	29074.13
509.03	28936.04
509.20	29221.59
509.38	29593.73
509.55	29270.74
509.73	29621.82
509.90	29490.75
510.08	29624.16
510.25	29776.30
510.42	29411.17
510.60	30101.63
510.77	30202.27
510.95	30572.08
511.12	30312.28
511.30	30429.30
511.47	30225.68
511.64	30052.48
511.82	30487.82
511.99	30012.69
512.17	30426.96
512.34	30630.59
512.51	30974.65
512.69	30698.47
512.86	31091.68
513.04	31044.87
513.21	30960.61
513.38	31084.65
513.56	31077.63
513.73	31337.43
513.90	31480.21
514.08	31131.47
514.25	31515.31
514.43	31716.60
514.60	31529.36
514.77	32006.83
514.95	32023.21
515.12	31777.45
515.29	32175.34
515.47	31756.39
515.64	32091.09
515.81	31644.04
515.99	32180.03
516.16	32636.43
516.33	32404.72
516.51	32414.08
516.68	32086.40
516.85	32474.93
517.03	32570.90
517.20	32786.22
517.37	32498.34
517.54	33151.35
517.72	33003.89
517.89	33167.73
518.06	33261.35
518.24	33139.65
518.41	33064.75
518.58	33291.78
518.75	33179.43
518.93	33610.09
519.10	33888.62
519.27	33853.51
519.45	33605.41
519.62	33989.26
519.79	33661.58
519.96	33928.41
520.14	34036.07
520.31	33839.47
520.48	34033.73
520.65	34092.24
520.83	34677.38
521.00	34281.83
521.17	34476.09
521.34	34869.30
521.52	34504.18
521.69	34450.35
521.86	34735.89
522.03	34656.31
522.20	35150.17
522.38	35028.46
522.55	35150.17
522.72	35435.71
522.89	34986.33
523.07	35311.66
523.24	35494.22
523.41	35639.34
523.58	35152.51
523.75	35463.80
523.92	35510.61
524.10	35990.42
524.27	35859.35
524.44	35756.36
524.61	35648.70
524.78	35941.27
524.96	36217.45
525.13	35962.33
525.30	36116.81
525.47	35889.77
525.64	36032.55
525.81	36112.13
525.98	36423.42
526.16	36238.51
526.33	36322.77
526.50	36652.79
526.67	36453.84
526.84	36673.85
527.01	36898.55
527.18	36814.29
527.36	36971.10
527.53	37326.86
527.70	37364.31
527.87	37223.88
528.04	37258.99
528.21	37102.17
528.38	36947.70
528.55	37205.16
528.72	37083.45
528.89	37483.68
529.07	37324.52
529.24	37614.75
529.41	37525.81
529.58	37364.31
529.75	37806.67
529.92	37493.04
530.09	37958.81
530.26	37876.89
530.43	38017.32
530.60	37256.65
530.77	37930.72
530.94	38148.39
531.11	37942.42
531.28	38267.76
531.46	38258.40
531.63	38265.42
531.80	38153.07
531.97	38639.90
532.14	38754.59
532.31	38450.32
532.48	38728.84
532.65	38686.71
532.82	38520.54
532.99	38665.65
533.16	38714.80
533.33	39016.73
533.50	38747.57
533.67	38649.27
533.84	38658.63
534.01	38609.48
534.18	39042.48
534.35	39470.79
534.52	39154.82
534.69	39405.26
534.86	39082.27
535.03	39236.74
535.20	39360.79
535.37	39400.58
535.54	39440.37
535.71	39655.70
535.88	39821.87
536.05	39643.99
536.22	39845.28
536.38	39742.30
536.55	39686.12
536.72	39812.51
536.89	39828.90
537.06	40208.06
537.23	40165.93
537.40	39889.75
537.57	39997.41
537.74	39672.08
537.91	40610.64
538.08	39732.93
538.25	39899.11
538.42	40332.11
538.59	40617.66
538.75	40158.91
538.92	40837.67
539.09	40687.87
539.26	40718.30
539.43	40814.26
539.60	40364.88
539.77	40502.97
539.94	41305.77
540.11	41001.50
540.28	40858.73
540.44	40884.48
540.61	40690.21
540.78	40547.44
540.95	41137.26
541.12	41263.64
541.29	40807.24
541.46	40978.10
541.62	41333.86
541.79	41469.61
541.96	41188.75
542.13	41418.12
542.30	41495.36
542.47	41759.84
542.63	41593.66
542.80	41808.99
542.97	41888.57
543.14	42021.98
543.31	41954.10
543.48	41720.05
543.64	42459.66
543.81	41972.83
543.98	42101.56
544.15	42316.89
544.32	42298.16
544.48	42616.47
544.65	42604.77
544.82	42244.33
544.99	41982.19
545.16	42389.44
545.32	42412.85
545.49	42574.34
545.66	43391.19
545.83	42206.88
546.00	42883.30
546.16	42813.08
546.33	42581.37
546.50	42382.42
546.67	43426.30
546.83	42602.43
547.00	42815.42
547.17	42696.05
547.34	42747.54
547.50	43227.35
547.67	43196.93
547.84	43278.85
548.00	43496.52
548.17	43227.35
548.34	43147.78
548.51	43580.78
548.67	43442.68
548.84	43304.59
549.01	43173.52
549.18	43679.08
549.34	43646.31
549.51	43653.33
549.68	43384.17
549.84	43276.51
550.01	43669.72
550.18	43358.42
550.34	43807.81
550.51	43868.66
550.68	43606.52
550.84	43531.62
551.01	44182.29
551.18	43915.47
551.34	43828.87
551.51	44116.76
551.68	44292.30
551.84	43803.13
552.01	43674.40
552.18	44163.57
552.34	43896.75
552.51	44191.65
552.68	44100.37
552.84	44268.89
553.01	44257.19
553.18	44652.74
553.34	44465.50
553.51	43976.33
553.67	44034.84
553.84	44524.01
554.01	44458.48
554.17	44624.65
554.34	44418.69
554.51	44542.74
554.67	44404.64
554.84	44603.59
555.00	44608.27
555.17	44678.49
555.33	44631.68
555.50	44879.77
555.67	44940.63
555.83	44931.26
556.00	45020.20
556.16	45680.24
556.33	45134.89
556.50	44821.26
556.66	44889.13
556.83	44516.99
556.99	45085.74
557.16	45165.32
557.32	45593.64
557.49	45371.28
557.65	45214.47
557.82	45125.53
557.98	45029.57
558.15	45516.40
558.32	45272.98
558.48	45305.75
558.65	45216.81
558.81	45088.08
558.98	45593.64
559.14	44861.05
559.31	45270.64
559.47	45507.04
559.64	45261.28
559.80	45638.11
559.97	45626.40
560.13	44933.60
560.30	45607.68
560.46	46014.93
560.63	46096.85
560.79	45715.34
560.96	45830.03
561.12	46106.21
561.29	45673.21
561.45	45794.92
561.61	45471.93
561.78	45797.26
561.94	45808.96
562.11	45116.17
562.27	45558.53
562.44	45811.31
562.60	45717.68
562.77	45839.39
562.93	45904.93
563.10	46466.66
563.26	46178.77
563.42	46436.23
563.59	46017.27
563.75	45848.75
563.92	46256.01
564.08	46127.28
564.24	46085.15
564.41	46209.20
564.57	45825.35
564.74	45951.74
564.90	46059.40
565.07	46344.95
565.23	46141.32
565.39	46349.63
565.56	46162.39
565.72	46176.43
565.88	46377.72
566.05	46508.79
566.21	46401.12
566.38	46557.94
566.54	46328.56
566.70	46300.48
566.87	46667.94
567.03	46515.81
567.19	46689.01
567.36	46719.43
567.52	46546.23
567.68	46398.78
567.85	46323.88
568.01	46649.22
568.17	46410.48
568.34	46307.50
568.50	46799.01
568.66	46417.50
568.83	46595.38
568.99	46742.84
569.15	46611.77
569.32	46061.74
569.48	46679.64
569.64	46721.77
569.81	46852.84
569.97	46532.19
570.13	47192.22
570.30	46700.71
570.46	46478.36
570.62	46731.14
570.78	46822.42
570.95	46667.94
571.11	46672.62
571.27	47061.15
571.43	46632.83
571.60	46532.19
571.76	46485.38
571.92	46810.71
572.09	46796.67
572.25	46747.52
572.41	46415.16
572.57	46890.29
572.74	47164.14
572.90	46609.43
573.06	47267.12
573.22	46836.46
573.38	46803.69
573.55	47428.62
573.71	46993.28
573.87	46810.71
574.03	47091.58
574.20	47449.68
574.36	47384.15
574.52	47421.59
574.68	47304.57
574.84	47489.47
575.01	47288.18
575.17	47278.82
575.33	47601.82
575.49	46791.99
575.65	47351.38
575.82	47302.23
575.98	46672.62
576.14	47239.03
576.30	47353.72
576.46	47210.95
576.62	47009.66
576.79	47679.05
576.95	46342.61
577.11	46906.68
577.27	46733.48
577.43	46939.44
577.59	47257.76
577.75	47164.14
577.92	47103.28
578.08	47388.83
578.24	47016.68
578.40	47363.08
578.56	47295.21
578.72	47157.11
578.88	47283.50
579.04	47152.43
579.21	47070.51
579.37	47159.45
579.53	47311.59
579.69	47180.52
579.85	47058.81
580.01	47189.88
580.17	47189.88
580.33	47580.75
580.49	47161.79
580.65	47674.37
580.82	47416.91
580.98	47150.09
581.14	47161.79
581.30	47107.96
581.46	47452.02
581.62	47379.46
581.78	47334.99
581.94	47098.60
582.10	46974.55
582.26	47292.86
582.42	47594.79
582.58	47201.58
582.74	47437.98
582.90	47370.10
583.06	47405.21
583.22	47428.62
583.38	47164.14
583.54	47203.92
583.70	47466.06
583.86	47779.70
584.02	47264.78
584.18	47632.24
584.34	47311.59
584.50	47416.91
584.66	47583.09
584.82	47323.29
584.98	47583.09
585.14	47283.50
585.30	47739.91
585.46	47051.79
585.62	47285.84
585.78	47189.88
585.94	47306.91
586.10	47456.70
586.26	47147.75
586.42	47405.21
586.58	47402.87
586.74	47449.68
586.90	47129.03
587.06	47538.62
587.22	47653.31
587.38	47798.42
587.54	47760.97
587.70	47643.94
587.86	47786.72
588.02	47791.40
588.18	47700.12
588.34	47517.56
588.49	47732.89
588.65	47093.92
588.81	47433.30
588.97	47398.19
589.13	47988.00
589.29	47901.40
589.45	47702.46
589.61	47859.27
589.77	47786.72
589.93	47552.66
590.08	47964.60
