SpectraSuite Data File
++++++++++++++++++++++++++++++++++++
Date: Fri Oct 25 10:44:11 EDT 2013
User: price-jones
Dark Spectrum Present: No
Reference Spectrum Present: No
Number of Sampled Component Spectra: 1
Spectrometers: USB2+H05261
Integration Time (usec): 100000 (USB2+H05261)
Spectra Averaged: 1 (USB2+H05261)
Boxcar Smoothing: 0 (USB2+H05261)
Correct for Electrical Dark: No (USB2+H05261)
Strobe/Lamp Enabled: No (USB2+H05261)
Correct for Detector Non-linearity: No (USB2+H05261)
Correct for Stray Light: No (USB2+H05261)
Number of Pixels in Processed Spectrum: 2048
>>>>>Begin Processed Spectral Data<<<<<
365.73	154.48
365.92	154.48
366.12	154.48
366.32	21.06
366.52	70.22
366.72	58.51
366.91	37.45
367.11	74.90
367.31	46.81
367.51	25.75
367.70	30.43
367.90	91.28
368.10	70.22
368.30	81.92
368.49	25.75
368.69	63.19
368.89	35.11
369.09	21.06
369.28	9.36
369.48	86.60
369.68	21.06
369.87	77.24
370.07	21.06
370.27	91.28
370.47	194.26
370.66	407.25
370.86	395.55
371.06	404.91
371.25	461.09
371.45	449.38
371.65	416.62
371.84	454.06
372.04	498.53
372.24	554.71
372.44	535.98
372.63	486.83
372.83	475.13
373.03	470.45
373.22	526.62
373.42	510.24
373.62	528.96
373.81	524.28
374.01	603.86
374.21	573.43
374.40	550.03
374.60	491.51
374.79	566.41
374.99	524.28
375.19	503.22
375.38	627.26
375.58	648.33
375.78	608.54
375.97	636.63
376.17	615.56
376.37	617.90
376.56	580.45
376.76	631.94
376.95	671.73
377.15	599.18
377.35	657.69
377.54	671.73
377.74	690.46
377.93	681.10
378.13	599.18
378.33	737.27
378.52	664.71
378.72	636.63
378.91	653.01
379.11	634.29
379.31	727.91
379.50	622.58
379.70	723.23
379.89	704.50
380.09	671.73
380.28	702.16
380.48	685.78
380.68	648.33
380.87	690.46
381.07	631.94
381.26	718.54
381.46	751.31
381.65	702.16
381.85	631.94
382.04	751.31
382.24	748.97
382.43	676.41
382.63	685.78
382.83	765.36
383.02	755.99
383.22	835.57
383.41	751.31
383.61	760.67
383.80	662.37
384.00	770.04
384.19	842.59
384.39	807.48
384.58	800.46
384.78	802.80
384.97	816.85
385.17	758.33
385.36	786.42
385.56	760.67
385.75	819.19
385.95	870.68
386.14	840.25
386.34	856.64
386.53	847.27
386.72	807.48
386.92	835.57
387.11	924.51
387.31	915.15
387.50	945.58
387.70	830.89
387.89	854.30
388.09	887.06
388.28	767.70
388.48	851.96
388.67	940.90
388.86	952.60
389.06	959.62
389.25	976.00
389.45	908.13
389.64	954.94
389.84	1078.99
390.03	978.34
390.22	997.07
390.42	990.05
390.61	959.62
390.81	1027.50
391.00	1076.65
391.19	945.58
391.39	1057.92
391.58	1093.03
391.78	1027.50
391.97	1090.69
392.16	1055.58
392.36	1071.97
392.55	1008.77
392.75	1025.15
392.94	940.90
393.13	1027.50
393.33	933.87
393.52	1069.62
393.71	1069.62
393.91	1107.07
394.10	1090.69
394.29	1121.12
394.49	1186.65
394.68	1270.91
394.88	1235.80
395.07	1263.89
395.26	1266.23
395.46	1348.15
395.65	1245.16
395.84	1186.65
396.04	1200.69
396.23	1198.35
396.42	1191.33
396.62	1219.42
396.81	1174.95
397.00	1226.44
397.19	1252.19
397.39	1324.74
397.58	1390.28
397.77	1362.19
397.97	1458.15
398.16	1467.52
398.35	1430.07
398.55	1455.81
398.74	1458.15
398.93	1582.20
399.12	1483.90
399.32	1516.67
399.51	1465.18
399.70	1657.10
399.90	1591.56
400.09	1502.62
400.28	1607.95
400.47	1675.82
400.67	1591.56
400.86	1633.69
401.05	1685.19
401.24	1694.55
401.44	1729.66
401.63	1717.95
401.82	1746.04
402.01	1668.80
402.21	1736.68
402.40	1703.91
402.59	1696.89
402.78	1769.44
402.97	1760.08
403.17	1851.36
403.36	1781.15
403.55	1825.62
403.74	1933.28
403.93	1860.73
404.13	1813.92
404.32	1856.04
404.51	1944.99
404.70	1944.99
404.89	1874.77
405.09	1952.01
405.28	2057.33
405.47	1973.07
405.66	1877.11
405.85	1991.80
406.05	1930.94
406.24	2015.20
406.43	1956.69
406.62	2104.14
406.81	2036.27
407.00	2090.10
407.20	2069.03
407.39	2122.87
407.58	2115.84
407.77	2237.55
407.96	2181.38
408.15	2160.31
408.34	2209.47
408.54	2223.51
408.73	2352.24
408.92	2244.57
409.11	2424.80
409.30	2368.62
409.49	2291.38
409.68	2324.15
409.87	2218.83
410.07	2452.88
410.26	2359.26
410.45	2368.62
410.64	2490.33
410.83	2401.39
411.02	2525.44
411.21	2546.50
411.40	2583.95
411.59	2551.18
411.78	2703.32
411.98	2576.93
412.17	2565.23
412.36	2750.13
412.55	2654.17
412.74	2789.92
412.93	2773.53
413.12	2574.59
413.31	2684.59
413.50	2710.34
413.69	2799.28
413.88	2935.03
414.07	2930.35
414.26	2911.63
414.45	2998.23
414.64	2972.48
414.83	2942.05
415.02	3061.42
415.22	3040.36
415.41	3208.87
415.60	3030.99
415.79	3042.70
415.98	3229.94
416.17	3215.90
416.36	3159.72
416.55	3229.94
416.74	3356.33
416.93	3183.13
417.12	3206.53
417.31	3316.54
417.50	3309.52
417.69	3471.01
417.88	3555.27
418.07	3442.93
418.26	3325.90
418.45	3386.76
418.64	3576.34
418.83	3550.59
419.02	3449.95
419.21	3503.78
419.39	3562.30
419.58	3569.32
419.77	3648.90
419.96	3449.95
420.15	3679.32
420.34	3639.53
420.53	3634.85
420.72	3840.82
420.91	3695.71
421.10	3709.75
421.29	3817.41
421.48	3852.52
421.67	3815.07
421.86	3747.20
422.05	3847.84
422.24	3730.81
422.43	3803.37
422.61	3817.41
422.80	3911.04
422.99	3875.93
423.18	3880.61
423.37	4032.74
423.56	3887.63
423.75	3920.40
423.94	3850.18
424.13	3672.30
424.32	3700.39
424.50	3978.91
424.69	4021.04
424.88	4007.00
425.07	3801.03
425.26	3929.76
425.45	3974.23
425.64	3943.80
425.83	3812.73
426.01	3957.85
426.20	3941.46
426.39	3983.59
426.58	3899.33
426.77	3922.74
426.96	3967.21
427.15	3964.87
427.33	3976.57
427.52	4044.45
427.71	4095.94
427.90	4114.66
428.09	4117.00
428.28	4131.05
428.46	4252.75
428.65	4243.39
428.84	4306.59
429.03	4198.92
429.22	4159.13
429.40	4149.77
429.59	4266.80
429.78	3929.76
429.97	3957.85
430.16	4114.66
430.34	4007.00
430.53	4248.07
430.72	4142.75
430.91	4447.02
431.10	4262.12
431.28	4538.30
431.47	4660.01
431.66	4622.56
431.85	4479.79
432.03	4493.83
432.22	4704.48
432.41	4573.41
432.60	4678.73
432.79	4601.49
432.97	4732.56
433.16	4676.39
433.35	4470.42
433.54	4709.16
433.72	4662.35
433.91	4671.71
434.10	4753.63
434.28	4835.55
434.47	4779.37
434.66	4884.70
434.85	4877.68
435.03	5001.72
435.22	4973.64
435.41	4961.94
435.59	5060.24
435.78	5097.69
435.97	5071.94
436.16	5172.58
436.34	5191.31
436.53	5224.08
436.72	5252.16
436.90	4994.70
437.09	5100.03
437.28	5238.12
437.46	5078.96
437.65	5118.75
437.84	5205.35
438.02	5210.03
438.21	5144.50
438.40	5142.16
438.58	5420.68
438.77	5366.85
438.96	5448.77
439.14	5493.24
439.33	5753.04
439.52	5458.13
439.70	5579.84
439.89	5689.84
440.08	5729.63
440.26	5598.56
440.45	5748.36
440.63	5729.63
440.82	5968.37
441.01	5912.19
441.19	5956.66
441.38	6029.22
441.57	6108.80
441.75	6207.10
441.94	6328.81
442.12	6228.17
442.31	6511.37
442.50	6480.94
442.68	6265.61
442.87	6141.57
443.05	6244.55
443.24	6303.06
443.43	6361.58
443.61	6399.02
443.80	6691.59
443.98	6441.15
444.17	6246.89
444.35	6483.28
444.54	6654.14
444.73	6544.14
444.91	6424.77
445.10	6452.86
445.28	6375.62
445.47	6415.41
445.65	6305.40
445.84	6532.44
446.02	6602.65
446.21	6443.49
446.39	6450.52
446.58	6794.58
446.77	6644.78
446.95	6544.14
447.14	6689.25
447.32	6698.61
447.51	6757.13
447.69	6647.12
447.88	6822.66
448.06	6736.06
448.25	6612.01
448.43	6799.26
448.62	6696.27
448.80	6504.35
448.99	6822.66
449.17	6878.83
449.36	6930.33
449.54	6841.39
449.73	7108.21
449.91	7112.89
450.10	7080.12
450.28	7279.07
450.46	7218.21
450.65	7021.61
450.83	7112.89
451.02	7061.40
451.20	7274.38
451.39	7129.27
451.57	7143.32
451.76	7190.13
451.94	7232.26
452.13	7213.53
452.31	7297.79
452.49	7124.59
452.68	7087.14
452.86	7344.60
453.05	7356.30
453.23	7307.15
453.42	7192.47
453.60	7449.93
453.78	7405.46
453.97	7307.15
454.15	7372.69
454.34	7379.71
454.52	7510.78
454.70	7583.34
454.89	7541.21
455.07	7543.55
455.26	7611.42
455.44	7896.97
455.62	7861.86
455.81	7906.33
455.99	7784.62
456.17	7798.66
456.36	7847.82
456.54	8042.08
456.73	7896.97
456.91	8086.55
457.09	8184.85
457.28	8121.66
457.46	8053.78
457.64	8168.47
457.83	8170.81
458.01	7943.78
458.19	8210.60
458.38	8004.63
458.56	8086.55
458.74	8210.60
458.93	8189.53
459.11	8409.54
459.29	8262.09
459.48	8411.89
459.66	8219.96
459.84	8369.76
460.03	8297.20
460.21	8561.68
460.39	8510.19
460.57	8514.87
460.76	8547.64
460.94	8617.85
461.12	8575.72
461.31	8568.70
461.49	8444.65
461.67	8655.30
461.85	8887.01
462.04	8475.08
462.22	8947.87
462.40	8812.12
462.59	8954.89
462.77	8926.80
462.95	8805.10
463.13	8858.93
463.32	8905.74
463.50	8816.80
463.68	9011.06
463.86	8947.87
464.05	8758.28
464.23	8987.66
464.41	9107.02
464.59	8985.32
464.78	9231.07
464.96	9214.69
465.14	8943.19
465.32	9462.79
465.50	9397.25
465.69	9296.61
465.87	9359.80
466.05	9212.35
466.23	9170.22
466.41	9085.96
466.60	9465.13
466.78	9071.92
466.96	9329.38
467.14	9132.77
467.32	9385.55
467.51	9404.27
467.69	9128.09
467.87	9467.47
468.05	9406.61
468.23	9495.55
468.41	9404.27
468.60	9397.25
468.78	9556.41
468.96	9444.06
469.14	9633.64
469.32	9699.18
469.50	9430.02
469.69	9797.48
469.87	9846.63
470.05	9753.01
470.23	9722.59
470.41	9865.36
470.59	9930.89
470.77	9956.64
470.95	10003.45
471.14	10029.20
471.32	9935.57
471.50	10061.96
471.68	10361.55
471.86	10284.31
472.04	10363.89
472.22	10464.54
472.40	10171.97
472.58	10244.52
472.77	10455.17
472.95	10721.99
473.13	10773.49
473.31	10499.64
473.49	10401.34
473.67	10703.27
473.85	10710.29
474.03	10810.93
474.21	11070.73
474.39	10972.43
474.57	10953.71
474.75	11096.48
474.93	11070.73
475.12	11021.58
475.30	11211.17
475.48	11035.63
475.66	11304.79
475.84	11227.55
476.02	11403.09
476.20	11197.12
476.38	11583.31
476.56	11983.54
476.74	11693.32
476.92	11777.58
477.10	11707.36
477.28	12264.41
477.46	12140.36
477.64	12180.15
477.82	12119.29
478.00	12442.29
478.18	12343.99
478.36	12411.86
478.54	12732.51
478.72	12643.57
478.90	12898.69
479.08	12868.27
479.26	12917.42
479.44	13511.91
479.62	13336.37
479.80	13270.84
479.98	13224.03
480.16	13654.69
480.34	13486.17
480.52	13699.16
480.70	13788.10
480.88	13598.51
481.06	13909.80
481.24	14150.88
481.41	14389.61
481.59	14391.95
481.77	14317.06
481.95	14443.45
482.13	14471.53
482.31	14574.52
482.49	14768.78
482.67	15016.88
482.85	15059.01
483.03	15386.68
483.21	15260.29
483.39	15227.53
483.57	15272.00
483.74	15623.08
483.92	15477.96
484.10	15688.61
484.28	15999.90
484.46	16065.44
484.64	16301.83
484.82	16020.97
485.00	15910.96
485.18	16507.80
485.35	16624.83
485.53	15864.15
485.71	16262.04
485.89	16350.98
486.07	16437.58
486.25	16617.80
486.43	16798.02
486.61	16994.63
486.78	17177.19
486.96	17406.56
487.14	17809.14
487.32	17776.37
487.50	17937.87
487.68	18242.14
487.85	18375.55
488.03	18604.92
488.21	18398.95
488.39	18651.73
488.57	18857.70
488.75	18724.29
488.92	19229.84
489.10	19274.31
489.28	19534.11
489.46	19433.47
489.64	19730.72
489.81	20325.21
489.99	20067.75
490.17	20023.28
490.35	20353.30
490.53	20465.64
490.70	20264.36
490.88	20463.30
491.06	20830.77
491.24	20365.00
491.41	20992.26
491.59	20446.92
491.77	20807.36
491.95	20919.71
492.13	21479.10
492.30	21415.90
492.48	21406.54
492.66	21579.74
492.84	21977.63
493.01	22089.98
493.19	21823.16
493.37	21942.52
493.54	22525.32
493.72	22408.29
493.90	22621.28
494.08	22668.09
494.25	23035.55
494.43	23297.69
494.61	23342.16
494.79	23295.35
494.96	23676.86
495.14	23644.09
495.32	23651.11
495.49	23431.10
495.67	23735.37
495.85	23821.97
496.02	24243.27
496.20	24474.98
496.38	24372.00
496.55	24332.21
496.73	25186.50
496.91	24821.38
497.09	25238.00
497.26	25156.08
497.44	25294.17
497.62	25242.68
497.79	25406.52
497.97	25422.90
498.14	25479.07
498.32	25560.99
498.50	25638.23
498.67	25820.79
498.85	25759.94
499.03	26211.66
499.20	26265.49
499.38	26199.96
499.56	26352.09
499.73	26277.19
499.91	26485.50
500.08	26539.33
500.26	26471.46
500.44	26377.84
500.61	26810.84
500.79	26618.91
500.97	26705.51
501.14	26925.52
501.32	27026.17
501.49	27133.83
501.67	27138.51
501.84	27747.05
502.02	27466.19
502.20	27517.68
502.37	27747.05
502.55	27695.56
502.72	28048.98
502.90	28046.64
503.07	28140.26
503.25	28105.15
503.43	28376.66
503.60	28266.65
503.78	28264.31
503.95	27892.16
504.13	28435.17
504.30	28538.15
504.48	28690.29
504.65	28940.72
504.83	29165.42
505.01	29284.78
505.18	29165.42
505.36	29563.31
505.53	29397.13
505.71	29563.31
505.88	29530.54
506.06	29228.61
506.23	29551.60
506.41	29617.14
506.58	29593.73
506.76	29769.27
506.93	29720.12
507.11	29942.47
507.28	30221.00
507.46	29846.51
507.63	30005.67
507.81	30185.89
507.98	30164.82
508.16	30424.62
508.33	30782.73
508.50	30871.67
508.68	30724.21
508.85	30848.26
509.03	31199.34
509.20	31351.48
509.38	31185.30
509.55	31117.42
509.73	31157.21
509.90	31189.98
510.08	31335.09
510.25	31344.45
510.42	31351.48
510.60	31945.97
510.77	32023.21
510.95	31934.27
511.12	31445.10
511.30	32587.28
511.47	32137.90
511.64	32280.67
511.82	32306.41
511.99	32250.24
512.17	32275.99
512.34	32407.06
512.51	32107.47
512.69	33036.66
512.86	32739.41
513.04	33179.43
513.21	32783.88
513.38	32505.36
513.56	33092.83
513.73	32268.97
513.90	33141.99
514.08	33067.09
514.25	33020.28
514.43	33067.09
514.60	33233.27
514.77	33336.25
514.95	33614.77
515.12	33638.18
515.29	33954.15
515.47	34066.50
515.64	33930.75
515.81	33809.04
515.99	33820.74
516.16	33612.43
516.33	33251.99
516.51	33605.41
516.68	33378.38
516.85	33518.81
517.03	33916.70
517.20	33638.18
517.37	34099.26
517.54	34433.96
517.72	34396.51
517.89	33919.04
518.06	33797.34
518.24	34059.48
518.41	34171.82
518.58	34672.70
518.75	34302.89
518.93	34473.75
519.10	34927.81
519.27	34892.71
519.45	35234.42
519.62	35229.74
519.79	35051.86
519.96	35232.08
520.14	35040.16
520.31	35309.32
520.48	35339.75
520.65	35433.37
520.83	35849.99
521.00	35997.44
521.17	35744.66
521.34	35971.69
521.52	35901.48
521.69	36411.71
521.86	36095.74
522.03	36423.42
522.20	36407.03
522.38	36648.11
522.55	36388.31
522.72	36353.20
522.89	36481.93
523.07	36746.41
523.24	36538.10
523.41	36912.59
523.58	36928.97
523.75	36952.38
523.92	37322.18
524.10	37296.44
524.27	37422.83
524.44	37453.25
524.61	37354.95
524.78	37563.26
524.96	37467.30
525.13	37982.21
525.30	37816.04
525.47	38356.70
525.64	37207.50
525.81	37844.12
525.98	37659.22
526.16	37078.77
526.33	37392.40
526.50	37940.08
526.67	37514.11
526.84	37450.91
527.01	37191.11
527.18	37919.02
527.36	38167.12
527.53	38167.12
527.70	38352.02
527.87	38415.21
528.04	38157.75
528.21	38696.08
528.38	38621.18
528.55	39026.09
528.72	38981.62
528.89	39075.24
529.07	39037.80
529.24	38607.14
529.41	39016.73
529.58	38471.39
529.75	38609.48
529.92	38899.70
530.09	39206.31
530.26	38995.67
530.43	39328.02
530.60	39037.80
530.77	39548.03
530.94	39360.79
531.11	39218.02
531.28	39548.03
531.46	39615.91
531.63	39552.71
531.80	39615.91
531.97	39789.11
532.14	39470.79
532.31	39051.84
532.48	39599.52
532.65	39459.09
532.82	39723.57
532.99	39648.68
533.16	40147.21
533.33	39959.97
533.50	40011.46
533.67	40128.48
533.84	39812.51
534.01	39910.82
534.18	39936.56
534.35	40067.63
534.52	40172.96
534.69	40289.98
534.86	40226.79
535.03	40467.86
535.20	41064.70
535.37	40889.16
535.54	41209.81
535.71	40753.41
535.88	40921.93
536.05	41214.49
536.22	41064.70
536.38	41085.76
536.55	40898.52
536.72	40755.75
536.89	40858.73
537.06	40910.22
537.23	41354.93
537.40	41383.01
537.57	41287.05
537.74	41029.59
537.91	42012.62
538.08	41490.68
538.25	40884.48
538.42	40931.29
538.59	41600.68
538.75	40718.30
538.92	41537.49
539.09	41509.40
539.26	41411.10
539.43	41530.47
539.60	41523.44
539.77	41621.75
539.94	41467.27
540.11	41214.49
540.28	41387.69
540.44	41455.57
540.61	41684.94
540.78	41766.86
540.95	41509.40
541.12	41216.83
541.29	41486.00
541.46	41888.57
541.62	41808.99
541.79	41844.10
541.96	41453.23
542.13	42040.70
542.30	41888.57
542.47	41691.96
542.63	42073.47
542.80	42164.75
542.97	42602.43
543.14	42312.20
543.31	43049.47
543.48	42487.74
543.64	42834.14
543.81	42628.18
543.98	43086.92
544.15	42733.50
544.32	42967.55
544.48	43358.42
544.65	43512.90
544.82	42775.63
544.99	42653.92
545.16	42892.66
545.32	42976.92
545.49	43814.83
545.66	43299.91
545.83	43693.12
546.00	43302.25
546.16	43440.34
546.33	43449.70
546.50	42925.42
546.67	43136.07
546.83	42965.21
547.00	43225.01
547.17	43393.53
547.34	43407.58
547.50	43274.16
547.67	43625.25
547.84	43707.16
548.00	43859.30
548.17	44149.53
548.34	44034.84
548.51	44041.86
548.67	43742.27
548.84	43732.91
549.01	43765.68
549.18	43592.48
549.34	43768.02
549.51	43859.30
549.68	44219.74
549.84	44109.74
550.01	44165.91
550.18	43861.64
550.34	44287.62
550.51	43964.62
550.68	43819.51
550.84	44144.84
551.01	44060.58
551.18	44058.24
551.34	44009.09
551.51	44158.89
551.68	44402.30
551.84	44341.45
552.01	44107.40
552.18	44067.61
552.34	44128.46
552.51	44259.53
552.68	44273.57
552.84	44491.24
553.01	44435.07
553.18	44505.29
553.34	44545.08
553.51	44367.20
553.67	44540.39
553.84	44587.21
554.01	44793.17
554.17	45083.40
554.34	44657.42
554.51	44753.38
554.67	45186.38
554.84	44992.12
555.00	44535.71
555.17	45074.04
555.33	44744.02
555.50	44732.32
555.67	44814.24
555.83	45001.48
556.00	45064.67
556.16	45226.17
556.33	44638.70
556.50	44741.68
556.66	44774.45
556.83	44779.13
556.99	45373.63
557.16	45048.29
557.32	45368.94
557.49	45270.64
557.65	44933.60
557.82	44985.10
557.98	44725.30
558.15	45198.09
558.32	45420.44
558.48	44994.46
558.65	45191.06
558.81	44772.11
558.98	44701.89
559.14	45230.85
559.31	45221.49
559.47	45474.27
559.64	45071.70
559.80	45652.15
559.97	45785.56
560.13	45315.11
560.30	45298.73
560.46	45528.10
560.63	45556.19
560.79	45705.98
560.96	45890.88
561.12	45460.23
561.29	45230.85
561.45	45242.56
561.61	45202.77
561.78	45382.99
561.94	45034.25
562.11	45305.75
562.27	44964.03
562.44	45511.72
562.60	45418.10
562.77	45614.70
562.93	45670.87
563.10	45823.01
563.26	45811.31
563.42	45696.62
563.59	45399.37
563.75	45895.56
563.92	45577.25
564.08	45666.19
564.24	46017.27
564.41	45787.90
564.57	45993.87
564.74	45780.88
564.90	45537.46
565.07	45867.48
565.23	45837.05
565.39	45558.53
565.56	45490.65
565.72	45652.15
565.88	45813.65
566.05	45736.41
566.21	45900.25
566.38	46270.05
566.54	46082.81
566.70	45766.84
566.87	46471.34
567.03	45890.88
567.19	46232.60
567.36	45691.94
567.52	45708.32
567.68	46176.43
567.85	45841.73
568.01	45951.74
568.17	45958.76
568.34	45790.24
568.50	46223.24
568.66	46146.00
568.83	45745.77
568.99	45715.34
569.15	45940.04
569.32	45846.41
569.48	45954.08
569.64	46199.83
569.81	45825.35
569.97	46007.91
570.13	45954.08
570.30	45691.94
570.46	45839.39
570.62	45558.53
570.78	45680.24
570.95	46024.29
571.11	45841.73
571.27	45820.67
571.43	45797.26
571.60	45865.14
571.76	45923.65
571.92	46092.17
572.09	45722.37
572.25	45338.52
572.41	45862.80
572.57	46302.82
572.74	46363.67
572.90	46426.87
573.06	46459.63
573.22	46396.44
573.38	46024.29
573.55	46281.75
573.71	46380.06
573.87	46061.74
574.03	46028.98
574.20	45904.93
574.36	46007.91
574.52	46267.71
574.68	46206.86
574.84	45844.07
575.01	46281.75
575.17	45902.59
575.33	45916.63
575.49	45879.18
575.65	46199.83
575.82	46071.10
575.98	46183.45
576.14	46089.83
576.30	46057.06
576.46	45895.56
576.62	45902.59
576.79	46312.18
576.95	45949.40
577.11	46555.60
577.27	46092.17
577.43	46445.59
577.59	45794.92
577.75	45928.33
577.92	45858.12
578.08	46064.08
578.24	45991.53
578.40	45993.87
578.56	46260.69
578.72	46419.84
578.88	46520.49
579.04	46218.56
579.21	46019.61
579.37	46045.36
579.53	46213.88
579.69	45958.76
579.85	46382.40
580.01	46483.04
580.17	46106.21
580.33	46031.32
580.49	46260.69
580.65	46431.55
580.82	46003.23
580.98	46131.96
581.14	45872.16
581.30	46529.85
581.46	46473.68
581.62	46307.50
581.78	46312.18
581.94	46506.44
582.10	46010.25
582.26	46328.56
582.42	46164.73
582.58	46122.60
582.74	46021.95
582.90	46803.69
583.06	46726.46
583.22	46415.16
583.38	46394.10
583.54	46803.69
583.70	46300.48
583.86	46333.24
584.02	46085.15
584.18	46490.06
584.34	46349.63
584.50	46232.60
584.66	45921.31
584.82	46218.56
584.98	46632.83
585.14	46248.99
585.30	46358.99
585.46	46443.25
585.62	46141.32
585.78	46284.09
585.94	46003.23
586.10	46461.97
586.26	46347.29
586.42	46370.69
586.58	46571.98
586.74	46401.12
586.90	46185.79
587.06	46251.33
587.22	46656.24
587.38	45759.81
587.54	46157.70
587.70	45689.60
587.86	46225.58
588.02	45876.84
588.18	46841.14
588.34	46155.36
588.49	45949.40
588.65	45546.82
588.81	45727.05
588.97	45621.72
589.13	45705.98
589.29	46258.35
589.45	46333.24
589.61	46270.05
589.77	46433.89
589.93	46464.32
