SpectraSuite Data File
++++++++++++++++++++++++++++++++++++
Date: Fri Oct 25 11:26:31 EDT 2013
User: price-jones
Dark Spectrum Present: No
Reference Spectrum Present: No
Number of Sampled Component Spectra: 1
Spectrometers: USB2+H05261
Integration Time (usec): 100000 (USB2+H05261)
Spectra Averaged: 1 (USB2+H05261)
Boxcar Smoothing: 0 (USB2+H05261)
Correct for Electrical Dark: No (USB2+H05261)
Strobe/Lamp Enabled: No (USB2+H05261)
Correct for Detector Non-linearity: No (USB2+H05261)
Correct for Stray Light: No (USB2+H05261)
Number of Pixels in Processed Spectrum: 2048
>>>>>Begin Processed Spectral Data<<<<<
365.73	238.73
365.92	238.73
366.12	238.73
366.32	187.24
366.52	117.03
366.72	191.92
366.91	114.69
367.11	131.07
367.31	142.77
367.51	112.35
367.70	170.86
367.90	180.22
368.10	51.49
368.30	105.32
368.49	142.77
368.69	107.66
368.89	128.73
369.09	142.77
369.28	170.86
369.48	196.60
369.68	191.92
369.87	280.86
370.07	187.24
370.27	264.48
370.47	367.46
370.66	533.64
370.86	690.46
371.06	676.41
371.25	681.10
371.45	676.41
371.65	655.35
371.84	671.73
372.04	732.59
372.24	734.93
372.44	690.46
372.63	702.16
372.83	725.57
373.03	730.25
373.22	767.70
373.42	807.48
373.62	873.02
373.81	765.36
374.01	784.08
374.21	805.14
374.40	821.53
374.60	851.96
374.79	809.83
374.99	826.21
375.19	823.87
375.38	936.21
375.58	826.21
375.78	924.51
375.97	763.01
376.17	903.45
376.37	908.13
376.56	875.36
376.76	971.32
376.95	840.25
377.15	873.02
377.35	990.05
377.54	968.98
377.74	901.11
377.93	873.02
378.13	929.19
378.33	966.64
378.52	889.40
378.72	959.62
378.91	950.26
379.11	919.83
379.31	985.37
379.50	898.77
379.70	891.74
379.89	997.07
380.09	1013.45
380.28	994.73
380.48	1004.09
380.68	1006.43
380.87	1022.81
381.07	1013.45
381.26	987.71
381.46	1128.14
381.65	1029.84
381.85	936.21
382.04	1027.50
382.24	1036.86
382.43	1074.31
382.63	1111.75
382.83	1083.67
383.02	1071.97
383.22	1083.67
383.41	1188.99
383.61	1093.03
383.80	1107.07
384.00	1102.39
384.19	1123.46
384.39	1160.91
384.58	1158.57
384.78	1125.80
384.97	1193.67
385.17	1172.61
385.36	1130.48
385.56	1210.06
385.75	1156.22
385.95	1130.48
386.14	1118.78
386.34	1240.48
386.53	1198.35
386.72	1245.16
386.92	1203.04
387.11	1217.08
387.31	1198.35
387.50	1226.44
387.70	1210.06
387.89	1214.74
388.09	1315.38
388.28	1284.95
388.48	1273.25
388.67	1266.23
388.86	1275.59
389.06	1240.48
389.25	1282.61
389.45	1308.36
389.64	1308.36
389.84	1357.51
390.03	1313.04
390.22	1500.28
390.42	1425.39
390.61	1308.36
390.81	1416.02
391.00	1469.86
391.19	1481.56
391.39	1451.13
391.58	1406.66
391.78	1430.07
391.97	1535.39
392.16	1483.90
392.36	1593.90
392.55	1542.41
392.75	1469.86
392.94	1533.05
393.13	1643.06
393.33	1535.39
393.52	1526.03
393.71	1650.08
393.91	1610.29
394.10	1645.40
394.29	1549.43
394.49	1596.25
394.68	1685.19
394.88	1586.88
395.07	1586.88
395.26	1682.85
395.46	1668.80
395.65	1753.06
395.84	1767.10
396.04	1769.44
396.23	1710.93
396.42	1736.68
396.62	1750.72
396.81	1774.13
397.00	1706.25
397.19	1881.79
397.39	1839.66
397.58	1748.38
397.77	1788.17
397.97	1788.17
398.16	1771.79
398.35	1949.67
398.55	1916.90
398.74	1895.83
398.93	1923.92
399.12	2010.52
399.32	1954.35
399.51	1994.14
399.70	1963.71
399.90	2003.50
400.09	2036.27
400.28	2031.58
400.47	2148.61
400.67	2115.84
400.86	2083.08
401.05	2045.63
401.24	2113.50
401.44	2015.20
401.63	2136.91
401.82	2078.40
402.01	2115.84
402.21	2139.25
402.40	2413.09
402.59	2136.91
402.78	2204.78
402.97	2319.47
403.17	2347.56
403.36	2265.64
403.55	2239.89
403.74	2354.58
403.93	2368.62
404.13	2466.92
404.32	2408.41
404.51	2431.82
404.70	2525.44
404.89	2438.84
405.09	2506.71
405.28	2572.25
405.47	2614.38
405.66	2607.36
405.85	2523.10
406.05	2525.44
406.24	2553.52
406.43	2593.31
406.62	2644.81
406.81	2708.00
407.00	2452.88
407.20	2586.29
407.39	2539.48
407.58	2820.35
407.77	2757.15
407.96	2722.04
408.15	2698.64
408.34	2708.00
408.54	2743.11
408.73	2803.96
408.92	2846.09
409.11	2808.64
409.30	2782.90
409.49	2911.63
409.68	2981.84
409.87	3040.36
410.07	2946.73
410.26	3049.72
410.45	2991.20
410.64	3033.33
410.83	2972.48
411.02	2998.23
411.21	3204.19
411.40	3075.46
411.59	3243.98
411.78	3255.69
411.98	3211.22
412.17	3342.28
412.36	3403.14
412.55	3492.08
412.74	3496.76
412.93	3279.09
413.12	3454.63
413.31	3616.13
413.50	3459.31
413.69	3620.81
413.88	3662.94
414.07	3625.49
414.26	3506.12
414.45	3742.52
414.64	3749.54
414.83	3810.39
415.02	3901.67
415.22	3786.99
415.41	3777.62
415.60	3957.85
415.79	3920.40
415.98	3985.93
416.17	4023.38
416.36	4135.73
416.55	3981.25
416.74	4053.81
416.93	4035.08
417.12	4105.30
417.31	4117.00
417.50	4222.33
417.69	4395.53
417.88	4173.18
418.07	4327.65
418.26	4320.63
418.45	4322.97
418.64	4542.98
418.83	4355.74
419.02	4538.30
419.21	4596.81
419.39	4550.00
419.58	4559.36
419.77	4411.91
419.96	4648.30
420.15	4641.28
420.34	4720.86
420.53	4631.92
420.72	4842.57
420.91	4770.01
421.10	4613.20
421.29	4795.76
421.48	4671.71
421.67	4863.63
421.86	4823.84
422.05	4880.02
422.24	4753.63
422.43	4807.46
422.61	4983.00
422.80	4929.17
422.99	4863.63
423.18	5163.22
423.37	4980.66
423.56	4994.70
423.75	4901.08
423.94	4828.53
424.13	4788.74
424.32	4865.97
424.50	4952.57
424.69	5074.28
424.88	5130.45
425.07	4882.36
425.26	4994.70
425.45	5158.54
425.64	4973.64
425.83	4950.23
426.01	5018.11
426.20	5174.92
426.39	4999.38
426.58	5034.49
426.77	5125.77
426.96	5111.73
427.15	5301.31
427.33	5107.05
427.52	5142.16
427.71	5434.72
427.90	5165.56
428.09	5336.42
428.28	5495.58
428.46	5476.85
428.65	5439.40
428.84	5387.91
429.03	5490.90
429.22	5322.38
429.40	5434.72
429.59	5584.52
429.78	5427.70
429.97	5327.06
430.16	5327.06
430.34	5699.20
430.53	5647.71
430.72	5518.98
430.91	5778.78
431.10	5586.86
431.28	5839.64
431.47	5797.51
431.66	5963.68
431.85	5832.62
432.03	5937.94
432.22	6073.69
432.41	6061.99
432.60	5795.17
432.79	5916.87
432.97	5989.43
433.16	6183.70
433.35	6015.18
433.54	6186.04
433.72	6111.14
433.91	6176.67
434.10	6015.18
434.28	6164.97
434.47	6282.00
434.66	6424.77
434.85	6394.34
435.03	6532.44
435.22	6274.98
435.41	6445.84
435.59	6513.71
435.78	6494.99
435.97	6469.24
436.16	6459.88
436.34	6506.69
436.53	6548.82
436.72	6787.55
436.90	6637.76
437.09	6562.86
437.28	6429.45
437.46	6593.29
437.65	6778.19
437.84	6883.52
438.02	6796.92
438.21	6956.07
438.40	6768.83
438.58	7066.08
438.77	7260.34
438.96	6991.18
439.14	6906.92
439.33	7091.82
439.52	7351.62
439.70	7400.77
439.89	7431.20
440.08	7396.09
440.26	7494.40
440.45	7375.03
440.63	7660.57
440.82	7777.60
441.01	7482.69
441.19	7637.17
441.38	7932.08
441.57	7936.76
441.75	7875.90
441.94	8011.65
442.12	8173.15
442.31	8191.88
442.50	7864.20
442.68	7901.65
442.87	8152.09
443.05	8222.30
443.24	8222.30
443.43	8198.90
443.61	8231.66
443.80	8379.12
443.98	8072.51
444.17	7660.57
444.35	8105.28
444.54	8222.30
444.73	8376.78
444.91	8369.76
445.10	8332.31
445.28	8386.14
445.47	8255.07
445.65	8397.84
445.84	8430.61
446.02	8535.93
446.21	8386.14
446.39	8341.67
446.58	8554.66
446.77	8512.53
446.95	8458.70
447.14	8454.02
447.32	8582.74
447.51	8472.74
447.69	8491.46
447.88	8496.14
448.06	8514.87
448.25	8688.07
448.43	8547.64
448.62	8709.13
448.80	8718.50
448.99	8863.61
449.17	8692.75
449.36	8793.39
449.54	9011.06
449.73	8854.25
449.91	9242.78
450.10	9074.26
450.28	9001.70
450.46	9137.45
450.65	8990.00
450.83	9071.92
451.02	9076.60
451.20	9188.94
451.39	9254.48
451.57	9224.05
451.76	9247.46
451.94	9401.93
452.13	9261.50
452.31	9366.82
452.49	9399.59
452.68	9320.01
452.86	9336.40
453.05	9507.26
453.23	9605.56
453.42	9635.99
453.60	9348.10
453.78	9694.50
453.97	9460.45
454.15	9481.51
454.34	9415.98
454.52	9837.27
454.70	9811.53
454.89	9682.80
455.07	9902.81
455.26	9877.06
455.44	10097.07
455.62	10017.49
455.81	9895.78
455.99	9980.04
456.17	10064.30
456.36	10127.50
456.54	10064.30
456.73	10134.52
456.91	10562.84
457.09	10441.13
457.28	10548.79
457.46	10452.83
457.64	10490.28
457.83	10532.41
458.01	10373.25
458.19	10839.02
458.38	10546.45
458.56	10930.30
458.74	10726.68
458.93	10930.30
459.11	10824.98
459.29	10846.04
459.48	10934.98
459.66	10890.51
459.84	10876.47
460.03	11005.20
460.21	11080.10
460.39	11094.14
460.57	10927.96
460.76	11162.01
460.94	11197.12
461.12	11234.57
461.31	11199.46
461.49	11295.43
461.67	11211.17
461.85	11499.05
462.04	11520.12
462.22	11662.89
462.40	11587.99
462.59	11510.75
462.77	11485.01
462.95	11667.57
463.13	11669.91
463.32	11772.89
463.50	11939.07
463.68	12105.25
463.86	11847.79
464.05	11702.68
464.23	11812.68
464.41	11885.24
464.59	11644.17
464.78	12159.08
464.96	12109.93
465.14	11744.81
465.32	12081.85
465.50	12418.88
465.69	12329.94
465.87	12374.41
466.05	12243.34
466.23	12414.20
466.41	12198.87
466.60	12695.07
466.78	12116.95
466.96	12351.01
467.14	12411.86
467.32	12475.06
467.51	12622.51
467.69	12355.69
467.87	12372.07
468.05	12882.31
468.23	12362.71
468.41	12564.00
468.60	12772.30
468.78	12547.61
468.96	12732.51
469.14	13034.44
469.32	12973.59
469.50	12741.88
469.69	13177.22
469.87	13067.21
470.05	13118.70
470.23	13465.10
470.41	13404.25
470.59	13231.05
470.77	13132.75
470.95	13401.91
471.14	13745.97
471.32	13193.60
471.50	13638.30
471.68	13671.07
471.86	13715.54
472.04	13647.66
472.22	13933.21
472.40	13710.86
472.58	14111.09
472.77	13956.61
472.95	14366.21
473.13	14417.70
473.31	14300.67
473.49	14464.51
473.67	14134.50
473.85	14574.52
474.03	14806.23
474.21	14773.46
474.39	14923.26
474.57	14710.27
474.75	14869.42
474.93	14890.49
475.12	15126.88
475.30	15117.52
475.48	15248.59
475.66	15122.20
475.84	15377.32
476.02	15154.97
476.20	15496.69
476.38	15939.05
476.56	16191.83
476.74	15901.60
476.92	15892.24
477.10	15817.34
477.28	16301.83
477.46	16058.42
477.64	16510.14
477.82	16739.51
478.00	16964.20
478.18	16868.24
478.36	17177.19
478.54	17240.39
478.72	17018.04
478.90	17432.31
479.08	17661.68
479.26	17834.88
479.44	18099.36
479.62	17951.91
479.80	17991.70
479.98	18216.39
480.16	18820.25
480.34	18204.69
480.52	18410.65
480.70	18691.52
480.88	18438.74
481.06	18841.31
481.24	19014.51
481.41	18778.12
481.59	19122.18
481.77	19838.38
481.95	19358.57
482.13	19971.79
482.31	19510.71
482.49	20514.80
482.67	20390.75
482.85	20613.10
483.03	20697.36
483.21	21097.59
483.39	21146.74
483.57	21123.33
483.74	21383.13
483.92	21792.73
484.10	21132.70
484.28	21832.52
484.46	21785.71
484.64	22560.42
484.82	22099.34
485.00	22368.50
485.18	23185.35
485.35	22904.48
485.53	23051.94
485.71	23143.22
485.89	23608.98
486.07	23608.98
486.25	23440.47
486.43	23850.06
486.61	24217.52
486.78	24238.59
486.96	24355.61
487.14	24769.89
487.32	24987.56
487.50	24982.88
487.68	25223.95
487.85	25245.02
488.03	25586.74
488.21	25785.68
488.39	25947.18
488.57	26169.53
488.75	26511.25
488.92	26654.02
489.10	26703.17
489.28	26644.66
489.46	27342.14
489.64	27124.47
489.81	27845.35
489.99	27857.06
490.17	27688.54
490.35	28374.31
490.53	28170.69
490.70	28882.21
490.88	28189.41
491.06	29053.07
491.24	29144.35
491.41	29036.69
491.59	29387.77
491.77	29675.65
491.95	29675.65
492.13	30000.99
492.30	30118.01
492.48	30333.34
492.66	30043.12
492.84	30164.82
493.01	30859.96
493.19	30850.60
493.37	31281.26
493.54	31658.09
493.72	31847.67
493.90	31550.42
494.08	32048.96
494.25	31838.31
494.43	32229.18
494.61	32498.34
494.79	32620.05
494.96	32610.68
495.14	32971.13
495.32	33167.73
495.49	33352.63
495.67	33212.20
495.85	33783.29
496.02	34078.20
496.20	34085.22
496.38	34162.46
496.55	34541.63
496.73	34878.66
496.91	34883.34
497.09	34946.54
497.26	35604.23
497.44	35012.07
497.62	35473.16
497.79	35744.66
497.97	35796.15
498.14	36240.86
498.32	36292.35
498.50	36388.31
498.67	36348.52
498.85	36425.76
499.03	36669.17
499.20	36996.85
499.38	36982.80
499.56	37282.39
499.73	37235.58
499.91	37560.92
500.08	37799.65
500.26	37247.29
500.44	38106.26
500.61	38024.34
500.79	38110.94
500.97	38623.52
501.14	38780.34
501.32	38644.59
501.49	38876.30
501.67	39133.76
501.84	39274.19
502.02	38859.91
502.20	39267.17
502.37	39679.10
502.55	39473.13
502.72	39943.58
502.90	39810.17
503.07	39697.83
503.25	40053.59
503.43	39819.53
503.60	40163.59
503.78	40289.98
503.95	40495.95
504.13	40509.99
504.30	40542.76
504.48	40517.01
504.65	40687.87
504.83	41333.86
505.01	41172.36
505.18	41287.05
505.36	41457.91
505.53	41422.80
505.71	41722.39
505.88	41794.95
506.06	41947.08
506.23	42398.80
506.41	42082.83
506.58	42005.59
506.76	42375.40
506.93	42586.05
507.11	42485.40
507.28	42293.48
507.46	42473.70
507.63	42979.26
507.81	43215.65
507.98	43157.14
508.16	43058.84
508.33	43419.28
508.50	43728.23
508.68	44044.20
508.85	44320.38
509.03	44002.07
509.20	44308.68
509.38	44203.36
509.55	44816.58
509.73	44758.06
509.90	44465.50
510.08	44580.18
510.25	44774.45
510.42	44835.30
510.60	45490.65
510.77	45588.95
510.95	45975.14
511.12	45558.53
511.30	45441.50
511.47	45958.76
511.64	45825.35
511.82	46103.87
511.99	45874.50
512.17	46370.69
512.34	46450.27
512.51	46241.96
512.69	46639.86
512.86	46607.09
513.04	46733.48
513.21	46672.62
513.38	47220.31
513.56	47220.31
513.73	46993.28
513.90	47405.21
514.08	47367.76
514.25	47236.69
514.43	47590.11
514.60	47606.50
514.77	47732.89
514.95	48023.11
515.12	47625.22
515.29	47866.30
515.47	47985.66
515.64	48467.81
515.81	47887.36
515.99	48114.39
516.16	48472.49
516.33	48484.20
516.51	48662.08
516.68	48835.28
516.85	48559.09
517.03	49043.59
517.20	49237.85
517.37	48851.66
517.54	48975.71
517.72	48942.94
517.89	49202.74
518.06	49209.76
518.24	49727.02
518.41	49436.80
518.58	49422.75
518.75	49457.86
518.93	49759.79
519.10	49565.52
519.27	49902.56
519.45	50192.79
519.62	49911.92
519.79	50295.77
519.96	50035.97
520.14	50354.29
520.31	50436.20
520.48	50775.58
520.65	50515.78
520.83	50618.77
521.00	50665.58
521.17	50646.85
521.34	50721.75
521.52	50782.60
521.69	50913.67
521.86	51028.36
522.03	51360.72
522.20	51208.58
522.38	51583.07
522.55	51512.85
522.72	51299.86
522.89	51554.98
523.07	51714.14
523.24	51601.79
523.41	51784.35
523.58	51709.46
523.75	52013.73
523.92	51793.71
524.10	52158.84
524.27	52147.14
524.44	52037.13
524.61	52200.97
524.78	52413.96
524.96	52315.65
525.13	52385.87
525.30	52435.02
525.47	52533.32
525.64	52456.09
525.81	52617.58
525.98	52968.66
526.16	52861.00
526.33	52853.98
526.50	53399.32
526.67	52734.61
526.84	52945.26
527.01	52823.55
527.18	52875.04
527.36	53123.14
527.53	52966.32
527.70	53525.71
527.87	53254.21
528.04	53317.40
528.21	53708.27
528.38	53502.31
528.55	53425.07
528.72	53418.05
528.89	53670.82
529.07	53499.97
529.24	53535.07
529.41	53790.19
529.58	53722.32
529.75	53895.52
529.92	53916.58
530.09	53778.49
530.26	54047.65
530.43	54176.38
530.60	54031.27
530.77	53947.01
530.94	54312.13
531.11	54302.77
531.28	54305.11
531.46	54394.05
531.63	54237.23
531.80	54127.23
531.97	54588.31
532.14	54433.84
532.31	54452.56
532.48	54569.59
532.65	54611.72
532.82	54946.42
532.99	54789.60
533.16	54798.96
533.33	54869.18
533.50	55009.61
533.67	55047.06
533.84	54777.90
534.01	55079.83
534.18	54890.24
534.35	55091.53
534.52	55089.19
534.69	55332.60
534.86	55576.02
535.03	55037.70
535.20	55175.79
535.37	55356.01
535.54	55655.60
535.71	55398.14
535.88	55547.93
536.05	55585.38
536.22	55622.83
536.38	55660.28
536.55	55428.57
536.72	55877.95
536.89	55620.49
537.06	55786.67
537.23	55969.23
537.40	55798.37
537.57	55824.12
537.74	55725.81
537.91	56198.60
538.08	56065.19
538.25	55929.44
538.42	56011.36
538.59	56037.11
538.75	55983.27
538.92	56184.56
539.09	56285.20
539.26	56149.45
539.43	56196.26
539.60	56261.80
539.77	56406.91
539.94	56594.15
540.11	56554.36
540.28	56404.57
540.44	56481.81
540.61	56453.72
540.78	56509.89
540.95	56411.59
541.12	56678.41
541.29	56348.40
541.46	56762.67
541.62	56678.41
541.79	56711.18
541.96	56580.11
542.13	56720.54
542.30	56767.35
542.47	56868.00
542.63	57066.94
542.80	57134.82
542.97	57443.77
543.14	57291.63
543.31	57202.69
543.48	57293.97
543.64	57418.02
543.81	57329.08
543.98	57509.30
544.15	57551.43
544.32	57549.09
544.48	57680.16
544.65	57750.38
544.82	57392.28
544.99	57436.75
545.16	57525.69
545.32	57633.35
545.49	57902.51
545.66	57698.89
545.83	57719.95
546.00	57794.85
546.16	57698.89
546.33	57717.61
546.50	57471.85
546.67	58089.76
546.83	57780.81
547.00	57879.11
547.17	57939.96
547.34	57935.28
547.50	57982.09
547.67	58321.47
547.84	58014.86
548.00	58127.20
548.17	58403.39
548.34	58225.51
548.51	58387.00
548.67	58293.38
548.84	58195.08
549.01	58066.35
549.18	58391.68
549.34	58356.58
549.51	58443.18
549.68	58464.24
549.84	58546.16
550.01	58562.54
550.18	58298.06
550.34	58571.91
550.51	58607.01
550.68	58719.36
550.84	58211.46
551.01	58616.38
551.18	58740.42
551.34	58712.34
551.51	58485.31
551.68	58885.54
551.84	58658.51
552.01	58611.70
552.18	58695.95
552.34	58660.85
552.51	58946.39
552.68	58389.34
552.84	58794.26
553.01	58974.48
553.18	58871.49
553.34	59049.38
553.51	58972.14
553.67	59105.55
553.84	59025.97
554.01	58920.65
554.17	59042.35
554.34	59274.07
554.51	59217.89
554.67	58960.44
554.84	59168.74
555.00	59194.49
555.17	59299.81
555.33	59133.63
555.50	59206.19
555.67	59075.12
555.83	59100.87
556.00	59196.83
556.16	59458.97
556.33	59292.79
556.50	59288.11
556.66	59531.53
556.83	59126.61
556.99	59498.76
557.16	59405.14
557.32	59543.23
557.49	59714.09
557.65	59407.48
557.82	59632.17
557.98	59653.23
558.15	59564.29
558.32	59545.57
558.48	59444.93
558.65	59440.24
558.81	59730.47
558.98	59634.51
559.14	59716.43
559.31	59803.03
559.47	59758.56
559.64	59777.28
559.80	59969.21
559.97	59929.42
560.13	59735.15
560.30	59552.59
560.46	59894.31
560.63	59798.35
560.79	59943.46
560.96	59831.11
561.12	59913.03
561.29	59952.82
561.45	60121.34
561.61	59959.84
561.78	59821.75
561.94	59744.51
562.11	59922.40
562.27	59927.08
562.44	60030.06
562.60	60196.24
562.77	60212.62
562.93	59891.97
563.10	60093.25
563.26	60027.72
563.42	60142.41
563.59	60051.12
563.75	60189.22
563.92	60229.01
564.08	59952.82
564.24	60392.84
564.41	60224.32
564.57	60273.48
564.74	60231.35
564.90	60067.51
565.07	60252.41
565.23	60261.77
565.39	60390.50
565.56	60149.43
565.72	60275.82
565.88	60334.33
566.05	60240.71
566.21	60203.26
566.38	60310.92
566.54	60275.82
566.70	60441.99
566.87	60324.97
567.03	60184.54
567.19	60587.11
567.36	60390.50
567.52	60446.68
567.68	60596.47
567.85	60472.42
568.01	60486.46
568.17	60266.45
568.34	60491.15
568.50	60320.29
568.66	60514.55
568.83	60633.92
568.99	60308.58
569.15	60570.72
569.32	60416.25
569.48	60530.93
569.64	60512.21
569.81	60399.86
569.97	60463.06
570.13	60526.25
570.30	60306.24
570.46	60591.79
570.62	60603.49
570.78	60537.96
570.95	60654.98
571.11	60776.69
571.27	60640.94
571.43	60526.25
571.60	60905.42
571.76	60453.70
571.92	60507.53
572.09	60617.53
572.25	60523.91
572.41	60523.91
572.57	60762.65
572.74	60933.51
572.90	60598.81
573.06	60690.09
573.22	60802.44
573.38	60807.12
573.55	60612.85
573.71	60790.73
573.87	60753.29
574.03	60640.94
574.20	60935.85
574.36	60605.83
574.52	60725.20
574.68	60755.63
574.84	60821.16
575.01	60764.99
575.17	60542.64
575.33	60687.75
575.49	60807.12
575.65	60903.08
575.82	60825.84
575.98	60874.99
576.14	61071.60
576.30	60870.31
576.46	60884.36
576.62	60832.86
576.79	60830.52
576.95	60683.07
577.11	60865.63
577.27	60851.59
577.43	60748.60
577.59	60734.56
577.75	60963.93
577.92	60807.12
578.08	60652.64
578.24	61031.81
578.40	61041.17
578.56	61186.28
578.72	61099.68
578.88	61092.66
579.04	61008.40
579.21	60807.12
579.37	61057.56
579.53	60942.87
579.69	60842.23
579.85	60860.95
580.01	60711.16
580.17	60767.33
580.33	61052.87
580.49	61127.77
580.65	61095.00
580.82	61017.77
580.98	60893.72
581.14	60809.46
581.30	61162.88
581.46	60884.36
581.62	60917.12
581.78	60905.42
581.94	61055.21
582.10	61008.40
582.26	60886.70
582.42	61052.87
582.58	61078.62
582.74	60935.85
582.90	60917.12
583.06	61228.41
583.22	60912.44
583.38	60910.10
583.54	61144.16
583.70	60963.93
583.86	61073.94
584.02	60919.46
584.18	61111.39
584.34	60963.93
584.50	60996.70
584.66	61169.90
584.82	60846.91
584.98	61284.59
585.14	61272.88
585.30	60856.27
585.46	61282.25
585.62	60985.00
585.78	61085.64
585.94	60795.42
586.10	61141.81
586.26	60989.68
586.42	60940.53
586.58	61258.84
586.74	61359.48
586.90	61118.41
587.06	61013.08
587.22	61284.59
587.38	61162.88
587.54	61258.84
587.70	61307.99
587.86	61282.25
588.02	60963.93
588.18	61272.88
588.34	61258.84
