SpectraSuite Data File
++++++++++++++++++++++++++++++++++++
Date: Fri Oct 25 10:48:10 EDT 2013
User: price-jones
Dark Spectrum Present: No
Reference Spectrum Present: No
Number of Sampled Component Spectra: 1
Spectrometers: USB2+H05261
Integration Time (usec): 100000 (USB2+H05261)
Spectra Averaged: 1 (USB2+H05261)
Boxcar Smoothing: 0 (USB2+H05261)
Correct for Electrical Dark: No (USB2+H05261)
Strobe/Lamp Enabled: No (USB2+H05261)
Correct for Detector Non-linearity: No (USB2+H05261)
Correct for Stray Light: No (USB2+H05261)
Number of Pixels in Processed Spectrum: 2048
>>>>>Begin Processed Spectral Data<<<<<
365.73	124.05
365.92	124.05
366.12	124.05
366.32	56.17
366.52	65.54
366.72	11.70
366.91	138.09
367.11	21.06
367.31	14.04
367.51	46.81
367.70	37.45
367.90	67.88
368.10	74.90
368.30	107.66
368.49	63.19
368.69	28.09
368.89	37.45
369.09	98.30
369.28	105.32
369.48	65.54
369.68	147.45
369.87	53.83
370.07	79.58
370.27	112.35
370.47	222.35
370.66	411.93
370.86	386.19
371.06	397.89
371.25	489.17
371.45	402.57
371.65	433.00
371.84	484.49
372.04	433.00
372.24	475.13
372.44	517.26
372.63	458.74
372.83	503.22
373.03	573.43
373.22	486.83
373.42	559.39
373.62	510.24
373.81	603.86
374.01	533.64
374.21	585.13
374.40	524.28
374.60	554.71
374.79	571.09
374.99	535.98
375.19	582.79
375.38	521.94
375.58	528.96
375.78	674.07
375.97	550.03
376.17	610.88
376.37	557.05
376.56	535.98
376.76	535.98
376.95	547.69
377.15	711.52
377.35	596.84
377.54	599.18
377.74	578.11
377.93	699.82
378.13	580.45
378.33	629.60
378.52	664.71
378.72	641.31
378.91	585.13
379.11	645.99
379.31	603.86
379.50	631.94
379.70	650.67
379.89	610.88
380.09	627.26
380.28	676.41
380.48	697.48
380.68	636.63
380.87	704.50
381.07	641.31
381.26	723.23
381.46	617.90
381.65	674.07
381.85	713.86
382.04	615.56
382.24	702.16
382.43	629.60
382.63	650.67
382.83	744.29
383.02	767.70
383.22	697.48
383.41	709.18
383.61	671.73
383.80	765.36
384.00	664.71
384.19	704.50
384.39	786.42
384.58	753.65
384.78	592.16
384.97	718.54
385.17	786.42
385.36	798.12
385.56	760.67
385.75	718.54
385.95	765.36
386.14	816.85
386.34	805.14
386.53	891.74
386.72	795.78
386.92	807.48
387.11	763.01
387.31	791.10
387.50	781.74
387.70	784.08
387.89	784.08
388.09	816.85
388.28	805.14
388.48	858.98
388.67	833.23
388.86	821.53
389.06	828.55
389.25	980.68
389.45	917.49
389.64	891.74
389.84	858.98
390.03	903.45
390.22	870.68
390.42	957.28
390.61	1008.77
390.81	940.90
391.00	947.92
391.19	968.98
391.39	954.94
391.58	1001.75
391.78	959.62
391.97	1069.62
392.16	922.17
392.36	1055.58
392.55	940.90
392.75	1050.90
392.94	968.98
393.13	1015.79
393.33	1018.13
393.52	980.68
393.71	1107.07
393.91	997.07
394.10	1057.92
394.29	1064.94
394.49	1146.86
394.68	1132.82
394.88	1050.90
395.07	1004.09
395.26	1032.18
395.46	1093.03
395.65	1191.33
395.84	1139.84
396.04	1235.80
396.23	1071.97
396.42	1144.52
396.62	1107.07
396.81	1188.99
397.00	1104.73
397.19	1174.95
397.39	1160.91
397.58	1306.02
397.77	1263.89
397.97	1287.29
398.16	1296.66
398.35	1359.85
398.55	1203.04
398.74	1224.10
398.93	1294.32
399.12	1287.29
399.32	1261.55
399.51	1254.53
399.70	1334.11
399.90	1350.49
400.09	1315.38
400.28	1418.36
400.47	1362.19
400.67	1455.81
400.86	1446.45
401.05	1472.20
401.24	1394.96
401.44	1516.67
401.63	1530.71
401.82	1547.09
402.01	1495.60
402.21	1514.33
402.40	1528.37
402.59	1519.01
402.78	1483.90
402.97	1497.94
403.17	1533.05
403.36	1521.35
403.55	1549.43
403.74	1624.33
403.93	1565.82
404.13	1584.54
404.32	1736.68
404.51	1643.06
404.70	1664.12
404.89	1673.48
405.09	1802.21
405.28	1715.61
405.47	1764.76
405.66	1715.61
405.85	1802.21
406.05	1710.93
406.24	1877.11
406.43	1715.61
406.62	1741.36
406.81	1900.52
407.00	1813.92
407.20	1809.23
407.39	1839.66
407.58	1809.23
407.77	1919.24
407.96	1886.47
408.15	1867.75
408.34	1879.45
408.54	2054.99
408.73	1982.43
408.92	1977.75
409.11	1928.60
409.30	2069.03
409.49	1926.26
409.68	1914.56
409.87	2047.97
410.07	2111.16
410.26	1968.39
410.45	2045.63
410.64	2069.03
410.83	2069.03
411.02	2193.08
411.21	2209.47
411.40	2200.10
411.59	2401.39
411.78	2186.06
411.98	2296.07
412.17	2282.02
412.36	2359.26
412.55	2396.71
412.74	2368.62
412.93	2443.52
413.12	2410.75
413.31	2553.52
413.50	2487.99
413.69	2452.88
413.88	2719.70
414.07	2506.71
414.26	2581.61
414.45	2574.59
414.64	2614.38
414.83	2658.85
415.02	2614.38
415.22	2759.49
415.41	2726.72
415.60	2654.17
415.79	2785.24
415.98	2796.94
416.17	2717.36
416.36	2719.70
416.55	2738.43
416.74	2881.20
416.93	2967.80
417.12	2916.31
417.31	2899.92
417.50	2937.37
417.69	3014.61
417.88	3068.44
418.07	2942.05
418.26	3103.55
418.45	3159.72
418.64	3080.14
418.83	3117.59
419.02	3155.04
419.21	3159.72
419.39	3054.40
419.58	3148.02
419.77	3124.62
419.96	3253.34
420.15	3363.35
420.34	3239.30
420.53	3288.45
420.72	3276.75
420.91	3314.20
421.10	3321.22
421.29	3365.69
421.48	3318.88
421.67	3346.97
421.86	3431.23
422.05	3321.22
422.24	3377.39
422.43	3421.86
422.61	3435.91
422.80	3541.23
422.99	3496.76
423.18	3391.44
423.37	3489.74
423.56	3524.85
423.75	3435.91
423.94	3503.78
424.13	3225.26
424.32	3384.41
424.50	3396.12
424.69	3508.46
424.88	3618.47
425.07	3543.57
425.26	3522.51
425.45	3508.46
425.64	3375.05
425.83	3494.42
426.01	3562.30
426.20	3520.17
426.39	3620.81
426.58	3459.31
426.77	3433.57
426.96	3613.79
427.15	3581.02
427.33	3623.15
427.52	3726.13
427.71	3634.85
427.90	3679.32
428.09	3679.32
428.28	3758.90
428.46	3911.04
428.65	3747.20
428.84	3824.44
429.03	3786.99
429.22	3700.39
429.40	3815.07
429.59	3702.73
429.78	3613.79
429.97	3616.13
430.16	3648.90
430.34	3815.07
430.53	3737.84
430.72	3754.22
430.91	3866.56
431.10	3838.48
431.28	3941.46
431.47	4037.42
431.66	4138.07
431.85	4077.21
432.03	4030.40
432.22	4037.42
432.41	4112.32
432.60	4177.86
432.79	4173.18
432.97	4294.88
433.16	4234.03
433.35	4037.42
433.54	4219.99
433.72	4215.30
433.91	4210.62
434.10	4278.50
434.28	4322.97
434.47	4278.50
434.66	4339.35
434.85	4372.12
435.03	4409.57
435.22	4355.74
435.41	4655.33
435.59	4531.28
435.78	4498.51
435.97	4545.32
436.16	4482.13
436.34	4390.84
436.53	4685.75
436.72	4531.28
436.90	4484.47
437.09	4592.13
437.28	4496.17
437.46	4503.19
437.65	4657.67
437.84	4884.70
438.02	4650.64
438.21	4741.93
438.40	4519.57
438.58	4741.93
438.77	4791.08
438.96	4779.37
439.14	4931.51
439.33	4933.85
439.52	4802.78
439.70	5015.77
439.89	5156.20
440.08	5195.99
440.26	5067.26
440.45	5170.24
440.63	5029.81
440.82	5247.48
441.01	5179.61
441.19	5493.24
441.38	5296.63
441.57	5394.93
441.75	5371.53
441.94	5467.49
442.12	5636.01
442.31	5701.54
442.50	5589.20
442.68	5621.97
442.87	5626.65
443.05	5682.82
443.24	5820.91
443.43	5753.04
443.61	5813.89
443.80	5762.40
443.98	5715.59
444.17	5364.51
444.35	5771.76
444.54	5921.56
444.73	5865.38
444.91	5811.55
445.10	5741.33
445.28	5748.36
445.47	5841.98
445.65	5724.95
445.84	5790.49
446.02	5900.49
446.21	5755.38
446.39	5762.40
446.58	5809.21
446.77	5998.79
446.95	5743.67
447.14	5961.34
447.32	6083.05
447.51	5963.68
447.69	5874.74
447.88	5856.02
448.06	6038.58
448.25	5973.05
448.43	6024.54
448.62	5858.36
448.80	5879.43
448.99	6036.24
449.17	6228.17
449.36	6012.84
449.54	6207.10
449.73	6312.42
449.91	6317.11
450.10	6256.25
450.28	6286.68
450.46	6286.68
450.65	6502.01
450.83	6300.72
451.02	6286.68
451.20	6375.62
451.39	6450.52
451.57	6190.72
451.76	6480.94
451.94	6548.82
452.13	6279.66
452.31	6312.42
452.49	6300.72
452.68	6394.34
452.86	6300.72
453.05	6778.19
453.23	6534.78
453.42	6490.31
453.60	6427.11
453.78	6553.50
453.97	6602.65
454.15	6663.51
454.34	6590.95
454.52	6651.80
454.70	6696.27
454.89	6684.57
455.07	6665.85
455.26	6827.34
455.44	6984.16
455.62	6853.09
455.81	7087.14
455.99	7042.67
456.17	6937.35
456.36	6967.77
456.54	7056.72
456.73	7173.74
456.91	7166.72
457.09	7145.66
457.28	7253.32
457.46	7215.87
457.64	7155.02
457.83	7183.10
458.01	7035.65
458.19	7304.81
458.38	6979.48
458.56	7522.48
458.74	7412.48
458.93	7368.01
459.11	7276.73
459.29	7391.41
459.48	7466.31
459.66	7487.37
459.84	7527.16
460.03	7758.88
460.21	7562.27
460.39	7581.00
460.57	7463.97
460.76	7861.86
460.94	7611.42
461.12	7653.55
461.31	7763.56
461.49	7655.89
461.67	7693.34
461.85	7808.03
462.04	7691.00
462.22	8273.79
462.40	7864.20
462.59	7906.33
462.77	8107.62
462.95	8109.96
463.13	8042.08
463.32	7971.86
463.50	8131.02
463.68	7887.61
463.86	8044.42
464.05	7878.24
464.23	7960.16
464.41	8011.65
464.59	8021.02
464.78	8138.04
464.96	8051.44
465.14	8032.72
465.32	8210.60
465.50	8475.08
465.69	8271.45
465.87	8093.57
466.05	8358.05
466.23	8086.55
466.41	8187.19
466.60	8446.99
466.78	8325.29
466.96	8297.20
467.14	8372.10
467.32	8503.17
467.51	8580.40
467.69	8273.79
467.87	8554.66
468.05	8641.26
468.23	8571.04
468.41	8571.04
468.60	8690.41
468.78	8566.36
468.96	8379.12
469.14	8741.90
469.32	8805.10
469.50	8786.37
469.69	8662.32
469.87	8709.13
470.05	8889.35
470.23	8837.86
470.41	8910.42
470.59	9048.51
470.77	9036.81
470.95	9104.68
471.14	9088.30
471.32	8762.97
471.50	9198.31
471.68	9205.33
471.86	9329.38
472.04	9252.14
472.22	9460.45
472.40	9322.35
472.58	9277.88
472.77	9392.57
472.95	9331.72
473.13	9832.59
473.31	9554.07
473.49	9369.16
473.67	9490.87
473.85	9483.85
474.03	9748.33
474.21	9902.81
474.39	10029.20
474.57	9757.69
474.75	9799.82
474.93	10195.37
475.12	10214.10
475.30	9909.83
475.48	10115.80
475.66	10382.62
475.84	10186.01
476.02	10258.57
476.20	10118.14
476.38	10626.03
476.56	10714.97
476.74	10633.05
476.92	10600.29
477.10	10721.99
477.28	10850.72
477.46	10897.53
477.64	10883.49
477.82	11150.31
478.00	11360.96
478.18	11110.52
478.36	11426.50
478.54	11412.45
478.72	11325.85
478.90	11639.48
479.08	11808.00
479.26	11934.39
479.44	11791.62
479.62	12018.65
479.80	11889.92
479.98	12095.89
480.16	12060.78
480.34	12203.55
480.52	12493.78
480.70	12301.86
480.88	12248.02
481.06	12425.90
481.24	12519.53
481.41	12975.93
481.59	12861.24
481.77	12903.37
481.95	12966.57
482.13	13287.22
482.31	13280.20
482.49	13413.61
482.67	13418.29
482.85	13537.66
483.03	13689.79
483.21	13673.41
483.39	13919.17
483.57	13788.10
483.74	14141.52
483.92	14118.11
484.10	14108.75
484.28	14398.98
484.46	14457.49
484.64	14567.49
484.82	14480.89
485.00	14876.44
485.18	15021.56
485.35	15110.50
485.53	14918.57
485.71	14979.43
485.89	15396.04
486.07	15302.42
486.25	15297.74
486.43	15637.12
486.61	15552.86
486.78	15723.72
486.96	16060.76
487.14	16098.20
487.32	16259.70
487.50	16325.24
487.68	16673.98
487.85	16606.10
488.03	16851.86
488.21	16982.93
488.39	16989.95
488.57	16875.26
488.75	17074.21
488.92	17380.82
489.10	17724.88
489.28	17392.52
489.46	17741.26
489.64	17685.09
489.81	18265.54
489.99	18324.05
490.17	18251.50
490.35	18719.60
490.53	18366.18
490.70	18368.52
490.88	18867.06
491.06	19161.97
491.24	18895.14
491.41	18703.22
491.59	18963.02
491.77	19089.41
491.95	19417.08
492.13	19646.46
492.30	19360.91
492.48	19946.05
492.66	19873.49
492.84	19957.75
493.01	20152.01
493.19	20304.15
493.37	20357.98
493.54	20318.19
493.72	20964.18
493.90	20563.95
494.08	20790.98
494.25	21020.35
494.43	21060.14
494.61	21289.51
494.79	21352.71
494.96	21146.74
495.14	21420.58
495.32	21359.73
495.49	21427.60
495.67	21851.24
495.85	21895.71
496.02	22139.13
496.20	21954.22
496.38	22319.35
496.55	22284.24
496.73	23054.28
496.91	22424.67
497.09	22731.28
497.26	22775.75
497.44	22831.93
497.62	23283.65
497.79	23470.89
497.97	23101.09
498.14	23709.63
498.32	22991.08
498.50	23735.37
498.67	23758.78
498.85	23555.15
499.03	23978.79
499.20	23976.45
499.38	24135.60
499.56	24161.35
499.73	24273.70
499.91	24472.64
500.08	24320.51
500.26	24397.74
500.44	24489.03
500.61	24762.87
500.79	24376.68
500.97	24776.91
501.14	25233.32
501.32	25198.21
501.49	25010.96
501.67	25085.86
501.84	25046.07
502.02	25256.72
502.20	25614.82
502.37	25303.53
502.55	25530.56
502.72	25654.61
502.90	25724.83
503.07	25687.38
503.25	25858.24
503.43	25710.78
503.60	25876.96
503.78	26169.53
503.95	26057.18
504.13	26237.41
504.30	26225.70
504.48	26614.23
504.65	26600.19
504.83	26876.37
505.01	26658.70
505.18	26848.29
505.36	27154.90
505.53	27091.70
505.71	26939.57
505.88	27269.58
506.06	27077.66
506.23	27187.66
506.41	26829.56
506.58	27426.40
506.76	27566.83
506.93	27718.96
507.11	27470.87
507.28	27728.33
507.46	27599.60
507.63	27718.96
507.81	28238.56
507.98	27800.88
508.16	27725.99
508.33	28126.22
508.50	28158.99
508.68	28416.44
508.85	28154.30
509.03	28449.21
509.20	28718.37
509.38	28676.24
509.55	28823.70
509.73	28952.43
509.90	28924.34
510.08	28917.32
510.25	28978.17
510.42	29254.36
510.60	29088.18
510.77	29090.52
510.95	29486.07
511.12	29593.73
511.30	29736.51
511.47	29851.19
511.64	29668.63
511.82	30352.07
511.99	29652.25
512.17	30071.20
512.34	29902.68
512.51	30284.19
512.69	30340.36
512.86	30733.57
513.04	30450.37
513.21	30705.49
513.38	30490.16
513.56	30485.48
513.73	30745.28
513.90	30792.09
514.08	30572.08
514.25	30981.67
514.43	30377.81
514.60	30710.17
514.77	30939.54
514.95	30998.06
515.12	31082.31
515.29	31065.93
515.47	31133.81
515.64	31676.81
515.81	30944.22
515.99	31456.80
516.16	31695.53
516.33	31487.23
516.51	31852.35
516.68	31325.73
516.85	31674.47
517.03	31538.72
517.20	31845.33
517.37	31934.27
517.54	31957.67
517.72	32013.85
517.89	32030.23
518.06	32182.37
518.24	31992.78
518.41	32201.09
518.58	32140.24
518.75	32446.85
518.93	32678.56
519.10	32376.63
519.27	32739.41
519.45	32725.37
519.62	33027.30
519.79	32797.93
519.96	33301.14
520.14	33310.50
520.31	33291.78
520.48	33420.51
520.65	33448.60
520.83	33420.51
521.00	33780.95
521.17	33853.51
521.34	33228.59
521.52	33626.48
521.69	34094.58
521.86	33909.68
522.03	33715.42
522.20	33745.84
522.38	33998.62
522.55	33874.57
522.72	34171.82
522.89	33813.72
523.07	34057.14
523.24	33869.89
523.41	34412.90
523.58	34298.21
523.75	34920.79
523.92	34153.10
524.10	34370.77
524.27	34595.46
524.44	34831.85
524.61	34675.04
524.78	35082.29
524.96	35236.77
525.13	35005.05
525.30	35016.75
525.47	35426.35
525.64	34988.67
525.81	35349.11
525.98	35321.02
526.16	35079.95
526.33	35028.46
526.50	35749.34
526.67	35215.70
526.84	35260.17
527.01	35222.72
527.18	35285.92
527.36	35620.61
527.53	35920.20
527.70	35988.08
527.87	36236.17
528.04	35995.10
528.21	36135.53
528.38	36011.48
528.55	35917.86
528.72	36435.12
528.89	35814.88
529.07	36697.26
529.24	36437.46
529.41	36250.22
529.58	36275.96
529.75	36451.50
529.92	36645.77
530.09	36584.91
530.26	36407.03
530.43	36786.20
530.60	36561.51
530.77	37083.45
530.94	36802.58
531.11	36842.37
531.28	36732.37
531.46	36856.42
531.63	37024.93
531.80	36816.63
531.97	37261.33
532.14	36884.50
532.31	36818.97
532.48	37574.96
532.65	37586.66
532.82	37116.22
532.99	37502.40
533.16	37280.05
533.33	37415.80
533.50	37659.22
533.67	37593.68
533.84	37305.80
534.01	37858.17
534.18	37792.63
534.35	37862.85
534.52	37586.66
534.69	38419.89
534.86	38733.53
535.03	37900.29
535.20	38476.07
535.37	38277.12
535.54	38567.35
535.71	37661.56
535.88	38639.90
536.05	37741.14
536.22	38361.38
536.38	37883.91
536.55	38419.89
536.72	38024.34
536.89	37993.92
537.06	38782.68
537.23	38752.25
537.40	38359.04
537.57	38284.14
537.74	38693.74
537.91	38890.34
538.08	38780.34
538.25	38511.17
538.42	38609.48
538.59	39473.13
538.75	39124.40
538.92	39187.59
539.09	39262.49
539.26	39241.42
539.43	39033.11
539.60	39384.19
539.77	38827.15
539.94	39047.16
540.11	38948.85
540.28	38967.58
540.44	38918.43
540.61	39257.81
540.78	39072.90
540.95	39435.69
541.12	39175.89
541.29	39250.78
541.46	39557.39
541.62	39461.43
541.79	39445.05
541.96	39632.29
542.13	39178.23
542.30	39995.07
542.47	39735.27
542.63	39620.59
542.80	40467.86
542.97	40538.08
543.14	40584.89
543.31	40268.92
543.48	40453.82
543.64	40699.58
543.81	40215.08
543.98	40491.27
544.15	40561.48
544.32	40912.56
544.48	40882.14
544.65	40449.14
544.82	40961.72
544.99	40898.52
545.16	40360.20
545.32	40762.77
545.49	40910.22
545.66	40762.77
545.83	41127.89
546.00	40797.88
546.16	41165.34
546.33	41071.72
546.50	40322.75
546.67	40961.72
546.83	40718.30
547.00	40898.52
547.17	40835.33
547.34	40818.94
547.50	41448.55
547.67	41212.15
547.84	41530.47
548.00	41677.92
548.17	41502.38
548.34	41490.68
548.51	41801.97
548.67	41338.54
548.84	41734.09
549.01	41483.66
549.18	41539.83
549.34	41677.92
549.51	41715.37
549.68	42014.96
549.84	42031.34
550.01	41909.63
550.18	41354.93
550.34	41816.01
550.51	41308.11
550.68	41680.26
550.84	41617.07
551.01	42174.11
551.18	41855.80
551.34	41944.74
551.51	42192.84
551.68	42218.58
551.84	42319.23
552.01	42071.13
552.18	42171.77
552.34	42003.25
552.51	42129.64
552.68	42167.09
552.84	42183.48
553.01	42504.13
553.18	41963.46
553.34	42110.92
553.51	42312.20
553.67	42403.49
553.84	42211.56
554.01	42382.42
554.17	42604.77
554.34	42600.09
554.51	42770.95
554.67	42527.53
554.84	42916.06
555.00	42333.27
555.17	42309.86
555.33	42557.96
555.50	42539.24
555.67	42548.60
555.83	42492.43
556.00	42817.76
556.16	43107.99
556.33	42862.23
556.50	42932.45
556.66	43084.58
556.83	42763.93
556.99	42890.32
557.16	42925.42
557.32	43129.05
557.49	43215.65
557.65	43140.75
557.82	43002.66
557.98	42658.60
558.15	42953.51
558.32	43042.45
558.48	43217.99
558.65	42567.32
558.81	43084.58
558.98	42916.06
559.14	43129.05
559.31	43320.98
559.47	43491.83
559.64	43470.77
559.80	43283.53
559.97	43040.11
560.13	43234.38
560.30	43115.01
560.46	43578.43
560.63	43140.75
560.79	43742.27
560.96	44123.78
561.12	44112.08
561.29	43234.38
561.45	43983.35
561.61	43505.88
561.78	43349.06
561.94	43512.90
562.11	43632.27
562.27	43615.88
562.44	43620.56
562.60	43835.89
562.77	43625.25
562.93	43653.33
563.10	43702.48
563.26	43372.47
563.42	43840.57
563.59	43847.60
563.75	43433.32
563.92	43789.08
564.08	43679.08
564.24	43613.54
564.41	43927.17
564.57	43606.52
564.74	43803.13
564.90	43854.62
565.07	43798.44
565.23	43669.72
565.39	43959.94
565.56	43969.30
565.72	43761.00
565.88	43854.62
566.05	43915.47
566.21	43945.90
566.38	43761.00
566.54	43955.26
566.70	44076.97
566.87	44502.95
567.03	43964.62
567.19	44381.24
567.36	44299.32
567.52	43859.30
567.68	44161.23
567.85	44570.82
568.01	43995.05
568.17	44374.22
568.34	43964.62
568.50	44196.34
568.66	43948.24
568.83	44119.10
568.99	43859.30
569.15	43526.94
569.32	43650.99
569.48	44088.67
569.64	44259.53
569.81	43859.30
569.97	43641.63
570.13	43934.20
570.30	44032.50
570.46	43707.16
570.62	43765.68
570.78	44119.10
570.95	44027.82
571.11	44329.75
571.27	43849.94
571.43	44168.25
571.60	44360.17
571.76	44353.15
571.92	44294.64
572.09	44058.24
572.25	44406.98
572.41	44112.08
572.57	44320.38
572.74	44697.21
572.90	44170.59
573.06	44472.52
573.22	44636.36
573.38	44247.83
573.55	44133.14
573.71	44397.62
573.87	44210.38
574.03	44250.17
574.20	44299.32
574.36	44088.67
574.52	44048.88
574.68	44844.66
574.84	44570.82
575.01	44481.88
575.17	44556.78
575.33	43793.76
575.49	43847.60
575.65	44760.40
575.82	44545.08
575.98	44545.08
576.14	45064.67
576.30	44006.75
576.46	43782.06
576.62	44444.43
576.79	44060.58
576.95	43875.68
577.11	44203.36
577.27	44662.10
577.43	44973.39
577.59	44341.45
577.75	44348.47
577.92	44116.76
578.08	44325.07
578.24	44399.96
578.40	44346.13
578.56	44095.69
578.72	44456.14
578.88	44821.26
579.04	44547.42
579.21	44683.17
579.37	44268.89
579.53	44095.69
579.69	44364.85
579.85	44240.81
580.01	44367.20
580.17	44718.28
580.33	44891.48
580.49	44505.29
580.65	44570.82
580.82	44409.32
580.98	44430.39
581.14	44533.37
581.30	44219.74
581.46	44683.17
581.62	44559.12
581.78	44435.07
581.94	44877.43
582.10	44437.41
582.26	44687.85
582.42	44865.73
582.58	44769.77
582.74	44191.65
582.90	44552.10
583.06	44540.39
583.22	44835.30
583.38	44584.86
583.54	44891.48
583.70	44580.18
583.86	44573.16
584.02	44318.04
584.18	44957.01
584.34	44678.49
584.50	44467.84
584.66	44385.92
584.82	44350.81
584.98	44694.87
585.14	44793.17
585.30	44596.57
585.46	44556.78
585.62	44435.07
585.78	44091.01
585.94	44264.21
586.10	44865.73
586.26	44250.17
586.42	45057.65
586.58	44659.76
586.74	44589.55
586.90	44877.43
587.06	44634.02
587.22	44442.09
587.38	44360.17
587.54	45111.49
587.70	44975.73
587.86	44774.45
588.02	44781.47
588.18	45125.53
588.34	44821.26
588.49	44474.86
588.65	44126.12
588.81	44306.34
588.97	44509.97
589.13	44425.71
589.29	44849.35
589.45	44662.10
589.61	44697.21
589.77	44933.60
589.93	44636.36
590.08	44837.64
590.24	44533.37
