SpectraSuite Data File
++++++++++++++++++++++++++++++++++++
Date: Fri Oct 25 11:23:43 EDT 2013
User: price-jones
Dark Spectrum Present: No
Reference Spectrum Present: No
Number of Sampled Component Spectra: 1
Spectrometers: USB2+H05261
Integration Time (usec): 100000 (USB2+H05261)
Spectra Averaged: 1 (USB2+H05261)
Boxcar Smoothing: 0 (USB2+H05261)
Correct for Electrical Dark: No (USB2+H05261)
Strobe/Lamp Enabled: No (USB2+H05261)
Correct for Detector Non-linearity: No (USB2+H05261)
Correct for Stray Light: No (USB2+H05261)
Number of Pixels in Processed Spectrum: 2048
>>>>>Begin Processed Spectral Data<<<<<
365.73	205.97
365.92	205.97
366.12	205.97
366.32	145.11
366.52	114.69
366.72	110.01
366.91	102.98
367.11	105.32
367.31	135.75
367.51	184.90
367.70	135.75
367.90	159.16
368.10	154.48
368.30	95.96
368.49	95.96
368.69	102.98
368.89	124.05
369.09	105.32
369.28	262.14
369.48	173.20
369.68	112.35
369.87	149.79
370.07	187.24
370.27	236.39
370.47	320.65
370.66	648.33
370.86	615.56
371.06	669.39
371.25	653.01
371.45	648.33
371.65	711.52
371.84	737.27
372.04	676.41
372.24	681.10
372.44	716.20
372.63	716.20
372.83	730.25
373.03	784.08
373.22	772.38
373.42	791.10
373.62	746.63
373.81	725.57
374.01	763.01
374.21	807.48
374.40	807.48
374.60	819.19
374.79	781.74
374.99	744.29
375.19	912.81
375.38	847.27
375.58	786.42
375.78	851.96
375.97	877.70
376.17	952.60
376.37	926.85
376.56	854.30
376.76	880.04
376.95	858.98
377.15	887.06
377.35	847.27
377.54	910.47
377.74	849.61
377.93	924.51
378.13	929.19
378.33	880.04
378.52	891.74
378.72	931.53
378.91	952.60
379.11	933.87
379.31	994.73
379.50	898.77
379.70	891.74
379.89	1022.81
380.09	1004.09
380.28	976.00
380.48	1039.20
380.68	987.71
380.87	1015.79
381.07	968.98
381.26	997.07
381.46	1004.09
381.65	1036.86
381.85	1013.45
382.04	1144.52
382.24	1041.54
382.43	1095.37
382.63	1053.24
382.83	1015.79
383.02	1160.91
383.22	1210.06
383.41	1090.69
383.61	1076.65
383.80	1102.39
384.00	1039.20
384.19	1069.62
384.39	1156.22
384.58	1097.71
384.78	1191.33
384.97	1177.29
385.17	1174.95
385.36	1210.06
385.56	1102.39
385.75	1102.39
385.95	1132.82
386.14	1153.88
386.34	1233.46
386.53	1170.27
386.72	1219.42
386.92	1235.80
387.11	1235.80
387.31	1268.57
387.50	1219.42
387.70	1277.93
387.89	1280.27
388.09	1306.02
388.28	1310.70
388.48	1301.34
388.67	1275.59
388.86	1249.85
389.06	1294.32
389.25	1336.45
389.45	1306.02
389.64	1369.21
389.84	1371.55
390.03	1364.53
390.22	1364.53
390.42	1343.47
390.61	1357.51
390.81	1378.58
391.00	1486.24
391.19	1521.35
391.39	1308.36
391.58	1474.54
391.78	1458.15
391.97	1451.13
392.16	1507.30
392.36	1549.43
392.55	1497.94
392.75	1598.59
392.94	1577.52
393.13	1568.16
393.33	1502.62
393.52	1577.52
393.71	1650.08
393.91	1528.37
394.10	1497.94
394.29	1577.52
394.49	1563.48
394.68	1701.57
394.88	1687.53
395.07	1619.65
395.26	1753.06
395.46	1708.59
395.65	1715.61
395.84	1624.33
396.04	1846.68
396.23	1746.04
396.42	1816.26
396.62	1811.57
396.81	1771.79
397.00	1830.30
397.19	1795.19
397.39	1820.94
397.58	1895.83
397.77	1853.70
397.97	1816.26
398.16	1886.47
398.35	1975.41
398.55	1930.94
398.74	1919.24
398.93	1989.46
399.12	1937.96
399.32	1949.67
399.51	1930.94
399.70	1952.01
399.90	1949.67
400.09	2026.90
400.28	2083.08
400.47	2001.16
400.67	2127.55
400.86	2125.21
401.05	1898.17
401.24	2076.06
401.44	1963.71
401.63	2064.35
401.82	2040.95
402.01	2054.99
402.21	2087.76
402.40	2200.10
402.59	2134.57
402.78	2174.36
402.97	2242.23
403.17	2279.68
403.36	2307.77
403.55	2214.15
403.74	2361.60
403.93	2225.85
404.13	2286.70
404.32	2352.24
404.51	2382.67
404.70	2513.74
404.89	2349.90
405.09	2513.74
405.28	2408.41
405.47	2569.91
405.66	2698.64
405.85	2518.42
406.05	2626.08
406.24	2523.10
406.43	2597.99
406.62	2717.36
406.81	2710.34
407.00	2548.84
407.20	2740.77
407.39	2642.46
407.58	2724.38
407.77	2815.66
407.96	2747.79
408.15	2686.94
408.34	2637.78
408.54	2913.97
408.73	2834.39
408.92	2899.92
409.11	2848.43
409.30	2775.88
409.49	2881.20
409.68	2930.35
409.87	2892.90
410.07	2918.65
410.26	3063.76
410.45	3077.80
410.64	3007.59
410.83	2958.44
411.02	3082.49
411.21	3152.70
411.40	3117.59
411.59	3241.64
411.78	3295.47
411.98	3241.64
412.17	3356.33
412.36	3410.16
412.55	3379.73
412.74	3335.26
412.93	3307.18
413.12	3304.84
413.31	3665.28
413.50	3489.74
413.69	3496.76
413.88	3681.66
414.07	3599.74
414.26	3641.87
414.45	3709.75
414.64	3536.55
414.83	3733.15
415.02	3688.68
415.22	3861.88
415.41	3929.76
415.60	3861.88
415.79	4030.40
415.98	3981.25
416.17	3934.44
416.36	4007.00
416.55	4032.74
416.74	4060.83
416.93	4011.68
417.12	4219.99
417.31	4086.58
417.50	4117.00
417.69	4203.60
417.88	4372.12
418.07	4290.20
418.26	4161.47
418.45	4264.46
418.64	4456.38
418.83	4381.48
419.02	4362.76
419.21	4542.98
419.39	4526.60
419.58	4554.68
419.77	4545.32
419.96	4582.77
420.15	4566.39
420.34	4540.64
420.53	4821.50
420.72	4599.15
420.91	4676.39
421.10	4674.05
421.29	4753.63
421.48	4734.90
421.67	4723.20
421.86	4816.82
422.05	4863.63
422.24	4863.63
422.43	4873.00
422.61	4840.23
422.80	5001.72
422.99	4990.02
423.18	4870.65
423.37	4992.36
423.56	4887.04
423.75	4875.34
423.94	4926.83
424.13	4627.24
424.32	4786.40
424.50	4943.21
424.69	5111.73
424.88	4985.34
425.07	5029.81
425.26	5093.01
425.45	4894.06
425.64	4964.28
425.83	4917.47
426.01	5170.24
426.20	5050.88
426.39	5062.58
426.58	5029.81
426.77	5153.86
426.96	5107.05
427.15	5053.22
427.33	5198.33
427.52	5041.51
427.71	5317.70
427.90	5296.63
428.09	5495.58
428.28	5350.46
428.46	5322.38
428.65	5298.97
428.84	5647.71
429.03	5598.56
429.22	5575.16
429.40	5401.96
429.59	5495.58
429.78	5455.79
429.97	5242.80
430.16	5556.43
430.34	5572.82
430.53	5659.42
430.72	5589.20
430.91	5741.33
431.10	5568.13
431.28	5647.71
431.47	5830.27
431.66	5935.60
431.85	5743.67
432.03	6024.54
432.22	6115.82
432.41	6015.18
432.60	5982.41
432.79	5909.85
432.97	6282.00
433.16	6125.18
433.35	6122.84
433.54	6052.63
433.72	6284.34
433.91	6146.25
434.10	5940.28
434.28	6174.33
434.47	6204.76
434.66	6153.27
434.85	6230.51
435.03	6370.94
435.22	6279.66
435.41	6448.18
435.59	6413.07
435.78	6466.90
435.97	6377.96
436.16	6408.39
436.34	6483.28
436.53	6565.20
436.72	6724.36
436.90	6478.60
437.09	6712.66
437.28	6597.97
437.46	6609.67
437.65	6743.08
437.84	6888.20
438.02	6834.36
438.21	6607.33
438.40	6621.38
438.58	6991.18
438.77	7155.02
438.96	6927.99
439.14	7157.36
439.33	6991.18
439.52	7169.06
439.70	7176.08
439.89	7368.01
440.08	7279.07
440.26	7581.00
440.45	7431.20
440.63	7438.22
440.82	7702.70
441.01	7723.77
441.19	7599.72
441.38	7578.65
441.57	7801.01
441.75	7728.45
441.94	7829.09
442.12	7978.89
442.31	8182.51
442.50	8212.94
442.68	7948.46
442.87	8173.15
443.05	8088.89
443.24	8308.90
443.43	8208.26
443.61	8215.28
443.80	8346.35
443.98	8329.97
444.17	7793.98
444.35	8362.73
444.54	8470.40
444.73	8318.26
444.91	8355.71
445.10	8346.35
445.28	8594.45
445.47	8306.56
445.65	8381.46
445.84	8519.55
446.02	8559.34
446.21	8386.14
446.39	8538.27
446.58	8454.02
446.77	8421.25
446.95	8355.71
447.14	8489.12
447.32	8823.82
447.51	8578.06
447.69	8549.98
447.88	8720.84
448.06	8514.87
448.25	8526.57
448.43	8493.80
448.62	8716.16
448.80	8622.53
448.99	8758.28
449.17	8706.79
449.36	8917.44
449.54	9015.74
449.73	8915.10
449.91	9081.28
450.10	8987.66
450.28	8802.75
450.46	9050.85
450.65	9100.00
450.83	8903.40
451.02	8912.76
451.20	9317.67
451.39	9071.92
451.57	9397.25
451.76	9076.60
451.94	9179.58
452.13	9334.06
452.31	9399.59
452.49	9200.65
452.68	9195.96
452.86	9301.29
453.05	9345.76
453.23	9509.60
453.42	9451.08
453.60	9460.45
453.78	9774.08
453.97	9366.82
454.15	9486.19
454.34	9525.98
454.52	9720.24
454.70	9748.33
454.89	9640.67
455.07	9949.62
455.26	9870.04
455.44	9851.31
455.62	9987.07
455.81	10122.82
455.99	10293.68
456.17	10171.97
456.36	10195.37
456.54	10162.61
456.73	10384.96
456.91	10396.66
457.09	10464.54
457.28	10684.55
457.46	10516.03
457.64	10733.70
457.83	10544.11
458.01	10611.99
458.19	10824.98
458.38	10553.48
458.56	10637.73
458.74	10944.34
458.93	10597.95
459.11	10658.80
459.29	10724.33
459.48	10911.58
459.66	10951.37
459.84	10909.24
460.03	11384.37
460.21	11066.05
460.39	11014.56
460.57	11098.82
460.76	11276.70
460.94	11276.70
461.12	11126.91
461.31	10906.90
461.49	11513.10
461.67	11171.38
461.85	11543.52
462.04	11463.94
462.22	11559.91
462.40	11459.26
462.59	11627.78
462.77	11508.41
462.95	11639.48
463.13	11726.08
463.32	11744.81
463.50	11669.91
463.68	11939.07
463.86	11995.25
464.05	11632.46
464.23	11688.64
464.41	12116.95
464.59	11683.95
464.78	12217.60
464.96	12074.82
465.14	11702.68
465.32	12159.08
465.50	12238.66
465.69	12107.59
465.87	12184.83
466.05	12271.43
466.23	12119.29
466.41	12372.07
466.60	12617.83
466.78	12255.04
466.96	12381.43
467.14	12351.01
467.32	12517.18
467.51	12451.65
467.69	12372.07
467.87	12470.37
468.05	12709.11
468.23	12510.16
468.41	12533.57
468.60	12589.74
468.78	12996.99
468.96	12709.11
469.14	12901.03
469.32	13029.76
469.50	12493.78
469.69	13273.18
469.87	13345.73
470.05	13013.38
470.23	13275.52
470.41	13256.79
470.59	13411.27
470.77	13296.58
470.95	13439.36
471.14	13411.27
471.32	13336.37
471.50	13923.85
471.68	13741.29
471.86	13830.23
472.04	13785.76
472.22	14281.95
472.40	13968.32
472.58	13888.74
472.77	14221.10
472.95	14265.57
473.13	14726.65
473.31	14150.88
473.49	14623.67
473.67	14335.78
473.85	14513.66
474.03	14871.76
474.21	14635.37
474.39	15119.86
474.57	14696.22
474.75	15087.09
474.93	15201.78
475.12	15005.17
475.30	15194.76
475.48	15211.14
475.66	15293.06
475.84	15274.34
476.02	15403.07
476.20	15201.78
476.38	15925.00
476.56	16182.46
476.74	15978.84
476.92	15831.38
477.10	15925.00
477.28	16133.31
477.46	16177.78
477.64	16446.94
477.82	16432.90
478.00	17048.46
478.18	16898.67
478.36	16973.56
478.54	17495.50
478.72	17252.09
478.90	17451.03
479.08	17671.04
479.26	17933.18
479.44	17652.32
479.62	18068.94
479.80	18073.62
479.98	18127.45
480.16	18794.50
480.34	18349.80
480.52	18883.44
480.70	18424.70
480.88	18480.87
481.06	18958.34
481.24	19136.22
481.41	19201.76
481.59	19365.59
481.77	19604.33
481.95	19562.20
482.13	19814.98
482.31	19852.42
482.49	20299.47
482.67	20175.42
482.85	20688.00
483.03	20720.76
483.21	20844.81
483.39	20973.54
483.57	21076.52
483.74	21071.84
483.92	21235.68
484.10	21326.96
484.28	22022.10
484.46	22085.30
484.64	22202.32
484.82	22113.38
485.00	22387.22
485.18	22757.03
485.35	23192.37
485.53	23206.41
485.71	23164.28
485.89	23564.51
486.07	23623.03
486.25	23716.65
486.43	23676.86
486.61	23812.61
486.78	24219.86
486.96	24388.38
487.14	24594.35
487.32	24662.22
487.50	25020.33
487.68	25102.25
487.85	25303.53
488.03	25717.81
488.21	25841.85
488.39	25886.32
488.57	25900.37
488.75	26363.79
488.92	26373.16
489.10	26654.02
489.28	26689.13
489.46	27304.69
489.64	27232.13
489.81	28168.35
489.99	28081.75
490.17	27857.06
490.35	28107.49
490.53	28376.66
490.70	28584.96
490.88	28386.02
491.06	29457.98
491.24	29408.83
491.41	29022.64
491.59	29132.65
491.77	29577.35
491.95	29743.53
492.13	30015.03
492.30	29930.77
492.48	30115.67
492.66	30307.60
492.84	30293.55
493.01	31159.55
493.19	30691.44
493.37	31548.08
493.54	31321.05
493.72	31754.05
493.90	31545.74
494.08	32247.90
494.25	32432.80
494.43	32238.54
494.61	32762.82
494.79	32760.48
494.96	32952.40
495.14	32671.54
495.32	32753.46
495.49	33221.56
495.67	33212.20
495.85	33869.89
496.02	33825.42
496.20	34270.12
496.38	34197.57
496.55	34169.48
496.73	34848.24
496.91	34850.58
497.09	35328.05
497.26	35257.83
497.44	35393.58
497.62	35653.38
497.79	36032.55
497.97	35606.57
498.14	35777.43
498.32	36301.71
498.50	36383.63
498.67	36582.57
498.85	36596.62
499.03	37102.17
499.20	37174.73
499.38	37230.90
499.56	37305.80
499.73	37621.77
499.91	37649.86
500.08	37675.60
500.26	37390.06
500.44	37738.80
500.61	38080.52
500.79	38347.34
500.97	38532.24
501.14	38834.17
501.32	38745.23
501.49	38939.49
501.67	39344.41
501.84	39335.04
502.02	39033.11
502.20	39398.24
502.37	39250.78
502.55	39412.28
502.72	39707.19
502.90	39810.17
503.07	39510.58
503.25	40044.23
503.43	39950.60
503.60	40456.16
503.78	40612.98
503.95	40177.64
504.13	40741.71
504.30	41212.15
504.48	40444.46
504.65	41099.81
504.83	41483.66
505.01	41233.22
505.18	41317.48
505.36	41935.38
505.53	41523.44
505.71	41848.78
505.88	42387.10
506.06	41776.22
506.23	42487.74
506.41	42244.33
506.58	42007.94
506.76	42204.54
506.93	42838.83
507.11	42529.87
507.28	42796.70
507.46	43250.76
507.63	43412.26
507.81	43330.34
507.98	42986.28
508.16	43599.50
508.33	43381.83
508.50	43679.08
508.68	43978.67
508.85	44140.16
509.03	44158.89
509.20	43952.92
509.38	44531.03
509.55	44697.21
509.73	44463.16
509.90	45038.93
510.08	44837.64
510.25	45471.93
510.42	44591.89
510.60	45558.53
510.77	44875.09
510.95	45373.63
511.12	45593.64
511.30	45354.90
511.47	45581.93
511.64	45429.80
511.82	46251.33
511.99	45991.53
512.17	46536.87
512.34	46199.83
512.51	46885.61
512.69	46415.16
512.86	46583.68
513.04	47327.97
513.21	47185.20
513.38	47253.08
513.56	47547.98
513.73	47051.79
513.90	47110.30
514.08	46916.04
514.25	47466.06
514.43	47910.77
514.60	47742.25
514.77	47700.12
514.95	47835.87
515.12	47889.70
515.29	47957.58
515.47	47805.44
515.64	48055.88
515.81	48222.06
515.99	48697.19
516.16	48697.19
516.33	48713.57
516.51	48746.34
516.68	48348.45
516.85	48790.81
517.03	48804.85
517.20	49099.76
517.37	48755.70
517.54	49006.14
517.72	48924.22
517.89	49420.41
518.06	48961.67
518.24	49050.61
518.41	49425.09
518.58	49425.09
518.75	49563.18
518.93	49886.18
519.10	50050.02
519.27	50028.95
519.45	49766.81
519.62	49916.61
519.79	50326.20
519.96	50103.85
520.14	50429.18
520.31	50251.30
520.48	50504.08
520.65	50314.50
520.83	50934.74
521.00	50789.62
521.17	50930.06
521.34	51028.36
521.52	51042.40
521.69	51409.87
521.86	51264.75
522.03	51084.53
522.20	51353.69
522.38	51360.72
522.55	51767.97
522.72	51459.02
522.89	51625.20
523.07	52107.35
523.24	51746.90
523.41	51957.55
523.58	51782.01
523.75	52093.30
523.92	51938.83
524.10	52296.93
524.27	52027.77
524.44	51903.72
524.61	52203.31
524.78	52493.54
524.96	52224.37
525.13	52161.18
525.30	52858.66
525.47	52760.36
525.64	52985.05
525.81	53057.60
525.98	52622.26
526.16	52891.43
526.33	52790.78
526.50	53120.80
526.67	53097.39
526.84	53279.96
527.01	52928.87
527.18	53193.36
527.36	53251.87
527.53	53401.66
527.70	53450.81
527.87	53602.95
528.04	53294.00
528.21	53698.91
528.38	53425.07
528.55	53689.55
528.72	53675.51
528.89	53862.75
529.07	53563.16
529.24	53532.73
529.41	53869.77
529.58	53705.93
529.75	53661.46
529.92	53979.78
530.09	54026.59
530.26	53949.35
530.43	54274.68
530.60	54211.49
530.77	53996.16
530.94	54328.52
531.11	54082.76
531.28	54169.36
531.46	54358.94
531.63	54389.37
531.80	54227.87
531.97	54663.21
532.14	54504.06
532.31	54934.71
532.48	54827.05
532.65	54913.65
532.82	54705.34
532.99	54878.54
533.16	54827.05
533.33	55056.42
533.50	54901.95
533.67	54997.91
533.84	54873.86
534.01	55037.70
534.18	54899.61
534.35	55290.48
534.52	55166.43
534.69	55330.26
534.86	55276.43
535.03	55187.49
535.20	55470.70
535.37	55648.58
535.54	55580.70
535.71	55468.36
535.88	55468.36
536.05	55636.87
536.22	55566.66
536.38	55751.56
536.55	55557.30
536.72	55643.90
536.89	55442.61
537.06	55749.22
537.23	55917.74
537.40	55952.85
537.57	55870.93
537.74	55859.23
537.91	56114.34
538.08	56163.50
538.25	55934.12
538.42	55938.80
538.59	56413.93
538.75	56055.83
538.92	56217.33
539.09	56360.10
539.26	56189.24
539.43	56402.23
539.60	56261.80
539.77	56411.59
539.94	56671.39
540.11	56556.70
540.28	56392.87
540.44	56444.36
540.61	56786.08
540.78	56545.00
540.95	56596.49
541.12	56802.46
541.29	56736.93
541.46	56622.24
541.62	56823.53
541.79	56884.38
541.96	56442.02
542.13	56893.74
542.30	56687.78
542.47	56844.59
542.63	57095.03
542.80	57172.27
542.97	57298.65
543.14	57380.57
543.31	57312.70
543.48	57457.81
543.64	57602.92
543.81	57497.60
543.98	57783.15
544.15	57429.72
544.32	57715.27
544.48	57506.96
544.65	57490.58
544.82	57656.76
544.99	57256.53
545.16	57815.91
545.32	57609.95
545.49	57794.85
545.66	58021.88
545.83	57968.05
546.00	57860.38
546.16	57600.58
546.33	57722.29
546.50	57708.25
546.67	57832.30
546.83	57741.02
547.00	58000.82
547.17	57785.49
547.34	57897.83
547.50	58213.80
547.67	58321.47
547.84	58031.24
548.00	58305.09
548.17	58361.26
548.34	58206.78
548.51	58307.43
548.67	58328.49
548.84	58155.29
549.01	58188.06
549.18	58534.46
549.34	58417.43
549.51	58637.44
549.68	58557.86
549.84	58471.26
550.01	58625.74
550.18	58424.45
550.34	58403.39
550.51	58628.08
550.68	58527.44
550.84	58445.52
551.01	58684.25
551.18	58733.40
551.34	58625.74
551.51	58724.04
551.68	58642.12
551.84	58693.61
552.01	58471.26
552.18	58953.41
552.34	58710.00
552.51	58644.46
552.68	58878.52
552.84	58979.16
553.01	59037.67
553.18	59143.00
553.34	59157.04
553.51	58810.64
553.67	59112.57
553.84	59152.36
554.01	58951.07
554.17	59164.06
554.34	59154.70
554.51	59299.81
554.67	58969.80
554.84	59283.43
555.00	59166.40
555.17	58967.46
555.33	59238.96
555.50	59058.74
555.67	59171.08
555.83	58972.14
556.00	59203.85
556.16	59449.61
556.33	59519.82
556.50	59271.73
556.66	59517.48
556.83	59269.39
556.99	59463.65
557.16	59494.08
557.32	59587.70
557.49	59686.00
557.65	59391.09
557.82	59536.21
557.98	59473.01
558.15	59468.33
558.32	59592.38
558.48	59597.06
558.65	59601.74
558.81	59515.14
558.98	59653.23
559.14	59807.71
559.31	59662.60
559.47	59690.68
559.64	59660.26
559.80	59896.65
559.97	60046.44
560.13	59704.73
560.30	59840.48
560.46	59765.58
560.63	59688.34
560.79	59959.84
560.96	59992.61
561.12	60121.34
561.29	60069.85
561.45	60151.77
561.61	59906.01
561.78	59931.76
561.94	60039.42
562.11	60046.44
562.27	59950.48
562.44	60172.83
562.60	60102.62
562.77	59987.93
562.93	59826.43
563.10	60257.09
563.26	59987.93
563.42	60404.55
563.59	60137.72
563.75	60074.53
563.92	60184.54
564.08	60041.76
564.24	60210.28
564.41	60182.19
564.57	60144.75
564.74	60303.90
564.90	60294.54
565.07	60327.31
565.23	60444.33
565.39	60142.41
565.56	60514.55
565.72	60336.67
565.88	60392.84
566.05	60341.35
566.21	60184.54
566.38	60315.61
566.54	60355.39
566.70	60409.23
566.87	60390.50
567.03	60346.03
567.19	60701.79
567.36	60535.62
567.52	60236.03
567.68	60552.00
567.85	60392.84
568.01	60446.68
568.17	60198.58
568.34	60556.68
568.50	60331.99
568.66	60594.13
568.83	60645.62
568.99	60505.19
569.15	60488.80
569.32	60463.06
569.48	60561.36
569.64	60566.04
569.81	60732.22
569.97	60322.63
570.13	60626.90
570.30	60397.52
570.46	60430.29
570.62	60662.00
570.78	60692.43
570.95	60739.24
571.11	60699.45
571.27	60610.51
571.43	60575.40
571.60	60762.65
571.76	60718.18
571.92	60767.33
572.09	60816.48
572.25	60816.48
572.41	60905.42
572.57	60795.42
572.74	60973.30
572.90	60741.58
573.06	60645.62
573.22	60757.97
573.38	60793.07
573.55	60720.52
573.71	61045.85
573.87	60860.95
574.03	60664.35
574.20	60774.35
574.36	60669.03
574.52	60779.03
574.68	60835.20
574.84	60931.17
575.01	60877.33
575.17	60741.58
575.33	60874.99
575.49	60783.71
575.65	60938.19
575.82	60776.69
575.98	60889.04
576.14	61071.60
576.30	60977.98
576.46	60865.63
576.62	60860.95
576.79	60989.68
576.95	60692.43
577.11	60860.95
577.27	60954.57
577.43	60863.29
577.59	60898.40
577.75	60933.51
577.92	60905.42
578.08	60945.21
578.24	61048.19
578.40	61020.11
578.56	61146.50
578.72	61034.15
578.88	61235.44
579.04	61223.73
579.21	61008.40
579.37	60863.29
579.53	60917.12
579.69	60708.82
579.85	60839.89
580.01	60877.33
580.17	60900.74
580.33	61148.84
580.49	61127.77
580.65	61036.49
580.82	60891.38
580.98	60947.55
581.14	60956.91
581.30	61087.98
581.46	60919.46
581.62	61127.77
581.78	61038.83
581.94	61132.45
582.10	60877.33
582.26	61085.64
582.42	61195.65
582.58	60921.80
582.74	61057.56
582.90	61073.94
583.06	61090.32
583.22	60879.67
583.38	61050.53
583.54	61050.53
583.70	61207.35
583.86	61249.48
584.02	60891.38
584.18	61099.68
584.34	61118.41
584.50	61226.07
584.66	61069.26
584.82	60926.49
584.98	61212.03
585.14	61120.75
585.30	60989.68
585.46	61113.73
585.62	61045.85
585.78	61382.89
585.94	61043.51
586.10	61127.77
586.26	61207.35
586.42	61389.91
586.58	61137.13
586.74	61212.03
586.90	61209.69
587.06	61015.43
587.22	61179.26
587.38	61277.57
587.54	61247.14
587.70	61209.69
587.86	61085.64
588.02	61272.88
588.18	61413.32
588.34	61127.77
588.49	61188.63
