SpectraSuite Data File
++++++++++++++++++++++++++++++++++++
Date: Fri Oct 25 11:34:03 EDT 2013
User: price-jones
Dark Spectrum Present: No
Reference Spectrum Present: No
Number of Sampled Component Spectra: 1
Spectrometers: USB2+H05261
Integration Time (usec): 100000 (USB2+H05261)
Spectra Averaged: 1 (USB2+H05261)
Boxcar Smoothing: 0 (USB2+H05261)
Correct for Electrical Dark: No (USB2+H05261)
Strobe/Lamp Enabled: No (USB2+H05261)
Correct for Detector Non-linearity: No (USB2+H05261)
Correct for Stray Light: No (USB2+H05261)
Number of Pixels in Processed Spectrum: 2048
>>>>>Begin Processed Spectral Data<<<<<
365.73	294.91
365.92	294.91
366.12	294.91
366.32	222.35
366.52	152.13
366.72	154.48
366.91	205.97
367.11	149.79
367.31	194.26
367.51	152.13
367.70	98.30
367.90	194.26
368.10	138.09
368.30	145.11
368.49	184.90
368.69	156.82
368.89	205.97
369.09	194.26
369.28	227.03
369.48	133.41
369.68	203.63
369.87	294.91
370.07	203.63
370.27	255.12
370.47	341.72
370.66	472.79
370.86	547.69
371.06	566.41
371.25	615.56
371.45	566.41
371.65	517.26
371.84	510.24
372.04	543.00
372.24	545.34
372.44	575.77
372.63	545.34
372.83	620.24
373.03	564.07
373.22	594.50
373.42	533.64
373.62	653.01
373.81	657.69
374.01	648.33
374.21	718.54
374.40	674.07
374.60	608.54
374.79	699.82
374.99	725.57
375.19	608.54
375.38	596.84
375.58	617.90
375.78	596.84
375.97	683.44
376.17	669.39
376.37	624.92
376.56	695.14
376.76	669.39
376.95	573.43
377.15	716.20
377.35	671.73
377.54	620.24
377.74	653.01
377.93	650.67
378.13	739.61
378.33	737.27
378.52	648.33
378.72	732.59
378.91	711.52
379.11	739.61
379.31	765.36
379.50	695.14
379.70	730.25
379.89	781.74
380.09	709.18
380.28	741.95
380.48	711.52
380.68	755.99
380.87	678.76
381.07	753.65
381.26	798.12
381.46	695.14
381.65	734.93
381.85	685.78
382.04	727.91
382.24	741.95
382.43	760.67
382.63	781.74
382.83	772.38
383.02	802.80
383.22	814.51
383.41	800.46
383.61	844.93
383.80	753.65
384.00	744.29
384.19	821.53
384.39	777.06
384.58	847.27
384.78	791.10
384.97	847.27
385.17	760.67
385.36	793.44
385.56	837.91
385.75	793.44
385.95	861.32
386.14	849.61
386.34	828.55
386.53	882.38
386.72	777.06
386.92	940.90
387.11	884.72
387.31	931.53
387.50	863.66
387.70	851.96
387.89	903.45
388.09	826.21
388.28	922.17
388.48	837.91
388.67	917.49
388.86	870.68
389.06	858.98
389.25	943.24
389.45	868.34
389.64	903.45
389.84	910.47
390.03	973.66
390.22	912.81
390.42	910.47
390.61	959.62
390.81	952.60
391.00	961.96
391.19	924.51
391.39	997.07
391.58	997.07
391.78	971.32
391.97	1039.20
392.16	999.41
392.36	1032.18
392.55	1039.20
392.75	1107.07
392.94	1025.15
393.13	1064.94
393.33	980.68
393.52	1100.05
393.71	1020.47
393.91	1067.28
394.10	1088.35
394.29	1078.99
394.49	1043.88
394.68	1090.69
394.88	1083.67
395.07	1130.48
395.26	1090.69
395.46	1186.65
395.65	1137.50
395.84	1095.37
396.04	1188.99
396.23	1086.01
396.42	1050.90
396.62	1163.25
396.81	1128.14
397.00	1135.16
397.19	1097.71
397.39	1196.01
397.58	1221.76
397.77	1123.46
397.97	1231.12
398.16	1245.16
398.35	1263.89
398.55	1219.42
398.74	1266.23
398.93	1245.16
399.12	1249.85
399.32	1320.06
399.51	1277.93
399.70	1231.12
399.90	1406.66
400.09	1373.89
400.28	1301.34
400.47	1301.34
400.67	1460.49
400.86	1287.29
401.05	1334.11
401.24	1425.39
401.44	1411.34
401.63	1418.36
401.82	1411.34
402.01	1411.34
402.21	1441.77
402.40	1411.34
402.59	1394.96
402.78	1451.13
402.97	1387.94
403.17	1516.67
403.36	1479.22
403.55	1511.99
403.74	1579.86
403.93	1600.93
404.13	1572.84
404.32	1624.33
404.51	1619.65
404.70	1598.59
404.89	1497.94
405.09	1703.91
405.28	1596.25
405.47	1696.89
405.66	1788.17
405.85	1689.87
406.05	1668.80
406.24	1785.83
406.43	1675.82
406.62	1811.57
406.81	1727.32
407.00	1748.38
407.20	1734.34
407.39	1717.95
407.58	1708.59
407.77	1877.11
407.96	1832.64
408.15	1853.70
408.34	1858.39
408.54	1790.51
408.73	1886.47
408.92	1907.54
409.11	1937.96
409.30	1898.17
409.49	1893.49
409.68	1949.67
409.87	1952.01
410.07	1970.73
410.26	2080.74
410.45	2083.08
410.64	2054.99
410.83	2090.10
411.02	1998.82
411.21	2136.91
411.40	2204.78
411.59	2176.70
411.78	2204.78
411.98	2113.50
412.17	2207.13
412.36	2275.00
412.55	2263.30
412.74	2251.60
412.93	2291.38
413.12	2331.17
413.31	2363.94
413.50	2359.26
413.69	2312.45
413.88	2356.92
414.07	2438.84
414.26	2492.67
414.45	2516.08
414.64	2546.50
414.83	2572.25
415.02	2651.83
415.22	2600.34
415.41	2537.14
415.60	2619.06
415.79	2649.49
415.98	2668.21
416.17	2642.46
416.36	2670.55
416.55	2654.17
416.74	2726.72
416.93	2686.94
417.12	2731.41
417.31	2808.64
417.50	2750.13
417.69	2857.79
417.88	2892.90
418.07	2883.54
418.26	2895.24
418.45	3026.31
418.64	3030.99
418.83	3016.95
419.02	2972.48
419.21	3159.72
419.39	3038.02
419.58	3000.57
419.77	2972.48
419.96	3194.83
420.15	3056.74
420.34	3094.19
420.53	3141.00
420.72	3222.92
420.91	3229.94
421.10	3208.87
421.29	3227.60
421.48	3155.04
421.67	3300.16
421.86	3241.64
422.05	3194.83
422.24	3323.56
422.43	3187.81
422.61	3279.09
422.80	3370.37
422.99	3456.97
423.18	3478.04
423.37	3419.52
423.56	3391.44
423.75	3353.99
423.94	3253.34
424.13	3150.36
424.32	3243.98
424.50	3361.01
424.69	3393.78
424.88	3463.99
425.07	3321.22
425.26	3295.47
425.45	3435.91
425.64	3297.81
425.83	3290.79
426.01	3330.58
426.20	3536.55
426.39	3524.85
426.58	3386.76
426.77	3365.69
426.96	3307.18
427.15	3426.54
427.33	3461.65
427.52	3517.83
427.71	3581.02
427.90	3433.57
428.09	3503.78
428.28	3588.04
428.46	3763.58
428.65	3648.90
428.84	3754.22
429.03	3641.87
429.22	3562.30
429.40	3716.77
429.59	3728.47
429.78	3623.15
429.97	3520.17
430.16	3728.47
430.34	3758.90
430.53	3925.08
430.72	3721.45
430.91	3714.43
431.10	3674.64
431.28	3861.88
431.47	3901.67
431.66	4030.40
431.85	3946.14
432.03	3936.78
432.22	4011.68
432.41	4018.70
432.60	3896.99
432.79	4060.83
432.97	4100.62
433.16	4081.89
433.35	4231.69
433.54	4224.67
433.72	4058.49
433.91	4095.94
434.10	4145.09
434.28	4095.94
434.47	4119.34
434.66	4205.94
434.85	4266.80
435.03	4189.56
435.22	4203.60
435.41	4306.59
435.59	4334.67
435.78	4297.22
435.97	4414.25
436.16	4395.53
436.34	4346.37
436.53	4243.39
436.72	4517.23
436.90	4304.25
437.09	4325.31
437.28	4299.56
437.46	4407.23
437.65	4456.38
437.84	4500.85
438.02	4531.28
438.21	4538.30
438.40	4484.47
438.58	4704.48
438.77	4805.12
438.96	4758.31
439.14	4697.46
439.33	4758.31
439.52	4873.00
439.70	4858.95
439.89	4973.64
440.08	5111.73
440.26	4961.94
440.45	4945.55
440.63	5097.69
440.82	4980.66
441.01	5132.79
441.19	5114.07
441.38	5200.67
441.57	5149.18
441.75	5170.24
441.94	5226.42
442.12	5179.61
442.31	5378.55
442.50	5320.04
442.68	5451.11
442.87	5355.15
443.05	5554.09
443.24	5404.30
443.43	5434.72
443.61	5476.85
443.80	5605.58
443.98	5387.91
444.17	5181.95
444.35	5600.90
444.54	5451.11
444.73	5437.06
444.91	5486.22
445.10	5605.58
445.28	5589.20
445.47	5509.62
445.65	5617.29
445.84	5713.25
446.02	5509.62
446.21	5645.37
446.39	5652.39
446.58	5685.16
446.77	5650.05
446.95	5537.71
447.14	5490.90
447.32	5750.70
447.51	5682.82
447.69	5640.69
447.88	5533.03
448.06	5650.05
448.25	5706.23
448.43	5647.71
448.62	5579.84
448.80	5748.36
448.99	5731.97
449.17	5577.50
449.36	5692.18
449.54	6001.13
449.73	5867.72
449.91	6005.81
450.10	6038.58
450.28	6129.86
450.46	5989.43
450.65	5968.37
450.83	6033.90
451.02	6015.18
451.20	6108.80
451.39	6092.41
451.57	5966.03
451.76	6080.71
451.94	6047.94
452.13	6225.82
452.31	6324.13
452.49	6064.33
452.68	6019.86
452.86	6186.04
453.05	6265.61
453.23	6525.41
453.42	6352.21
453.60	6164.97
453.78	6417.75
453.97	6279.66
454.15	6359.24
454.34	6249.23
454.52	6340.51
454.70	6331.15
454.89	6387.32
455.07	6452.86
455.26	6431.79
455.44	6609.67
455.62	6623.72
455.81	6574.56
455.99	6574.56
456.17	6691.59
456.36	6649.46
456.54	6722.02
456.73	6766.49
456.91	6810.96
457.09	6939.69
457.28	7026.29
457.46	6820.32
457.64	6909.26
457.83	6913.94
458.01	6939.69
458.19	7101.19
458.38	7066.08
458.56	7162.04
458.74	6979.48
458.93	7098.84
459.11	7243.96
459.29	7246.30
459.48	7115.23
459.66	7183.10
459.84	7265.02
460.03	7349.28
460.21	7208.85
460.39	7169.06
460.57	7433.54
460.76	7227.57
460.94	7391.41
461.12	7419.50
461.31	7405.46
461.49	7311.83
461.67	7379.71
461.85	7515.46
462.04	7426.52
462.22	7903.99
462.40	7499.08
462.59	7705.04
462.77	7674.62
462.95	7613.76
463.13	7751.85
463.32	7445.24
463.50	7878.24
463.68	7840.79
463.86	7859.52
464.05	7623.12
464.23	7735.47
464.41	7864.20
464.59	7744.83
464.78	7983.57
464.96	7861.86
465.14	7845.48
465.32	8189.53
465.50	7885.26
465.69	7953.14
465.87	7964.84
466.05	8112.30
466.23	8138.04
466.41	8023.36
466.60	8276.13
466.78	8182.51
466.96	8128.68
467.14	8070.17
467.32	8271.45
467.51	8152.09
467.69	7831.43
467.87	8114.64
468.05	8095.91
468.23	8299.54
468.41	8243.37
468.60	8308.90
468.78	8238.69
468.96	8411.89
469.14	8430.61
469.32	8294.86
469.50	8229.32
469.69	8636.58
469.87	8650.62
470.05	8439.97
470.23	8704.45
470.41	8557.00
470.59	8875.31
470.77	8561.68
470.95	8580.40
471.14	8896.38
471.32	8699.77
471.50	9083.62
471.68	8737.22
471.86	9013.40
472.04	8800.41
472.22	9158.52
472.40	8985.32
472.58	8933.82
472.77	9128.09
472.95	9060.21
473.13	9568.11
473.31	9217.03
473.49	9254.48
473.67	9210.01
473.85	9263.84
474.03	9610.24
474.21	9423.00
474.39	9406.61
474.57	9692.16
474.75	9685.14
474.93	9762.37
475.12	9795.14
475.30	9968.34
475.48	9834.93
475.66	9973.02
475.84	9898.13
476.02	10050.26
476.20	9942.60
476.38	10408.36
476.56	10663.48
476.74	10635.39
476.92	10354.53
477.10	10349.85
477.28	10370.91
477.46	10480.92
477.64	10775.83
477.82	10768.80
478.00	11023.92
478.18	10977.11
478.36	10906.90
478.54	11098.82
478.72	11407.77
478.90	11094.14
479.08	11576.29
479.26	11559.91
479.44	11356.28
479.62	11534.16
479.80	11508.41
479.98	11510.75
480.16	11901.62
480.34	11927.37
480.52	12245.68
480.70	12182.49
480.88	11885.24
481.06	12138.02
481.24	12053.76
481.41	12308.88
481.59	12521.87
481.77	12351.01
481.95	12702.09
482.13	12957.21
482.31	12643.57
482.49	12856.56
482.67	13315.31
482.85	13240.41
483.03	13486.17
483.21	13481.49
483.39	13411.27
483.57	13455.74
483.74	13617.24
483.92	13839.59
484.10	13465.10
484.28	14008.11
484.46	14242.16
484.64	14370.89
484.82	14485.58
485.00	14450.47
485.18	14778.14
485.35	14752.40
485.53	14670.48
485.71	14698.56
485.89	15035.60
486.07	15094.11
486.25	15374.98
486.43	15356.25
486.61	15431.15
486.78	15726.06
486.96	15602.01
487.14	15765.85
487.32	15733.08
487.50	16058.42
487.68	15983.52
487.85	16292.47
488.03	16437.58
488.21	16699.72
488.39	16486.73
488.57	16922.07
488.75	16655.25
488.92	17135.06
489.10	17146.76
489.28	17563.38
489.46	17678.07
489.64	17451.03
489.81	18026.81
489.99	17771.69
490.17	17980.00
490.35	17947.23
490.53	18260.86
490.70	18438.74
490.88	18279.58
491.06	18508.96
491.24	18377.89
491.41	18595.56
491.59	18593.22
491.77	18618.96
491.95	18726.63
492.13	19056.64
492.30	19353.89
492.48	19281.33
492.66	19454.53
492.84	19468.58
493.01	19761.14
493.19	19957.75
493.37	20264.36
493.54	20004.56
493.72	20402.45
493.90	20130.95
494.08	20278.40
494.25	20800.34
494.43	20662.25
494.61	20699.70
494.79	20819.07
494.96	21146.74
495.14	21291.85
495.32	21380.79
495.49	20982.90
495.67	21408.88
495.85	21406.54
496.02	21738.90
496.20	22040.82
496.38	22141.47
496.55	22005.72
496.73	22609.58
496.91	22167.21
497.09	22319.35
497.26	22464.46
497.44	22361.48
497.62	22656.39
497.79	22965.34
497.97	22946.61
498.14	23061.30
498.32	23466.21
498.50	23543.45
498.67	23356.21
498.85	23276.63
499.03	23782.18
499.20	23805.59
499.38	23524.72
499.56	23751.76
499.73	23878.15
499.91	24130.92
500.08	24638.82
500.26	24053.69
500.44	24606.05
500.61	24505.41
500.79	24346.25
500.97	24915.00
501.14	24805.00
501.32	24957.13
501.49	25074.16
501.67	25385.45
501.84	24790.95
502.02	24931.39
502.20	25230.98
502.37	25027.35
502.55	25415.88
502.72	25331.62
502.90	25319.92
503.07	25228.63
503.25	25881.64
503.43	25912.07
503.60	25802.07
503.78	26286.56
503.95	25806.75
504.13	25710.78
504.30	26235.06
504.48	26214.00
504.65	26654.02
504.83	26501.89
505.01	26382.52
505.18	26867.01
505.36	26827.22
505.53	26721.90
505.71	26803.82
505.88	26883.39
506.06	26902.12
506.23	27590.24
506.41	27267.24
506.58	27435.76
506.76	27482.57
506.93	27580.87
507.11	27597.26
507.28	27257.88
507.46	27634.71
507.63	27613.64
507.81	28173.03
507.98	27793.86
508.16	27927.27
508.33	28423.47
508.50	28266.65
508.68	28421.13
508.85	28444.53
509.03	28208.14
509.20	28496.02
509.38	28797.95
509.55	28435.17
509.73	28924.34
509.90	29160.73
510.08	28945.41
510.25	28617.73
510.42	28912.64
510.60	29116.26
510.77	29120.95
510.95	29486.07
511.12	29113.92
511.30	29544.58
511.47	29046.05
511.64	29411.17
511.82	30281.85
511.99	29621.82
512.17	29890.98
512.34	29970.56
512.51	30309.94
512.69	30302.92
512.86	29734.17
513.04	30333.34
513.21	30127.38
513.38	30579.10
513.56	30885.71
513.73	30518.25
513.90	30597.82
514.08	30836.56
514.25	30724.21
514.43	30972.31
514.60	30841.24
514.77	30993.37
514.95	31065.93
515.12	31133.81
515.29	31082.31
515.47	31070.61
515.64	31346.79
515.81	31103.38
515.99	31459.14
516.16	31814.90
516.33	31590.21
516.51	31644.04
516.68	31805.54
516.85	32093.43
517.03	32458.55
517.20	31934.27
517.37	32294.71
517.54	32292.37
517.72	32385.99
517.89	32423.44
518.06	32268.97
518.24	32542.81
518.41	32706.65
518.58	32828.35
518.75	32046.62
518.93	32823.67
519.10	32439.82
519.27	32713.67
519.45	32816.65
519.62	33095.18
519.79	32947.72
519.96	33415.83
520.14	33277.74
520.31	32772.18
520.48	33500.09
520.65	33745.84
520.83	33567.96
521.00	33841.81
521.17	33832.44
521.34	34120.33
521.52	33738.82
521.69	33759.89
521.86	34621.20
522.03	34333.32
522.20	34110.97
522.38	34291.19
522.55	34518.22
522.72	34448.00
522.89	34520.56
523.07	34775.68
523.24	34326.30
523.41	34476.09
523.58	34246.72
523.75	34810.79
523.92	34911.43
524.10	35086.97
524.27	34829.51
524.44	35103.35
524.61	35351.45
524.78	35103.35
524.96	35367.84
525.13	35208.68
525.30	35531.67
525.47	35810.20
525.64	35370.18
525.81	35489.54
525.98	35625.29
526.16	35653.38
526.33	35543.38
526.50	35615.93
526.67	35957.65
526.84	36287.67
527.01	35541.03
527.18	35648.70
527.36	36025.53
527.53	36364.90
527.70	36308.73
527.87	36652.79
528.04	36435.12
528.21	36535.76
528.38	36645.77
528.55	36886.84
528.72	36774.50
528.89	36811.95
529.07	36662.15
529.24	36479.59
529.41	37099.83
529.58	37010.89
529.75	36755.77
529.92	36896.20
530.09	37177.07
530.26	37174.73
530.43	37160.69
530.60	36828.33
530.77	36870.46
530.94	37038.98
531.11	37387.72
531.28	37270.69
531.46	37500.06
531.63	37380.70
531.80	37579.64
531.97	37535.17
532.14	37205.16
532.31	37706.03
532.48	37921.36
532.65	38005.62
532.82	37848.80
532.99	37832.42
533.16	37729.44
533.33	38164.78
533.50	38433.94
533.67	38017.32
533.84	37736.46
534.01	38227.97
534.18	38312.23
534.35	38555.64
534.52	38462.02
534.69	38663.31
534.86	38660.97
535.03	38326.27
535.20	38459.68
535.37	38742.89
535.54	38660.97
535.71	38677.35
535.88	38916.09
536.05	38595.43
536.22	38508.83
536.38	39086.95
536.55	39154.82
536.72	39131.42
536.89	39042.48
537.06	38873.96
537.23	39028.43
537.40	38981.62
537.57	39058.86
537.74	39297.59
537.91	39257.81
538.08	39428.66
538.25	39161.84
538.42	39278.87
538.59	39931.88
538.75	39416.96
538.92	39667.40
539.09	39882.73
539.26	39587.82
539.43	39768.04
539.60	40203.38
539.77	40004.44
539.94	40158.91
540.11	40102.74
540.28	40030.18
540.44	40086.36
540.61	39981.03
540.78	40121.46
540.95	40320.41
541.12	39971.67
541.29	40507.65
541.46	40533.40
541.62	40086.36
541.79	40526.38
541.96	40224.45
542.13	40514.67
542.30	40673.83
542.47	40514.67
542.63	40744.05
542.80	40631.70
542.97	41401.74
543.14	41198.11
543.31	40851.71
543.48	41120.87
543.64	41172.36
543.81	41172.36
543.98	41041.29
544.15	41226.20
544.32	41446.21
544.48	41813.67
544.65	41429.82
544.82	41436.84
544.99	41177.04
545.16	41670.90
545.32	41390.03
545.49	41752.82
545.66	42141.35
545.83	41930.70
546.00	42483.06
546.16	42162.41
546.33	41771.54
546.50	41392.37
546.67	42131.98
546.83	41787.92
547.00	41797.29
547.17	41918.99
547.34	41853.46
547.50	41785.58
547.67	42309.86
547.84	42120.28
548.00	42281.78
548.17	42253.69
548.34	42422.21
548.51	42951.17
548.67	42635.20
548.84	42726.48
549.01	42323.91
549.18	42511.15
549.34	42396.46
549.51	42916.06
549.68	42710.10
549.84	42520.51
550.01	42834.14
550.18	42305.18
550.34	42958.19
550.51	42742.86
550.68	42906.70
550.84	42679.67
551.01	42852.87
551.18	42789.67
551.34	42836.48
551.51	43318.64
551.68	43056.50
551.84	43239.06
552.01	42412.85
552.18	43082.24
552.34	42775.63
552.51	43217.99
552.68	43058.84
552.84	43026.07
553.01	43580.78
553.18	43122.03
553.34	43449.70
553.51	43370.13
553.67	43494.18
553.84	44151.87
554.01	43885.04
554.17	43524.60
554.34	43344.38
554.51	43620.56
554.67	43655.67
554.84	43924.83
555.00	43597.16
555.17	43704.82
555.33	43903.77
555.50	43866.32
555.67	44002.07
555.83	43859.30
556.00	43772.70
556.16	44282.94
556.33	44313.36
556.50	43943.56
556.66	44392.94
556.83	43990.37
556.99	44257.19
557.16	44451.45
557.32	44334.43
557.49	44477.20
557.65	43910.79
557.82	44540.39
557.98	44074.63
558.15	44114.42
558.32	44912.54
558.48	44369.54
558.65	44430.39
558.81	44442.09
558.98	44512.31
559.14	44280.60
559.31	44271.23
559.47	44526.35
559.64	44753.38
559.80	44753.38
559.97	44563.80
560.13	44423.37
560.30	44708.91
560.46	45104.46
560.63	44875.09
560.79	45027.23
560.96	45085.74
561.12	44891.48
561.29	44839.98
561.45	45319.79
561.61	45064.67
561.78	44779.13
561.94	44748.70
562.11	45167.66
562.27	44905.52
562.44	45214.47
562.60	44978.07
562.77	45305.75
562.93	44968.71
563.10	45450.86
563.26	45200.43
563.42	45507.04
563.59	45010.84
563.75	45429.80
563.92	45090.42
564.08	45106.80
564.24	45090.42
564.41	45205.11
564.57	45289.37
564.74	44949.99
564.90	45139.57
565.07	45242.56
565.23	45317.45
565.39	45160.64
565.56	45558.53
565.72	45467.25
565.88	45382.99
566.05	45343.20
566.21	45434.48
566.38	45846.41
566.54	45563.21
566.70	45275.32
566.87	45256.60
567.03	45193.40
567.19	45308.09
567.36	45525.76
567.52	45635.77
567.68	46059.40
567.85	45504.70
568.01	45715.34
568.17	45813.65
568.34	45434.48
568.50	45743.43
568.66	45240.21
568.83	45364.26
568.99	45497.67
569.15	46010.25
569.32	45673.21
569.48	45717.68
569.64	46028.98
569.81	45776.20
569.97	45792.58
570.13	46003.23
570.30	45663.85
570.46	45923.65
570.62	46050.04
570.78	45778.54
570.95	45682.58
571.11	46073.45
571.27	46019.61
571.43	45794.92
571.60	45970.46
571.76	45820.67
571.92	45888.54
572.09	45879.18
572.25	45839.39
572.41	45909.61
572.57	46092.17
572.74	46188.13
572.90	45851.09
573.06	46120.26
573.22	45874.50
573.38	46146.00
573.55	45811.31
573.71	46583.68
573.87	46101.53
574.03	46408.14
574.20	46628.15
574.36	46216.22
574.52	46241.96
574.68	46103.87
574.84	46234.94
575.01	46211.54
575.17	46635.17
575.33	46080.47
575.49	46110.89
575.65	46043.02
575.82	46239.62
575.98	46185.79
576.14	46600.07
576.30	46307.50
576.46	45989.19
576.62	46054.72
576.79	46293.46
576.95	45879.18
577.11	46349.63
577.27	46394.10
577.43	46190.47
577.59	46405.80
577.75	45911.95
577.92	45624.06
578.08	46424.53
578.24	46153.02
578.40	46293.46
578.56	46454.95
578.72	46377.72
578.88	46541.55
579.04	46103.87
579.21	46461.97
579.37	46447.93
579.53	46127.28
579.69	46326.22
579.85	46197.49
580.01	46443.25
580.17	46522.83
580.33	46447.93
580.49	46368.35
580.65	46265.37
580.82	46766.24
580.98	45851.09
581.14	46073.45
581.30	46160.05
581.46	46817.74
581.62	46389.42
581.78	46078.13
581.94	46632.83
582.10	46223.24
582.26	46569.64
582.42	46288.77
582.58	46354.31
582.74	46862.21
582.90	46150.68
583.06	46497.08
583.22	46202.18
583.38	46412.82
583.54	46820.08
583.70	46206.86
583.86	46667.94
584.02	46562.62
584.18	46609.43
584.34	46646.88
584.50	46630.49
584.66	46595.38
584.82	46525.17
584.98	47028.38
585.14	46747.52
585.30	46155.36
585.46	46799.01
585.62	46270.05
585.78	46543.89
585.94	46571.98
586.10	46761.56
586.26	46176.43
586.42	46497.08
586.58	46616.45
586.74	46866.89
586.90	46010.25
587.06	46511.13
587.22	46415.16
587.38	46192.81
587.54	46834.12
587.70	46885.61
587.86	47203.92
588.02	46319.20
588.18	46445.59
588.34	46894.97
588.49	46609.43
588.65	46253.67
588.81	46674.96
588.97	46644.54
589.13	46899.65
589.29	46518.15
589.45	46990.94
589.61	46885.61
589.77	46845.82
589.93	46518.15
590.08	46983.91
