SpectraSuite Data File
++++++++++++++++++++++++++++++++++++
Date: Fri Oct 25 10:43:36 EDT 2013
User: price-jones
Dark Spectrum Present: No
Reference Spectrum Present: No
Number of Sampled Component Spectra: 1
Spectrometers: USB2+H05261
Integration Time (usec): 100000 (USB2+H05261)
Spectra Averaged: 1 (USB2+H05261)
Boxcar Smoothing: 0 (USB2+H05261)
Correct for Electrical Dark: No (USB2+H05261)
Strobe/Lamp Enabled: No (USB2+H05261)
Correct for Detector Non-linearity: No (USB2+H05261)
Correct for Stray Light: No (USB2+H05261)
Number of Pixels in Processed Spectrum: 2048
>>>>>Begin Processed Spectral Data<<<<<
365.73	140.43
365.92	140.43
366.12	140.43
366.32	72.56
366.52	9.36
366.72	53.83
366.91	37.45
367.11	0.00
367.31	0.00
367.51	37.45
367.70	7.02
367.90	2.34
368.10	67.88
368.30	35.11
368.49	51.49
368.69	67.88
368.89	28.09
369.09	37.45
369.28	98.30
369.48	39.79
369.68	63.19
369.87	114.69
370.07	72.56
370.27	159.16
370.47	245.76
370.66	355.76
370.86	393.21
371.06	482.15
371.25	442.36
371.45	421.30
371.65	507.90
371.84	421.30
372.04	442.36
372.24	491.51
372.44	458.74
372.63	500.87
372.83	557.05
373.03	503.22
373.22	479.81
373.42	519.60
373.62	526.62
373.81	615.56
374.01	503.22
374.21	573.43
374.40	636.63
374.60	561.73
374.79	533.64
374.99	543.00
375.19	561.73
375.38	645.99
375.58	540.66
375.78	617.90
375.97	624.92
376.17	657.69
376.37	617.90
376.56	582.79
376.76	610.88
376.95	674.07
377.15	573.43
377.35	624.92
377.54	706.84
377.74	643.65
377.93	624.92
378.13	681.10
378.33	638.97
378.52	741.95
378.72	709.18
378.91	641.31
379.11	592.16
379.31	662.37
379.50	648.33
379.70	603.86
379.89	667.05
380.09	697.48
380.28	622.58
380.48	653.01
380.68	622.58
380.87	622.58
381.07	744.29
381.26	774.72
381.46	777.06
381.65	720.88
381.85	720.88
382.04	692.80
382.24	732.59
382.43	753.65
382.63	638.97
382.83	755.99
383.02	802.80
383.22	779.40
383.41	751.31
383.61	753.65
383.80	727.91
384.00	793.44
384.19	788.76
384.39	821.53
384.58	795.78
384.78	777.06
384.97	800.46
385.17	833.23
385.36	826.21
385.56	779.40
385.75	844.93
385.95	779.40
386.14	798.12
386.34	844.93
386.53	870.68
386.72	833.23
386.92	901.11
387.11	816.85
387.31	814.51
387.50	816.85
387.70	931.53
387.89	908.13
388.09	917.49
388.28	837.91
388.48	912.81
388.67	940.90
388.86	915.15
389.06	915.15
389.25	997.07
389.45	1039.20
389.64	929.19
389.84	1036.86
390.03	1004.09
390.22	1008.77
390.42	1004.09
390.61	992.39
390.81	983.02
391.00	1004.09
391.19	1053.24
391.39	1069.62
391.58	1050.90
391.78	1097.71
391.97	1130.48
392.16	1102.39
392.36	1107.07
392.55	1036.86
392.75	1062.60
392.94	929.19
393.13	1032.18
393.33	1048.56
393.52	1093.03
393.71	1022.81
393.91	1151.54
394.10	1053.24
394.29	1118.78
394.49	1193.67
394.68	1261.55
394.88	1303.68
395.07	1252.19
395.26	1282.61
395.46	1205.38
395.65	1226.44
395.84	1142.18
396.04	1252.19
396.23	1186.65
396.42	1231.12
396.62	1170.27
396.81	1191.33
397.00	1280.27
397.19	1301.34
397.39	1371.55
397.58	1394.96
397.77	1362.19
397.97	1444.11
398.16	1481.56
398.35	1542.41
398.55	1479.22
398.74	1465.18
398.93	1605.61
399.12	1509.65
399.32	1497.94
399.51	1610.29
399.70	1692.21
399.90	1631.35
400.09	1629.01
400.28	1596.25
400.47	1652.42
400.67	1699.23
400.86	1682.85
401.05	1739.02
401.24	1678.16
401.44	1820.94
401.63	1746.04
401.82	1717.95
402.01	1769.44
402.21	1703.91
402.40	1865.41
402.59	1748.38
402.78	1893.49
402.97	1785.83
403.17	1792.85
403.36	1802.21
403.55	1872.43
403.74	1902.86
403.93	1984.77
404.13	1956.69
404.32	1944.99
404.51	2017.54
404.70	1954.35
404.89	2045.63
405.09	2012.86
405.28	2012.86
405.47	1989.46
405.66	1966.05
405.85	2040.95
406.05	1977.75
406.24	2071.37
406.43	2083.08
406.62	2108.82
406.81	2265.64
407.00	2129.89
407.20	2099.46
407.39	2094.78
407.58	2174.36
407.77	2258.62
407.96	2298.41
408.15	2363.94
408.34	2214.15
408.54	2284.36
408.73	2291.38
408.92	2370.96
409.11	2476.29
409.30	2314.79
409.49	2422.45
409.68	2403.73
409.87	2277.34
410.07	2401.39
410.26	2480.97
410.45	2548.84
410.64	2558.21
410.83	2558.21
411.02	2487.99
411.21	2583.95
411.40	2630.76
411.59	2813.32
411.78	2710.34
411.98	2647.15
412.17	2689.28
412.36	2740.77
412.55	2595.65
412.74	2738.43
412.93	2796.94
413.12	2836.73
413.31	2890.56
413.50	2888.22
413.69	2930.35
413.88	2949.08
414.07	2906.95
414.26	2871.84
414.45	3063.76
414.64	3103.55
414.83	3197.17
415.02	3131.64
415.22	3307.18
415.41	3185.47
415.60	3124.62
415.79	3304.84
415.98	3290.79
416.17	3323.56
416.36	3361.01
416.55	3400.80
416.74	3365.69
416.93	3307.18
417.12	3302.50
417.31	3309.52
417.50	3440.59
417.69	3440.59
417.88	3543.57
418.07	3419.52
418.26	3368.03
418.45	3641.87
418.64	3662.94
418.83	3538.89
419.02	3665.28
419.21	3658.26
419.39	3730.81
419.58	3555.27
419.77	3592.72
419.96	3770.60
420.15	3641.87
420.34	3723.79
420.53	3747.20
420.72	3854.86
420.91	3922.74
421.10	3779.97
421.29	3880.61
421.48	3920.40
421.67	3974.23
421.86	3934.44
422.05	3847.84
422.24	3852.52
422.43	3829.12
422.61	3967.21
422.80	3889.97
422.99	3948.48
423.18	3826.78
423.37	3992.95
423.56	3950.82
423.75	4060.83
423.94	3978.91
424.13	3850.18
424.32	3967.21
424.50	4159.13
424.69	3983.59
424.88	4081.89
425.07	3932.10
425.26	3992.95
425.45	4077.21
425.64	4081.89
425.83	4084.23
426.01	4039.76
426.20	4138.07
426.39	4180.20
426.58	4114.66
426.77	4011.68
426.96	3995.29
427.15	4070.19
427.33	4248.07
427.52	4060.83
427.71	4297.22
427.90	4114.66
428.09	4138.07
428.28	4365.10
428.46	4219.99
428.65	4252.75
428.84	4311.27
429.03	4301.90
429.22	4318.29
429.40	4248.07
429.59	4133.39
429.78	3892.31
429.97	4154.45
430.16	4051.47
430.34	4203.60
430.53	4304.25
430.72	4430.63
430.91	4280.84
431.10	4545.32
431.28	4585.11
431.47	4772.35
431.66	4718.52
431.85	4601.49
432.03	4840.23
432.22	4746.61
432.41	4842.57
432.60	4926.83
432.79	4863.63
432.97	4922.15
433.16	4760.65
433.35	4770.01
433.54	4821.50
433.72	4784.06
433.91	4737.24
434.10	4727.88
434.28	4795.76
434.47	4957.25
434.66	4851.93
434.85	5055.56
435.03	5074.28
435.22	5137.48
435.41	5240.46
435.59	5181.95
435.78	5263.86
435.97	5156.20
436.16	5331.74
436.34	5282.59
436.53	5320.04
436.72	5451.11
436.90	5203.01
437.09	5252.16
437.28	5200.67
437.46	5217.05
437.65	5107.05
437.84	5305.99
438.02	5165.56
438.21	5268.55
438.40	5263.86
438.58	5476.85
438.77	5502.60
438.96	5469.83
439.14	5584.52
439.33	5603.24
439.52	5692.18
439.70	5731.97
439.89	5680.48
440.08	5713.25
440.26	5734.31
440.45	5881.77
440.63	5832.62
440.82	6122.84
441.01	5928.58
441.19	6232.85
441.38	6197.74
441.57	6160.29
441.75	6061.99
441.94	6406.05
442.12	6424.77
442.31	6450.52
442.50	6459.88
442.68	6569.88
442.87	6317.11
443.05	6370.94
443.24	6647.12
443.43	6513.71
443.61	6553.50
443.80	6766.49
443.98	6555.84
444.17	6469.24
444.35	6640.10
444.54	6796.92
444.73	6820.32
444.91	6726.70
445.10	6658.82
445.28	6506.69
445.47	6623.72
445.65	6417.75
445.84	6558.18
446.02	6679.89
446.21	6778.19
446.39	6555.84
446.58	6738.40
446.77	6686.91
446.95	6705.63
447.14	6731.38
447.32	6803.94
447.51	6773.51
447.69	6740.74
447.88	6850.75
448.06	6817.98
448.25	6930.33
448.43	6745.42
448.62	6794.58
448.80	6862.45
448.99	6909.26
449.17	7169.06
449.36	6946.71
449.54	7258.00
449.73	7208.85
449.91	7316.51
450.10	7300.13
450.28	7243.96
450.46	7398.43
450.65	7375.03
450.83	7318.86
451.02	7173.74
451.20	7515.46
451.39	7482.69
451.57	7145.66
451.76	7515.46
451.94	7391.41
452.13	7274.38
452.31	7180.76
452.49	7300.13
452.68	7295.45
452.86	7400.77
453.05	7330.56
453.23	7466.31
453.42	7269.70
453.60	7599.72
453.78	7658.23
453.97	7597.38
454.15	7524.82
454.34	7349.28
454.52	7562.27
454.70	7646.53
454.89	7592.70
455.07	7693.34
455.26	7751.85
455.44	7878.24
455.62	7805.69
455.81	7948.46
455.99	7817.39
456.17	7873.56
456.36	7887.61
456.54	8173.15
456.73	8004.63
456.91	8226.98
457.09	8259.75
457.28	8219.96
457.46	8065.49
457.64	8273.79
457.83	8081.87
458.01	8222.30
458.19	8400.18
458.38	8168.47
458.56	8475.08
458.74	8374.44
458.93	8278.47
459.11	8402.52
459.29	8334.65
459.48	8489.12
459.66	8514.87
459.84	8549.98
460.03	8746.58
460.21	8624.87
460.39	8610.83
460.57	8681.05
460.76	8800.41
460.94	8835.52
461.12	8987.66
461.31	8905.74
461.49	8858.93
461.67	8868.29
461.85	9071.92
462.04	8982.98
462.22	9497.89
462.40	9062.55
462.59	9116.39
462.77	9109.36
462.95	9039.15
463.13	9116.39
463.32	8919.78
463.50	9219.37
463.68	9242.78
463.86	9123.41
464.05	8994.68
464.23	9195.96
464.41	9294.27
464.59	8973.61
464.78	9373.85
464.96	9095.32
465.14	9224.05
465.32	9415.98
465.50	9423.00
465.69	9373.85
465.87	9282.56
466.05	9327.03
466.23	9430.02
466.41	9245.12
466.60	9518.96
466.78	9432.36
466.96	9184.26
467.14	9479.17
467.32	9493.21
467.51	9851.31
467.69	9387.89
467.87	9593.86
468.05	9753.01
468.23	9643.01
468.41	9624.28
468.60	9710.88
468.78	9694.50
468.96	9582.15
469.14	9692.16
469.32	9902.81
469.50	9521.30
469.69	9958.98
469.87	10120.48
470.05	9860.68
470.23	10050.26
470.41	10001.11
470.59	10162.61
470.77	10008.13
470.95	10001.11
471.14	10380.28
471.32	10153.24
471.50	10406.02
471.68	10698.59
471.86	10413.04
472.04	10630.71
472.22	10853.06
472.40	10626.03
472.58	10705.61
472.77	10527.73
472.95	10764.12
473.13	11105.84
473.31	10553.48
473.49	10817.96
473.67	10607.31
473.85	10963.07
474.03	11150.31
474.21	11190.10
474.39	11190.10
474.57	11253.30
474.75	11433.52
474.93	11382.03
475.12	11454.58
475.30	11288.40
475.48	11419.47
475.66	11382.03
475.84	11538.84
476.02	11641.82
476.20	11665.23
476.38	11871.20
476.56	12168.45
476.74	12131.00
476.92	12259.73
477.10	11915.67
477.28	12077.16
477.46	12201.21
477.64	12170.79
477.82	12418.88
478.00	12709.11
478.18	12882.31
478.36	12699.75
478.54	12985.29
478.72	12758.26
478.90	13135.09
479.08	13200.62
479.26	13338.71
479.44	13490.85
479.62	13369.14
479.80	13736.60
479.98	13811.50
480.16	13666.39
480.34	13816.18
480.52	14045.55
480.70	14085.34
480.88	13996.40
481.06	14090.02
481.24	14134.50
481.41	14649.41
481.59	14775.80
481.77	14803.89
481.95	14651.75
482.13	14733.67
482.31	14637.71
482.49	15063.69
482.67	15143.27
482.85	15346.89
483.03	15489.67
483.21	15398.38
483.39	15346.89
483.57	15527.11
483.74	15688.61
483.92	15697.97
484.10	15875.85
484.28	15829.04
484.46	16336.94
484.64	16592.06
484.82	16451.63
485.00	16503.12
485.18	16673.98
485.35	16851.86
485.53	16589.72
485.71	16533.54
485.89	16341.62
486.07	16322.90
486.25	16936.12
486.43	16774.62
486.61	17001.65
486.78	17275.49
486.96	17603.17
487.14	18059.57
487.32	18092.34
487.50	18188.30
487.68	18497.25
487.85	18689.18
488.03	18841.31
488.21	18988.77
488.39	18808.54
488.57	18869.40
488.75	18707.90
488.92	19234.52
489.10	19697.95
489.28	19515.39
489.46	19948.39
489.64	20177.76
489.81	20711.40
489.99	20322.87
490.17	20383.73
490.35	20872.90
490.53	20446.92
490.70	20919.71
490.88	20397.77
491.06	21151.42
491.24	21273.13
491.41	20575.65
491.59	20954.82
491.77	21294.19
491.95	21209.93
492.13	21495.48
492.30	21586.76
492.48	22024.44
492.66	22108.70
492.84	22071.25
493.01	22742.99
493.19	22354.46
493.37	22530.00
493.54	22490.21
493.72	22761.71
493.90	22911.50
494.08	23250.88
494.25	23517.70
494.43	23665.16
494.61	23817.29
494.79	23871.12
494.96	23810.27
495.14	23910.91
495.32	23906.23
495.49	24016.24
495.67	24170.71
495.85	24428.17
496.02	24327.53
496.20	24294.76
496.38	24856.49
496.55	25090.54
496.73	25240.34
496.91	24978.20
497.09	25390.13
497.26	25425.24
497.44	25795.04
497.62	25825.47
497.79	26113.36
497.97	25170.12
498.14	25855.90
498.32	25781.00
498.50	25528.22
498.67	26426.99
498.85	26333.37
499.03	26778.07
499.20	26525.29
499.38	26740.62
499.56	26609.55
499.73	26740.62
499.91	27051.91
500.08	26801.47
500.26	26586.15
500.44	27115.11
500.61	27218.09
500.79	26855.31
500.97	27248.52
501.14	27419.38
501.32	27377.25
501.49	27644.07
501.67	27672.15
501.84	27728.33
502.02	27960.04
502.20	27903.87
502.37	28294.74
502.55	28137.92
502.72	28292.40
502.90	28446.87
503.07	28226.86
503.25	28292.40
503.43	28603.69
503.60	28379.00
503.78	28444.53
503.95	28769.86
504.13	28673.90
504.30	29291.80
504.48	29050.73
504.65	29106.90
504.83	29406.49
505.01	29628.84
505.18	29741.19
505.36	29905.02
505.53	29558.63
505.71	29488.41
505.88	30171.85
506.06	29687.36
506.23	29766.93
506.41	29818.42
506.58	30213.98
506.76	30146.10
506.93	30426.96
507.11	30445.69
507.28	30417.60
507.46	30129.72
507.63	30588.46
507.81	30778.04
507.98	30609.53
508.16	30466.75
508.33	30876.35
508.50	31386.58
508.68	31405.31
508.85	31269.56
509.03	31122.10
509.20	31239.13
509.38	31508.29
509.55	31519.99
509.73	31838.31
509.90	31718.94
510.08	31583.19
510.25	31424.03
510.42	32032.57
510.60	32222.16
510.77	32254.92
510.95	32149.60
511.12	32271.31
511.30	32566.21
511.47	32500.68
511.64	32861.12
511.82	33181.77
511.99	32467.91
512.17	32804.95
512.34	32854.10
512.51	32767.50
512.69	32891.55
512.86	33127.94
513.04	33212.20
513.21	33514.13
513.38	32713.67
513.56	33525.83
513.73	32961.76
513.90	33275.40
514.08	33324.55
514.25	33425.19
514.43	33523.49
514.60	33502.43
514.77	33846.49
514.95	34171.82
515.12	34064.16
515.29	34314.59
515.47	34412.90
515.64	34555.67
515.81	33940.11
515.99	34309.91
516.16	34192.89
516.33	34103.95
516.51	33905.00
516.68	33394.76
516.85	33624.14
517.03	33600.73
517.20	34396.51
517.37	34471.41
517.54	34684.40
517.72	34707.80
517.89	34213.95
518.06	34220.97
518.24	34319.28
518.41	34452.69
518.58	34829.51
518.75	34543.97
518.93	35065.91
519.10	35454.44
519.27	35608.91
519.45	35239.11
519.62	35559.76
519.79	35899.14
519.96	35927.22
520.14	35730.62
520.31	35416.99
520.48	35988.08
520.65	36161.28
520.83	36093.40
521.00	36540.44
521.17	35995.10
521.34	36313.41
521.52	36158.94
521.69	36378.95
521.86	36957.06
522.03	36807.26
522.20	36884.50
522.38	37177.07
522.55	36613.00
522.72	36580.23
522.89	36816.63
523.07	36835.35
523.24	37085.79
523.41	37448.57
523.58	36933.65
523.75	38092.22
523.92	37631.13
524.10	37783.27
524.27	37626.45
524.44	37846.46
524.61	37556.24
524.78	37900.29
524.96	37717.73
525.13	37663.90
525.30	38148.39
525.47	37912.00
525.64	37968.17
525.81	37797.31
525.98	37897.95
526.16	37724.75
526.33	37509.43
526.50	37919.02
526.67	37294.10
526.84	38031.36
527.01	37827.74
527.18	38066.47
527.36	38541.60
527.53	38969.92
527.70	38557.99
527.87	38616.50
528.04	38586.07
528.21	38738.21
528.38	39304.62
528.55	39332.70
528.72	39232.06
528.89	39690.80
529.07	39220.36
529.24	38801.40
529.41	39353.77
529.58	39189.93
529.75	39140.78
529.92	39402.92
530.09	39168.87
530.26	39522.29
530.43	39632.29
530.60	39501.22
530.77	39552.71
530.94	39976.35
531.11	39318.66
531.28	39737.62
531.46	39721.23
531.63	40240.83
531.80	39910.82
531.97	39910.82
532.14	39756.34
532.31	39541.01
532.48	39573.78
532.65	40289.98
532.82	39948.26
532.99	39983.37
533.16	39997.41
533.33	40392.97
533.50	39957.63
533.67	40360.20
533.84	40247.85
534.01	39938.90
534.18	40582.55
534.35	40725.32
534.52	40701.92
534.69	40793.20
534.86	40968.74
535.03	41024.91
535.20	41212.15
535.37	41516.42
535.54	41516.42
535.71	41373.65
535.88	41163.00
536.05	40889.16
536.22	41511.74
536.38	41085.76
536.55	41045.97
536.72	41179.39
536.89	40931.29
537.06	40835.33
537.23	41577.28
537.40	41549.19
537.57	41521.10
537.74	41511.74
537.91	41717.71
538.08	41762.18
538.25	41258.96
538.42	41642.81
538.59	41261.30
538.75	41521.10
538.92	41975.17
539.09	41895.59
539.26	41450.89
539.43	41706.01
539.60	41787.92
539.77	41778.56
539.94	41588.98
540.11	42202.20
540.28	41792.61
540.44	41804.31
540.61	41926.02
540.78	41490.68
540.95	41837.08
541.12	41790.27
541.29	42272.42
541.46	41986.87
541.62	42256.03
541.79	42478.38
541.96	42300.50
542.13	41911.97
542.30	42265.39
542.47	42270.08
542.63	42340.29
542.80	42663.28
542.97	42848.19
543.14	42983.94
543.31	42829.46
543.48	43030.75
543.64	43292.89
543.81	43161.82
543.98	43468.43
544.15	43051.81
544.32	43152.46
544.48	43526.94
544.65	43604.18
544.82	43016.71
544.99	42925.42
545.16	43077.56
545.32	43316.29
545.49	43679.08
545.66	43655.67
545.83	43629.93
546.00	43367.79
546.16	43466.09
546.33	43569.07
546.50	43536.30
546.67	43866.32
546.83	43082.24
547.00	43730.57
547.17	43636.95
547.34	43325.66
547.50	43753.97
547.67	43983.35
547.84	44114.42
548.00	43786.74
548.17	43868.66
548.34	44329.75
548.51	44378.90
548.67	44137.82
548.84	43910.79
549.01	43770.36
549.18	43999.73
549.34	44179.95
549.51	44030.16
549.68	43913.13
549.84	44140.16
550.01	44559.12
550.18	44477.20
550.34	44109.74
550.51	44512.31
550.68	44086.33
550.84	43875.68
551.01	44563.80
551.18	44748.70
551.34	44509.97
551.51	44219.74
551.68	44980.42
551.84	44865.73
552.01	44055.90
552.18	44685.51
552.34	44383.58
552.51	44795.51
552.68	44432.73
552.84	44821.26
553.01	44905.52
553.18	45085.74
553.34	44854.03
553.51	44837.64
553.67	44994.46
553.84	45120.85
554.01	44591.89
554.17	44825.94
554.34	44994.46
554.51	44659.76
554.67	44961.69
554.84	44830.62
555.00	44851.69
555.17	44680.83
555.33	45504.70
555.50	45125.53
555.67	45188.72
555.83	45357.24
556.00	45151.27
556.16	45392.35
556.33	44657.42
556.50	45331.50
556.66	45214.47
556.83	45165.32
556.99	45294.05
557.16	45511.72
557.32	45516.40
557.49	45670.87
557.65	44861.05
557.82	45593.64
557.98	45457.88
558.15	45490.65
558.32	45228.51
558.48	45415.76
558.65	45333.84
558.81	45483.63
558.98	45647.47
559.14	45069.36
559.31	45125.53
559.47	45626.40
559.64	44975.73
559.80	45284.68
559.97	45591.30
560.13	45102.12
560.30	45401.71
560.46	45668.53
560.63	45518.74
560.79	45773.86
560.96	45762.15
561.12	45488.31
561.29	45572.57
561.45	45911.95
561.61	45787.90
561.78	45336.18
561.94	45415.76
562.11	45855.78
562.27	45420.44
562.44	45385.33
562.60	45764.49
562.77	45853.44
562.93	45429.80
563.10	45691.94
563.26	45879.18
563.42	45940.04
563.59	45783.22
563.75	45956.42
563.92	46089.83
564.08	46064.08
564.24	45785.56
564.41	45886.20
564.57	46043.02
564.74	46155.36
564.90	46028.98
565.07	45785.56
565.23	46021.95
565.39	45947.06
565.56	45914.29
565.72	46036.00
565.88	45937.69
566.05	45729.39
566.21	45556.19
566.38	45923.65
566.54	46440.91
566.70	46380.06
566.87	46110.89
567.03	46190.47
567.19	46838.80
567.36	46274.73
567.52	46087.49
567.68	46054.72
567.85	45930.67
568.01	46047.70
568.17	46059.40
568.34	45954.08
568.50	46068.76
568.66	46082.81
568.83	46178.77
568.99	45525.76
569.15	46164.73
569.32	46134.30
569.48	45970.46
569.64	46593.04
569.81	46246.65
569.97	46260.69
570.13	46281.75
570.30	45668.53
570.46	45902.59
570.62	45659.17
570.78	45570.23
570.95	45750.45
571.11	46246.65
571.27	45645.13
571.43	45818.33
571.60	46209.20
571.76	45837.05
571.92	46248.99
572.09	46204.52
572.25	46220.90
572.41	46319.20
572.57	46553.26
572.74	46398.78
572.90	46408.14
573.06	46422.19
573.22	46178.77
573.38	46581.34
573.55	46188.13
573.71	46827.10
573.87	46101.53
574.03	45968.12
574.20	46478.36
574.36	46146.00
574.52	46447.93
574.68	46408.14
574.84	46160.05
575.01	46333.24
575.17	46485.38
575.33	45949.40
575.49	46012.59
575.65	46277.07
575.82	46218.56
575.98	46401.12
576.14	46127.28
576.30	46398.78
576.46	46380.06
576.62	46150.68
576.79	46220.90
576.95	46054.72
577.11	46440.91
577.27	46190.47
577.43	46396.44
577.59	46148.34
577.75	46241.96
577.92	45689.60
578.08	45968.12
578.24	46129.62
578.40	46408.14
578.56	46019.61
578.72	45839.39
578.88	46143.66
579.04	46412.82
579.21	46071.10
579.37	46146.00
579.53	46831.78
579.69	45979.82
579.85	46181.11
580.01	46480.70
580.17	46274.73
580.33	45998.55
580.49	46536.87
580.65	46382.40
580.82	46356.65
580.98	46141.32
581.14	46167.07
581.30	46429.21
581.46	46124.94
581.62	46651.56
581.78	45940.04
581.94	46941.78
582.10	46375.37
582.26	46452.61
582.42	46335.59
582.58	46384.74
582.74	46562.62
582.90	46560.28
583.06	46419.84
583.22	46483.04
583.38	46644.54
583.54	46768.58
583.70	46562.62
583.86	46646.88
584.02	46349.63
584.18	46707.73
584.34	46487.72
584.50	46419.84
584.66	46391.76
584.82	46731.14
584.98	46557.94
585.14	46443.25
585.30	46344.95
585.46	46408.14
585.62	46169.41
585.78	45897.91
585.94	46344.95
586.10	46354.31
586.26	46293.46
586.42	46450.27
586.58	46380.06
586.74	46471.34
586.90	46707.73
587.06	46277.07
587.22	46445.59
587.38	46522.83
587.54	46433.89
587.70	46869.23
587.86	46225.58
588.02	46164.73
588.18	46560.28
588.34	45998.55
588.49	45797.26
588.65	45759.81
588.81	45605.34
588.97	45923.65
589.13	46117.92
589.29	46061.74
589.45	45928.33
589.61	46417.50
589.77	46440.91
589.93	46747.52
