SpectraSuite Data File
++++++++++++++++++++++++++++++++++++
Date: Fri Oct 25 11:26:28 EDT 2013
User: price-jones
Dark Spectrum Present: No
Reference Spectrum Present: No
Number of Sampled Component Spectra: 1
Spectrometers: USB2+H05261
Integration Time (usec): 100000 (USB2+H05261)
Spectra Averaged: 1 (USB2+H05261)
Boxcar Smoothing: 0 (USB2+H05261)
Correct for Electrical Dark: No (USB2+H05261)
Strobe/Lamp Enabled: No (USB2+H05261)
Correct for Detector Non-linearity: No (USB2+H05261)
Correct for Stray Light: No (USB2+H05261)
Number of Pixels in Processed Spectrum: 2048
>>>>>Begin Processed Spectral Data<<<<<
365.73	231.71
365.92	231.71
366.12	231.71
366.32	147.45
366.52	159.16
366.72	163.84
366.91	100.64
367.11	191.92
367.31	149.79
367.51	161.50
367.70	110.01
367.90	173.20
368.10	231.71
368.30	128.73
368.49	133.41
368.69	189.58
368.89	147.45
369.09	159.16
369.28	93.62
369.48	175.54
369.68	135.75
369.87	198.95
370.07	203.63
370.27	231.71
370.47	388.53
370.66	564.07
370.86	634.29
371.06	716.20
371.25	758.33
371.45	695.14
371.65	734.93
371.84	638.97
372.04	657.69
372.24	732.59
372.44	716.20
372.63	737.27
372.83	713.86
373.03	748.97
373.22	770.04
373.42	746.63
373.62	770.04
373.81	828.55
374.01	856.64
374.21	802.80
374.40	830.89
374.60	851.96
374.79	877.70
374.99	795.78
375.19	866.00
375.38	821.53
375.58	835.57
375.78	870.68
375.97	889.40
376.17	922.17
376.37	875.36
376.56	973.66
376.76	947.92
376.95	809.83
377.15	798.12
377.35	912.81
377.54	924.51
377.74	870.68
377.93	947.92
378.13	915.15
378.33	908.13
378.52	896.43
378.72	1043.88
378.91	894.08
379.11	1011.11
379.31	978.34
379.50	954.94
379.70	950.26
379.89	1011.11
380.09	924.51
380.28	973.66
380.48	1022.81
380.68	1029.84
380.87	1048.56
381.07	1027.50
381.26	1132.82
381.46	940.90
381.65	1170.27
381.85	1025.15
382.04	1153.88
382.24	1088.35
382.43	1041.54
382.63	1027.50
382.83	1121.12
383.02	1025.15
383.22	1146.86
383.41	1036.86
383.61	1074.31
383.80	1172.61
384.00	1128.14
384.19	1114.10
384.39	1071.97
384.58	1118.78
384.78	1125.80
384.97	1128.14
385.17	1186.65
385.36	1076.65
385.56	1219.42
385.75	1121.12
385.95	1238.14
386.14	1284.95
386.34	1188.99
386.53	1165.59
386.72	1198.35
386.92	1266.23
387.11	1277.93
387.31	1247.51
387.50	1228.78
387.70	1247.51
387.89	1313.04
388.09	1277.93
388.28	1275.59
388.48	1291.98
388.67	1254.53
388.86	1362.19
389.06	1329.42
389.25	1277.93
389.45	1355.17
389.64	1343.47
389.84	1385.60
390.03	1373.89
390.22	1390.28
390.42	1306.02
390.61	1294.32
390.81	1364.53
391.00	1451.13
391.19	1376.24
391.39	1420.71
391.58	1537.73
391.78	1556.46
391.97	1446.45
392.16	1460.49
392.36	1462.83
392.55	1441.77
392.75	1554.12
392.94	1416.02
393.13	1591.56
393.33	1502.62
393.52	1572.84
393.71	1565.82
393.91	1507.30
394.10	1530.71
394.29	1537.73
394.49	1605.61
394.68	1645.40
394.88	1652.42
395.07	1727.32
395.26	1739.02
395.46	1687.53
395.65	1596.25
395.84	1626.67
396.04	1771.79
396.23	1699.23
396.42	1746.04
396.62	1724.97
396.81	1713.27
397.00	1764.76
397.19	1877.11
397.39	1856.04
397.58	1846.68
397.77	1877.11
397.97	1788.17
398.16	1832.64
398.35	1872.43
398.55	1865.41
398.74	1888.81
398.93	1968.39
399.12	1928.60
399.32	1881.79
399.51	2008.18
399.70	1952.01
399.90	2059.67
400.09	1909.88
400.28	2026.90
400.47	1975.41
400.67	2087.76
400.86	2078.40
401.05	2071.37
401.24	2064.35
401.44	2125.21
401.63	2118.18
401.82	2078.40
402.01	2064.35
402.21	2125.21
402.40	2209.47
402.59	2204.78
402.78	2214.15
402.97	2204.78
403.17	2258.62
403.36	2251.60
403.55	2328.83
403.74	2338.20
403.93	2347.56
404.13	2427.14
404.32	2342.88
404.51	2401.39
404.70	2399.05
404.89	2373.30
405.09	2424.80
405.28	2427.14
405.47	2518.42
405.66	2513.74
405.85	2408.41
406.05	2513.74
406.24	2579.27
406.43	2551.18
406.62	2623.74
406.81	2710.34
407.00	2668.21
407.20	2487.99
407.39	2677.57
407.58	2684.59
407.77	2757.15
407.96	2733.75
408.15	2757.15
408.34	2480.97
408.54	2710.34
408.73	2752.47
408.92	2848.43
409.11	2878.86
409.30	2874.18
409.49	2778.22
409.68	2904.60
409.87	2946.73
410.07	2942.05
410.26	3012.27
410.45	3124.62
410.64	3045.04
410.83	3068.44
411.02	2993.55
411.21	3124.62
411.40	3112.91
411.59	3229.94
411.78	3332.92
411.98	3192.49
412.17	3363.35
412.36	3211.22
412.55	3344.63
412.74	3421.86
412.93	3426.54
413.12	3396.12
413.31	3611.45
413.50	3492.08
413.69	3454.63
413.88	3524.85
414.07	3585.70
414.26	3440.59
414.45	3611.45
414.64	3779.97
414.83	3721.45
415.02	3805.71
415.22	3772.94
415.41	3927.42
415.60	3801.03
415.79	3845.50
415.98	3995.29
416.17	3988.27
416.36	4025.72
416.55	4007.00
416.74	4098.28
416.93	4021.04
417.12	4058.49
417.31	4241.05
417.50	4301.90
417.69	4184.88
417.88	4243.39
418.07	4142.75
418.26	4182.54
418.45	4203.60
418.64	4442.34
418.83	4404.89
419.02	4571.07
419.21	4599.15
419.39	4528.94
419.58	4374.46
419.77	4507.87
419.96	4582.77
420.15	4512.55
420.34	4606.17
420.53	4638.94
420.72	4622.56
420.91	4702.14
421.10	4692.77
421.29	4774.69
421.48	4610.86
421.67	4854.27
421.86	4697.46
422.05	4748.95
422.24	4873.00
422.43	4854.27
422.61	4716.18
422.80	4985.34
422.99	4865.97
423.18	4929.17
423.37	5130.45
423.56	4931.51
423.75	4917.47
423.94	4919.81
424.13	4587.45
424.32	4751.29
424.50	4961.94
424.69	5053.22
424.88	5146.84
425.07	4863.63
425.26	4936.19
425.45	4901.08
425.64	4931.51
425.83	4898.74
426.01	5181.95
426.20	5015.77
426.39	4968.96
426.58	5078.96
426.77	4959.60
426.96	5193.65
427.15	5055.56
427.33	5139.82
427.52	5149.18
427.71	5296.63
427.90	5268.55
428.09	5294.29
428.28	5322.38
428.46	5420.68
428.65	5373.87
428.84	5523.66
429.03	5579.84
429.22	5413.66
429.40	5383.23
429.59	5547.07
429.78	5268.55
429.97	5348.12
430.16	5518.98
430.34	5551.75
430.53	5575.16
430.72	5650.05
430.91	5696.86
431.10	5568.13
431.28	5668.78
431.47	5846.66
431.66	6031.56
431.85	5710.91
432.03	5891.13
432.22	5970.71
432.41	5872.40
432.60	5884.11
432.79	5837.30
432.97	6066.67
433.16	6040.92
433.35	6038.58
433.54	6129.86
433.72	6054.97
433.91	6111.14
434.10	6143.91
434.28	6237.53
434.47	6209.44
434.66	6078.37
434.85	6354.55
435.03	6345.19
435.22	6204.76
435.41	6569.88
435.59	6368.60
435.78	6443.49
435.97	6380.30
436.16	6492.65
436.34	6457.54
436.53	6394.34
436.72	6754.79
436.90	6366.26
437.09	6462.22
437.28	6406.05
437.46	6679.89
437.65	6576.91
437.84	6857.77
438.02	6722.02
438.21	6654.14
438.40	6628.40
438.58	6953.73
438.77	6953.73
438.96	6932.67
439.14	7166.72
439.33	7054.37
439.52	7269.70
439.70	7241.62
439.89	7368.01
440.08	7515.46
440.26	7328.22
440.45	7225.23
440.63	7428.86
440.82	7758.88
441.01	7391.41
441.19	7691.00
441.38	7896.97
441.57	7611.42
441.75	7693.34
441.94	7866.54
442.12	7878.24
442.31	7922.71
442.50	8128.68
442.68	8016.33
442.87	7913.35
443.05	7915.69
443.24	8163.79
443.43	8056.12
443.61	8159.11
443.80	8407.20
443.98	8072.51
444.17	7995.27
444.35	8430.61
444.54	8381.46
444.73	8138.04
444.91	8297.20
445.10	8306.56
445.28	8287.84
445.47	8292.52
445.65	8222.30
445.84	8458.70
446.02	8341.67
446.21	8393.16
446.39	8575.72
446.58	8435.29
446.77	8339.33
446.95	8273.79
447.14	8435.29
447.32	8472.74
447.51	8503.17
447.69	8510.19
447.88	8493.80
448.06	8578.06
448.25	8486.78
448.43	8620.19
448.62	8622.53
448.80	8575.72
448.99	8676.37
449.17	8835.52
449.36	8575.72
449.54	8849.57
449.73	8795.73
449.91	8919.78
450.10	9025.11
450.28	9008.72
450.46	9067.24
450.65	9078.94
450.83	9048.51
451.02	8896.38
451.20	9252.14
451.39	9296.61
451.57	9228.73
451.76	9081.28
451.94	9205.33
452.13	9394.91
452.31	9268.52
452.49	9198.31
452.68	9523.64
452.86	9298.95
453.05	9451.08
453.23	9439.38
453.42	9385.55
453.60	9282.56
453.78	9469.81
453.97	9437.04
454.15	9462.79
454.34	9481.51
454.52	9717.90
454.70	9621.94
454.89	9654.71
455.07	9680.46
455.26	9647.69
455.44	9860.68
455.62	9781.10
455.81	9661.73
455.99	10059.62
456.17	10017.49
456.36	10181.33
456.54	10326.44
456.73	10136.86
456.91	10406.02
457.09	10354.53
457.28	10438.79
457.46	10221.12
457.64	10597.95
457.83	10408.36
458.01	10462.19
458.19	10562.84
458.38	10537.09
458.56	10731.36
458.74	10614.33
458.93	10733.70
459.11	10696.25
459.29	10691.57
459.48	10635.39
459.66	10562.84
459.84	10633.05
460.03	10923.28
460.21	10775.83
460.39	10988.82
460.57	11101.16
460.76	11105.84
460.94	11133.93
461.12	11180.74
461.31	10965.41
461.49	11162.01
461.67	11129.25
461.85	11496.71
462.04	11274.36
462.22	11705.02
462.40	11492.03
462.59	11351.60
462.77	11580.97
462.95	11632.46
463.13	11452.24
463.32	11585.65
463.50	11641.82
463.68	11705.02
463.86	11943.75
464.05	11550.54
464.23	11758.85
464.41	11838.43
464.59	11765.87
464.78	12163.76
464.96	12049.08
465.14	11908.65
465.32	11976.52
465.50	11988.22
465.69	12184.83
465.87	12042.06
466.05	12514.84
466.23	12121.63
466.41	12259.73
466.60	12636.55
466.78	12191.85
466.96	12283.13
467.14	12163.76
467.32	12187.17
467.51	12716.13
467.69	12145.04
467.87	12439.95
468.05	12475.06
468.23	12379.09
468.41	12608.47
468.60	12493.78
468.78	12767.62
468.96	12397.82
469.14	12800.39
469.32	12959.55
469.50	12634.21
469.69	12905.71
469.87	13277.86
470.05	13184.24
470.23	13025.08
470.41	13158.49
470.59	13156.15
470.77	13149.13
470.95	13329.35
471.14	13404.25
471.32	13252.11
471.50	13561.06
471.68	13495.53
471.86	13755.33
472.04	13706.18
472.22	14085.34
472.40	13809.16
472.58	13846.61
472.77	13968.32
472.95	14150.88
473.13	14497.28
473.31	13802.14
473.49	14228.12
473.67	14216.41
473.85	14410.68
474.03	14576.86
474.21	14272.59
474.39	14626.01
474.57	14537.07
474.75	14782.82
474.93	14628.35
475.12	14675.16
475.30	15157.31
475.48	15047.30
475.66	15150.29
475.84	15026.24
476.02	15477.96
476.20	15552.86
476.38	15349.23
476.56	16149.70
476.74	15630.10
476.92	15817.34
477.10	16088.84
477.28	16039.69
477.46	16025.65
477.64	16264.38
477.82	16402.47
478.00	16926.75
478.18	16730.15
478.36	16812.07
478.54	16868.24
478.72	17149.11
478.90	17326.99
479.08	17762.33
479.26	17544.66
479.44	17860.63
479.62	17685.09
479.80	18038.51
479.98	18104.04
480.16	18321.71
480.34	18230.43
480.52	18443.42
480.70	18675.13
480.88	18574.49
481.06	19049.62
481.24	18794.50
481.41	18913.87
481.59	19379.64
481.77	19328.14
481.95	19564.54
482.13	19894.55
482.31	19646.46
482.49	20271.38
482.67	20072.43
482.85	20355.64
483.03	20521.82
483.21	20400.11
483.39	21106.95
483.57	20748.85
483.74	21106.95
483.92	21406.54
484.10	21273.13
484.28	21713.15
484.46	21951.88
484.64	22258.49
484.82	21766.98
485.00	22284.24
485.18	22728.94
485.35	22738.30
485.53	22761.71
485.71	22742.99
485.89	23466.21
486.07	23143.22
486.25	23564.51
486.43	23454.51
486.61	23740.05
486.78	23988.15
486.96	24098.16
487.14	24474.98
487.32	24390.72
487.50	24849.47
487.68	24933.73
487.85	25106.93
488.03	25053.09
488.21	26068.89
488.39	25720.15
488.57	26068.89
488.75	26178.89
488.92	26553.38
489.10	26581.46
489.28	26445.71
489.46	27150.21
489.64	26679.77
489.81	27735.35
489.99	27623.00
490.17	27634.71
490.35	28065.36
490.53	28184.73
490.70	28292.40
490.88	28168.35
491.06	28561.56
491.24	28657.52
491.41	29137.33
491.59	28758.16
491.77	29408.83
491.95	29617.14
492.13	29907.37
492.30	29692.04
492.48	29825.45
492.66	30260.79
492.84	29926.09
493.01	30764.00
493.19	30263.13
493.37	30895.07
493.54	31225.09
493.72	31484.89
493.90	31278.92
494.08	31105.72
494.25	31887.46
494.43	31864.05
494.61	32240.88
494.79	32271.31
494.96	32161.30
495.14	32716.01
495.32	33247.31
495.49	33333.91
495.67	33041.34
495.85	33408.81
496.02	33656.90
496.20	33809.04
496.38	33905.00
496.55	34199.91
496.73	34520.56
496.91	34094.58
497.09	34560.35
497.26	34675.04
497.44	34761.64
497.62	35145.48
497.79	35686.15
497.97	35487.20
498.14	36210.43
498.32	36098.08
498.50	35969.35
498.67	36589.59
498.85	36203.41
499.03	36580.23
499.20	35955.31
499.38	36875.14
499.56	37008.55
499.73	37212.18
499.91	37226.22
500.08	37923.70
500.26	37425.17
500.44	37448.57
500.61	37872.21
500.79	37509.43
500.97	38169.46
501.14	38569.69
501.32	38787.36
501.49	38190.52
501.67	38277.12
501.84	38831.83
502.02	38770.97
502.20	38714.80
502.37	38789.70
502.55	39014.39
502.72	39658.04
502.90	39433.35
503.07	39353.77
503.25	39819.53
503.43	39587.82
503.60	39782.09
503.78	40081.67
503.95	40381.26
504.13	40704.26
504.30	40767.45
504.48	40463.18
504.65	40851.71
504.83	40273.60
505.01	41331.52
505.18	40966.40
505.36	41090.44
505.53	40919.59
505.71	41375.99
505.88	41715.37
506.06	41167.68
506.23	41659.20
506.41	41584.30
506.58	41762.18
506.76	42131.98
506.93	42344.97
507.11	42113.26
507.28	42344.97
507.46	42635.20
507.63	42883.30
507.81	42761.59
507.98	42761.59
508.16	42972.24
508.33	43248.42
508.50	43456.73
508.68	43456.73
508.85	43187.56
509.03	43641.63
509.20	43681.42
509.38	44294.64
509.55	44194.00
509.73	44296.98
509.90	44294.64
510.08	44067.61
510.25	44505.29
510.42	44683.17
510.60	44865.73
510.77	45036.59
510.95	45471.93
511.12	45170.00
511.30	45038.93
511.47	45443.84
511.64	45268.30
511.82	45977.48
511.99	45518.74
512.17	45436.82
512.34	46234.94
512.51	45872.16
512.69	46232.60
512.86	46286.43
513.04	46438.57
513.21	46183.45
513.38	46880.93
513.56	46707.73
513.73	46646.88
513.90	47114.98
514.08	46801.35
514.25	46976.89
514.43	47255.42
514.60	47805.44
514.77	47093.92
514.95	47206.26
515.12	47636.92
515.29	47255.42
515.47	48095.67
515.64	47927.15
515.81	47585.43
515.99	48041.84
516.16	48425.68
516.33	48261.85
516.51	48594.20
516.68	48423.34
516.85	48299.30
517.03	48877.41
517.20	48788.47
517.37	48500.58
517.54	48615.27
517.72	48830.60
517.89	48940.60
518.06	48966.35
518.24	48973.37
518.41	49284.66
518.58	49045.93
518.75	49071.67
518.93	49191.04
519.10	49078.69
519.27	49380.62
519.45	49598.29
519.62	49764.47
519.79	49986.82
519.96	50211.51
520.14	49841.71
520.31	50059.38
520.48	50232.58
520.65	50195.13
520.83	50670.26
521.00	50494.72
521.17	50380.03
521.34	50780.26
521.52	50356.63
521.69	51011.98
521.86	50813.03
522.03	50988.57
522.20	51016.66
522.38	51295.18
522.55	51292.84
522.72	51351.35
522.89	51159.43
523.07	51585.41
523.24	51419.23
523.41	51840.53
523.58	51379.44
523.75	51681.37
523.92	51613.49
524.10	51763.29
524.27	51896.70
524.44	51763.29
524.61	51835.84
524.78	52027.77
524.96	51812.44
525.13	51870.95
525.30	52112.03
525.47	52196.29
525.64	52540.35
525.81	52563.75
525.98	52643.33
526.16	52147.14
526.33	52404.59
526.50	52828.23
526.67	52566.09
526.84	52776.74
527.01	52662.05
527.18	52718.23
527.36	53008.45
527.53	53029.52
527.70	53116.12
527.87	53132.50
528.04	53144.20
528.21	53272.93
528.38	53359.53
528.55	53492.94
528.72	53530.39
528.89	53605.29
529.07	53455.50
529.24	53130.16
529.41	53741.04
529.58	53783.17
529.75	53549.12
529.92	53820.62
530.09	53621.67
530.26	53851.05
530.43	54131.91
530.60	53586.57
530.77	53855.73
530.94	53869.77
531.11	53785.51
531.28	54267.66
531.46	54209.15
531.63	53832.32
531.80	54181.06
531.97	54227.87
532.14	54225.53
532.31	54616.40
532.48	54286.39
532.65	54403.41
532.82	54225.53
532.99	54681.94
533.16	54438.52
533.33	54906.63
533.50	54869.18
533.67	54501.71
533.84	54475.97
534.01	54930.03
534.18	54967.48
534.35	55306.86
534.52	55121.96
534.69	55196.85
534.86	55009.61
535.03	54700.66
535.20	54983.86
535.37	55028.34
535.54	55318.56
535.71	55075.15
535.88	55348.99
536.05	55367.71
536.22	55372.39
536.38	55451.97
536.55	55571.34
536.72	55327.92
536.89	55332.60
537.06	55480.06
537.23	55847.52
537.40	55440.27
537.57	55725.81
537.74	55746.88
537.91	55835.82
538.08	55765.60
538.25	55789.01
538.42	55901.36
538.59	56193.92
538.75	55681.34
538.92	55889.65
539.09	55973.91
539.26	56037.11
539.43	56044.13
539.60	56090.94
539.77	56154.13
539.94	56486.49
540.11	56341.38
540.28	56018.38
540.44	56449.04
540.61	56271.16
540.78	56289.88
540.95	56268.82
541.12	56226.69
541.29	56130.73
541.46	56420.95
541.62	56542.66
541.79	56453.72
541.96	56573.09
542.13	56683.09
542.30	56495.85
542.47	56718.20
542.63	56772.03
542.80	56877.36
542.97	56924.17
543.14	57148.86
543.31	56956.94
543.48	57167.58
543.64	57214.40
543.81	57268.23
543.98	57102.05
544.15	57223.76
544.32	57450.79
544.48	57448.45
544.65	57146.52
544.82	57406.32
544.99	57071.62
545.16	57539.73
545.32	57408.66
545.49	57614.63
545.66	57642.71
545.83	57598.24
546.00	57467.17
546.16	57502.28
546.33	57460.15
546.50	57284.61
546.67	57333.76
546.83	57469.51
547.00	57581.86
547.17	57633.35
547.34	57860.38
547.50	57956.35
547.67	58061.67
547.84	58035.92
548.00	58068.69
548.17	58103.80
548.34	57890.81
548.51	58206.78
548.67	58211.46
548.84	57900.17
549.01	58021.88
549.18	58227.85
549.34	58157.63
549.51	58251.25
549.68	58159.97
549.84	58291.04
550.01	58291.04
550.18	58155.29
550.34	58244.23
550.51	58433.81
550.68	58387.00
550.84	58255.93
551.01	58482.97
551.18	58183.38
551.34	58576.59
551.51	58501.69
551.68	58789.58
551.84	58595.31
552.01	58265.30
552.18	58504.03
552.34	58286.36
552.51	58822.34
552.68	58501.69
552.84	58763.83
553.01	58742.77
553.18	58607.01
553.34	58887.88
553.51	58670.21
553.67	58625.74
553.84	58848.09
554.01	59035.33
554.17	58939.37
554.34	58897.24
554.51	58698.30
554.67	58859.79
554.84	59011.93
555.00	58993.20
555.17	58927.67
555.33	58990.86
555.50	58850.43
555.67	59058.74
555.83	58864.47
556.00	59135.98
556.16	59480.03
556.33	59147.68
556.50	58925.33
556.66	59318.54
556.83	58887.88
556.99	59377.05
557.16	59393.43
557.32	59302.15
557.49	59360.67
557.65	59281.09
557.82	59543.23
557.98	59341.94
558.15	59449.61
558.32	59498.76
558.48	59220.23
558.65	59377.05
558.81	59435.56
558.98	59391.09
559.14	59437.90
559.31	59533.87
559.47	59428.54
559.64	59477.69
559.80	59444.93
559.97	59683.66
560.13	59655.57
560.30	59564.29
560.46	59646.21
560.63	59629.83
560.79	59716.43
560.96	59777.28
561.12	59854.52
561.29	59700.04
561.45	59739.83
561.61	59725.79
561.78	59653.23
561.94	59634.51
562.11	59461.31
562.27	59831.11
562.44	59756.22
562.60	59842.82
562.77	59854.52
562.93	59732.81
563.10	59948.14
563.26	59884.95
563.42	60055.81
563.59	59915.37
563.75	59896.65
563.92	60116.66
564.08	59978.57
564.24	60030.06
564.41	60046.44
564.57	60156.45
564.74	59828.77
564.90	60079.21
565.07	59887.29
565.23	60009.00
565.39	60044.10
565.56	60130.70
565.72	60060.49
565.88	59957.50
566.05	60058.15
566.21	60261.77
566.38	59934.10
566.54	60123.68
566.70	60353.05
566.87	60289.86
567.03	60327.31
567.19	60317.95
567.36	60322.63
567.52	60219.64
567.68	60378.80
567.85	60186.88
568.01	60376.46
568.17	60184.54
568.34	60172.83
568.50	60238.37
568.66	60282.84
568.83	60324.97
568.99	60175.17
569.15	60467.74
569.32	60280.50
569.48	60285.18
569.64	60441.99
569.81	60219.64
569.97	60282.84
570.13	60275.82
570.30	60275.82
570.46	60364.76
570.62	60238.37
570.78	60495.83
570.95	60427.95
571.11	60605.83
571.27	60458.38
571.43	60542.64
571.60	60521.57
571.76	60624.56
571.92	60502.85
572.09	60306.24
572.25	60687.75
572.41	60402.21
572.57	60399.86
572.74	60797.76
572.90	60514.55
573.06	60512.21
573.22	60451.36
573.38	60456.04
573.55	60423.27
573.71	60725.20
573.87	60617.53
574.03	60472.42
574.20	60556.68
574.36	60657.32
574.52	60711.16
574.68	60933.51
574.84	60769.67
575.01	60769.67
575.17	60814.14
575.33	60566.04
575.49	60495.83
575.65	60732.22
575.82	60807.12
575.98	60612.85
576.14	60788.39
576.30	60767.33
576.46	60458.38
576.62	60636.26
576.79	60619.88
576.95	60676.05
577.11	60633.92
577.27	60823.50
577.43	60889.04
577.59	60643.28
577.75	60839.89
577.92	60776.69
578.08	60629.24
578.24	60514.55
578.40	60776.69
578.56	60734.56
578.72	60603.49
578.88	61006.06
579.04	60729.88
579.21	60987.34
579.37	61034.15
579.53	60823.50
579.69	60664.35
579.85	60750.94
580.01	60519.23
580.17	60533.28
580.33	60739.24
580.49	60849.25
580.65	60872.65
580.82	60963.93
580.98	60788.39
581.14	60598.81
581.30	61036.49
581.46	60718.18
581.62	60853.93
581.78	60664.35
581.94	60825.84
582.10	60720.52
582.26	60872.65
582.42	60327.31
582.58	60816.48
582.74	60823.50
582.90	60779.03
583.06	61031.81
583.22	60694.77
583.38	60795.42
583.54	60640.94
583.70	60917.12
583.86	60832.86
584.02	60795.42
584.18	61006.06
584.34	60764.99
584.50	60750.94
584.66	60882.02
584.82	60715.84
584.98	61024.79
585.14	61092.66
585.30	60860.95
585.46	60832.86
585.62	61116.07
585.78	61095.00
585.94	61022.45
586.10	60956.91
586.26	61006.06
586.42	61041.17
586.58	61109.05
586.74	60779.03
586.90	60867.97
587.06	60945.21
587.22	60912.44
587.38	60933.51
587.54	60966.27
587.70	60945.21
587.86	60940.53
588.02	60949.89
588.18	60879.67
588.34	60893.72
