SpectraSuite Data File
++++++++++++++++++++++++++++++++++++
Date: Fri Oct 25 11:22:31 EDT 2013
User: price-jones
Dark Spectrum Present: No
Reference Spectrum Present: No
Number of Sampled Component Spectra: 1
Spectrometers: USB2+H05261
Integration Time (usec): 100000 (USB2+H05261)
Spectra Averaged: 1 (USB2+H05261)
Boxcar Smoothing: 0 (USB2+H05261)
Correct for Electrical Dark: No (USB2+H05261)
Strobe/Lamp Enabled: No (USB2+H05261)
Correct for Detector Non-linearity: No (USB2+H05261)
Correct for Stray Light: No (USB2+H05261)
Number of Pixels in Processed Spectrum: 2048
>>>>>Begin Processed Spectral Data<<<<<
365.73	215.33
365.92	215.33
366.12	215.33
366.32	145.11
366.52	51.49
366.72	163.84
366.91	124.05
367.11	114.69
367.31	112.35
367.51	86.60
367.70	119.37
367.90	88.94
368.10	154.48
368.30	93.62
368.49	112.35
368.69	196.60
368.89	161.50
369.09	154.48
369.28	147.45
369.48	159.16
369.68	170.86
369.87	121.71
370.07	128.73
370.27	248.10
370.47	285.55
370.66	571.09
370.86	561.73
371.06	613.22
371.25	648.33
371.45	662.37
371.65	683.44
371.84	596.84
372.04	669.39
372.24	753.65
372.44	709.18
372.63	739.61
372.83	784.08
373.03	709.18
373.22	739.61
373.42	814.51
373.62	777.06
373.81	770.04
374.01	814.51
374.21	905.79
374.40	760.67
374.60	786.42
374.79	854.30
374.99	833.23
375.19	786.42
375.38	786.42
375.58	837.91
375.78	807.48
375.97	870.68
376.17	898.77
376.37	847.27
376.56	912.81
376.76	821.53
376.95	882.38
377.15	851.96
377.35	842.59
377.54	896.43
377.74	933.87
377.93	854.30
378.13	863.66
378.33	901.11
378.52	863.66
378.72	952.60
378.91	933.87
379.11	943.24
379.31	990.05
379.50	866.00
379.70	915.15
379.89	943.24
380.09	1018.13
380.28	961.96
380.48	959.62
380.68	919.83
380.87	950.26
381.07	1008.77
381.26	1055.58
381.46	950.26
381.65	987.71
381.85	943.24
382.04	1121.12
382.24	1078.99
382.43	1109.41
382.63	1032.18
382.83	1118.78
383.02	1156.22
383.22	1163.25
383.41	1034.52
383.61	1135.16
383.80	1177.29
384.00	1100.05
384.19	1086.01
384.39	1097.71
384.58	1184.31
384.78	1165.59
384.97	1193.67
385.17	1160.91
385.36	1165.59
385.56	1193.67
385.75	1090.69
385.95	1137.50
386.14	1266.23
386.34	1221.76
386.53	1217.08
386.72	1240.48
386.92	1254.53
387.11	1242.82
387.31	1317.72
387.50	1247.51
387.70	1277.93
387.89	1317.72
388.09	1240.48
388.28	1231.12
388.48	1394.96
388.67	1376.24
388.86	1390.28
389.06	1362.19
389.25	1401.98
389.45	1406.66
389.64	1282.61
389.84	1425.39
390.03	1483.90
390.22	1343.47
390.42	1303.68
390.61	1397.30
390.81	1357.51
391.00	1420.71
391.19	1434.75
391.39	1474.54
391.58	1490.92
391.78	1455.81
391.97	1460.49
392.16	1411.34
392.36	1556.46
392.55	1516.67
392.75	1488.58
392.94	1598.59
393.13	1568.16
393.33	1535.39
393.52	1490.92
393.71	1544.75
393.91	1575.18
394.10	1533.05
394.29	1544.75
394.49	1598.59
394.68	1739.02
394.88	1621.99
395.07	1643.06
395.26	1661.78
395.46	1687.53
395.65	1760.08
395.84	1713.27
396.04	1802.21
396.23	1732.00
396.42	1778.81
396.62	1804.55
396.81	1816.26
397.00	1844.34
397.19	1790.51
397.39	2001.16
397.58	1963.71
397.77	1823.28
397.97	1689.87
398.16	1856.04
398.35	1905.20
398.55	1905.20
398.74	1849.02
398.93	1977.75
399.12	1949.67
399.32	1963.71
399.51	1891.15
399.70	1989.46
399.90	1949.67
400.09	2008.18
400.28	2045.63
400.47	2200.10
400.67	2115.84
400.86	2183.72
401.05	2146.27
401.24	2097.12
401.44	2115.84
401.63	2113.50
401.82	2150.95
402.01	2186.06
402.21	2251.60
402.40	2223.51
402.59	2239.89
402.78	2298.41
402.97	2267.98
403.17	2237.55
403.36	2317.13
403.55	2230.53
403.74	2373.30
403.93	2370.96
404.13	2380.32
404.32	2382.67
404.51	2434.16
404.70	2448.20
404.89	2331.17
405.09	2420.11
405.28	2558.21
405.47	2487.99
405.66	2551.18
405.85	2492.67
406.05	2534.80
406.24	2572.25
406.43	2469.27
406.62	2654.17
406.81	2689.28
407.00	2527.78
407.20	2621.40
407.39	2672.89
407.58	2602.68
407.77	2782.90
407.96	2700.98
408.15	2820.35
408.34	2733.75
408.54	2867.16
408.73	2832.05
408.92	2857.79
409.11	2923.33
409.30	2918.65
409.49	2991.20
409.68	2834.39
409.87	2977.16
410.07	3000.57
410.26	3089.51
410.45	2974.82
410.64	3098.87
410.83	3087.17
411.02	3070.78
411.21	3138.66
411.40	3047.38
411.59	3218.24
411.78	3208.87
411.98	3157.38
412.17	3398.46
412.36	3377.39
412.55	3513.14
412.74	3337.60
412.93	3435.91
413.12	3386.76
413.31	3531.87
413.50	3515.48
413.69	3583.36
413.88	3576.34
414.07	3646.55
414.26	3620.81
414.45	3616.13
414.64	3646.55
414.83	3674.64
415.02	3819.75
415.22	3822.09
415.41	3995.29
415.60	3913.38
415.79	3971.89
415.98	4091.26
416.17	3992.95
416.36	4093.60
416.55	4131.05
416.74	4102.96
416.93	4042.11
417.12	4156.79
417.31	4248.07
417.50	4283.18
417.69	4273.82
417.88	4231.69
418.07	4259.78
418.26	4311.27
418.45	4430.63
418.64	4521.92
418.83	4425.95
419.02	4388.50
419.21	4458.72
419.39	4500.85
419.58	4482.13
419.77	4468.08
419.96	4676.39
420.15	4690.43
420.34	4559.36
420.53	4725.54
420.72	4798.10
420.91	4781.71
421.10	4762.99
421.29	4858.95
421.48	4709.16
421.67	4734.90
421.86	4723.20
422.05	4685.75
422.24	4830.87
422.43	4917.47
422.61	4959.60
422.80	4980.66
422.99	4917.47
423.18	5029.81
423.37	5074.28
423.56	4908.10
423.75	5102.37
423.94	4933.85
424.13	4727.88
424.32	4856.61
424.50	5013.43
424.69	5132.79
424.88	5055.56
425.07	5008.75
425.26	5032.15
425.45	5132.79
425.64	5050.88
425.83	5076.62
426.01	5118.75
426.20	5128.11
426.39	5132.79
426.58	5004.07
426.77	5165.56
426.96	5130.45
427.15	5153.86
427.33	5231.10
427.52	5097.69
427.71	5455.79
427.90	5203.01
428.09	5259.18
428.28	5427.70
428.46	5453.45
428.65	5472.17
428.84	5645.37
429.03	5621.97
429.22	5322.38
429.40	5617.29
429.59	5570.48
429.78	5345.78
429.97	5371.53
430.16	5575.16
430.34	5488.56
430.53	5694.52
430.72	5584.52
430.91	5654.73
431.10	5708.57
431.28	5895.81
431.47	5809.21
431.66	6099.44
431.85	5858.36
432.03	5984.75
432.22	6108.80
432.41	6003.47
432.60	5874.74
432.79	5916.87
432.97	6012.84
433.16	6003.47
433.35	5968.37
433.54	6216.46
433.72	6113.48
433.91	6174.33
434.10	6174.33
434.28	6113.48
434.47	6267.95
434.66	6373.28
434.85	6504.35
435.03	6361.58
435.22	6319.45
435.41	6415.41
435.59	6389.66
435.78	6443.49
435.97	6626.06
436.16	6373.28
436.34	6595.63
436.53	6635.42
436.72	6817.98
436.90	6548.82
437.09	6623.72
437.28	6640.10
437.46	6710.32
437.65	6782.87
437.84	6754.79
438.02	6836.70
438.21	6806.28
438.40	6757.13
438.58	6986.50
438.77	7040.33
438.96	6977.14
439.14	7206.51
439.33	7208.85
439.52	7148.00
439.70	7246.30
439.89	7508.44
440.08	7473.33
440.26	7480.35
440.45	7372.69
440.63	7559.93
440.82	7754.19
441.01	7658.23
441.19	7761.22
441.38	7918.03
441.57	7824.41
441.75	7946.12
441.94	8187.19
442.12	7950.80
442.31	8021.02
442.50	8135.70
442.68	7997.61
442.87	8189.53
443.05	8116.98
443.24	8285.50
443.43	8306.56
443.61	8344.01
443.80	8526.57
443.98	8201.24
444.17	7719.09
444.35	8224.64
444.54	8367.42
444.73	8402.52
444.91	8231.66
445.10	8344.01
445.28	8594.45
445.47	8435.29
445.65	8313.58
445.84	8519.55
446.02	8580.40
446.21	8592.11
446.39	8418.91
446.58	8580.40
446.77	8461.04
446.95	8503.17
447.14	8491.46
447.32	8456.36
447.51	8650.62
447.69	8432.95
447.88	8557.00
448.06	8636.58
448.25	8390.82
448.43	8397.84
448.62	8580.40
448.80	8622.53
448.99	8741.90
449.17	8917.44
449.36	8884.67
449.54	9011.06
449.73	9142.13
449.91	9151.49
450.10	9043.83
450.28	9116.39
450.46	9193.62
450.65	9064.89
450.83	9172.56
451.02	9186.60
451.20	9263.84
451.39	9298.95
451.57	9156.18
451.76	9287.25
451.94	9242.78
452.13	9596.20
452.31	9479.17
452.49	9242.78
452.68	9437.04
452.86	9423.00
453.05	9554.07
453.23	9514.28
453.42	9329.38
453.60	9439.38
453.78	9614.92
453.97	9619.60
454.15	9582.15
454.34	9575.13
454.52	9860.68
454.70	9626.62
454.89	9685.14
455.07	9832.59
455.26	9886.42
455.44	10132.18
455.62	10038.56
455.81	9874.72
455.99	10104.09
456.17	9954.30
456.36	10338.15
456.54	10335.81
456.73	10366.23
456.91	10824.98
457.09	10602.63
457.28	10457.51
457.46	10492.62
457.64	10672.84
457.83	10518.37
458.01	10518.37
458.19	10824.98
458.38	10637.73
458.56	10958.39
458.74	10867.11
458.93	10686.89
459.11	10719.65
459.29	10977.11
459.48	10827.32
459.66	10918.60
459.84	11178.40
460.03	11234.57
460.21	11131.59
460.39	10998.18
460.57	11234.57
460.76	11274.36
460.94	11218.19
461.12	11346.92
461.31	11342.24
461.49	11274.36
461.67	11206.48
461.85	11763.53
462.04	11325.85
462.22	11866.52
462.40	11843.11
462.59	11604.38
462.77	11765.87
462.95	11705.02
463.13	11683.95
463.32	11763.53
463.50	11918.01
463.68	11826.73
463.86	11887.58
464.05	11878.22
464.23	12140.36
464.41	11997.59
464.59	11852.47
464.78	12294.83
464.96	12079.50
465.14	12121.63
465.32	12154.40
465.50	12257.39
465.69	12386.12
465.87	12208.23
466.05	12278.45
466.23	12339.30
466.41	12472.71
466.60	12809.75
466.78	12273.77
466.96	12510.16
467.14	12580.38
467.32	12709.11
467.51	12727.83
467.69	12346.33
467.87	12695.07
468.05	12683.36
468.23	12521.87
468.41	12613.15
468.60	12683.36
468.78	12908.05
468.96	12781.67
469.14	12870.61
469.32	12950.18
469.50	12767.62
469.69	13245.09
469.87	13160.83
470.05	13348.08
470.23	13420.63
470.41	13521.27
470.59	13383.18
470.77	13186.58
470.95	13509.57
471.14	13661.71
471.32	13483.83
471.50	13895.76
471.68	13631.28
471.86	13774.05
472.04	14038.53
472.22	14174.28
472.40	13874.70
472.58	13837.25
472.77	14230.46
472.95	14347.48
473.13	14717.29
473.31	14279.61
473.49	14389.61
473.67	14539.41
473.85	14438.76
474.03	14803.89
474.21	14583.88
474.39	15059.01
474.57	14796.87
474.75	14991.13
474.93	15279.02
475.12	15220.50
475.30	15239.23
475.48	15030.92
475.66	15358.60
475.84	15314.13
476.02	15651.16
476.20	15580.95
476.38	15786.91
476.56	16025.65
476.74	16287.79
476.92	15826.70
477.10	15906.28
477.28	16142.67
477.46	16353.32
477.64	16547.59
477.82	16741.85
478.00	16868.24
478.18	17041.44
478.36	17078.89
478.54	17142.08
478.72	17427.63
478.90	17750.62
479.08	17884.03
479.26	17846.58
479.44	17631.26
479.62	17638.28
479.80	18251.50
479.98	18183.62
480.16	18546.40
480.34	18675.13
480.52	18988.77
480.70	18789.82
480.88	18295.97
481.06	19037.92
481.24	18958.34
481.41	19630.07
481.59	19803.27
481.77	19756.46
481.95	19733.06
482.13	20355.64
482.31	19843.06
482.49	20795.66
482.67	20470.33
482.85	20699.70
483.03	20741.83
483.21	21156.10
483.39	21209.93
483.57	20898.64
483.74	21336.32
483.92	21593.78
484.10	21333.98
484.28	21671.02
484.46	22558.08
484.64	22501.91
484.82	22457.44
485.00	22401.27
485.18	23124.49
485.35	23435.78
485.53	23080.02
485.71	23061.30
485.89	23908.57
486.07	23613.66
486.25	23653.45
486.43	23761.12
486.61	24107.52
486.78	24271.36
486.96	24446.90
487.14	24500.73
487.32	24971.18
487.50	24996.92
487.68	25348.00
487.85	25928.45
488.03	25989.31
488.21	25881.64
488.39	26008.03
488.57	26312.30
488.75	26759.34
488.92	26597.85
489.10	27182.98
489.28	27138.51
489.46	27381.93
489.64	27496.61
489.81	27903.87
489.99	27866.42
490.17	28149.62
490.35	28381.34
490.53	28610.71
490.70	28936.04
490.88	28701.99
491.06	28882.21
491.24	29149.03
491.41	29270.74
491.59	29057.75
491.77	29989.28
491.95	30099.29
492.13	29982.26
492.30	30061.84
492.48	30450.37
492.66	30433.99
492.84	30991.03
493.01	31150.19
493.19	30831.88
493.37	31147.85
493.54	31791.50
493.72	32158.96
493.90	32027.89
494.08	31999.80
494.25	32154.28
494.43	32362.59
494.61	32517.06
494.79	32989.85
494.96	32950.06
495.14	33432.21
495.32	33340.93
495.49	33390.08
495.67	33525.83
495.85	33984.58
496.02	34443.32
496.20	34412.90
496.38	34213.95
496.55	34433.96
496.73	35487.20
496.91	34843.56
497.09	35311.66
497.26	35370.18
497.44	35199.32
497.62	35243.79
497.79	36261.92
497.97	36044.25
498.14	36744.07
498.32	37041.32
498.50	36580.23
498.67	37104.51
498.85	37055.36
499.03	37336.23
499.20	36835.35
499.38	37336.23
499.56	36964.08
499.73	37813.70
499.91	37722.41
500.08	37773.91
500.26	38000.94
500.44	38099.24
500.61	38225.63
500.79	37972.85
500.97	38029.02
501.14	38740.55
501.32	38981.62
501.49	39084.61
501.67	39292.91
501.84	39711.87
502.02	39395.90
502.20	39594.84
502.37	39604.20
502.55	40219.77
502.72	39470.79
502.90	39817.19
503.07	40011.46
503.25	39971.67
503.43	40559.14
503.60	40467.86
503.78	40849.37
503.95	40582.55
504.13	40657.45
504.30	41057.68
504.48	40931.29
504.65	41785.58
504.83	41610.04
505.01	41837.08
505.18	41820.69
505.36	42190.50
505.53	41773.88
505.71	42256.03
505.88	42094.53
506.06	41879.21
506.23	42670.31
506.41	42209.22
506.58	42941.81
506.76	42965.21
506.93	42965.21
507.11	43227.35
507.28	42794.36
507.46	43164.16
507.63	43227.35
507.81	43810.15
507.98	43311.61
508.16	43681.42
508.33	43988.03
508.50	44069.95
508.68	44360.17
508.85	44378.90
509.03	44130.80
509.20	44531.03
509.38	44870.41
509.55	44629.34
509.73	45123.19
509.90	45319.79
510.08	45151.27
510.25	44748.70
510.42	45174.68
510.60	45869.82
510.77	45797.26
510.95	45900.25
511.12	45560.87
511.30	45574.91
511.47	45818.33
511.64	46129.62
511.82	46373.03
511.99	45940.04
512.17	46550.91
512.34	46377.72
512.51	46862.21
512.69	46965.19
512.86	47091.58
513.04	47531.60
513.21	47082.22
513.38	47054.13
513.56	47327.97
513.73	47196.90
513.90	47744.59
514.08	46946.47
514.25	47744.59
514.43	48027.79
514.60	47739.91
514.77	47587.77
514.95	47821.83
515.12	48109.71
515.29	47971.62
515.47	48851.66
515.64	48638.67
515.81	48472.49
515.99	48603.56
516.16	48921.88
516.33	48781.45
516.51	48739.32
516.68	48793.15
516.85	49024.86
517.03	49272.96
517.20	49364.24
517.37	49237.85
517.54	49120.82
517.72	49467.22
517.89	49532.76
518.06	49602.97
518.24	49874.48
518.41	49712.98
518.58	49970.44
518.75	49605.31
518.93	49455.52
519.10	49628.72
519.27	50171.72
519.45	50113.21
519.62	50045.33
519.79	50342.58
519.96	50302.79
520.14	50342.58
520.31	50380.03
520.48	50892.61
520.65	50707.71
520.83	51185.18
521.00	51285.82
521.17	51133.68
521.34	50824.73
521.52	51061.13
521.69	51452.00
521.86	51351.35
522.03	51597.11
522.20	51646.26
522.38	51840.53
522.55	51985.64
522.72	51819.46
522.89	52030.11
523.07	52112.03
523.24	51882.66
523.41	51931.81
523.58	51908.40
523.75	52376.51
523.92	52294.59
524.10	52299.27
524.27	52320.34
524.44	52313.31
524.61	52619.92
524.78	52594.18
524.96	52638.65
525.13	52392.89
525.30	52811.85
525.47	53127.82
525.64	52715.89
525.81	53102.07
525.98	52790.78
526.16	53371.24
526.33	52795.46
526.50	53235.48
526.67	53013.13
526.84	53249.53
527.01	52921.85
527.18	53064.63
527.36	53521.03
527.53	53324.43
527.70	53724.66
527.87	53811.26
528.04	53696.57
528.21	53633.38
528.38	53345.49
528.55	54082.76
528.72	53734.02
528.89	53649.76
529.07	53591.25
529.24	53680.19
529.41	54204.47
529.58	53984.46
529.75	53902.54
529.92	54197.44
530.09	54143.61
530.26	54480.65
530.43	54534.48
530.60	54216.17
530.77	54145.95
530.94	54614.06
531.11	54262.98
531.28	54295.75
531.46	54384.69
531.63	54478.31
531.80	54749.81
531.97	54550.87
532.14	54948.76
532.31	54667.89
532.48	55196.85
532.65	54789.60
532.82	54937.05
532.99	55229.62
533.16	55025.99
533.33	55056.42
533.50	55208.56
533.67	55229.62
533.84	54995.57
534.01	55234.30
534.18	55344.31
534.35	55437.93
534.52	55580.70
534.69	55318.56
534.86	55599.43
535.03	55398.14
535.20	55491.76
535.37	55622.83
535.54	55657.94
535.71	55625.17
535.88	55859.23
536.05	55863.91
536.22	55756.24
536.38	55936.46
536.55	55721.13
536.72	55964.55
536.89	55966.89
537.06	55753.90
537.23	56383.51
537.40	55800.71
537.57	56158.81
537.74	56067.53
537.91	56437.34
538.08	56191.58
538.25	56163.50
538.42	55957.53
538.59	56418.61
538.75	56322.65
538.92	56334.35
539.09	56655.01
539.26	56425.64
539.43	56313.29
539.60	56549.68
539.77	56528.62
539.94	56793.10
540.11	56626.92
540.28	56699.48
540.44	56802.46
540.61	56638.62
540.78	56750.97
540.95	56570.75
541.12	56612.88
541.29	56797.78
541.46	56757.99
541.62	56877.36
541.79	56989.70
541.96	56662.03
542.13	56767.35
542.30	57120.77
542.47	57174.61
542.63	57158.22
542.80	57284.61
542.97	57343.12
543.14	57467.17
543.31	57396.96
543.48	57506.96
543.64	57769.10
543.81	57528.03
543.98	57542.07
544.15	57499.94
544.32	57771.44
544.48	57771.44
544.65	57785.49
544.82	57773.78
544.99	57481.22
545.16	57853.36
545.32	57872.09
545.49	58005.50
545.66	58040.60
545.83	57984.43
546.00	58035.92
546.16	58007.84
546.33	57736.34
546.50	57921.24
546.67	58012.52
546.83	57698.89
547.00	57836.98
547.17	58061.67
547.34	58134.23
547.50	58134.23
547.67	58131.89
547.84	58092.10
548.00	58440.84
548.17	58415.09
548.34	58422.11
548.51	58541.48
548.67	58513.39
548.84	58253.59
549.01	58349.56
549.18	58417.43
549.34	58585.95
549.51	58597.65
549.68	58480.63
549.84	58480.63
550.01	58597.65
550.18	58651.48
550.34	58773.19
550.51	58951.07
550.68	58740.42
550.84	58623.40
551.01	58815.32
551.18	58908.94
551.34	58829.37
551.51	58667.87
551.68	58838.73
551.84	58754.47
552.01	58979.16
552.18	59133.63
552.34	58747.45
552.51	59262.36
552.68	58852.77
552.84	59040.01
553.01	59274.07
553.18	59079.80
553.34	59150.02
553.51	59000.22
553.67	59257.68
553.84	59393.43
554.01	59220.23
554.17	59213.21
554.34	59292.79
554.51	59379.39
554.67	59484.72
554.84	59456.63
555.00	59215.55
555.17	59245.98
555.33	59311.52
555.50	59178.10
555.67	59377.05
555.83	59332.58
556.00	59409.82
556.16	59877.93
556.33	59653.23
556.50	59503.44
556.66	59676.64
556.83	59674.30
556.99	60025.38
557.16	59906.01
557.32	59781.96
557.49	59938.78
557.65	59805.37
557.82	59458.97
557.98	59533.87
558.15	59852.18
558.32	59784.30
558.48	59660.26
558.65	59852.18
558.81	59917.71
558.98	59870.90
559.14	59756.22
559.31	59819.41
559.47	59969.21
559.64	59997.29
559.80	59889.63
559.97	59957.50
560.13	59880.27
560.30	60130.70
560.46	60161.13
560.63	59990.27
560.79	59983.25
560.96	60294.54
561.12	60025.38
561.29	60313.26
561.45	60144.75
561.61	59938.78
561.78	60079.21
561.94	59934.10
562.11	60053.47
562.27	60161.13
562.44	60177.51
562.60	60268.79
562.77	60179.85
562.93	60090.91
563.10	60430.29
563.26	60140.07
563.42	60736.90
563.59	60364.76
563.75	60130.70
563.92	60329.65
564.08	60198.58
564.24	60474.76
564.41	60605.83
564.57	60451.36
564.74	60521.57
564.90	60388.16
565.07	60210.28
565.23	60434.97
565.39	60292.20
565.56	60413.91
565.72	60273.48
565.88	60460.72
566.05	60257.09
566.21	60561.36
566.38	60371.78
566.54	60488.80
566.70	60687.75
566.87	60521.57
567.03	60453.70
567.19	60940.53
567.36	60498.17
567.52	60509.87
567.68	60640.94
567.85	60676.05
568.01	60580.09
568.17	60575.40
568.34	60776.69
568.50	60542.64
568.66	60441.99
568.83	60664.35
568.99	60488.80
569.15	60699.45
569.32	60720.52
569.48	60678.39
569.64	60800.10
569.81	60533.28
569.97	60797.76
570.13	60872.65
570.30	60603.49
570.46	60821.16
570.62	60860.95
570.78	60657.32
570.95	60889.04
571.11	60931.17
571.27	60652.64
571.43	60760.31
571.60	61097.34
571.76	60640.94
571.92	60753.29
572.09	60821.16
572.25	60928.83
572.41	60783.71
572.57	60760.31
572.74	61034.15
572.90	60919.46
573.06	60945.21
573.22	60921.80
573.38	60996.70
573.55	60699.45
573.71	61172.24
573.87	60917.12
574.03	60814.14
574.20	60926.49
574.36	60750.94
574.52	60945.21
574.68	61057.56
574.84	61179.26
575.01	61038.83
575.17	61109.05
575.33	61085.64
575.49	60961.59
575.65	60966.27
575.82	61113.73
575.98	60870.31
576.14	61146.50
576.30	60959.25
576.46	60872.65
576.62	60914.78
576.79	61120.75
576.95	60917.12
577.11	61083.30
577.27	61104.37
577.43	61216.71
577.59	60999.04
577.75	60900.74
577.92	60975.64
578.08	61071.60
578.24	61148.84
578.40	61153.52
578.56	61205.01
578.72	61095.00
578.88	61066.92
579.04	61296.29
579.21	61015.43
579.37	61249.48
579.53	61256.50
579.69	60872.65
579.85	61003.72
580.01	61144.16
580.17	60968.61
580.33	61092.66
580.49	61099.68
580.65	61289.27
580.82	61197.99
580.98	61024.79
581.14	61095.00
581.30	61375.87
581.46	61055.21
581.62	61219.05
581.78	61186.28
581.94	61167.56
582.10	60917.12
582.26	61160.54
582.42	61272.88
582.58	61076.28
582.74	61148.84
582.90	61132.45
583.06	61300.97
583.22	61095.00
583.38	61345.44
583.54	61277.57
583.70	61275.22
583.86	61310.33
584.02	61216.71
584.18	61279.91
584.34	61155.86
584.50	61282.25
584.66	61172.24
584.82	61003.72
584.98	61296.29
585.14	61207.35
585.30	61167.56
585.46	61165.22
585.62	61298.63
585.78	61413.32
585.94	61148.84
586.10	61209.69
586.26	61279.91
586.42	61467.15
586.58	61399.27
586.74	61399.27
586.90	61317.35
587.06	61230.75
587.22	61375.87
587.38	61303.31
587.54	61448.42
587.70	61556.09
587.86	61329.06
588.02	61207.35
588.18	61446.08
588.34	61513.96
588.49	61443.74
