SpectraSuite Data File
++++++++++++++++++++++++++++++++++++
Date: Fri Oct 25 11:33:32 EDT 2013
User: price-jones
Dark Spectrum Present: No
Reference Spectrum Present: No
Number of Sampled Component Spectra: 1
Spectrometers: USB2+H05261
Integration Time (usec): 100000 (USB2+H05261)
Spectra Averaged: 1 (USB2+H05261)
Boxcar Smoothing: 0 (USB2+H05261)
Correct for Electrical Dark: No (USB2+H05261)
Strobe/Lamp Enabled: No (USB2+H05261)
Correct for Detector Non-linearity: No (USB2+H05261)
Correct for Stray Light: No (USB2+H05261)
Number of Pixels in Processed Spectrum: 2048
>>>>>Begin Processed Spectral Data<<<<<
365.73	320.65
365.92	320.65
366.12	320.65
366.32	220.01
366.52	187.24
366.72	215.33
366.91	156.82
367.11	266.82
367.31	180.22
367.51	159.16
367.70	170.86
367.90	191.92
368.10	187.24
368.30	147.45
368.49	149.79
368.69	224.69
368.89	152.13
369.09	114.69
369.28	196.60
369.48	156.82
369.68	220.01
369.87	203.63
370.07	196.60
370.27	250.44
370.47	327.68
370.66	496.19
370.86	505.56
371.06	524.28
371.25	582.79
371.45	500.87
371.65	552.37
371.84	475.13
372.04	505.56
372.24	552.37
372.44	657.69
372.63	617.90
372.83	528.96
373.03	648.33
373.22	585.13
373.42	594.50
373.62	615.56
373.81	634.29
374.01	692.80
374.21	653.01
374.40	617.90
374.60	734.93
374.79	641.31
374.99	716.20
375.19	669.39
375.38	667.05
375.58	678.76
375.78	643.65
375.97	615.56
376.17	695.14
376.37	709.18
376.56	688.12
376.76	716.20
376.95	634.29
377.15	755.99
377.35	681.10
377.54	746.63
377.74	613.22
377.93	718.54
378.13	695.14
378.33	727.91
378.52	695.14
378.72	706.84
378.91	772.38
379.11	681.10
379.31	727.91
379.50	645.99
379.70	690.46
379.89	690.46
380.09	641.31
380.28	678.76
380.48	695.14
380.68	767.70
380.87	718.54
381.07	753.65
381.26	758.33
381.46	763.01
381.65	758.33
381.85	741.95
382.04	758.33
382.24	774.72
382.43	730.25
382.63	748.97
382.83	788.76
383.02	844.93
383.22	816.85
383.41	753.65
383.61	821.53
383.80	856.64
384.00	725.57
384.19	842.59
384.39	758.33
384.58	791.10
384.78	915.15
384.97	856.64
385.17	901.11
385.36	891.74
385.56	828.55
385.75	828.55
385.95	971.32
386.14	950.26
386.34	802.80
386.53	901.11
386.72	858.98
386.92	877.70
387.11	889.40
387.31	903.45
387.50	936.21
387.70	919.83
387.89	823.87
388.09	908.13
388.28	894.08
388.48	896.43
388.67	861.32
388.86	980.68
389.06	950.26
389.25	959.62
389.45	959.62
389.64	945.58
389.84	1027.50
390.03	978.34
390.22	1008.77
390.42	1022.81
390.61	915.15
390.81	1001.75
391.00	971.32
391.19	1015.79
391.39	1053.24
391.58	1001.75
391.78	873.02
391.97	950.26
392.16	1039.20
392.36	1081.33
392.55	990.05
392.75	1029.84
392.94	1015.79
393.13	1062.60
393.33	973.66
393.52	1100.05
393.71	1093.03
393.91	1095.37
394.10	1043.88
394.29	1069.62
394.49	1135.16
394.68	1018.13
394.88	1116.44
395.07	1144.52
395.26	1118.78
395.46	1146.86
395.65	1123.46
395.84	1219.42
396.04	1231.12
396.23	1198.35
396.42	1151.54
396.62	1196.01
396.81	1287.29
397.00	1132.82
397.19	1320.06
397.39	1214.74
397.58	1165.59
397.77	1198.35
397.97	1266.23
398.16	1249.85
398.35	1287.29
398.55	1247.51
398.74	1301.34
398.93	1245.16
399.12	1399.64
399.32	1280.27
399.51	1270.91
399.70	1401.98
399.90	1320.06
400.09	1310.70
400.28	1460.49
400.47	1296.66
400.67	1338.79
400.86	1423.05
401.05	1420.71
401.24	1366.87
401.44	1397.30
401.63	1401.98
401.82	1413.68
402.01	1432.41
402.21	1378.58
402.40	1483.90
402.59	1533.05
402.78	1458.15
402.97	1448.79
403.17	1528.37
403.36	1528.37
403.55	1514.33
403.74	1575.18
403.93	1570.50
404.13	1565.82
404.32	1540.07
404.51	1617.31
404.70	1636.03
404.89	1633.69
405.09	1661.78
405.28	1699.23
405.47	1600.93
405.66	1736.68
405.85	1619.65
406.05	1722.63
406.24	1753.06
406.43	1769.44
406.62	1792.85
406.81	1921.58
407.00	1715.61
407.20	1722.63
407.39	1797.53
407.58	1849.02
407.77	1860.73
407.96	1774.13
408.15	1877.11
408.34	1851.36
408.54	1837.32
408.73	1942.64
408.92	1970.73
409.11	1912.22
409.30	1923.92
409.49	1942.64
409.68	2052.65
409.87	1923.92
410.07	2073.71
410.26	2127.55
410.45	2132.23
410.64	2083.08
410.83	2209.47
411.02	2078.40
411.21	2153.29
411.40	2169.68
411.59	2246.91
411.78	2167.34
411.98	2221.17
412.17	2155.63
412.36	2235.21
412.55	2270.32
412.74	2373.30
412.93	2340.54
413.12	2340.54
413.31	2448.20
413.50	2307.77
413.69	2415.43
413.88	2431.82
414.07	2448.20
414.26	2434.16
414.45	2462.24
414.64	2562.89
414.83	2518.42
415.02	2534.80
415.22	2630.76
415.41	2642.46
415.60	2754.81
415.79	2647.15
415.98	2815.66
416.17	2773.53
416.36	2719.70
416.55	2696.30
416.74	2825.03
416.93	2778.22
417.12	2803.96
417.31	2853.11
417.50	2911.63
417.69	2956.10
417.88	2904.60
418.07	2970.14
418.26	2953.76
418.45	2988.86
418.64	3115.25
418.83	3133.98
419.02	3040.36
419.21	3194.83
419.39	3047.38
419.58	3068.44
419.77	3101.21
419.96	3155.04
420.15	3131.64
420.34	3225.26
420.53	3105.89
420.72	3290.79
420.91	3148.02
421.10	3351.65
421.29	3356.33
421.48	3234.62
421.67	3260.37
421.86	3246.32
422.05	3335.26
422.24	3335.26
422.43	3332.92
422.61	3396.12
422.80	3365.69
422.99	3304.84
423.18	3346.97
423.37	3461.65
423.56	3375.05
423.75	3386.76
423.94	3330.58
424.13	3339.94
424.32	3246.32
424.50	3492.08
424.69	3536.55
424.88	3480.38
425.07	3375.05
425.26	3410.16
425.45	3382.07
425.64	3440.59
425.83	3351.65
426.01	3356.33
426.20	3494.42
426.39	3433.57
426.58	3475.70
426.77	3574.00
426.96	3489.74
427.15	3651.24
427.33	3665.28
427.52	3524.85
427.71	3700.39
427.90	3545.91
428.09	3623.15
428.28	3857.20
428.46	3751.88
428.65	3676.98
428.84	3819.75
429.03	3770.60
429.22	3705.07
429.40	3819.75
429.59	3686.34
429.78	3719.11
429.97	3569.32
430.16	3749.54
430.34	3852.52
430.53	3899.33
430.72	3875.93
430.91	3861.88
431.10	3943.80
431.28	4051.47
431.47	3964.87
431.66	3983.59
431.85	3943.80
432.03	4014.02
432.22	4255.09
432.41	4196.58
432.60	3941.46
432.79	4028.06
432.97	3955.51
433.16	4032.74
433.35	4093.60
433.54	4259.78
433.72	4124.02
433.91	4175.52
434.10	4170.83
434.28	4161.47
434.47	4259.78
434.66	4079.55
434.85	4196.58
435.03	4259.78
435.22	4306.59
435.41	4435.32
435.59	4346.37
435.78	4381.48
435.97	4372.12
436.16	4418.93
436.34	4442.34
436.53	4454.04
436.72	4631.92
436.90	4407.23
437.09	4554.68
437.28	4428.29
437.46	4500.85
437.65	4620.22
437.84	4603.83
438.02	4587.45
438.21	4538.30
438.40	4568.73
438.58	4706.82
438.77	4786.40
438.96	4744.27
439.14	4856.61
439.33	4847.25
439.52	4887.04
439.70	5107.05
439.89	4835.55
440.08	5046.20
440.26	5011.09
440.45	5167.90
440.63	5083.64
440.82	5135.14
441.01	5135.14
441.19	5200.67
441.38	5153.86
441.57	5200.67
441.75	5313.02
441.94	5390.25
442.12	5430.04
442.31	5416.00
442.50	5355.15
442.68	5561.11
442.87	5434.72
443.05	5418.34
443.24	5537.71
443.43	5554.09
443.61	5448.77
443.80	5753.04
443.98	5472.17
444.17	5296.63
444.35	5537.71
444.54	5699.20
444.73	5867.72
444.91	5724.95
445.10	5701.54
445.28	5638.35
445.47	5600.90
445.65	5746.02
445.84	5706.23
446.02	5790.49
446.21	5685.16
446.39	5816.23
446.58	5652.39
446.77	5951.98
446.95	5605.58
447.14	5755.38
447.32	5792.83
447.51	5851.34
447.69	5720.27
447.88	5701.54
448.06	5774.10
448.25	5671.12
448.43	5830.27
448.62	5715.59
448.80	5825.59
448.99	5935.60
449.17	6080.71
449.36	6008.16
449.54	5956.66
449.73	6162.63
449.91	6015.18
450.10	5966.03
450.28	6129.86
450.46	6136.88
450.65	6209.44
450.83	6174.33
451.02	6232.85
451.20	6113.48
451.39	6216.46
451.57	6148.59
451.76	6251.57
451.94	6242.21
452.13	6193.06
452.31	6377.96
452.49	6251.57
452.68	6232.85
452.86	6326.47
453.05	6497.33
453.23	6209.44
453.42	6387.32
453.60	6279.66
453.78	6347.53
453.97	6349.87
454.15	6267.95
454.34	6300.72
454.52	6504.35
454.70	6483.28
454.89	6513.71
455.07	6630.74
455.26	6586.27
455.44	6729.04
455.62	6616.69
455.81	6733.72
455.99	6693.93
456.17	6789.89
456.36	6932.67
456.54	6803.94
456.73	6853.09
456.91	7026.29
457.09	7096.50
457.28	7166.72
457.46	6967.77
457.64	7136.29
457.83	7059.06
458.01	6988.84
458.19	7026.29
458.38	7314.17
458.56	7152.68
458.74	7311.83
458.93	7169.06
459.11	7131.61
459.29	7400.77
459.48	7314.17
459.66	7272.04
459.84	7363.33
460.03	7372.69
460.21	7482.69
460.39	7360.98
460.57	7206.51
460.76	7501.42
460.94	7714.41
461.12	7522.48
461.31	7461.63
461.49	7566.95
461.67	7489.71
461.85	7763.56
462.04	7552.91
462.22	8060.80
462.40	7665.25
462.59	7815.05
462.77	7669.94
462.95	7494.40
463.13	7630.15
463.32	7819.73
463.50	7939.10
463.68	7857.18
463.86	7964.84
464.05	7817.39
464.23	7824.41
464.41	7903.99
464.59	7857.18
464.78	8025.70
464.96	8046.76
465.14	7950.80
465.32	8035.06
465.50	8245.71
465.69	7976.55
465.87	8198.90
466.05	8145.06
466.23	7950.80
466.41	8336.99
466.60	8461.04
466.78	8229.32
466.96	8215.28
467.14	8390.82
467.32	8269.11
467.51	8219.96
467.69	8367.42
467.87	8355.71
468.05	8463.38
468.23	8304.22
468.41	8395.50
468.60	8622.53
468.78	8489.12
468.96	8388.48
469.14	8566.36
469.32	8692.75
469.50	8507.85
469.69	8915.10
469.87	8753.60
470.05	8346.35
470.23	8819.14
470.41	8861.27
470.59	8938.51
470.77	8769.99
470.95	9074.26
471.14	9128.09
471.32	8753.60
471.50	9062.55
471.68	9107.02
471.86	8936.17
472.04	9263.84
472.22	9249.80
472.40	9146.81
472.58	9184.26
472.77	8964.25
472.95	9460.45
473.13	9551.73
473.31	9231.07
473.49	9645.35
473.67	9460.45
473.85	9542.36
474.03	9652.37
474.21	9692.16
474.39	9783.44
474.57	9884.08
474.75	9966.00
474.93	10132.18
475.12	9912.17
475.30	9753.01
475.48	9933.23
475.66	10296.02
475.84	10019.83
476.02	10228.14
476.20	10263.25
476.38	10331.12
476.56	10574.54
476.74	10537.09
476.92	10574.54
477.10	10511.35
477.28	10588.58
477.46	10726.68
477.64	11002.86
477.82	10995.84
478.00	11330.53
478.18	10995.84
478.36	11023.92
478.54	11133.93
478.72	11494.37
478.90	11248.61
479.08	11791.62
479.26	11833.75
479.44	11627.78
479.62	11829.07
479.80	11798.64
479.98	12023.33
480.16	12177.81
480.34	12121.63
480.52	12500.80
480.70	12283.13
480.88	12020.99
481.06	12273.77
481.24	12269.09
481.41	12666.98
481.59	12741.88
481.77	12849.54
481.95	12889.33
482.13	13097.64
482.31	12908.05
482.49	13263.82
482.67	13551.70
482.85	13432.33
483.03	13706.18
483.21	13853.63
483.39	13884.06
483.57	13888.74
483.74	14040.87
483.92	14335.78
484.10	13865.33
484.28	14590.90
484.46	14656.43
484.64	14719.63
484.82	14274.93
485.00	14768.78
485.18	14925.60
485.35	14981.77
485.53	15117.52
485.71	15103.48
485.89	15482.64
486.07	15438.17
486.25	15428.81
486.43	15679.25
486.61	15861.81
486.78	16013.95
486.96	15585.63
487.14	16161.40
487.32	15922.66
487.50	16493.76
487.68	16489.07
487.85	16533.54
488.03	16826.11
488.21	16800.37
488.39	17137.40
488.57	17015.69
488.75	17015.69
488.92	17369.12
489.10	17788.07
489.28	17390.18
489.46	17851.27
489.64	17774.03
489.81	18230.43
489.99	18349.80
490.17	17806.80
490.35	18045.53
490.53	18305.33
490.70	18881.10
490.88	18740.67
491.06	18951.32
491.24	18977.06
491.41	19143.24
491.59	19491.98
491.77	19126.86
491.95	19370.27
492.13	19625.39
492.30	19601.99
492.48	19817.32
492.66	19861.79
492.84	20081.80
493.01	20238.61
493.19	19990.52
493.37	20306.49
493.54	20596.71
493.72	20613.10
493.90	20652.89
494.08	21062.48
494.25	20959.50
494.43	20802.68
494.61	21378.45
494.79	21139.72
494.96	21238.02
495.14	21383.13
495.32	21659.32
495.49	21797.41
495.67	22113.38
495.85	22008.06
496.02	22040.82
496.20	22309.99
496.38	22700.86
496.55	22539.36
496.73	23068.32
496.91	22391.91
497.09	23033.21
497.26	23164.28
497.44	22862.35
497.62	23061.30
497.79	23421.74
497.97	22998.10
498.14	23880.49
498.32	24006.87
498.50	23730.69
498.67	24130.92
498.85	23836.02
499.03	23878.15
499.20	23941.34
499.38	24067.73
499.56	24432.85
499.73	24769.89
499.91	24563.92
500.08	24826.06
500.26	24812.02
500.44	24802.66
500.61	25046.07
500.79	24746.48
500.97	24828.40
501.14	25174.80
501.32	25245.02
501.49	25174.80
501.67	25673.34
501.84	25837.17
502.02	25177.14
502.20	25591.42
502.37	25420.56
502.55	25614.82
502.72	25731.85
502.90	25958.88
503.07	25874.62
503.25	26047.82
503.43	26075.91
503.60	26307.62
503.78	26565.08
503.95	26277.19
504.13	26457.42
504.30	26799.13
504.48	26724.24
504.65	26822.54
504.83	27323.41
505.01	27461.51
505.18	26930.20
505.36	27435.76
505.53	27054.25
505.71	27555.13
505.88	27386.61
506.06	27182.98
506.23	27655.77
506.41	27400.65
506.58	27725.99
506.76	27585.55
506.93	28388.36
507.11	28133.24
507.28	28224.52
507.46	28268.99
507.63	28142.60
507.81	28371.97
507.98	28210.48
508.16	28336.87
508.33	28561.56
508.50	28510.07
508.68	28559.22
508.85	28709.01
509.03	29312.87
509.20	28903.28
509.38	29259.04
509.55	29167.76
509.73	29420.53
509.90	29654.59
510.08	29425.22
510.25	29401.81
510.42	29902.68
510.60	29764.59
510.77	30169.51
510.95	30057.16
511.12	30031.41
511.30	30134.40
511.47	30036.09
511.64	30197.59
511.82	30431.65
511.99	30747.62
512.17	30438.67
512.34	30272.49
512.51	30726.55
512.69	31178.28
512.86	30934.86
513.04	30864.64
513.21	30913.80
513.38	31440.42
513.56	31140.83
513.73	31072.95
513.90	31161.89
514.08	30993.37
514.25	31388.92
514.43	31578.51
514.60	31737.66
514.77	31655.75
514.95	31480.21
515.12	31604.25
515.29	31842.99
515.47	32128.53
515.64	31967.04
515.81	31941.29
515.99	32158.96
516.16	32371.95
516.33	32446.85
516.51	32573.24
516.68	32496.00
516.85	32336.84
517.03	32826.01
517.20	32802.61
517.37	32926.66
517.54	32823.67
517.72	32601.32
517.89	32524.08
518.06	33469.66
518.24	32877.51
518.41	33076.45
518.58	33209.86
518.75	33696.69
518.93	33214.54
519.10	33343.27
519.27	33371.36
519.45	33462.64
519.62	33905.00
519.79	33876.91
519.96	33860.53
520.14	34314.59
520.31	34045.43
520.48	34363.75
520.65	33921.38
520.83	34300.55
521.00	34534.60
521.17	34335.66
521.34	34480.77
521.52	34508.86
521.69	34597.80
521.86	34431.62
522.03	34696.10
522.20	34988.67
522.38	35428.69
522.55	35063.57
522.72	34686.74
522.89	35292.94
523.07	35412.31
523.24	35606.57
523.41	35377.20
523.58	35419.33
523.75	35463.80
523.92	34955.90
524.10	35700.19
524.27	35426.35
524.44	35491.88
524.61	35416.99
524.78	35955.31
524.96	35957.65
525.13	36275.96
525.30	36074.68
525.47	36217.45
525.64	36077.02
525.81	36252.56
525.98	36645.77
526.16	35901.48
526.33	36318.09
526.50	36498.31
526.67	36580.23
526.84	36421.08
527.01	36322.77
527.18	36582.57
527.36	37043.66
527.53	36708.96
527.70	37174.73
527.87	37060.04
528.04	37043.66
528.21	37177.07
528.38	36671.51
528.55	37148.98
528.72	37125.58
528.89	37535.17
529.07	36889.18
529.24	37549.21
529.41	37589.00
529.58	37518.79
529.75	37343.25
529.92	37663.90
530.09	37579.64
530.26	37902.64
530.43	38061.79
530.60	37593.68
530.77	37893.27
530.94	38281.80
531.11	37827.74
531.28	37872.21
531.46	38139.03
531.63	38155.41
531.80	38153.07
531.97	38597.77
532.14	38139.03
532.31	38396.49
532.48	38543.94
532.65	38801.40
532.82	38778.00
532.99	38607.14
533.16	38197.54
533.33	39316.32
533.50	38920.77
533.67	38667.99
533.84	38478.41
534.01	39295.25
534.18	39248.44
534.35	39323.34
534.52	39065.88
534.69	39758.68
534.86	39407.60
535.03	39199.29
535.20	39346.75
535.37	39459.09
535.54	39562.08
535.71	39548.03
535.88	39627.61
536.05	39398.24
536.22	39903.79
536.38	39828.90
536.55	39550.37
536.72	39866.34
536.89	39962.31
537.06	40002.10
537.23	40374.24
537.40	39693.15
537.57	39936.56
537.74	39847.62
537.91	40631.70
538.08	40610.64
538.25	39978.69
538.42	40224.45
538.59	40250.19
538.75	40044.23
538.92	40488.93
539.09	40659.79
539.26	40589.57
539.43	40390.62
539.60	40971.08
539.77	40577.87
539.94	41265.99
540.11	40816.60
540.28	41053.00
540.44	40783.83
540.61	40570.85
540.78	41031.93
540.95	40830.65
541.12	40498.29
541.29	40825.96
541.46	40776.81
541.62	41198.11
541.79	41303.43
541.96	41010.87
542.13	40823.62
542.30	41273.01
542.47	41036.61
542.63	41214.49
542.80	41546.85
542.97	41832.39
543.14	41808.99
543.31	41867.50
543.48	41605.36
543.64	42253.69
543.81	41965.81
543.98	41825.37
544.15	42267.73
544.32	42408.17
544.48	42920.74
544.65	42155.39
544.82	42595.41
544.99	41923.68
545.16	42766.27
545.32	42588.39
545.49	42569.66
545.66	42918.40
545.83	42387.10
546.00	42937.13
546.16	42644.56
546.33	42646.90
546.50	42672.65
546.67	42792.01
546.83	42101.56
547.00	42759.25
547.17	42724.14
547.34	42728.82
547.50	43030.75
547.67	43365.45
547.84	43044.79
548.00	43154.80
548.17	43473.11
548.34	43452.05
548.51	43477.79
548.67	43297.57
548.84	43274.16
549.01	43313.95
549.18	43543.33
549.34	43552.69
549.51	43650.99
549.68	43143.09
549.84	43599.50
550.01	43669.72
550.18	43421.62
550.34	43604.18
550.51	43934.20
550.68	44016.11
550.84	43292.89
551.01	43957.60
551.18	43704.82
551.34	43482.47
551.51	44039.52
551.68	44013.77
551.84	43566.73
552.01	43611.20
552.18	44215.06
552.34	43690.78
552.51	43950.58
552.68	43746.95
552.84	44144.84
553.01	43988.03
553.18	44350.81
553.34	44116.76
553.51	44240.81
553.67	44196.34
553.84	44458.48
554.01	44545.08
554.17	44350.81
554.34	44531.03
554.51	44603.59
554.67	44720.62
554.84	44699.55
555.00	44552.10
555.17	44676.15
555.33	44907.86
555.50	44570.82
555.67	44863.39
555.83	44811.90
556.00	44582.52
556.16	44907.86
556.33	44783.81
556.50	44598.91
556.66	44734.66
556.83	44519.33
556.99	45167.66
557.16	45085.74
557.32	45165.32
557.49	45361.92
557.65	45141.91
557.82	44931.26
557.98	44701.89
558.15	45366.60
558.32	45219.15
558.48	45263.62
558.65	45113.83
558.81	45663.85
558.98	45504.70
559.14	45591.30
559.31	45216.81
559.47	45258.94
559.64	45614.70
559.80	45219.15
559.97	45670.87
560.13	45296.39
560.30	45551.51
560.46	45705.98
560.63	45638.11
560.79	45406.39
560.96	46017.27
561.12	45731.73
561.29	45642.79
561.45	45570.23
561.61	45867.48
561.78	45469.59
561.94	45642.79
562.11	45397.03
562.27	45565.55
562.44	46012.59
562.60	45982.16
562.77	46054.72
562.93	45511.72
563.10	46071.10
563.26	45797.26
563.42	46295.80
563.59	45844.07
563.75	45872.16
563.92	45759.81
564.08	45394.69
564.24	46071.10
564.41	45947.06
564.57	46153.02
564.74	45858.12
564.90	45865.14
565.07	46195.15
565.23	46073.45
565.39	46010.25
565.56	46347.29
565.72	46260.69
565.88	46391.76
566.05	46232.60
566.21	46321.54
566.38	45963.44
566.54	46211.54
566.70	46319.20
566.87	46382.40
567.03	45830.03
567.19	46808.37
567.36	46408.14
567.52	46377.72
567.68	47033.07
567.85	46513.47
568.01	46698.37
568.17	46852.84
568.34	46703.05
568.50	46415.16
568.66	46529.85
568.83	46855.18
568.99	46810.71
569.15	46461.97
569.32	46600.07
569.48	46433.89
569.64	47075.19
569.81	46667.94
569.97	46955.83
570.13	46969.87
570.30	46361.33
570.46	46560.28
570.62	46808.37
570.78	46513.47
570.95	46539.21
571.11	46944.12
571.27	46693.69
571.43	46726.46
571.60	46791.99
571.76	46756.88
571.92	46569.64
572.09	46791.99
572.25	46583.68
572.41	46782.63
572.57	46780.29
572.74	47232.01
572.90	46724.11
573.06	47281.16
573.22	46965.19
573.38	47035.41
573.55	47234.35
573.71	47304.57
573.87	47023.70
574.03	46822.42
574.20	47576.07
574.36	47262.44
574.52	46944.12
574.68	47208.61
574.84	47337.33
575.01	47547.98
575.17	47044.77
575.33	47044.77
575.49	46883.27
575.65	46761.56
575.82	47152.43
575.98	46993.28
576.14	47503.51
576.30	47110.30
576.46	47215.63
576.62	47278.82
576.79	47292.86
576.95	46557.94
577.11	47391.17
577.27	47002.64
577.43	46944.12
577.59	47100.94
577.75	47236.69
577.92	46768.58
578.08	46916.04
578.24	47210.95
578.40	47180.52
578.56	47262.44
578.72	47084.56
578.88	47306.91
579.04	47072.85
579.21	47414.57
579.37	46986.25
579.53	47496.49
579.69	47117.32
579.85	47164.14
580.01	47206.26
580.17	47037.75
580.33	47758.63
580.49	47164.14
580.65	47084.56
580.82	47185.20
580.98	47150.09
581.14	47070.51
581.30	47070.51
581.46	46969.87
581.62	47157.11
581.78	47260.10
581.94	47622.88
582.10	47107.96
582.26	47686.07
582.42	47433.30
582.58	47051.79
582.74	47826.51
582.90	47222.65
583.06	47660.33
583.22	46972.21
583.38	47175.84
583.54	47540.96
583.70	47505.85
583.86	47342.02
584.02	47583.09
584.18	47239.03
584.34	47426.28
584.50	47564.37
584.66	47468.40
584.82	47693.10
584.98	48034.81
585.14	47831.19
585.30	47683.73
585.46	47290.52
585.62	47194.56
585.78	47459.04
585.94	47194.56
586.10	47278.82
586.26	47412.23
586.42	47224.99
586.58	47714.16
586.74	47140.73
586.90	47089.24
587.06	47496.49
587.22	47505.85
587.38	47110.30
587.54	47402.87
587.70	47739.91
587.86	47796.08
588.02	47285.84
588.18	47290.52
588.34	47388.83
588.49	47498.83
588.65	47466.06
588.81	47655.65
588.97	47543.30
589.13	47730.54
589.29	47922.47
589.45	47749.27
589.61	47599.47
589.77	47791.40
589.93	47938.85
590.08	47697.78
