SpectraSuite Data File
++++++++++++++++++++++++++++++++++++
Date: Fri Oct 25 10:46:59 EDT 2013
User: price-jones
Dark Spectrum Present: No
Reference Spectrum Present: No
Number of Sampled Component Spectra: 1
Spectrometers: USB2+H05261
Integration Time (usec): 100000 (USB2+H05261)
Spectra Averaged: 1 (USB2+H05261)
Boxcar Smoothing: 0 (USB2+H05261)
Correct for Electrical Dark: No (USB2+H05261)
Strobe/Lamp Enabled: No (USB2+H05261)
Correct for Detector Non-linearity: No (USB2+H05261)
Correct for Stray Light: No (USB2+H05261)
Number of Pixels in Processed Spectrum: 2048
>>>>>Begin Processed Spectral Data<<<<<
365.73	145.11
365.92	145.11
366.12	145.11
366.32	16.38
366.52	42.13
366.72	84.26
366.91	23.41
367.11	9.36
367.31	11.70
367.51	0.00
367.70	84.26
367.90	39.79
368.10	23.41
368.30	7.02
368.49	72.56
368.69	72.56
368.89	100.64
369.09	46.81
369.28	7.02
369.48	102.98
369.68	21.06
369.87	70.22
370.07	58.51
370.27	135.75
370.47	198.95
370.66	341.72
370.86	451.72
371.06	449.38
371.25	491.51
371.45	465.77
371.65	468.11
371.84	461.09
372.04	477.47
372.24	458.74
372.44	465.77
372.63	496.19
372.83	550.03
373.03	479.81
373.22	486.83
373.42	533.64
373.62	524.28
373.81	531.30
374.01	507.90
374.21	636.63
374.40	524.28
374.60	601.52
374.79	660.03
374.99	636.63
375.19	557.05
375.38	599.18
375.58	568.75
375.78	688.12
375.97	629.60
376.17	678.76
376.37	631.94
376.56	636.63
376.76	617.90
376.95	575.77
377.15	660.03
377.35	571.09
377.54	655.35
377.74	617.90
377.93	587.47
378.13	622.58
378.33	638.97
378.52	575.77
378.72	622.58
378.91	629.60
379.11	517.26
379.31	589.82
379.50	535.98
379.70	695.14
379.89	650.67
380.09	688.12
380.28	711.52
380.48	755.99
380.68	678.76
380.87	631.94
381.07	704.50
381.26	718.54
381.46	655.35
381.65	690.46
381.85	739.61
382.04	772.38
382.24	669.39
382.43	606.20
382.63	692.80
382.83	772.38
383.02	793.44
383.22	755.99
383.41	690.46
383.61	713.86
383.80	870.68
384.00	770.04
384.19	835.57
384.39	751.31
384.58	713.86
384.78	779.40
384.97	819.19
385.17	758.33
385.36	744.29
385.56	856.64
385.75	784.08
385.95	851.96
386.14	908.13
386.34	812.17
386.53	835.57
386.72	891.74
386.92	873.02
387.11	877.70
387.31	781.74
387.50	779.40
387.70	830.89
387.89	856.64
388.09	898.77
388.28	868.34
388.48	833.23
388.67	912.81
388.86	819.19
389.06	842.59
389.25	936.21
389.45	990.05
389.64	894.08
389.84	990.05
390.03	983.02
390.22	1015.79
390.42	1029.84
390.61	964.30
390.81	926.85
391.00	971.32
391.19	1081.33
391.39	971.32
391.58	1043.88
391.78	994.73
391.97	1086.01
392.16	1008.77
392.36	1062.60
392.55	1034.52
392.75	1029.84
392.94	1039.20
393.13	964.30
393.33	1071.97
393.52	1083.67
393.71	1088.35
393.91	1123.46
394.10	1128.14
394.29	1149.20
394.49	1184.31
394.68	1205.38
394.88	1179.63
395.07	1184.31
395.26	1200.69
395.46	1186.65
395.65	1226.44
395.84	1121.12
396.04	1261.55
396.23	1137.50
396.42	1135.16
396.62	1256.87
396.81	1188.99
397.00	1221.76
397.19	1280.27
397.39	1270.91
397.58	1327.08
397.77	1242.82
397.97	1401.98
398.16	1420.71
398.35	1338.79
398.55	1423.05
398.74	1362.19
398.93	1425.39
399.12	1434.75
399.32	1399.64
399.51	1383.26
399.70	1469.86
399.90	1387.94
400.09	1514.33
400.28	1591.56
400.47	1462.83
400.67	1523.69
400.86	1540.07
401.05	1589.22
401.24	1572.84
401.44	1661.78
401.63	1614.97
401.82	1519.01
402.01	1624.33
402.21	1629.01
402.40	1582.20
402.59	1617.31
402.78	1626.67
402.97	1652.42
403.17	1692.21
403.36	1708.59
403.55	1806.89
403.74	1706.25
403.93	1614.97
404.13	1710.93
404.32	1825.62
404.51	1739.02
404.70	1839.66
404.89	1795.19
405.09	1750.72
405.28	1863.07
405.47	1842.00
405.66	1827.96
405.85	1912.22
406.05	1912.22
406.24	1970.73
406.43	1942.64
406.62	1991.80
406.81	2054.99
407.00	1916.90
407.20	1888.81
407.39	1921.58
407.58	1895.83
407.77	2108.82
407.96	1980.09
408.15	2120.53
408.34	2148.61
408.54	2118.18
408.73	2197.76
408.92	2099.46
409.11	2223.51
409.30	2134.57
409.49	2221.17
409.68	2066.69
409.87	2183.72
410.07	2286.70
410.26	2169.68
410.45	2251.60
410.64	2403.73
410.83	2394.37
411.02	2335.85
411.21	2495.01
411.40	2324.15
411.59	2443.52
411.78	2392.03
411.98	2464.58
412.17	2485.65
412.36	2476.29
412.55	2462.24
412.74	2661.19
412.93	2628.42
413.12	2534.80
413.31	2785.24
413.50	2633.10
413.69	2684.59
413.88	2810.98
414.07	2761.83
414.26	2757.15
414.45	2862.48
414.64	2785.24
414.83	2773.53
415.02	2829.71
415.22	2935.03
415.41	2829.71
415.60	2956.10
415.79	2984.18
415.98	3014.61
416.17	2995.89
416.36	3096.53
416.55	3101.21
416.74	3122.27
416.93	3096.53
417.12	3138.66
417.31	3211.22
417.50	3208.87
417.69	3243.98
417.88	3307.18
418.07	3262.71
418.26	3337.60
418.45	3201.85
418.64	3328.24
418.83	3384.41
419.02	3356.33
419.21	3330.58
419.39	3419.52
419.58	3494.42
419.77	3361.01
419.96	3445.27
420.15	3534.21
420.34	3468.67
420.53	3581.02
420.72	3695.71
420.91	3574.00
421.10	3716.77
421.29	3770.60
421.48	3496.76
421.67	3733.15
421.86	3559.95
422.05	3531.87
422.24	3595.06
422.43	3698.05
422.61	3517.83
422.80	3751.88
422.99	3709.75
423.18	3728.47
423.37	3871.25
423.56	3735.50
423.75	3707.41
423.94	3721.45
424.13	3660.60
424.32	3513.14
424.50	3744.86
424.69	3815.07
424.88	3850.18
425.07	3665.28
425.26	3691.02
425.45	3850.18
425.64	3688.68
425.83	3754.22
426.01	3822.09
426.20	3840.82
426.39	3758.90
426.58	3815.07
426.77	3674.64
426.96	3817.41
427.15	3763.58
427.33	3922.74
427.52	3964.87
427.71	3864.22
427.90	4042.11
428.09	3943.80
428.28	4086.58
428.46	3861.88
428.65	3913.38
428.84	4084.23
429.03	3955.51
429.22	3964.87
429.40	3946.14
429.59	3967.21
429.78	3850.18
429.97	3744.86
430.16	3981.25
430.34	4049.13
430.53	4037.42
430.72	4023.38
430.91	4063.17
431.10	4285.52
431.28	4276.16
431.47	4386.16
431.66	4461.06
431.85	4257.43
432.03	4414.25
432.22	4432.97
432.41	4421.27
432.60	4461.06
432.79	4444.68
432.97	4451.70
433.16	4531.28
433.35	4503.19
433.54	4496.17
433.72	4456.38
433.91	4517.23
434.10	4568.73
434.28	4463.40
434.47	4746.61
434.66	4669.37
434.85	4669.37
435.03	4547.66
435.22	4690.43
435.41	4865.97
435.59	4840.23
435.78	4868.31
435.97	4975.98
436.16	4788.74
436.34	4947.89
436.53	4798.10
436.72	5060.24
436.90	4814.48
437.09	4908.10
437.28	4849.59
437.46	4880.02
437.65	4896.40
437.84	5011.09
438.02	4933.85
438.21	4992.36
438.40	4985.34
438.58	5181.95
438.77	5158.54
438.96	5205.35
439.14	5371.53
439.33	5308.34
439.52	5376.21
439.70	5437.06
439.89	5378.55
440.08	5348.12
440.26	5490.90
440.45	5327.06
440.63	5572.82
440.82	5727.29
441.01	5584.52
441.19	5795.17
441.38	5858.36
441.57	5570.48
441.75	5837.30
441.94	6036.24
442.12	5968.37
442.31	6054.97
442.50	6094.76
442.68	5823.25
442.87	6069.01
443.05	6146.25
443.24	5937.94
443.43	6057.31
443.61	6071.35
443.80	6270.30
443.98	6064.33
444.17	6019.86
444.35	6008.16
444.54	6218.80
444.73	6099.44
444.91	6331.15
445.10	6209.44
445.28	6176.67
445.47	6153.27
445.65	6017.52
445.84	6342.85
446.02	6197.74
446.21	6097.10
446.39	6200.08
446.58	6516.05
446.77	6319.45
446.95	6190.72
447.14	6429.45
447.32	6305.40
447.51	6359.24
447.69	6445.84
447.88	6370.94
448.06	6272.64
448.25	6333.49
448.43	6490.31
448.62	6525.41
448.80	6326.47
448.99	6466.90
449.17	6392.00
449.36	6469.24
449.54	6745.42
449.73	6661.16
449.91	6602.65
450.10	6729.04
450.28	6773.51
450.46	6679.89
450.65	6885.86
450.83	6829.68
451.02	6815.64
451.20	6803.94
451.39	6740.74
451.57	6832.02
451.76	6871.81
451.94	6825.00
452.13	6977.14
452.31	6993.52
452.49	6782.87
452.68	6796.92
452.86	6712.66
453.05	7002.88
453.23	7019.27
453.42	6867.13
453.60	6935.01
453.78	7028.63
453.97	7059.06
454.15	6918.62
454.34	7126.93
454.52	7218.21
454.70	7262.68
454.89	7131.61
455.07	7101.19
455.26	7133.95
455.44	7435.88
455.62	7187.79
455.81	7344.60
455.99	7391.41
456.17	7288.43
456.36	7339.92
456.54	7613.76
456.73	7698.02
456.91	7513.12
457.09	7796.32
457.28	7742.49
457.46	7489.71
457.64	7957.82
457.83	7721.43
458.01	7693.34
458.19	7948.46
458.38	7756.54
458.56	8009.31
458.74	7911.01
458.93	7836.11
459.11	7889.95
459.29	7981.23
459.48	7882.92
459.66	7983.57
459.84	7976.55
460.03	8142.72
460.21	8194.22
460.39	8114.64
460.57	8065.49
460.76	8170.81
460.94	8231.66
461.12	8180.17
461.31	8423.59
461.49	8358.05
461.67	8299.54
461.85	8486.78
462.04	8219.96
462.22	8739.56
462.40	8507.85
462.59	8306.56
462.77	8564.02
462.95	8655.30
463.13	8400.18
463.32	8430.61
463.50	8603.81
463.68	8472.74
463.86	8587.43
464.05	8463.38
464.23	8540.61
464.41	8652.96
464.59	8472.74
464.78	8767.65
464.96	8872.97
465.14	8617.85
465.32	8849.57
465.50	8959.57
465.69	8849.57
465.87	8856.59
466.05	8727.86
466.23	8896.38
466.41	8699.77
466.60	9172.56
466.78	8929.14
466.96	8887.01
467.14	8865.95
467.32	8940.85
467.51	8982.98
467.69	9032.13
467.87	8872.97
468.05	9263.84
468.23	8985.32
468.41	9116.39
468.60	9226.39
468.78	9165.54
468.96	9109.36
469.14	9345.76
469.32	9320.01
469.50	9081.28
469.69	9329.38
469.87	9551.73
470.05	9497.89
470.23	9500.23
470.41	9570.45
470.59	9355.12
470.77	9593.86
470.95	9575.13
471.14	9610.24
471.32	9542.36
471.50	9944.94
471.68	9554.07
471.86	10076.01
472.04	10101.75
472.22	9928.55
472.40	9713.22
472.58	9865.36
472.77	10085.37
472.95	10125.16
473.13	10384.96
473.31	10015.15
473.49	9832.59
473.67	10232.82
473.85	10078.35
474.03	10581.56
474.21	10459.85
474.39	10703.27
474.57	10518.37
474.75	10651.78
474.93	10822.64
475.12	10682.20
475.30	10750.08
475.48	10707.95
475.66	10726.68
475.84	10810.93
476.02	11021.58
476.20	10988.82
476.38	11367.98
476.56	11433.52
476.74	11241.59
476.92	11274.36
477.10	11344.58
477.28	11714.38
477.46	11520.12
477.64	11791.62
477.82	11800.98
478.00	11976.52
478.18	11913.33
478.36	12109.93
478.54	12245.68
478.72	12023.33
478.90	12255.04
479.08	12402.50
479.26	12599.10
479.44	12652.94
479.62	12842.52
479.80	12901.03
479.98	12882.31
480.16	13308.29
480.34	13085.94
480.52	12964.23
480.70	13160.83
480.88	13212.32
481.06	13324.67
481.24	13193.60
481.41	13820.86
481.59	13905.12
481.77	13977.68
481.95	13865.33
482.13	14209.39
482.31	13919.17
482.49	14263.22
482.67	14373.23
482.85	14520.68
483.03	14539.41
483.21	14471.53
483.39	14672.82
483.57	14759.42
483.74	14672.82
483.92	15033.26
484.10	14714.95
484.28	15314.13
484.46	15527.11
484.64	15737.76
484.82	15557.54
485.00	15468.60
485.18	15712.02
485.35	15939.05
485.53	15910.96
485.71	15655.84
485.89	15915.64
486.07	16016.29
486.25	16236.30
486.43	16215.23
486.61	16360.34
486.78	16739.51
486.96	16891.65
487.14	17090.59
487.32	16971.22
487.50	17324.65
487.68	17621.89
487.85	17699.13
488.03	17462.74
488.21	17956.59
488.39	18036.17
488.57	17977.65
488.75	17741.26
488.92	18246.82
489.10	18663.43
489.28	18733.65
489.46	18817.91
489.64	18960.68
489.81	19667.52
489.99	19094.09
490.17	19583.26
490.35	19616.03
490.53	19381.98
490.70	19868.81
490.88	19847.74
491.06	20074.77
491.24	20081.80
491.41	20152.01
491.59	19850.08
491.77	19908.60
491.95	20648.21
492.13	20643.52
492.30	20706.72
492.48	20863.54
492.66	20828.43
492.84	21109.29
493.01	21511.86
493.19	21043.76
493.37	21411.22
493.54	21350.37
493.72	21804.43
493.90	21439.31
494.08	22192.96
494.25	22501.91
494.43	21900.39
494.61	22253.81
494.79	22305.31
494.96	22298.28
495.14	22558.08
495.32	22511.27
495.49	22874.06
495.67	22967.68
495.85	23550.47
496.02	23697.92
496.20	23477.91
496.38	23723.67
496.55	23630.05
496.73	23969.43
496.91	23950.70
497.09	23882.83
497.26	24334.55
497.44	24128.58
497.62	24311.14
497.79	24325.19
497.97	24177.73
498.14	24882.24
498.32	24851.81
498.50	24989.90
498.67	25142.03
498.85	25200.55
499.03	25940.16
499.20	25357.36
499.38	25226.29
499.56	25551.63
499.73	25425.24
499.91	25357.36
500.08	25961.22
500.26	25563.33
500.44	25848.88
500.61	25802.07
500.79	25827.81
500.97	25979.95
501.14	26244.43
501.32	26483.16
501.49	26185.91
501.67	26532.31
501.84	26445.71
502.02	26574.44
502.20	26668.06
502.37	27037.87
502.55	26789.77
502.72	27009.78
502.90	26960.63
503.07	27297.67
503.25	27505.98
503.43	27152.55
503.60	27222.77
503.78	27410.01
503.95	27239.15
504.13	27264.90
504.30	27695.56
504.48	27637.05
504.65	28051.32
504.83	27997.49
505.01	28189.41
505.18	28107.49
505.36	28414.10
505.53	28444.53
505.71	28479.64
505.88	28985.19
506.06	28510.07
506.23	28678.58
506.41	28446.87
506.58	28795.61
506.76	29092.86
506.93	29209.89
507.11	29174.78
507.28	29027.32
507.46	28917.32
507.63	28772.21
507.81	29479.05
507.98	29275.42
508.16	29137.33
508.33	29467.34
508.50	29413.51
508.68	29689.70
508.85	30326.32
509.03	30068.86
509.20	30094.61
509.38	30361.43
509.55	30419.94
509.73	30115.67
509.90	30312.28
510.08	30462.07
510.25	30499.52
510.42	30967.63
510.60	30728.89
510.77	30944.22
510.95	31157.21
511.12	30944.22
511.30	31056.57
511.47	31370.20
511.64	31604.25
511.82	31147.85
511.99	31468.50
512.17	31325.73
512.34	31356.16
512.51	31880.44
512.69	31667.45
512.86	31878.10
513.04	32041.93
513.21	32264.28
513.38	31871.07
513.56	32006.83
513.73	31857.03
513.90	32367.27
514.08	32095.77
514.25	32645.79
514.43	32034.91
514.60	32774.52
514.77	32222.16
514.95	32470.25
515.12	32643.45
515.29	32905.59
515.47	32933.68
515.64	33069.43
515.81	32517.06
515.99	32877.51
516.16	33074.11
516.33	33228.59
516.51	32929.00
516.68	32645.79
516.85	32243.22
517.03	32584.94
517.20	32804.95
517.37	33266.03
517.54	33589.03
517.72	33476.68
517.89	33242.63
518.06	33462.64
518.24	33507.11
518.41	33193.48
518.58	33806.70
518.75	33862.87
518.93	33951.81
519.10	34071.18
519.27	33752.87
519.45	34546.31
519.62	34300.55
519.79	34448.00
519.96	34373.11
520.14	34803.77
520.31	34511.20
520.48	34546.31
520.65	34611.84
520.83	34841.21
521.00	34810.79
521.17	35229.74
521.34	34759.30
521.52	35536.35
521.69	35367.84
521.86	35749.34
522.03	35571.46
522.20	35496.56
522.38	35463.80
522.55	35934.24
522.72	35700.19
522.89	35695.51
523.07	35627.63
523.24	35580.82
523.41	35894.46
523.58	35695.51
523.75	36114.47
523.92	36257.24
524.10	36554.49
524.27	36306.39
524.44	36591.94
524.61	36762.79
524.78	36868.12
524.96	36598.96
525.13	36938.33
525.30	36938.33
525.47	36587.25
525.64	36802.58
525.81	36833.01
525.98	36840.03
526.16	36481.93
526.33	36493.63
526.50	36980.46
526.67	36367.24
526.84	36699.60
527.01	36601.30
527.18	36917.27
527.36	37277.71
527.53	37296.44
527.70	37731.78
527.87	37729.44
528.04	37584.32
528.21	37441.55
528.38	37696.67
528.55	37839.44
528.72	37574.96
528.89	37919.02
529.07	37991.58
529.24	37897.95
529.41	38007.96
529.58	37436.87
529.75	37691.99
529.92	37893.27
530.09	37879.23
530.26	38382.45
530.43	38085.20
530.60	38679.69
530.77	38438.62
530.94	38206.90
531.11	38419.89
531.28	38459.68
531.46	38763.95
531.63	38714.80
531.80	38749.91
531.97	38352.02
532.14	38337.98
532.31	38586.07
532.48	38813.10
532.65	38682.03
532.82	38490.11
532.99	38754.59
533.16	38794.38
533.33	39112.69
533.50	39491.86
533.67	39321.00
533.84	38885.66
534.01	39063.54
534.18	39075.24
534.35	39646.33
534.52	39210.99
534.69	39313.98
534.86	39992.73
535.03	39384.19
535.20	39934.22
535.37	40065.29
535.54	39725.91
535.71	39611.23
535.88	39835.92
536.05	39938.90
536.22	39936.56
536.38	39985.71
536.55	39665.06
536.72	39878.05
536.89	40027.84
537.06	39941.24
537.23	40179.98
537.40	40161.25
537.57	40512.33
537.74	40847.03
537.91	40343.81
538.08	40390.62
538.25	39957.63
538.42	40313.39
538.59	40793.20
538.75	40322.75
538.92	40629.36
539.09	40842.35
539.26	40783.83
539.43	40531.06
539.60	40811.92
539.77	40797.88
539.94	40662.13
540.11	40299.34
540.28	40987.46
540.44	41130.23
540.61	41256.62
540.78	41006.19
540.95	41102.15
541.12	40563.82
541.29	40793.20
541.46	40959.38
541.62	40898.52
541.79	41172.36
541.96	40886.82
542.13	41251.94
542.30	41113.85
542.47	41411.10
542.63	41242.58
542.80	41404.08
542.97	41996.23
543.14	41689.62
543.31	41918.99
543.48	41954.10
543.64	42333.27
543.81	42246.67
543.98	41691.96
544.15	41975.17
544.32	41717.71
544.48	42223.26
544.65	42000.91
544.82	42281.78
544.99	41806.65
545.16	43023.73
545.32	42410.51
545.49	42244.33
545.66	42637.54
545.83	42529.87
546.00	42972.24
546.16	42014.96
546.33	42705.41
546.50	42136.66
546.67	42752.23
546.83	42078.15
547.00	42337.95
547.17	42167.09
547.34	42682.01
547.50	42689.03
547.67	43042.45
547.84	42487.74
548.00	43122.03
548.17	42834.14
548.34	43187.56
548.51	42927.77
548.67	43035.43
548.84	43395.87
549.01	43138.41
549.18	43082.24
549.34	43248.42
549.51	43033.09
549.68	43578.43
549.84	43035.43
550.01	43313.95
550.18	43496.52
550.34	43215.65
550.51	43337.36
550.68	43723.55
550.84	43295.23
551.01	43470.77
551.18	43463.75
551.34	43625.25
551.51	43737.59
551.68	43512.90
551.84	43323.32
552.01	43208.63
552.18	43503.54
552.34	43304.59
552.51	44044.20
552.68	43452.05
552.84	43510.56
553.01	43861.64
553.18	43838.23
553.34	43709.50
553.51	43515.24
553.67	44060.58
553.84	44037.18
554.01	44294.64
554.17	44194.00
554.34	44252.51
554.51	43924.83
554.67	43920.15
554.84	44556.78
555.00	43931.86
555.17	44215.06
555.33	44418.69
555.50	44524.01
555.67	43730.57
555.83	44289.96
556.00	44612.95
556.16	44446.77
556.33	44322.72
556.50	44250.17
556.66	44460.82
556.83	44472.52
556.99	44573.16
557.16	44285.28
557.32	44402.30
557.49	44332.09
557.65	44177.61
557.82	44477.20
557.98	44526.35
558.15	44172.93
558.32	44336.77
558.48	44556.78
558.65	44711.25
558.81	44751.04
558.98	44318.04
559.14	44596.57
559.31	44215.06
559.47	44449.11
559.64	44437.41
559.80	44587.21
559.97	44439.75
560.13	44877.43
560.30	44577.84
560.46	44884.45
560.63	44732.32
560.79	45036.59
560.96	45076.38
561.12	44935.95
561.29	45020.20
561.45	44650.40
561.61	44659.76
561.78	45010.84
561.94	44439.75
562.11	44556.78
562.27	44919.56
562.44	45081.06
562.60	45078.72
562.77	45155.96
562.93	44722.96
563.10	45233.19
563.26	44591.89
563.42	45146.59
563.59	44999.14
563.75	44959.35
563.92	45272.98
564.08	44889.13
564.24	45394.69
564.41	45195.74
564.57	45420.44
564.74	45141.91
564.90	45521.08
565.07	45425.12
565.23	44849.35
565.39	45277.66
565.56	45235.53
565.72	44877.43
565.88	45167.66
566.05	45102.12
566.21	45368.94
566.38	45443.84
566.54	45235.53
566.70	45523.42
566.87	45563.21
567.03	45312.77
567.19	45492.99
567.36	45280.00
567.52	45258.94
567.68	45481.29
567.85	45020.20
568.01	45511.72
568.17	45535.12
568.34	45492.99
568.50	45193.40
568.66	45209.79
568.83	45612.36
568.99	45315.11
569.15	45186.38
569.32	45574.91
569.48	45455.54
569.64	45530.44
569.81	45397.03
569.97	45626.40
570.13	45343.20
570.30	45303.41
570.46	45345.54
570.62	44938.29
570.78	45446.18
570.95	45429.80
571.11	45504.70
571.27	45305.75
571.43	45242.56
571.60	45500.01
571.76	45441.50
571.92	45635.77
572.09	45556.19
572.25	44999.14
572.41	45165.32
572.57	45757.47
572.74	45638.11
572.90	45500.01
573.06	45794.92
573.22	45296.39
573.38	45776.20
573.55	45635.77
573.71	45923.65
573.87	45638.11
574.03	45691.94
574.20	45511.72
574.36	45844.07
574.52	45865.14
574.68	46061.74
574.84	45631.08
575.01	45434.48
575.17	45911.95
575.33	45247.24
575.49	45607.68
575.65	45680.24
575.82	45883.86
575.98	45490.65
576.14	45893.22
576.30	45778.54
576.46	46071.10
576.62	45586.61
576.79	45558.53
576.95	45825.35
577.11	45516.40
577.27	45633.42
577.43	45546.82
577.59	45904.93
577.75	45886.20
577.92	45083.40
578.08	45434.48
578.24	45237.87
578.40	45916.63
578.56	45888.54
578.72	45757.47
578.88	45684.92
579.04	45771.52
579.21	45485.97
579.37	45380.65
579.53	45371.28
579.69	45453.20
579.85	45523.42
580.01	45722.37
580.17	45729.39
580.33	46014.93
580.49	46131.96
580.65	45546.82
580.82	45846.41
580.98	45722.37
581.14	45237.87
581.30	46075.79
581.46	45450.86
581.62	46092.17
581.78	45680.24
581.94	46511.13
582.10	46106.21
582.26	46164.73
582.42	45755.13
582.58	45415.76
582.74	45757.47
582.90	45684.92
583.06	45729.39
583.22	45963.44
583.38	46454.95
583.54	45815.99
583.70	45633.42
583.86	45888.54
584.02	45717.68
584.18	45478.95
584.34	46014.93
584.50	46129.62
584.66	46188.13
584.82	45626.40
584.98	46031.32
585.14	45729.39
585.30	45916.63
585.46	45930.67
585.62	45556.19
585.78	45457.88
585.94	45268.30
586.10	45610.02
586.26	45418.10
586.42	45918.97
586.58	45998.55
586.74	45471.93
586.90	45481.29
587.06	45425.12
587.22	45741.09
587.38	45478.95
587.54	45951.74
587.70	46127.28
587.86	45993.87
588.02	46181.11
588.18	46277.07
588.34	46005.57
588.49	45490.65
588.65	45361.92
588.81	45420.44
588.97	45614.70
589.13	45399.37
589.29	45633.42
589.45	45991.53
589.61	46050.04
589.77	46270.05
589.93	45757.47
590.08	45813.65
