SpectraSuite Data File
++++++++++++++++++++++++++++++++++++
Date: Fri Oct 25 10:47:58 EDT 2013
User: price-jones
Dark Spectrum Present: No
Reference Spectrum Present: No
Number of Sampled Component Spectra: 1
Spectrometers: USB2+H05261
Integration Time (usec): 100000 (USB2+H05261)
Spectra Averaged: 1 (USB2+H05261)
Boxcar Smoothing: 0 (USB2+H05261)
Correct for Electrical Dark: No (USB2+H05261)
Strobe/Lamp Enabled: No (USB2+H05261)
Correct for Detector Non-linearity: No (USB2+H05261)
Correct for Stray Light: No (USB2+H05261)
Number of Pixels in Processed Spectrum: 2048
>>>>>Begin Processed Spectral Data<<<<<
365.73	121.71
365.92	121.71
366.12	121.71
366.32	93.62
366.52	44.47
366.72	91.28
366.91	28.09
367.11	0.00
367.31	0.00
367.51	88.94
367.70	60.85
367.90	91.28
368.10	14.04
368.30	65.54
368.49	53.83
368.69	117.03
368.89	30.43
369.09	49.15
369.28	189.58
369.48	100.64
369.68	98.30
369.87	98.30
370.07	110.01
370.27	168.52
370.47	203.63
370.66	318.31
370.86	348.74
371.06	428.32
371.25	486.83
371.45	402.57
371.65	489.17
371.84	486.83
372.04	491.51
372.24	543.00
372.44	479.81
372.63	510.24
372.83	503.22
373.03	503.22
373.22	468.11
373.42	505.56
373.62	472.79
373.81	559.39
374.01	503.22
374.21	610.88
374.40	507.90
374.60	592.16
374.79	517.26
374.99	557.05
375.19	517.26
375.38	559.39
375.58	592.16
375.78	519.60
375.97	645.99
376.17	606.20
376.37	643.65
376.56	662.37
376.76	599.18
376.95	573.43
377.15	622.58
377.35	543.00
377.54	601.52
377.74	636.63
377.93	660.03
378.13	622.58
378.33	629.60
378.52	688.12
378.72	585.13
378.91	627.26
379.11	573.43
379.31	557.05
379.50	524.28
379.70	718.54
379.89	695.14
380.09	566.41
380.28	624.92
380.48	645.99
380.68	622.58
380.87	622.58
381.07	650.67
381.26	669.39
381.46	662.37
381.65	669.39
381.85	685.78
382.04	692.80
382.24	655.35
382.43	629.60
382.63	653.01
382.83	753.65
383.02	711.52
383.22	702.16
383.41	697.48
383.61	695.14
383.80	774.72
384.00	653.01
384.19	669.39
384.39	784.08
384.58	716.20
384.78	748.97
384.97	765.36
385.17	699.82
385.36	755.99
385.56	704.50
385.75	734.93
385.95	844.93
386.14	854.30
386.34	798.12
386.53	781.74
386.72	767.70
386.92	840.25
387.11	807.48
387.31	807.48
387.50	772.38
387.70	758.33
387.89	851.96
388.09	844.93
388.28	870.68
388.48	856.64
388.67	784.08
388.86	877.70
389.06	898.77
389.25	896.43
389.45	936.21
389.64	922.17
389.84	976.00
390.03	933.87
390.22	880.04
390.42	901.11
390.61	950.26
390.81	870.68
391.00	905.79
391.19	940.90
391.39	931.53
391.58	1011.11
391.78	987.71
391.97	901.11
392.16	929.19
392.36	1046.22
392.55	985.37
392.75	978.34
392.94	964.30
393.13	917.49
393.33	985.37
393.52	976.00
393.71	1027.50
393.91	992.39
394.10	929.19
394.29	978.34
394.49	947.92
394.68	1118.78
394.88	1100.05
395.07	1158.57
395.26	1111.75
395.46	1057.92
395.65	1102.39
395.84	1121.12
396.04	1228.78
396.23	1104.73
396.42	1006.43
396.62	1090.69
396.81	1083.67
397.00	1111.75
397.19	1179.63
397.39	1151.54
397.58	1233.46
397.77	1139.84
397.97	1205.38
398.16	1280.27
398.35	1366.87
398.55	1289.64
398.74	1231.12
398.93	1191.33
399.12	1240.48
399.32	1329.42
399.51	1383.26
399.70	1296.66
399.90	1275.59
400.09	1385.60
400.28	1411.34
400.47	1481.56
400.67	1371.55
400.86	1514.33
401.05	1387.94
401.24	1378.58
401.44	1530.71
401.63	1530.71
401.82	1511.99
402.01	1385.60
402.21	1504.96
402.40	1673.48
402.59	1467.52
402.78	1563.48
402.97	1497.94
403.17	1511.99
403.36	1577.52
403.55	1547.09
403.74	1575.18
403.93	1605.61
404.13	1720.29
404.32	1650.08
404.51	1643.06
404.70	1643.06
404.89	1692.21
405.09	1753.06
405.28	1612.63
405.47	1706.25
405.66	1734.34
405.85	1781.15
406.05	1755.40
406.24	1682.85
406.43	1715.61
406.62	1872.43
406.81	1898.17
407.00	1844.34
407.20	1771.79
407.39	1813.92
407.58	1849.02
407.77	1811.57
407.96	1949.67
408.15	1998.82
408.34	1879.45
408.54	2019.88
408.73	2076.06
408.92	1989.46
409.11	2066.69
409.30	2019.88
409.49	2029.24
409.68	2040.95
409.87	2026.90
410.07	2047.97
410.26	2047.97
410.45	2118.18
410.64	2235.21
410.83	2136.91
411.02	2195.42
411.21	2207.13
411.40	2272.66
411.59	2160.31
411.78	2253.94
411.98	2282.02
412.17	2289.04
412.36	2270.32
412.55	2401.39
412.74	2373.30
412.93	2469.27
413.12	2380.32
413.31	2574.59
413.50	2335.85
413.69	2513.74
413.88	2530.12
414.07	2539.48
414.26	2623.74
414.45	2635.44
414.64	2497.35
414.83	2600.34
415.02	2719.70
415.22	2703.32
415.41	2810.98
415.60	2759.49
415.79	2883.54
415.98	2904.60
416.17	2839.07
416.36	2806.30
416.55	2869.50
416.74	2782.90
416.93	2822.69
417.12	2869.50
417.31	2935.03
417.50	3019.29
417.69	3054.40
417.88	2984.18
418.07	3009.93
418.26	2972.48
418.45	3143.34
418.64	3211.22
418.83	3096.53
419.02	3155.04
419.21	3178.45
419.39	3211.22
419.58	3105.89
419.77	3141.00
419.96	3206.53
420.15	3330.58
420.34	3398.46
420.53	3262.71
420.72	3276.75
420.91	3361.01
421.10	3419.52
421.29	3438.25
421.48	3227.60
421.67	3337.60
421.86	3307.18
422.05	3344.63
422.24	3370.37
422.43	3522.51
422.61	3440.59
422.80	3531.87
422.99	3559.95
423.18	3531.87
423.37	3674.64
423.56	3590.38
423.75	3597.40
423.94	3492.08
424.13	3346.97
424.32	3442.93
424.50	3449.95
424.69	3499.10
424.88	3613.79
425.07	3361.01
425.26	3433.57
425.45	3550.59
425.64	3468.67
425.83	3627.83
426.01	3653.58
426.20	3552.93
426.39	3609.11
426.58	3569.32
426.77	3616.13
426.96	3541.23
427.15	3609.11
427.33	3681.66
427.52	3588.04
427.71	3672.30
427.90	3665.28
428.09	3686.34
428.28	3695.71
428.46	3747.20
428.65	3838.48
428.84	3889.97
429.03	3742.52
429.22	3723.79
429.40	3768.26
429.59	3751.88
429.78	3475.70
429.97	3564.64
430.16	3815.07
430.34	3789.33
430.53	3932.10
430.72	3889.97
430.91	3791.67
431.10	3819.75
431.28	4016.36
431.47	3929.76
431.66	4229.35
431.85	4007.00
432.03	4208.28
432.22	4203.60
432.41	4133.39
432.60	4194.24
432.79	4114.66
432.97	4215.30
433.16	4219.99
433.35	4159.13
433.54	4201.26
433.72	4252.75
433.91	4163.81
434.10	4161.47
434.28	4315.95
434.47	4351.06
434.66	4596.81
434.85	4468.08
435.03	4315.95
435.22	4449.36
435.41	4578.09
435.59	4561.70
435.78	4468.08
435.97	4531.28
436.16	4514.89
436.34	4510.21
436.53	4589.79
436.72	4699.80
436.90	4475.10
437.09	4676.39
437.28	4524.26
437.46	4568.73
437.65	4622.56
437.84	4671.71
438.02	4575.75
438.21	4643.62
438.40	4601.49
438.58	4795.76
438.77	4968.96
438.96	4807.46
439.14	5015.77
439.33	5104.71
439.52	4938.53
439.70	4992.36
439.89	5121.09
440.08	5008.75
440.26	5090.67
440.45	5247.48
440.63	5165.56
440.82	5348.12
441.01	5233.44
441.19	5277.91
441.38	5399.62
441.57	5350.46
441.75	5404.30
441.94	5650.05
442.12	5479.19
442.31	5652.39
442.50	5589.20
442.68	5533.03
442.87	5462.81
443.05	5699.20
443.24	5783.46
443.43	5823.25
443.61	5685.16
443.80	5844.32
443.98	5551.75
444.17	5593.88
444.35	5750.70
444.54	5783.46
444.73	5741.33
444.91	5755.38
445.10	5790.49
445.28	5757.72
445.47	5708.57
445.65	5722.61
445.84	5968.37
446.02	5907.51
446.21	5696.86
446.39	5746.02
446.58	5888.79
446.77	6031.56
446.95	5893.47
447.14	5980.07
447.32	5973.05
447.51	5898.15
447.69	5858.36
447.88	5865.38
448.06	5891.13
448.25	6036.24
448.43	6087.73
448.62	5818.57
448.80	5916.87
448.99	5977.73
449.17	5949.64
449.36	6073.69
449.54	6274.98
449.73	6136.88
449.91	6221.14
450.10	6415.41
450.28	6445.84
450.46	6361.58
450.65	6305.40
450.83	6382.64
451.02	6221.14
451.20	6298.38
451.39	6363.92
451.57	6534.78
451.76	6256.25
451.94	6523.07
452.13	6691.59
452.31	6462.22
452.49	6338.17
452.68	6457.54
452.86	6499.67
453.05	6637.76
453.23	6616.69
453.42	6539.46
453.60	6506.69
453.78	6431.79
453.97	6637.76
454.15	6635.42
454.34	6555.84
454.52	6651.80
454.70	6656.48
454.89	6705.63
455.07	6675.21
455.26	6745.42
455.44	6738.40
455.62	6715.00
455.81	6904.58
455.99	6848.41
456.17	6972.46
456.36	6972.46
456.54	7108.21
456.73	7108.21
456.91	7274.38
457.09	7108.21
457.28	7433.54
457.46	7314.17
457.64	7143.32
457.83	7208.85
458.01	7075.44
458.19	7360.98
458.38	7339.92
458.56	7349.28
458.74	7368.01
458.93	7470.99
459.11	7492.05
459.29	7323.54
459.48	7644.19
459.66	7433.54
459.84	7499.08
460.03	7676.96
460.21	7679.30
460.39	7662.91
460.57	7440.56
460.76	7630.15
460.94	7662.91
461.12	7639.51
461.31	7616.10
461.49	7749.51
461.67	7672.28
461.85	7957.82
462.04	7604.40
462.22	8402.52
462.40	7957.82
462.59	7822.07
462.77	7854.84
462.95	7967.18
463.13	7894.63
463.32	8023.36
463.50	8065.49
463.68	8072.51
463.86	7995.27
464.05	7995.27
464.23	8032.72
464.41	8187.19
464.59	7950.80
464.78	8166.13
464.96	8124.00
465.14	8159.11
465.32	8023.36
465.50	8093.57
465.69	8299.54
465.87	8226.98
466.05	8276.13
466.23	8390.82
466.41	8390.82
466.60	8500.83
466.78	8210.60
466.96	8353.37
467.14	8236.35
467.32	8402.52
467.51	8505.51
467.69	8278.47
467.87	8264.43
468.05	8444.65
468.23	8313.58
468.41	8334.65
468.60	8461.04
468.78	8732.54
468.96	8638.92
469.14	8830.84
469.32	8664.66
469.50	8564.02
469.69	8603.81
469.87	8903.40
470.05	8751.26
470.23	8994.68
470.41	9071.92
470.59	9121.07
470.77	9008.72
470.95	8769.99
471.14	9116.39
471.32	8924.46
471.50	9186.60
471.68	9266.18
471.86	9343.42
472.04	9404.27
472.22	9565.77
472.40	9371.50
472.58	9469.81
472.77	9296.61
472.95	9537.68
473.13	9666.41
473.31	9586.83
473.49	9598.54
473.67	9572.79
473.85	9680.46
474.03	9886.42
474.21	9926.21
474.39	9865.36
474.57	10120.48
474.75	10008.13
474.93	10164.95
475.12	10216.44
475.30	10106.43
475.48	9844.29
475.66	10214.10
475.84	10281.97
476.02	10413.04
476.20	10270.27
476.38	10279.63
476.56	10820.30
476.74	10546.45
476.92	10675.18
477.10	10712.63
477.28	10925.62
477.46	10806.25
477.64	10714.97
477.82	11040.31
478.00	11466.28
478.18	11190.10
478.36	11213.51
478.54	11379.68
478.72	11515.44
478.90	11737.79
479.08	11637.14
479.26	11882.90
479.44	11896.94
479.62	11803.32
479.80	12067.80
479.98	12070.14
480.16	12278.45
480.34	12168.45
480.52	12683.36
480.70	12266.75
480.88	12491.44
481.06	12486.76
481.24	12655.28
481.41	12795.71
481.59	13090.62
481.77	12945.50
481.95	12854.22
482.13	12950.18
482.31	13139.77
482.49	13507.23
482.67	13305.95
482.85	13504.89
483.03	13879.38
483.21	14024.49
483.39	14038.53
483.57	13827.88
483.74	13724.90
483.92	14148.54
484.10	13994.06
484.28	14459.83
484.46	14415.36
484.64	14824.95
484.82	14546.43
485.00	14555.79
485.18	15089.43
485.35	15066.03
485.53	15056.67
485.71	15166.67
485.89	15180.71
486.07	15183.06
486.25	15529.45
486.43	15616.05
486.61	15583.29
486.78	15829.04
486.96	15873.51
487.14	16079.48
487.32	15999.90
487.50	16233.96
487.68	16449.28
487.85	16711.42
488.03	16741.85
488.21	16683.34
488.39	16992.29
488.57	16961.86
488.75	17322.30
488.92	17357.41
489.10	17390.18
489.28	17741.26
489.46	17813.82
489.64	17673.39
489.81	18298.31
489.99	18288.95
490.17	18218.73
490.35	18721.95
490.53	18427.04
490.70	18436.40
490.88	18574.49
491.06	18808.54
491.24	18925.57
491.41	19122.18
491.59	18920.89
491.77	18941.96
491.95	19489.64
492.13	19534.11
492.30	19627.73
492.48	19789.23
492.66	19765.82
492.84	20053.71
493.01	20201.16
493.19	20247.97
493.37	20205.84
493.54	20365.00
493.72	20758.21
493.90	20758.21
494.08	20800.34
494.25	21226.32
494.43	21113.97
494.61	21411.22
494.79	21411.22
494.96	20994.61
495.14	21359.73
495.32	21818.47
495.49	21902.73
495.67	21804.43
495.85	21792.73
496.02	21886.35
496.20	22328.71
496.38	22125.08
496.55	22197.64
496.73	22852.99
496.91	22284.24
497.09	22810.86
497.26	22944.27
497.44	23033.21
497.62	22848.31
497.79	23236.84
497.97	23180.67
498.14	23391.31
498.32	23489.62
498.50	23482.59
498.67	23672.18
498.85	23990.49
499.03	23735.37
499.20	24313.48
499.38	23782.18
499.56	24105.18
499.73	24374.34
499.91	24116.88
500.08	24472.64
500.26	24404.77
500.44	24837.76
500.61	24554.56
500.79	24421.15
500.97	24758.19
501.14	25074.16
501.32	25172.46
501.49	24842.45
501.67	24982.88
501.84	25177.14
502.02	25371.41
502.20	25678.02
502.37	25434.60
502.55	25649.93
502.72	25715.47
502.90	25986.97
503.07	25600.78
503.25	25687.38
503.43	25734.19
503.60	26103.99
503.78	26354.43
503.95	25965.90
504.13	26010.37
504.30	26366.13
504.48	26221.02
504.65	26228.04
504.83	26721.90
505.01	26686.79
505.18	26782.75
505.36	26857.65
505.53	27143.19
505.71	27182.98
505.88	27342.14
506.06	27164.26
506.23	27316.39
506.41	27271.92
506.58	27271.92
506.76	27775.14
506.93	27641.73
507.11	27365.54
507.28	28084.09
507.46	28180.05
507.63	27852.38
507.81	28189.41
507.98	27864.08
508.16	28126.22
508.33	28329.84
508.50	28409.42
508.68	28308.78
508.85	28547.51
509.03	28840.08
509.20	28577.94
509.38	28950.09
509.55	28889.23
509.73	29006.26
509.90	29172.44
510.08	29055.41
510.25	29071.79
510.42	29270.74
510.60	29600.76
510.77	29387.77
510.95	30019.71
511.12	29495.43
511.30	29635.86
511.47	29869.92
511.64	29692.04
511.82	29965.88
511.99	29654.59
512.17	30181.21
512.34	29792.68
512.51	30129.72
512.69	30183.55
512.86	30384.83
513.04	30595.48
513.21	30546.33
513.38	30581.44
513.56	30553.35
513.73	30749.96
513.90	30801.45
514.08	30792.09
514.25	30869.33
514.43	30794.43
514.60	30586.12
514.77	30639.95
514.95	31147.85
515.12	31119.76
515.29	31079.97
515.47	31651.06
515.64	31398.29
515.81	31000.40
515.99	31531.70
516.16	31538.72
516.33	31674.47
516.51	31690.85
516.68	30962.95
516.85	31683.83
517.03	31721.28
517.20	31761.07
517.37	31974.06
517.54	32208.11
517.72	31997.46
517.89	32027.89
518.06	32472.59
518.24	32067.68
518.41	31924.91
518.58	32393.01
518.75	32313.44
518.93	32355.57
519.10	32563.87
519.27	32620.05
519.45	32655.15
519.62	32884.53
519.79	33010.92
519.96	33226.24
520.14	33074.11
520.31	33237.95
520.48	33057.73
520.65	33146.67
520.83	33699.03
521.00	33195.82
521.17	33785.63
521.34	33364.34
521.52	33479.02
521.69	33832.44
521.86	33467.32
522.03	33926.07
522.20	34045.43
522.38	34232.68
522.55	34227.99
522.72	34120.33
522.89	34101.61
523.07	34235.02
523.24	34220.97
523.41	34347.36
523.58	34286.51
523.75	34742.91
523.92	34642.27
524.10	34763.98
524.27	34506.52
524.44	34721.85
524.61	34714.83
524.78	35318.68
524.96	35388.90
525.13	35412.31
525.30	35519.97
525.47	35637.00
525.64	35096.33
525.81	35058.88
525.98	35239.11
526.16	34965.26
526.33	34859.94
526.50	35344.43
526.67	35559.76
526.84	35416.99
527.01	35098.67
527.18	35215.70
527.36	35686.15
527.53	36046.59
527.70	36044.25
527.87	36006.80
528.04	36051.27
528.21	36343.84
528.38	36034.89
528.55	36156.60
528.72	36500.65
528.89	36748.75
529.07	36582.57
529.24	35871.05
529.41	36928.97
529.58	36634.06
529.75	36388.31
529.92	36435.12
530.09	37074.09
530.26	36678.54
530.43	36968.76
530.60	36376.61
530.77	36767.48
530.94	36961.74
531.11	36919.61
531.28	37493.04
531.46	36816.63
531.63	37069.40
531.80	36980.46
531.97	37118.56
532.14	36931.31
532.31	37113.87
532.48	37752.84
532.65	37923.70
532.82	37270.69
532.99	37460.27
533.16	37483.68
533.33	37596.03
533.50	37720.07
533.67	37699.01
533.84	37453.25
534.01	37703.69
534.18	37797.31
534.35	37912.00
534.52	37324.52
534.69	38412.87
534.86	38232.65
535.03	37745.82
535.20	38181.16
535.37	38263.08
535.54	38422.23
535.71	37883.91
535.88	38106.26
536.05	38148.39
536.22	38457.34
536.38	38359.04
536.55	38340.32
536.72	38597.77
536.89	38127.33
537.06	38909.07
537.23	38352.02
537.40	38497.13
537.57	38649.27
537.74	38532.24
537.91	39346.75
538.08	39173.55
538.25	38326.27
538.42	38923.11
538.59	38822.47
538.75	38459.68
538.92	38962.90
539.09	39276.53
539.26	39093.97
539.43	38986.30
539.60	39049.50
539.77	39152.48
539.94	39304.62
540.11	39096.31
540.28	39264.83
540.44	39522.29
540.61	39541.01
540.78	39419.30
540.95	39405.26
541.12	39487.18
541.29	39367.81
541.46	39480.16
541.62	39566.76
541.79	39798.47
541.96	39562.08
542.13	39229.72
542.30	40102.74
542.47	39798.47
542.63	39913.16
542.80	40224.45
542.97	40638.72
543.14	40580.21
543.31	39896.77
543.48	40683.19
543.64	40524.04
543.81	40240.83
543.98	40837.67
544.15	40198.70
544.32	40608.29
544.48	40779.15
544.65	40783.83
544.82	40608.29
544.99	40486.59
545.16	40872.78
545.32	40563.82
545.49	40950.01
545.66	40673.83
545.83	40900.86
546.00	41270.67
546.16	40622.34
546.33	40765.11
546.50	40320.41
546.67	41226.20
546.83	40299.34
547.00	41001.50
547.17	40835.33
547.34	41345.56
547.50	41467.27
547.67	41652.17
547.84	41432.16
548.00	41743.45
548.17	41486.00
548.34	41258.96
548.51	41762.18
548.67	41518.76
548.84	41464.93
549.01	41633.45
549.18	41095.13
549.34	41872.18
549.51	41635.79
549.68	41951.76
549.84	41326.84
550.01	41823.03
550.18	41713.03
550.34	41668.56
550.51	41464.93
550.68	41694.30
550.84	40966.40
551.01	41771.54
551.18	42164.75
551.34	42197.52
551.51	42033.68
551.68	42094.53
551.84	42307.52
552.01	42167.09
552.18	41907.29
552.34	42007.94
552.51	42148.37
552.68	42251.35
552.84	42387.10
553.01	42429.23
553.18	42139.00
553.34	42330.93
553.51	42218.58
553.67	42394.12
553.84	43138.41
554.01	42710.10
554.17	42555.62
554.34	42616.47
554.51	42895.00
554.67	43107.99
554.84	42244.33
555.00	42330.93
555.17	42658.60
555.33	42815.42
555.50	42866.91
555.67	42401.14
555.83	42733.50
556.00	42803.72
556.16	43328.00
556.33	42801.38
556.50	43416.94
556.66	43285.87
556.83	42766.27
556.99	43342.04
557.16	42941.81
557.32	42934.79
557.49	42983.94
557.65	42817.76
557.82	42906.70
557.98	42880.95
558.15	43138.41
558.32	43269.48
558.48	43203.95
558.65	43210.97
558.81	42923.08
558.98	42838.83
559.14	43381.83
559.31	43522.26
559.47	42770.95
559.64	43690.78
559.80	43587.80
559.97	43508.22
560.13	43304.59
560.30	43484.81
560.46	43545.67
560.63	43475.45
560.79	43304.59
560.96	43566.73
561.12	43161.82
561.29	43302.25
561.45	43447.36
561.61	43498.86
561.78	43421.62
561.94	43613.54
562.11	43311.61
562.27	43742.27
562.44	43632.27
562.60	44079.31
562.77	44053.56
562.93	43800.79
563.10	43803.13
563.26	43538.65
563.42	43777.38
563.59	43550.35
563.75	43622.90
563.92	43658.01
564.08	43873.34
564.24	44130.80
564.41	44189.31
564.57	43948.24
564.74	43569.07
564.90	43990.37
565.07	44128.46
565.23	43693.12
565.39	43924.83
565.56	44304.00
565.72	43856.96
565.88	43892.07
566.05	44065.27
566.21	43840.57
566.38	43704.82
566.54	43817.17
566.70	43709.50
566.87	44392.94
567.03	44156.55
567.19	44367.20
567.36	43962.28
567.52	43676.74
567.68	44404.64
567.85	43807.81
568.01	43966.96
568.17	44451.45
568.34	44179.95
568.50	44074.63
568.66	44226.76
568.83	43714.19
568.99	43868.66
569.15	44191.65
569.32	43749.29
569.48	44126.12
569.64	44301.66
569.81	44062.93
569.97	43669.72
570.13	44016.11
570.30	44072.29
570.46	44215.06
570.62	44299.32
570.78	44226.76
570.95	44257.19
571.11	44706.57
571.27	44332.09
571.43	43931.86
571.60	44299.32
571.76	44215.06
571.92	44126.12
572.09	43910.79
572.25	44692.53
572.41	44343.79
572.57	44430.39
572.74	44669.12
572.90	44460.82
573.06	44385.92
573.22	44170.59
573.38	44161.23
573.55	43973.98
573.71	44385.92
573.87	44212.72
574.03	44163.57
574.20	44470.18
574.36	44245.49
574.52	44341.45
574.68	44580.18
574.84	44596.57
575.01	44098.03
575.17	44186.97
575.33	44266.55
575.49	44371.88
575.65	44545.08
575.82	44751.04
575.98	44615.29
576.14	44926.58
576.30	44273.57
576.46	44369.54
576.62	44336.77
576.79	44074.63
576.95	44107.40
577.11	44481.88
577.27	44154.21
577.43	44519.33
577.59	44294.64
577.75	44205.70
577.92	44065.27
578.08	44470.18
578.24	44018.46
578.40	44151.87
578.56	44381.24
578.72	44619.97
578.88	44776.79
579.04	44877.43
579.21	44357.83
579.37	44528.69
579.53	44318.04
579.69	44423.37
579.85	44343.79
580.01	44416.35
580.17	44638.70
580.33	44835.30
580.49	44484.22
580.65	44636.36
580.82	44933.60
580.98	44460.82
581.14	44472.52
581.30	44839.98
581.46	44142.50
581.62	44591.89
581.78	44650.40
581.94	45148.93
582.10	44800.19
582.26	44945.31
582.42	44706.57
582.58	44615.29
582.74	44584.86
582.90	44734.66
583.06	44516.99
583.22	45111.49
583.38	44917.22
583.54	44453.79
583.70	44453.79
583.86	44648.06
584.02	44254.85
584.18	44205.70
584.34	44732.32
584.50	44804.88
584.66	44626.99
584.82	44474.86
584.98	44584.86
585.14	44903.18
585.30	44538.05
585.46	44463.16
585.62	44165.91
585.78	44505.29
585.94	44385.92
586.10	44208.04
586.26	44285.28
586.42	44741.68
586.58	44701.89
586.74	44769.77
586.90	44516.99
587.06	44329.75
587.22	44760.40
587.38	44514.65
587.54	44968.71
587.70	45062.33
587.86	44917.22
588.02	44629.34
588.18	44849.35
588.34	44615.29
588.49	44603.59
588.65	44732.32
588.81	44142.50
588.97	44755.72
589.13	44355.49
589.29	44687.85
589.45	44619.97
589.61	44692.53
589.77	45500.01
589.93	45013.18
590.08	45509.38
590.24	44942.97
