SpectraSuite Data File
++++++++++++++++++++++++++++++++++++
Date: Fri Oct 25 11:25:06 EDT 2013
User: price-jones
Dark Spectrum Present: No
Reference Spectrum Present: No
Number of Sampled Component Spectra: 1
Spectrometers: USB2+H05261
Integration Time (usec): 100000 (USB2+H05261)
Spectra Averaged: 1 (USB2+H05261)
Boxcar Smoothing: 0 (USB2+H05261)
Correct for Electrical Dark: No (USB2+H05261)
Strobe/Lamp Enabled: No (USB2+H05261)
Correct for Detector Non-linearity: No (USB2+H05261)
Correct for Stray Light: No (USB2+H05261)
Number of Pixels in Processed Spectrum: 2048
>>>>>Begin Processed Spectral Data<<<<<
365.73	166.18
365.92	166.18
366.12	166.18
366.32	86.60
366.52	170.86
366.72	105.32
366.91	84.26
367.11	84.26
367.31	86.60
367.51	161.50
367.70	131.07
367.90	187.24
368.10	168.52
368.30	187.24
368.49	77.24
368.69	159.16
368.89	196.60
369.09	189.58
369.28	86.60
369.48	194.26
369.68	220.01
369.87	205.97
370.07	145.11
370.27	203.63
370.47	301.93
370.66	540.66
370.86	648.33
371.06	648.33
371.25	741.95
371.45	683.44
371.65	617.90
371.84	699.82
372.04	739.61
372.24	723.23
372.44	681.10
372.63	653.01
372.83	774.72
373.03	692.80
373.22	711.52
373.42	753.65
373.62	725.57
373.81	814.51
374.01	835.57
374.21	809.83
374.40	819.19
374.60	765.36
374.79	873.02
374.99	837.91
375.19	856.64
375.38	898.77
375.58	828.55
375.78	828.55
375.97	905.79
376.17	821.53
376.37	851.96
376.56	861.32
376.76	788.76
376.95	856.64
377.15	910.47
377.35	777.06
377.54	926.85
377.74	833.23
377.93	816.85
378.13	912.81
378.33	957.28
378.52	877.70
378.72	910.47
378.91	952.60
379.11	1013.45
379.31	884.72
379.50	901.11
379.70	912.81
379.89	950.26
380.09	961.96
380.28	983.02
380.48	980.68
380.68	940.90
380.87	966.64
381.07	990.05
381.26	1088.35
381.46	966.64
381.65	1048.56
381.85	1090.69
382.04	1041.54
382.24	922.17
382.43	1081.33
382.63	1071.97
382.83	983.02
383.02	1039.20
383.22	1132.82
383.41	1053.24
383.61	1057.92
383.80	1095.37
384.00	1102.39
384.19	1097.71
384.39	1034.52
384.58	1179.63
384.78	1174.95
384.97	1142.18
385.17	1172.61
385.36	1207.72
385.56	1240.48
385.75	1210.06
385.95	1263.89
386.14	1256.87
386.34	1191.33
386.53	1170.27
386.72	1207.72
386.92	1266.23
387.11	1196.01
387.31	1247.51
387.50	1184.31
387.70	1186.65
387.89	1226.44
388.09	1210.06
388.28	1315.38
388.48	1170.27
388.67	1256.87
388.86	1324.74
389.06	1334.11
389.25	1376.24
389.45	1336.45
389.64	1334.11
389.84	1399.64
390.03	1376.24
390.22	1362.19
390.42	1394.96
390.61	1380.92
390.81	1366.87
391.00	1336.45
391.19	1420.71
391.39	1495.60
391.58	1371.55
391.78	1453.47
391.97	1469.86
392.16	1467.52
392.36	1547.09
392.55	1448.79
392.75	1549.43
392.94	1481.56
393.13	1551.78
393.33	1528.37
393.52	1558.80
393.71	1572.84
393.91	1561.14
394.10	1547.09
394.29	1528.37
394.49	1540.07
394.68	1596.25
394.88	1720.29
395.07	1668.80
395.26	1645.40
395.46	1614.97
395.65	1659.44
395.84	1799.87
396.04	1914.56
396.23	1748.38
396.42	1732.00
396.62	1724.97
396.81	1788.17
397.00	1734.34
397.19	1746.04
397.39	1734.34
397.58	1788.17
397.77	1813.92
397.97	1895.83
398.16	1790.51
398.35	1952.01
398.55	1804.55
398.74	1935.62
398.93	1877.11
399.12	1947.33
399.32	1977.75
399.51	1863.07
399.70	2003.50
399.90	1921.58
400.09	1949.67
400.28	1970.73
400.47	2008.18
400.67	2033.93
400.86	2066.69
401.05	2120.53
401.24	2214.15
401.44	2150.95
401.63	2129.89
401.82	2127.55
402.01	2118.18
402.21	2167.34
402.40	2244.57
402.59	2179.04
402.78	2143.93
402.97	2162.66
403.17	2345.22
403.36	2174.36
403.55	2303.09
403.74	2335.85
403.93	2300.75
404.13	2422.45
404.32	2291.38
404.51	2380.32
404.70	2438.84
404.89	2445.86
405.09	2469.27
405.28	2452.88
405.47	2572.25
405.66	2492.67
405.85	2511.39
406.05	2462.24
406.24	2619.06
406.43	2499.69
406.62	2635.44
406.81	2621.40
407.00	2588.63
407.20	2509.05
407.39	2609.70
407.58	2761.83
407.77	2686.94
407.96	2764.17
408.15	2722.04
408.34	2752.47
408.54	2729.06
408.73	2810.98
408.92	2780.56
409.11	2843.75
409.30	2897.58
409.49	2909.29
409.68	2885.88
409.87	2778.22
410.07	3014.61
410.26	3038.02
410.45	2942.05
410.64	3033.33
410.83	3040.36
411.02	3166.74
411.21	3073.12
411.40	3164.40
411.59	3164.40
411.78	3070.78
411.98	3162.06
412.17	3283.77
412.36	3288.45
412.55	3377.39
412.74	3433.57
412.93	3405.48
413.12	3309.52
413.31	3501.44
413.50	3506.12
413.69	3548.25
413.88	3686.34
414.07	3588.04
414.26	3648.90
414.45	3571.66
414.64	3702.73
414.83	3779.97
415.02	3836.14
415.22	3765.92
415.41	3812.73
415.60	3882.95
415.79	3843.16
415.98	4051.47
416.17	3882.95
416.36	3906.35
416.55	3901.67
416.74	3960.19
416.93	4044.45
417.12	4133.39
417.31	4140.41
417.50	4180.20
417.69	4227.01
417.88	4320.63
418.07	4138.07
418.26	4344.03
418.45	4283.18
418.64	4475.10
418.83	4514.89
419.02	4334.67
419.21	4528.94
419.39	4374.46
419.58	4477.44
419.77	4365.10
419.96	4475.10
420.15	4608.51
420.34	4566.39
420.53	4498.51
420.72	4629.58
420.91	4587.45
421.10	4863.63
421.29	4678.73
421.48	4678.73
421.67	4793.42
421.86	4800.44
422.05	4842.57
422.24	4875.34
422.43	4877.68
422.61	4868.31
422.80	4837.89
422.99	4795.76
423.18	4863.63
423.37	4954.91
423.56	4983.00
423.75	4868.31
423.94	4877.68
424.13	4627.24
424.32	4683.41
424.50	4882.36
424.69	4999.38
424.88	4908.10
425.07	4975.98
425.26	4807.46
425.45	4975.98
425.64	4933.85
425.83	4880.02
426.01	5151.52
426.20	5043.85
426.39	4943.21
426.58	4973.64
426.77	4971.30
426.96	5121.09
427.15	5025.13
427.33	5364.51
427.52	5125.77
427.71	5221.74
427.90	5291.95
428.09	5369.19
428.28	5327.06
428.46	5474.51
428.65	5266.21
428.84	5413.66
429.03	5561.11
429.22	5404.30
429.40	5441.75
429.59	5385.57
429.78	5310.68
429.97	5266.21
430.16	5502.60
430.34	5439.40
430.53	5678.14
430.72	5598.56
430.91	5605.58
431.10	5589.20
431.28	5668.78
431.47	5738.99
431.66	5727.29
431.85	5743.67
432.03	5760.06
432.22	5839.64
432.41	5959.00
432.60	5893.47
432.79	5926.24
432.97	5977.73
433.16	6106.46
433.35	5919.21
433.54	6054.97
433.72	6136.88
433.91	5954.32
434.10	6069.01
434.28	6155.61
434.47	6113.48
434.66	6267.95
434.85	6246.89
435.03	6410.73
435.22	6354.55
435.41	6392.00
435.59	6441.15
435.78	6382.64
435.97	6420.09
436.16	6429.45
436.34	6487.96
436.53	6576.91
436.72	6509.03
436.90	6338.17
437.09	6661.16
437.28	6555.84
437.46	6658.82
437.65	6544.14
437.84	6895.22
438.02	6733.72
438.21	6707.98
438.40	6567.54
438.58	6923.30
438.77	7066.08
438.96	6869.47
439.14	7171.40
439.33	7201.83
439.52	7169.06
439.70	7173.74
439.89	7419.50
440.08	7456.95
440.26	7487.37
440.45	7208.85
440.63	7449.93
440.82	7492.05
441.01	7438.22
441.19	7382.05
441.38	7707.38
441.57	7716.75
441.75	7730.79
441.94	7852.50
442.12	7896.97
442.31	7798.66
442.50	7957.82
442.68	7824.41
442.87	7896.97
443.05	7988.25
443.24	8098.25
443.43	8201.24
443.61	8116.98
443.80	8194.22
443.98	8042.08
444.17	7885.26
444.35	8035.06
444.54	8339.33
444.73	8046.76
444.91	8315.92
445.10	8219.96
445.28	8304.22
445.47	8121.66
445.65	8308.90
445.84	8264.43
446.02	8346.35
446.21	8491.46
446.39	8454.02
446.58	8369.76
446.77	8404.86
446.95	8198.90
447.14	8194.22
447.32	8407.20
447.51	8365.07
447.69	8336.99
447.88	8407.20
448.06	8596.79
448.25	8489.12
448.43	8582.74
448.62	8414.23
448.80	8428.27
448.99	8559.34
449.17	8699.77
449.36	8659.98
449.54	8945.53
449.73	8933.82
449.91	8933.82
450.10	8744.24
450.28	9092.98
450.46	8966.59
450.65	8894.04
450.83	9020.42
451.02	9125.75
451.20	9123.41
451.39	9118.73
451.57	9085.96
451.76	8971.27
451.94	9048.51
452.13	9345.76
452.31	9261.50
452.49	9092.98
452.68	9291.93
452.86	9142.13
453.05	9289.59
453.23	9352.78
453.42	9186.60
453.60	9380.87
453.78	9437.04
453.97	9298.95
454.15	9439.38
454.34	9507.26
454.52	9525.98
454.70	9507.26
454.89	9678.12
455.07	9706.20
455.26	9884.08
455.44	9872.38
455.62	10031.54
455.81	9760.03
455.99	9970.68
456.17	10024.51
456.36	10019.83
456.54	9980.04
456.73	10246.87
456.91	10312.40
457.09	10441.13
457.28	10497.30
457.46	10422.41
457.64	10572.20
457.83	10422.41
458.01	10249.21
458.19	10689.23
458.38	10443.47
458.56	10696.25
458.74	10576.88
458.93	10705.61
459.11	10668.16
459.29	10738.38
459.48	10796.89
459.66	10897.53
459.84	11012.22
460.03	11026.26
460.21	10822.64
460.39	10745.40
460.57	10794.55
460.76	10988.82
460.94	11250.96
461.12	11171.38
461.31	11300.11
461.49	11056.69
461.67	11178.40
461.85	11611.40
462.04	11164.36
462.22	11695.66
462.40	11325.85
462.59	11543.52
462.77	11370.32
462.95	11428.84
463.13	11470.97
463.32	11494.37
463.50	11831.41
463.68	11595.01
463.86	11777.58
464.05	11634.80
464.23	11625.44
464.41	11648.85
464.59	11749.49
464.78	11978.86
464.96	12063.12
465.14	11693.32
465.32	11815.02
465.50	11854.81
465.69	12067.80
465.87	12140.36
466.05	11957.80
466.23	12018.65
466.41	12065.46
466.60	12341.64
466.78	11763.53
466.96	12016.31
467.14	12390.80
467.32	12304.20
467.51	12397.82
467.69	12159.08
467.87	12343.99
468.05	12631.87
468.23	12161.42
468.41	12248.02
468.60	12589.74
468.78	12685.70
468.96	12601.44
469.14	12446.97
469.32	13008.70
469.50	12596.76
469.69	12989.97
469.87	13004.02
470.05	13104.66
470.23	12954.87
470.41	12870.61
470.59	13067.21
470.77	13418.29
470.95	13118.70
471.14	13476.80
471.32	12830.82
471.50	13324.67
471.68	13451.06
471.86	13390.20
472.04	13633.62
472.22	13937.89
472.40	13666.39
472.58	13762.35
472.77	13872.36
472.95	14113.43
473.13	14487.92
473.31	13841.93
473.49	14022.15
473.67	14178.97
473.85	14225.78
474.03	14707.93
474.21	14443.45
474.39	14712.61
474.57	14579.20
474.75	14857.72
474.93	14913.89
475.12	14593.24
475.30	14941.98
475.48	14874.10
475.66	15220.50
475.84	15084.75
476.02	15229.87
476.20	15234.55
476.38	15466.26
476.56	15770.53
476.74	15859.47
476.92	15620.74
477.10	15625.42
477.28	16013.95
477.46	15866.49
477.64	16194.17
477.82	16554.61
478.00	16669.30
478.18	16847.18
478.36	17078.89
478.54	16882.28
478.72	17191.23
478.90	17069.53
479.08	17114.00
479.26	17521.25
479.44	17547.00
479.62	17731.90
479.80	18001.06
479.98	18207.03
480.16	18408.31
480.34	18099.36
480.52	18429.38
480.70	18391.93
480.88	17884.03
481.06	18375.55
481.24	18647.05
481.41	19087.07
481.59	19435.81
481.77	19047.28
481.95	19295.38
482.13	19372.61
482.31	19538.79
482.49	19899.23
482.67	20212.87
482.85	20423.51
483.03	20453.94
483.21	20425.86
483.39	20966.52
483.57	20830.77
483.74	20938.43
483.92	21174.83
484.10	21067.16
484.28	21799.75
484.46	21996.35
484.64	22284.24
484.82	21696.77
485.00	22026.78
485.18	22405.95
485.35	22953.63
485.53	22373.18
485.71	23063.64
485.89	23623.03
486.07	23201.73
486.25	23180.67
486.43	23506.00
486.61	23910.91
486.78	23779.84
486.96	24079.43
487.14	24573.28
487.32	24273.70
487.50	24760.53
487.68	24395.40
487.85	25373.75
488.03	25443.96
488.21	25532.90
488.39	25507.16
488.57	26073.57
488.75	25776.32
488.92	26059.52
489.10	26431.67
489.28	26546.36
489.46	26803.82
489.64	26820.20
489.81	27477.89
489.99	27531.72
490.17	27681.52
490.35	28149.62
490.53	27981.10
490.70	28629.43
490.88	27938.97
491.06	28428.15
491.24	28063.02
491.41	28968.81
491.59	28985.19
491.77	29352.66
491.95	29523.52
492.13	29385.43
492.30	29696.72
492.48	29633.52
492.66	30022.05
492.84	30019.71
493.01	30466.75
493.19	30302.92
493.37	30932.52
493.54	30892.73
493.72	31185.30
493.90	31192.32
494.08	31323.39
494.25	31648.72
494.43	31875.76
494.61	32130.87
494.79	32432.80
494.96	32140.24
495.14	32266.63
495.32	32957.08
495.49	33039.00
495.67	33060.07
495.85	33549.24
496.02	33429.87
496.20	34150.76
496.38	33418.17
496.55	33628.82
496.73	34773.34
496.91	34426.94
497.09	34560.35
497.26	34164.80
497.44	34345.02
497.62	35393.58
497.79	35606.57
497.97	35274.21
498.14	35782.11
498.32	35578.48
498.50	36238.51
498.67	35967.01
498.85	36432.78
499.03	36465.55
499.20	36453.84
499.38	36369.58
499.56	36933.65
499.73	37139.62
499.91	37172.39
500.08	37516.45
500.26	37141.96
500.44	37240.26
500.61	37626.45
500.79	37530.49
500.97	38003.28
501.14	38333.29
501.32	38698.42
501.49	38476.07
501.67	38359.04
501.84	38941.83
502.02	38452.66
502.20	38820.13
502.37	39007.37
502.55	38990.98
502.72	39407.60
502.90	39398.24
503.07	39372.49
503.25	39700.17
503.43	39526.97
503.60	39945.92
503.78	39592.50
503.95	40067.63
504.13	40257.21
504.30	40671.49
504.48	40467.86
504.65	40580.21
504.83	40643.40
505.01	40994.48
505.18	40989.80
505.36	41577.28
505.53	41179.39
505.71	41284.71
505.88	41282.37
506.06	41088.10
506.23	41862.82
506.41	42014.96
506.58	41975.17
506.76	42059.43
506.93	42181.13
507.11	42073.47
507.28	42309.86
507.46	42363.70
507.63	42525.19
507.81	43145.44
507.98	42241.99
508.16	43079.90
508.33	42941.81
508.50	43246.08
508.68	43122.03
508.85	43613.54
509.03	43419.28
509.20	44222.08
509.38	44282.94
509.55	44142.50
509.73	44472.52
509.90	44619.97
510.08	44350.81
510.25	44423.37
510.42	44285.28
510.60	44498.26
510.77	45111.49
510.95	45008.50
511.12	44533.37
511.30	45006.16
511.47	45226.17
511.64	45146.59
511.82	45591.30
511.99	45696.62
512.17	45984.51
512.34	45734.07
512.51	46120.26
512.69	46232.60
512.86	46089.83
513.04	46366.01
513.21	46705.39
513.38	46445.59
513.56	46714.75
513.73	46927.74
513.90	46499.42
514.08	46618.79
514.25	47040.09
514.43	47189.88
514.60	47391.17
514.77	46983.91
514.95	47461.38
515.12	47281.16
515.29	47426.28
515.47	47557.35
515.64	48016.09
515.81	47466.06
515.99	47852.25
516.16	47978.64
516.33	47913.11
516.51	48514.62
516.68	48341.42
516.85	48411.64
517.03	48720.59
517.20	48594.20
517.37	48399.94
517.54	48636.33
517.72	49118.48
517.89	49057.63
518.06	48839.96
518.24	49027.20
518.41	48818.89
518.58	49104.44
518.75	48914.86
518.93	49502.33
519.10	49209.76
519.27	49525.74
519.45	49076.35
519.62	50007.89
519.79	49537.44
519.96	49853.41
520.14	49673.19
520.31	49773.83
520.48	50148.32
520.65	50241.94
520.83	50513.44
521.00	50667.92
521.17	50066.40
521.34	50075.76
521.52	50688.98
521.69	50433.86
521.86	50696.00
522.03	51063.47
522.20	51182.84
522.38	51028.36
522.55	51143.05
522.72	50845.80
522.89	51311.56
523.07	51646.26
523.24	51330.29
523.41	51653.28
523.58	51171.13
523.75	51613.49
523.92	51896.70
524.10	51847.55
524.27	51833.50
524.44	51882.66
524.61	51655.62
524.78	52116.71
524.96	52016.07
525.13	52355.44
525.30	52547.37
525.47	52215.01
525.64	52334.38
525.81	52271.18
525.98	52512.26
526.16	52678.44
526.33	52626.95
526.50	52968.66
526.67	52523.96
526.84	52561.41
527.01	52582.48
527.18	52547.37
527.36	53008.45
527.53	52837.59
527.70	53151.23
527.87	53137.18
528.04	53144.20
528.21	52900.79
528.38	53055.26
528.55	53387.62
528.72	53233.14
528.89	53474.22
529.07	52973.34
529.24	53324.43
529.41	53380.60
529.58	53563.16
529.75	53448.47
529.92	53626.35
530.09	53439.11
530.26	53731.68
530.43	53567.84
530.60	53558.48
530.77	53591.25
530.94	53832.32
531.11	53801.89
531.28	54003.18
531.46	54068.72
531.63	54176.38
531.80	54096.80
531.97	54293.41
532.14	54529.80
532.31	54089.78
532.48	54312.13
532.65	54403.41
532.82	54188.08
532.99	54487.67
533.16	54426.82
533.33	54710.02
533.50	54836.41
533.67	54663.21
533.84	54403.41
534.01	54651.51
534.18	54616.40
534.35	55103.23
534.52	54754.49
534.69	55241.32
534.86	55363.03
535.03	54962.80
535.20	54923.01
535.37	55208.56
535.54	55096.21
535.71	55028.34
535.88	55278.77
536.05	55339.63
536.22	55547.93
536.38	55639.22
536.55	55393.46
536.72	55255.37
536.89	55299.84
537.06	55477.72
537.23	55634.53
537.40	55498.78
537.57	55519.85
537.74	55536.23
537.91	55796.03
538.08	55817.10
538.25	55620.49
538.42	55629.85
538.59	55952.85
538.75	55674.32
538.92	55894.33
539.09	55927.10
539.26	56119.02
539.43	55908.38
539.60	56006.68
539.77	55803.05
539.94	56289.88
540.11	56296.91
540.28	56142.43
540.44	56006.68
540.61	56217.33
540.78	56355.42
540.95	56369.46
541.12	56317.97
541.29	56158.81
541.46	56413.93
541.62	56299.25
541.79	56310.95
541.96	56175.20
542.13	56350.74
542.30	56360.10
542.47	56673.73
542.63	57015.45
542.80	56704.16
542.97	57045.88
543.14	57008.43
543.31	57052.90
543.48	57132.48
543.64	57387.60
543.81	57291.63
543.98	57123.11
544.15	56905.44
544.32	57558.45
544.48	57331.42
544.65	57190.99
544.82	57132.48
544.99	57123.11
545.16	57523.35
545.32	57221.42
545.49	57467.17
545.66	57429.72
545.83	57382.91
546.00	57666.12
546.16	57434.41
546.33	57303.34
546.50	57448.45
546.67	57607.61
546.83	57303.34
547.00	57485.90
547.17	57546.75
547.34	57535.05
547.50	57799.53
547.67	57897.83
547.84	57790.17
548.00	57982.09
548.17	58087.42
548.34	57921.24
548.51	58124.86
548.67	58124.86
548.84	57836.98
549.01	57904.85
549.18	57961.03
549.34	58073.37
549.51	58232.53
549.68	58141.25
549.84	58195.08
550.01	58197.42
550.18	58204.44
550.34	58412.75
550.51	58398.71
550.68	58169.33
550.84	58110.82
551.01	58307.43
551.18	58501.69
551.34	58230.19
551.51	58571.91
551.68	58365.94
551.84	58389.34
552.01	58398.71
552.18	58674.89
552.34	58494.67
552.51	58459.56
552.68	58611.70
552.84	58623.40
553.01	58922.99
553.18	58459.56
553.34	58616.38
553.51	58667.87
553.67	58695.95
553.84	58653.82
554.01	58871.49
554.17	58801.28
554.34	58911.28
554.51	58899.58
554.67	59016.61
554.84	58937.03
555.00	58951.07
555.17	58857.45
555.33	59086.82
555.50	58705.32
555.67	58738.08
555.83	58990.86
556.00	59175.76
556.16	59164.06
556.33	59131.29
556.50	59206.19
556.66	59295.13
556.83	58941.71
556.99	59379.39
557.16	59208.53
557.32	59412.16
557.49	59671.96
557.65	59035.33
557.82	59370.03
557.98	59075.12
558.15	59402.80
558.32	59253.00
558.48	59126.61
558.65	59388.75
558.81	59454.29
558.98	59601.74
559.14	59409.82
559.31	59341.94
559.47	59561.95
559.64	59557.27
559.80	59547.91
559.97	59737.49
560.13	59379.39
560.30	59306.83
560.46	59674.30
560.63	59688.34
560.79	59791.33
560.96	59704.73
561.12	59774.94
561.29	59798.35
561.45	59683.66
561.61	59606.42
561.78	59817.07
561.94	59573.66
562.11	59632.17
562.27	59669.62
562.44	60055.81
562.60	59849.84
562.77	59894.31
562.93	59526.84
563.10	59950.48
563.26	59721.11
563.42	60006.65
563.59	59835.80
563.75	59709.41
563.92	59793.67
564.08	59898.99
564.24	59852.18
564.41	59896.65
564.57	60053.47
564.74	60130.70
564.90	60079.21
565.07	59938.78
565.23	60067.51
565.39	59990.27
565.56	60116.66
565.72	60006.65
565.88	60137.72
566.05	60074.53
566.21	59924.74
566.38	60130.70
566.54	60069.85
566.70	60238.37
566.87	60196.24
567.03	60177.51
567.19	60177.51
567.36	60154.11
567.52	60238.37
567.68	60498.17
567.85	60198.58
568.01	60425.61
568.17	60158.79
568.34	60313.26
568.50	60374.12
568.66	60299.22
568.83	60331.99
568.99	60128.36
569.15	60273.48
569.32	60135.38
569.48	60434.97
569.64	60409.23
569.81	60423.27
569.97	60252.41
570.13	60186.88
570.30	60186.88
570.46	60268.79
570.62	60470.08
570.78	60210.28
570.95	60264.11
571.11	60662.00
571.27	60376.46
571.43	60460.72
571.60	60584.77
571.76	60221.98
571.92	60364.76
572.09	60601.15
572.25	60552.00
572.41	60465.40
572.57	60575.40
572.74	60404.55
572.90	60413.91
573.06	60638.60
573.22	60432.63
573.38	60549.66
573.55	60591.79
573.71	60544.98
573.87	60748.60
574.03	60364.76
574.20	60472.42
574.36	60397.52
574.52	60500.51
574.68	60362.42
574.84	60757.97
575.01	60598.81
575.17	60486.46
575.33	60437.31
575.49	60596.47
575.65	60692.43
575.82	60512.21
575.98	60690.09
576.14	60865.63
576.30	60692.43
576.46	60594.13
576.62	60732.22
576.79	60577.75
576.95	60544.98
577.11	60718.18
577.27	60867.97
577.43	60626.90
577.59	60444.33
577.75	60757.97
577.92	60317.95
578.08	60552.00
578.24	60842.23
578.40	60736.90
578.56	60697.11
578.72	60832.86
578.88	60956.91
579.04	60882.02
579.21	60697.11
579.37	60825.84
579.53	60654.98
579.69	60463.06
579.85	60547.32
580.01	60711.16
580.17	60594.13
580.33	60701.79
580.49	60842.23
580.65	60921.80
580.82	60772.01
580.98	60715.84
581.14	60718.18
581.30	60769.67
581.46	60884.36
581.62	60673.71
581.78	60542.64
581.94	60947.55
582.10	60832.86
582.26	60757.97
582.42	60781.37
582.58	60879.67
582.74	60711.16
582.90	60755.63
583.06	60865.63
583.22	60467.74
583.38	60842.23
583.54	60800.10
583.70	60690.09
583.86	60811.80
584.02	60800.10
584.18	61015.43
584.34	60776.69
584.50	60898.40
584.66	60629.24
584.82	60764.99
584.98	61022.45
585.14	61050.53
585.30	60631.58
585.46	61029.47
585.62	60839.89
585.78	61015.43
585.94	60849.25
586.10	60748.60
586.26	60980.32
586.42	60907.76
586.58	60898.40
586.74	60900.74
586.90	60746.26
587.06	60844.57
587.22	61090.32
587.38	60867.97
587.54	60968.61
587.70	60994.36
587.86	61106.71
588.02	60959.25
588.18	61151.18
588.34	60912.44
588.49	60940.53
