SpectraSuite Data File
++++++++++++++++++++++++++++++++++++
Date: Fri Oct 25 11:23:00 EDT 2013
User: price-jones
Dark Spectrum Present: No
Reference Spectrum Present: No
Number of Sampled Component Spectra: 1
Spectrometers: USB2+H05261
Integration Time (usec): 100000 (USB2+H05261)
Spectra Averaged: 1 (USB2+H05261)
Boxcar Smoothing: 0 (USB2+H05261)
Correct for Electrical Dark: No (USB2+H05261)
Strobe/Lamp Enabled: No (USB2+H05261)
Correct for Detector Non-linearity: No (USB2+H05261)
Correct for Stray Light: No (USB2+H05261)
Number of Pixels in Processed Spectrum: 2048
>>>>>Begin Processed Spectral Data<<<<<
365.73	187.24
365.92	187.24
366.12	187.24
366.32	170.86
366.52	126.39
366.72	128.73
366.91	86.60
367.11	119.37
367.31	121.71
367.51	114.69
367.70	147.45
367.90	177.88
368.10	105.32
368.30	175.54
368.49	128.73
368.69	187.24
368.89	117.03
369.09	180.22
369.28	163.84
369.48	177.88
369.68	191.92
369.87	110.01
370.07	187.24
370.27	241.08
370.47	301.93
370.66	587.47
370.86	587.47
371.06	620.24
371.25	620.24
371.45	627.26
371.65	683.44
371.84	624.92
372.04	685.78
372.24	648.33
372.44	734.93
372.63	676.41
372.83	800.46
373.03	798.12
373.22	748.97
373.42	779.40
373.62	737.27
373.81	755.99
374.01	847.27
374.21	765.36
374.40	793.44
374.60	898.77
374.79	805.14
374.99	849.61
375.19	863.66
375.38	786.42
375.58	786.42
375.78	940.90
375.97	828.55
376.17	917.49
376.37	840.25
376.56	875.36
376.76	917.49
376.95	828.55
377.15	840.25
377.35	908.13
377.54	877.70
377.74	851.96
377.93	964.30
378.13	837.91
378.33	957.28
378.52	873.02
378.72	903.45
378.91	954.94
379.11	908.13
379.31	922.17
379.50	880.04
379.70	898.77
379.89	1025.15
380.09	954.94
380.28	999.41
380.48	926.85
380.68	1001.75
380.87	947.92
381.07	966.64
381.26	964.30
381.46	973.66
381.65	947.92
381.85	1116.44
382.04	1081.33
382.24	1015.79
382.43	1057.92
382.63	1043.88
382.83	1128.14
383.02	1121.12
383.22	1118.78
383.41	1036.86
383.61	1062.60
383.80	1167.93
384.00	1032.18
384.19	1200.69
384.39	1121.12
384.58	1170.27
384.78	1177.29
384.97	1109.41
385.17	1111.75
385.36	1217.08
385.56	1125.80
385.75	1188.99
385.95	1252.19
386.14	1233.46
386.34	1240.48
386.53	1212.40
386.72	1205.38
386.92	1277.93
387.11	1217.08
387.31	1224.10
387.50	1252.19
387.70	1221.76
387.89	1343.47
388.09	1284.95
388.28	1322.40
388.48	1263.89
388.67	1266.23
388.86	1376.24
389.06	1338.79
389.25	1362.19
389.45	1306.02
389.64	1334.11
389.84	1359.85
390.03	1483.90
390.22	1448.79
390.42	1336.45
390.61	1434.75
390.81	1406.66
391.00	1301.34
391.19	1453.47
391.39	1528.37
391.58	1446.45
391.78	1504.96
391.97	1469.86
392.16	1444.11
392.36	1554.12
392.55	1540.07
392.75	1495.60
392.94	1551.78
393.13	1537.73
393.33	1577.52
393.52	1614.97
393.71	1584.54
393.91	1664.12
394.10	1596.25
394.29	1680.50
394.49	1572.84
394.68	1682.85
394.88	1619.65
395.07	1647.74
395.26	1579.86
395.46	1675.82
395.65	1804.55
395.84	1785.83
396.04	1916.90
396.23	1741.36
396.42	1748.38
396.62	1774.13
396.81	1764.76
397.00	1701.57
397.19	1860.73
397.39	1914.56
397.58	1842.00
397.77	1795.19
397.97	1870.09
398.16	1849.02
398.35	1905.20
398.55	1872.43
398.74	1996.48
398.93	1987.11
399.12	1926.26
399.32	1928.60
399.51	1933.28
399.70	2024.56
399.90	1970.73
400.09	1886.47
400.28	2115.84
400.47	2094.78
400.67	2202.44
400.86	2012.86
401.05	2076.06
401.24	2129.89
401.44	2150.95
401.63	2139.25
401.82	2141.59
402.01	2253.94
402.21	2176.70
402.40	2232.87
402.59	2270.32
402.78	2181.38
402.97	2188.40
403.17	2275.00
403.36	2321.81
403.55	2385.01
403.74	2296.07
403.93	2373.30
404.13	2392.03
404.32	2401.39
404.51	2326.49
404.70	2413.09
404.89	2377.98
405.09	2495.01
405.28	2504.37
405.47	2436.50
405.66	2462.24
405.85	2609.70
406.05	2527.78
406.24	2490.33
406.43	2661.19
406.62	2705.66
406.81	2661.19
407.00	2574.59
407.20	2656.51
407.39	2602.68
407.58	2792.26
407.77	2860.13
407.96	2715.02
408.15	2693.96
408.34	2705.66
408.54	2846.09
408.73	2820.35
408.92	2897.58
409.11	2806.30
409.30	2911.63
409.49	2967.80
409.68	2944.39
409.87	2935.03
410.07	3084.83
410.26	3045.04
410.45	3080.14
410.64	3075.46
410.83	3103.55
411.02	3164.40
411.21	3194.83
411.40	3145.68
411.59	3192.49
411.78	3234.62
411.98	3246.32
412.17	3328.24
412.36	3358.67
412.55	3435.91
412.74	3478.04
412.93	3487.40
413.12	3375.05
413.31	3616.13
413.50	3499.10
413.69	3543.57
413.88	3618.47
414.07	3674.64
414.26	3676.98
414.45	3618.47
414.64	3700.39
414.83	3688.68
415.02	3749.54
415.22	3758.90
415.41	3864.22
415.60	3815.07
415.79	3866.56
415.98	4093.60
416.17	4025.72
416.36	4004.66
416.55	3969.55
416.74	4194.24
416.93	4161.47
417.12	4161.47
417.31	4102.96
417.50	4332.33
417.69	4404.89
417.88	4458.72
418.07	4234.03
418.26	4397.87
418.45	4301.90
418.64	4313.61
418.83	4393.19
419.02	4337.01
419.21	4519.57
419.39	4575.75
419.58	4568.73
419.77	4482.13
419.96	4517.23
420.15	4662.35
420.34	4496.17
420.53	4685.75
420.72	4664.69
420.91	4695.11
421.10	4671.71
421.29	4777.03
421.48	4753.63
421.67	4807.46
421.86	4772.35
422.05	4870.65
422.24	4767.67
422.43	4966.62
422.61	4975.98
422.80	4961.94
422.99	5004.07
423.18	5018.11
423.37	4898.74
423.56	4990.02
423.75	4983.00
423.94	4828.53
424.13	4713.84
424.32	4741.93
424.50	5064.92
424.69	5231.10
424.88	5053.22
425.07	4983.00
425.26	5029.81
425.45	4973.64
425.64	5048.54
425.83	5001.72
426.01	5130.45
426.20	5181.95
426.39	5203.01
426.58	5081.30
426.77	5170.24
426.96	5160.88
427.15	5188.97
427.33	5177.26
427.52	5268.55
427.71	5390.25
427.90	5191.31
428.09	5430.04
428.28	5364.51
428.46	5530.69
428.65	5345.78
428.84	5661.76
429.03	5607.92
429.22	5465.15
429.40	5406.64
429.59	5479.19
429.78	5350.46
429.97	5298.97
430.16	5469.83
430.34	5535.37
430.53	5706.23
430.72	5650.05
430.91	5617.29
431.10	5500.26
431.28	5898.15
431.47	5825.59
431.66	5935.60
431.85	5727.29
432.03	5942.62
432.22	5956.66
432.41	5963.68
432.60	5820.91
432.79	5919.21
432.97	6076.03
433.16	6171.99
433.35	6005.81
433.54	6108.80
433.72	6274.98
433.91	6094.76
434.10	6342.85
434.28	6218.80
434.47	6324.13
434.66	6195.40
434.85	6319.45
435.03	6228.17
435.22	6253.91
435.41	6490.31
435.59	6457.54
435.78	6658.82
435.97	6473.92
436.16	6525.41
436.34	6396.68
436.53	6693.93
436.72	6696.27
436.90	6619.04
437.09	6731.38
437.28	6597.97
437.46	6588.61
437.65	6817.98
437.84	6825.00
438.02	6546.48
438.21	6754.79
438.40	6789.89
438.58	7112.89
438.77	7014.59
438.96	7026.29
439.14	7246.30
439.33	7208.85
439.52	7204.17
439.70	7316.51
439.89	7316.51
440.08	7410.14
440.26	7400.77
440.45	7321.20
440.63	7349.28
440.82	7669.94
441.01	7590.36
441.19	7625.47
441.38	7761.22
441.57	7911.01
441.75	7882.92
441.94	7925.05
442.12	8049.10
442.31	8145.06
442.50	8011.65
442.68	7840.79
442.87	7857.18
443.05	8098.25
443.24	8339.33
443.43	8182.51
443.61	8311.24
443.80	8507.85
443.98	8084.21
444.17	7915.69
444.35	8362.73
444.54	8428.27
444.73	8439.97
444.91	8465.72
445.10	8414.23
445.28	8414.23
445.47	8535.93
445.65	8402.52
445.84	8248.05
446.02	8482.10
446.21	8374.44
446.39	8458.70
446.58	8823.82
446.77	8643.60
446.95	8196.56
447.14	8482.10
447.32	8762.97
447.51	8706.79
447.69	8702.11
447.88	8517.21
448.06	8463.38
448.25	8542.96
448.43	8603.81
448.62	8762.97
448.80	8512.53
448.99	8676.37
449.17	8746.58
449.36	8887.01
449.54	8879.99
449.73	9116.39
449.91	8957.23
450.10	9034.47
450.28	9202.99
450.46	9050.85
450.65	9053.19
450.83	8982.98
451.02	9020.42
451.20	9184.26
451.39	9287.25
451.57	9219.37
451.76	9184.26
451.94	9193.62
452.13	9544.70
452.31	9252.14
452.49	9210.01
452.68	9305.97
452.86	9472.15
453.05	9504.92
453.23	9596.20
453.42	9469.81
453.60	9465.13
453.78	9533.00
453.97	9635.99
454.15	9603.22
454.34	9495.55
454.52	9820.89
454.70	9818.55
454.89	9956.64
455.07	10015.15
455.26	9848.97
455.44	9935.57
455.62	9951.96
455.81	10090.05
455.99	10251.55
456.17	10218.78
456.36	10029.20
456.54	10176.65
456.73	10298.36
456.91	10459.85
457.09	10459.85
457.28	10363.89
457.46	10324.10
457.64	10619.01
457.83	10434.11
458.01	10525.39
458.19	10787.53
458.38	11016.90
458.56	10796.89
458.74	10855.40
458.93	10738.38
459.11	10658.80
459.29	10878.81
459.48	10860.09
459.66	10827.32
459.84	11112.86
460.03	11183.08
460.21	11101.16
460.39	11047.33
460.57	11122.23
460.76	11042.65
460.94	11318.83
461.12	11311.81
461.31	11091.80
461.49	11377.34
461.67	11309.47
461.85	11613.74
462.04	11276.70
462.22	11791.62
462.40	11723.74
462.59	11602.04
462.77	11712.04
462.95	11747.15
463.13	11721.40
463.32	11698.00
463.50	11854.81
463.68	11864.18
463.86	12018.65
464.05	11463.94
464.23	11747.15
464.41	11976.52
464.59	11747.15
464.78	12100.57
464.96	12116.95
465.14	11894.60
465.32	12140.36
465.50	12262.07
465.69	12463.35
465.87	12020.99
466.05	12311.22
466.23	12177.81
466.41	12233.98
466.60	12671.66
466.78	12255.04
466.96	12245.68
467.14	12615.49
467.32	12297.17
467.51	12425.90
467.69	12245.68
467.87	12453.99
468.05	12793.37
468.23	12629.53
468.41	12585.06
468.60	12617.83
468.78	12720.81
468.96	12695.07
469.14	12924.44
469.32	12896.35
469.50	12772.30
469.69	13118.70
469.87	13280.20
470.05	12996.99
470.23	13413.61
470.41	13280.20
470.59	13418.29
470.77	13350.42
470.95	13355.10
471.14	13785.76
471.32	13252.11
471.50	13441.70
471.68	13551.70
471.86	13870.01
472.04	13853.63
472.22	13980.02
472.40	13844.27
472.58	14038.53
472.77	14024.49
472.95	14382.59
473.13	14658.78
473.31	14314.72
473.49	14312.38
473.67	14272.59
473.85	14516.00
474.03	14703.25
474.21	14745.38
474.39	14902.19
474.57	14965.39
474.75	15197.10
474.93	15117.52
475.12	15147.95
475.30	15342.21
475.48	15272.00
475.66	15445.20
475.84	15236.89
476.02	15653.50
476.20	15552.86
476.38	15618.39
476.56	16126.29
476.74	15964.79
476.92	15885.22
477.10	16137.99
477.28	16210.55
477.46	16475.03
477.64	16421.20
477.82	16692.70
478.00	17029.74
478.18	16858.88
478.36	17006.33
478.54	17390.18
478.72	17528.27
478.90	17647.64
479.08	17685.09
479.26	17902.76
479.44	17778.71
479.62	17994.04
479.80	18010.42
479.98	18270.22
480.16	18593.22
480.34	18387.25
480.52	18663.43
480.70	18579.17
480.88	18567.47
481.06	18867.06
481.24	19115.16
481.41	19527.09
481.59	19405.38
481.77	19601.99
481.95	19707.31
482.13	19704.97
482.31	19737.74
482.49	20372.02
482.67	20374.36
482.85	20666.93
483.03	20999.29
483.21	21001.63
483.39	20987.58
483.57	21149.08
483.74	20814.38
483.92	21727.19
484.10	21734.21
484.28	21874.65
484.46	21998.70
484.64	22429.35
484.82	22059.55
485.00	22677.45
485.18	22946.61
485.35	23129.17
485.53	23164.28
485.71	23632.39
485.89	23662.82
486.07	23620.69
486.25	23491.96
486.43	23566.85
486.61	24180.07
486.78	24353.27
486.96	24526.47
487.14	24739.46
487.32	24739.46
487.50	25046.07
487.68	25015.65
487.85	25600.78
488.03	25394.81
488.21	26181.23
488.39	25982.29
488.57	26719.56
488.75	26441.03
488.92	26455.08
489.10	26878.71
489.28	27197.02
489.46	27484.91
489.64	26974.67
489.81	28039.62
489.99	27639.39
490.17	28027.92
490.35	28121.54
490.53	28584.96
490.70	28631.77
490.88	28400.06
491.06	29249.67
491.24	28947.75
491.41	29495.43
491.59	29324.57
491.77	29586.71
491.95	30106.31
492.13	29951.84
492.30	30284.19
492.48	30583.78
492.66	30745.28
492.84	30808.47
493.01	31023.80
493.19	30904.43
493.37	31349.14
493.54	31241.47
493.72	31424.03
493.90	31716.60
494.08	32224.50
494.25	32233.86
494.43	32589.62
494.61	32481.95
494.79	32893.89
494.96	32877.51
495.14	33010.92
495.32	33476.68
495.49	33790.31
495.67	33408.81
495.85	33921.38
496.02	33928.41
496.20	34349.70
496.38	34401.19
496.55	34288.85
496.73	35381.88
496.91	34501.84
497.09	35208.68
497.26	35463.80
497.44	35154.85
497.62	35536.35
497.79	35828.92
497.97	35924.88
498.14	36362.56
498.32	35849.99
498.50	36636.41
498.67	36924.29
498.85	36769.82
499.03	37277.71
499.20	37343.25
499.38	37237.92
499.56	37371.33
499.73	37701.35
499.91	37675.60
500.08	38101.58
500.26	37687.31
500.44	38000.94
500.61	38335.63
500.79	37991.58
500.97	38164.78
501.14	38696.08
501.32	38871.62
501.49	38845.87
501.67	39021.41
501.84	39845.28
502.02	39648.68
502.20	39501.22
502.37	39536.33
502.55	39283.55
502.72	39789.11
502.90	39913.16
503.07	39541.01
503.25	40706.60
503.43	40112.10
503.60	40741.71
503.78	40547.44
503.95	40437.44
504.13	40811.92
504.30	41273.01
504.48	40781.49
504.65	41422.80
504.83	41160.66
505.01	41830.05
505.18	41476.63
505.36	41666.22
505.53	41724.73
505.71	41900.27
505.88	42146.03
506.06	41818.35
506.23	42553.28
506.41	42103.90
506.58	42656.26
506.76	42150.71
506.93	42862.23
507.11	42403.49
507.28	42462.00
507.46	43124.37
507.63	43283.53
507.81	43391.19
507.98	43096.28
508.16	43412.26
508.33	43835.89
508.50	43920.15
508.68	43990.37
508.85	44182.29
509.03	43791.42
509.20	44645.72
509.38	44854.03
509.55	44678.49
509.73	44828.28
509.90	45092.76
510.08	44999.14
510.25	44994.46
510.42	44973.39
510.60	45207.45
510.77	45488.31
510.95	45860.46
511.12	45614.70
511.30	45329.16
511.47	45668.53
511.64	45521.08
511.82	46080.47
511.99	46089.83
512.17	46349.63
512.34	46134.30
512.51	46380.06
512.69	46724.11
512.86	46848.16
513.04	46873.91
513.21	46913.70
513.38	47412.23
513.56	46995.62
513.73	47054.13
513.90	47320.95
514.08	47051.79
514.25	47775.02
514.43	47622.88
514.60	48034.81
514.77	47964.60
514.95	48151.84
515.12	48105.03
515.29	48067.58
515.47	48215.04
515.64	48303.98
515.81	48348.45
515.99	48470.15
516.16	48486.54
516.33	48758.04
516.51	48814.21
516.68	48589.52
516.85	49064.65
517.03	49104.44
517.20	49343.17
517.37	49104.44
517.54	49345.51
517.72	49083.37
517.89	49303.38
518.06	49909.58
518.24	49830.01
518.41	49401.69
518.58	49804.26
518.75	49549.14
518.93	49677.87
519.10	49743.41
519.27	50080.44
519.45	50050.02
519.62	50564.93
519.79	50258.32
519.96	50075.76
520.14	50464.29
520.31	50401.10
520.48	50604.72
520.65	50822.39
520.83	50962.82
521.00	50710.05
521.17	50904.31
521.34	50752.18
521.52	51051.76
521.69	51372.42
521.86	51096.24
522.03	51229.65
522.20	51278.80
522.38	51973.94
522.55	51690.73
522.72	51676.69
522.89	51606.47
523.07	51908.40
523.24	51735.20
523.41	52107.35
523.58	51938.83
523.75	52315.65
523.92	52137.77
524.10	52624.60
524.27	52313.31
524.44	52357.78
524.61	52252.46
524.78	52317.99
524.96	52776.74
525.13	52465.45
525.30	52828.23
525.47	52996.75
525.64	52718.23
525.81	53120.80
525.98	52811.85
526.16	52809.51
526.33	53111.44
526.50	53301.02
526.67	52966.32
526.84	53324.43
527.01	53069.31
527.18	53146.54
527.36	53492.94
527.53	53354.85
527.70	53649.76
527.87	53909.56
528.04	53198.04
528.21	53729.34
528.38	53806.58
528.55	53455.50
528.72	53645.08
528.89	53745.72
529.07	53682.53
529.24	53867.43
529.41	53965.73
529.58	54309.79
529.75	53895.52
529.92	54101.48
530.09	54057.01
530.26	54169.36
530.43	54342.56
530.60	54059.35
530.77	54073.40
530.94	54417.46
531.11	54234.89
531.28	54461.93
531.46	54688.96
531.63	54770.88
531.80	54436.18
531.97	54794.28
532.14	54871.52
532.31	54700.66
532.48	54789.60
532.65	54883.22
532.82	54747.47
532.99	55028.34
533.16	54967.48
533.33	55098.55
533.50	55243.66
533.67	55049.40
533.84	54894.92
534.01	55047.06
534.18	54897.27
534.35	55522.19
534.52	55402.82
534.69	55320.90
534.86	55557.30
535.03	55257.71
535.20	55281.11
535.37	55597.09
535.54	55774.97
535.71	55348.99
535.88	55590.06
536.05	55648.58
536.22	55924.76
536.38	55877.95
536.55	55660.28
536.72	55728.16
536.89	55721.13
537.06	55915.40
537.23	56161.15
537.40	55962.21
537.57	56114.34
537.74	56217.33
537.91	56395.21
538.08	56247.75
538.25	55969.23
538.42	56175.20
538.59	56427.98
538.75	56130.73
538.92	56397.55
539.09	56439.68
539.26	56514.58
539.43	56437.34
539.60	56437.34
539.77	56404.57
539.94	56793.10
540.11	56467.76
540.28	56729.90
540.44	56545.00
540.61	56596.49
540.78	56587.13
540.95	56566.07
541.12	56610.54
541.29	56521.60
541.46	56739.27
541.62	56825.87
541.79	56877.36
541.96	56746.29
542.13	56793.10
542.30	56914.81
542.47	57102.05
542.63	57008.43
542.80	56818.84
542.97	57237.80
543.14	57401.64
543.31	57275.25
543.48	57605.26
543.64	57516.32
543.81	57584.20
543.98	57638.03
544.15	57476.54
544.32	57659.10
544.48	57851.02
544.65	57551.43
544.82	57628.67
544.99	57579.52
545.16	57712.93
545.32	57738.68
545.49	57970.39
545.66	57860.38
545.83	57935.28
546.00	57993.79
546.16	57972.73
546.33	57942.30
546.50	57914.22
546.67	57975.07
546.83	57640.37
547.00	58134.23
547.17	58000.82
547.34	57911.88
547.50	58028.90
547.67	58328.49
547.84	58363.60
548.00	58340.19
548.17	58438.50
548.34	58443.18
548.51	58656.17
548.67	58501.69
548.84	58431.47
549.01	58164.65
549.18	58445.52
549.34	58398.71
549.51	58382.32
549.68	58396.37
549.84	58447.86
550.01	58768.51
550.18	58351.90
550.34	58501.69
550.51	58658.51
550.68	58714.68
550.84	58506.37
551.01	58693.61
551.18	58625.74
551.34	58784.90
551.51	58808.30
551.68	58791.92
551.84	58646.80
552.01	58787.24
552.18	58958.09
552.34	58843.41
552.51	59114.91
552.68	58831.71
552.84	58834.05
553.01	59084.48
553.18	58852.77
553.34	59072.78
553.51	58850.43
553.67	58969.80
553.84	59086.82
554.01	59056.40
554.17	59257.68
554.34	59065.76
554.51	59234.28
554.67	59255.34
554.84	59215.55
555.00	59302.15
555.17	59267.05
555.33	58979.16
555.50	59248.32
555.67	59164.06
555.83	59285.77
556.00	59498.76
556.16	59484.72
556.33	59540.89
556.50	59260.02
556.66	59568.97
556.83	59451.95
556.99	59697.70
557.16	59842.82
557.32	59737.49
557.49	59870.90
557.65	59554.93
557.82	59477.69
557.98	59402.80
558.15	59788.98
558.32	59531.53
558.48	59674.30
558.65	59732.81
558.81	59695.36
558.98	59791.33
559.14	59742.17
559.31	59889.63
559.47	59875.58
559.64	59938.78
559.80	59894.31
559.97	59983.25
560.13	59718.77
560.30	59950.48
560.46	59999.63
560.63	59903.67
560.79	59840.48
560.96	59980.91
561.12	60097.94
561.29	60165.81
561.45	59992.61
561.61	60168.15
561.78	60065.17
561.94	60111.98
562.11	60037.08
562.27	60060.49
562.44	60097.94
562.60	60030.06
562.77	60292.20
562.93	60065.17
563.10	60116.66
563.26	59901.33
563.42	60308.58
563.59	60051.12
563.75	60289.86
563.92	60289.86
564.08	60100.28
564.24	60196.24
564.41	60331.99
564.57	60460.72
564.74	60289.86
564.90	60402.21
565.07	60392.84
565.23	60229.01
565.39	60409.23
565.56	60266.45
565.72	60460.72
565.88	60451.36
566.05	60334.33
566.21	60350.71
566.38	60449.02
566.54	60444.33
566.70	60378.80
566.87	60603.49
567.03	60549.66
567.19	60764.99
567.36	60470.08
567.52	60650.30
567.68	60713.50
567.85	60701.79
568.01	60629.24
568.17	60418.59
568.34	60610.51
568.50	60537.96
568.66	60533.28
568.83	60601.15
568.99	60456.04
569.15	60495.83
569.32	60481.78
569.48	60640.94
569.64	60776.69
569.81	60640.94
569.97	60659.66
570.13	60680.73
570.30	60699.45
570.46	60774.35
570.62	60874.99
570.78	60736.90
570.95	60725.20
571.11	60870.31
571.27	60699.45
571.43	60631.58
571.60	60994.36
571.76	60903.08
571.92	60743.92
572.09	60711.16
572.25	60977.98
572.41	60694.77
572.57	60753.29
572.74	61078.62
572.90	60692.43
573.06	60903.08
573.22	61085.64
573.38	60907.76
573.55	60781.37
573.71	61097.34
573.87	61031.81
574.03	60736.90
574.20	60828.18
574.36	60825.84
574.52	60910.10
574.68	61003.72
574.84	61017.77
575.01	60992.02
575.17	60874.99
575.33	60926.49
575.49	60919.46
575.65	61020.11
575.82	61078.62
575.98	61092.66
576.14	61024.79
576.30	61113.73
576.46	60739.24
576.62	60954.57
576.79	60907.76
576.95	60788.39
577.11	60907.76
577.27	61087.98
577.43	61027.13
577.59	60706.47
577.75	60867.97
577.92	60851.59
578.08	60935.85
578.24	60989.68
578.40	61078.62
578.56	61282.25
578.72	60844.57
578.88	61289.27
579.04	61324.38
579.21	61235.44
579.37	61237.78
579.53	61155.86
579.69	60743.92
579.85	61015.43
580.01	61130.11
580.17	61071.60
580.33	61020.11
580.49	61087.98
580.65	61020.11
580.82	60985.00
580.98	60872.65
581.14	60846.91
581.30	61364.17
581.46	61080.96
581.62	61186.28
581.78	60987.34
581.94	61099.68
582.10	61069.26
582.26	60926.49
582.42	61179.26
582.58	61240.12
582.74	61078.62
582.90	61226.07
583.06	61322.04
583.22	61158.20
583.38	61130.11
583.54	61141.81
583.70	61361.82
583.86	61207.35
584.02	60891.38
584.18	61193.31
584.34	61261.18
584.50	61137.13
584.66	60992.02
584.82	61059.90
584.98	61212.03
585.14	61315.01
585.30	61237.78
585.46	61095.00
585.62	61083.30
585.78	61378.21
585.94	61111.39
586.10	61195.65
586.26	61382.89
586.42	61226.07
586.58	61329.06
586.74	61364.17
586.90	61155.86
587.06	61085.64
587.22	61446.08
587.38	61254.16
587.54	61446.08
587.70	61263.52
587.86	61202.67
588.02	61172.24
588.18	61380.55
588.34	61176.92
588.49	61249.48
