SpectraSuite Data File
++++++++++++++++++++++++++++++++++++
Date: Fri Oct 25 10:43:57 EDT 2013
User: price-jones
Dark Spectrum Present: No
Reference Spectrum Present: No
Number of Sampled Component Spectra: 1
Spectrometers: USB2+H05261
Integration Time (usec): 100000 (USB2+H05261)
Spectra Averaged: 1 (USB2+H05261)
Boxcar Smoothing: 0 (USB2+H05261)
Correct for Electrical Dark: No (USB2+H05261)
Strobe/Lamp Enabled: No (USB2+H05261)
Correct for Detector Non-linearity: No (USB2+H05261)
Correct for Stray Light: No (USB2+H05261)
Number of Pixels in Processed Spectrum: 2048
>>>>>Begin Processed Spectral Data<<<<<
365.73	110.01
365.92	110.01
366.12	110.01
366.32	74.90
366.52	0.00
366.72	74.90
366.91	25.75
367.11	63.19
367.31	0.00
367.51	32.77
367.70	18.72
367.90	35.11
368.10	30.43
368.30	60.85
368.49	0.00
368.69	0.00
368.89	56.17
369.09	2.34
369.28	84.26
369.48	39.79
369.68	70.22
369.87	63.19
370.07	100.64
370.27	159.16
370.47	133.41
370.66	367.46
370.86	449.38
371.06	428.32
371.25	498.53
371.45	404.91
371.65	470.45
371.84	475.13
372.04	507.90
372.24	503.22
372.44	510.24
372.63	521.94
372.83	533.64
373.03	575.77
373.22	524.28
373.42	517.26
373.62	486.83
373.81	526.62
374.01	571.09
374.21	540.66
374.40	580.45
374.60	561.73
374.79	554.71
374.99	622.58
375.19	620.24
375.38	547.69
375.58	580.45
375.78	613.22
375.97	582.79
376.17	631.94
376.37	578.11
376.56	601.52
376.76	568.75
376.95	606.20
377.15	690.46
377.35	648.33
377.54	638.97
377.74	697.48
377.93	645.99
378.13	643.65
378.33	667.05
378.52	678.76
378.72	650.67
378.91	674.07
379.11	535.98
379.31	697.48
379.50	575.77
379.70	744.29
379.89	720.88
380.09	739.61
380.28	683.44
380.48	697.48
380.68	709.18
380.87	758.33
381.07	737.27
381.26	723.23
381.46	751.31
381.65	737.27
381.85	697.48
382.04	725.57
382.24	690.46
382.43	704.50
382.63	734.93
382.83	720.88
383.02	779.40
383.22	763.01
383.41	704.50
383.61	751.31
383.80	791.10
384.00	809.83
384.19	798.12
384.39	807.48
384.58	772.38
384.78	812.17
384.97	847.27
385.17	763.01
385.36	849.61
385.56	791.10
385.75	833.23
385.95	781.74
386.14	798.12
386.34	908.13
386.53	889.40
386.72	898.77
386.92	856.64
387.11	868.34
387.31	840.25
387.50	837.91
387.70	863.66
387.89	905.79
388.09	891.74
388.28	912.81
388.48	903.45
388.67	947.92
388.86	952.60
389.06	931.53
389.25	931.53
389.45	990.05
389.64	1013.45
389.84	1011.11
390.03	936.21
390.22	1083.67
390.42	1027.50
390.61	983.02
390.81	1081.33
391.00	1027.50
391.19	1090.69
391.39	1046.22
391.58	1097.71
391.78	1083.67
391.97	1015.79
392.16	1060.26
392.36	1032.18
392.55	1015.79
392.75	999.41
392.94	877.70
393.13	1004.09
393.33	1032.18
393.52	966.64
393.71	1172.61
393.91	1114.10
394.10	1093.03
394.29	1137.50
394.49	1170.27
394.68	1249.85
394.88	1224.10
395.07	1345.81
395.26	1287.29
395.46	1203.04
395.65	1247.51
395.84	1245.16
396.04	1233.46
396.23	1179.63
396.42	1125.80
396.62	1156.22
396.81	1275.59
397.00	1231.12
397.19	1380.92
397.39	1308.36
397.58	1427.73
397.77	1385.60
397.97	1460.49
398.16	1406.66
398.35	1423.05
398.55	1507.30
398.74	1533.05
398.93	1626.67
399.12	1523.69
399.32	1561.14
399.51	1514.33
399.70	1584.54
399.90	1497.94
400.09	1511.99
400.28	1598.59
400.47	1666.46
400.67	1633.69
400.86	1636.03
401.05	1671.14
401.24	1699.23
401.44	1678.16
401.63	1736.68
401.82	1769.44
402.01	1734.34
402.21	1842.00
402.40	1727.32
402.59	1727.32
402.78	1842.00
402.97	1856.04
403.17	1881.79
403.36	1790.51
403.55	1891.15
403.74	1865.41
403.93	1893.49
404.13	1968.39
404.32	1919.24
404.51	1940.30
404.70	1954.35
404.89	1968.39
405.09	2139.25
405.28	1865.41
405.47	2064.35
405.66	2125.21
405.85	1963.71
406.05	2005.84
406.24	2139.25
406.43	2148.61
406.62	2085.42
406.81	2237.55
407.00	2073.71
407.20	2080.74
407.39	2064.35
407.58	2183.72
407.77	2186.06
407.96	2296.07
408.15	2129.89
408.34	2282.02
408.54	2317.13
408.73	2307.77
408.92	2431.82
409.11	2277.34
409.30	2324.15
409.49	2239.89
409.68	2237.55
409.87	2310.11
410.07	2457.56
410.26	2401.39
410.45	2457.56
410.64	2417.77
410.83	2530.12
411.02	2593.31
411.21	2572.25
411.40	2520.76
411.59	2628.42
411.78	2661.19
411.98	2700.98
412.17	2839.07
412.36	2651.83
412.55	2818.00
412.74	2801.62
412.93	2775.88
413.12	2853.11
413.31	2839.07
413.50	2939.71
413.69	2897.58
413.88	2918.65
414.07	2878.86
414.26	3068.44
414.45	3021.63
414.64	3033.33
414.83	3061.42
415.02	3253.34
415.22	3192.49
415.41	3213.56
415.60	3185.47
415.79	3089.51
415.98	3251.00
416.17	3454.63
416.36	3279.09
416.55	3311.86
416.74	3309.52
416.93	3316.54
417.12	3365.69
417.31	3293.13
417.50	3370.37
417.69	3482.72
417.88	3456.97
418.07	3440.59
418.26	3487.40
418.45	3459.31
418.64	3728.47
418.83	3623.15
419.02	3555.27
419.21	3611.45
419.39	3681.66
419.58	3686.34
419.77	3695.71
419.96	3658.26
420.15	3775.28
420.34	3899.33
420.53	3815.07
420.72	3896.99
420.91	4039.76
421.10	3962.53
421.29	4025.72
421.48	3721.45
421.67	3927.42
421.86	3948.48
422.05	3843.16
422.24	3889.97
422.43	3929.76
422.61	3941.46
422.80	3882.95
422.99	3976.57
423.18	3992.95
423.37	3920.40
423.56	4025.72
423.75	3976.57
423.94	3985.93
424.13	3747.20
424.32	3861.88
424.50	4067.85
424.69	4175.52
424.88	4070.19
425.07	3899.33
425.26	3833.80
425.45	3838.48
425.64	4084.23
425.83	3913.38
426.01	3936.78
426.20	4021.04
426.39	4257.43
426.58	4095.94
426.77	3992.95
426.96	4049.13
427.15	4004.66
427.33	4182.54
427.52	4084.23
427.71	4231.69
427.90	4287.86
428.09	4332.33
428.28	4351.06
428.46	4219.99
428.65	4327.65
428.84	4418.93
429.03	4418.93
429.22	4170.83
429.40	4124.02
429.59	4245.73
429.78	3925.08
429.97	3932.10
430.16	4109.98
430.34	4039.76
430.53	4262.12
430.72	4152.11
430.91	4241.05
431.10	4470.42
431.28	4582.77
431.47	4608.51
431.66	4791.08
431.85	4624.90
432.03	4599.15
432.22	4809.80
432.41	4657.67
432.60	4840.23
432.79	4706.82
432.97	4903.42
433.16	4814.48
433.35	4791.08
433.54	4755.97
433.72	4753.63
433.91	4624.90
434.10	4985.34
434.28	4833.21
434.47	5004.07
434.66	4992.36
434.85	5034.49
435.03	5146.84
435.22	5071.94
435.41	5205.35
435.59	5130.45
435.78	5355.15
435.97	5308.34
436.16	5226.42
436.34	5170.24
436.53	5392.59
436.72	5210.03
436.90	5193.65
437.09	5287.27
437.28	5165.56
437.46	5238.12
437.65	5373.87
437.84	5207.69
438.02	5219.39
438.21	5352.81
438.40	5191.31
438.58	5462.81
438.77	5533.03
438.96	5397.28
439.14	5624.31
439.33	5605.58
439.52	5795.17
439.70	5596.22
439.89	5675.80
440.08	5923.90
440.26	5834.96
440.45	5937.94
440.63	5977.73
440.82	6085.39
441.01	6120.50
441.19	6115.82
441.38	6085.39
441.57	6174.33
441.75	6141.57
441.94	6235.19
442.12	6335.83
442.31	6375.62
442.50	6490.31
442.68	6223.48
442.87	6457.54
443.05	6567.54
443.24	6466.90
443.43	6647.12
443.61	6633.08
443.80	6719.68
443.98	6623.72
444.17	6352.21
444.35	6642.44
444.54	6665.85
444.73	6569.88
444.91	6647.12
445.10	6558.18
445.28	6530.09
445.47	6548.82
445.65	6497.33
445.84	6672.87
446.02	6745.42
446.21	6764.15
446.39	6773.51
446.58	6532.44
446.77	6810.96
446.95	6679.89
447.14	6792.23
447.32	6956.07
447.51	6700.95
447.69	6724.36
447.88	6911.60
448.06	6778.19
448.25	6738.40
448.43	6752.45
448.62	7033.31
448.80	7042.67
448.99	7026.29
449.17	7033.31
449.36	6906.92
449.54	7197.15
449.73	7281.41
449.91	7274.38
450.10	7162.04
450.28	7403.11
450.46	7433.54
450.65	7222.89
450.83	7424.18
451.02	7332.90
451.20	7365.67
451.39	7407.80
451.57	7323.54
451.76	7428.86
451.94	7262.68
452.13	7337.58
452.31	7267.36
452.49	7194.81
452.68	7222.89
452.86	7295.45
453.05	7295.45
453.23	7414.82
453.42	7705.04
453.60	7620.78
453.78	7707.38
453.97	7318.86
454.15	7686.32
454.34	7520.14
454.52	7665.25
454.70	7686.32
454.89	7836.11
455.07	7719.09
455.26	7747.17
455.44	7859.52
455.62	7936.76
455.81	7702.70
455.99	8072.51
456.17	8046.76
456.36	8131.02
456.54	8166.13
456.73	8229.32
456.91	8297.20
457.09	8226.98
457.28	8491.46
457.46	8112.30
457.64	8196.56
457.83	8430.61
458.01	8184.85
458.19	8297.20
458.38	8196.56
458.56	8430.61
458.74	8367.42
458.93	8322.94
459.11	8594.45
459.29	8374.44
459.48	8624.87
459.66	8505.51
459.84	8648.28
460.03	8746.58
460.21	8638.92
460.39	8631.90
460.57	8585.08
460.76	8622.53
460.94	8961.91
461.12	8772.33
461.31	8950.21
461.49	8894.04
461.67	8762.97
461.85	9062.55
462.04	8903.40
462.22	9212.35
462.40	9240.44
462.59	9048.51
462.77	8957.23
462.95	9221.71
463.13	9170.22
463.32	9167.88
463.50	9158.52
463.68	9345.76
463.86	9270.86
464.05	9193.62
464.23	9022.77
464.41	9275.54
464.59	9294.27
464.78	9301.29
464.96	9231.07
465.14	9064.89
465.32	9479.17
465.50	9563.43
465.69	9537.68
465.87	9577.47
466.05	9415.98
466.23	9270.86
466.41	9437.04
466.60	9558.75
466.78	9345.76
466.96	9502.58
467.14	9589.17
467.32	9579.81
467.51	9699.18
467.69	9511.94
467.87	9493.21
468.05	9703.86
468.23	9664.07
468.41	9703.86
468.60	9638.33
468.78	9853.66
468.96	9624.28
469.14	9788.12
469.32	9942.60
469.50	9834.93
469.69	9708.54
469.87	10174.31
470.05	10101.75
470.23	9954.30
470.41	10066.64
470.59	10005.79
470.77	10115.80
470.95	10071.33
471.14	10436.45
471.32	10164.95
471.50	10403.68
471.68	10462.19
471.86	10516.03
472.04	10548.79
472.22	10827.32
472.40	10200.05
472.58	10729.02
472.77	10581.56
472.95	10789.87
473.13	11019.24
473.31	10846.04
473.49	10714.97
473.67	10984.13
473.85	10956.05
474.03	11000.52
474.21	11241.59
474.39	11147.97
474.57	11250.96
474.75	11243.93
474.93	11328.19
475.12	11393.73
475.30	11424.15
475.48	11396.07
475.66	11297.77
475.84	11487.35
476.02	11740.13
476.20	11557.57
476.38	11620.76
476.56	12203.55
476.74	12283.13
476.92	11964.82
477.10	12271.43
477.28	12257.39
477.46	12402.50
477.64	12273.77
477.82	12407.18
478.00	12816.77
478.18	12879.97
478.36	12816.77
478.54	12819.11
478.72	12821.45
478.90	13034.44
479.08	13092.96
479.26	13228.71
479.44	13408.93
479.62	13460.42
479.80	13642.98
479.98	13528.30
480.16	13874.70
480.34	13720.22
480.52	13806.82
480.70	13760.01
480.88	14026.83
481.06	14146.20
481.24	14368.55
481.41	14595.58
481.59	14670.48
481.77	14747.72
481.95	14754.74
482.13	14675.16
482.31	14743.03
482.49	15295.40
482.67	15218.16
482.85	15154.97
483.03	15506.05
483.21	15578.61
483.39	15697.97
483.57	15721.38
483.74	15686.27
483.92	15871.17
484.10	15936.71
484.28	16049.05
484.46	16262.04
484.64	16765.26
484.82	16243.32
485.00	16460.99
485.18	16765.26
485.35	17015.69
485.53	16217.57
485.71	16343.96
485.89	16662.27
486.07	16734.83
486.25	16989.95
486.43	17057.82
486.61	17256.77
486.78	17385.50
486.96	17617.21
487.14	18022.12
487.32	17762.33
487.50	18162.56
487.68	18867.06
487.85	18555.77
488.03	18630.66
488.21	18920.89
488.39	18410.65
488.57	18967.70
488.75	19119.84
488.92	19454.53
489.10	19733.06
489.28	19878.17
489.46	20023.28
489.64	20301.81
489.81	20568.63
489.99	20423.51
490.17	20456.28
490.35	20760.55
490.53	20634.16
490.70	21067.16
490.88	20746.51
491.06	21322.28
491.24	20788.64
491.41	21069.50
491.59	21191.21
491.77	20868.22
491.95	21331.64
492.13	21273.13
492.30	21891.03
492.48	22022.10
492.66	22026.78
492.84	22068.91
493.01	22391.91
493.19	22239.77
493.37	22546.38
493.54	22436.38
493.72	22977.04
493.90	22845.97
494.08	23014.49
494.25	23049.60
494.43	23318.76
494.61	23901.55
494.79	23641.75
494.96	24105.18
495.14	23885.17
495.32	24215.18
495.49	23885.17
495.67	24395.40
495.85	24276.04
496.02	24533.50
496.20	24877.55
496.38	25207.57
496.55	24844.79
496.73	25671.00
496.91	25757.60
497.09	25282.47
497.26	25436.94
497.44	25556.31
497.62	25661.63
497.79	25865.26
497.97	25584.40
498.14	25687.38
498.32	26155.49
498.50	25883.98
498.67	26223.36
498.85	26471.46
499.03	26672.74
499.20	26403.58
499.38	26679.77
499.56	26597.85
499.73	26808.50
499.91	26810.84
500.08	26941.91
500.26	26703.17
500.44	26984.04
500.61	27103.40
500.79	26930.20
500.97	27304.69
501.14	27328.10
501.32	27367.88
501.49	27646.41
501.67	27545.76
501.84	27892.16
502.02	28130.90
502.20	27936.63
502.37	28376.66
502.55	28283.03
502.72	27960.04
502.90	28428.15
503.07	28533.47
503.25	28582.62
503.43	28430.49
503.60	27943.66
503.78	28458.57
503.95	28961.79
504.13	28882.21
504.30	29151.37
504.48	29001.58
504.65	29600.76
504.83	29699.06
505.01	29778.64
505.18	29736.51
505.36	29898.00
505.53	29813.74
505.71	30115.67
505.88	30181.21
506.06	29570.33
506.23	29773.95
506.41	30668.04
506.58	30319.30
506.76	30202.27
506.93	30316.96
507.11	30363.77
507.28	30558.03
507.46	30522.93
507.63	30370.79
507.81	30335.68
507.98	30881.03
508.16	30752.30
508.33	30958.27
508.50	30836.56
508.68	31351.48
508.85	31632.34
509.03	31194.66
509.20	31857.03
509.38	32088.74
509.55	31786.82
509.73	32025.55
509.90	32198.75
510.08	31873.42
510.25	31578.51
510.42	31922.57
510.60	32299.39
510.77	32266.63
510.95	32315.78
511.12	32650.47
511.30	32484.30
511.47	32964.10
511.64	32374.29
511.82	32900.91
511.99	32470.25
512.17	32943.04
512.34	32811.97
512.51	33298.80
512.69	33209.86
512.86	32961.76
513.04	33214.54
513.21	33319.87
513.38	33479.02
513.56	33460.30
513.73	33406.47
513.90	33275.40
514.08	33617.11
514.25	33647.54
514.43	33469.66
514.60	33469.66
514.77	33762.23
514.95	34181.18
515.12	34103.95
515.29	33975.22
515.47	34771.00
515.64	34604.82
515.81	34230.33
515.99	34389.49
516.16	34279.49
516.33	33802.02
516.51	34082.88
516.68	33619.46
516.85	33912.02
517.03	33844.15
517.20	33766.91
517.37	34342.68
517.54	34693.76
517.72	34403.53
517.89	34359.06
518.06	34473.75
518.24	34080.54
518.41	34782.70
518.58	35276.55
518.75	34937.18
518.93	35803.17
519.10	34785.04
519.27	35360.81
519.45	35222.72
519.62	35761.05
519.79	35922.54
519.96	35576.14
520.14	36107.44
520.31	35952.97
520.48	35868.71
520.65	36074.68
520.83	36144.89
521.00	36313.41
521.17	36282.98
521.34	36624.70
521.52	36100.42
521.69	36587.25
521.86	36917.27
522.03	36919.61
522.20	36858.76
522.38	36879.82
522.55	36624.70
522.72	36844.71
522.89	37090.47
523.07	37109.19
523.24	37141.96
523.41	37809.01
523.58	37567.94
523.75	38024.34
523.92	37694.33
524.10	37919.02
524.27	38007.96
524.44	37888.59
524.61	37858.17
524.78	38199.88
524.96	38057.11
525.13	38555.64
525.30	38153.07
525.47	38134.35
525.64	38302.87
525.81	37919.02
525.98	37947.11
526.16	37902.64
526.33	37757.52
526.50	38099.24
526.67	37574.96
526.84	37694.33
527.01	38050.09
527.18	38113.28
527.36	38490.11
527.53	38520.54
527.70	38890.34
527.87	38885.66
528.04	38321.59
528.21	38841.19
528.38	39159.50
528.55	39178.23
528.72	39168.87
528.89	39332.70
529.07	39295.25
529.24	39168.87
529.41	39276.53
529.58	39416.96
529.75	39421.64
529.92	39295.25
530.09	39569.10
530.26	39271.85
530.43	39482.50
530.60	40048.91
530.77	39728.25
530.94	39917.84
531.11	40023.16
531.28	39913.16
531.46	40027.84
531.63	40383.60
531.80	39529.31
531.97	39920.18
532.14	39814.85
532.31	39569.10
532.48	39763.36
532.65	40580.21
532.82	39915.50
532.99	40500.63
533.16	40011.46
533.33	40580.21
533.50	40720.64
533.67	40224.45
533.84	40488.93
534.01	40512.33
534.18	40442.12
534.35	40481.91
534.52	40615.32
534.69	41097.47
534.86	40713.62
535.03	41060.02
535.20	41490.68
535.37	41584.30
535.54	41729.41
535.71	40905.54
535.88	41010.87
536.05	40994.48
536.22	41329.18
536.38	41298.75
536.55	41387.69
536.72	40978.10
536.89	41198.11
537.06	41310.46
537.23	41813.67
537.40	41736.43
537.57	41617.07
537.74	41956.44
537.91	41759.84
538.08	41841.76
538.25	41682.60
538.42	41855.80
538.59	41799.63
538.75	41787.92
538.92	41645.15
539.09	41553.87
539.26	42342.63
539.43	42141.35
539.60	42433.91
539.77	41808.99
539.94	42085.17
540.11	41603.02
540.28	42073.47
540.44	41684.94
540.61	41839.42
540.78	41897.93
540.95	41879.21
541.12	41977.51
541.29	41940.06
541.46	42300.50
541.62	42218.58
541.79	42747.54
541.96	41869.84
542.13	42586.05
542.30	42094.53
542.47	42981.60
542.63	42813.08
542.80	42806.06
542.97	43082.24
543.14	43217.99
543.31	42796.70
543.48	42899.68
543.64	43222.67
543.81	43358.42
543.98	43243.74
544.15	43297.57
544.32	43550.35
544.48	43524.60
544.65	43377.15
544.82	43496.52
544.99	43014.37
545.16	43253.10
545.32	43208.63
545.49	43938.88
545.66	43831.21
545.83	43496.52
546.00	44114.42
546.16	43569.07
546.33	43297.57
546.50	43597.16
546.67	44055.90
546.83	43194.59
547.00	43835.89
547.17	43510.56
547.34	43892.07
547.50	43777.38
547.67	44282.94
547.84	43873.34
548.00	44282.94
548.17	44357.83
548.34	44151.87
548.51	44395.28
548.67	44107.40
548.84	44285.28
549.01	43688.44
549.18	44453.79
549.34	44332.09
549.51	44451.45
549.68	44582.52
549.84	44399.96
550.01	44671.46
550.18	43765.68
550.34	44128.46
550.51	44369.54
550.68	44488.90
550.84	44332.09
551.01	44470.18
551.18	44694.87
551.34	44612.95
551.51	44650.40
551.68	44884.45
551.84	44863.39
552.01	44414.01
552.18	44648.06
552.34	44336.77
552.51	44512.31
552.68	44538.05
552.84	44949.99
553.01	45104.46
553.18	45118.51
553.34	45064.67
553.51	44526.35
553.67	45165.32
553.84	45588.95
554.01	45048.29
554.17	45329.16
554.34	45485.97
554.51	45532.78
554.67	45558.53
554.84	45078.72
555.00	44945.31
555.17	45254.26
555.33	45216.81
555.50	44980.42
555.67	45095.10
555.83	45022.54
556.00	45516.40
556.16	45937.69
556.33	45436.82
556.50	45378.31
556.66	45525.76
556.83	45081.06
556.99	45233.19
557.16	45612.36
557.32	45619.38
557.49	45326.81
557.65	45605.34
557.82	45794.92
557.98	45708.32
558.15	45787.90
558.32	45818.33
558.48	45141.91
558.65	45303.41
558.81	45539.80
558.98	45488.31
559.14	45345.54
559.31	45343.20
559.47	45872.16
559.64	45628.74
559.80	45588.95
559.97	45900.25
560.13	45450.86
560.30	45570.23
560.46	45956.42
560.63	45935.35
560.79	45434.48
560.96	46323.88
561.12	46061.74
561.29	45595.98
561.45	45949.40
561.61	45858.12
561.78	45614.70
561.94	45911.95
562.11	45759.81
562.27	45794.92
562.44	46160.05
562.60	46064.08
562.77	45897.91
562.93	46162.39
563.10	46340.27
563.26	45734.07
563.42	45741.09
563.59	46068.76
563.75	46061.74
563.92	46300.48
564.08	46227.92
564.24	46298.14
564.41	46270.05
564.57	46117.92
564.74	46213.88
564.90	46312.18
565.07	45855.78
565.23	46061.74
565.39	46099.19
565.56	46305.16
565.72	46010.25
565.88	46157.70
566.05	45947.06
566.21	45940.04
566.38	46195.15
566.54	46080.47
566.70	46169.41
566.87	46380.06
567.03	46380.06
567.19	47206.26
567.36	46536.87
567.52	46206.86
567.68	46597.73
567.85	46307.50
568.01	46354.31
568.17	46117.92
568.34	46405.80
568.50	46429.21
568.66	45642.79
568.83	46071.10
568.99	45820.67
569.15	46363.67
569.32	46026.63
569.48	46293.46
569.64	46258.35
569.81	46038.34
569.97	45925.99
570.13	46185.79
570.30	46150.68
570.46	46195.15
570.62	45907.27
570.78	45949.40
570.95	46330.90
571.11	46550.91
571.27	46064.08
571.43	46092.17
571.60	46394.10
571.76	46380.06
571.92	46333.24
572.09	46321.54
572.25	46394.10
572.41	46501.76
572.57	46443.25
572.74	46836.46
572.90	46611.77
573.06	46527.51
573.22	46391.76
573.38	46429.21
573.55	46157.70
573.71	46539.21
573.87	46618.79
574.03	46700.71
574.20	46555.60
574.36	46642.20
574.52	46396.44
574.68	46258.35
574.84	46604.75
575.01	46337.93
575.17	46092.17
575.33	46160.05
575.49	46064.08
575.65	46855.18
575.82	46356.65
575.98	46370.69
576.14	46110.89
576.30	46567.30
576.46	46614.11
576.62	46581.34
576.79	46557.94
576.95	46555.60
577.11	46424.53
577.27	46204.52
577.43	46506.44
577.59	46527.51
577.75	46323.88
577.92	45944.72
578.08	46110.89
578.24	45961.10
578.40	46300.48
578.56	46719.43
578.72	46515.81
578.88	46829.44
579.04	46529.85
579.21	46291.12
579.37	46824.76
579.53	46698.37
579.69	46490.06
579.85	46728.80
580.01	46635.17
580.17	46576.66
580.33	46623.47
580.49	46965.19
580.65	46560.28
580.82	46614.11
580.98	46403.46
581.14	46761.56
581.30	46906.68
581.46	46663.26
581.62	46527.51
581.78	46742.84
581.94	46841.14
582.10	46827.10
582.26	46979.23
582.42	46621.13
582.58	46658.58
582.74	46227.92
582.90	46539.21
583.06	46611.77
583.22	46703.05
583.38	47063.49
583.54	46621.13
583.70	46431.55
583.86	46799.01
584.02	46230.26
584.18	46670.28
584.34	46600.07
584.50	46658.58
584.66	46424.53
584.82	46527.51
584.98	46834.12
585.14	47049.45
585.30	46759.22
585.46	46927.74
585.62	46433.89
585.78	46667.94
585.94	45834.71
586.10	46220.90
586.26	46272.39
586.42	46693.69
586.58	46813.05
586.74	46693.69
586.90	46497.08
587.06	46492.40
587.22	46600.07
587.38	46843.48
587.54	46337.93
587.70	46604.75
587.86	46820.08
588.02	46815.40
588.18	46834.12
588.34	46171.75
588.49	46176.43
588.65	45841.73
588.81	45832.37
588.97	46515.81
589.13	46061.74
589.29	46382.40
589.45	46555.60
589.61	46464.32
589.77	46717.09
589.93	46674.96
