SpectraSuite Data File
++++++++++++++++++++++++++++++++++++
Date: Fri Oct 25 11:25:17 EDT 2013
User: price-jones
Dark Spectrum Present: No
Reference Spectrum Present: No
Number of Sampled Component Spectra: 1
Spectrometers: USB2+H05261
Integration Time (usec): 100000 (USB2+H05261)
Spectra Averaged: 1 (USB2+H05261)
Boxcar Smoothing: 0 (USB2+H05261)
Correct for Electrical Dark: No (USB2+H05261)
Strobe/Lamp Enabled: No (USB2+H05261)
Correct for Detector Non-linearity: No (USB2+H05261)
Correct for Stray Light: No (USB2+H05261)
Number of Pixels in Processed Spectrum: 2048
>>>>>Begin Processed Spectral Data<<<<<
365.73	201.29
365.92	201.29
366.12	201.29
366.32	142.77
366.52	128.73
366.72	81.92
366.91	84.26
367.11	124.05
367.31	128.73
367.51	53.83
367.70	138.09
367.90	177.88
368.10	95.96
368.30	98.30
368.49	117.03
368.69	166.18
368.89	138.09
369.09	102.98
369.28	121.71
369.48	140.43
369.68	173.20
369.87	184.90
370.07	222.35
370.27	224.69
370.47	348.74
370.66	557.05
370.86	634.29
371.06	674.07
371.25	683.44
371.45	713.86
371.65	690.46
371.84	697.48
372.04	645.99
372.24	706.84
372.44	695.14
372.63	732.59
372.83	791.10
373.03	737.27
373.22	720.88
373.42	800.46
373.62	791.10
373.81	779.40
374.01	816.85
374.21	851.96
374.40	826.21
374.60	823.87
374.79	814.51
374.99	800.46
375.19	751.31
375.38	821.53
375.58	819.19
375.78	791.10
375.97	835.57
376.17	912.81
376.37	856.64
376.56	908.13
376.76	870.68
376.95	947.92
377.15	933.87
377.35	903.45
377.54	891.74
377.74	861.32
377.93	805.14
378.13	863.66
378.33	924.51
378.52	910.47
378.72	943.24
378.91	875.36
379.11	887.06
379.31	1008.77
379.50	1039.20
379.70	950.26
379.89	1043.88
380.09	882.38
380.28	957.28
380.48	898.77
380.68	971.32
380.87	945.58
381.07	976.00
381.26	1015.79
381.46	999.41
381.65	1102.39
381.85	1046.22
382.04	1020.47
382.24	1032.18
382.43	1018.13
382.63	985.37
382.83	1135.16
383.02	1050.90
383.22	987.71
383.41	1074.31
383.61	1081.33
383.80	1100.05
384.00	1069.62
384.19	1036.86
384.39	1181.97
384.58	1107.07
384.78	1090.69
384.97	1142.18
385.17	1090.69
385.36	1137.50
385.56	1174.95
385.75	1109.41
385.95	1186.65
386.14	1184.31
386.34	1118.78
386.53	1205.38
386.72	1240.48
386.92	1275.59
387.11	1203.04
387.31	1203.04
387.50	1219.42
387.70	1256.87
387.89	1177.29
388.09	1210.06
388.28	1348.15
388.48	1345.81
388.67	1228.78
388.86	1341.13
389.06	1242.82
389.25	1437.09
389.45	1327.08
389.64	1296.66
389.84	1338.79
390.03	1411.34
390.22	1324.74
390.42	1313.04
390.61	1242.82
390.81	1320.06
391.00	1397.30
391.19	1437.09
391.39	1453.47
391.58	1453.47
391.78	1427.73
391.97	1453.47
392.16	1355.17
392.36	1495.60
392.55	1584.54
392.75	1425.39
392.94	1490.92
393.13	1523.69
393.33	1603.27
393.52	1610.29
393.71	1572.84
393.91	1610.29
394.10	1617.31
394.29	1554.12
394.49	1535.39
394.68	1593.90
394.88	1617.31
395.07	1626.67
395.26	1732.00
395.46	1661.78
395.65	1689.87
395.84	1636.03
396.04	1792.85
396.23	1748.38
396.42	1675.82
396.62	1753.06
396.81	1853.70
397.00	1708.59
397.19	1762.42
397.39	1762.42
397.58	1755.40
397.77	1748.38
397.97	1795.19
398.16	1804.55
398.35	1928.60
398.55	1727.32
398.74	1858.39
398.93	1811.57
399.12	1907.54
399.32	1888.81
399.51	1919.24
399.70	2017.54
399.90	2015.20
400.09	2005.84
400.28	2029.24
400.47	2012.86
400.67	2010.52
400.86	2029.24
401.05	2078.40
401.24	2040.95
401.44	2143.93
401.63	2087.76
401.82	2150.95
402.01	2097.12
402.21	2125.21
402.40	2160.31
402.59	2080.74
402.78	2223.51
402.97	2209.47
403.17	2223.51
403.36	2176.70
403.55	2204.78
403.74	2310.11
403.93	2253.94
404.13	2394.37
404.32	2291.38
404.51	2457.56
404.70	2354.58
404.89	2457.56
405.09	2492.67
405.28	2420.11
405.47	2396.71
405.66	2497.35
405.85	2541.82
406.05	2567.57
406.24	2562.89
406.43	2530.12
406.62	2619.06
406.81	2743.11
407.00	2473.95
407.20	2558.21
407.39	2586.29
407.58	2628.42
407.77	2708.00
407.96	2740.77
408.15	2846.09
408.34	2679.91
408.54	2792.26
408.73	2761.83
408.92	2846.09
409.11	2918.65
409.30	2890.56
409.49	2979.50
409.68	2995.89
409.87	2883.54
410.07	2984.18
410.26	2949.08
410.45	2953.76
410.64	2977.16
410.83	2909.29
411.02	3077.80
411.21	3112.91
411.40	3105.89
411.59	3197.17
411.78	3061.42
411.98	3178.45
412.17	3260.37
412.36	3227.60
412.55	3269.73
412.74	3370.37
412.93	3368.03
413.12	3309.52
413.31	3510.80
413.50	3452.29
413.69	3471.01
413.88	3520.17
414.07	3508.46
414.26	3555.27
414.45	3765.92
414.64	3550.59
414.83	3772.94
415.02	3737.84
415.22	3838.48
415.41	3754.22
415.60	3836.14
415.79	3887.63
415.98	3948.48
416.17	4063.17
416.36	3847.84
416.55	3908.69
416.74	3960.19
416.93	3946.14
417.12	4107.64
417.31	4046.79
417.50	4175.52
417.69	4332.33
417.88	4217.65
418.07	4142.75
418.26	4198.92
418.45	4264.46
418.64	4557.02
418.83	4390.84
419.02	4463.40
419.21	4547.66
419.39	4472.76
419.58	4463.40
419.77	4514.89
419.96	4566.39
420.15	4622.56
420.34	4585.11
420.53	4669.37
420.72	4606.17
420.91	4554.68
421.10	4770.01
421.29	4814.48
421.48	4720.86
421.67	4702.14
421.86	4812.14
422.05	4882.36
422.24	4725.54
422.43	4889.38
422.61	4823.84
422.80	4929.17
422.99	4812.14
423.18	4926.83
423.37	4966.62
423.56	4964.28
423.75	4903.42
423.94	4760.65
424.13	4629.58
424.32	4732.56
424.50	4978.32
424.69	4980.66
424.88	4884.70
425.07	5013.43
425.26	4828.53
425.45	4968.96
425.64	4952.57
425.83	4968.96
426.01	4922.15
426.20	5018.11
426.39	4898.74
426.58	5013.43
426.77	4983.00
426.96	5069.60
427.15	5130.45
427.33	5287.27
427.52	5095.35
427.71	5301.31
427.90	5186.63
428.09	5149.18
428.28	5259.18
428.46	5245.14
428.65	5268.55
428.84	5296.63
429.03	5488.56
429.22	5364.51
429.40	5469.83
429.59	5411.32
429.78	5158.54
429.97	5118.75
430.16	5385.57
430.34	5647.71
430.53	5626.65
430.72	5746.02
430.91	5476.85
431.10	5486.22
431.28	5650.05
431.47	5757.72
431.66	5792.83
431.85	5781.12
432.03	5781.12
432.22	5811.55
432.41	5867.72
432.60	5867.72
432.79	5802.19
432.97	5916.87
433.16	5933.26
433.35	5823.25
433.54	5996.45
433.72	6069.01
433.91	6136.88
434.10	6003.47
434.28	6218.80
434.47	6169.65
434.66	6179.01
434.85	6249.23
435.03	6319.45
435.22	6279.66
435.41	6485.62
435.59	6242.21
435.78	6300.72
435.97	6415.41
436.16	6253.91
436.34	6370.94
436.53	6537.12
436.72	6394.34
436.90	6436.47
437.09	6738.40
437.28	6473.92
437.46	6457.54
437.65	6668.19
437.84	6654.14
438.02	6752.45
438.21	6785.21
438.40	6651.80
438.58	6906.92
438.77	7063.74
438.96	7037.99
439.14	7162.04
439.33	7190.13
439.52	7187.79
439.70	7185.44
439.89	7250.98
440.08	7393.75
440.26	7227.57
440.45	7459.29
440.63	7342.26
440.82	7569.29
441.01	7442.90
441.19	7428.86
441.38	7796.32
441.57	7611.42
441.75	7733.13
441.94	7927.39
442.12	7922.71
442.31	8023.36
442.50	7864.20
442.68	7749.51
442.87	7925.05
443.05	8161.45
443.24	8283.16
443.43	8313.58
443.61	8243.37
443.80	8367.42
443.98	8053.78
444.17	7906.33
444.35	8145.06
444.54	8358.05
444.73	8229.32
444.91	8156.77
445.10	8379.12
445.28	8292.52
445.47	8093.57
445.65	8292.52
445.84	8381.46
446.02	8477.42
446.21	8287.84
446.39	8355.71
446.58	8454.02
446.77	8439.97
446.95	8306.56
447.14	8327.63
447.32	8535.93
447.51	8278.47
447.69	8344.01
447.88	8613.17
448.06	8561.68
448.25	8327.63
448.43	8629.56
448.62	8475.08
448.80	8465.72
448.99	8482.10
449.17	8755.94
449.36	8575.72
449.54	8692.75
449.73	8821.48
449.91	8798.07
450.10	8898.72
450.28	9116.39
450.46	9029.79
450.65	8931.48
450.83	8997.02
451.02	9074.26
451.20	9107.02
451.39	9121.07
451.57	9029.79
451.76	9039.15
451.94	9109.36
452.13	9207.67
452.31	9083.62
452.49	8961.91
452.68	9277.88
452.86	9198.31
453.05	9455.76
453.23	9420.66
453.42	9397.25
453.60	9385.55
453.78	9563.43
453.97	9348.10
454.15	9352.78
454.34	9327.03
454.52	9703.86
454.70	9603.22
454.89	9483.85
455.07	9804.50
455.26	9717.90
455.44	9790.46
455.62	9825.57
455.81	9753.01
455.99	9881.74
456.17	9724.93
456.36	9963.66
456.54	9975.36
456.73	10321.76
456.91	10427.09
457.09	10289.00
457.28	10494.96
457.46	10338.15
457.64	10569.86
457.83	10298.36
458.01	10457.51
458.19	10759.44
458.38	10356.87
458.56	10668.16
458.74	10700.93
458.93	10649.44
459.11	10572.20
459.29	10705.61
459.48	10853.06
459.66	10747.74
459.84	10665.82
460.03	11037.97
460.21	11040.31
460.39	11087.12
460.57	11040.31
460.76	11138.61
460.94	10913.92
461.12	10827.32
461.31	11136.27
461.49	11021.58
461.67	10794.55
461.85	11206.48
462.04	11208.83
462.22	11864.18
462.40	11454.58
462.59	11229.89
462.77	11351.60
462.95	11611.40
463.13	11318.83
463.32	11438.20
463.50	11772.89
463.68	11590.33
463.86	11716.72
464.05	11742.47
464.23	11566.93
464.41	11737.79
464.59	11761.19
464.78	12119.29
464.96	11770.55
465.14	11527.14
465.32	11868.86
465.50	11887.58
465.69	12173.13
465.87	12131.00
466.05	11896.94
466.23	11995.25
466.41	12133.34
466.60	12278.45
466.78	11920.35
466.96	11918.01
467.14	12065.46
467.32	12547.61
467.51	12255.04
467.69	12140.36
467.87	12287.81
468.05	12320.58
468.23	12252.70
468.41	12468.03
468.60	12517.18
468.78	12393.14
468.96	12547.61
469.14	12650.60
469.32	12641.23
469.50	12800.39
469.69	12769.96
469.87	12734.85
470.05	13104.66
470.23	13025.08
470.41	13312.97
470.59	13371.48
470.77	13032.10
470.95	13245.09
471.14	13509.57
471.32	12781.67
471.50	13364.46
471.68	13582.13
471.86	13612.56
472.04	13289.56
472.22	13586.81
472.40	13495.53
472.58	13767.03
472.77	13984.70
472.95	13933.21
473.13	14700.90
473.31	13994.06
473.49	14202.37
473.67	14054.92
473.85	14380.25
474.03	14406.00
474.21	14356.85
474.39	14806.23
474.57	14581.54
474.75	14466.85
474.93	15028.58
475.12	14611.96
475.30	14860.06
475.48	14663.46
475.66	15190.08
475.84	15147.95
476.02	15131.56
476.20	15117.52
476.38	15676.91
476.56	15978.84
476.74	15667.55
476.92	15566.90
477.10	15810.32
477.28	16074.80
477.46	16123.95
477.64	16009.26
477.82	16086.50
478.00	16592.06
478.18	16486.73
478.36	16542.91
478.54	17067.19
478.72	17174.85
478.90	17284.86
479.08	17270.81
479.26	17451.03
479.44	17535.29
479.62	17422.95
479.80	18036.17
479.98	18129.79
480.16	18408.31
480.34	17832.54
480.52	18483.21
480.70	18382.57
480.88	18260.86
481.06	18398.95
481.24	18558.11
481.41	18834.29
481.59	19061.32
481.77	19487.30
481.95	19426.45
482.13	19756.46
482.31	19211.12
482.49	20067.75
482.67	20002.22
482.85	20044.35
483.03	20489.05
483.21	20695.02
483.39	21015.67
483.57	20760.55
483.74	21448.67
483.92	21188.87
484.10	21104.61
484.28	21546.97
484.46	22197.64
484.64	22590.85
484.82	21804.43
485.00	21919.12
485.18	22221.05
485.35	22970.02
485.53	22618.94
485.71	22796.82
485.89	23480.25
486.07	22810.86
486.25	22998.10
486.43	23285.99
486.61	23763.46
486.78	23964.75
486.96	23875.80
487.14	24320.51
487.32	24491.37
487.50	24713.72
487.68	24364.98
487.85	25160.76
488.03	25352.68
488.21	25589.08
488.39	25472.05
488.57	25546.95
488.75	25898.03
488.92	26630.62
489.10	26218.68
489.28	26260.81
489.46	26948.93
489.64	27080.00
489.81	27328.10
489.99	27360.86
490.17	27646.41
490.35	27744.71
490.53	27641.73
490.70	28393.04
490.88	28194.09
491.06	28484.32
491.24	28706.67
491.41	29024.98
491.59	29043.71
491.77	29259.04
491.95	29329.25
492.13	29776.30
492.30	29364.36
492.48	29706.08
492.66	30099.29
492.84	30249.08
493.01	30099.29
493.19	30150.78
493.37	30534.63
493.54	30820.17
493.72	31505.95
493.90	31143.17
494.08	31515.31
494.25	31887.46
494.43	31519.99
494.61	32226.84
494.79	32180.03
494.96	32175.34
495.14	32596.64
495.32	32662.18
495.49	32980.49
495.67	33104.54
495.85	33013.26
496.02	33319.87
496.20	33993.94
496.38	34026.71
496.55	34410.56
496.73	34799.08
496.91	33949.47
497.09	34586.10
497.26	34810.79
497.44	34682.06
497.62	34789.72
497.79	35318.68
497.97	34885.68
498.14	35651.04
498.32	36002.12
498.50	35679.13
498.67	36112.13
498.85	36367.24
499.03	36418.74
499.20	36411.71
499.38	36598.96
499.56	36704.28
499.73	36730.03
499.91	37031.96
500.08	37095.15
500.26	37074.09
500.44	37584.32
500.61	37324.52
500.79	37443.89
500.97	37612.41
501.14	37944.76
501.32	38188.18
501.49	38382.45
501.67	37963.49
501.84	38869.28
502.02	38572.03
502.20	38920.77
502.37	38944.17
502.55	38726.50
502.72	38930.13
502.90	39210.99
503.07	39456.75
503.25	39143.12
503.43	39299.94
503.60	39828.90
503.78	39299.94
503.95	39962.31
504.13	40397.65
504.30	40278.28
504.48	40322.75
504.65	40404.67
504.83	40921.93
505.01	40900.86
505.18	41219.17
505.36	41209.81
505.53	40680.85
505.71	41031.93
505.88	41390.03
506.06	41474.29
506.23	41612.38
506.41	41638.13
506.58	41303.43
506.76	41956.44
506.93	41972.83
507.11	41806.65
507.28	42075.81
507.46	42628.18
507.63	42658.60
507.81	42885.64
507.98	42859.89
508.16	42506.47
508.33	43203.95
508.50	43243.74
508.68	43234.38
508.85	43683.76
509.03	43351.40
509.20	43655.67
509.38	43803.13
509.55	44388.26
509.73	43847.60
509.90	43903.77
510.08	44210.38
510.25	44301.66
510.42	43828.87
510.60	44650.40
510.77	44641.04
510.95	45130.21
511.12	44619.97
511.30	44786.15
511.47	44973.39
511.64	44947.65
511.82	45694.28
511.99	45209.79
512.17	45378.31
512.34	45294.05
512.51	46082.81
512.69	45902.59
512.86	45933.01
513.04	46085.15
513.21	46216.22
513.38	46791.99
513.56	46876.25
513.73	46356.65
513.90	46447.93
514.08	46321.54
514.25	46965.19
514.43	46873.91
514.60	47105.62
514.77	47313.93
514.95	47456.70
515.12	47491.81
515.29	47751.61
515.47	47433.30
515.64	47840.55
515.81	47281.16
515.99	48203.33
516.16	48212.70
516.33	47709.48
516.51	48350.79
516.68	48158.86
516.85	48453.77
517.03	48514.62
517.20	48313.34
517.37	48418.66
517.54	48734.63
517.72	48605.91
517.89	48713.57
518.06	48652.72
518.24	48935.92
518.41	48849.32
518.58	49172.31
518.75	49034.22
518.93	49497.65
519.10	49249.55
519.27	49350.20
519.45	49598.29
519.62	49439.14
519.79	49830.01
519.96	49422.75
520.14	49610.00
520.31	50106.19
520.48	50059.38
520.65	49813.62
520.83	50052.36
521.00	50255.98
521.17	50277.05
521.34	50670.26
521.52	50756.86
521.69	50431.52
521.86	50461.95
522.03	50712.39
522.20	51166.45
522.38	50990.91
522.55	50923.04
522.72	51281.14
522.89	50974.53
523.07	51358.38
523.24	51414.55
523.41	51578.39
523.58	50920.70
523.75	51606.47
523.92	51372.42
524.10	51587.75
524.27	51880.31
524.44	51711.80
524.61	51936.49
524.78	52051.17
524.96	51955.21
525.13	52179.90
525.30	52175.22
525.47	52193.95
525.64	51863.93
525.81	52243.10
525.98	52388.21
526.16	52591.84
526.33	52556.73
526.50	52844.62
526.67	52811.85
526.84	53029.52
527.01	52432.68
527.18	53066.97
527.36	52872.70
527.53	52767.38
527.70	53249.53
527.87	53205.06
528.04	52830.57
528.21	53036.54
528.38	53113.78
528.55	53258.89
528.72	53169.95
528.89	53418.05
529.07	53188.67
529.24	53258.89
529.41	53687.21
529.58	53010.79
529.75	53408.68
529.92	53712.95
530.09	53368.90
530.26	53743.38
530.43	53872.11
530.60	53586.57
530.77	53958.71
530.94	54019.56
531.11	53738.70
531.28	54038.29
531.46	53773.81
531.63	54255.96
531.80	54024.25
531.97	54204.47
532.14	54042.97
532.31	54368.30
532.48	54260.64
532.65	54220.85
532.82	54157.66
532.99	54518.10
533.16	54452.56
533.33	54630.44
533.50	54887.90
533.67	54560.23
533.84	54188.08
534.01	54660.87
534.18	54768.54
534.35	54988.55
534.52	54766.20
534.69	54876.20
534.86	55002.59
535.03	54719.38
535.20	54981.52
535.37	54967.48
535.54	55051.74
535.71	55070.46
535.88	55028.34
536.05	55089.19
536.22	55136.00
536.38	55327.92
536.55	55360.69
536.72	55100.89
536.89	55140.68
537.06	55505.80
537.23	55576.02
537.40	55547.93
537.57	55601.77
537.74	55578.36
537.91	55882.63
538.08	55423.89
538.25	55554.96
538.42	55702.41
538.59	55777.31
538.75	55550.27
538.92	55627.51
539.09	56198.60
539.26	55770.28
539.43	55915.40
539.60	56006.68
539.77	56076.90
539.94	56273.50
540.11	56224.35
540.28	56149.45
540.44	56205.62
540.61	56065.19
540.78	56065.19
540.95	56259.46
541.12	56231.37
541.29	56273.50
541.46	56385.85
541.62	56275.84
541.79	56554.36
541.96	56165.84
542.13	56360.10
542.30	56545.00
542.47	56589.47
542.63	56659.69
542.80	56676.07
542.97	56917.15
543.14	57036.51
543.31	57144.18
543.48	56966.30
543.64	57272.91
543.81	57153.54
543.98	57195.67
544.15	57141.84
544.32	57186.31
544.48	57413.34
544.65	56961.62
544.82	57326.74
544.99	57088.01
545.16	57375.89
545.32	57052.90
545.49	57305.68
545.66	57485.90
545.83	57411.00
546.00	57352.49
546.16	57528.03
546.33	57396.96
546.50	57301.00
546.67	57605.26
546.83	57319.72
547.00	57635.69
547.17	57612.29
547.34	57544.41
547.50	57799.53
547.67	57710.59
547.84	57680.16
548.00	58148.27
548.17	57982.09
548.34	57827.62
548.51	57956.35
548.67	58073.37
548.84	58096.78
549.01	57965.71
549.18	57865.06
549.34	57986.77
549.51	58197.42
549.68	58087.42
549.84	58152.95
550.01	58101.46
550.18	58251.25
550.34	58258.27
550.51	58372.96
550.68	58241.89
550.84	57932.94
551.01	58461.90
551.18	58351.90
551.34	58478.28
551.51	58267.64
551.68	58478.28
551.84	58560.20
552.01	58333.17
552.18	58522.76
552.34	58541.48
552.51	58473.60
552.68	58379.98
552.84	58461.90
553.01	58775.53
553.18	58436.16
553.34	58712.34
553.51	58389.34
553.67	58672.55
553.84	58660.85
554.01	58880.86
554.17	58630.42
554.34	58857.45
554.51	58621.06
554.67	59044.69
554.84	59051.72
555.00	58731.06
555.17	58873.84
555.33	58812.98
555.50	58548.50
555.67	59035.33
555.83	58967.46
556.00	58955.75
556.16	59098.53
556.33	58960.44
556.50	59168.74
556.66	59138.32
556.83	58951.07
556.99	59114.91
557.16	59341.94
557.32	59236.62
557.49	59297.47
557.65	59159.38
557.82	59267.05
557.98	59299.81
558.15	59133.63
558.32	59274.07
558.48	59285.77
558.65	59248.32
558.81	59381.73
558.98	59372.37
559.14	59381.73
559.31	59613.44
559.47	59554.93
559.64	59388.75
559.80	59430.88
559.97	59646.21
560.13	59477.69
560.30	59391.09
560.46	59648.55
560.63	59564.29
560.79	59580.68
560.96	59405.14
561.12	59442.59
561.29	59627.49
561.45	59653.23
561.61	59601.74
561.78	59686.00
561.94	59873.24
562.11	59540.89
562.27	59763.24
562.44	59590.04
562.60	59934.10
562.77	59861.54
562.93	59716.43
563.10	59906.01
563.26	59557.27
563.42	59889.63
563.59	59955.16
563.75	59786.64
563.92	59798.35
564.08	59746.86
564.24	59873.24
564.41	60041.76
564.57	59908.35
564.74	59842.82
564.90	59819.41
565.07	59814.73
565.23	59683.66
565.39	59964.52
565.56	60114.32
565.72	60079.21
565.88	60140.07
566.05	60046.44
566.21	60001.97
566.38	60207.94
566.54	60067.51
566.70	60189.22
566.87	60100.28
567.03	59807.71
567.19	60121.34
567.36	60114.32
567.52	59957.50
567.68	60348.37
567.85	60165.81
568.01	60296.88
568.17	60142.41
568.34	60147.09
568.50	60086.23
568.66	59999.63
568.83	60285.18
568.99	60121.34
569.15	60418.59
569.32	60271.14
569.48	60329.65
569.64	60369.44
569.81	60252.41
569.97	60207.94
570.13	60240.71
570.30	60114.32
570.46	60240.71
570.62	60484.12
570.78	60275.82
570.95	60168.15
571.11	60259.43
571.27	60257.09
571.43	60308.58
571.60	60383.48
571.76	60339.01
571.92	60477.10
572.09	60355.39
572.25	60479.44
572.41	60303.90
572.57	60329.65
572.74	60732.22
572.90	60200.92
573.06	60427.95
573.22	60491.15
573.38	60498.17
573.55	60577.75
573.71	60704.13
573.87	60526.25
574.03	60423.27
574.20	60685.41
574.36	60654.98
574.52	60662.00
574.68	60570.72
574.84	60516.89
575.01	60434.97
575.17	60500.51
575.33	60388.16
575.49	60243.05
575.65	60734.56
575.82	60566.04
575.98	60650.30
576.14	60762.65
576.30	60591.79
576.46	60395.18
576.62	60563.70
576.79	60575.40
576.95	60385.82
577.11	60456.04
577.27	60769.67
577.43	60582.43
577.59	60584.77
577.75	60582.43
577.92	60615.19
578.08	60559.02
578.24	60512.21
578.40	60811.80
578.56	60804.78
578.72	60622.22
578.88	60816.48
579.04	60917.12
579.21	60739.24
579.37	60830.52
579.53	60874.99
579.69	60647.96
579.85	60530.93
580.01	60676.05
580.17	60821.16
580.33	60757.97
580.49	60739.24
580.65	60821.16
580.82	60823.50
580.98	60603.49
581.14	60535.62
581.30	60767.33
581.46	60608.17
581.62	60722.86
581.78	60479.44
581.94	60762.65
582.10	60692.43
582.26	60589.45
582.42	60762.65
582.58	60804.78
582.74	60804.78
582.90	60924.14
583.06	60640.94
583.22	60533.28
583.38	60772.01
583.54	60732.22
583.70	60968.61
583.86	60762.65
584.02	60729.88
584.18	60989.68
584.34	60772.01
584.50	60814.14
584.66	60528.59
584.82	60650.30
584.98	60774.35
585.14	60982.66
585.30	60680.73
585.46	60966.27
585.62	60884.36
585.78	60952.23
585.94	60804.78
586.10	60975.64
586.26	60800.10
586.42	60793.07
586.58	60900.74
586.74	60893.72
586.90	60903.08
587.06	60725.20
587.22	60933.51
587.38	61031.81
587.54	60935.85
587.70	61041.17
587.86	60867.97
588.02	60935.85
588.18	60982.66
588.34	60781.37
588.49	61003.72
