SpectraSuite Data File
++++++++++++++++++++++++++++++++++++
Date: Fri Oct 25 11:26:26 EDT 2013
User: price-jones
Dark Spectrum Present: No
Reference Spectrum Present: No
Number of Sampled Component Spectra: 1
Spectrometers: USB2+H05261
Integration Time (usec): 100000 (USB2+H05261)
Spectra Averaged: 1 (USB2+H05261)
Boxcar Smoothing: 0 (USB2+H05261)
Correct for Electrical Dark: No (USB2+H05261)
Strobe/Lamp Enabled: No (USB2+H05261)
Correct for Detector Non-linearity: No (USB2+H05261)
Correct for Stray Light: No (USB2+H05261)
Number of Pixels in Processed Spectrum: 2048
>>>>>Begin Processed Spectral Data<<<<<
365.73	259.80
365.92	259.80
366.12	259.80
366.32	105.32
366.52	140.43
366.72	168.52
366.91	95.96
367.11	72.56
367.31	114.69
367.51	175.54
367.70	126.39
367.90	182.56
368.10	93.62
368.30	191.92
368.49	114.69
368.69	180.22
368.89	131.07
369.09	191.92
369.28	135.75
369.48	86.60
369.68	196.60
369.87	248.10
370.07	271.50
370.27	173.20
370.47	327.68
370.66	606.20
370.86	636.63
371.06	746.63
371.25	706.84
371.45	624.92
371.65	744.29
371.84	627.26
372.04	660.03
372.24	704.50
372.44	709.18
372.63	718.54
372.83	730.25
373.03	748.97
373.22	725.57
373.42	741.95
373.62	699.82
373.81	793.44
374.01	828.55
374.21	851.96
374.40	774.72
374.60	837.91
374.79	812.17
374.99	908.13
375.19	840.25
375.38	912.81
375.58	833.23
375.78	802.80
375.97	844.93
376.17	950.26
376.37	823.87
376.56	877.70
376.76	910.47
376.95	908.13
377.15	933.87
377.35	851.96
377.54	891.74
377.74	922.17
377.93	926.85
378.13	950.26
378.33	877.70
378.52	854.30
378.72	952.60
378.91	947.92
379.11	924.51
379.31	870.68
379.50	959.62
379.70	961.96
379.89	950.26
380.09	924.51
380.28	903.45
380.48	1029.84
380.68	985.37
380.87	945.58
381.07	973.66
381.26	1083.67
381.46	1022.81
381.65	1011.11
381.85	945.58
382.04	964.30
382.24	1008.77
382.43	1018.13
382.63	1088.35
382.83	1011.11
383.02	1069.62
383.22	1090.69
383.41	1146.86
383.61	1050.90
383.80	1100.05
384.00	1121.12
384.19	1132.82
384.39	1076.65
384.58	1151.54
384.78	1095.37
384.97	1137.50
385.17	1118.78
385.36	1151.54
385.56	1111.75
385.75	1170.27
385.95	1217.08
386.14	1149.20
386.34	1186.65
386.53	1184.31
386.72	1219.42
386.92	1277.93
387.11	1235.80
387.31	1252.19
387.50	1177.29
387.70	1301.34
387.89	1270.91
388.09	1242.82
388.28	1352.83
388.48	1373.89
388.67	1406.66
388.86	1404.32
389.06	1296.66
389.25	1324.74
389.45	1439.43
389.64	1362.19
389.84	1345.81
390.03	1385.60
390.22	1341.13
390.42	1366.87
390.61	1334.11
390.81	1324.74
391.00	1399.64
391.19	1474.54
391.39	1399.64
391.58	1369.21
391.78	1460.49
391.97	1455.81
392.16	1439.43
392.36	1474.54
392.55	1535.39
392.75	1488.58
392.94	1516.67
393.13	1523.69
393.33	1519.01
393.52	1579.86
393.71	1760.08
393.91	1596.25
394.10	1593.90
394.29	1535.39
394.49	1687.53
394.68	1706.25
394.88	1668.80
395.07	1659.44
395.26	1650.08
395.46	1680.50
395.65	1689.87
395.84	1692.21
396.04	1713.27
396.23	1659.44
396.42	1703.91
396.62	1708.59
396.81	1825.62
397.00	1673.48
397.19	1851.36
397.39	1837.32
397.58	1874.77
397.77	1844.34
397.97	1806.89
398.16	1905.20
398.35	1895.83
398.55	1818.60
398.74	1844.34
398.93	1977.75
399.12	1827.96
399.32	1898.17
399.51	2033.93
399.70	1898.17
399.90	1926.26
400.09	1975.41
400.28	2047.97
400.47	2019.88
400.67	2085.42
400.86	2136.91
401.05	2001.16
401.24	2087.76
401.44	2108.82
401.63	2223.51
401.82	2179.04
402.01	2090.10
402.21	2165.00
402.40	2125.21
402.59	2256.28
402.78	2094.78
402.97	2181.38
403.17	2153.29
403.36	2263.30
403.55	2317.13
403.74	2349.90
403.93	2314.79
404.13	2396.71
404.32	2310.11
404.51	2436.50
404.70	2370.96
404.89	2429.48
405.09	2342.88
405.28	2473.95
405.47	2480.97
405.66	2427.14
405.85	2396.71
406.05	2487.99
406.24	2593.31
406.43	2541.82
406.62	2605.02
406.81	2696.30
407.00	2605.02
407.20	2665.87
407.39	2616.72
407.58	2642.46
407.77	2745.45
407.96	2750.13
408.15	2700.98
408.34	2686.94
408.54	2787.58
408.73	2862.48
408.92	2733.75
409.11	2710.34
409.30	3021.63
409.49	2986.52
409.68	2930.35
409.87	3040.36
410.07	2906.95
410.26	2979.50
410.45	3066.10
410.64	2984.18
410.83	3012.27
411.02	3054.40
411.21	3206.53
411.40	3014.61
411.59	3185.47
411.78	3204.19
411.98	3164.40
412.17	3192.49
412.36	3218.24
412.55	3267.39
412.74	3421.86
412.93	3417.18
413.12	3337.60
413.31	3496.76
413.50	3428.88
413.69	3375.05
413.88	3541.23
414.07	3506.12
414.26	3691.02
414.45	3616.13
414.64	3583.36
414.83	3779.97
415.02	3721.45
415.22	3679.32
415.41	3843.16
415.60	3859.54
415.79	3927.42
415.98	3873.59
416.17	3927.42
416.36	3904.01
416.55	4049.13
416.74	4021.04
416.93	4065.51
417.12	4105.30
417.31	4107.64
417.50	4177.86
417.69	4346.37
417.88	4276.16
418.07	4236.37
418.26	4341.69
418.45	4269.14
418.64	4498.51
418.83	4397.87
419.02	4334.67
419.21	4397.87
419.39	4463.40
419.58	4451.70
419.77	4472.76
419.96	4552.34
420.15	4620.22
420.34	4402.55
420.53	4566.39
420.72	4585.11
420.91	4676.39
421.10	4777.03
421.29	4973.64
421.48	4685.75
421.67	4833.21
421.86	4809.80
422.05	4681.07
422.24	4835.55
422.43	4870.65
422.61	4821.50
422.80	4945.55
422.99	4936.19
423.18	4837.89
423.37	4931.51
423.56	4793.42
423.75	4954.91
423.94	4807.46
424.13	4648.30
424.32	4732.56
424.50	5027.47
424.69	5043.85
424.88	4973.64
425.07	4968.96
425.26	4877.68
425.45	4973.64
425.64	5004.07
425.83	4961.94
426.01	5048.54
426.20	5034.49
426.39	5039.17
426.58	4905.76
426.77	4968.96
426.96	5078.96
427.15	5083.64
427.33	5226.42
427.52	5081.30
427.71	5177.26
427.90	5233.44
428.09	5214.71
428.28	5221.74
428.46	5303.65
428.65	5296.63
428.84	5530.69
429.03	5418.34
429.22	5289.61
429.40	5397.28
429.59	5448.77
429.78	5245.14
429.97	5221.74
430.16	5397.28
430.34	5509.62
430.53	5731.97
430.72	5666.44
430.91	5533.03
431.10	5748.36
431.28	5619.63
431.47	5600.90
431.66	5617.29
431.85	5692.18
432.03	5895.81
432.22	6059.65
432.41	5909.85
432.60	5930.92
432.79	5935.60
432.97	5991.77
433.16	5928.58
433.35	6029.22
433.54	6064.33
433.72	5982.41
433.91	6179.01
434.10	6024.54
434.28	6031.56
434.47	6200.08
434.66	6244.55
434.85	6314.77
435.03	6296.04
435.22	6207.10
435.41	6441.15
435.59	6394.34
435.78	6370.94
435.97	6382.64
436.16	6509.03
436.34	6253.91
436.53	6457.54
436.72	6628.40
436.90	6399.02
437.09	6534.78
437.28	6431.79
437.46	6609.67
437.65	6654.14
437.84	6766.49
438.02	6626.06
438.21	6635.42
438.40	6628.40
438.58	6808.62
438.77	7023.95
438.96	6715.00
439.14	6902.24
439.33	7307.15
439.52	7084.80
439.70	7159.70
439.89	7208.85
440.08	7370.35
440.26	7183.10
440.45	7538.87
440.63	7499.08
440.82	7564.61
441.01	7597.38
441.19	7520.14
441.38	7529.50
441.57	7683.98
441.75	7868.88
441.94	7812.71
442.12	7838.45
442.31	7894.63
442.50	8021.02
442.68	7981.23
442.87	7801.01
443.05	8212.94
443.24	8322.94
443.43	8016.33
443.61	8217.62
443.80	8388.48
443.98	7985.91
444.17	7896.97
444.35	8259.75
444.54	8243.37
444.73	8259.75
444.91	8236.35
445.10	8564.02
445.28	8301.88
445.47	8339.33
445.65	8369.76
445.84	8336.99
446.02	8444.65
446.21	8393.16
446.39	8273.79
446.58	8465.72
446.77	8402.52
446.95	8131.02
447.14	8229.32
447.32	8451.67
447.51	8512.53
447.69	8353.37
447.88	8688.07
448.06	8517.21
448.25	8470.40
448.43	8603.81
448.62	8435.29
448.80	8397.84
448.99	8538.27
449.17	8573.38
449.36	8697.43
449.54	8727.86
449.73	8837.86
449.91	8828.50
450.10	8971.27
450.28	8833.18
450.46	9092.98
450.65	9149.15
450.83	8816.80
451.02	8926.80
451.20	9123.41
451.39	9104.68
451.57	9015.74
451.76	9032.13
451.94	9202.99
452.13	9420.66
452.31	9275.54
452.49	9139.79
452.68	9224.05
452.86	9135.11
453.05	9348.10
453.23	9380.87
453.42	9275.54
453.60	9142.13
453.78	9628.96
453.97	9280.22
454.15	9558.75
454.34	9387.89
454.52	9575.13
454.70	9668.75
454.89	9694.50
455.07	9933.23
455.26	9806.84
455.44	9940.26
455.62	9809.19
455.81	9825.57
455.99	9888.76
456.17	9912.17
456.36	10108.77
456.54	9872.38
456.73	10237.50
456.91	10410.70
457.09	10377.94
457.28	10457.51
457.46	10202.40
457.64	10361.55
457.83	10438.79
458.01	10223.46
458.19	10623.69
458.38	10532.41
458.56	10714.97
458.74	10682.20
458.93	10799.23
459.11	10813.28
459.29	10813.28
459.48	10677.52
459.66	10712.63
459.84	10902.22
460.03	11028.60
460.21	10817.96
460.39	10761.78
460.57	10813.28
460.76	10934.98
460.94	11133.93
461.12	11073.07
461.31	11073.07
461.49	10979.45
461.67	11204.14
461.85	11412.45
462.04	11229.89
462.22	11639.48
462.40	11529.48
462.59	11651.19
462.77	11613.74
462.95	11623.10
463.13	11548.20
463.32	11513.10
463.50	11503.73
463.68	11726.08
463.86	11590.33
464.05	11585.65
464.23	11634.80
464.41	11648.85
464.59	11552.88
464.78	11882.90
464.96	11992.90
465.14	11595.01
465.32	12032.69
465.50	12081.85
465.69	12077.16
465.87	12088.87
466.05	12203.55
466.23	12098.23
466.41	12187.17
466.60	12287.81
466.78	11978.86
466.96	12259.73
467.14	12217.60
467.32	12285.47
467.51	12170.79
467.69	12112.27
467.87	12224.62
468.05	12608.47
468.23	12383.77
468.41	12203.55
468.60	12386.12
468.78	12571.02
468.96	12638.89
469.14	12716.13
469.32	12849.54
469.50	12542.93
469.69	13263.82
469.87	12863.58
470.05	12776.98
470.23	12959.55
470.41	12849.54
470.59	13207.64
470.77	13231.05
470.95	13254.45
471.14	13551.70
471.32	13057.85
471.50	13488.51
471.68	13605.53
471.86	13448.72
472.04	13657.03
472.22	13806.82
472.40	13682.77
472.58	13816.18
472.77	13710.86
472.95	13682.77
473.13	14525.36
473.31	14162.58
473.49	13867.67
473.67	14291.31
473.85	14059.60
474.03	14586.22
474.21	14183.65
474.39	14635.37
474.57	14567.49
474.75	14937.30
474.93	14970.07
475.12	14909.21
475.30	15145.61
475.48	14892.83
475.66	15183.06
475.84	14857.72
476.02	15323.49
476.20	15367.96
476.38	15604.35
476.56	15784.57
476.74	16065.44
476.92	15866.49
477.10	15480.30
477.28	15941.39
477.46	16037.35
477.64	16280.77
477.82	16299.49
478.00	16940.80
478.18	16622.48
478.36	16762.92
478.54	17069.53
478.72	16849.52
478.90	17104.64
479.08	17605.51
479.26	17390.18
479.44	17317.62
479.62	17701.47
479.80	17825.52
479.98	18150.85
480.16	18410.65
480.34	18155.54
480.52	18633.00
480.70	18518.32
480.88	18040.85
481.06	18338.10
481.24	18899.83
481.41	18850.67
481.59	19323.46
481.77	19398.36
481.95	19360.91
482.13	19531.77
482.31	19424.11
482.49	20130.95
482.67	19936.68
482.85	20229.25
483.03	20402.45
483.21	20711.40
483.39	20680.97
483.57	20788.64
483.74	20996.95
483.92	21432.29
484.10	20931.41
484.28	21429.94
484.46	22019.76
484.64	22239.77
484.82	21851.24
485.00	22218.71
485.18	22696.17
485.35	22569.79
485.53	22787.46
485.71	22927.89
485.89	23489.62
486.07	23281.31
486.25	23349.18
486.43	23520.04
486.61	23693.24
486.78	23833.68
486.96	24304.12
487.14	24240.93
487.32	24334.55
487.50	24517.11
487.68	24577.97
487.85	25205.23
488.03	25418.22
488.21	25560.99
488.39	25282.47
488.57	25668.66
488.75	25970.58
488.92	26202.30
489.10	26333.37
489.28	26438.69
489.46	26871.69
489.64	26628.27
489.81	27716.62
489.99	27405.33
490.17	27285.97
490.35	27812.59
490.53	28226.86
490.70	27901.53
490.88	27770.46
491.06	28875.19
491.24	28484.32
491.41	29055.41
491.59	28847.10
491.77	28985.19
491.95	29427.56
492.13	29558.63
492.30	29968.22
492.48	29956.52
492.66	30146.10
492.84	30326.32
493.01	30490.16
493.19	30319.30
493.37	30588.46
493.54	30817.83
493.72	31342.11
493.90	31435.74
494.08	31264.88
494.25	31835.97
494.43	31639.36
494.61	32119.17
494.79	32238.54
494.96	32297.05
495.14	32357.91
495.32	33057.73
495.49	32706.65
495.67	32973.47
495.85	33069.43
496.02	33345.61
496.20	33785.63
496.38	34038.41
496.55	33998.62
496.73	34841.21
496.91	34576.73
497.09	34522.90
497.26	34759.30
497.44	34998.03
497.62	35091.65
497.79	35314.00
497.97	35126.76
498.14	35892.12
498.32	35849.99
498.50	36053.61
498.67	36306.39
498.85	35952.97
499.03	36460.87
499.20	36261.92
499.38	36875.14
499.56	36751.09
499.73	36783.86
499.91	36912.59
500.08	37303.46
500.26	37256.65
500.44	37577.30
500.61	37256.65
500.79	37254.31
500.97	37727.10
501.14	38518.20
501.32	38117.96
501.49	38110.94
501.67	38436.28
501.84	38731.18
502.02	38450.32
502.20	38958.22
502.37	38831.83
502.55	38876.30
502.72	39243.76
502.90	38981.62
503.07	39138.44
503.25	39063.54
503.43	39330.36
503.60	39721.23
503.78	40053.59
503.95	40154.23
504.13	40006.78
504.30	40140.19
504.48	40451.48
504.65	40425.73
504.83	40437.44
505.01	40931.29
505.18	40980.44
505.36	40889.16
505.53	41177.04
505.71	41694.30
505.88	41759.84
506.06	41050.66
506.23	41734.09
506.41	41654.51
506.58	41858.14
506.76	42359.02
506.93	42621.16
507.11	41839.42
507.28	42443.27
507.46	42148.37
507.63	42223.26
507.81	42852.87
507.98	42684.35
508.16	42920.74
508.33	42801.38
508.50	43107.99
508.68	43409.92
508.85	43739.93
509.03	43873.34
509.20	43384.17
509.38	43910.79
509.55	44243.15
509.73	44339.11
509.90	44491.24
510.08	43955.26
510.25	44744.02
510.42	44720.62
510.60	44533.37
510.77	44856.37
510.95	45099.78
511.12	44652.74
511.30	44626.99
511.47	45085.74
511.64	45141.91
511.82	45715.34
511.99	45191.06
512.17	45642.79
512.34	46005.57
512.51	46209.20
512.69	45907.27
512.86	46064.08
513.04	46110.89
513.21	46443.25
513.38	46316.86
513.56	46674.96
513.73	46459.63
513.90	47089.24
514.08	46766.24
514.25	46571.98
514.43	47395.85
514.60	47171.16
514.77	46979.23
514.95	47199.24
515.12	46852.84
515.29	47285.84
515.47	47641.60
515.64	47657.99
515.81	47803.10
515.99	47718.84
516.16	47997.37
516.33	48067.58
516.51	48685.48
516.68	48357.81
516.85	47885.02
517.03	48683.14
517.20	48526.33
517.37	48807.19
517.54	48428.02
517.72	48507.60
517.89	48664.42
518.06	48914.86
518.24	48790.81
518.41	48870.39
518.58	49216.78
518.75	48744.00
518.93	49095.08
519.10	49116.14
519.27	49588.93
519.45	48994.43
519.62	49663.83
519.79	50031.29
519.96	49801.92
520.14	49965.76
520.31	49759.79
520.48	50178.75
520.65	50052.36
520.83	50609.40
521.00	50387.05
521.17	50356.63
521.34	50543.87
521.52	50710.05
521.69	50518.12
521.86	50368.33
522.03	51077.51
522.20	51274.12
522.38	51255.39
522.55	51332.63
522.72	51037.72
522.89	51047.08
523.07	51360.72
523.24	51243.69
523.41	51400.50
523.58	50962.82
523.75	51463.70
523.92	51398.16
524.10	51545.62
524.27	51950.53
524.44	52072.24
524.61	51477.74
524.78	51969.26
524.96	51772.65
525.13	52198.63
525.30	52126.07
525.47	52109.69
525.64	52233.74
525.81	52500.56
525.98	52467.79
526.16	52322.68
526.33	52243.10
526.50	52624.60
526.67	52568.43
526.84	52601.20
527.01	52535.66
527.18	52788.44
527.36	52865.68
527.53	52788.44
527.70	52999.09
527.87	53144.20
528.04	53052.92
528.21	53073.99
528.38	53317.40
528.55	53207.40
528.72	53001.43
528.89	53205.06
529.07	53176.97
529.24	53230.80
529.41	53741.04
529.58	53366.55
529.75	53701.25
529.92	53359.53
530.09	53696.57
530.26	53698.91
530.43	53839.34
530.60	53553.80
530.77	53628.69
530.94	53918.92
531.11	53834.66
531.28	54031.27
531.46	54145.95
531.63	53921.26
531.80	54035.95
531.97	53886.15
532.14	54047.65
532.31	53928.28
532.48	54239.57
532.65	54309.79
532.82	54365.96
532.99	54174.04
533.16	54429.16
533.33	54405.75
533.50	54768.54
533.67	54665.55
533.84	54578.95
534.01	54644.49
534.18	54401.07
534.35	55217.92
534.52	54703.00
534.69	55096.21
534.86	55072.81
535.03	55140.68
535.20	55164.09
535.37	55128.98
535.54	55168.77
535.71	54946.42
535.88	55356.01
536.05	55056.42
536.22	55152.38
536.38	55409.84
536.55	55159.41
536.72	55571.34
536.89	55320.90
537.06	55264.73
537.23	55664.96
537.40	55442.61
537.57	55487.08
537.74	55510.49
537.91	55772.63
538.08	55774.97
538.25	55505.80
538.42	55592.40
538.59	55938.80
538.75	55767.94
538.92	55763.26
539.09	55952.85
539.26	56041.79
539.43	55814.76
539.60	55803.05
539.77	56016.04
539.94	56357.76
540.11	56158.81
540.28	56184.56
540.44	56219.67
540.61	56168.18
540.78	56250.09
540.95	56292.22
541.12	56207.97
541.29	56179.88
541.46	56341.38
541.62	56472.45
541.79	56512.23
541.96	56390.53
542.13	56413.93
542.30	56608.20
542.47	56449.04
542.63	56736.93
542.80	56769.69
542.97	56954.60
543.14	57130.14
543.31	56942.89
543.48	57001.41
543.64	57034.17
543.81	57261.21
543.98	57045.88
544.15	57059.92
544.32	57113.75
544.48	57516.32
544.65	57095.03
544.82	57333.76
544.99	57380.57
545.16	57212.06
545.32	57193.33
545.49	57420.36
545.66	57822.93
545.83	57497.60
546.00	57738.68
546.16	57469.51
546.33	57174.61
546.50	57333.76
546.67	57340.78
546.83	57317.38
547.00	57340.78
547.17	57434.41
547.34	57614.63
547.50	57778.46
547.67	58017.20
547.84	57820.59
548.00	57808.89
548.17	57815.91
548.34	57918.90
548.51	58014.86
548.67	57935.28
548.84	58021.88
549.01	57865.06
549.18	58106.14
549.34	58068.69
549.51	58124.86
549.68	58190.40
549.84	58131.89
550.01	58155.29
550.18	58049.97
550.34	58174.02
550.51	58265.30
550.68	58209.12
550.84	58021.88
551.01	58466.58
551.18	58223.17
551.34	58436.16
551.51	58291.04
551.68	58625.74
551.84	58506.37
552.01	58178.70
552.18	58471.26
552.34	58518.07
552.51	58555.52
552.68	58260.62
552.84	58583.61
553.01	58714.68
553.18	58656.17
553.34	58599.99
553.51	58534.46
553.67	58719.36
553.84	58798.94
554.01	58824.68
554.17	58770.85
554.34	58930.01
554.51	58838.73
554.67	58930.01
554.84	58679.57
555.00	58848.09
555.17	58754.47
555.33	58667.87
555.50	58756.81
555.67	58674.89
555.83	58911.28
556.00	58848.09
556.16	59271.73
556.33	58894.90
556.50	58915.96
556.66	59306.83
556.83	58843.41
556.99	59063.42
557.16	59559.61
557.32	59440.24
557.49	59283.43
557.65	59299.81
557.82	59309.18
557.98	59208.53
558.15	59213.21
558.32	59620.47
558.48	59032.99
558.65	59171.08
558.81	59386.41
558.98	59456.63
559.14	59384.07
559.31	59702.38
559.47	59309.18
559.64	59414.50
559.80	59564.29
559.97	59531.53
560.13	59543.23
560.30	59480.03
560.46	59566.63
560.63	59419.18
560.79	59444.93
560.96	59849.84
561.12	59531.53
561.29	59517.48
561.45	59594.72
561.61	59449.61
561.78	59522.16
561.94	59662.60
562.11	59674.30
562.27	59641.53
562.44	59817.07
562.60	59875.58
562.77	59707.07
562.93	59840.48
563.10	60058.15
563.26	59674.30
563.42	60158.79
563.59	59835.80
563.75	59997.29
563.92	59866.22
564.08	59887.29
564.24	60004.31
564.41	59987.93
564.57	59906.01
564.74	59842.82
564.90	59922.40
565.07	59896.65
565.23	59831.11
565.39	59877.93
565.56	60048.78
565.72	60233.69
565.88	60081.55
566.05	60009.00
566.21	60142.41
566.38	60051.12
566.54	60081.55
566.70	60257.09
566.87	60210.28
567.03	59997.29
567.19	60093.25
567.36	60025.38
567.52	60102.62
567.68	60278.16
567.85	60034.74
568.01	60264.11
568.17	59962.18
568.34	60432.63
568.50	60289.86
568.66	60177.51
568.83	60212.62
568.99	60144.75
569.15	60250.07
569.32	60161.13
569.48	60081.55
569.64	60383.48
569.81	60287.52
569.97	60020.70
570.13	60214.96
570.30	60158.79
570.46	60301.56
570.62	60149.43
570.78	60303.90
570.95	60282.84
571.11	60390.50
571.27	60266.45
571.43	60280.50
571.60	60399.86
571.76	60470.08
571.92	60437.31
572.09	60437.31
572.25	60212.62
572.41	60343.69
572.57	60437.31
572.74	60465.40
572.90	60322.63
573.06	60502.85
573.22	60355.39
573.38	60577.75
573.55	60537.96
573.71	60647.96
573.87	60582.43
574.03	60362.42
574.20	60374.12
574.36	60273.48
574.52	60631.58
574.68	60676.05
574.84	60535.62
575.01	60626.90
575.17	60313.26
575.33	60378.80
575.49	60360.08
575.65	60507.53
575.82	60568.38
575.98	60626.90
576.14	60786.05
576.30	60622.22
576.46	60458.38
576.62	60547.32
576.79	60493.49
576.95	60355.39
577.11	60549.66
577.27	60537.96
577.43	60507.53
577.59	60659.66
577.75	60654.98
577.92	60441.99
578.08	60638.60
578.24	60718.18
578.40	60774.35
578.56	60832.86
578.72	60605.83
578.88	60652.64
579.04	60903.08
579.21	60556.68
579.37	60879.67
579.53	60722.86
579.69	60654.98
579.85	60544.98
580.01	60458.38
580.17	60687.75
580.33	60781.37
580.49	60753.29
580.65	60760.31
580.82	60839.89
580.98	60479.44
581.14	60563.70
581.30	60814.14
581.46	60629.24
581.62	60872.65
581.78	60587.11
581.94	60673.71
582.10	60846.91
582.26	60757.97
582.42	60633.92
582.58	60598.81
582.74	60692.43
582.90	60898.40
583.06	60842.23
583.22	60500.51
583.38	60575.40
583.54	60720.52
583.70	60720.52
583.86	60748.60
584.02	60905.42
584.18	61006.06
584.34	60739.24
584.50	60910.10
584.66	60856.27
584.82	60601.15
584.98	61003.72
585.14	60633.92
585.30	60900.74
585.46	60907.76
585.62	61062.24
585.78	60989.68
585.94	60570.72
586.10	60671.37
586.26	60783.71
586.42	61006.06
586.58	60970.96
586.74	60823.50
586.90	60870.31
587.06	60917.12
587.22	60975.64
587.38	60793.07
587.54	61050.53
587.70	61027.13
587.86	60891.38
588.02	60994.36
588.18	61024.79
588.34	60989.68
588.49	60870.31
