SpectraSuite Data File
++++++++++++++++++++++++++++++++++++
Date: Fri Oct 25 11:22:55 EDT 2013
User: price-jones
Dark Spectrum Present: No
Reference Spectrum Present: No
Number of Sampled Component Spectra: 1
Spectrometers: USB2+H05261
Integration Time (usec): 100000 (USB2+H05261)
Spectra Averaged: 1 (USB2+H05261)
Boxcar Smoothing: 0 (USB2+H05261)
Correct for Electrical Dark: No (USB2+H05261)
Strobe/Lamp Enabled: No (USB2+H05261)
Correct for Detector Non-linearity: No (USB2+H05261)
Correct for Stray Light: No (USB2+H05261)
Number of Pixels in Processed Spectrum: 2048
>>>>>Begin Processed Spectral Data<<<<<
365.73	191.92
365.92	191.92
366.12	191.92
366.32	224.69
366.52	100.64
366.72	147.45
366.91	128.73
367.11	114.69
367.31	28.09
367.51	135.75
367.70	88.94
367.90	138.09
368.10	166.18
368.30	126.39
368.49	100.64
368.69	147.45
368.89	210.65
369.09	159.16
369.28	222.35
369.48	180.22
369.68	131.07
369.87	98.30
370.07	182.56
370.27	201.29
370.47	283.20
370.66	662.37
370.86	620.24
371.06	641.31
371.25	648.33
371.45	655.35
371.65	727.91
371.84	650.67
372.04	685.78
372.24	709.18
372.44	704.50
372.63	755.99
372.83	798.12
373.03	758.33
373.22	772.38
373.42	755.99
373.62	744.29
373.81	763.01
374.01	826.21
374.21	791.10
374.40	730.25
374.60	842.59
374.79	774.72
374.99	753.65
375.19	753.65
375.38	814.51
375.58	866.00
375.78	807.48
375.97	898.77
376.17	917.49
376.37	823.87
376.56	877.70
376.76	863.66
376.95	854.30
377.15	884.72
377.35	910.47
377.54	835.57
377.74	851.96
377.93	917.49
378.13	889.40
378.33	978.34
378.52	908.13
378.72	926.85
378.91	985.37
379.11	866.00
379.31	882.38
379.50	985.37
379.70	992.39
379.89	961.96
380.09	964.30
380.28	898.77
380.48	1020.47
380.68	994.73
380.87	1008.77
381.07	1006.43
381.26	1006.43
381.46	985.37
381.65	983.02
381.85	1053.24
382.04	1004.09
382.24	1008.77
382.43	1046.22
382.63	973.66
382.83	1018.13
383.02	1160.91
383.22	1121.12
383.41	1055.58
383.61	1100.05
383.80	1104.73
384.00	1158.57
384.19	1057.92
384.39	1174.95
384.58	1137.50
384.78	1130.48
384.97	1151.54
385.17	1095.37
385.36	1153.88
385.56	1114.10
385.75	1128.14
385.95	1153.88
386.14	1174.95
386.34	1188.99
386.53	1158.57
386.72	1193.67
386.92	1245.16
387.11	1177.29
387.31	1275.59
387.50	1153.88
387.70	1219.42
387.89	1263.89
388.09	1301.34
388.28	1170.27
388.48	1263.89
388.67	1378.58
388.86	1289.64
389.06	1287.29
389.25	1252.19
389.45	1355.17
389.64	1404.32
389.84	1385.60
390.03	1425.39
390.22	1334.11
390.42	1399.64
390.61	1357.51
390.81	1409.00
391.00	1416.02
391.19	1486.24
391.39	1430.07
391.58	1493.26
391.78	1437.09
391.97	1352.83
392.16	1416.02
392.36	1598.59
392.55	1474.54
392.75	1526.03
392.94	1551.78
393.13	1568.16
393.33	1411.34
393.52	1437.09
393.71	1486.24
393.91	1626.67
394.10	1633.69
394.29	1607.95
394.49	1570.50
394.68	1577.52
394.88	1542.41
395.07	1650.08
395.26	1680.50
395.46	1659.44
395.65	1624.33
395.84	1661.78
396.04	1729.66
396.23	1743.70
396.42	1781.15
396.62	1781.15
396.81	1753.06
397.00	1743.70
397.19	1776.47
397.39	1785.83
397.58	1785.83
397.77	1827.96
397.97	1888.81
398.16	2017.54
398.35	1980.09
398.55	1888.81
398.74	1849.02
398.93	1928.60
399.12	1877.11
399.32	1816.26
399.51	1970.73
399.70	1930.94
399.90	1954.35
400.09	1987.11
400.28	2038.61
400.47	2122.87
400.67	2017.54
400.86	1949.67
401.05	2150.95
401.24	2083.08
401.44	2143.93
401.63	2209.47
401.82	2209.47
402.01	2120.53
402.21	2202.44
402.40	2244.57
402.59	2141.59
402.78	2190.74
402.97	2155.63
403.17	2244.57
403.36	2361.60
403.55	2380.32
403.74	2293.72
403.93	2359.26
404.13	2246.91
404.32	2389.69
404.51	2396.71
404.70	2448.20
404.89	2413.09
405.09	2595.65
405.28	2511.39
405.47	2497.35
405.66	2370.96
405.85	2438.84
406.05	2448.20
406.24	2520.76
406.43	2630.76
406.62	2710.34
406.81	2689.28
407.00	2644.81
407.20	2637.78
407.39	2565.23
407.58	2626.08
407.77	2766.51
407.96	2726.72
408.15	2822.69
408.34	2675.23
408.54	2672.89
408.73	2743.11
408.92	2789.92
409.11	2829.71
409.30	2782.90
409.49	2881.20
409.68	2972.48
409.87	2942.05
410.07	3021.63
410.26	2935.03
410.45	3101.21
410.64	3075.46
410.83	2967.80
411.02	3045.04
411.21	3157.38
411.40	3173.77
411.59	3162.06
411.78	3208.87
411.98	3236.96
412.17	3234.62
412.36	3276.75
412.55	3384.41
412.74	3489.74
412.93	3398.46
413.12	3496.76
413.31	3412.50
413.50	3496.76
413.69	3515.48
413.88	3637.19
414.07	3548.25
414.26	3676.98
414.45	3707.41
414.64	3644.21
414.83	3702.73
415.02	3798.69
415.22	3868.91
415.41	3857.20
415.60	3768.26
415.79	3925.08
415.98	4112.32
416.17	3946.14
416.36	3969.55
416.55	4100.62
416.74	4138.07
416.93	4007.00
417.12	4131.05
417.31	4166.15
417.50	4140.41
417.69	4290.20
417.88	4369.78
418.07	4236.37
418.26	4351.06
418.45	4393.19
418.64	4472.76
418.83	4496.17
419.02	4297.22
419.21	4500.85
419.39	4545.32
419.58	4512.55
419.77	4430.63
419.96	4545.32
420.15	4594.47
420.34	4580.43
420.53	4704.48
420.72	4704.48
420.91	4662.35
421.10	4737.24
421.29	4863.63
421.48	4655.33
421.67	4784.06
421.86	4748.95
422.05	4807.46
422.24	4842.57
422.43	4737.24
422.61	4971.30
422.80	4915.12
422.99	4919.81
423.18	5184.29
423.37	5001.72
423.56	5036.83
423.75	5111.73
423.94	4943.21
424.13	4667.03
424.32	4774.69
424.50	4973.64
424.69	5076.62
424.88	5013.43
425.07	5064.92
425.26	4887.04
425.45	4865.97
425.64	4924.49
425.83	5008.75
426.01	5177.26
426.20	5247.48
426.39	5057.90
426.58	5041.51
426.77	5128.11
426.96	5184.29
427.15	5156.20
427.33	5123.43
427.52	5217.05
427.71	5341.10
427.90	5146.84
428.09	5327.06
428.28	5413.66
428.46	5423.02
428.65	5427.70
428.84	5465.15
429.03	5549.41
429.22	5322.38
429.40	5465.15
429.59	5493.24
429.78	5418.34
429.97	5387.91
430.16	5479.19
430.34	5593.88
430.53	5706.23
430.72	5762.40
430.91	5612.60
431.10	5542.39
431.28	5776.44
431.47	5858.36
431.66	5769.42
431.85	5832.62
432.03	5951.98
432.22	5968.37
432.41	5942.62
432.60	6071.35
432.79	6045.60
432.97	6111.14
433.16	6047.94
433.35	5919.21
433.54	6162.63
433.72	6277.32
433.91	6139.23
434.10	6155.61
434.28	6017.52
434.47	6265.61
434.66	6406.05
434.85	6328.81
435.03	6375.62
435.22	6270.30
435.41	6600.31
435.59	6422.43
435.78	6361.58
435.97	6328.81
436.16	6647.12
436.34	6370.94
436.53	6429.45
436.72	6661.16
436.90	6384.98
437.09	6761.81
437.28	6644.78
437.46	6609.67
437.65	6810.96
437.84	6864.79
438.02	6864.79
438.21	6946.71
438.40	6892.88
438.58	7124.59
438.77	7213.53
438.96	7176.08
439.14	7068.42
439.33	7124.59
439.52	7316.51
439.70	7178.42
439.89	7468.65
440.08	7398.43
440.26	7503.76
440.45	7428.86
440.63	7524.82
440.82	7742.49
441.01	7485.03
441.19	7695.68
441.38	7908.67
441.57	7779.94
441.75	7578.65
441.94	7742.49
442.12	7943.78
442.31	8126.34
442.50	7894.63
442.68	8058.46
442.87	8212.94
443.05	8269.11
443.24	8140.38
443.43	8327.63
443.61	8194.22
443.80	8367.42
443.98	8280.82
444.17	7791.64
444.35	8315.92
444.54	8180.17
444.73	8479.76
444.91	8535.93
445.10	8528.91
445.28	8416.57
445.47	8365.07
445.65	8173.15
445.84	8547.64
446.02	8521.89
446.21	8435.29
446.39	8484.44
446.58	8484.44
446.77	8486.78
446.95	8266.77
447.14	8454.02
447.32	8561.68
447.51	8468.06
447.69	8526.57
447.88	8571.04
448.06	8592.11
448.25	8505.51
448.43	8699.77
448.62	8683.39
448.80	8592.11
448.99	8676.37
449.17	8718.50
449.36	8889.35
449.54	9053.19
449.73	8938.51
449.91	9121.07
450.10	9025.11
450.28	9146.81
450.46	9184.26
450.65	8973.61
450.83	9114.05
451.02	9109.36
451.20	9385.55
451.39	9350.44
451.57	9277.88
451.76	9135.11
451.94	9179.58
452.13	9462.79
452.31	9415.98
452.49	9231.07
452.68	9448.74
452.86	9483.85
453.05	9530.66
453.23	9643.01
453.42	9439.38
453.60	9329.38
453.78	9605.56
453.97	9605.56
454.15	9434.70
454.34	9774.08
454.52	9647.69
454.70	9640.67
454.89	9858.34
455.07	9708.54
455.26	9987.07
455.44	10026.86
455.62	9991.75
455.81	10045.58
455.99	10092.39
456.17	10111.11
456.36	9998.77
456.54	10424.75
456.73	10464.54
456.91	10513.69
457.09	10473.90
457.28	10668.16
457.46	10429.43
457.64	10445.81
457.83	10757.10
458.01	10494.96
458.19	10771.15
458.38	10785.19
458.56	10602.63
458.74	10600.29
458.93	10621.35
459.11	10874.13
459.29	10855.40
459.48	10913.92
459.66	10738.38
459.84	10780.51
460.03	11206.48
460.21	11061.37
460.39	11089.46
460.57	10981.79
460.76	11201.80
460.94	11190.10
461.12	11363.30
461.31	11140.95
461.49	11328.19
461.67	11407.77
461.85	11449.90
462.04	11421.81
462.22	12018.65
462.40	11810.34
462.59	11653.53
462.77	11576.29
462.95	11667.57
463.13	11693.32
463.32	11845.45
463.50	11800.98
463.68	11868.86
463.86	11779.92
464.05	11707.36
464.23	11733.11
464.41	11908.65
464.59	11850.13
464.78	12182.49
464.96	12028.01
465.14	11976.52
465.32	12093.55
465.50	12238.66
465.69	12243.34
465.87	12292.49
466.05	12128.66
466.23	12383.77
466.41	12208.23
466.60	12458.67
466.78	12322.92
466.96	12318.24
467.14	12301.86
467.32	12463.35
467.51	12716.13
467.69	12205.89
467.87	12425.90
468.05	12959.55
468.23	12624.85
468.41	12327.60
468.60	12657.62
468.78	12739.54
468.96	12807.41
469.14	13144.45
469.32	13083.59
469.50	12933.80
469.69	13268.50
469.87	13156.15
470.05	13095.30
470.23	13252.11
470.41	13563.40
470.59	13444.04
470.77	13146.79
470.95	13542.34
471.14	13778.73
471.32	13301.26
471.50	13341.05
471.68	13598.51
471.86	13757.67
472.04	13731.92
472.22	14228.12
472.40	14090.02
472.58	13998.74
472.77	13980.02
472.95	14464.51
473.13	14501.96
473.31	14490.26
473.49	14202.37
473.67	14300.67
473.85	14455.15
474.03	14609.62
474.21	14485.58
474.39	14642.39
474.57	14836.66
474.75	14927.94
474.93	15382.00
475.12	14958.36
475.30	15484.98
475.48	15379.66
475.66	15634.78
475.84	15585.63
476.02	15672.23
476.20	15606.69
476.38	15782.23
476.56	16042.03
476.74	16318.22
476.92	16217.57
477.10	16037.35
477.28	16210.55
477.46	16325.24
477.64	16573.33
477.82	16987.61
478.00	16915.05
478.18	16870.58
478.36	16933.78
478.54	17179.53
478.72	17256.77
478.90	17200.60
479.08	17647.64
479.26	17811.48
479.44	17841.90
479.62	17961.27
479.80	18118.09
479.98	18082.98
480.16	18822.59
480.34	18389.59
480.52	18590.88
480.70	18611.94
480.88	18537.04
481.06	18693.86
481.24	19040.26
481.41	19403.04
481.59	19648.80
481.77	19545.81
481.95	19777.53
482.13	20025.62
482.31	19866.47
482.49	20531.18
482.67	20353.30
482.85	20341.60
483.03	20814.38
483.21	20964.18
483.39	21198.23
483.57	21324.62
483.74	21191.21
483.92	21261.43
484.10	21296.53
484.28	22136.79
484.46	22157.85
484.64	22302.96
484.82	22162.53
485.00	22838.95
485.18	23133.86
485.35	23028.53
485.53	22724.26
485.71	23295.35
485.89	23573.88
486.07	23594.94
486.25	23854.74
486.43	23700.26
486.61	24002.19
486.78	24273.70
486.96	24526.47
487.14	24910.32
487.32	24505.41
487.50	25319.92
487.68	25163.10
487.85	25598.44
488.03	25469.71
488.21	25687.38
488.39	25921.43
488.57	26239.75
488.75	26281.88
488.92	26759.34
489.10	26749.98
489.28	26654.02
489.46	27236.81
489.64	26998.08
489.81	27903.87
489.99	28114.52
490.17	28374.31
490.35	28236.22
490.53	28369.63
490.70	28442.19
490.88	28584.96
491.06	29263.72
491.24	28978.17
491.41	29172.44
491.59	28912.64
491.77	29261.38
491.95	29930.77
492.13	29841.83
492.30	30005.67
492.48	30148.44
492.66	30359.09
492.84	30443.35
493.01	30934.86
493.19	30497.18
493.37	30969.97
493.54	31868.73
493.72	31498.93
493.90	31562.12
494.08	31889.80
494.25	32077.04
494.43	32252.58
494.61	32889.21
494.79	32606.00
494.96	32601.32
495.14	33425.19
495.32	33415.83
495.49	33635.84
495.67	33516.47
495.85	33443.91
496.02	33963.51
496.20	34270.12
496.38	34401.19
496.55	34813.13
496.73	35110.38
496.91	34855.26
497.09	35054.20
497.26	35529.33
497.44	35201.66
497.62	35566.78
497.79	36084.04
497.97	35756.36
498.14	36212.77
498.32	36428.10
498.50	36231.49
498.67	37251.97
498.85	36657.47
499.03	37041.32
499.20	37046.00
499.38	37296.44
499.56	37146.64
499.73	37450.91
499.91	37591.34
500.08	37649.86
500.26	37493.04
500.44	37858.17
500.61	37998.60
500.79	38038.39
500.97	38733.53
501.14	38876.30
501.32	39164.18
501.49	39267.17
501.67	39246.10
501.84	39234.40
502.02	38986.30
502.20	39501.22
502.37	39423.98
502.55	39161.84
502.72	39714.21
502.90	39821.87
503.07	40044.23
503.25	39997.41
503.43	40203.38
503.60	40535.74
503.78	40694.89
503.95	40790.86
504.13	40634.04
504.30	41043.63
504.48	40809.58
504.65	41254.28
504.83	40975.76
505.01	41319.82
505.18	41844.10
505.36	41528.13
505.53	41687.28
505.71	41691.96
505.88	42143.69
506.06	42078.15
506.23	42249.01
506.41	42204.54
506.58	42089.85
506.76	42419.87
506.93	42787.33
507.11	42766.27
507.28	42721.80
507.46	43016.71
507.63	43400.55
507.81	43501.20
507.98	43501.20
508.16	43906.11
508.33	43618.22
508.50	43622.90
508.68	44046.54
508.85	44254.85
509.03	44168.25
509.20	44507.63
509.38	44907.86
509.55	44957.01
509.73	44556.78
509.90	44971.05
510.08	44994.46
510.25	44814.24
510.42	44872.75
510.60	45167.66
510.77	45441.50
510.95	45415.76
511.12	45792.58
511.30	45436.82
511.47	45528.10
511.64	45581.93
511.82	46251.33
511.99	46033.66
512.17	46251.33
512.34	45839.39
512.51	46937.10
512.69	46529.85
512.86	46387.08
513.04	46887.95
513.21	46597.73
513.38	47014.34
513.56	47168.82
513.73	46784.97
513.90	47423.93
514.08	47274.14
514.25	47639.26
514.43	47547.98
514.60	47643.94
514.77	47882.68
514.95	47810.12
515.12	47861.61
515.29	47597.13
515.47	48343.77
515.64	48421.00
515.81	48280.57
515.99	48371.85
516.16	48935.92
516.33	48987.41
516.51	49118.48
516.68	48779.10
516.85	49001.46
517.03	49071.67
517.20	49139.55
517.37	49263.60
517.54	49036.56
517.72	49605.31
517.89	49296.36
518.06	49198.06
518.24	49727.02
518.41	49610.00
518.58	49558.50
518.75	49617.02
518.93	50000.86
519.10	50054.70
519.27	49874.48
519.45	50040.65
519.62	50061.72
519.79	50110.87
519.96	50028.95
520.14	50373.01
520.31	50080.44
520.48	50450.25
520.65	50714.73
520.83	50845.80
521.00	50925.38
521.17	50848.14
521.34	51164.11
521.52	51178.15
521.69	50906.65
521.86	51337.31
522.03	51494.13
522.20	51381.78
522.38	51695.41
522.55	51845.21
522.72	51648.60
522.89	51597.11
523.07	52261.82
523.24	51728.18
523.41	51728.18
523.58	51526.89
523.75	51987.98
523.92	52069.90
524.10	52301.61
524.27	52502.90
524.44	52126.07
524.61	52526.30
524.78	52198.63
524.96	52322.68
525.13	52538.01
525.30	52659.71
525.47	52797.80
525.64	52875.04
525.81	52758.02
525.98	52905.47
526.16	52821.21
526.33	53123.14
526.50	53441.45
526.67	52989.73
526.84	53158.25
527.01	52839.93
527.18	53125.48
527.36	53043.56
527.53	53563.16
527.70	53574.86
527.87	53488.26
528.04	53396.98
528.21	53787.85
528.38	53396.98
528.55	53780.83
528.72	53633.38
528.89	53574.86
529.07	53635.72
529.24	53366.55
529.41	53626.35
529.58	53911.90
529.75	53762.11
529.92	54157.66
530.09	53811.26
530.26	54330.86
530.43	54185.74
530.60	54253.62
530.77	53935.30
530.94	54670.23
531.11	54113.19
531.28	54569.59
531.46	54377.67
531.63	54431.50
531.80	54705.34
531.97	54937.05
532.14	54934.71
532.31	54829.39
532.48	54841.09
532.65	54880.88
532.82	54560.23
532.99	54880.88
533.16	54923.01
533.33	55121.96
533.50	55269.41
533.67	54981.52
533.84	54674.91
534.01	55379.42
534.18	55016.63
534.35	55674.32
534.52	55061.10
534.69	55440.27
534.86	55426.23
535.03	55332.60
535.20	55702.41
535.37	55440.27
535.54	55580.70
535.71	55402.82
535.88	55718.79
536.05	55779.65
536.22	55700.07
536.38	56044.13
536.55	55894.33
536.72	55646.24
536.89	55749.22
537.06	55629.85
537.23	55777.31
537.40	55718.79
537.57	56112.00
537.74	56135.41
537.91	56250.09
538.08	56060.51
538.25	56051.15
538.42	56287.54
538.59	56273.50
538.75	55997.32
538.92	56346.06
539.09	56296.91
539.26	56294.56
539.43	56453.72
539.60	56528.62
539.77	56385.85
539.94	56800.12
540.11	56526.28
540.28	56708.84
540.44	56582.45
540.61	56472.45
540.78	56727.56
540.95	56374.14
541.12	56741.61
541.29	56643.30
541.46	56828.21
541.62	56865.66
541.79	57078.64
541.96	56563.73
542.13	56741.61
542.30	56891.40
542.47	56851.61
542.63	56966.30
542.80	57059.92
542.97	57317.38
543.14	57322.06
543.31	57347.81
543.48	57324.40
543.64	57769.10
543.81	57572.50
543.98	57521.01
544.15	57553.77
544.32	57698.89
544.48	57804.21
544.65	57181.63
544.82	57387.60
544.99	57406.32
545.16	57609.95
545.32	57705.91
545.49	57853.36
545.66	57916.56
545.83	57839.32
546.00	57883.79
546.16	57982.09
546.33	57895.49
546.50	57893.15
546.67	57839.32
546.83	57710.59
547.00	58019.54
547.17	57820.59
547.34	58040.60
547.50	58363.60
547.67	58202.10
547.84	58206.78
548.00	58209.12
548.17	58548.50
548.34	58166.99
548.51	58497.01
548.67	58473.60
548.84	58333.17
549.01	58117.84
549.18	58384.66
549.34	58492.33
549.51	58501.69
549.68	58485.31
549.84	58557.86
550.01	58571.91
550.18	58429.13
550.34	58660.85
550.51	58721.70
550.68	58485.31
550.84	58394.03
551.01	58911.28
551.18	58705.32
551.34	58820.00
551.51	58731.06
551.68	58791.92
551.84	58749.79
552.01	58534.46
552.18	58948.73
552.34	58738.08
552.51	58904.26
552.68	58976.82
552.84	58901.92
553.01	59009.59
553.18	59077.46
553.34	59096.19
553.51	58876.18
553.67	59194.49
553.84	59185.13
554.01	59093.85
554.17	59016.61
554.34	59220.23
554.51	59082.14
554.67	59274.07
554.84	59007.25
555.00	59351.30
555.17	59262.36
555.33	59124.27
555.50	59128.95
555.67	59267.05
555.83	59220.23
556.00	59304.49
556.16	59550.25
556.33	59395.77
556.50	59348.96
556.66	59707.07
556.83	59243.64
556.99	59753.88
557.16	59660.26
557.32	59660.26
557.49	59770.26
557.65	59592.38
557.82	59538.55
557.98	59484.72
558.15	59494.08
558.32	59742.17
558.48	59494.08
558.65	59578.34
558.81	59554.93
558.98	59821.75
559.14	59831.11
559.31	59845.16
559.47	59980.91
559.64	60034.74
559.80	59852.18
559.97	59943.46
560.13	59835.80
560.30	59756.22
560.46	59920.05
560.63	59920.05
560.79	59938.78
560.96	60083.89
561.12	59870.90
561.29	60126.02
561.45	60109.64
561.61	59955.16
561.78	59807.71
561.94	60001.97
562.11	60144.75
562.27	60165.81
562.44	60135.38
562.60	60240.71
562.77	60275.82
562.93	60111.98
563.10	60376.46
563.26	60158.79
563.42	60418.59
563.59	60123.68
563.75	60214.96
563.92	60212.62
564.08	60168.15
564.24	60477.10
564.41	60563.70
564.57	60416.25
564.74	60331.99
564.90	60371.78
565.07	60191.56
565.23	60388.16
565.39	60273.48
565.56	60224.32
565.72	60336.67
565.88	60467.74
566.05	60280.50
566.21	60416.25
566.38	60268.79
566.54	60547.32
566.70	60385.82
566.87	60622.22
567.03	60381.14
567.19	60659.66
567.36	60603.49
567.52	60481.78
567.68	60640.94
567.85	60692.43
568.01	60734.56
568.17	60500.51
568.34	60692.43
568.50	60622.22
568.66	60346.03
568.83	60626.90
568.99	60582.43
569.15	60582.43
569.32	60692.43
569.48	60594.13
569.64	60645.62
569.81	60708.82
569.97	60566.04
570.13	60762.65
570.30	60811.80
570.46	60720.52
570.62	60718.18
570.78	60708.82
570.95	60542.64
571.11	60917.12
571.27	60533.28
571.43	60924.14
571.60	60865.63
571.76	60825.84
571.92	60921.80
572.09	60982.66
572.25	60664.35
572.41	60760.31
572.57	60949.89
572.74	60956.91
572.90	60879.67
573.06	60783.71
573.22	60610.51
573.38	60762.65
573.55	60797.76
573.71	61041.17
573.87	60940.53
574.03	60811.80
574.20	60867.97
574.36	60654.98
574.52	61062.24
574.68	61038.83
574.84	61013.08
575.01	61010.74
575.17	61043.51
575.33	60802.44
575.49	60849.25
575.65	60856.27
575.82	60914.78
575.98	61013.08
576.14	61174.58
576.30	60926.49
576.46	60956.91
576.62	61003.72
576.79	60966.27
576.95	60917.12
577.11	61050.53
577.27	61137.13
577.43	61158.20
577.59	60882.02
577.75	60992.02
577.92	60945.21
578.08	60947.55
578.24	60863.29
578.40	61160.54
578.56	60994.36
578.72	60809.46
578.88	61118.41
579.04	61148.84
579.21	60980.32
579.37	61071.60
579.53	61085.64
579.69	60750.94
579.85	60952.23
580.01	60994.36
580.17	60877.33
580.33	61209.69
580.49	61270.54
580.65	61069.26
580.82	60999.04
580.98	60966.27
581.14	61048.19
581.30	61165.22
581.46	60938.19
581.62	60940.53
581.78	60898.40
581.94	61092.66
582.10	61130.11
582.26	61113.73
582.42	60931.17
582.58	61265.86
582.74	61144.16
582.90	61132.45
583.06	61174.58
583.22	60954.57
583.38	61195.65
583.54	61099.68
583.70	61212.03
583.86	61317.35
584.02	61003.72
584.18	61160.54
584.34	61085.64
584.50	61247.14
584.66	60949.89
584.82	60856.27
584.98	61169.90
585.14	60856.27
585.30	61172.24
585.46	61090.32
585.62	61265.86
585.78	61366.51
585.94	60954.57
586.10	61319.70
586.26	61209.69
586.42	61375.87
586.58	61307.99
586.74	61322.04
586.90	61153.52
587.06	61097.34
587.22	61312.67
587.38	61249.48
587.54	61162.88
587.70	61633.33
587.86	61186.28
588.02	61197.99
588.18	61333.74
588.34	61315.01
588.49	61378.21
