SpectraSuite Data File
++++++++++++++++++++++++++++++++++++
Date: Fri Oct 25 10:47:17 EDT 2013
User: price-jones
Dark Spectrum Present: No
Reference Spectrum Present: No
Number of Sampled Component Spectra: 1
Spectrometers: USB2+H05261
Integration Time (usec): 100000 (USB2+H05261)
Spectra Averaged: 1 (USB2+H05261)
Boxcar Smoothing: 0 (USB2+H05261)
Correct for Electrical Dark: No (USB2+H05261)
Strobe/Lamp Enabled: No (USB2+H05261)
Correct for Detector Non-linearity: No (USB2+H05261)
Correct for Stray Light: No (USB2+H05261)
Number of Pixels in Processed Spectrum: 2048
>>>>>Begin Processed Spectral Data<<<<<
365.73	46.81
365.92	46.81
366.12	46.81
366.32	114.69
366.52	35.11
366.72	16.38
366.91	0.00
367.11	105.32
367.31	16.38
367.51	46.81
367.70	18.72
367.90	119.37
368.10	18.72
368.30	0.00
368.49	53.83
368.69	16.38
368.89	42.13
369.09	88.94
369.28	4.68
369.48	0.00
369.68	81.92
369.87	91.28
370.07	107.66
370.27	173.20
370.47	201.29
370.66	320.65
370.86	505.56
371.06	456.40
371.25	454.06
371.45	414.27
371.65	470.45
371.84	463.43
372.04	393.21
372.24	489.17
372.44	475.13
372.63	470.45
372.83	425.98
373.03	531.30
373.22	402.57
373.42	447.04
373.62	468.11
373.81	463.43
374.01	547.69
374.21	505.56
374.40	545.34
374.60	552.37
374.79	613.22
374.99	540.66
375.19	543.00
375.38	599.18
375.58	535.98
375.78	634.29
375.97	603.86
376.17	568.75
376.37	580.45
376.56	589.82
376.76	547.69
376.95	596.84
377.15	603.86
377.35	566.41
377.54	615.56
377.74	517.26
377.93	547.69
378.13	638.97
378.33	615.56
378.52	531.30
378.72	634.29
378.91	697.48
379.11	533.64
379.31	568.75
379.50	664.71
379.70	610.88
379.89	622.58
380.09	528.96
380.28	615.56
380.48	624.92
380.68	589.82
380.87	552.37
381.07	622.58
381.26	676.41
381.46	657.69
381.65	692.80
381.85	662.37
382.04	674.07
382.24	667.05
382.43	669.39
382.63	737.27
382.83	667.05
383.02	678.76
383.22	650.67
383.41	763.01
383.61	711.52
383.80	744.29
384.00	669.39
384.19	746.63
384.39	725.57
384.58	732.59
384.78	713.86
384.97	709.18
385.17	770.04
385.36	678.76
385.56	781.74
385.75	737.27
385.95	784.08
386.14	786.42
386.34	720.88
386.53	821.53
386.72	781.74
386.92	758.33
387.11	774.72
387.31	791.10
387.50	800.46
387.70	823.87
387.89	802.80
388.09	849.61
388.28	840.25
388.48	786.42
388.67	830.89
388.86	781.74
389.06	786.42
389.25	840.25
389.45	844.93
389.64	784.08
389.84	816.85
390.03	891.74
390.22	873.02
390.42	814.51
390.61	849.61
390.81	896.43
391.00	894.08
391.19	954.94
391.39	971.32
391.58	945.58
391.78	896.43
391.97	983.02
392.16	912.81
392.36	990.05
392.55	945.58
392.75	912.81
392.94	966.64
393.13	966.64
393.33	873.02
393.52	943.24
393.71	1008.77
393.91	1041.54
394.10	966.64
394.29	968.98
394.49	1034.52
394.68	1053.24
394.88	976.00
395.07	1060.26
395.26	1027.50
395.46	1067.28
395.65	1123.46
395.84	1116.44
396.04	1142.18
396.23	1121.12
396.42	1039.20
396.62	1135.16
396.81	1090.69
397.00	1130.48
397.19	1123.46
397.39	1104.73
397.58	1268.57
397.77	1186.65
397.97	1149.20
398.16	1207.72
398.35	1207.72
398.55	1198.35
398.74	1249.85
398.93	1233.46
399.12	1193.67
399.32	1313.04
399.51	1289.64
399.70	1357.51
399.90	1270.91
400.09	1345.81
400.28	1411.34
400.47	1392.62
400.67	1376.24
400.86	1434.75
401.05	1334.11
401.24	1352.83
401.44	1373.89
401.63	1352.83
401.82	1373.89
402.01	1425.39
402.21	1420.71
402.40	1418.36
402.59	1427.73
402.78	1493.26
402.97	1413.68
403.17	1521.35
403.36	1502.62
403.55	1530.71
403.74	1577.52
403.93	1497.94
404.13	1586.88
404.32	1643.06
404.51	1668.80
404.70	1603.27
404.89	1481.56
405.09	1673.48
405.28	1593.90
405.47	1563.48
405.66	1603.27
405.85	1563.48
406.05	1589.22
406.24	1743.70
406.43	1673.48
406.62	1792.85
406.81	1919.24
407.00	1743.70
407.20	1612.63
407.39	1788.17
407.58	1717.95
407.77	1755.40
407.96	1839.66
408.15	1851.36
408.34	1886.47
408.54	1907.54
408.73	1893.49
408.92	1849.02
409.11	1989.46
409.30	1891.15
409.49	1926.26
409.68	1935.62
409.87	1785.83
410.07	1989.46
410.26	1998.82
410.45	2029.24
410.64	1980.09
410.83	2097.12
411.02	2045.63
411.21	2181.38
411.40	2169.68
411.59	2157.97
411.78	2094.78
411.98	2106.48
412.17	2139.25
412.36	2176.70
412.55	2200.10
412.74	2326.49
412.93	2244.57
413.12	2260.96
413.31	2333.51
413.50	2338.20
413.69	2377.98
413.88	2434.16
414.07	2492.67
414.26	2518.42
414.45	2534.80
414.64	2605.02
414.83	2490.33
415.02	2504.37
415.22	2684.59
415.41	2619.06
415.60	2768.85
415.79	2693.96
415.98	2761.83
416.17	2635.44
416.36	2789.92
416.55	2705.66
416.74	2710.34
416.93	2743.11
417.12	2675.23
417.31	2827.37
417.50	2825.03
417.69	2946.73
417.88	2918.65
418.07	2932.69
418.26	2991.20
418.45	2853.11
418.64	3012.27
418.83	3035.67
419.02	2925.67
419.21	3122.27
419.39	3098.87
419.58	3112.91
419.77	3026.31
419.96	3098.87
420.15	3220.58
420.34	3096.53
420.53	3073.12
420.72	3143.34
420.91	3255.69
421.10	3185.47
421.29	3096.53
421.48	3026.31
421.67	3225.26
421.86	3239.30
422.05	3220.58
422.24	3150.36
422.43	3227.60
422.61	3222.92
422.80	3304.84
422.99	3321.22
423.18	3255.69
423.37	3403.14
423.56	3466.33
423.75	3337.60
423.94	3325.90
424.13	3119.93
424.32	3281.43
424.50	3396.12
424.69	3332.92
424.88	3400.80
425.07	3361.01
425.26	3363.35
425.45	3384.41
425.64	3279.09
425.83	3300.16
426.01	3524.85
426.20	3426.54
426.39	3508.46
426.58	3286.11
426.77	3389.10
426.96	3492.08
427.15	3473.36
427.33	3522.51
427.52	3480.38
427.71	3588.04
427.90	3435.91
428.09	3440.59
428.28	3641.87
428.46	3564.64
428.65	3559.95
428.84	3595.06
429.03	3751.88
429.22	3485.06
429.40	3658.26
429.59	3782.31
429.78	3440.59
429.97	3527.19
430.16	3536.55
430.34	3595.06
430.53	3723.79
430.72	3875.93
430.91	3667.62
431.10	3786.99
431.28	3868.91
431.47	3927.42
431.66	4044.45
431.85	3934.44
432.03	3957.85
432.22	4212.96
432.41	3878.27
432.60	4046.79
432.79	4042.11
432.97	3981.25
433.16	3988.27
433.35	4105.30
433.54	4039.76
433.72	3922.74
433.91	3992.95
434.10	4135.73
434.28	4093.60
434.47	4112.32
434.66	4016.36
434.85	4257.43
435.03	4280.84
435.22	4161.47
435.41	4344.03
435.59	4440.00
435.78	4337.01
435.97	4138.07
436.16	4344.03
436.34	4367.44
436.53	4386.16
436.72	4334.67
436.90	4348.72
437.09	4425.95
437.28	4278.50
437.46	4397.87
437.65	4498.51
437.84	4449.36
438.02	4533.62
438.21	4575.75
438.40	4465.74
438.58	4561.70
438.77	4660.01
438.96	4709.16
439.14	4718.52
439.33	4748.95
439.52	4863.63
439.70	4779.37
439.89	4692.77
440.08	4870.65
440.26	5039.17
440.45	4877.68
440.63	5027.47
440.82	5020.45
441.01	5050.88
441.19	5085.98
441.38	5109.39
441.57	5181.95
441.75	5191.31
441.94	5305.99
442.12	5331.74
442.31	5313.02
442.50	5287.27
442.68	5406.64
442.87	5282.59
443.05	5310.68
443.24	5479.19
443.43	5509.62
443.61	5584.52
443.80	5746.02
443.98	5472.17
444.17	5336.42
444.35	5467.49
444.54	5643.03
444.73	5455.79
444.91	5430.04
445.10	5734.31
445.28	5423.02
445.47	5682.82
445.65	5526.00
445.84	5666.44
446.02	5694.52
446.21	5504.94
446.39	5603.24
446.58	5593.88
446.77	5710.91
446.95	5521.32
447.14	5689.84
447.32	5844.32
447.51	5668.78
447.69	5678.14
447.88	5774.10
448.06	5654.73
448.25	5692.18
448.43	5664.10
448.62	5652.39
448.80	5633.67
448.99	5827.93
449.17	5867.72
449.36	5846.66
449.54	5912.19
449.73	5860.70
449.91	6003.47
450.10	6066.67
450.28	6111.14
450.46	6108.80
450.65	6202.42
450.83	5944.96
451.02	5951.98
451.20	6200.08
451.39	6066.67
451.57	6078.37
451.76	6076.03
451.94	6043.26
452.13	6242.21
452.31	6120.50
452.49	5809.21
452.68	6200.08
452.86	6377.96
453.05	6073.69
453.23	6279.66
453.42	6272.64
453.60	6136.88
453.78	6363.92
453.97	6235.19
454.15	6216.46
454.34	6235.19
454.52	6492.65
454.70	6490.31
454.89	6520.73
455.07	6569.88
455.26	6562.86
455.44	6389.66
455.62	6516.05
455.81	6656.48
455.99	6609.67
456.17	6619.04
456.36	6651.80
456.54	6843.73
456.73	6796.92
456.91	6972.46
457.09	6932.67
457.28	7023.95
457.46	6803.94
457.64	6918.62
457.83	6846.07
458.01	6869.47
458.19	7059.06
458.38	6998.20
458.56	7080.12
458.74	7131.61
458.93	7089.48
459.11	7124.59
459.29	7002.88
459.48	7197.15
459.66	7103.53
459.84	7131.61
460.03	7342.26
460.21	7234.60
460.39	7440.56
460.57	7173.74
460.76	7428.86
460.94	7382.05
461.12	7576.31
461.31	7494.40
461.49	7281.41
461.67	7440.56
461.85	7693.34
462.04	7503.76
462.22	8009.31
462.40	7583.34
462.59	7555.25
462.77	7510.78
462.95	7908.67
463.13	7623.12
463.32	7583.34
463.50	7667.60
463.68	7810.37
463.86	7747.17
464.05	7681.64
464.23	7672.28
464.41	7742.49
464.59	7545.89
464.78	7962.50
464.96	7707.38
465.14	7676.96
465.32	7770.58
465.50	7913.35
465.69	8067.83
465.87	7775.26
466.05	7960.16
466.23	8018.68
466.41	8016.33
466.60	8229.32
466.78	8128.68
466.96	7943.78
467.14	8276.13
467.32	8056.12
467.51	8224.64
467.69	7908.67
467.87	8170.81
468.05	8362.73
468.23	8194.22
468.41	7943.78
468.60	8166.13
468.78	8304.22
468.96	8437.63
469.14	8486.78
469.32	8393.16
469.50	8243.37
469.69	8526.57
469.87	8547.64
470.05	8582.74
470.23	8482.10
470.41	8372.10
470.59	8692.75
470.77	8627.21
470.95	8638.92
471.14	8662.32
471.32	8678.71
471.50	8777.01
471.68	8908.08
471.86	8767.65
472.04	9025.11
472.22	9170.22
472.40	8662.32
472.58	8922.12
472.77	9004.04
472.95	9165.54
473.13	9385.55
473.31	9224.05
473.49	9074.26
473.67	9165.54
473.85	9320.01
474.03	9423.00
474.21	9736.63
474.39	9661.73
474.57	9486.19
474.75	9561.09
474.93	9558.75
475.12	9666.41
475.30	9619.60
475.48	9863.02
475.66	9703.86
475.84	9996.43
476.02	9919.19
476.20	9860.68
476.38	10169.63
476.56	10410.70
476.74	10195.37
476.92	10249.21
477.10	10480.92
477.28	10555.82
477.46	10307.72
477.64	10593.26
477.82	10780.51
478.00	10899.87
478.18	10951.37
478.36	10719.65
478.54	11014.56
478.72	10839.02
478.90	11110.52
479.08	11037.97
479.26	11173.72
479.44	11489.69
479.62	11349.26
479.80	11723.74
479.98	11620.76
480.16	12107.59
480.34	11763.53
480.52	11698.00
480.70	11946.09
480.88	11698.00
481.06	12105.25
481.24	12077.16
481.41	12175.47
481.59	12486.76
481.77	12461.01
481.95	12601.44
482.13	12760.60
482.31	12720.81
482.49	13076.57
482.67	13020.40
482.85	13277.86
483.03	13198.28
483.21	13380.84
483.39	13575.11
483.57	13235.73
483.74	13619.58
483.92	14003.43
484.10	13799.80
484.28	13900.44
484.46	14251.52
484.64	14204.71
484.82	14148.54
485.00	14293.65
485.18	14459.83
485.35	14647.07
485.53	14497.28
485.71	14284.29
485.89	14920.92
486.07	14501.96
486.25	14846.02
486.43	14815.59
486.61	15098.80
486.78	15281.36
486.96	15412.43
487.14	15655.84
487.32	15594.99
487.50	16086.50
487.68	15817.34
487.85	16121.61
488.03	16435.24
488.21	16552.27
488.39	16329.92
488.57	16404.81
488.75	16702.06
488.92	16865.90
489.10	17099.95
489.28	16999.31
489.46	17207.62
489.64	17172.51
489.81	17539.97
489.99	17619.55
490.17	17741.26
490.35	17682.75
490.53	18017.44
490.70	18068.94
490.88	17965.95
491.06	18438.74
491.24	18139.15
491.41	18462.15
491.59	18260.86
491.77	18520.66
491.95	18553.43
492.13	18867.06
492.30	19133.88
492.48	19358.57
492.66	18981.74
492.84	19517.73
493.01	19943.70
493.19	19672.20
493.37	19676.88
493.54	19793.91
493.72	19711.99
493.90	19814.98
494.08	20156.69
494.25	20252.66
494.43	20135.63
494.61	20577.99
494.79	20741.83
494.96	20606.08
495.14	20884.60
495.32	21247.38
495.49	20931.41
495.67	20968.86
495.85	20870.56
496.02	21071.84
496.20	21406.54
496.38	21949.54
496.55	21797.41
496.73	22284.24
496.91	21886.35
497.09	21846.56
497.26	22389.56
497.44	22087.64
497.62	22286.58
497.79	22616.60
497.97	22242.11
498.14	22562.76
498.32	22860.01
498.50	23096.41
498.67	23070.66
498.85	23051.94
499.03	23218.11
499.20	23056.62
499.38	23634.73
499.56	23587.92
499.73	23452.17
499.91	23517.70
500.08	23632.39
500.26	23674.52
500.44	23887.51
500.61	23552.81
500.79	23527.06
500.97	23903.89
501.14	24290.08
501.32	24381.36
501.49	24383.70
501.67	24404.77
501.84	24486.68
502.02	24652.86
502.20	24926.71
502.37	24870.53
502.55	24655.20
502.72	25015.65
502.90	24947.77
503.07	24996.92
503.25	25071.82
503.43	25125.65
503.60	25324.60
503.78	25467.37
503.95	25556.31
504.13	25652.27
504.30	25668.66
504.48	25748.23
504.65	25832.49
504.83	26061.87
505.01	26221.02
505.18	25586.74
505.36	26588.49
505.53	26171.87
505.71	26565.08
505.88	26553.38
506.06	26356.77
506.23	26944.25
506.41	26225.70
506.58	26635.30
506.76	26649.34
506.93	27058.93
507.11	26958.29
507.28	27192.34
507.46	27063.61
507.63	27005.10
507.81	27344.48
507.98	27005.10
508.16	27232.13
508.33	27477.89
508.50	27679.18
508.68	27740.03
508.85	27449.80
509.03	27751.73
509.20	27711.94
509.38	27901.53
509.55	27997.49
509.73	28379.00
509.90	28196.43
510.08	28084.09
510.25	27974.08
510.42	28699.65
510.60	28395.38
510.77	28809.65
510.95	28917.32
511.12	28521.77
511.30	28879.87
511.47	28938.38
511.64	29163.08
511.82	29104.56
511.99	29123.29
512.17	28954.77
512.34	29401.81
512.51	29200.52
512.69	29509.47
512.86	29427.56
513.04	29453.30
513.21	29682.67
513.38	29509.47
513.56	29385.43
513.73	29851.19
513.90	30073.54
514.08	29511.81
514.25	30464.41
514.43	30132.06
514.60	30352.07
514.77	29867.58
514.95	30335.68
515.12	30401.22
515.29	30412.92
515.47	30735.92
515.64	30370.79
515.81	30642.29
515.99	30644.63
516.16	30771.02
516.33	30874.01
516.51	30733.57
516.68	30707.83
516.85	30998.06
517.03	31119.76
517.20	30799.11
517.37	31281.26
517.54	31173.60
517.72	31070.61
517.89	31028.48
518.06	31353.82
518.24	31508.29
518.41	31480.21
518.58	31328.07
518.75	31473.18
518.93	31763.41
519.10	31417.01
519.27	32100.45
519.45	32063.00
519.62	32198.75
519.79	32444.51
519.96	32425.78
520.14	32669.20
520.31	32180.03
520.48	32802.61
520.65	32737.07
520.83	32503.02
521.00	32416.42
521.17	32868.14
521.34	32746.44
521.52	32877.51
521.69	32826.01
521.86	32896.23
522.03	33144.33
522.20	33001.55
522.38	32802.61
522.55	33256.67
522.72	33163.05
522.89	33593.71
523.07	33350.29
523.24	33116.24
523.41	33486.04
523.58	33521.15
523.75	33991.60
523.92	33542.22
524.10	33905.00
524.27	33886.28
524.44	33565.62
524.61	34115.65
524.78	34232.68
524.96	34022.03
525.13	34340.34
525.30	34499.50
525.47	34345.02
525.64	34066.50
525.81	34520.56
525.98	34389.49
526.16	34242.04
526.33	34948.88
526.50	34546.31
526.67	34424.60
526.84	34525.24
527.01	34316.93
527.18	34827.17
527.36	34836.53
527.53	34913.77
527.70	35424.01
527.87	35051.86
528.04	34888.03
528.21	35009.73
528.38	34836.53
528.55	35370.18
528.72	35323.36
528.89	35599.55
529.07	35922.54
529.24	35367.84
529.41	35503.59
529.58	35859.35
529.75	35821.90
529.92	35793.81
530.09	35798.49
530.26	35849.99
530.43	36133.19
530.60	35608.91
530.77	36037.23
530.94	36451.50
531.11	36404.69
531.28	36098.08
531.46	36172.98
531.63	36533.42
531.80	36290.01
531.97	36236.17
532.14	35983.40
532.31	36430.44
532.48	36746.41
532.65	36423.42
532.82	36584.91
532.99	36975.78
533.16	36568.53
533.33	36680.88
533.50	36655.13
533.67	36893.86
533.84	36580.23
534.01	36875.14
534.18	37301.12
534.35	37380.70
534.52	36797.90
534.69	37148.98
534.86	36973.44
535.03	36772.16
535.20	37502.40
535.37	37668.58
535.54	37401.76
535.71	37378.36
535.88	37188.77
536.05	37235.58
536.22	37619.43
536.38	37479.00
536.55	37839.44
536.72	37600.71
536.89	37273.03
537.06	37354.95
537.23	37839.44
537.40	37778.59
537.57	37762.20
537.74	37345.59
537.91	38298.19
538.08	38000.94
538.25	37670.92
538.42	37591.34
538.59	38328.61
538.75	38040.73
538.92	38162.43
539.09	38513.52
539.26	38550.96
539.43	38389.47
539.60	38040.73
539.77	38096.90
539.94	38218.61
540.11	38485.43
540.28	38375.42
540.44	38557.99
540.61	38471.39
540.78	38249.03
540.95	38803.74
541.12	38242.01
541.29	38450.32
541.46	38618.84
541.62	38742.89
541.79	38604.80
541.96	38436.28
542.13	38780.34
542.30	38869.28
542.47	39058.86
542.63	39075.24
542.80	39360.79
542.97	39391.22
543.14	39585.48
543.31	39321.00
543.48	39416.96
543.64	39913.16
543.81	39627.61
543.98	39817.19
544.15	39271.85
544.32	39875.71
544.48	40025.50
544.65	39878.05
544.82	39550.37
544.99	39454.41
545.16	39943.58
545.32	39751.66
545.49	39770.38
545.66	40144.87
545.83	40158.91
546.00	40292.32
546.16	40053.59
546.33	40203.38
546.50	39573.78
546.67	39854.64
546.83	40018.48
547.00	40147.21
547.17	39915.50
547.34	40208.06
547.50	40308.71
547.67	40474.88
547.84	40254.87
548.00	40744.05
548.17	40648.08
548.34	40367.22
548.51	40875.12
548.67	41095.13
548.84	40636.38
549.01	40205.72
549.18	40402.33
549.34	40886.82
549.51	41448.55
549.68	41144.28
549.84	40652.76
550.01	41055.34
550.18	40861.07
550.34	40802.56
550.51	41027.25
550.68	40797.88
550.84	40706.60
551.01	41333.86
551.18	40989.80
551.34	41301.09
551.51	41249.60
551.68	41148.96
551.84	41502.38
552.01	41006.19
552.18	40938.31
552.34	41081.08
552.51	41504.72
552.68	41076.40
552.84	41783.24
553.01	41645.15
553.18	40697.24
553.34	41441.53
553.51	41385.35
553.67	41390.03
553.84	41729.41
554.01	41511.74
554.17	41787.92
554.34	41820.69
554.51	41598.34
554.67	41951.76
554.84	41757.50
555.00	42174.11
555.17	41455.57
555.33	41649.83
555.50	41663.88
555.67	41752.82
555.83	42141.35
556.00	41914.31
556.16	42249.01
556.33	42267.73
556.50	41881.55
556.66	42078.15
556.83	42157.73
556.99	42340.29
557.16	42115.60
557.32	42401.14
557.49	42031.34
557.65	42064.11
557.82	42007.94
557.98	42082.83
558.15	42234.97
558.32	42478.38
558.48	42309.86
558.65	42422.21
558.81	42160.07
558.98	42286.46
559.14	42401.14
559.31	42206.88
559.47	42424.55
559.64	42974.58
559.80	42719.46
559.97	42012.62
560.13	42576.69
560.30	42000.91
560.46	43012.02
560.63	42567.32
560.79	42337.95
560.96	43084.58
561.12	42646.90
561.29	42682.01
561.45	42806.06
561.61	42433.91
561.78	42557.96
561.94	42714.78
562.11	42602.43
562.27	42337.95
562.44	42738.18
562.60	43196.93
562.77	43210.97
562.93	42644.56
563.10	42962.87
563.26	42387.10
563.42	42997.98
563.59	42890.32
563.75	43119.69
563.92	43203.95
564.08	42817.76
564.24	42976.92
564.41	43262.46
564.57	43089.26
564.74	43297.57
564.90	43220.33
565.07	43154.80
565.23	43122.03
565.39	42555.62
565.56	43143.09
565.72	43058.84
565.88	42923.08
566.05	42841.17
566.21	43016.71
566.38	42890.32
566.54	43328.00
566.70	43571.41
566.87	43578.43
567.03	43590.14
567.19	43283.53
567.36	43105.65
567.52	43070.54
567.68	43140.75
567.85	43400.55
568.01	43271.82
568.17	43122.03
568.34	43152.46
568.50	43143.09
568.66	43393.53
568.83	43349.06
568.99	43159.48
569.15	43234.38
569.32	43688.44
569.48	42976.92
569.64	43370.13
569.81	43723.55
569.97	42855.21
570.13	43681.42
570.30	43112.67
570.46	43007.34
570.62	43569.07
570.78	43133.73
570.95	43236.72
571.11	43517.58
571.27	43482.47
571.43	43306.93
571.60	43405.23
571.76	43604.18
571.92	43093.94
572.09	43192.25
572.25	43833.55
572.41	43592.48
572.57	43515.24
572.74	44032.50
572.90	43592.48
573.06	43702.48
573.22	43985.69
573.38	43739.93
573.55	43749.29
573.71	43826.53
573.87	43243.74
574.03	43232.04
574.20	43484.81
574.36	43459.07
574.52	43730.57
574.68	43601.84
574.84	43372.47
575.01	43990.37
575.17	43709.50
575.33	43316.29
575.49	43185.22
575.65	44100.37
575.82	44039.52
575.98	43988.03
576.14	43950.58
576.30	43786.74
576.46	43695.46
576.62	43452.05
576.79	43391.19
576.95	43704.82
577.11	43959.94
577.27	43613.54
577.43	44191.65
577.59	43763.34
577.75	43875.68
577.92	43695.46
578.08	43526.94
578.24	43515.24
578.40	43875.68
578.56	43711.84
578.72	43725.89
578.88	43548.01
579.04	43721.21
579.21	43833.55
579.37	43957.60
579.53	43714.19
579.69	43494.18
579.85	43723.55
580.01	44371.88
580.17	43655.67
580.33	43908.45
580.49	43775.04
580.65	43730.57
580.82	43548.01
580.98	43852.28
581.14	43828.87
581.30	43973.98
581.46	43826.53
581.62	44013.77
581.78	43782.06
581.94	44119.10
582.10	43924.83
582.26	43927.17
582.42	43580.78
582.58	43835.89
582.74	43845.26
582.90	43672.06
583.06	44088.67
583.22	43878.02
583.38	44067.61
583.54	43819.51
583.70	43665.03
583.86	43852.28
584.02	43744.61
584.18	43667.37
584.34	43810.15
584.50	43690.78
584.66	43821.85
584.82	43683.76
584.98	44245.49
585.14	44079.31
585.30	44058.24
585.46	43538.65
585.62	43672.06
585.78	43779.72
585.94	43423.96
586.10	43739.93
586.26	43786.74
586.42	43962.28
586.58	44231.44
586.74	43941.22
586.90	43903.77
587.06	43812.49
587.22	44343.79
587.38	43786.74
587.54	44109.74
587.70	44154.21
587.86	43910.79
588.02	44072.29
588.18	43920.15
588.34	44130.80
588.49	43875.68
588.65	43629.93
588.81	44018.46
588.97	43847.60
589.13	43683.76
589.29	44191.65
589.45	44114.42
589.61	43681.42
589.77	44247.83
589.93	44107.40
590.08	44402.30
590.24	43992.71
590.40	44451.45
