SpectraSuite Data File
++++++++++++++++++++++++++++++++++++
Date: Fri Oct 25 10:48:11 EDT 2013
User: price-jones
Dark Spectrum Present: No
Reference Spectrum Present: No
Number of Sampled Component Spectra: 1
Spectrometers: USB2+H05261
Integration Time (usec): 100000 (USB2+H05261)
Spectra Averaged: 1 (USB2+H05261)
Boxcar Smoothing: 0 (USB2+H05261)
Correct for Electrical Dark: No (USB2+H05261)
Strobe/Lamp Enabled: No (USB2+H05261)
Correct for Detector Non-linearity: No (USB2+H05261)
Correct for Stray Light: No (USB2+H05261)
Number of Pixels in Processed Spectrum: 2048
>>>>>Begin Processed Spectral Data<<<<<
365.73	175.54
365.92	175.54
366.12	175.54
366.32	100.64
366.52	39.79
366.72	93.62
366.91	0.00
367.11	88.94
367.31	28.09
367.51	18.72
367.70	7.02
367.90	7.02
368.10	0.00
368.30	11.70
368.49	9.36
368.69	53.83
368.89	18.72
369.09	60.85
369.28	25.75
369.48	0.00
369.68	81.92
369.87	128.73
370.07	42.13
370.27	133.41
370.47	177.88
370.66	372.15
370.86	395.55
371.06	519.60
371.25	435.34
371.45	390.87
371.65	470.45
371.84	451.72
372.04	489.17
372.24	493.85
372.44	486.83
372.63	521.94
372.83	468.11
373.03	444.70
373.22	507.90
373.42	470.45
373.62	533.64
373.81	559.39
374.01	557.05
374.21	538.32
374.40	507.90
374.60	596.84
374.79	489.17
374.99	599.18
375.19	568.75
375.38	674.07
375.58	631.94
375.78	620.24
375.97	568.75
376.17	587.47
376.37	599.18
376.56	599.18
376.76	554.71
376.95	657.69
377.15	599.18
377.35	617.90
377.54	629.60
377.74	578.11
377.93	599.18
378.13	636.63
378.33	634.29
378.52	688.12
378.72	624.92
378.91	585.13
379.11	624.92
379.31	629.60
379.50	608.54
379.70	629.60
379.89	629.60
380.09	543.00
380.28	615.56
380.48	538.32
380.68	660.03
380.87	674.07
381.07	641.31
381.26	664.71
381.46	704.50
381.65	669.39
381.85	674.07
382.04	711.52
382.24	692.80
382.43	711.52
382.63	636.63
382.83	706.84
383.02	678.76
383.22	751.31
383.41	723.23
383.61	702.16
383.80	772.38
384.00	725.57
384.19	725.57
384.39	725.57
384.58	763.01
384.78	779.40
384.97	727.91
385.17	690.46
385.36	734.93
385.56	737.27
385.75	702.16
385.95	800.46
386.14	873.02
386.34	777.06
386.53	784.08
386.72	809.83
386.92	842.59
387.11	765.36
387.31	840.25
387.50	800.46
387.70	784.08
387.89	849.61
388.09	812.17
388.28	779.40
388.48	856.64
388.67	814.51
388.86	847.27
389.06	924.51
389.25	840.25
389.45	910.47
389.64	805.14
389.84	905.79
390.03	919.83
390.22	854.30
390.42	844.93
390.61	837.91
390.81	856.64
391.00	919.83
391.19	823.87
391.39	1018.13
391.58	971.32
391.78	954.94
391.97	917.49
392.16	922.17
392.36	1020.47
392.55	1078.99
392.75	945.58
392.94	971.32
393.13	992.39
393.33	929.19
393.52	1020.47
393.71	1102.39
393.91	1135.16
394.10	1039.20
394.29	933.87
394.49	1008.77
394.68	1093.03
394.88	1153.88
395.07	1111.75
395.26	1036.86
395.46	1107.07
395.65	1093.03
395.84	1118.78
396.04	1125.80
396.23	1053.24
396.42	1078.99
396.62	1146.86
396.81	1102.39
397.00	1188.99
397.19	1170.27
397.39	1207.72
397.58	1294.32
397.77	1273.25
397.97	1233.46
398.16	1224.10
398.35	1369.21
398.55	1228.78
398.74	1238.14
398.93	1341.13
399.12	1296.66
399.32	1277.93
399.51	1329.42
399.70	1373.89
399.90	1390.28
400.09	1336.45
400.28	1430.07
400.47	1306.02
400.67	1446.45
400.86	1467.52
401.05	1509.65
401.24	1526.03
401.44	1451.13
401.63	1558.80
401.82	1488.58
402.01	1418.36
402.21	1465.18
402.40	1519.01
402.59	1535.39
402.78	1528.37
402.97	1441.77
403.17	1657.10
403.36	1640.72
403.55	1610.29
403.74	1586.88
403.93	1678.16
404.13	1586.88
404.32	1671.14
404.51	1645.40
404.70	1603.27
404.89	1748.38
405.09	1806.89
405.28	1722.63
405.47	1785.83
405.66	1750.72
405.85	1781.15
406.05	1781.15
406.24	1820.94
406.43	1753.06
406.62	1891.15
406.81	1991.80
407.00	1832.64
407.20	1806.89
407.39	1830.30
407.58	1877.11
407.77	1853.70
407.96	1949.67
408.15	1982.43
408.34	1825.62
408.54	1912.22
408.73	1942.64
408.92	2026.90
409.11	2087.76
409.30	2005.84
409.49	2062.01
409.68	1977.75
409.87	1942.64
410.07	2078.40
410.26	2090.10
410.45	2136.91
410.64	2207.13
410.83	2195.42
411.02	2183.72
411.21	2359.26
411.40	2202.44
411.59	2298.41
411.78	2172.02
411.98	2232.87
412.17	2392.03
412.36	2338.20
412.55	2352.24
412.74	2499.69
412.93	2450.54
413.12	2335.85
413.31	2544.16
413.50	2495.01
413.69	2541.82
413.88	2569.91
414.07	2537.14
414.26	2609.70
414.45	2485.65
414.64	2544.16
414.83	2682.25
415.02	2775.88
415.22	2616.72
415.41	2792.26
415.60	2839.07
415.79	2801.62
415.98	2808.64
416.17	2825.03
416.36	2836.73
416.55	2850.77
416.74	2841.41
416.93	2918.65
417.12	2953.76
417.31	2895.24
417.50	2867.16
417.69	3035.67
417.88	3112.91
418.07	2951.42
418.26	3141.00
418.45	3148.02
418.64	3225.26
418.83	3133.98
419.02	3089.51
419.21	3122.27
419.39	3141.00
419.58	3185.47
419.77	3180.79
419.96	3302.50
420.15	3283.77
420.34	3236.96
420.53	3339.94
420.72	3361.01
420.91	3435.91
421.10	3386.76
421.29	3475.70
421.48	3370.37
421.67	3274.41
421.86	3361.01
422.05	3494.42
422.24	3410.16
422.43	3440.59
422.61	3524.85
422.80	3501.44
422.99	3627.83
423.18	3459.31
423.37	3421.86
423.56	3499.10
423.75	3480.38
423.94	3456.97
424.13	3279.09
424.32	3321.22
424.50	3613.79
424.69	3471.01
424.88	3545.91
425.07	3428.88
425.26	3447.61
425.45	3463.99
425.64	3468.67
425.83	3538.89
426.01	3599.74
426.20	3496.76
426.39	3702.73
426.58	3545.91
426.77	3534.21
426.96	3662.94
427.15	3571.66
427.33	3665.28
427.52	3637.19
427.71	3665.28
427.90	3747.20
428.09	3768.26
428.28	3653.58
428.46	3756.56
428.65	3758.90
428.84	4009.34
429.03	3962.53
429.22	3740.18
429.40	3779.97
429.59	3735.50
429.78	3641.87
429.97	3606.77
430.16	3775.28
430.34	3730.81
430.53	3749.54
430.72	3861.88
430.91	3791.67
431.10	3915.72
431.28	4004.66
431.47	4060.83
431.66	4131.05
431.85	4011.68
432.03	4149.77
432.22	4243.39
432.41	4252.75
432.60	4004.66
432.79	4149.77
432.97	4285.52
433.16	4320.63
433.35	4173.18
433.54	4290.20
433.72	4142.75
433.91	4311.27
434.10	4175.52
434.28	4283.18
434.47	4311.27
434.66	4493.83
434.85	4465.74
435.03	4402.55
435.22	4444.68
435.41	4585.11
435.59	4454.04
435.78	4479.79
435.97	4578.09
436.16	4564.04
436.34	4589.79
436.53	4594.47
436.72	4720.86
436.90	4596.81
437.09	4638.94
437.28	4624.90
437.46	4702.14
437.65	4648.30
437.84	4751.29
438.02	4716.18
438.21	4781.71
438.40	4746.61
438.58	4880.02
438.77	4943.21
438.96	4898.74
439.14	5039.17
439.33	4961.94
439.52	5076.62
439.70	5095.35
439.89	5130.45
440.08	5203.01
440.26	5132.79
440.45	5139.82
440.63	5334.08
440.82	5378.55
441.01	5291.95
441.19	5444.09
441.38	5420.68
441.57	5467.49
441.75	5465.15
441.94	5654.73
442.12	5643.03
442.31	5678.14
442.50	5701.54
442.68	5561.11
442.87	5631.33
443.05	5652.39
443.24	5916.87
443.43	5734.31
443.61	5668.78
443.80	5940.28
443.98	5603.24
444.17	5614.95
444.35	5774.10
444.54	5944.96
444.73	5907.51
444.91	5769.42
445.10	5881.77
445.28	5750.70
445.47	5872.40
445.65	5727.29
445.84	5806.87
446.02	5909.85
446.21	5947.30
446.39	5706.23
446.58	5973.05
446.77	5959.00
446.95	5980.07
447.14	6043.26
447.32	6043.26
447.51	6019.86
447.69	5863.04
447.88	6052.63
448.06	5937.94
448.25	6010.50
448.43	5982.41
448.62	5949.64
448.80	5947.30
448.99	6038.58
449.17	6064.33
449.36	5926.24
449.54	6310.08
449.73	6239.87
449.91	6218.80
450.10	6366.26
450.28	6160.29
450.46	6279.66
450.65	6448.18
450.83	6396.68
451.02	6310.08
451.20	6380.30
451.39	6630.74
451.57	6256.25
451.76	6394.34
451.94	6478.60
452.13	6448.18
452.31	6698.61
452.49	6450.52
452.68	6401.37
452.86	6448.18
453.05	6530.09
453.23	6597.97
453.42	6373.28
453.60	6497.33
453.78	6684.57
453.97	6569.88
454.15	6597.97
454.34	6469.24
454.52	6630.74
454.70	6588.61
454.89	6724.36
455.07	6719.68
455.26	6958.41
455.44	6979.48
455.62	7009.90
455.81	6974.80
455.99	6850.75
456.17	6986.50
456.36	6822.66
456.54	7152.68
456.73	7173.74
456.91	7267.36
457.09	7140.97
457.28	7344.60
457.46	7155.02
457.64	7365.67
457.83	7295.45
458.01	7164.38
458.19	7473.33
458.38	7321.20
458.56	7435.88
458.74	7431.20
458.93	7501.42
459.11	7592.70
459.29	7480.35
459.48	7405.46
459.66	7602.06
459.84	7763.56
460.03	7698.02
460.21	7702.70
460.39	7581.00
460.57	7438.22
460.76	7414.82
460.94	7686.32
461.12	7695.68
461.31	7833.77
461.49	7709.72
461.67	7555.25
461.85	8088.89
462.04	7887.61
462.22	8444.65
462.40	8053.78
462.59	7721.43
462.77	7829.09
462.95	7941.44
463.13	7927.39
463.32	7868.88
463.50	8051.44
463.68	8112.30
463.86	8039.74
464.05	7962.50
464.23	8086.55
464.41	8219.96
464.59	8152.09
464.78	8360.39
464.96	8217.62
465.14	8077.19
465.32	8264.43
465.50	8360.39
465.69	8437.63
465.87	8306.56
466.05	8184.85
466.23	8116.98
466.41	8348.69
466.60	8468.06
466.78	8294.86
466.96	8257.41
467.14	8500.83
467.32	8461.04
467.51	8575.72
467.69	8334.65
467.87	8531.25
468.05	8540.61
468.23	8599.13
468.41	8641.26
468.60	8791.05
468.78	8720.84
468.96	8519.55
469.14	8648.28
469.32	8739.56
469.50	8554.66
469.69	8837.86
469.87	8915.10
470.05	8926.80
470.23	8912.76
470.41	8744.24
470.59	8847.22
470.77	8903.40
470.95	9104.68
471.14	9116.39
471.32	9153.84
471.50	9207.67
471.68	9296.61
471.86	9249.80
472.04	9261.50
472.22	9413.63
472.40	9200.65
472.58	9465.13
472.77	9547.05
472.95	9692.16
473.13	9818.55
473.31	9530.66
473.49	9504.92
473.67	9561.09
473.85	9729.61
474.03	9935.57
474.21	9771.74
474.39	9961.32
474.57	9872.38
474.75	9921.53
474.93	10136.86
475.12	9975.36
475.30	10134.52
475.48	10305.38
475.66	10146.22
475.84	10071.33
476.02	10186.01
476.20	10394.32
476.38	10518.37
476.56	10724.33
476.74	10700.93
476.92	10768.80
477.10	10679.86
477.28	10939.66
477.46	10740.72
477.64	10860.09
477.82	11246.27
478.00	11232.23
478.18	11485.01
478.36	11302.45
478.54	11323.51
478.72	11461.60
478.90	11838.43
479.08	11702.68
479.26	11838.43
479.44	11927.37
479.62	11882.90
479.80	12168.45
479.98	12142.70
480.16	12351.01
480.34	12318.24
480.52	12568.68
480.70	12386.12
480.88	12332.28
481.06	12461.01
481.24	12554.63
481.41	12922.10
481.59	13252.11
481.77	13231.05
481.95	13041.46
482.13	13289.56
482.31	13195.94
482.49	13544.68
482.67	13717.88
482.85	13621.92
483.03	13802.14
483.21	13848.95
483.39	14001.08
483.57	14073.64
483.74	14281.95
483.92	14108.75
484.10	14298.33
484.28	14480.89
484.46	14764.10
484.64	14930.28
484.82	14518.34
485.00	14785.16
485.18	14977.09
485.35	15087.09
485.53	15183.06
485.71	15281.36
485.89	15279.02
486.07	15117.52
486.25	15307.10
486.43	15587.97
486.61	15569.24
486.78	15812.66
486.96	16035.01
487.14	16161.40
487.32	16140.33
487.50	16456.31
487.68	16435.24
487.85	16751.21
488.03	16924.41
488.21	16994.63
488.39	16908.03
488.57	17172.51
488.75	17151.45
488.92	17610.19
489.10	17404.22
489.28	17694.45
489.46	17982.34
489.64	18195.32
489.81	18050.21
489.99	18237.45
490.17	18553.43
490.35	18431.72
490.53	18537.04
490.70	18623.64
490.88	18794.50
491.06	18899.83
491.24	18974.72
491.41	18747.69
491.59	19070.68
491.77	19173.67
491.95	19332.82
492.13	19571.56
492.30	19814.98
492.48	20098.18
492.66	19611.35
492.84	20044.35
493.01	20299.47
493.19	20006.90
493.37	20528.84
493.54	20423.51
493.72	20776.94
493.90	20641.18
494.08	21027.37
494.25	21015.67
494.43	21256.75
494.61	21563.36
494.79	21680.38
494.96	21312.92
495.14	21509.52
495.32	21764.64
495.49	21551.65
495.67	21874.65
495.85	22258.49
496.02	22015.08
496.20	22094.66
496.38	22731.28
496.55	22375.52
496.73	22909.16
496.91	22614.26
497.09	22986.40
497.26	22955.97
497.44	23103.43
497.62	23103.43
497.79	23131.51
497.97	23344.50
498.14	23370.25
498.32	23438.12
498.50	23379.61
498.67	23805.59
498.85	23868.78
499.03	23843.04
499.20	24205.82
499.38	24290.08
499.56	24243.27
499.73	24261.99
499.91	24655.20
500.08	24517.11
500.26	24276.04
500.44	24327.53
500.61	24851.81
500.79	24409.45
500.97	24945.43
501.14	25443.96
501.32	25212.25
501.49	25099.90
501.67	25245.02
501.84	25186.50
502.02	25125.65
502.20	25626.53
502.37	25837.17
502.55	25750.57
502.72	25858.24
502.90	26136.76
503.07	26092.29
503.25	26033.78
503.43	26251.45
503.60	26176.55
503.78	26410.60
503.95	26291.24
504.13	26291.24
504.30	26609.55
504.48	26773.39
504.65	26459.76
504.83	26705.51
505.01	27173.62
505.18	26731.26
505.36	27201.71
505.53	27360.86
505.71	27318.73
505.88	27234.47
506.06	27005.10
506.23	27302.35
506.41	27068.30
506.58	27522.36
506.76	27693.22
506.93	27880.46
507.11	27426.40
507.28	28027.92
507.46	27714.28
507.63	28011.53
507.81	28170.69
507.98	28027.92
508.16	27835.99
508.33	28411.76
508.50	28423.47
508.68	28493.68
508.85	28636.45
509.03	28772.21
509.20	28882.21
509.38	29097.54
509.55	29230.95
509.73	29008.60
509.90	29083.50
510.08	28945.41
510.25	29186.48
510.42	29493.09
510.60	29809.06
510.77	29408.83
510.95	29696.72
511.12	29626.50
511.30	29937.79
511.47	30026.73
511.64	30075.88
511.82	30129.72
511.99	29930.77
512.17	30284.19
512.34	29483.73
512.51	30239.72
512.69	30480.80
512.86	30328.66
513.04	30768.68
513.21	30441.01
513.38	30511.22
513.56	30876.35
513.73	30518.25
513.90	30843.58
514.08	30410.58
514.25	30712.51
514.43	30724.21
514.60	30649.32
514.77	31641.70
514.95	31559.78
515.12	31449.78
515.29	31503.61
515.47	31512.97
515.64	31758.73
515.81	31491.91
515.99	31835.97
516.16	31428.71
516.33	31632.34
516.51	31510.63
516.68	31529.36
516.85	31704.90
517.03	31854.69
517.20	31964.70
517.37	32142.58
517.54	32077.04
517.72	32156.62
517.89	31782.13
518.06	32135.56
518.24	32215.13
518.41	32100.45
518.58	32428.12
518.75	32486.64
518.93	32453.87
519.10	32636.43
519.27	32896.23
519.45	32870.48
519.62	32865.80
519.79	32978.15
519.96	33450.94
520.14	33596.05
520.31	33029.64
520.48	33380.72
520.65	33235.61
520.83	33530.51
521.00	33443.91
521.17	33783.29
521.34	33921.38
521.52	33865.21
521.69	33633.50
521.86	33944.79
522.03	34050.11
522.20	33975.22
522.38	34050.11
522.55	34052.45
522.72	34448.00
522.89	33937.77
523.07	34562.69
523.24	33923.72
523.41	34766.32
523.58	34628.23
523.75	34651.63
523.92	34679.72
524.10	34869.30
524.27	34733.55
524.44	34871.64
524.61	35302.30
524.78	35241.45
524.96	34845.90
525.13	35264.85
525.30	35737.64
525.47	35152.51
525.64	35276.55
525.81	35098.67
525.98	35295.28
526.16	35253.15
526.33	35250.81
526.50	35489.54
526.67	35292.94
526.84	35211.02
527.01	35187.61
527.18	35552.74
527.36	35681.47
527.53	35985.74
527.70	36355.54
527.87	36219.79
528.04	36116.81
528.21	36165.96
528.38	35744.66
528.55	36432.78
528.72	36374.27
528.89	35978.72
529.07	36236.17
529.24	36123.83
529.41	36264.26
529.58	36292.35
529.75	36634.06
529.92	36715.98
530.09	36844.71
530.26	37090.47
530.43	36697.26
530.60	36713.64
530.77	36910.25
530.94	36795.56
531.11	37106.85
531.28	36971.10
531.46	37247.29
531.63	37418.14
531.80	37233.24
531.97	37200.47
532.14	37593.68
532.31	37654.54
532.48	36875.14
532.65	37427.51
532.82	37652.20
532.99	37759.86
533.16	37329.20
533.33	37558.58
533.50	38146.05
533.67	38164.78
533.84	37649.86
534.01	38040.73
534.18	38059.45
534.35	38174.14
534.52	37748.16
534.69	38323.93
534.86	38316.91
535.03	38146.05
535.20	38595.43
535.37	38082.86
535.54	38602.46
535.71	38176.48
535.88	37991.58
536.05	38525.22
536.22	38778.00
536.38	38789.70
536.55	38490.11
536.72	38162.43
536.89	38696.08
537.06	38569.69
537.23	38738.21
537.40	38515.86
537.57	38724.16
537.74	38614.16
537.91	39412.28
538.08	39065.88
538.25	38518.20
538.42	38770.97
538.59	39477.82
538.75	38768.63
538.92	38686.71
539.09	39555.05
539.26	39353.77
539.43	39452.07
539.60	38770.97
539.77	39267.17
539.94	39578.46
540.11	39201.63
540.28	39503.56
540.44	39210.99
540.61	39346.75
540.78	39470.79
540.95	39777.40
541.12	38951.20
541.29	39442.71
541.46	39309.30
541.62	39885.07
541.79	39615.91
541.96	39716.55
542.13	39807.83
542.30	39908.47
542.47	40229.13
542.63	40119.12
542.80	39662.72
542.97	40158.91
543.14	40594.25
543.31	40364.88
543.48	40208.06
543.64	40851.71
543.81	40835.33
543.98	40388.28
544.15	40573.19
544.32	40624.68
544.48	41045.97
544.65	40470.20
544.82	41071.72
544.99	40608.29
545.16	40505.31
545.32	40980.44
545.49	41092.79
545.66	41471.95
545.83	41167.68
546.00	41113.85
546.16	41233.22
546.33	40832.99
546.50	40657.45
546.67	40734.68
546.83	40933.63
547.00	41141.94
547.17	41038.95
547.34	41205.13
547.50	41319.82
547.67	41680.26
547.84	41596.00
548.00	41324.50
548.17	41965.81
548.34	41071.72
548.51	41511.74
548.67	41881.55
548.84	41418.12
549.01	41621.75
549.18	41706.01
549.34	41844.10
549.51	41752.82
549.68	42295.82
549.84	41748.14
550.01	41991.55
550.18	41518.76
550.34	41965.81
550.51	41558.55
550.68	41731.75
550.84	41844.10
551.01	41816.01
551.18	41895.59
551.34	42017.30
551.51	42185.82
551.68	42099.22
551.84	42438.59
552.01	41799.63
552.18	42260.71
552.34	41951.76
552.51	42277.10
552.68	42272.42
552.84	42733.50
553.01	42920.74
553.18	42298.16
553.34	42405.83
553.51	42328.59
553.67	42124.96
553.84	42887.98
554.01	42770.95
554.17	42639.88
554.34	42543.92
554.51	42948.83
554.67	42892.66
554.84	42656.26
555.00	42623.50
555.17	43002.66
555.33	42916.06
555.50	42698.39
555.67	42878.61
555.83	42948.83
556.00	43344.38
556.16	43138.41
556.33	43430.98
556.50	42682.01
556.66	42932.45
556.83	42948.83
556.99	43576.09
557.16	43145.44
557.32	43007.34
557.49	43374.81
557.65	43129.05
557.82	42185.82
557.98	42899.68
558.15	43105.65
558.32	43264.80
558.48	43344.38
558.65	43407.58
558.81	43702.48
558.98	43419.28
559.14	43489.49
559.31	43538.65
559.47	43566.73
559.64	43683.76
559.80	43882.70
559.97	43641.63
560.13	43194.59
560.30	43402.89
560.46	43271.82
560.63	43576.09
560.79	43468.43
560.96	43833.55
561.12	43618.22
561.29	43430.98
561.45	43480.13
561.61	43871.00
561.78	43679.08
561.94	43587.80
562.11	43761.00
562.27	43531.62
562.44	43643.97
562.60	44076.97
562.77	43812.49
562.93	43732.91
563.10	43885.04
563.26	43409.92
563.42	44116.76
563.59	43243.74
563.75	43906.11
563.92	43845.26
564.08	44102.71
564.24	44053.56
564.41	43732.91
564.57	44147.18
564.74	43835.89
564.90	44020.80
565.07	43999.73
565.23	43592.48
565.39	44126.12
565.56	44353.15
565.72	43866.32
565.88	44212.72
566.05	44182.29
566.21	44357.83
566.38	44348.47
566.54	44189.31
566.70	44509.97
566.87	44039.52
567.03	44236.12
567.19	44399.96
567.36	44294.64
567.52	44023.14
567.68	44540.39
567.85	44025.48
568.01	43800.79
568.17	44334.43
568.34	44498.26
568.50	44100.37
568.66	43955.26
568.83	44208.04
568.99	43917.81
569.15	44144.84
569.32	44048.88
569.48	44142.50
569.64	44236.12
569.81	44238.47
569.97	44404.64
570.13	44144.84
570.30	43725.89
570.46	44102.71
570.62	43730.57
570.78	44191.65
570.95	44271.23
571.11	44507.63
571.27	44182.29
571.43	44304.00
571.60	44371.88
571.76	44219.74
571.92	44491.24
572.09	44357.83
572.25	44533.37
572.41	43878.02
572.57	44893.82
572.74	44617.63
572.90	44641.04
573.06	44655.08
573.22	44779.13
573.38	44591.89
573.55	44091.01
573.71	44563.80
573.87	44376.56
574.03	44238.47
574.20	44715.93
574.36	44566.14
574.52	44570.82
574.68	44811.90
574.84	44432.73
575.01	44481.88
575.17	44629.34
575.33	44325.07
575.49	43959.94
575.65	44699.55
575.82	44683.17
575.98	44678.49
576.14	44500.61
576.30	44442.09
576.46	44224.42
576.62	44634.02
576.79	44512.31
576.95	44095.69
577.11	44472.52
577.27	44432.73
577.43	44999.14
577.59	44357.83
577.75	44556.78
577.92	44163.57
578.08	44334.43
578.24	44458.48
578.40	44336.77
578.56	44369.54
578.72	44144.84
578.88	44531.03
579.04	44491.24
579.21	44516.99
579.37	44079.31
579.53	44353.15
579.69	44495.92
579.85	44863.39
580.01	44776.79
580.17	44891.48
580.33	44854.03
580.49	44657.42
580.65	44655.08
580.82	44968.71
580.98	44634.02
581.14	44865.73
581.30	44935.95
581.46	44421.03
581.62	44940.63
581.78	44505.29
581.94	45057.65
582.10	44617.63
582.26	44987.44
582.42	44854.03
582.58	44744.02
582.74	44554.44
582.90	44439.75
583.06	44765.09
583.22	44987.44
583.38	44940.63
583.54	44519.33
583.70	44889.13
583.86	44575.50
584.02	44863.39
584.18	44718.28
584.34	44872.75
584.50	44921.90
584.66	44769.77
584.82	44781.47
584.98	45188.72
585.14	44903.18
585.30	44631.68
585.46	44477.20
585.62	44552.10
585.78	44957.01
585.94	44034.84
586.10	44580.18
586.26	44573.16
586.42	44879.77
586.58	44685.51
586.74	44858.71
586.90	44882.11
587.06	44847.00
587.22	45076.38
587.38	44210.38
587.54	45064.67
587.70	44760.40
587.86	44980.42
588.02	44926.58
588.18	45041.27
588.34	44863.39
588.49	44687.85
588.65	44350.81
588.81	44329.75
588.97	44325.07
589.13	44247.83
589.29	44516.99
589.45	45277.66
589.61	45340.86
589.77	45193.40
589.93	44863.39
590.08	44889.13
590.24	44947.65
590.40	45223.83
