SpectraSuite Data File
++++++++++++++++++++++++++++++++++++
Date: Fri Oct 25 10:47:51 EDT 2013
User: price-jones
Dark Spectrum Present: No
Reference Spectrum Present: No
Number of Sampled Component Spectra: 1
Spectrometers: USB2+H05261
Integration Time (usec): 100000 (USB2+H05261)
Spectra Averaged: 1 (USB2+H05261)
Boxcar Smoothing: 0 (USB2+H05261)
Correct for Electrical Dark: No (USB2+H05261)
Strobe/Lamp Enabled: No (USB2+H05261)
Correct for Detector Non-linearity: No (USB2+H05261)
Correct for Stray Light: No (USB2+H05261)
Number of Pixels in Processed Spectrum: 2048
>>>>>Begin Processed Spectral Data<<<<<
365.73	126.39
365.92	126.39
366.12	126.39
366.32	32.77
366.52	0.00
366.72	93.62
366.91	9.36
367.11	0.00
367.31	7.02
367.51	86.60
367.70	32.77
367.90	46.81
368.10	0.00
368.30	0.00
368.49	37.45
368.69	70.22
368.89	51.49
369.09	60.85
369.28	35.11
369.48	114.69
369.68	110.01
369.87	142.77
370.07	77.24
370.27	81.92
370.47	191.92
370.66	390.87
370.86	393.21
371.06	444.70
371.25	468.11
371.45	512.58
371.65	505.56
371.84	425.98
372.04	421.30
372.24	512.58
372.44	440.02
372.63	514.92
372.83	479.81
373.03	547.69
373.22	458.74
373.42	533.64
373.62	503.22
373.81	540.66
374.01	594.50
374.21	606.20
374.40	557.05
374.60	526.62
374.79	545.34
374.99	524.28
375.19	578.11
375.38	629.60
375.58	601.52
375.78	571.09
375.97	533.64
376.17	634.29
376.37	498.53
376.56	610.88
376.76	505.56
376.95	641.31
377.15	664.71
377.35	601.52
377.54	587.47
377.74	634.29
377.93	622.58
378.13	610.88
378.33	603.86
378.52	596.84
378.72	615.56
378.91	674.07
379.11	561.73
379.31	636.63
379.50	627.26
379.70	631.94
379.89	589.82
380.09	655.35
380.28	653.01
380.48	676.41
380.68	627.26
380.87	725.57
381.07	645.99
381.26	662.37
381.46	685.78
381.65	695.14
381.85	711.52
382.04	678.76
382.24	737.27
382.43	655.35
382.63	601.52
382.83	636.63
383.02	685.78
383.22	704.50
383.41	599.18
383.61	688.12
383.80	807.48
384.00	732.59
384.19	706.84
384.39	723.23
384.58	732.59
384.78	711.52
384.97	674.07
385.17	706.84
385.36	753.65
385.56	720.88
385.75	732.59
385.95	851.96
386.14	760.67
386.34	784.08
386.53	830.89
386.72	737.27
386.92	884.72
387.11	798.12
387.31	744.29
387.50	793.44
387.70	727.91
387.89	851.96
388.09	807.48
388.28	779.40
388.48	814.51
388.67	875.36
388.86	844.93
389.06	894.08
389.25	901.11
389.45	908.13
389.64	926.85
389.84	968.98
390.03	833.23
390.22	919.83
390.42	814.51
390.61	943.24
390.81	903.45
391.00	976.00
391.19	1015.79
391.39	938.55
391.58	917.49
391.78	1015.79
391.97	924.51
392.16	952.60
392.36	1053.24
392.55	964.30
392.75	1043.88
392.94	875.36
393.13	945.58
393.33	952.60
393.52	971.32
393.71	1104.73
393.91	997.07
394.10	1046.22
394.29	1090.69
394.49	1018.13
394.68	1118.78
394.88	1146.86
395.07	1146.86
395.26	1060.26
395.46	1069.62
395.65	1137.50
395.84	1114.10
396.04	1116.44
396.23	1172.61
396.42	1083.67
396.62	1219.42
396.81	1207.72
397.00	1086.01
397.19	1252.19
397.39	1198.35
397.58	1355.17
397.77	1224.10
397.97	1296.66
398.16	1261.55
398.35	1343.47
398.55	1270.91
398.74	1352.83
398.93	1362.19
399.12	1392.62
399.32	1331.76
399.51	1294.32
399.70	1413.68
399.90	1366.87
400.09	1369.21
400.28	1434.75
400.47	1378.58
400.67	1493.26
400.86	1427.73
401.05	1507.30
401.24	1385.60
401.44	1509.65
401.63	1430.07
401.82	1507.30
402.01	1481.56
402.21	1633.69
402.40	1540.07
402.59	1551.78
402.78	1598.59
402.97	1626.67
403.17	1610.29
403.36	1645.40
403.55	1589.22
403.74	1722.63
403.93	1610.29
404.13	1584.54
404.32	1614.97
404.51	1610.29
404.70	1645.40
404.89	1727.32
405.09	1769.44
405.28	1687.53
405.47	1710.93
405.66	1710.93
405.85	1741.36
406.05	1624.33
406.24	1614.97
406.43	1783.49
406.62	1806.89
406.81	1870.09
407.00	1771.79
407.20	1870.09
407.39	1813.92
407.58	1893.49
407.77	1961.37
407.96	1930.94
408.15	1954.35
408.34	1860.73
408.54	2083.08
408.73	1935.62
408.92	2036.27
409.11	2090.10
409.30	2092.44
409.49	2038.61
409.68	1982.43
409.87	2118.18
410.07	2204.78
410.26	2111.16
410.45	2174.36
410.64	2155.63
410.83	2176.70
411.02	2207.13
411.21	2216.49
411.40	2279.68
411.59	2347.56
411.78	2310.11
411.98	2359.26
412.17	2321.81
412.36	2317.13
412.55	2370.96
412.74	2490.33
412.93	2548.84
413.12	2352.24
413.31	2525.44
413.50	2492.67
413.69	2473.95
413.88	2590.97
414.07	2527.78
414.26	2670.55
414.45	2700.98
414.64	2574.59
414.83	2600.34
415.02	2731.41
415.22	2745.45
415.41	2752.47
415.60	2686.94
415.79	2731.41
415.98	2869.50
416.17	2899.92
416.36	2864.82
416.55	2780.56
416.74	2930.35
416.93	3005.25
417.12	2834.39
417.31	2970.14
417.50	2986.52
417.69	3169.09
417.88	3035.67
418.07	3068.44
418.26	3054.40
418.45	3150.36
418.64	3267.39
418.83	3094.19
419.02	3220.58
419.21	3155.04
419.39	3272.07
419.58	3131.64
419.77	3131.64
419.96	3262.71
420.15	3389.10
420.34	3297.81
420.53	3286.11
420.72	3433.57
420.91	3328.24
421.10	3339.94
421.29	3293.13
421.48	3335.26
421.67	3552.93
421.86	3424.20
422.05	3361.01
422.24	3440.59
422.43	3384.41
422.61	3424.20
422.80	3445.27
422.99	3571.66
423.18	3541.23
423.37	3541.23
423.56	3581.02
423.75	3541.23
423.94	3384.41
424.13	3290.79
424.32	3290.79
424.50	3506.12
424.69	3639.53
424.88	3662.94
425.07	3597.40
425.26	3538.89
425.45	3358.67
425.64	3435.91
425.83	3583.36
426.01	3566.98
426.20	3492.08
426.39	3536.55
426.58	3501.44
426.77	3552.93
426.96	3595.06
427.15	3595.06
427.33	3599.74
427.52	3698.05
427.71	3515.48
427.90	3672.30
428.09	3784.65
428.28	3983.59
428.46	3777.62
428.65	3796.35
428.84	3882.95
429.03	3791.67
429.22	3747.20
429.40	3747.20
429.59	3784.65
429.78	3735.50
429.97	3576.34
430.16	3716.77
430.34	3887.63
430.53	3988.27
430.72	3934.44
430.91	3817.41
431.10	3885.29
431.28	4098.28
431.47	4149.77
431.66	4060.83
431.85	4070.19
432.03	4131.05
432.22	4257.43
432.41	4269.14
432.60	4212.96
432.79	4189.56
432.97	4248.07
433.16	4348.72
433.35	4191.90
433.54	4283.18
433.72	4276.16
433.91	4222.33
434.10	4365.10
434.28	4315.95
434.47	4344.03
434.66	4407.23
434.85	4376.80
435.03	4292.54
435.22	4491.49
435.41	4557.02
435.59	4454.04
435.78	4627.24
435.97	4732.56
436.16	4510.21
436.34	4559.36
436.53	4671.71
436.72	4793.42
436.90	4622.56
437.09	4688.09
437.28	4624.90
437.46	4690.43
437.65	4667.03
437.84	4793.42
438.02	4681.07
438.21	4713.84
438.40	4662.35
438.58	4837.89
438.77	4758.31
438.96	4835.55
439.14	4894.06
439.33	5128.11
439.52	5078.96
439.70	4891.72
439.89	5139.82
440.08	5114.07
440.26	5235.78
440.45	5083.64
440.63	5254.50
440.82	5301.31
441.01	5289.61
441.19	5238.12
441.38	5383.23
441.57	5352.81
441.75	5441.75
441.94	5657.07
442.12	5612.60
442.31	5621.97
442.50	5579.84
442.68	5523.66
442.87	5518.98
443.05	5610.26
443.24	5839.64
443.43	5720.27
443.61	5839.64
443.80	6040.92
443.98	5455.79
444.17	5731.97
444.35	5968.37
444.54	5858.36
444.73	5849.00
444.91	5849.00
445.10	5825.59
445.28	5762.40
445.47	5947.30
445.65	5970.71
445.84	5872.40
446.02	5851.34
446.21	5825.59
446.39	5888.79
446.58	6132.20
446.77	6015.18
446.95	5841.98
447.14	6054.97
447.32	6183.70
447.51	6003.47
447.69	5926.24
447.88	6057.31
448.06	5937.94
448.25	5944.96
448.43	5982.41
448.62	5893.47
448.80	6099.44
448.99	6267.95
449.17	6174.33
449.36	6066.67
449.54	6249.23
449.73	6366.26
449.91	6478.60
450.10	6424.77
450.28	6544.14
450.46	6258.59
450.65	6410.73
450.83	6349.87
451.02	6331.15
451.20	6558.18
451.39	6354.55
451.57	6462.22
451.76	6527.75
451.94	6572.22
452.13	6672.87
452.31	6408.39
452.49	6368.60
452.68	6539.46
452.86	6455.20
453.05	6546.48
453.23	6717.34
453.42	6494.99
453.60	6621.38
453.78	6511.37
453.97	6670.53
454.15	6796.92
454.34	6483.28
454.52	6834.36
454.70	6616.69
454.89	6846.07
455.07	6785.21
455.26	6939.69
455.44	6841.39
455.62	6869.47
455.81	7033.31
455.99	7073.10
456.17	6986.50
456.36	6958.41
456.54	7176.08
456.73	7234.60
456.91	7368.01
457.09	7356.30
457.28	7461.63
457.46	7241.62
457.64	7414.82
457.83	7157.36
458.01	7180.76
458.19	7419.50
458.38	7492.05
458.56	7541.21
458.74	7330.56
458.93	7318.86
459.11	7470.99
459.29	7559.93
459.48	7419.50
459.66	7541.21
459.84	7625.47
460.03	7606.74
460.21	7585.68
460.39	7606.74
460.57	7590.36
460.76	7805.69
460.94	7756.54
461.12	7669.94
461.31	7798.66
461.49	7857.18
461.67	7742.49
461.85	7836.11
462.04	7801.01
462.22	8297.20
462.40	7983.57
462.59	7845.48
462.77	8025.70
462.95	8128.68
463.13	7997.61
463.32	8065.49
463.50	8093.57
463.68	8234.00
463.86	8217.62
464.05	8077.19
464.23	7852.50
464.41	8315.92
464.59	7845.48
464.78	8248.05
464.96	8365.07
465.14	8154.43
465.32	8285.50
465.50	8290.18
465.69	8243.37
465.87	8407.20
466.05	8140.38
466.23	8510.19
466.41	8472.74
466.60	8397.84
466.78	8351.03
466.96	8526.57
467.14	8507.85
467.32	8444.65
467.51	8784.03
467.69	8325.29
467.87	8549.98
468.05	8706.79
468.23	8407.20
468.41	8510.19
468.60	8545.30
468.78	8706.79
468.96	8620.19
469.14	8814.46
469.32	8826.16
469.50	8725.52
469.69	8753.60
469.87	9043.83
470.05	8765.31
470.23	8896.38
470.41	9022.77
470.59	9083.62
470.77	9027.45
470.95	8973.61
471.14	9301.29
471.32	9254.48
471.50	9362.14
471.68	9214.69
471.86	9142.13
472.04	9261.50
472.22	9638.33
472.40	9231.07
472.58	9490.87
472.77	9542.36
472.95	9596.20
473.13	9879.40
473.31	9472.15
473.49	9467.47
473.67	9614.92
473.85	9760.03
474.03	9823.23
474.21	9977.70
474.39	10108.77
474.57	9879.40
474.75	10188.35
474.93	10108.77
475.12	10164.95
475.30	10148.56
475.48	9996.43
475.66	10354.53
475.84	10127.50
476.02	10490.28
476.20	10450.49
476.38	10518.37
476.56	10579.22
476.74	10789.87
476.92	10801.57
477.10	10843.70
477.28	11108.18
477.46	11066.05
477.64	11255.64
477.82	11283.72
478.00	11311.81
478.18	11335.21
478.36	11386.71
478.54	11559.91
478.72	11314.15
478.90	11459.26
479.08	11894.60
479.26	11969.50
479.44	12070.14
479.62	12046.74
479.80	11932.05
479.98	12161.42
480.16	12418.88
480.34	12355.69
480.52	12564.00
480.70	12369.73
480.88	12383.77
481.06	12418.88
481.24	12833.16
481.41	12978.27
481.59	12992.31
481.77	12985.29
481.95	13055.51
482.13	13167.85
482.31	13184.24
482.49	13689.79
482.67	13706.18
482.85	13572.77
483.03	13898.10
483.21	14078.32
483.39	13977.68
483.57	13902.78
483.74	14359.19
483.92	14359.19
484.10	14237.48
484.28	14516.00
484.46	14682.18
484.64	15056.67
484.82	14792.19
485.00	14827.29
485.18	15150.29
485.35	15384.34
485.53	14967.73
485.71	14876.44
485.89	15351.57
486.07	15112.84
486.25	15396.04
486.43	15550.52
486.61	15606.69
486.78	15894.58
486.96	15894.58
487.14	16149.70
487.32	16074.80
487.50	16376.73
487.68	16657.59
487.85	16673.98
488.03	17135.06
488.21	16985.27
488.39	17268.47
488.57	17310.60
488.75	17027.40
488.92	17563.38
489.10	17675.73
489.28	17839.56
489.46	18026.81
489.64	17935.53
489.81	18422.36
489.99	18235.11
490.17	18604.92
490.35	18750.03
490.53	18513.64
490.70	19014.51
490.88	18871.74
491.06	19204.10
491.24	19042.60
491.41	19164.31
491.59	18932.59
491.77	19117.50
491.95	19241.54
492.13	19711.99
492.30	19754.12
492.48	19756.46
492.66	19871.15
492.84	20278.40
493.01	20430.54
493.19	20355.64
493.37	20790.98
493.54	20489.05
493.72	21015.67
493.90	20776.94
494.08	21071.84
494.25	21118.65
494.43	21235.68
494.61	21432.29
494.79	21493.14
494.96	21359.73
495.14	21694.43
495.32	21797.41
495.49	21975.29
495.67	21921.46
495.85	22064.23
496.02	22195.30
496.20	22464.46
496.38	22223.39
496.55	22813.20
496.73	22930.23
496.91	22771.07
497.09	22747.67
497.26	23171.30
497.44	23026.19
497.62	23388.97
497.79	23403.02
497.97	23192.37
498.14	23796.23
498.32	23513.02
498.50	23676.86
498.67	23943.68
498.85	23852.40
499.03	23847.72
499.20	24226.89
499.38	24343.91
499.56	24259.65
499.73	24226.89
499.91	24535.84
500.08	24863.51
500.26	24652.86
500.44	24732.44
500.61	24496.05
500.79	24566.26
500.97	24814.36
501.14	25214.59
501.32	25137.35
501.49	25415.88
501.67	25310.55
501.84	25785.68
502.02	25741.21
502.20	25656.95
502.37	25792.70
502.55	25565.67
502.72	25926.11
502.90	26464.44
503.07	25947.18
503.25	25930.80
503.43	25923.77
503.60	26368.48
503.78	26305.28
503.95	26462.10
504.13	26511.25
504.30	26773.39
504.48	26284.22
504.65	26665.72
504.83	26771.05
505.01	27234.47
505.18	26948.93
505.36	27250.86
505.53	27300.01
505.71	27555.13
505.88	27456.82
506.06	27353.84
506.23	27391.29
506.41	27606.62
506.58	27356.18
506.76	27807.90
506.93	28247.93
507.11	28208.14
507.28	27824.29
507.46	27793.86
507.63	28121.54
507.81	28409.42
507.98	27838.33
508.16	28332.18
508.33	28788.59
508.50	28418.78
508.68	28556.88
508.85	28669.22
509.03	28982.85
509.20	28797.95
509.38	29277.76
509.55	28875.19
509.73	29340.96
509.90	29069.45
510.08	28854.12
510.25	29139.67
510.42	29411.17
510.60	29546.92
510.77	29720.12
510.95	29652.25
511.12	29500.11
511.30	29813.74
511.47	30036.09
511.64	30043.12
511.82	30483.14
511.99	30171.85
512.17	30342.70
512.34	30141.42
512.51	30478.46
512.69	30733.57
512.86	30576.76
513.04	30808.47
513.21	30417.60
513.38	30464.41
513.56	30670.38
513.73	30773.36
513.90	30965.29
514.08	30906.77
514.25	30918.48
514.43	31197.00
514.60	31098.70
514.77	30698.47
514.95	31653.40
515.12	31501.27
515.29	31435.74
515.47	32016.19
515.64	31842.99
515.81	31690.85
515.99	31510.63
516.16	32081.72
516.33	31775.11
516.51	31704.90
516.68	31630.00
516.85	31730.64
517.03	31606.59
517.20	32311.10
517.37	32215.13
517.54	32540.47
517.72	32180.03
517.89	32318.12
518.06	32032.57
518.24	32636.43
518.41	32243.22
518.58	32374.29
518.75	32545.15
518.93	32879.85
519.10	32732.39
519.27	32795.59
519.45	32734.73
519.62	32980.49
519.79	33331.57
519.96	33228.59
520.14	33493.07
520.31	33397.10
520.48	33448.60
520.65	33486.04
520.83	33766.91
521.00	33673.29
521.17	33626.48
521.34	34122.67
521.52	33961.17
521.69	34015.01
521.86	33860.53
522.03	33816.06
522.20	34096.92
522.38	34469.07
522.55	34553.33
522.72	34295.87
522.89	34139.05
523.07	34649.29
523.24	34258.42
523.41	34232.68
523.58	34218.63
523.75	34962.92
523.92	34771.00
524.10	34801.43
524.27	35042.50
524.44	35566.78
524.61	34983.99
524.78	35431.03
524.96	34998.03
525.13	35391.24
525.30	35494.22
525.47	35725.94
525.64	35388.90
525.81	35440.39
525.98	35154.85
526.16	35306.98
526.33	35445.07
526.50	35957.65
526.67	35386.56
526.84	35536.35
527.01	35407.62
527.18	35798.49
527.36	36004.46
527.53	35983.40
527.70	36416.40
527.87	36348.52
528.04	35901.48
528.21	36329.80
528.38	36254.90
528.55	36648.11
528.72	36622.36
528.89	36699.60
529.07	36126.17
529.24	36385.97
529.41	36678.54
529.58	36414.05
529.75	36346.18
529.92	37116.22
530.09	37233.24
530.26	36823.65
530.43	37570.28
530.60	36400.01
530.77	36582.57
530.94	37677.94
531.11	36610.66
531.28	37338.57
531.46	37565.60
531.63	37436.87
531.80	37071.75
531.97	37666.24
532.14	37193.45
532.31	37256.65
532.48	37275.37
532.65	37933.06
532.82	38000.94
532.99	37745.82
533.16	37530.49
533.33	37689.65
533.50	38181.16
533.67	38148.39
533.84	37745.82
534.01	37673.26
534.18	37752.84
534.35	38370.74
534.52	37769.22
534.69	38054.77
534.86	37991.58
535.03	38246.69
535.20	38499.47
535.37	38555.64
535.54	38546.28
535.71	38134.35
535.88	38637.56
536.05	38565.01
536.22	38101.58
536.38	38359.04
536.55	38291.16
536.72	38768.63
536.89	38405.85
537.06	38763.95
537.23	38754.59
537.40	38855.23
537.57	38953.54
537.74	38904.38
537.91	39351.43
538.08	39014.39
538.25	39136.10
538.42	38735.87
538.59	39292.91
538.75	38979.28
538.92	39133.76
539.09	39023.75
539.26	39152.48
539.43	39501.22
539.60	39449.73
539.77	39044.82
539.94	39674.42
540.11	39496.54
540.28	39358.45
540.44	39470.79
540.61	39515.26
540.78	39585.48
540.95	39934.22
541.12	39735.27
541.29	39718.89
541.46	39234.40
541.62	39782.09
541.79	40334.45
541.96	39735.27
542.13	40105.08
542.30	39871.03
542.47	40025.50
542.63	39709.53
542.80	40465.52
542.97	40388.28
543.14	40992.14
543.31	40774.47
543.48	40741.71
543.64	40678.51
543.81	40825.96
543.98	40556.80
544.15	40416.37
544.32	40795.54
544.48	41141.94
544.65	40985.12
544.82	40781.49
544.99	40421.05
545.16	40945.33
545.32	40802.56
545.49	41078.74
545.66	41406.42
545.83	41614.72
546.00	41326.84
546.16	41177.04
546.33	40542.76
546.50	40638.72
546.67	41326.84
546.83	40704.26
547.00	41188.75
547.17	41111.51
547.34	41500.04
547.50	41535.15
547.67	42031.34
547.84	41500.04
548.00	41764.52
548.17	42012.62
548.34	41207.47
548.51	42075.81
548.67	41581.96
548.84	42071.13
549.01	41427.48
549.18	41970.49
549.34	42038.36
549.51	41984.53
549.68	42113.26
549.84	41687.28
550.01	41926.02
550.18	41741.11
550.34	41914.31
550.51	41572.60
550.68	41560.89
550.84	41729.41
551.01	41867.50
551.18	42167.09
551.34	41811.33
551.51	42024.32
551.68	42731.16
551.84	42281.78
552.01	42272.42
552.18	42286.46
552.34	41947.08
552.51	42504.13
552.68	42256.03
552.84	42440.93
553.01	42993.30
553.18	42234.97
553.34	42557.96
553.51	42597.75
553.67	42424.55
553.84	43023.73
554.01	43105.65
554.17	42735.84
554.34	42628.18
554.51	43133.73
554.67	43028.41
554.84	42934.79
555.00	42663.28
555.17	42445.62
555.33	42906.70
555.50	42859.89
555.67	42684.35
555.83	43227.35
556.00	42562.64
556.16	43337.36
556.33	43416.94
556.50	43115.01
556.66	42763.93
556.83	43084.58
556.99	43391.19
557.16	43283.53
557.32	43257.78
557.49	43491.83
557.65	42651.58
557.82	43058.84
557.98	42988.62
558.15	43386.51
558.32	43393.53
558.48	43395.87
558.65	43189.91
558.81	43384.17
558.98	43473.11
559.14	43274.16
559.31	43402.89
559.47	43248.42
559.64	43908.45
559.80	43524.60
559.97	43559.71
560.13	43246.08
560.30	43328.00
560.46	43847.60
560.63	43887.39
560.79	43807.81
560.96	43445.02
561.12	43430.98
561.29	43452.05
561.45	43863.98
561.61	43613.54
561.78	43849.94
561.94	43459.07
562.11	43791.42
562.27	43480.13
562.44	43110.33
562.60	44179.95
562.77	44161.23
562.93	44032.50
563.10	43803.13
563.26	43695.46
563.42	44074.63
563.59	43863.98
563.75	44027.82
563.92	43775.04
564.08	43957.60
564.24	44350.81
564.41	44126.12
564.57	43707.16
564.74	44360.17
564.90	44100.37
565.07	43753.97
565.23	43840.57
565.39	43957.60
565.56	43969.30
565.72	43889.73
565.88	44119.10
566.05	44041.86
566.21	44226.76
566.38	43753.97
566.54	44037.18
566.70	44535.71
566.87	44610.61
567.03	44353.15
567.19	44474.86
567.36	44332.09
567.52	44201.02
567.68	44411.67
567.85	44315.70
568.01	44547.42
568.17	44245.49
568.34	44266.55
568.50	44011.43
568.66	43978.67
568.83	44275.91
568.99	44069.95
569.15	44299.32
569.32	44011.43
569.48	44224.42
569.64	44456.14
569.81	44329.75
569.97	44058.24
570.13	44105.06
570.30	44296.98
570.46	44264.21
570.62	44409.32
570.78	43917.81
570.95	44023.14
571.11	44744.02
571.27	44697.21
571.43	44479.54
571.60	44715.93
571.76	44481.88
571.92	44285.28
572.09	44233.78
572.25	44596.57
572.41	44112.08
572.57	44472.52
572.74	45170.00
572.90	44470.18
573.06	44634.02
573.22	44360.17
573.38	44091.01
573.55	44418.69
573.71	44559.12
573.87	44311.02
574.03	44247.83
574.20	44666.78
574.36	44273.57
574.52	44992.12
574.68	44495.92
574.84	45074.04
575.01	44451.45
575.17	44645.72
575.33	44009.09
575.49	44603.59
575.65	44619.97
575.82	45092.76
575.98	44589.55
576.14	45106.80
576.30	44561.46
576.46	44865.73
576.62	44397.62
576.79	44697.21
576.95	44186.97
577.11	44626.99
577.27	44758.06
577.43	44739.34
577.59	44570.82
577.75	44697.21
577.92	44329.75
578.08	44498.26
578.24	44381.24
578.40	44493.58
578.56	44299.32
578.72	44671.46
578.88	44449.11
579.04	45319.79
579.21	44390.60
579.37	44460.82
579.53	44133.14
579.69	44605.93
579.85	44570.82
580.01	44549.76
580.17	44765.09
580.33	44851.69
580.49	44933.60
580.65	44765.09
580.82	44634.02
580.98	44795.51
581.14	44336.77
581.30	44657.42
581.46	44336.77
581.62	44701.89
581.78	44388.26
581.94	44865.73
582.10	44727.64
582.26	44811.90
582.42	44364.85
582.58	44793.17
582.74	44453.79
582.90	45045.95
583.06	45167.66
583.22	44818.92
583.38	44945.31
583.54	44765.09
583.70	44528.69
583.86	44598.91
584.02	44542.74
584.18	44580.18
584.34	44872.75
584.50	44947.65
584.66	44561.46
584.82	44484.22
584.98	44994.46
585.14	44699.55
585.30	44643.38
585.46	44692.53
585.62	44737.00
585.78	44254.85
585.94	44484.22
586.10	44524.01
586.26	44622.31
586.42	44945.31
586.58	44725.30
586.74	44865.73
586.90	44776.79
587.06	44598.91
587.22	44882.11
587.38	44776.79
587.54	45198.09
587.70	44954.67
587.86	45212.13
588.02	44839.98
588.18	45017.86
588.34	44790.83
588.49	44776.79
588.65	44788.49
588.81	44385.92
588.97	44367.20
589.13	44514.65
589.29	44769.77
589.45	45160.64
589.61	45177.02
589.77	45062.33
589.93	45015.52
590.08	45427.46
590.24	44935.95
