SpectraSuite Data File
++++++++++++++++++++++++++++++++++++
Date: Fri Oct 25 10:47:07 EDT 2013
User: price-jones
Dark Spectrum Present: No
Reference Spectrum Present: No
Number of Sampled Component Spectra: 1
Spectrometers: USB2+H05261
Integration Time (usec): 100000 (USB2+H05261)
Spectra Averaged: 1 (USB2+H05261)
Boxcar Smoothing: 0 (USB2+H05261)
Correct for Electrical Dark: No (USB2+H05261)
Strobe/Lamp Enabled: No (USB2+H05261)
Correct for Detector Non-linearity: No (USB2+H05261)
Correct for Stray Light: No (USB2+H05261)
Number of Pixels in Processed Spectrum: 2048
>>>>>Begin Processed Spectral Data<<<<<
365.73	133.41
365.92	133.41
366.12	133.41
366.32	140.43
366.52	65.54
366.72	77.24
366.91	32.77
367.11	98.30
367.31	95.96
367.51	32.77
367.70	23.41
367.90	65.54
368.10	0.00
368.30	65.54
368.49	46.81
368.69	142.77
368.89	0.00
369.09	72.56
369.28	102.98
369.48	37.45
369.68	117.03
369.87	49.15
370.07	173.20
370.27	140.43
370.47	140.43
370.66	388.53
370.86	435.34
371.06	451.72
371.25	486.83
371.45	505.56
371.65	575.77
371.84	433.00
372.04	442.36
372.24	437.68
372.44	498.53
372.63	507.90
372.83	524.28
373.03	568.75
373.22	486.83
373.42	423.64
373.62	599.18
373.81	512.58
374.01	538.32
374.21	582.79
374.40	503.22
374.60	587.47
374.79	512.58
374.99	533.64
375.19	550.03
375.38	559.39
375.58	589.82
375.78	566.41
375.97	603.86
376.17	636.63
376.37	559.39
376.56	545.34
376.76	617.90
376.95	531.30
377.15	603.86
377.35	660.03
377.54	603.86
377.74	613.22
377.93	643.65
378.13	622.58
378.33	606.20
378.52	580.45
378.72	629.60
378.91	603.86
379.11	657.69
379.31	599.18
379.50	634.29
379.70	664.71
379.89	599.18
380.09	650.67
380.28	650.67
380.48	681.10
380.68	711.52
380.87	648.33
381.07	592.16
381.26	690.46
381.46	648.33
381.65	690.46
381.85	631.94
382.04	692.80
382.24	737.27
382.43	608.54
382.63	706.84
382.83	617.90
383.02	718.54
383.22	737.27
383.41	727.91
383.61	770.04
383.80	688.12
384.00	732.59
384.19	795.78
384.39	786.42
384.58	744.29
384.78	716.20
384.97	823.87
385.17	805.14
385.36	674.07
385.56	800.46
385.75	781.74
385.95	788.76
386.14	826.21
386.34	866.00
386.53	830.89
386.72	791.10
386.92	786.42
387.11	763.01
387.31	779.40
387.50	816.85
387.70	816.85
387.89	758.33
388.09	795.78
388.28	760.67
388.48	772.38
388.67	833.23
388.86	894.08
389.06	868.34
389.25	795.78
389.45	800.46
389.64	898.77
389.84	922.17
390.03	915.15
390.22	959.62
390.42	917.49
390.61	966.64
390.81	952.60
391.00	964.30
391.19	936.21
391.39	950.26
391.58	954.94
391.78	891.74
391.97	952.60
392.16	1034.52
392.36	971.32
392.55	1062.60
392.75	950.26
392.94	983.02
393.13	1004.09
393.33	1011.11
393.52	973.66
393.71	1060.26
393.91	1027.50
394.10	1034.52
394.29	1015.79
394.49	1083.67
394.68	1043.88
394.88	1107.07
395.07	1111.75
395.26	1069.62
395.46	1076.65
395.65	1076.65
395.84	1081.33
396.04	1135.16
396.23	1107.07
396.42	1083.67
396.62	1158.57
396.81	1149.20
397.00	1121.12
397.19	1172.61
397.39	1191.33
397.58	1226.44
397.77	1181.97
397.97	1268.57
398.16	1224.10
398.35	1322.40
398.55	1224.10
398.74	1235.80
398.93	1273.25
399.12	1313.04
399.32	1207.72
399.51	1287.29
399.70	1409.00
399.90	1390.28
400.09	1423.05
400.28	1329.42
400.47	1446.45
400.67	1338.79
400.86	1406.66
401.05	1366.87
401.24	1472.20
401.44	1437.09
401.63	1413.68
401.82	1458.15
402.01	1423.05
402.21	1495.60
402.40	1497.94
402.59	1528.37
402.78	1472.20
402.97	1451.13
403.17	1621.99
403.36	1535.39
403.55	1467.52
403.74	1657.10
403.93	1600.93
404.13	1713.27
404.32	1558.80
404.51	1563.48
404.70	1710.93
404.89	1645.40
405.09	1837.32
405.28	1579.86
405.47	1645.40
405.66	1818.60
405.85	1741.36
406.05	1713.27
406.24	1834.98
406.43	1757.74
406.62	1764.76
406.81	1858.39
407.00	1851.36
407.20	1844.34
407.39	1884.13
407.58	1928.60
407.77	1916.90
407.96	2050.31
408.15	1909.88
408.34	1933.28
408.54	1940.30
408.73	1977.75
408.92	2043.29
409.11	1987.11
409.30	1982.43
409.49	1928.60
409.68	1982.43
409.87	2066.69
410.07	2073.71
410.26	2122.87
410.45	2090.10
410.64	2153.29
410.83	2057.33
411.02	2162.66
411.21	2176.70
411.40	2195.42
411.59	2214.15
411.78	2317.13
411.98	2347.56
412.17	2286.70
412.36	2214.15
412.55	2279.68
412.74	2429.48
412.93	2457.56
413.12	2331.17
413.31	2487.99
413.50	2410.75
413.69	2518.42
413.88	2640.12
414.07	2466.92
414.26	2619.06
414.45	2635.44
414.64	2628.42
414.83	2572.25
415.02	2712.68
415.22	2614.38
415.41	2785.24
415.60	2848.43
415.79	2733.75
415.98	2958.44
416.17	2885.88
416.36	2890.56
416.55	2909.29
416.74	2855.45
416.93	2869.50
417.12	2820.35
417.31	3019.29
417.50	2881.20
417.69	3082.49
417.88	2937.37
418.07	2998.23
418.26	3014.61
418.45	3077.80
418.64	3157.38
418.83	3122.27
419.02	3028.65
419.21	3208.87
419.39	3171.43
419.58	3220.58
419.77	3082.49
419.96	3080.14
420.15	3234.62
420.34	3239.30
420.53	3382.07
420.72	3321.22
420.91	3351.65
421.10	3456.97
421.29	3449.95
421.48	3309.52
421.67	3459.31
421.86	3323.56
422.05	3368.03
422.24	3414.84
422.43	3410.16
422.61	3412.50
422.80	3384.41
422.99	3463.99
423.18	3466.33
423.37	3449.95
423.56	3421.86
423.75	3398.46
423.94	3456.97
424.13	3225.26
424.32	3272.07
424.50	3536.55
424.69	3613.79
424.88	3471.01
425.07	3562.30
425.26	3335.26
425.45	3468.67
425.64	3506.12
425.83	3426.54
426.01	3559.95
426.20	3562.30
426.39	3541.23
426.58	3538.89
426.77	3524.85
426.96	3454.63
427.15	3613.79
427.33	3707.41
427.52	3695.71
427.71	3672.30
427.90	3686.34
428.09	3833.80
428.28	3735.50
428.46	3822.09
428.65	3698.05
428.84	3772.94
429.03	3744.86
429.22	3728.47
429.40	3737.84
429.59	3747.20
429.78	3552.93
429.97	3597.40
430.16	3613.79
430.34	3695.71
430.53	3754.22
430.72	3913.38
430.91	3894.65
431.10	3838.48
431.28	4030.40
431.47	4049.13
431.66	4138.07
431.85	4100.62
432.03	4170.83
432.22	4126.36
432.41	4138.07
432.60	4163.81
432.79	4102.96
432.97	4037.42
433.16	4161.47
433.35	4152.11
433.54	4154.45
433.72	4227.01
433.91	4238.71
434.10	4358.08
434.28	4334.67
434.47	4344.03
434.66	4486.81
434.85	4341.69
435.03	4322.97
435.22	4294.88
435.41	4465.74
435.59	4512.55
435.78	4477.44
435.97	4652.98
436.16	4477.44
436.34	4514.89
436.53	4542.98
436.72	4444.68
436.90	4449.36
437.09	4629.58
437.28	4575.75
437.46	4528.94
437.65	4596.81
437.84	4660.01
438.02	4676.39
438.21	4596.81
438.40	4613.20
438.58	4896.40
438.77	4800.44
438.96	4816.82
439.14	4889.38
439.33	4971.30
439.52	5032.15
439.70	5060.24
439.89	5078.96
440.08	4917.47
440.26	5046.20
440.45	5130.45
440.63	5203.01
440.82	5287.27
441.01	5345.78
441.19	5282.59
441.38	5317.70
441.57	5296.63
441.75	5373.87
441.94	5469.83
442.12	5584.52
442.31	5743.67
442.50	5638.35
442.68	5437.06
442.87	5593.88
443.05	5610.26
443.24	5783.46
443.43	5633.67
443.61	5692.18
443.80	5823.25
443.98	5671.12
444.17	5502.60
444.35	5717.93
444.54	5738.99
444.73	5636.01
444.91	5954.32
445.10	5729.63
445.28	5841.98
445.47	5598.56
445.65	5710.91
445.84	5827.93
446.02	5816.23
446.21	5959.00
446.39	5930.92
446.58	5919.21
446.77	5947.30
446.95	5841.98
447.14	5935.60
447.32	6026.88
447.51	6094.76
447.69	5776.44
447.88	5886.45
448.06	6085.39
448.25	5991.77
448.43	6106.46
448.62	5916.87
448.80	5872.40
448.99	5937.94
449.17	6141.57
449.36	5968.37
449.54	6122.84
449.73	6164.97
449.91	6319.45
450.10	6408.39
450.28	6457.54
450.46	6361.58
450.65	6417.75
450.83	6221.14
451.02	6272.64
451.20	6223.48
451.39	6291.36
451.57	6218.80
451.76	6431.79
451.94	6448.18
452.13	6399.02
452.31	6384.98
452.49	6494.99
452.68	6445.84
452.86	6445.84
453.05	6497.33
453.23	6473.92
453.42	6565.20
453.60	6544.14
453.78	6525.41
453.97	6614.35
454.15	6668.19
454.34	6581.59
454.52	6644.78
454.70	6696.27
454.89	6757.13
455.07	6731.38
455.26	6799.26
455.44	6874.15
455.62	6834.36
455.81	6757.13
455.99	6958.41
456.17	6817.98
456.36	7066.08
456.54	7222.89
456.73	7143.32
456.91	7126.93
457.09	7218.21
457.28	7351.62
457.46	7131.61
457.64	7101.19
457.83	7215.87
458.01	6986.50
458.19	7365.67
458.38	7087.14
458.56	7318.86
458.74	7356.30
458.93	7213.53
459.11	7405.46
459.29	7414.82
459.48	7639.51
459.66	7487.37
459.84	7492.05
460.03	7564.61
460.21	7761.22
460.39	7543.55
460.57	7489.71
460.76	7667.60
460.94	7735.47
461.12	7791.64
461.31	7513.12
461.49	7585.68
461.67	7660.57
461.85	7758.88
462.04	7695.68
462.22	8224.64
462.40	8035.06
462.59	7864.20
462.77	8009.31
462.95	7885.26
463.13	7915.69
463.32	7850.16
463.50	8152.09
463.68	8088.89
463.86	8051.44
464.05	7985.91
464.23	8161.45
464.41	7999.95
464.59	7999.95
464.78	8128.68
464.96	8032.72
465.14	8107.62
465.32	8248.05
465.50	8365.07
465.69	8348.69
465.87	8245.71
466.05	8294.86
466.23	8264.43
466.41	8311.24
466.60	8407.20
466.78	8224.64
466.96	8332.31
467.14	8283.16
467.32	8376.78
467.51	8585.08
467.69	8070.17
467.87	8449.33
468.05	8482.10
468.23	8606.15
468.41	8421.25
468.60	8528.91
468.78	8725.52
468.96	8388.48
469.14	8566.36
469.32	8678.71
469.50	8578.06
469.69	8692.75
469.87	8908.08
470.05	8674.03
470.23	8805.10
470.41	8760.63
470.59	8931.48
470.77	8858.93
470.95	8882.33
471.14	9078.94
471.32	8877.65
471.50	9315.33
471.68	9151.49
471.86	9273.20
472.04	9198.31
472.22	9394.91
472.40	9259.16
472.58	9413.63
472.77	9315.33
472.95	9355.12
473.13	9865.36
473.31	9425.34
473.49	9486.19
473.67	9420.66
473.85	9701.52
474.03	9701.52
474.21	9804.50
474.39	9848.97
474.57	9966.00
474.75	10001.11
474.93	9980.04
475.12	10017.49
475.30	10104.09
475.48	10076.01
475.66	10139.20
475.84	10333.47
476.02	10298.36
476.20	10548.79
476.38	10478.58
476.56	10712.63
476.74	10626.03
476.92	10628.37
477.10	10436.45
477.28	10832.00
477.46	10923.28
477.64	11295.43
477.82	10998.18
478.00	11094.14
478.18	11194.78
478.36	11379.68
478.54	11452.24
478.72	11391.39
478.90	11477.99
479.08	11770.55
479.26	11857.15
479.44	11845.45
479.62	12039.72
479.80	11892.26
479.98	12161.42
480.16	12236.32
480.34	12138.02
480.52	12484.42
480.70	12336.96
480.88	12585.06
481.06	12493.78
481.24	12465.69
481.41	12786.35
481.59	12835.50
481.77	12884.65
481.95	12924.44
482.13	13088.28
482.31	13165.51
482.49	13289.56
482.67	13479.15
482.85	13633.62
483.03	13591.49
483.21	13532.98
483.39	13949.59
483.57	13715.54
483.74	13996.40
483.92	14104.07
484.10	13935.55
484.28	14298.33
484.46	14707.93
484.64	14977.09
484.82	14696.22
485.00	14644.73
485.18	14850.70
485.35	14956.02
485.53	15009.86
485.71	14759.42
485.89	15180.71
486.07	15236.89
486.25	15089.43
486.43	15449.88
486.61	15616.05
486.78	16107.57
486.96	15861.81
487.14	16121.61
487.32	15999.90
487.50	16119.27
487.68	16353.32
487.85	16673.98
488.03	16978.25
488.21	16980.59
488.39	16678.66
488.57	17048.46
488.75	17240.39
488.92	17319.96
489.10	17479.12
489.28	17687.43
489.46	18017.44
489.64	17591.47
489.81	18136.81
489.99	18246.82
490.17	18169.58
490.35	18644.71
490.53	18396.61
490.70	18583.85
490.88	18764.07
491.06	18719.60
491.24	18771.10
491.41	18750.03
491.59	18881.10
491.77	19023.87
491.95	19241.54
492.13	19360.91
492.30	19632.41
492.48	19864.13
492.66	19744.76
492.84	19786.89
493.01	20065.41
493.19	20149.67
493.37	20463.30
493.54	20526.50
493.72	20629.48
493.90	20505.43
494.08	20957.16
494.25	21151.42
494.43	21212.28
494.61	21179.51
494.79	21228.66
494.96	21144.40
495.14	21453.35
495.32	21736.56
495.49	21612.51
495.67	21869.97
495.85	21745.92
496.02	21914.44
496.20	22036.14
496.38	22249.13
496.55	22412.97
496.73	22810.86
496.91	22377.86
497.09	22375.52
497.26	22731.28
497.44	22810.86
497.62	23070.66
497.79	23080.02
497.97	23014.49
498.14	23255.56
498.32	23616.01
498.50	23501.32
498.67	23709.63
498.85	23807.93
499.03	24159.01
499.20	24126.24
499.38	23894.53
499.56	23854.74
499.73	24353.27
499.91	24315.83
500.08	24474.98
500.26	24226.89
500.44	24353.27
500.61	24521.79
500.79	24617.75
500.97	24599.03
501.14	25261.40
501.32	24987.56
501.49	25111.61
501.67	25254.38
501.84	25383.11
502.02	25392.47
502.20	25666.31
502.37	25436.94
502.55	25738.87
502.72	25612.48
502.90	25769.30
503.07	25694.40
503.25	25862.92
503.43	25692.06
503.60	26148.46
503.78	26148.46
503.95	26260.81
504.13	26368.48
504.30	26602.53
504.48	26204.64
504.65	26824.88
504.83	26972.33
505.01	26553.38
505.18	26565.08
505.36	26876.37
505.53	27117.45
505.71	27014.46
505.88	27370.22
506.06	27300.01
506.23	27101.06
506.41	27166.60
506.58	27445.12
506.76	27431.08
506.93	27384.27
507.11	27651.09
507.28	27892.16
507.46	27360.86
507.63	27857.06
507.81	28151.96
507.98	27627.68
508.16	27929.61
508.33	28400.06
508.50	28151.96
508.68	28407.08
508.85	28760.50
509.03	28589.64
509.20	28709.01
509.38	28615.39
509.55	28748.80
509.73	29022.64
509.90	28891.57
510.08	28961.79
510.25	28542.83
510.42	29530.54
510.60	29223.93
510.77	29378.40
510.95	29713.10
511.12	29324.57
511.30	29809.06
511.47	30197.59
511.64	29455.64
511.82	29804.38
511.99	29769.27
512.17	29776.30
512.34	30216.32
512.51	29937.79
512.69	30019.71
512.86	30295.89
513.04	30429.30
513.21	30150.78
513.38	30558.03
513.56	30148.44
513.73	30525.27
513.90	30848.26
514.08	30225.68
514.25	30979.33
514.43	31016.78
514.60	30871.67
514.77	30822.51
514.95	31061.25
515.12	31044.87
515.29	31105.72
515.47	31426.37
515.64	31468.50
515.81	31409.99
515.99	31028.48
516.16	31538.72
516.33	31786.82
516.51	31620.64
516.68	31281.26
516.85	30984.01
517.03	31346.79
517.20	31672.13
517.37	31838.31
517.54	31938.95
517.72	32011.51
517.89	31669.79
518.06	32374.29
518.24	32144.92
518.41	32130.87
518.58	31976.40
518.75	32336.84
518.93	32318.12
519.10	32547.49
519.27	32484.30
519.45	33017.94
519.62	32699.62
519.79	33027.30
519.96	32994.53
520.14	33242.63
520.31	33076.45
520.48	33181.77
520.65	33259.01
520.83	33544.56
521.00	33259.01
521.17	33514.13
521.34	33687.33
521.52	33759.89
521.69	33493.07
521.86	33638.18
522.03	33610.09
522.20	34017.35
522.38	33984.58
522.55	33982.24
522.72	33769.25
522.89	33937.77
523.07	34012.66
523.24	33879.25
523.41	34235.02
523.58	34101.61
523.75	34845.90
523.92	34595.46
524.10	34682.06
524.27	34766.32
524.44	34541.63
524.61	34703.12
524.78	35030.80
524.96	34911.43
525.13	34822.49
525.30	35517.63
525.47	35192.30
525.64	35152.51
525.81	35021.44
525.98	35295.28
526.16	35016.75
526.33	35260.17
526.50	35349.11
526.67	35175.91
526.84	35480.18
527.01	35028.46
527.18	35693.17
527.36	35679.13
527.53	35552.74
527.70	36034.89
527.87	36093.40
528.04	35915.52
528.21	35959.99
528.38	35941.27
528.55	35983.40
528.72	36430.44
528.89	36601.30
529.07	35978.72
529.24	36165.96
529.41	36355.54
529.58	36402.35
529.75	36252.56
529.92	36100.42
530.09	36823.65
530.26	36643.43
530.43	36503.00
530.60	36428.10
530.77	36589.59
530.94	36966.42
531.11	36769.82
531.28	36685.56
531.46	37081.11
531.63	37441.55
531.80	36844.71
531.97	37092.81
532.14	36957.06
532.31	36870.46
532.48	37048.34
532.65	37584.32
532.82	37111.53
532.99	36994.51
533.16	37031.96
533.33	37273.03
533.50	37457.93
533.67	37460.27
533.84	37387.72
534.01	37373.67
534.18	37710.71
534.35	37708.37
534.52	37486.02
534.69	37912.00
534.86	38298.19
535.03	38157.75
535.20	38085.20
535.37	38265.42
535.54	37947.11
535.71	37947.11
535.88	38136.69
536.05	38204.56
536.22	38206.90
536.38	38036.05
536.55	38230.31
536.72	38525.22
536.89	38223.29
537.06	38108.60
537.23	38616.50
537.40	38550.96
537.57	38424.57
537.74	38576.71
537.91	38864.60
538.08	39100.99
538.25	38639.90
538.42	38265.42
538.59	39552.71
538.75	38852.89
538.92	39056.52
539.09	38892.68
539.26	39065.88
539.43	38932.47
539.60	38852.89
539.77	39124.40
539.94	39051.84
540.11	39372.49
540.28	39421.64
540.44	39042.48
540.61	39433.35
540.78	39096.31
540.95	39108.01
541.12	39173.55
541.29	39222.70
541.46	38993.32
541.62	39175.89
541.79	39592.50
541.96	38927.79
542.13	39416.96
542.30	39653.36
542.47	39807.83
542.63	39969.33
542.80	39915.50
542.97	40165.93
543.14	40343.81
543.31	40055.93
543.48	40486.59
543.64	40521.69
543.81	40528.72
543.98	40465.52
544.15	40222.11
544.32	40664.47
544.48	40762.77
544.65	40563.82
544.82	40449.14
544.99	40264.24
545.16	40463.18
545.32	40194.02
545.49	41160.66
545.66	40973.42
545.83	40755.75
546.00	41207.47
546.16	40751.07
546.33	40596.59
546.50	40645.74
546.67	41027.25
546.83	40154.23
547.00	41027.25
547.17	41137.26
547.34	40952.35
547.50	40980.44
547.67	41455.57
547.84	41181.73
548.00	41265.99
548.17	41509.40
548.34	41483.66
548.51	41546.85
548.67	41614.72
548.84	41481.31
549.01	41242.58
549.18	41172.36
549.34	41584.30
549.51	41425.14
549.68	41787.92
549.84	41406.42
550.01	41825.37
550.18	41064.70
550.34	41935.38
550.51	41759.84
550.68	41572.60
550.84	41366.63
551.01	41745.80
551.18	41752.82
551.34	41544.51
551.51	41890.91
551.68	41914.31
551.84	41991.55
552.01	41745.80
552.18	42043.04
552.34	41642.81
552.51	42333.27
552.68	42073.47
552.84	42036.02
553.01	42174.11
553.18	42375.40
553.34	42431.57
553.51	41958.78
553.67	41979.85
553.84	42691.37
554.01	42642.22
554.17	42607.11
554.34	42295.82
554.51	42333.27
554.67	42869.25
554.84	42408.17
555.00	42579.03
555.17	42600.09
555.33	42806.06
555.50	42728.82
555.67	42656.26
555.83	42621.16
556.00	42672.65
556.16	43260.12
556.33	42979.26
556.50	42848.19
556.66	42871.59
556.83	42754.57
556.99	42899.68
557.16	43309.27
557.32	43206.29
557.49	42993.30
557.65	42555.62
557.82	42721.80
557.98	42883.30
558.15	43257.78
558.32	43086.92
558.48	42787.33
558.65	42988.62
558.81	43274.16
558.98	43068.20
559.14	42965.21
559.31	43297.57
559.47	43398.21
559.64	43360.76
559.80	43377.15
559.97	43426.30
560.13	43164.16
560.30	43068.20
560.46	42969.90
560.63	42911.38
560.79	43613.54
560.96	43908.45
561.12	43400.55
561.29	43803.13
561.45	43379.49
561.61	43175.86
561.78	43456.73
561.94	43430.98
562.11	43753.97
562.27	43220.33
562.44	43386.51
562.60	43248.42
562.77	43737.59
562.93	43540.99
563.10	43723.55
563.26	43051.81
563.42	43208.63
563.59	43573.75
563.75	43552.69
563.92	44013.77
564.08	43646.31
564.24	43721.21
564.41	43821.85
564.57	43646.31
564.74	43604.18
564.90	44039.52
565.07	43562.05
565.23	43835.89
565.39	43718.87
565.56	43697.80
565.72	43793.76
565.88	43402.89
566.05	43849.94
566.21	43784.40
566.38	43601.84
566.54	43709.50
566.70	43728.23
566.87	44163.57
567.03	43892.07
567.19	43828.87
567.36	44060.58
567.52	43543.33
567.68	43669.72
567.85	43756.32
568.01	43948.24
568.17	44081.65
568.34	44182.29
568.50	43716.53
568.66	43711.84
568.83	43957.60
568.99	43625.25
569.15	44030.16
569.32	43683.76
569.48	43901.43
569.64	44093.35
569.81	44266.55
569.97	43784.40
570.13	43952.92
570.30	43856.96
570.46	43735.25
570.62	43552.69
570.78	43849.94
570.95	43873.34
571.11	44292.30
571.27	43852.28
571.43	44304.00
571.60	44456.14
571.76	44252.51
571.92	43913.13
572.09	44182.29
572.25	44128.46
572.41	44273.57
572.57	44025.48
572.74	44470.18
572.90	44062.93
573.06	44105.06
573.22	44343.79
573.38	44074.63
573.55	43922.49
573.71	44634.02
573.87	44311.02
574.03	43777.38
574.20	44086.33
574.36	44259.53
574.52	44509.97
574.68	44158.89
574.84	44514.65
575.01	43976.33
575.17	44315.70
575.33	44318.04
575.49	44444.43
575.65	44280.60
575.82	44729.98
575.98	44329.75
576.14	44868.07
576.30	44243.15
576.46	43943.56
576.62	44114.42
576.79	44500.61
576.95	43683.76
577.11	44526.35
577.27	44186.97
577.43	44353.15
577.59	44411.67
577.75	44617.63
577.92	44095.69
578.08	44327.41
578.24	44231.44
578.40	44186.97
578.56	44533.37
578.72	44432.73
578.88	44849.35
579.04	44486.56
579.21	44191.65
579.37	44519.33
579.53	44194.00
579.69	44362.51
579.85	44470.18
580.01	44615.29
580.17	44566.14
580.33	44498.26
580.49	44191.65
580.65	44547.42
580.82	44746.36
580.98	44383.58
581.14	44144.84
581.30	44442.09
581.46	44259.53
581.62	44872.75
581.78	44818.92
581.94	45038.93
582.10	44596.57
582.26	44701.89
582.42	44533.37
582.58	44509.97
582.74	44470.18
582.90	44694.87
583.06	45151.27
583.22	45078.72
583.38	44842.32
583.54	44528.69
583.70	44631.68
583.86	44271.23
584.02	43988.03
584.18	44437.41
584.34	44737.00
584.50	44659.76
584.66	44329.75
584.82	44385.92
584.98	44774.45
585.14	44376.56
585.30	44336.77
585.46	45003.82
585.62	44343.79
585.78	44814.24
585.94	44350.81
586.10	44261.87
586.26	44357.83
586.42	44610.61
586.58	44776.79
586.74	44605.93
586.90	45052.97
587.06	44282.94
587.22	44678.49
587.38	44107.40
587.54	44554.44
587.70	44751.04
587.86	44877.43
588.02	44720.62
588.18	44877.43
588.34	44772.11
588.49	44568.48
588.65	44397.62
588.81	44737.00
588.97	44505.29
589.13	44861.05
589.29	44556.78
589.45	44657.42
589.61	44612.95
589.77	44861.05
589.93	44748.70
590.08	44830.62
590.24	44713.59
