SpectraSuite Data File
++++++++++++++++++++++++++++++++++++
Date: Fri Oct 25 10:47:49 EDT 2013
User: price-jones
Dark Spectrum Present: No
Reference Spectrum Present: No
Number of Sampled Component Spectra: 1
Spectrometers: USB2+H05261
Integration Time (usec): 100000 (USB2+H05261)
Spectra Averaged: 1 (USB2+H05261)
Boxcar Smoothing: 0 (USB2+H05261)
Correct for Electrical Dark: No (USB2+H05261)
Strobe/Lamp Enabled: No (USB2+H05261)
Correct for Detector Non-linearity: No (USB2+H05261)
Correct for Stray Light: No (USB2+H05261)
Number of Pixels in Processed Spectrum: 2048
>>>>>Begin Processed Spectral Data<<<<<
365.73	112.35
365.92	112.35
366.12	112.35
366.32	60.85
366.52	42.13
366.72	28.09
366.91	70.22
367.11	39.79
367.31	44.47
367.51	51.49
367.70	7.02
367.90	67.88
368.10	18.72
368.30	79.58
368.49	51.49
368.69	42.13
368.89	49.15
369.09	16.38
369.28	32.77
369.48	117.03
369.68	119.37
369.87	86.60
370.07	117.03
370.27	170.86
370.47	236.39
370.66	381.51
370.86	311.29
371.06	447.04
371.25	463.43
371.45	421.30
371.65	498.53
371.84	437.68
372.04	388.53
372.24	451.72
372.44	514.92
372.63	524.28
372.83	472.79
373.03	482.15
373.22	465.77
373.42	568.75
373.62	526.62
373.81	622.58
374.01	564.07
374.21	613.22
374.40	587.47
374.60	575.77
374.79	580.45
374.99	512.58
375.19	524.28
375.38	554.71
375.58	566.41
375.78	547.69
375.97	552.37
376.17	627.26
376.37	580.45
376.56	603.86
376.76	613.22
376.95	557.05
377.15	617.90
377.35	599.18
377.54	615.56
377.74	631.94
377.93	594.50
378.13	645.99
378.33	641.31
378.52	636.63
378.72	669.39
378.91	662.37
379.11	547.69
379.31	606.20
379.50	648.33
379.70	638.97
379.89	634.29
380.09	643.65
380.28	645.99
380.48	699.82
380.68	725.57
380.87	720.88
381.07	650.67
381.26	777.06
381.46	674.07
381.65	699.82
381.85	727.91
382.04	624.92
382.24	660.03
382.43	660.03
382.63	699.82
382.83	643.65
383.02	791.10
383.22	678.76
383.41	667.05
383.61	814.51
383.80	704.50
384.00	851.96
384.19	702.16
384.39	737.27
384.58	812.17
384.78	751.31
384.97	760.67
385.17	758.33
385.36	774.72
385.56	748.97
385.75	723.23
385.95	805.14
386.14	856.64
386.34	723.23
386.53	823.87
386.72	812.17
386.92	887.06
387.11	863.66
387.31	802.80
387.50	828.55
387.70	830.89
387.89	770.04
388.09	753.65
388.28	795.78
388.48	826.21
388.67	917.49
388.86	858.98
389.06	898.77
389.25	976.00
389.45	891.74
389.64	931.53
389.84	947.92
390.03	908.13
390.22	959.62
390.42	873.02
390.61	950.26
390.81	940.90
391.00	997.07
391.19	1006.43
391.39	994.73
391.58	1008.77
391.78	1013.45
391.97	952.60
392.16	1043.88
392.36	992.39
392.55	957.28
392.75	954.94
392.94	971.32
393.13	1086.01
393.33	980.68
393.52	1081.33
393.71	1013.45
393.91	931.53
394.10	1011.11
394.29	1015.79
394.49	1053.24
394.68	1121.12
394.88	1081.33
395.07	1203.04
395.26	1165.59
395.46	1088.35
395.65	1083.67
395.84	1144.52
396.04	1130.48
396.23	1130.48
396.42	1132.82
396.62	1238.14
396.81	1181.97
397.00	1174.95
397.19	1270.91
397.39	1128.14
397.58	1249.85
397.77	1252.19
397.97	1252.19
398.16	1242.82
398.35	1331.76
398.55	1390.28
398.74	1324.74
398.93	1394.96
399.12	1383.26
399.32	1291.98
399.51	1289.64
399.70	1401.98
399.90	1399.64
400.09	1423.05
400.28	1460.49
400.47	1383.26
400.67	1483.90
400.86	1497.94
401.05	1488.58
401.24	1509.65
401.44	1493.26
401.63	1519.01
401.82	1540.07
402.01	1519.01
402.21	1605.61
402.40	1526.03
402.59	1561.14
402.78	1533.05
402.97	1605.61
403.17	1561.14
403.36	1572.84
403.55	1582.20
403.74	1722.63
403.93	1678.16
404.13	1640.72
404.32	1675.82
404.51	1682.85
404.70	1727.32
404.89	1694.55
405.09	1708.59
405.28	1703.91
405.47	1741.36
405.66	1699.23
405.85	1863.07
406.05	1837.32
406.24	1907.54
406.43	1860.73
406.62	1834.98
406.81	1956.69
407.00	1933.28
407.20	1771.79
407.39	1902.86
407.58	1870.09
407.77	1942.64
407.96	2087.76
408.15	2045.63
408.34	1947.33
408.54	1982.43
408.73	1961.37
408.92	2099.46
409.11	2050.31
409.30	2005.84
409.49	2141.59
409.68	2101.80
409.87	2059.67
410.07	2090.10
410.26	2157.97
410.45	2150.95
410.64	2118.18
410.83	2153.29
411.02	2214.15
411.21	2345.22
411.40	2312.45
411.59	2331.17
411.78	2284.36
411.98	2312.45
412.17	2349.90
412.36	2284.36
412.55	2431.82
412.74	2436.50
412.93	2387.35
413.12	2473.95
413.31	2490.33
413.50	2513.74
413.69	2609.70
413.88	2560.55
414.07	2644.81
414.26	2715.02
414.45	2619.06
414.64	2679.91
414.83	2686.94
415.02	2534.80
415.22	2708.00
415.41	2712.68
415.60	2841.41
415.79	2785.24
415.98	2883.54
416.17	2883.54
416.36	2834.39
416.55	2782.90
416.74	2974.82
416.93	2988.86
417.12	2951.42
417.31	2946.73
417.50	3026.31
417.69	3122.27
417.88	3014.61
418.07	3005.25
418.26	3169.09
418.45	3108.23
418.64	3269.73
418.83	3164.40
419.02	3126.96
419.21	3356.33
419.39	3239.30
419.58	3108.23
419.77	3162.06
419.96	3382.07
420.15	3246.32
420.34	3222.92
420.53	3309.52
420.72	3353.99
420.91	3279.09
421.10	3393.78
421.29	3426.54
421.48	3473.36
421.67	3480.38
421.86	3468.67
422.05	3496.76
422.24	3412.50
422.43	3541.23
422.61	3419.52
422.80	3604.42
422.99	3625.49
423.18	3644.21
423.37	3566.98
423.56	3421.86
423.75	3480.38
423.94	3555.27
424.13	3148.02
424.32	3375.05
424.50	3592.72
424.69	3534.21
424.88	3623.15
425.07	3538.89
425.26	3433.57
425.45	3475.70
425.64	3662.94
425.83	3550.59
426.01	3616.13
426.20	3536.55
426.39	3555.27
426.58	3466.33
426.77	3660.60
426.96	3646.55
427.15	3644.21
427.33	3749.54
427.52	3637.19
427.71	3770.60
427.90	3742.52
428.09	3880.61
428.28	3782.31
428.46	3794.01
428.65	3854.86
428.84	3936.78
429.03	3936.78
429.22	3599.74
429.40	3915.72
429.59	3812.73
429.78	3674.64
429.97	3627.83
430.16	3726.13
430.34	3810.39
430.53	3889.97
430.72	3983.59
430.91	3957.85
431.10	3915.72
431.28	4142.75
431.47	4124.02
431.66	4304.25
431.85	4046.79
432.03	4100.62
432.22	4290.20
432.41	4163.81
432.60	4229.35
432.79	4322.97
432.97	4271.48
433.16	4374.46
433.35	4224.67
433.54	4327.65
433.72	4311.27
433.91	4255.09
434.10	4369.78
434.28	4477.44
434.47	4498.51
434.66	4407.23
434.85	4507.87
435.03	4414.25
435.22	4479.79
435.41	4587.45
435.59	4781.71
435.78	4660.01
435.97	4690.43
436.16	4648.30
436.34	4559.36
436.53	4603.83
436.72	4737.24
436.90	4660.01
437.09	4657.67
437.28	4533.62
437.46	4816.82
437.65	4678.73
437.84	4704.48
438.02	4711.50
438.21	4875.34
438.40	4641.28
438.58	4772.35
438.77	4894.06
438.96	4992.36
439.14	4968.96
439.33	5041.51
439.52	4985.34
439.70	5142.16
439.89	5055.56
440.08	5067.26
440.26	5041.51
440.45	5170.24
440.63	5238.12
440.82	5291.95
441.01	5305.99
441.19	5483.88
441.38	5570.48
441.57	5371.53
441.75	5633.67
441.94	5605.58
442.12	5504.94
442.31	5769.42
442.50	5774.10
442.68	5844.32
442.87	5654.73
443.05	5783.46
443.24	5888.79
443.43	5853.68
443.61	5767.08
443.80	6083.05
443.98	5706.23
444.17	5540.05
444.35	5846.66
444.54	6019.86
444.73	5802.19
444.91	5874.74
445.10	5802.19
445.28	5792.83
445.47	5837.30
445.65	5865.38
445.84	5827.93
446.02	5968.37
446.21	5863.04
446.39	5987.09
446.58	6076.03
446.77	6139.23
446.95	5729.63
447.14	6127.52
447.32	6160.29
447.51	5930.92
447.69	6001.13
447.88	5996.45
448.06	6036.24
448.25	6059.65
448.43	6118.16
448.62	6080.71
448.80	6169.65
448.99	6120.50
449.17	6384.98
449.36	6223.48
449.54	6384.98
449.73	6349.87
449.91	6186.04
450.10	6473.92
450.28	6502.01
450.46	6562.86
450.65	6473.92
450.83	6480.94
451.02	6415.41
451.20	6534.78
451.39	6424.77
451.57	6604.99
451.76	6532.44
451.94	6637.76
452.13	6525.41
452.31	6630.74
452.49	6406.05
452.68	6623.72
452.86	6661.16
453.05	6614.35
453.23	6553.50
453.42	6640.10
453.60	6600.31
453.78	6747.76
453.97	6626.06
454.15	6600.31
454.34	6525.41
454.52	6883.52
454.70	6806.28
454.89	6754.79
455.07	6829.68
455.26	6883.52
455.44	6899.90
455.62	6958.41
455.81	6913.94
455.99	7021.61
456.17	7037.99
456.36	7169.06
456.54	7234.60
456.73	7110.55
456.91	7307.15
457.09	7279.07
457.28	7335.24
457.46	7206.51
457.64	7215.87
457.83	7225.23
458.01	7478.01
458.19	7480.35
458.38	7440.56
458.56	7426.52
458.74	7386.73
458.93	7499.08
459.11	7531.84
459.29	7625.47
459.48	7524.82
459.66	7644.19
459.84	7798.66
460.03	7761.22
460.21	7747.17
460.39	7726.11
460.57	7653.55
460.76	7822.07
460.94	7721.43
461.12	7786.96
461.31	7887.61
461.49	8039.74
461.67	7833.77
461.85	8093.57
462.04	7716.75
462.22	8353.37
462.40	8049.10
462.59	7974.21
462.77	8149.75
462.95	8098.25
463.13	7971.86
463.32	7997.61
463.50	8203.58
463.68	8079.53
463.86	8262.09
464.05	7999.95
464.23	8051.44
464.41	8290.18
464.59	8194.22
464.78	8245.71
464.96	8198.90
465.14	8308.90
465.32	8528.91
465.50	8299.54
465.69	8486.78
465.87	8477.42
466.05	8461.04
466.23	8365.07
466.41	8404.86
466.60	8596.79
466.78	8463.38
466.96	8212.94
467.14	8308.90
467.32	8374.44
467.51	8786.37
467.69	8608.49
467.87	8482.10
468.05	8636.58
468.23	8308.90
468.41	8580.40
468.60	8692.75
468.78	8648.28
468.96	8505.51
469.14	8940.85
469.32	9029.79
469.50	8760.63
469.69	9020.42
469.87	9165.54
470.05	8926.80
470.23	8940.85
470.41	9153.84
470.59	9135.11
470.77	8938.51
470.95	9245.12
471.14	9128.09
471.32	8919.78
471.50	9481.51
471.68	9427.68
471.86	9336.40
472.04	9327.03
472.22	9584.49
472.40	9364.48
472.58	9226.39
472.77	9568.11
472.95	9404.27
473.13	9916.85
473.31	9605.56
473.49	9453.42
473.67	9792.80
473.85	9776.42
474.03	9863.02
474.21	10232.82
474.39	10169.63
474.57	9823.23
474.75	9942.60
474.93	10047.92
475.12	10122.82
475.30	10359.21
475.48	10223.46
475.66	10384.96
475.84	10387.30
476.02	10338.15
476.20	10417.72
476.38	10494.96
476.56	10902.22
476.74	10775.83
476.92	10590.92
477.10	10927.96
477.28	10918.60
477.46	11091.80
477.64	11248.61
477.82	11283.72
478.00	11480.33
478.18	11307.13
478.36	11293.08
478.54	11653.53
478.72	11513.10
478.90	11719.06
479.08	11822.05
479.26	12030.35
479.44	12292.49
479.62	12226.96
479.80	12123.98
479.98	12269.09
480.16	12552.29
480.34	12369.73
480.52	12503.14
480.70	12636.55
480.88	12746.56
481.06	12683.36
481.24	12643.57
481.41	12919.76
481.59	13282.54
481.77	13160.83
481.95	13308.29
482.13	13249.77
482.31	13371.48
482.49	13422.97
482.67	13458.08
482.85	13673.41
483.03	14080.66
483.21	13951.93
483.39	13905.12
483.57	14010.45
483.74	14232.80
483.92	14593.24
484.10	14363.87
484.28	14562.81
484.46	14970.07
484.64	15115.18
484.82	14831.97
485.00	14850.70
485.18	15356.25
485.35	15358.60
485.53	14984.11
485.71	14963.04
485.89	15220.50
486.07	15276.68
486.25	15379.66
486.43	15604.35
486.61	15875.85
486.78	15831.38
486.96	16121.61
487.14	16217.57
487.32	16453.97
487.50	16582.70
487.68	16688.02
487.85	16786.32
488.03	16872.92
488.21	17170.17
488.39	17209.96
488.57	17263.79
488.75	17193.58
488.92	17198.26
489.10	17984.68
489.28	17795.09
489.46	17907.44
489.64	18111.07
489.81	18061.91
489.99	18450.44
490.17	18335.76
490.35	18625.98
490.53	18759.39
490.70	18970.04
490.88	18860.04
491.06	19405.38
491.24	19204.10
491.41	18979.40
491.59	19264.95
491.77	19033.24
491.95	19527.09
492.13	19552.84
492.30	19791.57
492.48	20079.46
492.66	20137.97
492.84	20128.61
493.01	20060.73
493.19	20556.93
493.37	20561.61
493.54	20725.44
493.72	20748.85
493.90	21055.46
494.08	20912.69
494.25	21415.90
494.43	21179.51
494.61	21193.55
494.79	21664.00
494.96	21394.84
495.14	21834.86
495.32	21792.73
495.49	21469.73
495.67	21984.65
495.85	22209.34
496.02	22600.21
496.20	22417.65
496.38	22527.66
496.55	22382.54
496.73	23030.87
496.91	22717.24
497.09	23033.21
497.26	23073.00
497.44	23215.77
497.62	23255.56
497.79	23339.82
497.97	23016.83
498.14	23491.96
498.32	23534.09
498.50	23819.63
498.67	24254.97
498.85	24067.73
499.03	24308.80
499.20	24374.34
499.38	24290.08
499.56	24287.74
499.73	24826.06
499.91	24545.20
500.08	24528.81
500.26	24173.05
500.44	24648.18
500.61	24931.39
500.79	24779.25
500.97	24812.02
501.14	25287.15
501.32	25378.43
501.49	24973.52
501.67	25373.75
501.84	25673.34
502.02	25305.87
502.20	25673.34
502.37	26185.91
502.55	26139.10
502.72	26106.34
502.90	26089.95
503.07	25940.16
503.25	26307.62
503.43	26199.96
503.60	26291.24
503.78	26302.94
503.95	26820.20
504.13	26857.65
504.30	26293.58
504.48	26677.43
504.65	27021.48
504.83	26977.01
505.01	27274.26
505.18	27129.15
505.36	27482.57
505.53	27232.13
505.71	27494.27
505.88	27908.55
506.06	27255.54
506.23	27665.13
506.41	27571.51
506.58	27957.70
506.76	27536.40
506.93	27892.16
507.11	27714.28
507.28	28067.70
507.46	28063.02
507.63	27800.88
507.81	28074.73
507.98	28259.63
508.16	28283.03
508.33	28652.84
508.50	28779.23
508.68	28575.60
508.85	29244.99
509.03	28795.61
509.20	29252.02
509.38	29109.24
509.55	29158.39
509.73	28987.53
509.90	29067.11
510.08	29195.84
510.25	29244.99
510.42	29675.65
510.60	29834.81
510.77	30043.12
510.95	29806.72
511.12	29614.80
511.30	30125.04
511.47	29996.31
511.64	30197.59
511.82	30246.74
511.99	30263.13
512.17	30412.92
512.34	30078.22
512.51	30162.48
512.69	30874.01
512.86	30583.78
513.04	30609.53
513.21	30707.83
513.38	30693.79
513.56	30773.36
513.73	30639.95
513.90	30906.77
514.08	30911.46
514.25	30902.09
514.43	31108.06
514.60	31201.68
514.77	31475.52
514.95	31576.17
515.12	31597.23
515.29	31398.29
515.47	31569.15
515.64	31702.56
515.81	31805.54
515.99	32102.79
516.16	31805.54
516.33	31463.82
516.51	31868.73
516.68	31852.35
516.85	31896.82
517.03	31838.31
517.20	31882.78
517.37	32304.07
517.54	32500.68
517.72	32776.86
517.89	32488.98
518.06	32107.47
518.24	32034.91
518.41	32484.30
518.58	32858.78
518.75	32577.92
518.93	33088.15
519.10	33106.88
519.27	32985.17
519.45	33132.62
519.62	33247.31
519.79	33553.92
519.96	33106.88
520.14	33696.69
520.31	33123.26
520.48	33558.60
520.65	33249.65
520.83	34038.41
521.00	34174.16
521.17	33656.90
521.34	33937.77
521.52	33804.36
521.69	33909.68
521.86	34433.96
522.03	34103.95
522.20	34300.55
522.38	34433.96
522.55	34272.46
522.72	34689.08
522.89	34525.24
523.07	34361.40
523.24	34497.16
523.41	34941.86
523.58	34590.78
523.75	35063.57
523.92	35054.20
524.10	35033.14
524.27	34749.93
524.44	35019.10
524.61	34991.01
524.78	35239.11
524.96	35302.30
525.13	35557.42
525.30	35372.52
525.47	35754.02
525.64	35330.39
525.81	35337.41
525.98	35208.68
526.16	35332.73
526.33	34906.75
526.50	35938.93
526.67	35431.03
526.84	35571.46
527.01	35658.06
527.18	35999.78
527.36	35824.24
527.53	36259.58
527.70	36367.24
527.87	36261.92
528.04	36491.29
528.21	36898.55
528.38	36517.04
528.55	36830.67
528.72	36678.54
528.89	36615.34
529.07	36662.15
529.24	36650.45
529.41	36844.71
529.58	36964.08
529.75	36306.39
529.92	36802.58
530.09	36687.90
530.26	37055.36
530.43	37085.79
530.60	37268.35
530.77	36933.65
530.94	37324.52
531.11	37223.88
531.28	37205.16
531.46	37399.42
531.63	37376.01
531.80	37212.18
531.97	37436.87
532.14	37500.06
532.31	37495.38
532.48	37652.20
532.65	37649.86
532.82	37450.91
532.99	38087.54
533.16	37242.60
533.33	37947.11
533.50	37933.06
533.67	37837.10
533.84	37818.38
534.01	37986.89
534.18	37876.89
534.35	38319.25
534.52	38075.84
534.69	38326.27
534.86	38401.17
535.03	38368.40
535.20	38469.04
535.37	38780.34
535.54	38677.35
535.71	38710.12
535.88	38888.00
536.05	38452.66
536.22	38696.08
536.38	39035.45
536.55	38492.45
536.72	38939.49
536.89	38658.63
537.06	38789.70
537.23	38719.48
537.40	38934.81
537.57	39126.74
537.74	38513.52
537.91	39374.83
538.08	39297.59
538.25	38930.13
538.42	39208.65
538.59	39210.99
538.75	39091.63
538.92	38993.32
539.09	39381.85
539.26	39531.65
539.43	39302.28
539.60	39210.99
539.77	39428.66
539.94	39555.05
540.11	39828.90
540.28	39606.55
540.44	39583.14
540.61	39800.81
540.78	39618.25
540.95	39264.83
541.12	39585.48
541.29	39587.82
541.46	39538.67
541.62	39894.43
541.79	40037.20
541.96	39756.34
542.13	40034.86
542.30	40130.83
542.47	39941.24
542.63	39754.00
542.80	40517.01
542.97	40926.61
543.14	40629.36
543.31	40545.10
543.48	40519.35
543.64	40987.46
543.81	40519.35
543.98	40737.02
544.15	40371.90
544.32	41043.63
544.48	41507.06
544.65	41010.87
544.82	40732.34
544.99	40708.94
545.16	41045.97
545.32	41486.00
545.49	41509.40
545.66	41104.49
545.83	41205.13
546.00	41558.55
546.16	41160.66
546.33	41710.69
546.50	40957.03
546.67	40954.69
546.83	40615.32
547.00	41610.04
547.17	41193.43
547.34	41694.30
547.50	41448.55
547.67	41509.40
547.84	41343.22
548.00	41783.24
548.17	41998.57
548.34	41766.86
548.51	41970.49
548.67	41986.87
548.84	41635.79
549.01	41668.56
549.18	41560.89
549.34	41993.89
549.51	42426.89
549.68	42033.68
549.84	42122.62
550.01	42394.12
550.18	42181.13
550.34	42464.34
550.51	41773.88
550.68	41951.76
550.84	41741.11
551.01	42251.35
551.18	42354.33
551.34	41893.25
551.51	42447.96
551.68	42555.62
551.84	42756.91
552.01	41848.78
552.18	42384.76
552.34	42351.99
552.51	42576.69
552.68	42609.45
552.84	42375.40
553.01	42712.44
553.18	43005.00
553.34	42553.28
553.51	42394.12
553.67	42335.61
553.84	42993.30
554.01	43185.22
554.17	43257.78
554.34	42667.97
554.51	43026.07
554.67	43065.86
554.84	43426.30
555.00	43065.86
555.17	43173.52
555.33	43267.14
555.50	43019.05
555.67	42850.53
555.83	42469.02
556.00	43264.80
556.16	43306.93
556.33	43047.13
556.50	43217.99
556.66	43103.31
556.83	42756.91
556.99	42969.90
557.16	43405.23
557.32	43466.09
557.49	43370.13
557.65	43033.09
557.82	43330.34
557.98	43253.10
558.15	43154.80
558.32	43459.07
558.48	42876.27
558.65	43679.08
558.81	43086.92
558.98	43615.88
559.14	43407.58
559.31	43360.76
559.47	43688.44
559.64	43938.88
559.80	43992.71
559.97	43445.02
560.13	43590.14
560.30	43501.20
560.46	43847.60
560.63	43929.51
560.79	43746.95
560.96	43758.66
561.12	44016.11
561.29	43917.81
561.45	43803.13
561.61	43679.08
561.78	43625.25
561.94	43473.11
562.11	43962.28
562.27	43824.19
562.44	43936.54
562.60	43761.00
562.77	43941.22
562.93	44219.74
563.10	44470.18
563.26	43629.93
563.42	43667.37
563.59	43716.53
563.75	43906.11
563.92	44275.91
564.08	43976.33
564.24	44353.15
564.41	44219.74
564.57	43934.20
564.74	44102.71
564.90	44645.72
565.07	43988.03
565.23	43964.62
565.39	43945.90
565.56	44266.55
565.72	44392.94
565.88	44526.35
566.05	44100.37
566.21	44236.12
566.38	44215.06
566.54	43997.39
566.70	44418.69
566.87	44327.41
567.03	44549.76
567.19	44603.59
567.36	44748.70
567.52	44287.62
567.68	44947.65
567.85	44439.75
568.01	44631.68
568.17	44128.46
568.34	44531.03
568.50	44229.10
568.66	44594.23
568.83	44224.42
568.99	44179.95
569.15	44367.20
569.32	44137.82
569.48	44048.88
569.64	44383.58
569.81	44217.40
569.97	44416.35
570.13	44039.52
570.30	44266.55
570.46	43899.09
570.62	44233.78
570.78	44240.81
570.95	44098.03
571.11	44423.37
571.27	44296.98
571.43	44603.59
571.60	44355.49
571.76	44439.75
571.92	44428.05
572.09	44470.18
572.25	44568.48
572.41	44189.31
572.57	44774.45
572.74	45165.32
572.90	44701.89
573.06	44495.92
573.22	44608.27
573.38	44250.17
573.55	44626.99
573.71	45251.92
573.87	44481.88
574.03	44343.79
574.20	45104.46
574.36	44626.99
574.52	44790.83
574.68	44404.64
574.84	44626.99
575.01	44692.53
575.17	44865.73
575.33	44357.83
575.49	44729.98
575.65	45104.46
575.82	44713.59
575.98	44648.06
576.14	45165.32
576.30	45015.52
576.46	44493.58
576.62	44589.55
576.79	44552.10
576.95	44198.68
577.11	44870.41
577.27	44601.25
577.43	44765.09
577.59	44729.98
577.75	44641.04
577.92	44273.57
578.08	44528.69
578.24	44491.24
578.40	44760.40
578.56	44891.48
578.72	44905.52
578.88	44509.97
579.04	44849.35
579.21	44357.83
579.37	44421.03
579.53	44643.38
579.69	44514.65
579.85	44334.43
580.01	44847.00
580.17	44940.63
580.33	45256.60
580.49	45024.89
580.65	44708.91
580.82	44711.25
580.98	44626.99
581.14	44790.83
581.30	44807.22
581.46	44804.88
581.62	44823.60
581.78	45097.44
581.94	45165.32
582.10	44847.00
582.26	44706.57
582.42	45158.30
582.58	45268.30
582.74	44718.28
582.90	44849.35
583.06	45031.91
583.22	44652.74
583.38	44912.54
583.54	44886.79
583.70	44828.28
583.86	45151.27
584.02	44240.81
584.18	44907.86
584.34	44718.28
584.50	45043.61
584.66	44842.32
584.82	44772.11
584.98	45179.36
585.14	45057.65
585.30	44786.15
585.46	44687.85
585.62	44514.65
585.78	45144.25
585.94	44671.46
586.10	44795.51
586.26	44825.94
586.42	44935.95
586.58	45614.70
586.74	44961.69
586.90	44933.60
587.06	44563.80
587.22	45083.40
587.38	44711.25
587.54	45485.97
587.70	45382.99
587.86	44858.71
588.02	45214.47
588.18	45141.91
588.34	45394.69
588.49	44275.91
588.65	44652.74
588.81	44552.10
588.97	44711.25
589.13	44531.03
589.29	44907.86
589.45	44900.84
589.61	44664.44
589.77	45092.76
589.93	44832.96
590.08	44957.01
590.24	45509.38
