SpectraSuite Data File
++++++++++++++++++++++++++++++++++++
Date: Fri Oct 25 10:43:20 EDT 2013
User: price-jones
Dark Spectrum Present: No
Reference Spectrum Present: No
Number of Sampled Component Spectra: 1
Spectrometers: USB2+H05261
Integration Time (usec): 100000 (USB2+H05261)
Spectra Averaged: 1 (USB2+H05261)
Boxcar Smoothing: 0 (USB2+H05261)
Correct for Electrical Dark: No (USB2+H05261)
Strobe/Lamp Enabled: No (USB2+H05261)
Correct for Detector Non-linearity: No (USB2+H05261)
Correct for Stray Light: No (USB2+H05261)
Number of Pixels in Processed Spectrum: 2048
>>>>>Begin Processed Spectral Data<<<<<
365.73	154.48
365.92	154.48
366.12	154.48
366.32	70.22
366.52	0.00
366.72	53.83
366.91	16.38
367.11	37.45
367.31	28.09
367.51	0.00
367.70	32.77
367.90	25.75
368.10	51.49
368.30	0.00
368.49	25.75
368.69	21.06
368.89	100.64
369.09	21.06
369.28	77.24
369.48	0.00
369.68	25.75
369.87	67.88
370.07	91.28
370.27	163.84
370.47	243.42
370.66	402.57
370.86	526.62
371.06	458.74
371.25	433.00
371.45	491.51
371.65	528.96
371.84	397.89
372.04	482.15
372.24	468.11
372.44	477.47
372.63	505.56
372.83	510.24
373.03	505.56
373.22	468.11
373.42	503.22
373.62	510.24
373.81	601.52
374.01	528.96
374.21	531.30
374.40	608.54
374.60	578.11
374.79	566.41
374.99	543.00
375.19	493.85
375.38	596.84
375.58	627.26
375.78	582.79
375.97	552.37
376.17	716.20
376.37	533.64
376.56	531.30
376.76	650.67
376.95	603.86
377.15	697.48
377.35	664.71
377.54	615.56
377.74	671.73
377.93	688.12
378.13	671.73
378.33	662.37
378.52	629.60
378.72	704.50
378.91	601.52
379.11	615.56
379.31	615.56
379.50	667.05
379.70	688.12
379.89	697.48
380.09	671.73
380.28	641.31
380.48	613.22
380.68	624.92
380.87	720.88
381.07	617.90
381.26	765.36
381.46	685.78
381.65	704.50
381.85	664.71
382.04	676.41
382.24	706.84
382.43	737.27
382.63	681.10
382.83	655.35
383.02	704.50
383.22	702.16
383.41	650.67
383.61	716.20
383.80	737.27
384.00	767.70
384.19	779.40
384.39	802.80
384.58	699.82
384.78	851.96
384.97	793.44
385.17	833.23
385.36	819.19
385.56	772.38
385.75	774.72
385.95	819.19
386.14	924.51
386.34	877.70
386.53	755.99
386.72	858.98
386.92	957.28
387.11	812.17
387.31	929.19
387.50	828.55
387.70	833.23
387.89	863.66
388.09	866.00
388.28	877.70
388.48	915.15
388.67	912.81
388.86	887.06
389.06	922.17
389.25	971.32
389.45	973.66
389.64	947.92
389.84	968.98
390.03	1025.15
390.22	980.68
390.42	1001.75
390.61	959.62
390.81	1029.84
391.00	1055.58
391.19	1116.44
391.39	1029.84
391.58	1086.01
391.78	1060.26
391.97	1090.69
392.16	1015.79
392.36	1165.59
392.55	940.90
392.75	1062.60
392.94	957.28
393.13	1027.50
393.33	987.71
393.52	987.71
393.71	1055.58
393.91	1034.52
394.10	1093.03
394.29	1174.95
394.49	1139.84
394.68	1219.42
394.88	1238.14
395.07	1249.85
395.26	1259.21
395.46	1275.59
395.65	1224.10
395.84	1125.80
396.04	1254.53
396.23	1247.51
396.42	1128.14
396.62	1256.87
396.81	1247.51
397.00	1207.72
397.19	1226.44
397.39	1301.34
397.58	1364.53
397.77	1439.43
397.97	1369.21
398.16	1437.09
398.35	1420.71
398.55	1490.92
398.74	1406.66
398.93	1472.20
399.12	1519.01
399.32	1439.43
399.51	1439.43
399.70	1563.48
399.90	1572.84
400.09	1598.59
400.28	1600.93
400.47	1460.49
400.67	1542.41
400.86	1591.56
401.05	1586.88
401.24	1565.82
401.44	1657.10
401.63	1769.44
401.82	1652.42
402.01	1701.57
402.21	1720.29
402.40	1699.23
402.59	1701.57
402.78	1764.76
402.97	1804.55
403.17	1813.92
403.36	1827.96
403.55	1923.92
403.74	1827.96
403.93	1856.04
404.13	1856.04
404.32	1788.17
404.51	1849.02
404.70	1895.83
404.89	1832.64
405.09	2008.18
405.28	1926.26
405.47	2031.58
405.66	2076.06
405.85	1952.01
406.05	1977.75
406.24	1973.07
406.43	1987.11
406.62	2071.37
406.81	2190.74
407.00	2069.03
407.20	1959.03
407.39	2085.42
407.58	2167.34
407.77	2113.50
407.96	2104.14
408.15	2172.02
408.34	2291.38
408.54	2157.97
408.73	2197.76
408.92	2282.02
409.11	2363.94
409.30	2228.19
409.49	2246.91
409.68	2406.07
409.87	2176.70
410.07	2331.17
410.26	2363.94
410.45	2363.94
410.64	2469.27
410.83	2487.99
411.02	2516.08
411.21	2520.76
411.40	2502.03
411.59	2509.05
411.78	2640.12
411.98	2511.39
412.17	2548.84
412.36	2785.24
412.55	2710.34
412.74	2775.88
412.93	2745.45
413.12	2635.44
413.31	2902.26
413.50	2869.50
413.69	2853.11
413.88	3040.36
414.07	2906.95
414.26	2958.44
414.45	2881.20
414.64	2857.79
414.83	2972.48
415.02	2953.76
415.22	3054.40
415.41	3056.74
415.60	3105.89
415.79	3178.45
415.98	3246.32
416.17	3222.92
416.36	3286.11
416.55	3204.19
416.74	3178.45
416.93	3258.03
417.12	3173.77
417.31	3248.66
417.50	3162.06
417.69	3463.99
417.88	3492.08
418.07	3290.79
418.26	3349.31
418.45	3524.85
418.64	3566.98
418.83	3510.80
419.02	3454.63
419.21	3506.12
419.39	3548.25
419.58	3550.59
419.77	3590.38
419.96	3651.24
420.15	3646.55
420.34	3662.94
420.53	3653.58
420.72	3737.84
420.91	3911.04
421.10	3749.54
421.29	3957.85
421.48	3676.98
421.67	3875.93
421.86	3726.13
422.05	3812.73
422.24	3789.33
422.43	3808.05
422.61	3833.80
422.80	3866.56
422.99	3880.61
423.18	3840.82
423.37	4007.00
423.56	4049.13
423.75	4014.02
423.94	3836.14
424.13	3761.24
424.32	3777.62
424.50	3885.29
424.69	3918.06
424.88	3929.76
425.07	3847.84
425.26	3943.80
425.45	3964.87
425.64	3852.52
425.83	3742.52
426.01	3955.51
426.20	4023.38
426.39	3948.48
426.58	3822.09
426.77	3758.90
426.96	3929.76
427.15	3964.87
427.33	4079.55
427.52	3997.64
427.71	4156.79
427.90	4173.18
428.09	4306.59
428.28	4058.49
428.46	4098.28
428.65	4152.11
428.84	4414.25
429.03	4308.93
429.22	4067.85
429.40	4173.18
429.59	4011.68
429.78	3955.51
429.97	4016.36
430.16	4072.53
430.34	4077.21
430.53	4044.45
430.72	4131.05
430.91	4149.77
431.10	4259.78
431.28	4465.74
431.47	4688.09
431.66	4615.54
431.85	4561.70
432.03	4652.98
432.22	4791.08
432.41	4650.64
432.60	4706.82
432.79	4650.64
432.97	4524.26
433.16	4676.39
433.35	4587.45
433.54	4695.11
433.72	4784.06
433.91	4587.45
434.10	4723.20
434.28	4816.82
434.47	4807.46
434.66	4896.40
434.85	4929.17
435.03	5093.01
435.22	5125.77
435.41	5186.63
435.59	5064.92
435.78	5060.24
435.97	5095.35
436.16	4966.62
436.34	5062.58
436.53	5226.42
436.72	5200.67
436.90	5095.35
437.09	5163.22
437.28	5020.45
437.46	5210.03
437.65	5203.01
437.84	5128.11
438.02	5139.82
438.21	5207.69
438.40	5104.71
438.58	5261.52
438.77	5275.57
438.96	5343.44
439.14	5547.07
439.33	5542.39
439.52	5540.05
439.70	5647.71
439.89	5551.75
440.08	5694.52
440.26	5544.73
440.45	5729.63
440.63	5788.14
440.82	5940.28
441.01	5788.14
441.19	6015.18
441.38	6197.74
441.57	6164.97
441.75	6171.99
441.94	6279.66
442.12	6399.02
442.31	6345.19
442.50	6214.12
442.68	6216.46
442.87	6125.18
443.05	6377.96
443.24	6331.15
443.43	6450.52
443.61	6497.33
443.80	6406.05
443.98	6359.24
444.17	6291.36
444.35	6530.09
444.54	6260.93
444.73	6455.20
444.91	6478.60
445.10	6729.04
445.28	6504.35
445.47	6427.11
445.65	6314.77
445.84	6429.45
446.02	6361.58
446.21	6382.64
446.39	6544.14
446.58	6803.94
446.77	6668.19
446.95	6532.44
447.14	6576.91
447.32	6806.28
447.51	6684.57
447.69	6633.08
447.88	6555.84
448.06	6607.33
448.25	6710.32
448.43	6633.08
448.62	6670.53
448.80	6712.66
448.99	6766.49
449.17	6712.66
449.36	6710.32
449.54	6939.69
449.73	7054.37
449.91	7007.56
450.10	7075.44
450.28	7253.32
450.46	7108.21
450.65	7166.72
450.83	7178.42
451.02	7077.78
451.20	7279.07
451.39	7300.13
451.57	7091.82
451.76	7110.55
451.94	7164.38
452.13	7148.00
452.31	7248.64
452.49	6892.88
452.68	7295.45
452.86	7082.46
453.05	7124.59
453.23	7234.60
453.42	7339.92
453.60	7325.88
453.78	7344.60
453.97	7232.26
454.15	7403.11
454.34	7290.77
454.52	7538.87
454.70	7379.71
454.89	7470.99
455.07	7487.37
455.26	7485.03
455.44	7723.77
455.62	7707.38
455.81	7747.17
455.99	7625.47
456.17	7747.17
456.36	7761.22
456.54	7885.26
456.73	7983.57
456.91	8119.32
457.09	8121.66
457.28	8124.00
457.46	7915.69
457.64	8248.05
457.83	8201.24
458.01	7882.92
458.19	8191.88
458.38	8112.30
458.56	8355.71
458.74	8152.09
458.93	8191.88
459.11	8182.51
459.29	8203.58
459.48	8334.65
459.66	8091.23
459.84	8397.84
460.03	8386.14
460.21	8301.88
460.39	8463.38
460.57	8376.78
460.76	8521.89
460.94	8472.74
461.12	8741.90
461.31	8681.05
461.49	8463.38
461.67	8496.14
461.85	8755.94
462.04	8791.05
462.22	9167.88
462.40	8641.26
462.59	8730.20
462.77	8669.34
462.95	8872.97
463.13	8978.30
463.32	8781.69
463.50	8896.38
463.68	8929.14
463.86	8950.21
464.05	8856.59
464.23	8744.24
464.41	9013.40
464.59	8828.50
464.78	9118.73
464.96	8901.06
465.14	9172.56
465.32	9301.29
465.50	9130.43
465.69	9252.14
465.87	9036.81
466.05	9130.43
466.23	8933.82
466.41	9177.24
466.60	9254.48
466.78	9156.18
466.96	9320.01
467.14	9242.78
467.32	9324.69
467.51	9462.79
467.69	8959.57
467.87	9263.84
468.05	9533.00
468.23	9207.67
468.41	9495.55
468.60	9441.72
468.78	9589.17
468.96	9472.15
469.14	9652.37
469.32	9738.97
469.50	9341.08
469.69	9593.86
469.87	9685.14
470.05	9944.94
470.23	9645.35
470.41	9565.77
470.59	9797.48
470.77	9863.02
470.95	9675.77
471.14	10078.35
471.32	9930.89
471.50	10314.74
471.68	10347.51
471.86	10260.91
472.04	10258.57
472.22	10429.43
472.40	10146.22
472.58	10415.38
472.77	10581.56
472.95	10534.75
473.13	10808.59
473.31	10478.58
473.49	10441.13
473.67	10590.92
473.85	10714.97
474.03	10778.17
474.21	11040.31
474.39	10944.34
474.57	11035.63
474.75	11037.97
474.93	11080.10
475.12	11143.29
475.30	11323.51
475.48	10951.37
475.66	11407.77
475.84	11131.59
476.02	11157.33
476.20	11335.21
476.38	11604.38
476.56	11681.61
476.74	11749.49
476.92	11557.57
477.10	11779.92
477.28	12018.65
477.46	11882.90
477.64	12025.67
477.82	12372.07
478.00	12514.84
478.18	12255.04
478.36	12269.09
478.54	12472.71
478.72	12575.70
478.90	12802.73
479.08	13011.04
479.26	13008.70
479.44	12793.37
479.62	12966.57
479.80	13291.90
479.98	13114.02
480.16	13554.04
480.34	13392.55
480.52	13540.00
480.70	13561.06
480.88	13446.38
481.06	13827.88
481.24	13671.07
481.41	14010.45
481.59	14118.11
481.77	14286.63
481.95	14389.61
482.13	14441.11
482.31	14398.98
482.49	14607.28
482.67	14853.04
482.85	14930.28
483.03	15033.26
483.21	15304.76
483.39	15171.35
483.57	15489.67
483.74	15318.81
483.92	15484.98
484.10	15566.90
484.28	15564.56
484.46	15948.41
484.64	16140.33
484.82	15964.79
485.00	15833.72
485.18	16292.47
485.35	16313.53
485.53	15892.24
485.71	15957.77
485.89	16507.80
486.07	16458.65
486.25	16650.57
486.43	16849.52
486.61	16702.06
486.78	17104.64
486.96	17268.47
487.14	17282.52
487.32	17570.40
487.50	17923.82
487.68	18073.62
487.85	18164.90
488.03	18244.48
488.21	18363.84
488.39	18464.49
488.57	18527.68
488.75	18951.32
488.92	19028.56
489.10	19033.24
489.28	19389.00
489.46	19452.19
489.64	19363.25
489.81	20079.46
489.99	19976.47
490.17	19592.62
490.35	20156.69
490.53	19997.54
490.70	20357.98
490.88	20332.23
491.06	20926.73
491.24	20320.53
491.41	20585.01
491.59	20477.35
491.77	20634.16
491.95	20788.64
492.13	21146.74
492.30	21766.98
492.48	21296.53
492.66	21907.41
492.84	21771.66
493.01	21942.52
493.19	21738.90
493.37	22097.00
493.54	21891.03
493.72	22717.24
493.90	22438.72
494.08	22712.56
494.25	22920.87
494.43	23065.98
494.61	23199.39
494.79	23297.69
494.96	23285.99
495.14	23082.36
495.32	23293.01
495.49	23620.69
495.67	24020.92
495.85	23779.84
496.02	24058.37
496.20	24465.62
496.38	24034.96
496.55	24257.31
496.73	24694.99
496.91	24636.48
497.09	24753.51
497.26	25151.40
497.44	24790.95
497.62	24737.12
497.79	25188.85
497.97	24971.18
498.14	25326.94
498.32	25357.36
498.50	25933.14
498.67	25516.52
498.85	25888.67
499.03	25645.25
499.20	25743.55
499.38	26036.12
499.56	26398.90
499.73	26003.35
499.91	26111.02
500.08	26815.52
500.26	26178.89
500.44	26448.05
500.61	26448.05
500.79	26677.43
500.97	26785.09
501.14	26859.99
501.32	26998.08
501.49	27091.70
501.67	27112.77
501.84	27360.86
502.02	27424.06
502.20	27665.13
502.37	27740.03
502.55	27644.07
502.72	27728.33
502.90	27864.08
503.07	27887.48
503.25	27812.59
503.43	27800.88
503.60	27835.99
503.78	27590.24
503.95	27999.83
504.13	28479.64
504.30	28552.20
504.48	28500.70
504.65	28329.84
504.83	28804.97
505.01	28816.68
505.18	28776.89
505.36	29439.26
505.53	29322.23
505.71	29455.64
505.88	29670.97
506.06	29406.49
506.23	29462.66
506.41	29303.51
506.58	29476.71
506.76	29656.93
506.93	29560.97
507.11	29673.31
507.28	29823.11
507.46	29542.24
507.63	29823.11
507.81	30284.19
507.98	30005.67
508.16	29699.06
508.33	30742.94
508.50	30281.85
508.68	30274.83
508.85	30862.30
509.03	30869.33
509.20	30773.36
509.38	31159.55
509.55	30782.73
509.73	30988.69
509.90	31901.50
510.08	31218.07
510.25	31552.76
510.42	31407.65
510.60	31435.74
510.77	31599.57
510.95	31693.19
511.12	31571.49
511.30	31711.92
511.47	31761.07
511.64	32102.79
511.82	32109.81
511.99	31512.97
512.17	32325.14
512.34	32285.35
512.51	32201.09
512.69	32416.42
512.86	32430.46
513.04	32856.44
513.21	32828.35
513.38	32589.62
513.56	32610.68
513.73	32205.77
513.90	32779.20
514.08	32704.31
514.25	32657.49
514.43	33390.08
514.60	32826.01
514.77	33310.50
514.95	33151.35
515.12	32994.53
515.29	33392.42
515.47	33872.23
515.64	33596.05
515.81	33525.83
515.99	33472.00
516.16	33696.69
516.33	33649.88
516.51	33256.67
516.68	32835.38
516.85	32727.71
517.03	33167.73
517.20	34136.71
517.37	34150.76
517.54	34326.30
517.72	33743.50
517.89	33642.86
518.06	34277.15
518.24	33708.40
518.41	34078.20
518.58	34178.84
518.75	34436.30
518.93	34338.00
519.10	34246.72
519.27	34857.60
519.45	35091.65
519.62	34803.77
519.79	35164.21
519.96	34979.31
520.14	35409.96
520.31	34719.51
520.48	35302.30
520.65	35316.34
520.83	35587.85
521.00	35522.31
521.17	35475.50
521.34	35700.19
521.52	35906.16
521.69	35548.06
521.86	36048.93
522.03	35901.48
522.20	35459.12
522.38	35828.92
522.55	36570.87
522.72	36320.43
522.89	35852.33
523.07	36402.35
523.24	36231.49
523.41	36844.71
523.58	36357.88
523.75	37317.50
523.92	36704.28
524.10	36818.97
524.27	36950.04
524.44	36844.71
524.61	36931.31
524.78	37102.17
524.96	37275.37
525.13	37226.22
525.30	37158.34
525.47	37198.13
525.64	36971.10
525.81	37486.02
525.98	37357.29
526.16	37064.72
526.33	37006.21
526.50	36928.97
526.67	36629.38
526.84	37216.86
527.01	37092.81
527.18	37724.75
527.36	37944.76
527.53	37820.72
527.70	38124.99
527.87	38059.45
528.04	37841.78
528.21	38202.22
528.38	38251.38
528.55	38667.99
528.72	38415.21
528.89	38541.60
529.07	38267.76
529.24	38438.62
529.41	38415.21
529.58	38323.93
529.75	39236.74
529.92	38962.90
530.09	38740.55
530.26	39016.73
530.43	39112.69
530.60	38836.51
530.77	38775.66
530.94	39566.76
531.11	39285.89
531.28	39311.64
531.46	39330.36
531.63	39353.77
531.80	38981.62
531.97	38693.74
532.14	39079.92
532.31	38869.28
532.48	39250.78
532.65	39508.24
532.82	39220.36
532.99	39533.99
533.16	39634.63
533.33	39323.34
533.50	39861.66
533.67	39737.62
533.84	39606.55
534.01	39592.50
534.18	39660.38
534.35	39964.65
534.52	40095.72
534.69	40076.99
534.86	40229.13
535.03	40194.02
535.20	40737.02
535.37	40594.25
535.54	40481.91
535.71	40446.80
535.88	40575.53
536.05	40233.81
536.22	40273.60
536.38	40774.47
536.55	39927.20
536.72	40739.36
536.89	40219.77
537.06	40177.64
537.23	41120.87
537.40	41057.68
537.57	40825.96
537.74	40779.15
537.91	41111.51
538.08	40776.81
538.25	40795.54
538.42	41020.23
538.59	40919.59
538.75	40509.99
538.92	41027.25
539.09	40891.50
539.26	41329.18
539.43	41050.66
539.60	41284.71
539.77	40942.99
539.94	41392.37
540.11	40989.80
540.28	41586.64
540.44	41235.56
540.61	41366.63
540.78	41532.81
540.95	41443.87
541.12	41310.46
541.29	41940.06
541.46	41268.33
541.62	41490.68
541.79	41930.70
541.96	41170.02
542.13	41289.39
542.30	41610.04
542.47	41823.03
542.63	41546.85
542.80	41841.76
542.97	42349.65
543.14	42199.86
543.31	42174.11
543.48	41977.51
543.64	42295.82
543.81	42433.91
543.98	42674.99
544.15	42520.51
544.32	42843.51
544.48	43133.73
544.65	42780.31
544.82	42447.96
544.99	42422.21
545.16	42436.25
545.32	42487.74
545.49	42689.03
545.66	43023.73
545.83	42155.39
546.00	43023.73
546.16	42759.25
546.33	42848.19
546.50	41951.76
546.67	42803.72
546.83	42693.71
547.00	42789.67
547.17	43152.46
547.34	42410.51
547.50	42838.83
547.67	43320.98
547.84	43145.44
548.00	43515.24
548.17	43337.36
548.34	43580.78
548.51	43615.88
548.67	43735.25
548.84	43117.35
549.01	43342.04
549.18	43332.68
549.34	43386.51
549.51	43751.63
549.68	43510.56
549.84	43351.40
550.01	43819.51
550.18	43423.96
550.34	43503.54
550.51	43388.85
550.68	43337.36
550.84	43178.20
551.01	43810.15
551.18	43253.10
551.34	43613.54
551.51	43777.38
551.68	43941.22
551.84	43826.53
552.01	44128.46
552.18	43931.86
552.34	43501.20
552.51	43817.17
552.68	43906.11
552.84	44205.70
553.01	44044.20
553.18	44126.12
553.34	44147.18
553.51	44009.09
553.67	44383.58
553.84	44451.45
554.01	44486.56
554.17	44589.55
554.34	44573.16
554.51	44549.76
554.67	44748.70
554.84	44643.38
555.00	44329.75
555.17	44154.21
555.33	44725.30
555.50	44718.28
555.67	44547.42
555.83	44575.50
556.00	44748.70
556.16	44830.62
556.33	44076.97
556.50	44428.05
556.66	44493.58
556.83	44271.23
556.99	44430.39
557.16	44591.89
557.32	45031.91
557.49	44531.03
557.65	44304.00
557.82	44577.84
557.98	44818.92
558.15	44910.20
558.32	44786.15
558.48	44247.83
558.65	45069.36
558.81	44079.31
558.98	44378.90
559.14	44982.76
559.31	44659.76
559.47	44655.08
559.64	45165.32
559.80	44816.58
559.97	44856.37
560.13	44729.98
560.30	45340.86
560.46	44713.59
560.63	44715.93
560.79	45287.03
560.96	45345.54
561.12	45291.71
561.29	45057.65
561.45	45212.13
561.61	45062.33
561.78	44980.42
561.94	45078.72
562.11	45471.93
562.27	45130.21
562.44	45603.00
562.60	45464.91
562.77	45305.75
562.93	45317.45
563.10	45551.51
563.26	44704.23
563.42	45387.67
563.59	45607.68
563.75	45280.00
563.92	45179.36
564.08	45607.68
564.24	45109.14
564.41	45109.14
564.57	45172.34
564.74	45380.65
564.90	45280.00
565.07	45390.01
565.23	45081.06
565.39	45233.19
565.56	45507.04
565.72	45008.50
565.88	45368.94
566.05	45450.86
566.21	44931.26
566.38	45427.46
566.54	45298.73
566.70	45570.23
566.87	45603.00
567.03	45282.34
567.19	45834.71
567.36	45656.83
567.52	45399.37
567.68	45675.55
567.85	45413.41
568.01	45404.05
568.17	45729.39
568.34	45696.62
568.50	45785.56
568.66	45170.00
568.83	45432.14
568.99	45296.39
569.15	45378.31
569.32	45392.35
569.48	46113.23
569.64	45717.68
569.81	45867.48
569.97	45612.36
570.13	45497.67
570.30	45485.97
570.46	45305.75
570.62	45052.97
570.78	45174.68
570.95	45001.48
571.11	45322.13
571.27	45343.20
571.43	45703.64
571.60	45397.03
571.76	45631.08
571.92	45577.25
572.09	45722.37
572.25	45930.67
572.41	45729.39
572.57	45783.22
572.74	46260.69
572.90	45675.55
573.06	46131.96
573.22	45823.01
573.38	45951.74
573.55	45481.29
573.71	45837.05
573.87	45907.27
574.03	45322.13
574.20	45612.36
574.36	45771.52
574.52	45883.86
574.68	45673.21
574.84	45741.09
575.01	45762.15
575.17	45755.13
575.33	45151.27
575.49	45851.09
575.65	45902.59
575.82	45949.40
575.98	45612.36
576.14	45710.66
576.30	45607.68
576.46	45291.71
576.62	45247.24
576.79	45610.02
576.95	45474.27
577.11	45813.65
577.27	45546.82
577.43	45626.40
577.59	45806.62
577.75	45502.35
577.92	45429.80
578.08	45497.67
578.24	45324.47
578.40	45640.45
578.56	45350.22
578.72	45375.97
578.88	46012.59
579.04	45928.33
579.21	45804.28
579.37	45275.32
579.53	45815.99
579.69	45764.49
579.85	46050.04
580.01	45806.62
580.17	45567.89
580.33	46192.81
580.49	46274.73
580.65	45521.08
580.82	45380.65
580.98	45792.58
581.14	45579.59
581.30	46335.59
581.46	45682.58
581.62	45916.63
581.78	46171.75
581.94	46115.58
582.10	45830.03
582.26	45979.82
582.42	45771.52
582.58	45780.88
582.74	46043.02
582.90	46185.79
583.06	46057.06
583.22	46054.72
583.38	45972.80
583.54	46082.81
583.70	46007.91
583.86	46024.29
584.02	45715.34
584.18	46134.30
584.34	45731.73
584.50	46183.45
584.66	45769.18
584.82	45610.02
584.98	45998.55
585.14	45698.96
585.30	45429.80
585.46	45918.97
585.62	45748.11
585.78	45689.60
585.94	45265.96
586.10	45766.84
586.26	46061.74
586.42	45701.30
586.58	46356.65
586.74	45979.82
586.90	45687.26
587.06	45727.05
587.22	46040.68
587.38	45993.87
587.54	45874.50
587.70	46045.36
587.86	45940.04
588.02	45603.00
588.18	45986.85
588.34	45563.21
588.49	45605.34
588.65	45404.05
588.81	45200.43
588.97	45305.75
589.13	45027.23
589.29	45537.46
589.45	45574.91
589.61	45752.79
589.77	45996.21
589.93	46293.46
590.08	46141.32
