SpectraSuite Data File
++++++++++++++++++++++++++++++++++++
Date: Fri Oct 25 11:23:03 EDT 2013
User: price-jones
Dark Spectrum Present: No
Reference Spectrum Present: No
Number of Sampled Component Spectra: 1
Spectrometers: USB2+H05261
Integration Time (usec): 100000 (USB2+H05261)
Spectra Averaged: 1 (USB2+H05261)
Boxcar Smoothing: 0 (USB2+H05261)
Correct for Electrical Dark: No (USB2+H05261)
Strobe/Lamp Enabled: No (USB2+H05261)
Correct for Detector Non-linearity: No (USB2+H05261)
Correct for Stray Light: No (USB2+H05261)
Number of Pixels in Processed Spectrum: 2048
>>>>>Begin Processed Spectral Data<<<<<
365.73	196.60
365.92	196.60
366.12	196.60
366.32	126.39
366.52	105.32
366.72	84.26
366.91	28.09
367.11	170.86
367.31	91.28
367.51	70.22
367.70	112.35
367.90	42.13
368.10	91.28
368.30	124.05
368.49	180.22
368.69	145.11
368.89	102.98
369.09	107.66
369.28	140.43
369.48	170.86
369.68	191.92
369.87	189.58
370.07	161.50
370.27	154.48
370.47	334.70
370.66	552.37
370.86	641.31
371.06	641.31
371.25	683.44
371.45	692.80
371.65	725.57
371.84	587.47
372.04	678.76
372.24	713.86
372.44	732.59
372.63	751.31
372.83	779.40
373.03	734.93
373.22	744.29
373.42	753.65
373.62	821.53
373.81	826.21
374.01	861.32
374.21	847.27
374.40	779.40
374.60	816.85
374.79	844.93
374.99	837.91
375.19	833.23
375.38	887.06
375.58	877.70
375.78	896.43
375.97	718.54
376.17	912.81
376.37	940.90
376.56	891.74
376.76	917.49
376.95	884.72
377.15	933.87
377.35	912.81
377.54	868.34
377.74	877.70
377.93	938.55
378.13	922.17
378.33	922.17
378.52	917.49
378.72	926.85
378.91	950.26
379.11	959.62
379.31	889.40
379.50	861.32
379.70	931.53
379.89	997.07
380.09	1050.90
380.28	952.60
380.48	990.05
380.68	1015.79
380.87	1032.18
381.07	947.92
381.26	1013.45
381.46	1048.56
381.65	999.41
381.85	1081.33
382.04	1078.99
382.24	1088.35
382.43	980.68
382.63	1022.81
382.83	1139.84
383.02	1128.14
383.22	1062.60
383.41	966.64
383.61	1172.61
383.80	1034.52
384.00	1111.75
384.19	1128.14
384.39	1196.01
384.58	1086.01
384.78	1165.59
384.97	1153.88
385.17	1116.44
385.36	1109.41
385.56	1179.63
385.75	1174.95
385.95	1130.48
386.14	1214.74
386.34	1247.51
386.53	1196.01
386.72	1156.22
386.92	1240.48
387.11	1193.67
387.31	1207.72
387.50	1303.68
387.70	1245.16
387.89	1203.04
388.09	1289.64
388.28	1301.34
388.48	1345.81
388.67	1345.81
388.86	1355.17
389.06	1228.78
389.25	1291.98
389.45	1387.94
389.64	1303.68
389.84	1423.05
390.03	1322.40
390.22	1352.83
390.42	1362.19
390.61	1378.58
390.81	1448.79
391.00	1439.43
391.19	1455.81
391.39	1373.89
391.58	1526.03
391.78	1350.49
391.97	1434.75
392.16	1439.43
392.36	1514.33
392.55	1430.07
392.75	1526.03
392.94	1579.86
393.13	1507.30
393.33	1561.14
393.52	1495.60
393.71	1631.35
393.91	1533.05
394.10	1432.41
394.29	1558.80
394.49	1596.25
394.68	1626.67
394.88	1579.86
395.07	1603.27
395.26	1610.29
395.46	1753.06
395.65	1746.04
395.84	1699.23
396.04	1820.94
396.23	1776.47
396.42	1739.02
396.62	1858.39
396.81	1771.79
397.00	1797.53
397.19	1764.76
397.39	1739.02
397.58	1830.30
397.77	1806.89
397.97	1837.32
398.16	1919.24
398.35	1839.66
398.55	1827.96
398.74	1912.22
398.93	2036.27
399.12	1991.80
399.32	1961.37
399.51	2003.50
399.70	2026.90
399.90	1966.05
400.09	2036.27
400.28	1984.77
400.47	2017.54
400.67	2073.71
400.86	2064.35
401.05	2064.35
401.24	2087.76
401.44	2160.31
401.63	2174.36
401.82	2263.30
402.01	2097.12
402.21	2146.27
402.40	2242.23
402.59	2097.12
402.78	2239.89
402.97	2172.02
403.17	2314.79
403.36	2282.02
403.55	2307.77
403.74	2354.58
403.93	2361.60
404.13	2342.88
404.32	2438.84
404.51	2293.72
404.70	2359.26
404.89	2457.56
405.09	2483.31
405.28	2483.31
405.47	2525.44
405.66	2525.44
405.85	2551.18
406.05	2541.82
406.24	2537.14
406.43	2602.68
406.62	2658.85
406.81	2677.57
407.00	2647.15
407.20	2626.08
407.39	2576.93
407.58	2717.36
407.77	2841.41
407.96	2710.34
408.15	2862.48
408.34	2743.11
408.54	2810.98
408.73	2883.54
408.92	2874.18
409.11	2885.88
409.30	2827.37
409.49	2942.05
409.68	2834.39
409.87	3009.93
410.07	2998.23
410.26	3073.12
410.45	2993.55
410.64	3148.02
410.83	3162.06
411.02	3115.25
411.21	3220.58
411.40	3145.68
411.59	3138.66
411.78	3159.72
411.98	3171.43
412.17	3346.97
412.36	3424.20
412.55	3281.43
412.74	3466.33
412.93	3440.59
413.12	3424.20
413.31	3499.10
413.50	3478.04
413.69	3541.23
413.88	3691.02
414.07	3702.73
414.26	3728.47
414.45	3684.00
414.64	3674.64
414.83	3887.63
415.02	3784.65
415.22	3922.74
415.41	3845.50
415.60	3852.52
415.79	4138.07
415.98	4021.04
416.17	4065.51
416.36	3955.51
416.55	4051.47
416.74	4023.38
416.93	4135.73
417.12	4248.07
417.31	4180.20
417.50	4327.65
417.69	4308.93
417.88	4271.48
418.07	4374.46
418.26	4252.75
418.45	4337.01
418.64	4461.06
418.83	4641.28
419.02	4400.21
419.21	4685.75
419.39	4538.30
419.58	4437.66
419.77	4540.64
419.96	4660.01
420.15	4606.17
420.34	4557.02
420.53	4695.11
420.72	4709.16
420.91	4624.90
421.10	4880.02
421.29	4821.50
421.48	4580.43
421.67	4826.18
421.86	4767.67
422.05	4877.68
422.24	4943.21
422.43	4873.00
422.61	4861.29
422.80	4908.10
422.99	5057.90
423.18	5053.22
423.37	5114.07
423.56	4929.17
423.75	4966.62
423.94	5022.79
424.13	4739.58
424.32	4833.21
424.50	5011.09
424.69	5165.56
424.88	5174.92
425.07	5027.47
425.26	4814.48
425.45	4842.57
425.64	5085.98
425.83	5013.43
426.01	4936.19
426.20	5020.45
426.39	5130.45
426.58	5195.99
426.77	5125.77
426.96	5205.35
427.15	5172.58
427.33	5289.61
427.52	5247.48
427.71	5343.44
427.90	5313.02
428.09	5383.23
428.28	5355.15
428.46	5455.79
428.65	5455.79
428.84	5572.82
429.03	5547.07
429.22	5448.77
429.40	5556.43
429.59	5474.51
429.78	5266.21
429.97	5289.61
430.16	5528.35
430.34	5633.67
430.53	5907.51
430.72	5710.91
430.91	5781.12
431.10	5612.60
431.28	5788.14
431.47	5788.14
431.66	6024.54
431.85	5912.19
432.03	5825.59
432.22	5813.89
432.41	5959.00
432.60	6001.13
432.79	6090.07
432.97	5970.71
433.16	6064.33
433.35	5947.30
433.54	6071.35
433.72	6153.27
433.91	6232.85
434.10	6291.36
434.28	6125.18
434.47	6246.89
434.66	6305.40
434.85	6319.45
435.03	6310.08
435.22	6347.53
435.41	6457.54
435.59	6427.11
435.78	6703.29
435.97	6602.65
436.16	6553.50
436.34	6520.73
436.53	6494.99
436.72	6686.91
436.90	6525.41
437.09	6733.72
437.28	6595.63
437.46	6677.55
437.65	6766.49
437.84	6925.65
438.02	6825.00
438.21	6874.15
438.40	6801.60
438.58	6946.71
438.77	7148.00
438.96	6881.18
439.14	7054.37
439.33	7169.06
439.52	7262.68
439.70	7410.14
439.89	7513.12
440.08	7344.60
440.26	7578.65
440.45	7445.24
440.63	7403.11
440.82	7660.57
441.01	7531.84
441.19	7925.05
441.38	7784.62
441.57	7878.24
441.75	7805.69
441.94	7976.55
442.12	8091.23
442.31	8060.80
442.50	8182.51
442.68	8091.23
442.87	8095.91
443.05	8259.75
443.24	8365.07
443.43	8194.22
443.61	8341.67
443.80	8610.83
443.98	8194.22
444.17	7934.42
444.35	8215.28
444.54	8435.29
444.73	8285.50
444.91	8514.87
445.10	8528.91
445.28	8299.54
445.47	8362.73
445.65	8367.42
445.84	8362.73
446.02	8456.36
446.21	8496.14
446.39	8580.40
446.58	8442.31
446.77	8468.06
446.95	8393.16
447.14	8578.06
447.32	8559.34
447.51	8664.66
447.69	8659.98
447.88	8620.19
448.06	8540.61
448.25	8823.82
448.43	8655.30
448.62	8702.11
448.80	8634.24
448.99	8800.41
449.17	8772.33
449.36	8875.31
449.54	8987.66
449.73	9067.24
449.91	9198.31
450.10	8950.21
450.28	9224.05
450.46	9153.84
450.65	9128.09
450.83	9277.88
451.02	8994.68
451.20	9275.54
451.39	9289.59
451.57	9177.24
451.76	9167.88
451.94	9289.59
452.13	9418.32
452.31	9376.19
452.49	9252.14
452.68	9305.97
452.86	9547.05
453.05	9493.21
453.23	9530.66
453.42	9558.75
453.60	9359.80
453.78	9610.24
453.97	9598.54
454.15	9731.95
454.34	9631.30
454.52	9624.28
454.70	9823.23
454.89	9792.80
455.07	9940.26
455.26	9841.95
455.44	10127.50
455.62	9996.43
455.81	9781.10
455.99	10218.78
456.17	10178.99
456.36	10022.17
456.54	10363.89
456.73	10387.30
456.91	10579.22
457.09	10511.35
457.28	10710.29
457.46	10541.77
457.64	10607.31
457.83	10490.28
458.01	10565.18
458.19	10902.22
458.38	10686.89
458.56	10754.76
458.74	10675.18
458.93	10855.40
459.11	10988.82
459.29	10771.15
459.48	10850.72
459.66	10862.43
459.84	10892.85
460.03	11154.99
460.21	11159.67
460.39	11138.61
460.57	11225.21
460.76	11377.34
460.94	11108.18
461.12	11524.80
461.31	11403.09
461.49	11056.69
461.67	11187.76
461.85	11492.03
462.04	11424.15
462.22	11585.65
462.40	11630.12
462.59	11470.97
462.77	11599.70
462.95	11798.64
463.13	11707.36
463.32	11829.07
463.50	11875.88
463.68	11939.07
463.86	11836.09
464.05	11896.94
464.23	11782.26
464.41	12074.82
464.59	11749.49
464.78	11983.54
464.96	11894.60
465.14	11934.39
465.32	12299.52
465.50	12187.17
465.69	12156.74
465.87	12325.26
466.05	12189.51
466.23	12287.81
466.41	12329.94
466.60	12732.51
466.78	12294.83
466.96	12346.33
467.14	12411.86
467.32	12463.35
467.51	12805.07
467.69	12554.63
467.87	12505.48
468.05	12905.71
468.23	12463.35
468.41	12856.56
468.60	12879.97
468.78	12943.16
468.96	12720.81
469.14	13060.19
469.32	13214.66
469.50	12812.09
469.69	13128.06
469.87	13432.33
470.05	13137.43
470.23	13263.82
470.41	13214.66
470.59	13535.32
470.77	13584.47
470.95	13605.53
471.14	13642.98
471.32	13247.43
471.50	13701.50
471.68	13645.32
471.86	13851.29
472.04	13827.88
472.22	14384.93
472.40	13823.20
472.58	14120.45
472.77	14218.75
472.95	14359.19
473.13	14843.68
473.31	14183.65
473.49	14277.27
473.67	14618.99
473.85	14485.58
474.03	14672.82
474.21	14827.29
474.39	14829.63
474.57	15084.75
474.75	14920.92
474.93	15281.36
475.12	15274.34
475.30	15241.57
475.48	15337.53
475.66	15503.71
475.84	15316.47
476.02	15660.52
476.20	15592.65
476.38	15669.89
476.56	15917.98
476.74	16374.39
476.92	15913.30
477.10	15971.82
477.28	16240.98
477.46	16149.70
477.64	16695.04
477.82	16893.99
478.00	17085.91
478.18	17003.99
478.36	17090.59
478.54	17654.66
478.72	17593.81
478.90	17455.72
479.08	17764.67
479.26	17898.08
479.44	17757.64
479.62	18197.67
479.80	18412.99
479.98	18307.67
480.16	18803.86
480.34	18691.52
480.52	18724.29
480.70	18888.12
480.88	18551.09
481.06	18785.14
481.24	18787.48
481.41	19075.37
481.59	19548.15
481.77	19716.67
481.95	19880.51
482.13	20128.61
482.31	19833.70
482.49	20259.68
482.67	20655.23
482.85	20751.19
483.03	20545.22
483.21	20599.05
483.39	21228.66
483.57	21184.19
483.74	21420.58
483.92	21703.79
484.10	21125.68
484.28	21965.93
484.46	22197.64
484.64	22609.58
484.82	22256.15
485.00	22462.12
485.18	22682.13
485.35	23075.34
485.53	22869.37
485.71	23185.35
485.89	23819.63
486.07	23775.16
486.25	23833.68
486.43	23784.52
486.61	24170.71
486.78	24592.01
486.96	24231.57
487.14	24692.65
487.32	24603.71
487.50	25156.08
487.68	25137.35
487.85	25825.47
488.03	25750.57
488.21	25937.82
488.39	25790.36
488.57	26490.18
488.75	26628.27
488.92	26258.47
489.10	27040.21
489.28	27136.17
489.46	27349.16
489.64	27386.61
489.81	27725.99
489.99	27716.62
490.17	28016.21
490.35	28533.47
490.53	28376.66
490.70	28781.57
490.88	28659.86
491.06	29029.66
491.24	29378.40
491.41	29689.70
491.59	29762.25
491.77	29539.90
491.95	30162.48
492.13	29907.37
492.30	30080.56
492.48	30621.23
492.66	30913.80
492.84	30366.11
493.01	30789.75
493.19	30955.93
493.37	31388.92
493.54	31421.69
493.72	32004.49
493.90	32360.25
494.08	31952.99
494.25	32629.41
494.43	32304.07
494.61	32407.06
494.79	33048.36
494.96	32912.61
495.14	33158.37
495.32	33516.47
495.49	33453.28
495.67	33759.89
495.85	34047.77
496.02	34307.57
496.20	34132.03
496.38	34583.76
496.55	34424.60
496.73	34885.68
496.91	34745.25
497.09	35281.24
497.26	35318.68
497.44	35475.50
497.62	35880.41
497.79	35974.03
497.97	35920.20
498.14	36304.05
498.32	36641.09
498.50	36264.26
498.67	37120.90
498.85	37104.51
499.03	37184.09
499.20	36912.59
499.38	37654.54
499.56	37563.26
499.73	37610.07
499.91	37516.45
500.08	38059.45
500.26	38143.71
500.44	38014.98
500.61	38501.81
500.79	38223.29
500.97	38735.87
501.14	39409.94
501.32	39173.55
501.49	39065.88
501.67	38930.13
501.84	39566.76
502.02	39381.85
502.20	39512.92
502.37	39735.27
502.55	40006.78
502.72	40084.01
502.90	40095.72
503.07	40348.50
503.25	40392.97
503.43	40320.41
503.60	40641.06
503.78	40575.53
503.95	40755.75
504.13	40835.33
504.30	41429.82
504.48	41242.58
504.65	41003.85
504.83	41486.00
505.01	41855.80
505.18	41755.16
505.36	41933.04
505.53	41766.86
505.71	41780.90
505.88	42602.43
506.06	41780.90
506.23	42309.86
506.41	42618.81
506.58	42600.09
506.76	42873.93
506.93	42976.92
507.11	42997.98
507.28	43056.50
507.46	43227.35
507.63	43753.97
507.81	43791.42
507.98	43430.98
508.16	43510.56
508.33	43962.28
508.50	43866.32
508.68	44266.55
508.85	44903.18
509.03	44509.97
509.20	44610.61
509.38	44804.88
509.55	44662.10
509.73	44734.66
509.90	45404.05
510.08	45155.96
510.25	45247.24
510.42	45174.68
510.60	45593.64
510.77	45612.36
510.95	45890.88
511.12	45439.16
511.30	45539.80
511.47	45937.69
511.64	46323.88
511.82	46068.76
511.99	46202.18
512.17	46637.51
512.34	46377.72
512.51	46906.68
512.69	46887.95
512.86	46756.88
513.04	47124.35
513.21	47103.28
513.38	47372.44
513.56	47578.41
513.73	47323.29
513.90	47714.16
514.08	47152.43
514.25	47709.48
514.43	48086.31
514.60	47892.04
514.77	47875.66
514.95	48533.35
515.12	48156.52
515.29	48175.25
515.47	48219.72
515.64	48397.60
515.81	48135.46
515.99	48622.29
516.16	49069.33
516.33	48566.12
516.51	48931.24
516.68	48985.07
516.85	48882.09
517.03	49352.54
517.20	49481.27
517.37	49081.03
517.54	49448.50
517.72	49612.34
517.89	49514.03
518.06	49411.05
518.24	49525.74
518.41	49619.36
518.58	49918.95
518.75	49844.05
518.93	50291.09
519.10	49708.30
519.27	49998.52
519.45	50176.40
519.62	50454.93
519.79	50270.03
519.96	50480.67
520.14	50784.94
520.31	50513.44
520.48	50719.41
520.65	51065.81
520.83	51248.37
521.00	51035.38
521.17	50703.03
521.34	51107.94
521.52	51229.65
521.69	51166.45
521.86	51459.02
522.03	51339.65
522.20	51641.58
522.38	51693.07
522.55	51737.54
522.72	51819.46
522.89	51803.08
523.07	51901.38
523.24	51845.21
523.41	52224.37
523.58	51805.42
523.75	52451.41
523.92	51943.51
524.10	52556.73
524.27	52704.18
524.44	52605.88
524.61	52535.66
524.78	52552.05
524.96	52823.55
525.13	52523.96
525.30	53347.83
525.47	52961.64
525.64	52655.03
525.81	52846.96
525.98	53081.01
526.16	53085.69
526.33	53148.88
526.50	53237.83
526.67	53343.15
526.84	53389.96
527.01	53162.93
527.18	53195.70
527.36	53689.55
527.53	53521.03
527.70	53675.51
527.87	53544.44
528.04	53471.88
528.21	53598.27
528.38	53748.06
528.55	53956.37
528.72	53642.74
528.89	54078.08
529.07	53783.17
529.24	53457.84
529.41	53998.50
529.58	53996.16
529.75	53719.98
529.92	53989.14
530.09	53925.94
530.26	54410.43
530.43	54347.24
530.60	54405.75
530.77	54265.32
530.94	54330.86
531.11	54234.89
531.28	54377.67
531.46	54377.67
531.63	54801.30
531.80	54398.73
531.97	54635.13
532.14	54639.81
532.31	54827.05
532.48	54995.57
532.65	54808.32
532.82	54742.79
532.99	55023.65
533.16	54944.08
533.33	55168.77
533.50	55295.16
533.67	55084.51
533.84	55131.32
534.01	55143.02
534.18	55363.03
534.35	55686.03
534.52	55028.34
534.69	55655.60
534.86	55798.37
535.03	55379.42
535.20	55632.19
535.37	55671.98
535.54	55777.31
535.71	55547.93
535.88	56011.36
536.05	56025.40
536.22	55927.10
536.38	56086.26
536.55	55751.56
536.72	56065.19
536.89	55732.84
537.06	55835.82
537.23	55936.46
537.40	55917.74
537.57	55999.66
537.74	56109.66
537.91	56264.14
538.08	56170.52
538.25	55985.61
538.42	56126.05
538.59	56442.02
538.75	56200.94
538.92	56200.94
539.09	56788.42
539.26	56545.00
539.43	56413.93
539.60	56371.80
539.77	56687.78
539.94	56926.51
540.11	56652.67
540.28	56545.00
540.44	56727.56
540.61	56809.48
540.78	56633.94
540.95	56697.14
541.12	56680.75
541.29	56743.95
541.46	56853.95
541.62	56877.36
541.79	56966.30
541.96	57027.15
542.13	56992.04
542.30	57041.20
542.47	56994.39
542.63	57214.40
542.80	57062.26
542.97	57148.86
543.14	57359.51
543.31	57652.08
543.48	57609.95
543.64	57806.55
543.81	57626.33
543.98	57612.29
544.15	57724.63
544.32	57869.75
544.48	57851.02
544.65	57602.92
544.82	57752.72
544.99	57509.30
545.16	57759.74
545.32	57537.39
545.49	58010.18
545.66	58073.37
545.83	58045.29
546.00	57923.58
546.16	58092.10
546.33	58188.06
546.50	57811.23
546.67	57834.64
546.83	57813.57
547.00	58099.12
547.17	58110.82
547.34	58061.67
547.50	58150.61
547.67	58375.30
547.84	58368.28
548.00	58387.00
548.17	58394.03
548.34	58377.64
548.51	58607.01
548.67	58595.31
548.84	58515.73
549.01	58550.84
549.18	58611.70
549.34	58623.40
549.51	58646.80
549.68	58459.56
549.84	58688.93
550.01	58768.51
550.18	58635.10
550.34	58665.53
550.51	58637.44
550.68	58592.97
550.84	58415.09
551.01	58946.39
551.18	58871.49
551.34	58869.15
551.51	58836.39
551.68	58925.33
551.84	59093.85
552.01	58890.22
552.18	59025.97
552.34	58820.00
552.51	59257.68
552.68	59040.01
552.84	59032.99
553.01	59316.20
553.18	59037.67
553.34	59150.02
553.51	59018.95
553.67	58934.69
553.84	59185.13
554.01	59313.86
554.17	59201.51
554.34	59276.41
554.51	59416.84
554.67	59288.11
554.84	59416.84
555.00	59257.68
555.17	59327.90
555.33	59245.98
555.50	59311.52
555.67	59269.39
555.83	59208.53
556.00	59482.37
556.16	59657.91
556.33	59613.44
556.50	59351.30
556.66	59491.74
556.83	59334.92
556.99	59777.28
557.16	59777.28
557.32	59681.32
557.49	60023.04
557.65	59611.10
557.82	59601.74
557.98	59693.02
558.15	59653.23
558.32	59955.16
558.48	59559.61
558.65	59730.47
558.81	59711.75
558.98	60051.12
559.14	59901.33
559.31	59910.69
559.47	59999.63
559.64	60044.10
559.80	59934.10
559.97	59957.50
560.13	59814.73
560.30	59856.86
560.46	59934.10
560.63	60027.72
560.79	59994.95
560.96	60200.92
561.12	60093.25
561.29	60259.43
561.45	60111.98
561.61	60051.12
561.78	59997.29
561.94	59941.12
562.11	60198.58
562.27	60245.39
562.44	60397.52
562.60	60273.48
562.77	60135.38
562.93	59927.08
563.10	60451.36
563.26	60009.00
563.42	60617.53
563.59	60247.73
563.75	60254.75
563.92	60163.47
564.08	60434.97
564.24	60383.48
564.41	60334.33
564.57	60453.70
564.74	60205.60
564.90	60374.12
565.07	60495.83
565.23	60451.36
565.39	60378.80
565.56	60451.36
565.72	60432.63
565.88	60437.31
566.05	60512.21
566.21	60411.57
566.38	60650.30
566.54	60622.22
566.70	60603.49
566.87	60629.24
567.03	60413.91
567.19	60718.18
567.36	60701.79
567.52	60664.35
567.68	60837.54
567.85	60640.94
568.01	60584.77
568.17	60498.17
568.34	60743.92
568.50	60645.62
568.66	60594.13
568.83	60664.35
568.99	60662.00
569.15	60671.37
569.32	60720.52
569.48	60636.26
569.64	60530.93
569.81	60512.21
569.97	60580.09
570.13	60514.55
570.30	60643.28
570.46	60753.29
570.62	60690.09
570.78	60994.36
570.95	60662.00
571.11	60720.52
571.27	60577.75
571.43	60807.12
571.60	61097.34
571.76	60830.52
571.92	60882.02
572.09	60772.01
572.25	60910.10
572.41	60860.95
572.57	60917.12
572.74	61043.51
572.90	60662.00
573.06	61029.47
573.22	60863.29
573.38	60999.04
573.55	60816.48
573.71	61183.94
573.87	60809.46
574.03	60711.16
574.20	60872.65
574.36	60842.23
574.52	60856.27
574.68	61052.87
574.84	61275.22
575.01	61137.13
575.17	61205.01
575.33	61034.15
575.49	61001.38
575.65	60959.25
575.82	61031.81
575.98	61169.90
576.14	61338.42
576.30	60903.08
576.46	61052.87
576.62	60945.21
576.79	61027.13
576.95	61097.34
577.11	61190.97
577.27	61169.90
577.43	61125.43
577.59	60860.95
577.75	61066.92
577.92	61031.81
578.08	61057.56
578.24	60945.21
578.40	61167.56
578.56	61265.86
578.72	60879.67
578.88	61506.94
579.04	61186.28
579.21	61146.50
579.37	61228.41
579.53	61436.72
579.69	61160.54
579.85	61024.79
580.01	61139.47
580.17	61144.16
580.33	61261.18
580.49	61179.26
580.65	61141.81
580.82	61003.72
580.98	61240.12
581.14	61036.49
581.30	61235.44
581.46	61214.37
581.62	61319.70
581.78	61251.82
581.94	61293.95
582.10	61205.01
582.26	61256.50
582.42	61190.97
582.58	61186.28
582.74	61113.73
582.90	61130.11
583.06	61144.16
583.22	61080.96
583.38	61212.03
583.54	61256.50
583.70	61368.85
583.86	61247.14
584.02	61197.99
584.18	61366.51
584.34	61373.53
584.50	61230.75
584.66	61212.03
584.82	60926.49
584.98	61286.93
585.14	61300.97
585.30	61123.09
585.46	61272.88
585.62	61357.14
585.78	61284.59
585.94	61235.44
586.10	61207.35
586.26	61378.21
586.42	61415.66
586.58	61429.70
586.74	61375.87
586.90	61275.22
587.06	61207.35
587.22	61352.46
587.38	61434.38
587.54	61448.42
587.70	61464.81
587.86	61336.08
588.02	61490.55
588.18	61513.96
588.34	61275.22
588.49	61364.17
