SpectraSuite Data File
++++++++++++++++++++++++++++++++++++
Date: Fri Oct 25 10:48:00 EDT 2013
User: price-jones
Dark Spectrum Present: No
Reference Spectrum Present: No
Number of Sampled Component Spectra: 1
Spectrometers: USB2+H05261
Integration Time (usec): 100000 (USB2+H05261)
Spectra Averaged: 1 (USB2+H05261)
Boxcar Smoothing: 0 (USB2+H05261)
Correct for Electrical Dark: No (USB2+H05261)
Strobe/Lamp Enabled: No (USB2+H05261)
Correct for Detector Non-linearity: No (USB2+H05261)
Correct for Stray Light: No (USB2+H05261)
Number of Pixels in Processed Spectrum: 2048
>>>>>Begin Processed Spectral Data<<<<<
365.73	173.20
365.92	173.20
366.12	173.20
366.32	114.69
366.52	67.88
366.72	39.79
366.91	0.00
367.11	56.17
367.31	72.56
367.51	72.56
367.70	46.81
367.90	23.41
368.10	77.24
368.30	65.54
368.49	72.56
368.69	72.56
368.89	63.19
369.09	23.41
369.28	175.54
369.48	2.34
369.68	63.19
369.87	77.24
370.07	173.20
370.27	77.24
370.47	252.78
370.66	381.51
370.86	400.23
371.06	381.51
371.25	484.49
371.45	421.30
371.65	465.77
371.84	395.55
372.04	411.93
372.24	461.09
372.44	496.19
372.63	463.43
372.83	606.20
373.03	477.47
373.22	496.19
373.42	510.24
373.62	496.19
373.81	547.69
374.01	491.51
374.21	524.28
374.40	543.00
374.60	559.39
374.79	475.13
374.99	524.28
375.19	554.71
375.38	491.51
375.58	496.19
375.78	561.73
375.97	624.92
376.17	685.78
376.37	552.37
376.56	596.84
376.76	543.00
376.95	599.18
377.15	571.09
377.35	653.01
377.54	638.97
377.74	622.58
377.93	620.24
378.13	589.82
378.33	601.52
378.52	657.69
378.72	739.61
378.91	653.01
379.11	610.88
379.31	688.12
379.50	573.43
379.70	692.80
379.89	615.56
380.09	648.33
380.28	613.22
380.48	641.31
380.68	676.41
380.87	624.92
381.07	681.10
381.26	692.80
381.46	636.63
381.65	653.01
381.85	667.05
382.04	758.33
382.24	730.25
382.43	655.35
382.63	720.88
382.83	671.73
383.02	751.31
383.22	685.78
383.41	720.88
383.61	667.05
383.80	690.46
384.00	753.65
384.19	739.61
384.39	692.80
384.58	755.99
384.78	664.71
384.97	777.06
385.17	791.10
385.36	664.71
385.56	692.80
385.75	777.06
385.95	748.97
386.14	816.85
386.34	788.76
386.53	812.17
386.72	784.08
386.92	795.78
387.11	814.51
387.31	809.83
387.50	770.04
387.70	816.85
387.89	814.51
388.09	837.91
388.28	877.70
388.48	828.55
388.67	959.62
388.86	873.02
389.06	840.25
389.25	875.36
389.45	781.74
389.64	718.54
389.84	1006.43
390.03	945.58
390.22	896.43
390.42	922.17
390.61	910.47
390.81	849.61
391.00	950.26
391.19	994.73
391.39	931.53
391.58	980.68
391.78	983.02
391.97	964.30
392.16	891.74
392.36	959.62
392.55	983.02
392.75	971.32
392.94	950.26
393.13	987.71
393.33	990.05
393.52	987.71
393.71	961.96
393.91	983.02
394.10	1015.79
394.29	1041.54
394.49	1050.90
394.68	1015.79
394.88	1011.11
395.07	1034.52
395.26	1043.88
395.46	1165.59
395.65	1146.86
395.84	1144.52
396.04	1069.62
396.23	1036.86
396.42	1069.62
396.62	1071.97
396.81	1109.41
397.00	1053.24
397.19	1226.44
397.39	1228.78
397.58	1149.20
397.77	1144.52
397.97	1214.74
398.16	1238.14
398.35	1322.40
398.55	1193.67
398.74	1341.13
398.93	1313.04
399.12	1380.92
399.32	1289.64
399.51	1371.55
399.70	1343.47
399.90	1401.98
400.09	1341.13
400.28	1495.60
400.47	1385.60
400.67	1404.32
400.86	1380.92
401.05	1409.00
401.24	1500.28
401.44	1430.07
401.63	1425.39
401.82	1455.81
402.01	1589.22
402.21	1523.69
402.40	1596.25
402.59	1411.34
402.78	1439.43
402.97	1493.26
403.17	1439.43
403.36	1643.06
403.55	1643.06
403.74	1640.72
403.93	1631.35
404.13	1537.73
404.32	1675.82
404.51	1600.93
404.70	1673.48
404.89	1692.21
405.09	1769.44
405.28	1727.32
405.47	1717.95
405.66	1748.38
405.85	1788.17
406.05	1614.97
406.24	1722.63
406.43	1867.75
406.62	1818.60
406.81	1881.79
407.00	1823.28
407.20	1685.19
407.39	1853.70
407.58	1959.03
407.77	1982.43
407.96	1916.90
408.15	1870.09
408.34	1942.64
408.54	2036.27
408.73	1909.88
408.92	1970.73
409.11	1952.01
409.30	1975.41
409.49	2017.54
409.68	2050.31
409.87	2050.31
410.07	2090.10
410.26	2052.65
410.45	2174.36
410.64	2132.23
410.83	2129.89
411.02	2188.40
411.21	2146.27
411.40	2207.13
411.59	2223.51
411.78	2228.19
411.98	2232.87
412.17	2256.28
412.36	2256.28
412.55	2434.16
412.74	2466.92
412.93	2375.64
413.12	2326.49
413.31	2434.16
413.50	2387.35
413.69	2464.58
413.88	2569.91
414.07	2670.55
414.26	2621.40
414.45	2438.84
414.64	2642.46
414.83	2647.15
415.02	2569.91
415.22	2700.98
415.41	2766.51
415.60	2703.32
415.79	2754.81
415.98	2897.58
416.17	2836.73
416.36	2722.04
416.55	2759.49
416.74	2902.26
416.93	2946.73
417.12	2970.14
417.31	2834.39
417.50	2923.33
417.69	2895.24
417.88	3019.29
418.07	3028.65
418.26	2988.86
418.45	3045.04
418.64	3201.85
418.83	3105.89
419.02	3141.00
419.21	3145.68
419.39	3199.51
419.58	3052.06
419.77	3012.27
419.96	3197.17
420.15	3229.94
420.34	3236.96
420.53	3283.77
420.72	3269.73
420.91	3269.73
421.10	3281.43
421.29	3396.12
421.48	3241.64
421.67	3372.71
421.86	3426.54
422.05	3471.01
422.24	3391.44
422.43	3368.03
422.61	3421.86
422.80	3613.79
422.99	3499.10
423.18	3468.67
423.37	3515.48
423.56	3438.25
423.75	3375.05
423.94	3482.72
424.13	3218.24
424.32	3295.47
424.50	3492.08
424.69	3508.46
424.88	3569.32
425.07	3492.08
425.26	3424.20
425.45	3440.59
425.64	3475.70
425.83	3496.76
426.01	3609.11
426.20	3576.34
426.39	3599.74
426.58	3588.04
426.77	3536.55
426.96	3592.72
427.15	3534.21
427.33	3536.55
427.52	3691.02
427.71	3686.34
427.90	3494.42
428.09	3665.28
428.28	3613.79
428.46	3789.33
428.65	3613.79
428.84	3730.81
429.03	3815.07
429.22	3761.24
429.40	3950.82
429.59	3606.77
429.78	3613.79
429.97	3592.72
430.16	3784.65
430.34	3723.79
430.53	3829.12
430.72	3964.87
430.91	3847.84
431.10	3805.71
431.28	3936.78
431.47	3960.19
431.66	4117.00
431.85	3892.31
432.03	4201.26
432.22	4093.60
432.41	4105.30
432.60	4126.36
432.79	4074.87
432.97	4241.05
433.16	4124.02
433.35	4070.19
433.54	4238.71
433.72	4063.17
433.91	4236.37
434.10	4257.43
434.28	4344.03
434.47	4496.17
434.66	4344.03
434.85	4283.18
435.03	4395.53
435.22	4344.03
435.41	4479.79
435.59	4442.34
435.78	4571.07
435.97	4444.68
436.16	4564.04
436.34	4517.23
436.53	4449.36
436.72	4535.96
436.90	4421.27
437.09	4599.15
437.28	4540.64
437.46	4652.98
437.65	4631.92
437.84	4599.15
438.02	4620.22
438.21	4638.94
438.40	4505.53
438.58	4751.29
438.77	4957.25
438.96	4891.72
439.14	4898.74
439.33	5027.47
439.52	5043.85
439.70	5069.60
439.89	4891.72
440.08	5036.83
440.26	5022.79
440.45	5067.26
440.63	5203.01
440.82	5408.98
441.01	5240.46
441.19	5247.48
441.38	5378.55
441.57	5310.68
441.75	5369.19
441.94	5542.39
442.12	5558.77
442.31	5530.69
442.50	5579.84
442.68	5537.71
442.87	5474.51
443.05	5600.90
443.24	5528.35
443.43	5636.01
443.61	5692.18
443.80	5827.93
443.98	5652.39
444.17	5416.00
444.35	5652.39
444.54	5781.12
444.73	5825.59
444.91	5717.93
445.10	5774.10
445.28	5701.54
445.47	5589.20
445.65	5692.18
445.84	5879.43
446.02	5802.19
446.21	5884.11
446.39	5839.64
446.58	5905.17
446.77	5856.02
446.95	5710.91
447.14	5806.87
447.32	5984.75
447.51	5973.05
447.69	5844.32
447.88	6010.50
448.06	5970.71
448.25	5909.85
448.43	5968.37
448.62	5832.62
448.80	5956.66
448.99	6010.50
449.17	6146.25
449.36	5951.98
449.54	6097.10
449.73	6347.53
449.91	6225.82
450.10	6197.74
450.28	6338.17
450.46	6286.68
450.65	6401.37
450.83	6218.80
451.02	6286.68
451.20	6314.77
451.39	6310.08
451.57	6167.31
451.76	6225.82
451.94	6256.25
452.13	6448.18
452.31	6441.15
452.49	6221.14
452.68	6359.24
452.86	6333.49
453.05	6516.05
453.23	6438.81
453.42	6516.05
453.60	6392.00
453.78	6525.41
453.97	6551.16
454.15	6504.35
454.34	6616.69
454.52	6614.35
454.70	6684.57
454.89	6647.12
455.07	6597.97
455.26	6696.27
455.44	6869.47
455.62	6829.68
455.81	7023.95
455.99	6892.88
456.17	6820.32
456.36	6829.68
456.54	7105.87
456.73	7052.03
456.91	7143.32
457.09	7094.16
457.28	7213.53
457.46	7150.34
457.64	7274.38
457.83	7066.08
458.01	7105.87
458.19	7190.13
458.38	7183.10
458.56	7260.34
458.74	7176.08
458.93	7225.23
459.11	7396.09
459.29	7194.81
459.48	7391.41
459.66	7279.07
459.84	7335.24
460.03	7712.07
460.21	7499.08
460.39	7581.00
460.57	7475.67
460.76	7676.96
460.94	7679.30
461.12	7749.51
461.31	7742.49
461.49	7623.12
461.67	7637.17
461.85	7845.48
462.04	7751.85
462.22	8278.47
462.40	8081.87
462.59	7836.11
462.77	7742.49
462.95	7789.30
463.13	7878.24
463.32	8021.02
463.50	7976.55
463.68	7962.50
463.86	7974.21
464.05	7901.65
464.23	8205.92
464.41	8184.85
464.59	7852.50
464.78	8322.94
464.96	7920.37
465.14	8063.15
465.32	8198.90
465.50	8367.42
465.69	8341.67
465.87	8138.04
466.05	8257.41
466.23	8341.67
466.41	8226.98
466.60	8278.47
466.78	8182.51
466.96	8334.65
467.14	8437.63
467.32	8538.27
467.51	8320.60
467.69	8140.38
467.87	8437.63
468.05	8503.17
468.23	8339.33
468.41	8353.37
468.60	8491.46
468.78	8578.06
468.96	8557.00
469.14	8634.24
469.32	8716.16
469.50	8596.79
469.69	8592.11
469.87	8659.98
470.05	8936.17
470.23	8711.47
470.41	8840.20
470.59	8968.93
470.77	8823.82
470.95	8828.50
471.14	9217.03
471.32	8889.35
471.50	9231.07
471.68	9165.54
471.86	9116.39
472.04	9312.99
472.22	9437.04
472.40	9369.16
472.58	9252.14
472.77	9357.46
472.95	9252.14
473.13	9664.07
473.31	9411.29
473.49	9547.05
473.67	9565.77
473.85	9715.56
474.03	9647.69
474.21	9799.82
474.39	9877.06
474.57	9802.16
474.75	9956.64
474.93	9942.60
475.12	10029.20
475.30	10017.49
475.48	10289.00
475.66	10040.90
475.84	10019.83
476.02	10012.81
476.20	10422.41
476.38	10256.23
476.56	10675.18
476.74	10523.05
476.92	10499.64
477.10	10726.68
477.28	10986.47
477.46	10855.40
477.64	10824.98
477.82	11023.92
478.00	11328.19
478.18	11021.58
478.36	11248.61
478.54	11372.66
478.72	11456.92
478.90	11637.14
479.08	11637.14
479.26	11637.14
479.44	11882.90
479.62	11747.15
479.80	12105.25
479.98	12056.10
480.16	12332.28
480.34	12287.81
480.52	12313.56
480.70	12264.41
480.88	12287.81
481.06	12528.89
481.24	12512.50
481.41	12568.68
481.59	12877.63
481.77	12748.90
481.95	12805.07
482.13	13060.19
482.31	13008.70
482.49	13287.22
482.67	13460.42
482.85	13607.87
483.03	13701.50
483.21	13748.31
483.39	13694.47
483.57	13767.03
483.74	13788.10
483.92	13977.68
484.10	13973.00
484.28	14052.58
484.46	14300.67
484.64	14520.68
484.82	14431.74
485.00	14429.40
485.18	14993.47
485.35	14923.26
485.53	14860.06
485.71	14712.61
485.89	15089.43
486.07	15295.40
486.25	15211.14
486.43	15480.30
486.61	15335.19
486.78	15915.64
486.96	15939.05
487.14	16224.59
487.32	15985.86
487.50	16219.91
487.68	16187.14
487.85	16812.07
488.03	16620.14
488.21	17046.12
488.39	17041.44
488.57	16837.81
488.75	17088.25
488.92	17434.65
489.10	17296.56
489.28	17722.54
489.46	17851.27
489.64	17755.30
489.81	18139.15
489.99	18094.68
490.17	18097.02
490.35	18504.28
490.53	18047.87
490.70	18506.62
490.88	18693.86
491.06	18864.72
491.24	18813.23
491.41	18862.38
491.59	19002.81
491.77	19016.85
491.95	19140.90
492.13	19286.01
492.30	19487.30
492.48	19470.92
492.66	19707.31
492.84	19903.92
493.01	19557.52
493.19	19812.63
493.37	20217.55
493.54	20383.73
493.72	20587.35
493.90	20439.90
494.08	20685.65
494.25	21123.33
494.43	21111.63
494.61	21165.46
494.79	21193.55
494.96	20922.05
495.14	21167.80
495.32	21502.50
495.49	21820.81
495.67	21486.12
495.85	21874.65
496.02	21912.10
496.20	22340.41
496.38	22029.12
496.55	22192.96
496.73	22906.82
496.91	22567.45
497.09	22824.90
497.26	22654.05
497.44	22834.27
497.62	22857.67
497.79	23070.66
497.97	23117.47
498.14	22785.12
498.32	23482.59
498.50	23372.59
498.67	23506.00
498.85	23648.77
499.03	23709.63
499.20	23733.03
499.38	24011.56
499.56	24318.17
499.73	23999.85
499.91	24081.77
500.08	24320.51
500.26	24027.94
500.44	24219.86
500.61	24858.83
500.79	24369.66
500.97	24800.32
501.14	24964.15
501.32	25067.14
501.49	24826.06
501.67	24938.41
501.84	25230.98
502.02	25312.89
502.20	25209.91
502.37	25605.46
502.55	25497.80
502.72	25399.49
502.90	25778.66
503.07	25591.42
503.25	26054.84
503.43	25486.09
503.60	26246.77
503.78	26134.42
503.95	25813.77
504.13	26122.72
504.30	26366.13
504.48	26150.81
504.65	26630.62
504.83	26567.42
505.01	26810.84
505.18	26995.74
505.36	27058.93
505.53	26876.37
505.71	27292.99
505.88	27503.64
506.06	26913.82
506.23	27370.22
506.41	27370.22
506.58	26948.93
506.76	27552.79
506.93	27513.00
507.11	27501.29
507.28	27725.99
507.46	27459.16
507.63	28137.92
507.81	27803.22
507.98	27929.61
508.16	28063.02
508.33	28032.60
508.50	28067.70
508.68	28046.64
508.85	28346.23
509.03	28018.55
509.20	28582.62
509.38	28926.68
509.55	28950.09
509.73	28662.20
509.90	28746.46
510.08	29151.37
510.25	29010.94
510.42	29153.71
510.60	29198.18
510.77	29209.89
510.95	29298.83
511.12	29076.48
511.30	29326.91
511.47	29642.88
511.64	29832.47
511.82	29914.39
511.99	29766.93
512.17	29933.11
512.34	29823.11
512.51	29975.24
512.69	30223.34
512.86	30085.25
513.04	30637.61
513.21	30244.40
513.38	30494.84
513.56	30316.96
513.73	30178.87
513.90	30368.45
514.08	30410.58
514.25	30323.98
514.43	30684.42
514.60	30604.84
514.77	30822.51
514.95	31063.59
515.12	31166.57
515.29	31370.20
515.47	31592.55
515.64	31681.49
515.81	31461.48
515.99	31658.09
516.16	31622.98
516.33	31395.95
516.51	31402.97
516.68	31325.73
516.85	31173.60
517.03	31377.22
517.20	31491.91
517.37	31791.50
517.54	31690.85
517.72	32114.49
517.89	32041.93
518.06	31714.26
518.24	31594.89
518.41	32147.26
518.58	32130.87
518.75	32315.78
518.93	32105.13
519.10	32694.94
519.27	32500.68
519.45	32474.93
519.62	32767.50
519.79	32538.13
519.96	33076.45
520.14	33308.16
520.31	32940.70
520.48	33345.61
520.65	32879.85
520.83	33275.40
521.00	33331.57
521.17	33591.37
521.34	33787.97
521.52	33179.43
521.69	33654.56
521.86	33514.13
522.03	33972.88
522.20	33596.05
522.38	33670.95
522.55	34103.95
522.72	33912.02
522.89	34099.26
523.07	34195.23
523.24	33984.58
523.41	34174.16
523.58	34333.32
523.75	34841.21
523.92	34550.99
524.10	34663.33
524.27	34974.63
524.44	34778.02
524.61	34405.88
524.78	34712.49
524.96	34733.55
525.13	34834.19
525.30	35065.91
525.47	35262.51
525.64	35260.17
525.81	34948.88
525.98	35314.00
526.16	35283.58
526.33	34899.73
526.50	35622.95
526.67	35316.34
526.84	35393.58
527.01	35194.64
527.18	35037.82
527.36	35573.80
527.53	35988.08
527.70	35892.12
527.87	35952.97
528.04	35604.23
528.21	36088.72
528.38	35929.56
528.55	36074.68
528.72	36112.13
528.89	36072.34
529.07	36119.15
529.24	36397.67
529.41	36215.11
529.58	36400.01
529.75	36259.58
529.92	36622.36
530.09	36229.15
530.26	36755.77
530.43	36573.21
530.60	36236.17
530.77	36638.75
530.94	36800.24
531.11	36540.44
531.28	36608.32
531.46	36678.54
531.63	37017.91
531.80	36723.01
531.97	36648.11
532.14	36725.35
532.31	37015.57
532.48	37120.90
532.65	37256.65
532.82	37233.24
532.99	37329.20
533.16	36760.45
533.33	37256.65
533.50	37942.42
533.67	37666.24
533.84	37270.69
534.01	37694.33
534.18	37446.23
534.35	37525.81
534.52	37537.51
534.69	37837.10
534.86	37883.91
535.03	37872.21
535.20	38345.00
535.37	38450.32
535.54	38323.93
535.71	37902.64
535.88	38082.86
536.05	38019.66
536.22	37897.95
536.38	38609.48
536.55	38206.90
536.72	38272.44
536.89	38106.26
537.06	38382.45
537.23	38321.59
537.40	38323.93
537.57	38909.07
537.74	38164.78
537.91	38667.99
538.08	38871.62
538.25	38244.35
538.42	38113.28
538.59	38770.97
538.75	38541.60
538.92	38932.47
539.09	38899.70
539.26	39292.91
539.43	38703.10
539.60	39091.63
539.77	38660.97
539.94	39000.35
540.11	38749.91
540.28	39030.77
540.44	38941.83
540.61	39119.71
540.78	39196.95
540.95	39489.52
541.12	39349.09
541.29	39337.38
541.46	39405.26
541.62	39412.28
541.79	39807.83
541.96	38993.32
542.13	39096.31
542.30	39688.46
542.47	40348.50
542.63	39913.16
542.80	39995.07
542.97	39985.71
543.14	40402.33
543.31	40219.77
543.48	40130.83
543.64	40746.39
543.81	40566.16
543.98	40713.62
544.15	40219.77
544.32	40474.88
544.48	40800.22
544.65	40662.13
544.82	40264.24
544.99	40215.08
545.16	40786.18
545.32	40582.55
545.49	40620.00
545.66	40830.65
545.83	40921.93
546.00	41127.89
546.16	40378.92
546.33	40751.07
546.50	40048.91
546.67	41277.69
546.83	40807.24
547.00	40982.78
547.17	40821.28
547.34	40727.66
547.50	40971.08
547.67	41268.33
547.84	41060.02
548.00	41216.83
548.17	41666.22
548.34	41448.55
548.51	41588.98
548.67	41205.13
548.84	41532.81
549.01	41710.69
549.18	41104.49
549.34	41916.65
549.51	41904.95
549.68	42012.62
549.84	41596.00
550.01	41830.05
550.18	41661.54
550.34	41596.00
550.51	41481.31
550.68	41588.98
550.84	41263.64
551.01	41474.29
551.18	41825.37
551.34	42075.81
551.51	41764.52
551.68	42068.79
551.84	41652.17
552.01	41621.75
552.18	41577.28
552.34	41911.97
552.51	41886.23
552.68	41972.83
552.84	42471.36
553.01	42368.38
553.18	42445.62
553.34	42174.11
553.51	42211.56
553.67	42237.31
553.84	42682.01
554.01	42864.57
554.17	42651.58
554.34	42696.05
554.51	42307.52
554.67	42609.45
554.84	41928.36
555.00	42604.77
555.17	42169.43
555.33	42632.86
555.50	42770.95
555.67	42569.66
555.83	42752.23
556.00	42600.09
556.16	43276.51
556.33	42466.68
556.50	42466.68
556.66	42777.97
556.83	42864.57
556.99	42925.42
557.16	43173.52
557.32	42473.70
557.49	43402.89
557.65	42780.31
557.82	42965.21
557.98	42916.06
558.15	42934.79
558.32	43126.71
558.48	42443.27
558.65	42976.92
558.81	42939.47
558.98	43220.33
559.14	43075.22
559.31	43166.50
559.47	42747.54
559.64	43615.88
559.80	43512.90
559.97	43353.74
560.13	42918.40
560.30	42859.89
560.46	43178.20
560.63	43414.60
560.79	43309.27
560.96	43306.93
561.12	43122.03
561.29	43658.01
561.45	43126.71
561.61	43721.21
561.78	43255.44
561.94	43000.32
562.11	43306.93
562.27	43133.73
562.44	43398.21
562.60	43756.32
562.77	43817.17
562.93	43433.32
563.10	43697.80
563.26	42960.53
563.42	43814.83
563.59	43538.65
563.75	43583.12
563.92	43564.39
564.08	43395.87
564.24	43758.66
564.41	43555.03
564.57	43707.16
564.74	43849.94
564.90	43477.79
565.07	43426.30
565.23	43744.61
565.39	43899.09
565.56	44016.11
565.72	43903.77
565.88	44119.10
566.05	43683.76
566.21	43665.03
566.38	43856.96
566.54	43484.81
566.70	44250.17
566.87	44027.82
567.03	43973.98
567.19	44421.03
567.36	44212.72
567.52	44156.55
567.68	44165.91
567.85	43629.93
568.01	43718.87
568.17	43697.80
568.34	43594.82
568.50	44135.48
568.66	43447.36
568.83	43995.05
568.99	44222.08
569.15	44299.32
569.32	43695.46
569.48	43634.61
569.64	44194.00
569.81	44296.98
569.97	44011.43
570.13	44030.16
570.30	43533.96
570.46	43861.64
570.62	44116.76
570.78	44086.33
570.95	43660.35
571.11	44437.41
571.27	44032.50
571.43	44095.69
571.60	44184.63
571.76	44147.18
571.92	44112.08
572.09	44421.03
572.25	43945.90
572.41	44577.84
572.57	44615.29
572.74	44811.90
572.90	44500.61
573.06	44332.09
573.22	44460.82
573.38	44119.10
573.55	44247.83
573.71	44842.32
573.87	44299.32
574.03	43856.96
574.20	43674.40
574.36	44348.47
574.52	44406.98
574.68	43746.95
574.84	44638.70
575.01	44175.27
575.17	44273.57
575.33	44072.29
575.49	44091.01
575.65	44680.83
575.82	44655.08
575.98	44516.99
576.14	44561.46
576.30	44318.04
576.46	44093.35
576.62	44296.98
576.79	44268.89
576.95	43934.20
577.11	44390.60
577.27	44126.12
577.43	44357.83
577.59	44289.96
577.75	44414.01
577.92	43711.84
578.08	43934.20
578.24	44327.41
578.40	44605.93
578.56	44048.88
578.72	44451.45
578.88	44957.01
579.04	44334.43
579.21	43796.10
579.37	44612.95
579.53	44357.83
579.69	44100.37
579.85	44484.22
580.01	44114.42
580.17	44243.15
580.33	45263.62
580.49	44755.72
580.65	44374.22
580.82	44561.46
580.98	44226.76
581.14	44060.58
581.30	44484.22
581.46	44315.70
581.62	44598.91
581.78	44891.48
581.94	44708.91
582.10	44512.31
582.26	44247.83
582.42	44481.88
582.58	44458.48
582.74	43896.75
582.90	44968.71
583.06	44952.33
583.22	44795.51
583.38	44751.04
583.54	44856.37
583.70	44409.32
583.86	44701.89
584.02	44020.80
584.18	44938.29
584.34	44371.88
584.50	44851.69
584.66	44390.60
584.82	44636.36
584.98	44748.70
585.14	44439.75
585.30	44360.17
585.46	44882.11
585.62	44364.85
585.78	44563.80
585.94	44367.20
586.10	44538.05
586.26	44392.94
586.42	44821.26
586.58	44444.43
586.74	44507.63
586.90	44414.01
587.06	44421.03
587.22	44671.46
587.38	44102.71
587.54	44896.16
587.70	44556.78
587.86	44652.74
588.02	44535.71
588.18	44655.08
588.34	44706.57
588.49	44364.85
588.65	44191.65
588.81	44163.57
588.97	44500.61
589.13	44720.62
589.29	44912.54
589.45	44767.43
589.61	44835.30
589.77	44877.43
589.93	44837.64
590.08	44863.39
590.24	44865.73
590.40	44626.99
