SpectraSuite Data File
++++++++++++++++++++++++++++++++++++
Date: Fri Oct 25 11:33:50 EDT 2013
User: price-jones
Dark Spectrum Present: No
Reference Spectrum Present: No
Number of Sampled Component Spectra: 1
Spectrometers: USB2+H05261
Integration Time (usec): 100000 (USB2+H05261)
Spectra Averaged: 1 (USB2+H05261)
Boxcar Smoothing: 0 (USB2+H05261)
Correct for Electrical Dark: No (USB2+H05261)
Strobe/Lamp Enabled: No (USB2+H05261)
Correct for Detector Non-linearity: No (USB2+H05261)
Correct for Stray Light: No (USB2+H05261)
Number of Pixels in Processed Spectrum: 2048
>>>>>Begin Processed Spectral Data<<<<<
365.73	266.82
365.92	266.82
366.12	266.82
366.32	145.11
366.52	217.67
366.72	135.75
366.91	182.56
367.11	208.31
367.31	227.03
367.51	142.77
367.70	152.13
367.90	126.39
368.10	128.73
368.30	180.22
368.49	147.45
368.69	159.16
368.89	255.12
369.09	187.24
369.28	255.12
369.48	198.95
369.68	184.90
369.87	187.24
370.07	231.71
370.27	299.59
370.47	313.63
370.66	411.93
370.86	543.00
371.06	592.16
371.25	559.39
371.45	472.79
371.65	594.50
371.84	578.11
372.04	552.37
372.24	554.71
372.44	615.56
372.63	535.98
372.83	557.05
373.03	596.84
373.22	601.52
373.42	655.35
373.62	631.94
373.81	613.22
374.01	678.76
374.21	709.18
374.40	737.27
374.60	601.52
374.79	657.69
374.99	638.97
375.19	645.99
375.38	734.93
375.58	645.99
375.78	791.10
375.97	641.31
376.17	650.67
376.37	645.99
376.56	622.58
376.76	718.54
376.95	578.11
377.15	674.07
377.35	678.76
377.54	727.91
377.74	681.10
377.93	706.84
378.13	655.35
378.33	720.88
378.52	669.39
378.72	727.91
378.91	709.18
379.11	732.59
379.31	746.63
379.50	732.59
379.70	699.82
379.89	702.16
380.09	716.20
380.28	774.72
380.48	718.54
380.68	643.65
380.87	774.72
381.07	777.06
381.26	809.83
381.46	802.80
381.65	718.54
381.85	744.29
382.04	739.61
382.24	753.65
382.43	791.10
382.63	777.06
382.83	711.52
383.02	819.19
383.22	826.21
383.41	807.48
383.61	816.85
383.80	837.91
384.00	777.06
384.19	746.63
384.39	812.17
384.58	802.80
384.78	863.66
384.97	826.21
385.17	814.51
385.36	821.53
385.56	858.98
385.75	875.36
385.95	849.61
386.14	896.43
386.34	882.38
386.53	861.32
386.72	854.30
386.92	940.90
387.11	816.85
387.31	851.96
387.50	917.49
387.70	856.64
387.89	926.85
388.09	957.28
388.28	936.21
388.48	919.83
388.67	990.05
388.86	926.85
389.06	964.30
389.25	978.34
389.45	835.57
389.64	943.24
389.84	1086.01
390.03	992.39
390.22	1062.60
390.42	910.47
390.61	917.49
390.81	924.51
391.00	938.55
391.19	1015.79
391.39	936.21
391.58	931.53
391.78	1032.18
391.97	1004.09
392.16	1078.99
392.36	947.92
392.55	1090.69
392.75	1121.12
392.94	1069.62
393.13	1100.05
393.33	1025.15
393.52	1067.28
393.71	1100.05
393.91	1172.61
394.10	1097.71
394.29	1132.82
394.49	1039.20
394.68	1144.52
394.88	1128.14
395.07	1142.18
395.26	1146.86
395.46	1238.14
395.65	1203.04
395.84	1268.57
396.04	1181.97
396.23	1205.38
396.42	1186.65
396.62	1186.65
396.81	1231.12
397.00	1299.00
397.19	1174.95
397.39	1163.25
397.58	1181.97
397.77	1188.99
397.97	1263.89
398.16	1308.36
398.35	1301.34
398.55	1299.00
398.74	1263.89
398.93	1275.59
399.12	1306.02
399.32	1324.74
399.51	1338.79
399.70	1338.79
399.90	1238.14
400.09	1301.34
400.28	1430.07
400.47	1334.11
400.67	1416.02
400.86	1369.21
401.05	1357.51
401.24	1444.11
401.44	1537.73
401.63	1500.28
401.82	1387.94
402.01	1453.47
402.21	1497.94
402.40	1476.88
402.59	1497.94
402.78	1476.88
402.97	1568.16
403.17	1586.88
403.36	1577.52
403.55	1556.46
403.74	1624.33
403.93	1617.31
404.13	1596.25
404.32	1673.48
404.51	1680.50
404.70	1654.76
404.89	1629.01
405.09	1703.91
405.28	1657.10
405.47	1647.74
405.66	1654.76
405.85	1624.33
406.05	1832.64
406.24	1682.85
406.43	1774.13
406.62	1816.26
406.81	1755.40
407.00	1820.94
407.20	1741.36
407.39	1813.92
407.58	1729.66
407.77	1792.85
407.96	1956.69
408.15	1851.36
408.34	1799.87
408.54	1928.60
408.73	1916.90
408.92	1961.37
409.11	1900.52
409.30	1956.69
409.49	1928.60
409.68	1898.17
409.87	2003.50
410.07	2085.42
410.26	2087.76
410.45	2101.80
410.64	2092.44
410.83	2043.29
411.02	2047.97
411.21	2150.95
411.40	2136.91
411.59	2165.00
411.78	2134.57
411.98	2174.36
412.17	2223.51
412.36	2286.70
412.55	2352.24
412.74	2370.96
412.93	2267.98
413.12	2399.05
413.31	2499.69
413.50	2490.33
413.69	2544.16
413.88	2342.88
414.07	2513.74
414.26	2476.29
414.45	2539.48
414.64	2459.90
414.83	2700.98
415.02	2621.40
415.22	2668.21
415.41	2616.72
415.60	2679.91
415.79	2684.59
415.98	2761.83
416.17	2719.70
416.36	2677.57
416.55	2649.49
416.74	2682.25
416.93	2649.49
417.12	2712.68
417.31	2839.07
417.50	2883.54
417.69	2949.08
417.88	2928.01
418.07	2902.26
418.26	2949.08
418.45	2998.23
418.64	3143.34
418.83	3054.40
419.02	3012.27
419.21	3012.27
419.39	3087.17
419.58	2995.89
419.77	2979.50
419.96	3124.62
420.15	3105.89
420.34	3166.74
420.53	3136.32
420.72	3199.51
420.91	3232.28
421.10	3295.47
421.29	3328.24
421.48	3307.18
421.67	3311.86
421.86	3290.79
422.05	3361.01
422.24	3220.58
422.43	3337.60
422.61	3393.78
422.80	3318.88
422.99	3335.26
423.18	3211.22
423.37	3440.59
423.56	3384.41
423.75	3405.48
423.94	3283.77
424.13	3183.13
424.32	3225.26
424.50	3431.23
424.69	3648.90
424.88	3433.57
425.07	3337.60
425.26	3442.93
425.45	3353.99
425.64	3283.77
425.83	3463.99
426.01	3538.89
426.20	3300.16
426.39	3527.19
426.58	3445.27
426.77	3452.29
426.96	3454.63
427.15	3566.98
427.33	3482.72
427.52	3410.16
427.71	3648.90
427.90	3606.77
428.09	3686.34
428.28	3559.95
428.46	3674.64
428.65	3653.58
428.84	3665.28
429.03	3765.92
429.22	3707.41
429.40	3698.05
429.59	3702.73
429.78	3674.64
429.97	3672.30
430.16	3822.09
430.34	3878.27
430.53	3920.40
430.72	3852.52
430.91	3878.27
431.10	3805.71
431.28	3892.31
431.47	3838.48
431.66	4030.40
431.85	3904.01
432.03	4011.68
432.22	4067.85
432.41	4105.30
432.60	4128.70
432.79	4147.43
432.97	4079.55
433.16	3978.91
433.35	4149.77
433.54	4255.09
433.72	4177.86
433.91	4140.41
434.10	4236.37
434.28	4201.26
434.47	4280.84
434.66	4355.74
434.85	4255.09
435.03	4250.41
435.22	4365.10
435.41	4432.97
435.59	4526.60
435.78	4528.94
435.97	4428.29
436.16	4344.03
436.34	4322.97
436.53	4409.57
436.72	4641.28
436.90	4386.16
437.09	4400.21
437.28	4496.17
437.46	4545.32
437.65	4573.41
437.84	4716.18
438.02	4709.16
438.21	4685.75
438.40	4561.70
438.58	4741.93
438.77	4896.40
438.96	4648.30
439.14	4849.59
439.33	4961.94
439.52	4854.27
439.70	4961.94
439.89	4966.62
440.08	5022.79
440.26	4959.60
440.45	5025.13
440.63	5020.45
440.82	5195.99
441.01	5097.69
441.19	5268.55
441.38	5291.95
441.57	5191.31
441.75	5406.64
441.94	5411.32
442.12	5518.98
442.31	5554.09
442.50	5401.96
442.68	5416.00
442.87	5453.45
443.05	5437.06
443.24	5530.69
443.43	5397.28
443.61	5666.44
443.80	5654.73
443.98	5542.39
444.17	5303.65
444.35	5631.33
444.54	5795.17
444.73	5659.42
444.91	5795.17
445.10	5640.69
445.28	5724.95
445.47	5586.86
445.65	5516.64
445.84	5664.10
446.02	5671.12
446.21	5575.16
446.39	5542.39
446.58	5694.52
446.77	5900.49
446.95	5507.28
447.14	5668.78
447.32	5832.62
447.51	5610.26
447.69	5717.93
447.88	5825.59
448.06	5811.55
448.25	5729.63
448.43	5792.83
448.62	5902.83
448.80	5856.02
448.99	6024.54
449.17	5776.44
449.36	5919.21
449.54	5963.68
449.73	5949.64
449.91	6043.26
450.10	6043.26
450.28	6211.78
450.46	6200.08
450.65	5966.03
450.83	6024.54
451.02	6115.82
451.20	6090.07
451.39	6167.31
451.57	6118.16
451.76	6085.39
451.94	6092.41
452.13	6150.93
452.31	6216.46
452.49	6085.39
452.68	6345.19
452.86	6286.68
453.05	6359.24
453.23	6469.24
453.42	6384.98
453.60	6267.95
453.78	6434.13
453.97	6328.81
454.15	6621.38
454.34	6345.19
454.52	6459.88
454.70	6518.39
454.89	6494.99
455.07	6396.68
455.26	6574.56
455.44	6789.89
455.62	6590.95
455.81	6532.44
455.99	6698.61
456.17	6712.66
456.36	6689.25
456.54	6960.75
456.73	6878.83
456.91	7145.66
457.09	7096.50
457.28	7183.10
457.46	6977.14
457.64	7124.59
457.83	7021.61
458.01	7049.69
458.19	7330.56
458.38	7140.97
458.56	7213.53
458.74	7157.36
458.93	7229.91
459.11	7321.20
459.29	7314.17
459.48	7232.26
459.66	7309.49
459.84	7375.03
460.03	7424.18
460.21	7288.43
460.39	7510.78
460.57	7569.29
460.76	7499.08
460.94	7447.58
461.12	7393.75
461.31	7454.61
461.49	7358.64
461.67	7534.18
461.85	7651.21
462.04	7531.84
462.22	8004.63
462.40	7819.73
462.59	7763.56
462.77	7667.60
462.95	7810.37
463.13	7737.81
463.32	7623.12
463.50	7868.88
463.68	7861.86
463.86	8159.11
464.05	7775.26
464.23	7908.67
464.41	8002.29
464.59	7878.24
464.78	8056.12
464.96	8051.44
465.14	7779.94
465.32	8154.43
465.50	8023.36
465.69	8030.38
465.87	7915.69
466.05	8315.92
466.23	8023.36
466.41	8084.21
466.60	8217.62
466.78	8173.15
466.96	8147.40
467.14	8177.83
467.32	8325.29
467.51	8416.57
467.69	8079.53
467.87	8290.18
468.05	8477.42
468.23	8231.66
468.41	8395.50
468.60	8341.67
468.78	8601.47
468.96	8407.20
469.14	8465.72
469.32	8564.02
469.50	8463.38
469.69	8704.45
469.87	8629.56
470.05	8561.68
470.23	8636.58
470.41	8688.07
470.59	8931.48
470.77	8830.84
470.95	8674.03
471.14	9057.87
471.32	8664.66
471.50	8933.82
471.68	9062.55
471.86	9231.07
472.04	9193.62
472.22	9245.12
472.40	9146.81
472.58	9195.96
472.77	9558.75
472.95	9397.25
473.13	9488.53
473.31	9181.92
473.49	9350.44
473.67	9394.91
473.85	9418.32
474.03	9827.91
474.21	9745.99
474.39	9600.88
474.57	9598.54
474.75	9778.76
474.93	10019.83
475.12	9937.91
475.30	9879.40
475.48	9902.81
475.66	10010.47
475.84	10012.81
476.02	10256.23
476.20	10310.06
476.38	10473.90
476.56	10436.45
476.74	10487.94
476.92	10443.47
477.10	10429.43
477.28	10640.08
477.46	10684.55
477.64	10532.41
477.82	10988.82
478.00	11005.20
478.18	11016.90
478.36	11066.05
478.54	11358.62
478.72	11454.58
478.90	11496.71
479.08	11353.94
479.26	11506.07
479.44	11805.66
479.62	11562.25
479.80	11913.33
479.98	11971.84
480.16	12400.16
480.34	11983.54
480.52	12198.87
480.70	12189.51
480.88	11971.84
481.06	12629.53
481.24	12343.99
481.41	12676.34
481.59	12807.41
481.77	12664.64
481.95	12461.01
482.13	13062.53
482.31	12823.80
482.49	13195.94
482.67	13317.65
482.85	13371.48
483.03	13465.10
483.21	13516.59
483.39	13682.77
483.57	13703.84
483.74	13853.63
483.92	13792.78
484.10	13841.93
484.28	13970.66
484.46	14516.00
484.64	14850.70
484.82	14216.41
485.00	14483.24
485.18	14806.23
485.35	14768.78
485.53	15349.23
485.71	15063.69
485.89	15257.95
486.07	15440.51
486.25	15400.72
486.43	15447.54
486.61	15433.49
486.78	15571.58
486.96	16013.95
487.14	15758.83
487.32	16219.91
487.50	16304.17
487.68	16439.92
487.85	16578.01
488.03	16517.16
488.21	16966.54
488.39	16865.90
488.57	17099.95
488.75	17144.42
488.92	17420.61
489.10	17495.50
489.28	17525.93
489.46	17701.47
489.64	17767.01
489.81	18078.30
489.99	18209.37
490.17	18029.15
490.35	18520.66
490.53	18490.23
490.70	18471.51
490.88	18356.82
491.06	19000.47
491.24	18944.30
491.41	18881.10
491.59	19304.74
491.77	18972.38
491.95	19176.01
492.13	19447.51
492.30	19695.61
492.48	19686.25
492.66	19775.19
492.84	20121.59
493.01	20105.20
493.19	20229.25
493.37	20379.04
493.54	20383.73
493.72	20510.11
493.90	20610.76
494.08	20744.17
494.25	20840.13
494.43	21078.86
494.61	20870.56
494.79	21553.99
494.96	21280.15
495.14	21743.58
495.32	21694.43
495.49	21645.27
495.67	21757.62
495.85	22171.89
496.02	22108.70
496.20	22251.47
496.38	21916.78
496.55	22424.67
496.73	22890.44
496.91	22576.81
497.09	22916.19
497.26	22878.74
497.44	23337.48
497.62	22864.69
497.79	23374.93
497.97	23166.62
498.14	23564.51
498.32	23506.00
498.50	23473.23
498.67	23899.21
498.85	23749.42
499.03	23744.73
499.20	24421.15
499.38	23672.18
499.56	24273.70
499.73	24456.26
499.91	24283.06
500.08	24706.70
500.26	24334.55
500.44	24748.82
500.61	24828.40
500.79	24620.10
500.97	24971.18
501.14	25518.86
501.32	25326.94
501.49	25212.25
501.67	25565.67
501.84	25795.04
502.02	25315.23
502.20	25439.28
502.37	25853.56
502.55	25553.97
502.72	26066.55
502.90	25895.69
503.07	25942.50
503.25	25766.96
503.43	25764.62
503.60	26328.69
503.78	26024.42
503.95	26387.20
504.13	26387.20
504.30	26609.55
504.48	27026.17
504.65	26583.80
504.83	26682.11
505.01	27147.87
505.18	26639.98
505.36	26806.16
505.53	26836.58
505.71	27269.58
505.88	27665.13
506.06	27463.85
506.23	27676.83
506.41	27353.84
506.58	27725.99
506.76	27658.11
506.93	27653.43
507.11	27988.13
507.28	27882.80
507.46	27850.03
507.63	28308.78
507.81	28460.91
507.98	27990.47
508.16	28325.16
508.33	28280.69
508.50	28491.34
508.68	28725.39
508.85	28669.22
509.03	29027.32
509.20	28793.27
509.38	29230.95
509.55	29310.53
509.73	29144.35
509.90	29640.54
510.08	29357.34
510.25	29558.63
510.42	29528.20
510.60	29806.72
510.77	29408.83
510.95	30094.61
511.12	29715.44
511.30	29427.56
511.47	29972.90
511.64	29830.13
511.82	30265.47
511.99	30190.57
512.17	30335.68
512.34	30333.34
512.51	30768.68
512.69	30888.05
512.86	30698.47
513.04	30815.49
513.21	30728.89
513.38	31089.34
513.56	31314.03
513.73	31150.19
513.90	31000.40
514.08	30967.63
514.25	31234.45
514.43	31737.66
514.60	31374.88
514.77	31784.48
514.95	31887.46
515.12	31569.15
515.29	31777.45
515.47	32086.40
515.64	31990.44
515.81	31756.39
515.99	31854.69
516.16	32446.85
516.33	32002.14
516.51	31995.12
516.68	31859.37
516.85	32198.75
517.03	32542.81
517.20	32711.33
517.37	32809.63
517.54	32566.21
517.72	32601.32
517.89	32664.52
518.06	33390.08
518.24	32910.27
518.41	33053.05
518.58	33172.41
518.75	33022.62
518.93	33022.62
519.10	33181.77
519.27	33312.84
519.45	33535.20
519.62	33787.97
519.79	33741.16
519.96	33652.22
520.14	33385.40
520.31	33280.08
520.48	33696.69
520.65	33645.20
520.83	34455.03
521.00	34195.23
521.17	34380.13
521.34	34263.10
521.52	34101.61
521.69	34326.30
521.86	35112.72
522.03	34464.39
522.20	34740.57
522.38	35012.07
522.55	34574.39
522.72	34836.53
522.89	35150.17
523.07	35590.19
523.24	35243.79
523.41	35218.04
523.58	35187.61
523.75	35653.38
523.92	35597.21
524.10	35442.73
524.27	35917.86
524.44	35335.07
524.61	35555.08
524.78	35899.14
524.96	35676.79
525.13	35798.49
525.30	36215.11
525.47	35927.22
525.64	36158.94
525.81	35842.96
525.98	36086.38
526.16	35934.24
526.33	35913.18
526.50	36336.82
526.67	36177.66
526.84	36488.95
527.01	36500.65
527.18	36720.66
527.36	36484.27
527.53	36879.82
527.70	36823.65
527.87	37116.22
528.04	36708.96
528.21	36985.15
528.38	36921.95
528.55	36940.68
528.72	36961.74
528.89	37354.95
529.07	37106.85
529.24	36774.50
529.41	37242.60
529.58	37310.48
529.75	37116.22
529.92	37251.97
530.09	37331.54
530.26	37441.55
530.43	37474.32
530.60	37504.74
530.77	37509.43
530.94	37448.57
531.11	37284.73
531.28	37308.14
531.46	37687.31
531.63	37958.81
531.80	37771.57
531.97	38349.68
532.14	38085.20
532.31	37919.02
532.48	38644.59
532.65	38007.96
532.82	38347.34
532.99	38312.23
533.16	38539.26
533.33	38597.77
533.50	38307.55
533.67	38490.11
533.84	38506.49
534.01	38600.12
534.18	38768.63
534.35	39100.99
534.52	38768.63
534.69	39051.84
534.86	39484.84
535.03	39145.46
535.20	39421.64
535.37	39639.31
535.54	39220.36
535.71	39182.91
535.88	39002.69
536.05	39608.89
536.22	39690.80
536.38	39395.90
536.55	39332.70
536.72	39028.43
536.89	39948.26
537.06	39744.64
537.23	39917.84
537.40	39651.02
537.57	40058.27
537.74	39489.52
537.91	39739.96
538.08	40074.65
538.25	39873.37
538.42	40060.61
538.59	40046.57
538.75	40112.10
538.92	40725.32
539.09	40645.74
539.26	40486.59
539.43	40313.39
539.60	40460.84
539.77	40648.08
539.94	40507.65
540.11	40563.82
540.28	41064.70
540.44	40783.83
540.61	40332.11
540.78	40587.23
540.95	40559.14
541.12	40954.69
541.29	40914.90
541.46	40772.13
541.62	41244.92
541.79	41036.61
541.96	40704.26
542.13	40648.08
542.30	41106.83
542.47	41698.98
542.63	41240.24
542.80	41457.91
542.97	41642.81
543.14	41549.19
543.31	41427.48
543.48	41343.22
543.64	41918.99
543.81	41993.89
543.98	41930.70
544.15	42045.38
544.32	41834.74
544.48	42094.53
544.65	42337.95
544.82	42167.09
544.99	42099.22
545.16	42019.64
545.32	42117.94
545.49	42511.15
545.66	42782.65
545.83	42513.49
546.00	42995.64
546.16	42171.77
546.33	41947.08
546.50	42092.19
546.67	42965.21
546.83	41989.21
547.00	42019.64
547.17	42370.72
547.34	42609.45
547.50	43028.41
547.67	43175.86
547.84	42600.09
548.00	42981.60
548.17	43342.04
548.34	43138.41
548.51	43501.20
548.67	43346.72
548.84	43253.10
549.01	43056.50
549.18	43236.72
549.34	43182.88
549.51	43136.07
549.68	43590.14
549.84	43131.39
550.01	43217.99
550.18	43428.64
550.34	42993.30
550.51	43297.57
550.68	43349.06
550.84	43278.85
551.01	43793.76
551.18	43564.39
551.34	43107.99
551.51	44023.14
551.68	43625.25
551.84	43423.96
552.01	43449.70
552.18	43742.27
552.34	43430.98
552.51	43426.30
552.68	43629.93
552.84	43882.70
553.01	44498.26
553.18	44093.35
553.34	44526.35
553.51	43807.81
553.67	43938.88
553.84	43945.90
554.01	44629.34
554.17	44292.30
554.34	44311.02
554.51	44238.47
554.67	45045.95
554.84	44341.45
555.00	43936.54
555.17	44411.67
555.33	44514.65
555.50	44287.62
555.67	44818.92
555.83	44795.51
556.00	44357.83
556.16	44966.37
556.33	44744.02
556.50	44790.83
556.66	44498.26
556.83	44568.48
556.99	44851.69
557.16	44882.11
557.32	44959.35
557.49	44914.88
557.65	44959.35
557.82	45275.32
557.98	45031.91
558.15	44933.60
558.32	44905.52
558.48	45155.96
558.65	45041.27
558.81	45205.11
558.98	45024.89
559.14	44847.00
559.31	45151.27
559.47	45219.15
559.64	44842.32
559.80	45429.80
559.97	45198.09
560.13	44947.65
560.30	45530.44
560.46	45652.15
560.63	45380.65
560.79	45832.37
560.96	45595.98
561.12	45610.02
561.29	45535.12
561.45	45469.59
561.61	45698.96
561.78	45188.72
561.94	45584.27
562.11	45518.74
562.27	45525.76
562.44	45214.47
562.60	45799.60
562.77	45750.45
562.93	45638.11
563.10	45895.56
563.26	45553.85
563.42	46366.01
563.59	45415.76
563.75	45750.45
563.92	45998.55
564.08	45605.34
564.24	45876.84
564.41	45701.30
564.57	45621.72
564.74	46377.72
564.90	45492.99
565.07	45638.11
565.23	45755.13
565.39	45984.51
565.56	46454.95
565.72	45954.08
565.88	46443.25
566.05	46288.77
566.21	45975.14
566.38	46005.57
566.54	46188.13
566.70	46014.93
566.87	46117.92
567.03	45911.95
567.19	46199.83
567.36	45759.81
567.52	46218.56
567.68	46167.07
567.85	46464.32
568.01	46635.17
568.17	46653.90
568.34	46225.58
568.50	46197.49
568.66	46138.98
568.83	46508.79
568.99	46080.47
569.15	46593.04
569.32	46396.44
569.48	46155.36
569.64	46969.87
569.81	46525.17
569.97	46267.71
570.13	46412.82
570.30	45897.91
570.46	46548.57
570.62	46726.46
570.78	46590.70
570.95	46602.41
571.11	46686.67
571.27	46256.01
571.43	46504.10
571.60	46663.26
571.76	46129.62
571.92	46593.04
572.09	46387.08
572.25	46415.16
572.41	46466.66
572.57	46665.60
572.74	46799.01
572.90	46440.91
573.06	46586.02
573.22	46490.06
573.38	47002.64
573.55	47093.92
573.71	47079.88
573.87	46670.28
574.03	46534.53
574.20	47124.35
574.36	47213.29
574.52	46829.44
574.68	47206.26
574.84	46770.93
575.01	47068.17
575.17	46932.42
575.33	46841.14
575.49	46618.79
575.65	46831.78
575.82	46799.01
575.98	46473.68
576.14	47112.64
576.30	47435.64
576.46	46644.54
576.62	46717.09
576.79	46813.05
576.95	46120.26
577.11	46600.07
577.27	46506.44
577.43	46784.97
577.59	46871.57
577.75	46499.42
577.92	46408.14
578.08	47061.15
578.24	46880.93
578.40	47061.15
578.56	46972.21
578.72	46969.87
578.88	47236.69
579.04	46976.89
579.21	46698.37
579.37	47086.90
579.53	47253.08
579.69	46621.13
579.85	46983.91
580.01	46990.94
580.17	46595.38
580.33	47220.31
580.49	47203.92
580.65	46960.51
580.82	47374.78
580.98	47154.77
581.14	46639.86
581.30	47023.70
581.46	46941.78
581.62	46773.27
581.78	46653.90
581.94	47377.12
582.10	46756.88
582.26	47456.70
582.42	47145.41
582.58	47203.92
582.74	46834.12
582.90	47035.41
583.06	47168.82
583.22	47269.46
583.38	47189.88
583.54	47012.00
583.70	47475.43
583.86	47241.37
584.02	46710.07
584.18	47510.53
584.34	47302.23
584.50	47248.39
584.66	47730.54
584.82	46904.34
584.98	47653.31
585.14	47559.69
585.30	47484.79
585.46	47419.25
585.62	47016.68
585.78	46932.42
585.94	47100.94
586.10	47552.66
586.26	47084.56
586.42	46756.88
586.58	47409.89
586.74	47189.88
586.90	47126.69
587.06	47180.52
587.22	47180.52
587.38	47365.42
587.54	47461.38
587.70	47819.49
587.86	47004.98
588.02	47058.81
588.18	47126.69
588.34	47356.06
588.49	47452.02
588.65	47063.49
588.81	47391.17
588.97	47489.47
589.13	47124.35
589.29	47445.00
589.45	47580.75
589.61	47765.65
589.77	47742.25
589.93	47320.95
590.08	47606.50
