SpectraSuite Data File
++++++++++++++++++++++++++++++++++++
Date: Fri Oct 25 11:25:51 EDT 2013
User: price-jones
Dark Spectrum Present: No
Reference Spectrum Present: No
Number of Sampled Component Spectra: 1
Spectrometers: USB2+H05261
Integration Time (usec): 100000 (USB2+H05261)
Spectra Averaged: 1 (USB2+H05261)
Boxcar Smoothing: 0 (USB2+H05261)
Correct for Electrical Dark: No (USB2+H05261)
Strobe/Lamp Enabled: No (USB2+H05261)
Correct for Detector Non-linearity: No (USB2+H05261)
Correct for Stray Light: No (USB2+H05261)
Number of Pixels in Processed Spectrum: 2048
>>>>>Begin Processed Spectral Data<<<<<
365.73	227.03
365.92	227.03
366.12	227.03
366.32	156.82
366.52	173.20
366.72	215.33
366.91	124.05
367.11	81.92
367.31	67.88
367.51	86.60
367.70	145.11
367.90	182.56
368.10	166.18
368.30	110.01
368.49	145.11
368.69	191.92
368.89	163.84
369.09	145.11
369.28	210.65
369.48	135.75
369.68	205.97
369.87	175.54
370.07	210.65
370.27	208.31
370.47	315.97
370.66	603.86
370.86	669.39
371.06	779.40
371.25	641.31
371.45	660.03
371.65	760.67
371.84	650.67
372.04	657.69
372.24	720.88
372.44	653.01
372.63	746.63
372.83	716.20
373.03	718.54
373.22	758.33
373.42	807.48
373.62	807.48
373.81	784.08
374.01	819.19
374.21	720.88
374.40	805.14
374.60	770.04
374.79	746.63
374.99	798.12
375.19	840.25
375.38	826.21
375.58	779.40
375.78	858.98
375.97	861.32
376.17	868.34
376.37	814.51
376.56	943.24
376.76	882.38
376.95	894.08
377.15	887.06
377.35	905.79
377.54	901.11
377.74	905.79
377.93	903.45
378.13	926.85
378.33	971.32
378.52	936.21
378.72	919.83
378.91	976.00
379.11	1013.45
379.31	1001.75
379.50	933.87
379.70	1008.77
379.89	1008.77
380.09	922.17
380.28	950.26
380.48	992.39
380.68	952.60
380.87	980.68
381.07	1004.09
381.26	1032.18
381.46	997.07
381.65	1022.81
381.85	1046.22
382.04	1011.11
382.24	1018.13
382.43	1212.40
382.63	1093.03
382.83	1064.94
383.02	1083.67
383.22	1149.20
383.41	1097.71
383.61	1100.05
383.80	1015.79
384.00	1067.28
384.19	1132.82
384.39	1188.99
384.58	1095.37
384.78	1224.10
384.97	1167.93
385.17	1212.40
385.36	1139.84
385.56	1203.04
385.75	1139.84
385.95	1142.18
386.14	1146.86
386.34	1207.72
386.53	1121.12
386.72	1179.63
386.92	1308.36
387.11	1252.19
387.31	1252.19
387.50	1259.21
387.70	1205.38
387.89	1280.27
388.09	1273.25
388.28	1329.42
388.48	1345.81
388.67	1364.53
388.86	1327.08
389.06	1310.70
389.25	1341.13
389.45	1324.74
389.64	1411.34
389.84	1409.00
390.03	1446.45
390.22	1401.98
390.42	1390.28
390.61	1392.62
390.81	1357.51
391.00	1406.66
391.19	1465.18
391.39	1432.41
391.58	1500.28
391.78	1472.20
391.97	1507.30
392.16	1476.88
392.36	1474.54
392.55	1561.14
392.75	1570.50
392.94	1504.96
393.13	1462.83
393.33	1561.14
393.52	1535.39
393.71	1540.07
393.91	1502.62
394.10	1575.18
394.29	1687.53
394.49	1589.22
394.68	1746.04
394.88	1624.33
395.07	1739.02
395.26	1666.46
395.46	1647.74
395.65	1750.72
395.84	1687.53
396.04	1755.40
396.23	1774.13
396.42	1755.40
396.62	1736.68
396.81	1888.81
397.00	1816.26
397.19	1715.61
397.39	1741.36
397.58	1764.76
397.77	1769.44
397.97	1893.49
398.16	1919.24
398.35	1914.56
398.55	1877.11
398.74	1912.22
398.93	1998.82
399.12	1879.45
399.32	1949.67
399.51	1968.39
399.70	1970.73
399.90	2026.90
400.09	1961.37
400.28	1977.75
400.47	1937.96
400.67	2059.67
400.86	2019.88
401.05	2099.46
401.24	2050.31
401.44	2120.53
401.63	2066.69
401.82	2214.15
402.01	2099.46
402.21	2221.17
402.40	2176.70
402.59	2136.91
402.78	2267.98
402.97	2167.34
403.17	2214.15
403.36	2253.94
403.55	2279.68
403.74	2459.90
403.93	2326.49
404.13	2476.29
404.32	2380.32
404.51	2352.24
404.70	2361.60
404.89	2359.26
405.09	2506.71
405.28	2394.37
405.47	2516.08
405.66	2530.12
405.85	2478.63
406.05	2492.67
406.24	2527.78
406.43	2487.99
406.62	2633.10
406.81	2590.97
407.00	2593.31
407.20	2534.80
407.39	2555.86
407.58	2684.59
407.77	2724.38
407.96	2738.43
408.15	2738.43
408.34	2724.38
408.54	2789.92
408.73	2787.58
408.92	2764.17
409.11	2857.79
409.30	2794.60
409.49	2984.18
409.68	2841.41
409.87	2970.14
410.07	2979.50
410.26	3014.61
410.45	3030.99
410.64	2916.31
410.83	3094.19
411.02	3066.10
411.21	3169.09
411.40	3152.70
411.59	3183.13
411.78	3192.49
411.98	3283.77
412.17	3339.94
412.36	3222.92
412.55	3246.32
412.74	3398.46
412.93	3363.35
413.12	3398.46
413.31	3536.55
413.50	3506.12
413.69	3515.48
413.88	3503.78
414.07	3548.25
414.26	3599.74
414.45	3705.07
414.64	3707.41
414.83	3674.64
415.02	3765.92
415.22	3868.91
415.41	3833.80
415.60	3880.61
415.79	3978.91
415.98	4002.32
416.17	3999.98
416.36	3955.51
416.55	3985.93
416.74	4053.81
416.93	3978.91
417.12	4217.65
417.31	4238.71
417.50	4161.47
417.69	4304.25
417.88	4140.41
418.07	4369.78
418.26	4166.15
418.45	4404.89
418.64	4456.38
418.83	4402.55
419.02	4407.23
419.21	4482.13
419.39	4540.64
419.58	4489.15
419.77	4432.97
419.96	4557.02
420.15	4585.11
420.34	4545.32
420.53	4566.39
420.72	4772.35
420.91	4695.11
421.10	4755.97
421.29	4727.88
421.48	4758.31
421.67	4709.16
421.86	4844.91
422.05	4718.52
422.24	4835.55
422.43	4791.08
422.61	4933.85
422.80	4905.76
422.99	4950.23
423.18	4910.44
423.37	5027.47
423.56	4840.23
423.75	4830.87
423.94	4770.01
424.13	4713.84
424.32	4718.52
424.50	4861.29
424.69	5090.67
424.88	4947.89
425.07	5060.24
425.26	4898.74
425.45	4983.00
425.64	4947.89
425.83	4844.91
426.01	5107.05
426.20	5078.96
426.39	5006.41
426.58	5034.49
426.77	4994.70
426.96	5151.52
427.15	5067.26
427.33	5259.18
427.52	5144.50
427.71	5228.76
427.90	5181.95
428.09	5387.91
428.28	5434.72
428.46	5259.18
428.65	5289.61
428.84	5621.97
429.03	5481.53
429.22	5406.64
429.40	5495.58
429.59	5294.29
429.78	5404.30
429.97	5296.63
430.16	5315.36
430.34	5659.42
430.53	5650.05
430.72	5783.46
430.91	5776.44
431.10	5713.25
431.28	5760.06
431.47	5729.63
431.66	5799.85
431.85	5617.29
432.03	5813.89
432.22	6090.07
432.41	5912.19
432.60	5912.19
432.79	6073.69
432.97	6038.58
433.16	5980.07
433.35	5888.79
433.54	5919.21
433.72	6054.97
433.91	6003.47
434.10	6001.13
434.28	6211.78
434.47	6209.44
434.66	6356.90
434.85	6256.25
435.03	6277.32
435.22	6136.88
435.41	6499.67
435.59	6487.96
435.78	6326.47
435.97	6443.49
436.16	6516.05
436.34	6293.70
436.53	6520.73
436.72	6546.48
436.90	6523.07
437.09	6857.77
437.28	6427.11
437.46	6562.86
437.65	6654.14
437.84	6733.72
438.02	6829.68
438.21	6850.75
438.40	6766.49
438.58	6890.54
438.77	7021.61
438.96	6993.52
439.14	7183.10
439.33	7063.74
439.52	7222.89
439.70	7243.96
439.89	7372.69
440.08	7339.92
440.26	7297.79
440.45	7449.93
440.63	7529.50
440.82	7662.91
441.01	7363.33
441.19	7552.91
441.38	7765.90
441.57	7517.80
441.75	7873.56
441.94	7992.93
442.12	7997.61
442.31	8039.74
442.50	7866.54
442.68	7761.22
442.87	8159.11
443.05	7948.46
443.24	8002.29
443.43	8215.28
443.61	8140.38
443.80	8329.97
443.98	8095.91
444.17	7878.24
444.35	8196.56
444.54	8369.76
444.73	8322.94
444.91	8201.24
445.10	8444.65
445.28	8334.65
445.47	8241.03
445.65	8315.92
445.84	8475.08
446.02	8599.13
446.21	8526.57
446.39	8365.07
446.58	8489.12
446.77	8428.27
446.95	8425.93
447.14	8318.26
447.32	8521.89
447.51	8645.94
447.69	8491.46
447.88	8606.15
448.06	8374.44
448.25	8608.49
448.43	8568.70
448.62	8470.40
448.80	8739.56
448.99	8865.95
449.17	8851.91
449.36	8418.91
449.54	8758.28
449.73	9097.66
449.91	8947.87
450.10	8964.25
450.28	9123.41
450.46	9137.45
450.65	8929.14
450.83	9104.68
451.02	9011.06
451.20	9100.00
451.39	9249.80
451.57	9135.11
451.76	8938.51
451.94	9193.62
452.13	9355.12
452.31	9252.14
452.49	9109.36
452.68	9561.09
452.86	9434.70
453.05	9411.29
453.23	9516.62
453.42	9401.93
453.60	9252.14
453.78	9673.43
453.97	9479.17
454.15	9322.35
454.34	9472.15
454.52	9724.93
454.70	9703.86
454.89	9593.86
455.07	9745.99
455.26	9774.08
455.44	9771.74
455.62	9825.57
455.81	9982.38
455.99	10186.01
456.17	9996.43
456.36	9900.47
456.54	10176.65
456.73	10225.80
456.91	10408.36
457.09	10513.69
457.28	10523.05
457.46	10473.90
457.64	10260.91
457.83	10326.44
458.01	10501.98
458.19	10778.17
458.38	10368.57
458.56	10829.66
458.74	10523.05
458.93	10539.43
459.11	10630.71
459.29	10616.67
459.48	10960.73
459.66	10736.04
459.84	10974.77
460.03	11105.84
460.21	11026.26
460.39	10963.07
460.57	10963.07
460.76	11201.80
460.94	11166.70
461.12	11260.32
461.31	11143.29
461.49	11000.52
461.67	11103.50
461.85	11363.30
462.04	11332.87
462.22	11779.92
462.40	11716.72
462.59	11297.77
462.77	11482.67
462.95	11538.84
463.13	11407.77
463.32	11698.00
463.50	11683.95
463.68	11803.32
463.86	11639.48
464.05	11779.92
464.23	11709.70
464.41	11995.25
464.59	11658.21
464.78	11903.96
464.96	11983.54
465.14	11857.15
465.32	12058.44
465.50	12191.85
465.69	12002.27
465.87	12262.07
466.05	11838.43
466.23	12063.12
466.41	12154.40
466.60	12348.67
466.78	12224.62
466.96	12154.40
467.14	12018.65
467.32	12573.36
467.51	12456.33
467.69	12189.51
467.87	12594.42
468.05	12737.20
468.23	12390.80
468.41	12416.54
468.60	12720.81
468.78	12524.21
468.96	12690.38
469.14	12674.00
469.32	13025.08
469.50	12566.34
469.69	13114.02
469.87	13085.94
470.05	13015.72
470.23	13174.88
470.41	13357.44
470.59	13238.07
470.77	13195.94
470.95	13242.75
471.14	13516.59
471.32	13102.32
471.50	13685.11
471.68	13596.17
471.86	13692.13
472.04	13689.79
472.22	13886.40
472.40	13743.63
472.58	13928.53
472.77	13888.74
472.95	14085.34
473.13	14607.28
473.31	14003.43
473.49	14075.98
473.67	14115.77
473.85	14139.18
474.03	14679.84
474.21	14647.07
474.39	14579.20
474.57	14476.21
474.75	14939.64
474.93	15257.95
475.12	15098.80
475.30	15309.44
475.48	14918.57
475.66	15082.41
475.84	14906.87
476.02	15220.50
476.20	15597.33
476.38	15700.31
476.56	15974.16
476.74	15950.75
476.92	15726.06
477.10	15754.15
477.28	15840.75
477.46	16130.97
477.64	16145.02
477.82	16437.58
478.00	16800.37
478.18	16863.56
478.36	17062.51
478.54	17341.03
478.72	17207.62
478.90	17184.21
479.08	17731.90
479.26	17708.49
479.44	17905.10
479.62	17514.23
479.80	18342.78
479.98	17998.72
480.16	18766.42
480.34	18139.15
480.52	18445.76
480.70	18644.71
480.88	18490.23
481.06	18284.26
481.24	18691.52
481.41	18773.44
481.59	19447.51
481.77	19669.86
481.95	19599.65
482.13	19606.67
482.31	19475.60
482.49	20362.66
482.67	20196.48
482.85	20563.95
483.03	20606.08
483.21	20498.41
483.39	21095.25
483.57	20596.71
483.74	21088.23
483.92	21202.91
484.10	21163.12
484.28	21678.04
484.46	21799.75
484.64	22511.27
484.82	22094.66
485.00	22340.41
485.18	22616.60
485.35	23051.94
485.53	22562.76
485.71	23248.54
485.89	23517.70
486.07	23070.66
486.25	23330.46
486.43	23250.88
486.61	23803.25
486.78	24245.61
486.96	24254.97
487.14	24819.04
487.32	24706.70
487.50	24641.16
487.68	24823.72
487.85	24980.54
488.03	25544.61
488.21	25563.33
488.39	25818.45
488.57	25895.69
488.75	26527.63
488.92	26235.06
489.10	26682.11
489.28	26742.96
489.46	27009.78
489.64	27075.32
489.81	27438.10
489.99	27667.47
490.17	27920.25
490.35	28322.82
490.53	28481.98
490.70	28329.84
490.88	28240.90
491.06	28669.22
491.24	28882.21
491.41	28945.41
491.59	29408.83
491.77	29137.33
491.95	29610.12
492.13	29631.18
492.30	30094.61
492.48	29869.92
492.66	30298.23
492.84	30171.85
493.01	30651.66
493.19	30595.48
493.37	30843.58
493.54	31075.29
493.72	31318.71
493.90	31463.82
494.08	31716.60
494.25	31981.08
494.43	31688.51
494.61	32423.44
494.79	32538.13
494.96	32268.97
495.14	32524.08
495.32	32933.68
495.49	33158.37
495.67	33251.99
495.85	33022.62
496.02	34057.14
496.20	34085.22
496.38	33972.88
496.55	34162.46
496.73	34689.08
496.91	34396.51
497.09	35019.10
497.26	34665.67
497.44	34775.68
497.62	35316.34
497.79	35723.60
497.97	35292.94
498.14	35461.46
498.32	36275.96
498.50	36191.70
498.67	36191.70
498.85	36222.13
499.03	37141.96
499.20	36608.32
499.38	37057.70
499.56	37071.75
499.73	37013.23
499.91	37097.49
500.08	37497.72
500.26	37352.61
500.44	37399.42
500.61	37759.86
500.79	37703.69
500.97	37682.62
501.14	38249.03
501.32	38548.62
501.49	38480.75
501.67	38352.02
501.84	39063.54
502.02	39023.75
502.20	38918.43
502.37	38902.04
502.55	38972.26
502.72	39241.42
502.90	39498.88
503.07	39475.48
503.25	39732.93
503.43	39646.33
503.60	40091.04
503.78	40023.16
503.95	40418.71
504.13	40355.52
504.30	40517.01
504.48	40140.19
504.65	40907.88
504.83	40914.90
505.01	41123.21
505.18	40903.20
505.36	41701.32
505.53	41148.96
505.71	41572.60
505.88	41750.48
506.06	41544.51
506.23	42073.47
506.41	41617.07
506.58	41748.14
506.76	42080.49
506.93	42623.50
507.11	42344.97
507.28	43105.65
507.46	42773.29
507.63	42862.23
507.81	43140.75
507.98	42593.07
508.16	43264.80
508.33	42895.00
508.50	43292.89
508.68	43711.84
508.85	43896.75
509.03	43681.42
509.20	44013.77
509.38	44538.05
509.55	44240.81
509.73	44610.61
509.90	44472.52
510.08	44512.31
510.25	44718.28
510.42	44690.19
510.60	45013.18
510.77	45057.65
510.95	45125.53
511.12	45001.48
511.30	44856.37
511.47	45226.17
511.64	45682.58
511.82	46036.00
511.99	45801.94
512.17	45710.66
512.34	45909.61
512.51	46358.99
512.69	45975.14
512.86	46246.65
513.04	46651.56
513.21	46529.85
513.38	46913.70
513.56	46689.01
513.73	46960.51
513.90	46689.01
514.08	46997.96
514.25	47236.69
514.43	47430.96
514.60	47306.91
514.77	47613.52
514.95	47641.60
515.12	47657.99
515.29	47917.79
515.47	48020.77
515.64	48306.32
515.81	47739.91
515.99	48687.82
516.16	48467.81
516.33	48465.47
516.51	48306.32
516.68	48224.40
516.85	48013.75
517.03	48858.68
517.20	48910.17
517.37	48877.41
517.54	48781.45
517.72	49038.90
517.89	49193.38
518.06	49282.32
518.24	49305.73
518.41	49329.13
518.58	49471.90
518.75	49476.58
518.93	49279.98
519.10	49450.84
519.27	49602.97
519.45	49748.09
519.62	49701.28
519.79	50153.00
519.96	49633.40
520.14	50241.94
520.31	49839.37
520.48	50298.11
520.65	50298.11
520.83	50291.09
521.00	50646.85
521.17	50632.81
521.34	50735.79
521.52	50616.43
521.69	50820.05
521.86	50703.03
522.03	50979.21
522.20	51016.66
522.38	51475.40
522.55	51302.20
522.72	51199.22
522.89	51044.74
523.07	51828.82
523.24	51220.28
523.41	51433.27
523.58	51370.08
523.75	51812.44
523.92	51826.48
524.10	52053.51
524.27	51927.13
524.44	52119.05
524.61	52072.24
524.78	51868.61
524.96	51906.06
525.13	52229.05
525.30	52470.13
525.47	52367.15
525.64	52390.55
525.81	52133.09
525.98	52807.17
526.16	52566.09
526.33	52465.45
526.50	53036.54
526.67	52699.50
526.84	52994.41
527.01	52875.04
527.18	53052.92
527.36	52828.23
527.53	53078.67
527.70	53609.97
527.87	53457.84
528.04	53071.65
528.21	53003.77
528.38	53286.98
528.55	53558.48
528.72	53090.37
528.89	53284.64
529.07	53439.11
529.24	53446.13
529.41	53612.31
529.58	53595.93
529.75	53333.79
529.92	53837.00
530.09	53741.04
530.26	53949.35
530.43	54209.15
530.60	53874.45
530.77	53588.91
530.94	54145.95
531.11	54078.08
531.28	54057.01
531.46	54265.32
531.63	54209.15
531.80	54080.42
531.97	54412.77
532.14	54258.30
532.31	54239.57
532.48	54600.02
532.65	54752.15
532.82	54464.27
532.99	54703.00
533.16	54461.93
533.33	54656.19
533.50	54974.50
533.67	54911.31
533.84	54562.57
534.01	54969.82
534.18	55112.59
534.35	55299.84
534.52	54962.80
534.69	54918.33
534.86	55056.42
535.03	55196.85
535.20	54944.08
535.37	55475.38
535.54	55264.73
535.71	55171.11
535.88	55353.67
536.05	55285.79
536.22	55550.27
536.38	55454.31
536.55	55529.21
536.72	55732.84
536.89	55426.23
537.06	55140.68
537.23	55728.16
537.40	55388.78
537.57	55863.91
537.74	55756.24
537.91	56058.17
538.08	55660.28
538.25	55463.67
538.42	56004.34
538.59	56076.90
538.75	55927.10
538.92	55985.61
539.09	56156.47
539.26	56053.49
539.43	55971.57
539.60	56245.41
539.77	56053.49
539.94	56633.94
540.11	56350.74
540.28	56301.59
540.44	56388.19
540.61	56495.85
540.78	56257.12
540.95	56278.18
541.12	56449.04
541.29	56245.41
541.46	56587.13
541.62	56545.00
541.79	56968.64
541.96	56301.59
542.13	56659.69
542.30	56704.16
542.47	56772.03
542.63	56889.06
542.80	56952.26
542.97	57050.56
543.14	57165.24
543.31	57015.45
543.48	57560.79
543.64	57420.36
543.81	57172.27
543.98	57312.70
544.15	57291.63
544.32	57544.41
544.48	57598.24
544.65	57172.27
544.82	57434.41
544.99	57380.57
545.16	57506.96
545.32	57312.70
545.49	57621.65
545.66	57661.44
545.83	57460.15
546.00	57712.93
546.16	57457.81
546.33	57460.15
546.50	57504.62
546.67	57811.23
546.83	57474.20
547.00	57984.43
547.17	57668.46
547.34	57717.61
547.50	57703.57
547.67	58056.99
547.84	58122.52
548.00	58206.78
548.17	58246.57
548.34	58117.84
548.51	58113.16
548.67	58134.23
548.84	58131.89
549.01	57972.73
549.18	58288.70
549.34	58351.90
549.51	58316.79
549.68	58164.65
549.84	58075.71
550.01	58279.34
550.18	58171.67
550.34	58511.05
550.51	58611.70
550.68	58295.72
550.84	58092.10
551.01	58773.19
551.18	58328.49
551.34	58450.20
551.51	58497.01
551.68	58459.56
551.84	58656.17
552.01	58410.41
552.18	58543.82
552.34	58298.06
552.51	58590.63
552.68	58419.77
552.84	58567.23
553.01	58894.90
553.18	58702.98
553.34	58843.41
553.51	58576.59
553.67	58738.08
553.84	58944.05
554.01	58960.44
554.17	58986.18
554.34	59290.45
554.51	58873.84
554.67	58955.75
554.84	58932.35
555.00	58953.41
555.17	58965.12
555.33	59025.97
555.50	58878.52
555.67	58974.48
555.83	58838.73
556.00	59203.85
556.16	59355.99
556.33	59339.60
556.50	59093.85
556.66	59337.26
556.83	58967.46
556.99	59302.15
557.16	59587.70
557.32	59442.59
557.49	59639.19
557.65	59302.15
557.82	59222.58
557.98	59255.34
558.15	59274.07
558.32	59482.37
558.48	59444.93
558.65	59370.03
558.81	59576.00
558.98	59423.86
559.14	59646.21
559.31	59524.50
559.47	59554.93
559.64	59739.83
559.80	59880.27
559.97	59700.04
560.13	59515.14
560.30	59552.59
560.46	59753.88
560.63	59702.38
560.79	59690.68
560.96	59770.26
561.12	59753.88
561.29	59952.82
561.45	59714.09
561.61	59767.92
561.78	59777.28
561.94	59772.60
562.11	59964.52
562.27	59742.17
562.44	60107.30
562.60	60079.21
562.77	59786.64
562.93	59671.96
563.10	59936.44
563.26	59924.74
563.42	60355.39
563.59	60100.28
563.75	60030.06
563.92	60037.08
564.08	60023.04
564.24	60161.13
564.41	60027.72
564.57	60114.32
564.74	59994.95
564.90	59976.23
565.07	59999.63
565.23	59990.27
565.39	59966.87
565.56	60011.34
565.72	60111.98
565.88	60439.65
566.05	60009.00
566.21	60137.72
566.38	60182.19
566.54	60123.68
566.70	60247.73
566.87	60439.65
567.03	60233.69
567.19	60292.20
567.36	60264.11
567.52	60210.28
567.68	60772.01
567.85	60367.10
568.01	60456.04
568.17	60247.73
568.34	60495.83
568.50	60292.20
568.66	60275.82
568.83	60346.03
568.99	60219.64
569.15	60374.12
569.32	60577.75
569.48	60364.76
569.64	60673.71
569.81	60420.93
569.97	60423.27
570.13	60378.80
570.30	60331.99
570.46	60289.86
570.62	60432.63
570.78	60252.41
570.95	60336.67
571.11	60413.91
571.27	60411.57
571.43	60509.87
571.60	60683.07
571.76	60654.98
571.92	60617.53
572.09	60547.32
572.25	60594.13
572.41	60519.23
572.57	60566.04
572.74	60559.02
572.90	60392.84
573.06	60619.88
573.22	60729.88
573.38	60409.23
573.55	60598.81
573.71	60809.46
573.87	60708.82
574.03	60381.14
574.20	60559.02
574.36	60554.34
574.52	60706.47
574.68	60772.01
574.84	60690.09
575.01	60823.50
575.17	60589.45
575.33	60640.94
575.49	60463.06
575.65	60835.20
575.82	60636.26
575.98	60680.73
576.14	60928.83
576.30	61022.45
576.46	60764.99
576.62	60779.03
576.79	60591.79
576.95	60425.61
577.11	60884.36
577.27	60741.58
577.43	60781.37
577.59	60729.88
577.75	60685.41
577.92	60603.49
578.08	60764.99
578.24	60779.03
578.40	60973.30
578.56	60739.24
578.72	60713.50
578.88	60842.23
579.04	60893.72
579.21	60704.13
579.37	60896.06
579.53	60891.38
579.69	60615.19
579.85	60816.48
580.01	60842.23
580.17	60523.91
580.33	60804.78
580.49	60830.52
580.65	60825.84
580.82	60645.62
580.98	60776.69
581.14	60697.11
581.30	60821.16
581.46	60807.12
581.62	60839.89
581.78	60743.92
581.94	60898.40
582.10	60800.10
582.26	60683.07
582.42	60797.76
582.58	61048.19
582.74	60963.93
582.90	60720.52
583.06	60961.59
583.22	60549.66
583.38	60935.85
583.54	60975.64
583.70	61052.87
583.86	61130.11
584.02	60985.00
584.18	61057.56
584.34	61090.32
584.50	61013.08
584.66	60867.97
584.82	60926.49
584.98	61242.46
585.14	60989.68
585.30	60865.63
585.46	61017.77
585.62	61071.60
585.78	61001.38
585.94	60708.82
586.10	61006.06
586.26	60865.63
586.42	61116.07
586.58	61373.53
586.74	60938.19
586.90	61036.49
587.06	61092.66
587.22	61169.90
587.38	60989.68
587.54	61167.56
587.70	61057.56
587.86	60900.74
588.02	61041.17
588.18	61015.43
588.34	60858.61
588.49	61048.19
