SpectraSuite Data File
++++++++++++++++++++++++++++++++++++
Date: Fri Oct 25 10:44:26 EDT 2013
User: price-jones
Dark Spectrum Present: No
Reference Spectrum Present: No
Number of Sampled Component Spectra: 1
Spectrometers: USB2+H05261
Integration Time (usec): 100000 (USB2+H05261)
Spectra Averaged: 1 (USB2+H05261)
Boxcar Smoothing: 0 (USB2+H05261)
Correct for Electrical Dark: No (USB2+H05261)
Strobe/Lamp Enabled: No (USB2+H05261)
Correct for Detector Non-linearity: No (USB2+H05261)
Correct for Stray Light: No (USB2+H05261)
Number of Pixels in Processed Spectrum: 2048
>>>>>Begin Processed Spectral Data<<<<<
365.73	161.50
365.92	161.50
366.12	161.50
366.32	18.72
366.52	4.68
366.72	79.58
366.91	0.00
367.11	16.38
367.31	0.00
367.51	14.04
367.70	65.54
367.90	81.92
368.10	35.11
368.30	67.88
368.49	7.02
368.69	18.72
368.89	44.47
369.09	4.68
369.28	98.30
369.48	77.24
369.68	58.51
369.87	0.00
370.07	30.43
370.27	187.24
370.47	217.67
370.66	353.42
370.86	486.83
371.06	503.22
371.25	543.00
371.45	543.00
371.65	444.70
371.84	430.66
372.04	526.62
372.24	510.24
372.44	514.92
372.63	447.04
372.83	477.47
373.03	505.56
373.22	531.30
373.42	437.68
373.62	528.96
373.81	524.28
374.01	599.18
374.21	580.45
374.40	477.47
374.60	645.99
374.79	631.94
374.99	594.50
375.19	554.71
375.38	608.54
375.58	638.97
375.78	650.67
375.97	610.88
376.17	627.26
376.37	629.60
376.56	653.01
376.76	601.52
376.95	599.18
377.15	653.01
377.35	704.50
377.54	706.84
377.74	706.84
377.93	643.65
378.13	631.94
378.33	685.78
378.52	615.56
378.72	653.01
378.91	678.76
379.11	709.18
379.31	709.18
379.50	653.01
379.70	688.12
379.89	798.12
380.09	643.65
380.28	699.82
380.48	835.57
380.68	706.84
380.87	664.71
381.07	802.80
381.26	727.91
381.46	704.50
381.65	744.29
381.85	690.46
382.04	671.73
382.24	655.35
382.43	777.06
382.63	730.25
382.83	758.33
383.02	645.99
383.22	702.16
383.41	720.88
383.61	718.54
383.80	737.27
384.00	765.36
384.19	805.14
384.39	802.80
384.58	793.44
384.78	807.48
384.97	875.36
385.17	844.93
385.36	784.08
385.56	732.59
385.75	781.74
385.95	861.32
386.14	947.92
386.34	880.04
386.53	880.04
386.72	814.51
386.92	840.25
387.11	983.02
387.31	847.27
387.50	933.87
387.70	903.45
387.89	880.04
388.09	919.83
388.28	833.23
388.48	851.96
388.67	908.13
388.86	894.08
389.06	940.90
389.25	1027.50
389.45	980.68
389.64	1018.13
389.84	987.71
390.03	985.37
390.22	1043.88
390.42	1128.14
390.61	980.68
390.81	983.02
391.00	1118.78
391.19	1142.18
391.39	1008.77
391.58	1057.92
391.78	1022.81
391.97	1142.18
392.16	1078.99
392.36	1137.50
392.55	1043.88
392.75	1025.15
392.94	954.94
393.13	1032.18
393.33	1006.43
393.52	938.55
393.71	1128.14
393.91	1130.48
394.10	1086.01
394.29	1160.91
394.49	1207.72
394.68	1329.42
394.88	1289.64
395.07	1242.82
395.26	1341.13
395.46	1245.16
395.65	1301.34
395.84	1231.12
396.04	1301.34
396.23	1128.14
396.42	1137.50
396.62	1247.51
396.81	1226.44
397.00	1179.63
397.19	1282.61
397.39	1334.11
397.58	1521.35
397.77	1427.73
397.97	1495.60
398.16	1472.20
398.35	1476.88
398.55	1488.58
398.74	1664.12
398.93	1680.50
399.12	1629.01
399.32	1514.33
399.51	1636.03
399.70	1624.33
399.90	1598.59
400.09	1519.01
400.28	1673.48
400.47	1619.65
400.67	1717.95
400.86	1675.82
401.05	1713.27
401.24	1703.91
401.44	1802.21
401.63	1732.00
401.82	1762.42
402.01	1701.57
402.21	1739.02
402.40	1825.62
402.59	1755.40
402.78	1764.76
402.97	1846.68
403.17	1849.02
403.36	1909.88
403.55	1872.43
403.74	1944.99
403.93	1825.62
404.13	1923.92
404.32	2038.61
404.51	1982.43
404.70	1898.17
404.89	1898.17
405.09	2024.56
405.28	1984.77
405.47	1994.14
405.66	2101.80
405.85	2057.33
406.05	2029.24
406.24	2059.67
406.43	2211.81
406.62	2118.18
406.81	2253.94
407.00	2040.95
407.20	2090.10
407.39	2099.46
407.58	2225.85
407.77	2277.34
407.96	2345.22
408.15	2235.21
408.34	2385.01
408.54	2356.92
408.73	2338.20
408.92	2370.96
409.11	2401.39
409.30	2253.94
409.49	2434.16
409.68	2331.17
409.87	2317.13
410.07	2347.56
410.26	2373.30
410.45	2562.89
410.64	2502.03
410.83	2583.95
411.02	2565.23
411.21	2658.85
411.40	2642.46
411.59	2635.44
411.78	2672.89
411.98	2724.38
412.17	2759.49
412.36	2715.02
412.55	2796.94
412.74	2801.62
412.93	2892.90
413.12	2782.90
413.31	2993.55
413.50	2904.60
413.69	3012.27
413.88	2890.56
414.07	2904.60
414.26	2890.56
414.45	2998.23
414.64	3042.70
414.83	3119.93
415.02	3080.14
415.22	3148.02
415.41	3166.74
415.60	3131.64
415.79	3276.75
415.98	3281.43
416.17	3276.75
416.36	3279.09
416.55	3309.52
416.74	3375.05
416.93	3215.90
417.12	3332.92
417.31	3375.05
417.50	3424.20
417.69	3627.83
417.88	3440.59
418.07	3496.76
418.26	3487.40
418.45	3555.27
418.64	3705.07
418.83	3705.07
419.02	3684.00
419.21	3751.88
419.39	3735.50
419.58	3646.55
419.77	3672.30
419.96	3597.40
420.15	3953.16
420.34	3838.48
420.53	3775.28
420.72	3873.59
420.91	3798.69
421.10	3885.29
421.29	3904.01
421.48	3918.06
421.67	4007.00
421.86	3861.88
422.05	3833.80
422.24	3932.10
422.43	3892.31
422.61	3950.82
422.80	3915.72
422.99	4058.49
423.18	4028.06
423.37	4100.62
423.56	3995.29
423.75	4077.21
423.94	4004.66
424.13	3861.88
424.32	3819.75
424.50	4156.79
424.69	4194.24
424.88	4124.02
425.07	4140.41
425.26	4002.32
425.45	3978.91
425.64	4072.53
425.83	4119.34
426.01	4147.43
426.20	4198.92
426.39	4203.60
426.58	4028.06
426.77	3976.57
426.96	4159.13
427.15	4042.11
427.33	4145.09
427.52	4222.33
427.71	4217.65
427.90	4224.67
428.09	4454.04
428.28	4198.92
428.46	4205.94
428.65	4140.41
428.84	4407.23
429.03	4318.29
429.22	4159.13
429.40	4425.95
429.59	4189.56
429.78	3885.29
429.97	3999.98
430.16	4189.56
430.34	4205.94
430.53	4259.78
430.72	4360.42
430.91	4423.61
431.10	4489.15
431.28	4613.20
431.47	4641.28
431.66	4774.69
431.85	4592.13
432.03	4837.89
432.22	4688.09
432.41	4592.13
432.60	4774.69
432.79	4819.16
432.97	4795.76
433.16	4863.63
433.35	4765.33
433.54	4849.59
433.72	4641.28
433.91	4744.27
434.10	4805.12
434.28	5018.11
434.47	5043.85
434.66	5004.07
434.85	5032.15
435.03	5015.77
435.22	5032.15
435.41	5238.12
435.59	5097.69
435.78	5263.86
435.97	5313.02
436.16	5256.84
436.34	5397.28
436.53	5315.36
436.72	5338.76
436.90	5125.77
437.09	5301.31
437.28	5205.35
437.46	5259.18
437.65	5301.31
437.84	5392.59
438.02	5298.97
438.21	5359.83
438.40	5266.21
438.58	5577.50
438.77	5554.09
438.96	5434.72
439.14	5837.30
439.33	5619.63
439.52	5818.57
439.70	5863.04
439.89	5839.64
440.08	6017.52
440.26	5891.13
440.45	5673.46
440.63	5968.37
440.82	6200.08
441.01	6127.52
441.19	6207.10
441.38	6200.08
441.57	6263.27
441.75	6497.33
441.94	6553.50
442.12	6581.59
442.31	6626.06
442.50	6490.31
442.68	6579.25
442.87	6466.90
443.05	6438.81
443.24	6651.80
443.43	6590.95
443.61	6537.12
443.80	6778.19
443.98	6476.26
444.17	6375.62
444.35	6656.48
444.54	6633.08
444.73	6544.14
444.91	6661.16
445.10	6656.48
445.28	6588.61
445.47	6572.22
445.65	6504.35
445.84	6576.91
446.02	6647.12
446.21	6766.49
446.39	6647.12
446.58	6817.98
446.77	6857.77
446.95	6822.66
447.14	6885.86
447.32	6967.77
447.51	6712.66
447.69	6726.70
447.88	6932.67
448.06	7075.44
448.25	6949.05
448.43	7005.22
448.62	6803.94
448.80	6923.30
448.99	6883.52
449.17	7033.31
449.36	6871.81
449.54	7236.94
449.73	7148.00
449.91	7211.19
450.10	7356.30
450.28	7508.44
450.46	7414.82
450.65	7559.93
450.83	7475.67
451.02	7227.57
451.20	7470.99
451.39	7293.11
451.57	7412.48
451.76	7316.51
451.94	7339.92
452.13	7527.16
452.31	7501.42
452.49	7375.03
452.68	7456.95
452.86	7267.36
453.05	7454.61
453.23	7548.23
453.42	7445.24
453.60	7478.01
453.78	7641.85
453.97	7489.71
454.15	7627.81
454.34	7559.93
454.52	7648.87
454.70	7691.00
454.89	7548.23
455.07	7882.92
455.26	7754.19
455.44	7901.65
455.62	7812.71
455.81	7882.92
455.99	7934.42
456.17	8116.98
456.36	7946.12
456.54	8222.30
456.73	8173.15
456.91	8360.39
457.09	8255.07
457.28	8552.32
457.46	8217.62
457.64	8283.16
457.83	8372.10
458.01	8257.41
458.19	8360.39
458.38	8416.57
458.56	8456.36
458.74	8601.47
458.93	8503.17
459.11	8229.32
459.29	8482.10
459.48	8613.17
459.66	8308.90
459.84	8648.28
460.03	8812.12
460.21	8769.99
460.39	8746.58
460.57	8762.97
460.76	8762.97
460.94	8751.26
461.12	8990.00
461.31	8669.34
461.49	8940.85
461.67	8905.74
461.85	8896.38
462.04	8971.27
462.22	9123.41
462.40	9296.61
462.59	8891.70
462.77	9025.11
462.95	9104.68
463.13	9149.15
463.32	9289.59
463.50	9219.37
463.68	9252.14
463.86	9015.74
464.05	9121.07
464.23	9055.53
464.41	9123.41
464.59	9142.13
464.78	9273.20
464.96	9455.76
465.14	9139.79
465.32	9621.94
465.50	9659.39
465.69	9474.49
465.87	9303.63
466.05	9366.82
466.23	9427.68
466.41	9488.53
466.60	9558.75
466.78	9137.45
466.96	9455.76
467.14	9514.28
467.32	9523.64
467.51	9738.97
467.69	9558.75
467.87	9738.97
468.05	9727.27
468.23	9643.01
468.41	9720.24
468.60	9628.96
468.78	9818.55
468.96	9692.16
469.14	9863.02
469.32	9973.02
469.50	9895.78
469.69	9867.70
469.87	10036.22
470.05	10155.58
470.23	10003.45
470.41	10068.98
470.59	10232.82
470.77	10146.22
470.95	10221.12
471.14	10429.43
471.32	10314.74
471.50	10509.01
471.68	10654.12
471.86	10649.44
472.04	10684.55
472.22	10813.28
472.40	10415.38
472.58	10651.78
472.77	10670.50
472.95	10827.32
473.13	11054.35
473.31	10848.38
473.49	10480.92
473.67	10974.77
473.85	10782.85
474.03	11140.95
474.21	11314.15
474.39	11314.15
474.57	11482.67
474.75	11543.52
474.93	11548.20
475.12	11477.99
475.30	11501.39
475.48	11412.45
475.66	11618.42
475.84	11508.41
476.02	11609.06
476.20	11679.27
476.38	11655.87
476.56	12353.35
476.74	12226.96
476.92	12116.95
477.10	12102.91
477.28	12468.03
477.46	12425.90
477.64	12465.69
477.82	12681.02
478.00	12933.80
478.18	12954.87
478.36	12950.18
478.54	13177.22
478.72	12905.71
478.90	13198.28
479.08	13226.37
479.26	13399.57
479.44	13469.78
479.62	13411.27
479.80	13675.75
479.98	13551.70
480.16	14106.41
480.34	13898.10
480.52	14218.75
480.70	14164.92
480.88	13893.42
481.06	14087.68
481.24	14366.21
481.41	14642.39
481.59	14939.64
481.77	14721.97
481.95	14899.85
482.13	14878.79
482.31	14848.36
482.49	15096.46
482.67	15105.82
482.85	15440.51
483.03	15510.73
483.21	15667.55
483.39	15676.91
483.57	15990.54
483.74	15992.88
483.92	16098.20
484.10	16016.29
484.28	16400.13
484.46	16460.99
484.64	16676.32
484.82	16285.45
485.00	16613.12
485.18	16688.02
485.35	16732.49
485.53	16690.36
485.71	16521.84
485.89	17074.21
486.07	16882.28
486.25	16971.22
486.43	17191.23
486.61	17399.54
486.78	17858.29
486.96	17884.03
487.14	18122.77
487.32	18111.07
487.50	18291.29
487.68	18490.23
487.85	18867.06
488.03	18932.59
488.21	19110.47
488.39	19105.79
488.57	18991.11
488.75	19012.17
488.92	19592.62
489.10	19634.75
489.28	20144.99
489.46	20025.62
489.64	20196.48
489.81	20397.77
489.99	20816.72
490.17	20655.23
490.35	21186.53
490.53	21041.42
490.70	21102.27
490.88	20704.38
491.06	21069.50
491.24	21015.67
491.41	20929.07
491.59	21186.53
491.77	21493.14
491.95	21458.03
492.13	21771.66
492.30	21961.25
492.48	22218.71
492.66	22368.50
492.84	22515.95
493.01	22888.10
493.19	22225.73
493.37	23005.13
493.54	22831.93
493.72	23049.60
493.90	23087.04
494.08	23396.00
494.25	23548.13
494.43	23620.69
494.61	23920.28
494.79	24133.26
494.96	23910.91
495.14	24081.77
495.32	24196.46
495.49	24273.70
495.67	24781.59
495.85	24304.12
496.02	24847.13
496.20	24741.80
496.38	25060.12
496.55	25336.30
496.73	25516.52
496.91	25343.32
497.09	25497.80
497.26	25745.89
497.44	25912.07
497.62	25888.67
497.79	25954.20
497.97	25923.77
498.14	25979.95
498.32	26099.31
498.50	26185.91
498.67	26590.83
498.85	26946.59
499.03	26698.49
499.20	26977.01
499.38	26775.73
499.56	26988.72
499.73	27339.80
499.91	26986.38
500.08	27454.48
500.26	27023.83
500.44	27475.55
500.61	26948.93
500.79	27248.52
500.97	27543.42
501.14	28002.17
501.32	28079.41
501.49	27946.00
501.67	27831.31
501.84	28123.88
502.02	27852.38
502.20	28238.56
502.37	28229.20
502.55	28158.99
502.72	28559.22
502.90	28474.96
503.07	28608.37
503.25	28762.84
503.43	28575.60
503.60	28381.34
503.78	28252.61
503.95	28741.78
504.13	28795.61
504.30	29305.85
504.48	29013.28
504.65	29310.53
504.83	29319.89
505.01	29647.57
505.18	29586.71
505.36	29848.85
505.53	29883.96
505.71	30281.85
505.88	30314.62
506.06	29813.74
506.23	30216.32
506.41	30277.17
506.58	30286.53
506.76	30464.41
506.93	30984.01
507.11	30230.36
507.28	30548.67
507.46	30499.52
507.63	30773.36
507.81	31110.40
507.98	30684.42
508.16	30899.75
508.33	31257.85
508.50	31189.98
508.68	31330.41
508.85	31861.71
509.03	31480.21
509.20	31658.09
509.38	31850.01
509.55	31695.53
509.73	31835.97
509.90	32275.99
510.08	32032.57
510.25	32484.30
510.42	32224.50
510.60	32327.48
510.77	32463.23
510.95	33041.34
511.12	32268.97
511.30	32971.13
511.47	32861.12
511.64	32814.31
511.82	33076.45
511.99	32531.11
512.17	32470.25
512.34	32900.91
512.51	33017.94
512.69	33254.33
512.86	33200.50
513.04	33834.78
513.21	33359.66
513.38	33200.50
513.56	33687.33
513.73	33565.62
513.90	33584.35
514.08	33490.73
514.25	33818.40
514.43	33783.29
514.60	34122.67
514.77	33951.81
514.95	34007.98
515.12	34162.46
515.29	34274.80
515.47	34714.83
515.64	34660.99
515.81	34572.05
515.99	34576.73
516.16	34426.94
516.33	34483.11
516.51	34382.47
516.68	33848.83
516.85	33928.41
517.03	34225.65
517.20	34595.46
517.37	34665.67
517.54	34998.03
517.72	35229.74
517.89	34796.74
518.06	34548.65
518.24	34913.77
518.41	34724.19
518.58	34902.07
518.75	35007.39
518.93	35548.06
519.10	35241.45
519.27	35943.61
519.45	35676.79
519.62	35714.23
519.79	36044.25
519.96	36414.05
520.14	36362.56
520.31	35814.88
520.48	36039.57
520.65	36168.30
520.83	36301.71
521.00	36514.70
521.17	36769.82
521.34	36882.16
521.52	36830.67
521.69	36416.40
521.86	37188.77
522.03	37275.37
522.20	37053.02
522.38	36879.82
522.55	37256.65
522.72	36966.42
522.89	36987.49
523.07	37254.31
523.24	37200.47
523.41	37523.47
523.58	37425.17
523.75	37989.24
523.92	37764.54
524.10	37738.80
524.27	38157.75
524.44	37710.71
524.61	37869.87
524.78	38302.87
524.96	38373.08
525.13	38497.13
525.30	38288.82
525.47	38705.44
525.64	38216.27
525.81	38366.06
525.98	38635.22
526.16	38136.69
526.33	37872.21
526.50	37787.95
526.67	37696.67
526.84	38040.73
527.01	38382.45
527.18	38204.56
527.36	38593.09
527.53	39077.58
527.70	39180.57
527.87	38969.92
528.04	39089.29
528.21	39215.68
528.38	39445.05
528.55	39674.42
528.72	39321.00
528.89	39639.31
529.07	39686.12
529.24	39604.20
529.41	39833.58
529.58	39501.22
529.75	39431.01
529.92	40275.94
530.09	39391.22
530.26	39639.31
530.43	40158.91
530.60	40030.18
530.77	40093.38
530.94	40004.44
531.11	39915.50
531.28	40048.91
531.46	40245.51
531.63	39943.58
531.80	40102.74
531.97	40004.44
532.14	39938.90
532.31	39739.96
532.48	40172.96
532.65	40498.29
532.82	40437.44
532.99	40680.85
533.16	40493.61
533.33	40755.75
533.50	41045.97
533.67	40924.27
533.84	40795.54
534.01	40622.34
534.18	40566.16
534.35	41067.04
534.52	41092.79
534.69	41202.79
534.86	40896.18
535.03	41024.91
535.20	41551.53
535.37	41872.18
535.54	41776.22
535.71	41179.39
535.88	41633.45
536.05	41326.84
536.22	42059.43
536.38	41558.55
536.55	41106.83
536.72	41244.92
536.89	41247.26
537.06	41670.90
537.23	41596.00
537.40	41865.16
537.57	41689.62
537.74	41834.74
537.91	41998.57
538.08	41532.81
538.25	42078.15
538.42	41996.23
538.59	42232.63
538.75	41624.09
538.92	41713.03
539.09	41635.79
539.26	42045.38
539.43	42134.32
539.60	42050.06
539.77	41766.86
539.94	42665.63
540.11	41904.95
540.28	42213.90
540.44	41911.97
540.61	42185.82
540.78	42288.80
540.95	42499.45
541.12	42553.28
541.29	42101.56
541.46	42323.91
541.62	42777.97
541.79	42684.35
541.96	42707.76
542.13	42473.70
542.30	42674.99
542.47	42911.38
542.63	42782.65
542.80	42897.34
542.97	43337.36
543.14	43395.87
543.31	43133.73
543.48	43363.11
543.64	43981.01
543.81	43805.47
543.98	43519.92
544.15	44051.22
544.32	43672.06
544.48	44184.63
544.65	43606.52
544.82	43459.07
544.99	43723.55
545.16	43505.88
545.32	43398.21
545.49	43908.45
545.66	43838.23
545.83	43545.67
546.00	44114.42
546.16	43845.26
546.33	43709.50
546.50	43842.92
546.67	43693.12
546.83	43674.40
547.00	43943.56
547.17	44261.87
547.34	44186.97
547.50	44149.53
547.67	44376.56
547.84	44247.83
548.00	44638.70
548.17	44807.22
548.34	44397.62
548.51	44891.48
548.67	44823.60
548.84	44823.60
549.01	44474.86
549.18	44144.84
549.34	44662.10
549.51	44889.13
549.68	44634.02
549.84	44690.19
550.01	44996.80
550.18	44795.51
550.34	44486.56
550.51	44577.84
550.68	44720.62
550.84	44142.50
551.01	44849.35
551.18	45102.12
551.34	44957.01
551.51	44519.33
551.68	45001.48
551.84	44938.29
552.01	44598.91
552.18	45198.09
552.34	44945.31
552.51	44643.38
552.68	44800.19
552.84	45312.77
553.01	45310.43
553.18	44893.82
553.34	44861.05
553.51	45195.74
553.67	44924.24
553.84	45481.29
554.01	45474.27
554.17	45815.99
554.34	45560.87
554.51	45249.58
554.67	45958.76
554.84	45792.58
555.00	45638.11
555.17	45006.16
555.33	45390.01
555.50	45200.43
555.67	45237.87
555.83	45364.26
556.00	45645.13
556.16	45860.46
556.33	45488.31
556.50	45799.60
556.66	45371.28
556.83	45261.28
556.99	45923.65
557.16	45886.20
557.32	45277.66
557.49	45928.33
557.65	45450.86
557.82	45485.97
557.98	45673.21
558.15	45790.24
558.32	45703.64
558.48	45375.97
558.65	45399.37
558.81	45446.18
558.98	45497.67
559.14	45705.98
559.31	45418.10
559.47	45605.34
559.64	45743.43
559.80	45893.22
559.97	46232.60
560.13	45694.28
560.30	45509.38
560.46	45935.35
560.63	46567.30
560.79	46284.09
560.96	46586.02
561.12	45823.01
561.29	45979.82
561.45	46014.93
561.61	45879.18
561.78	46368.35
561.94	45755.13
562.11	46059.40
562.27	46211.54
562.44	46164.73
562.60	46384.74
562.77	46246.65
562.93	45813.65
563.10	46202.18
563.26	45675.55
563.42	46660.92
563.59	46087.49
563.75	45949.40
563.92	46302.82
564.08	46848.16
564.24	46354.31
564.41	46335.59
564.57	46384.74
564.74	46218.56
564.90	46415.16
565.07	45996.21
565.23	46202.18
565.39	46075.79
565.56	45928.33
565.72	46148.34
565.88	46485.38
566.05	46028.98
566.21	46230.26
566.38	46494.74
566.54	46248.99
566.70	46773.27
566.87	46738.16
567.03	46759.22
567.19	46813.05
567.36	46703.05
567.52	46408.14
567.68	46366.01
567.85	46618.79
568.01	46188.13
568.17	46653.90
568.34	46827.10
568.50	46410.48
568.66	46134.30
568.83	46593.04
568.99	46094.51
569.15	46403.46
569.32	46251.33
569.48	45879.18
569.64	46417.50
569.81	46532.19
569.97	46436.23
570.13	46850.50
570.30	46478.36
570.46	46295.80
570.62	46171.75
570.78	46579.00
570.95	46220.90
571.11	46656.24
571.27	46197.49
571.43	46153.02
571.60	46356.65
571.76	46529.85
571.92	46794.33
572.09	46478.36
572.25	46447.93
572.41	46553.26
572.57	46642.20
572.74	46686.67
572.90	46279.41
573.06	47143.07
573.22	46588.36
573.38	46457.29
573.55	46644.54
573.71	46700.71
573.87	46440.91
574.03	46621.13
574.20	46382.40
574.36	46564.96
574.52	46644.54
574.68	46466.66
574.84	46829.44
575.01	46464.32
575.17	46862.21
575.33	46419.84
575.49	46410.48
575.65	46735.82
575.82	46878.59
575.98	46394.10
576.14	46813.05
576.30	46508.79
576.46	46728.80
576.62	46796.67
576.79	46436.23
576.95	46946.47
577.11	46550.91
577.27	46794.33
577.43	46506.44
577.59	46555.60
577.75	46665.60
577.92	46312.18
578.08	46099.19
578.24	46454.95
578.40	46354.31
578.56	46726.46
578.72	46689.01
578.88	46597.73
579.04	46670.28
579.21	46770.93
579.37	46403.46
579.53	46923.06
579.69	47086.90
579.85	47049.45
580.01	46635.17
580.17	46700.71
580.33	47019.02
580.49	46850.50
580.65	47119.66
580.82	47037.75
580.98	46391.76
581.14	46604.75
581.30	46981.57
581.46	47208.61
581.62	46944.12
581.78	46951.15
581.94	47035.41
582.10	46864.55
582.26	46677.30
582.42	46997.96
582.58	46623.47
582.74	46754.54
582.90	46955.83
583.06	47051.79
583.22	46953.49
583.38	46995.62
583.54	46869.23
583.70	47122.01
583.86	47157.11
584.02	46309.84
584.18	46986.25
584.34	46588.36
584.50	46911.36
584.66	46513.47
584.82	46717.09
584.98	47199.24
585.14	46377.72
585.30	46635.17
585.46	46520.49
585.62	46515.81
585.78	46604.75
585.94	46583.68
586.10	46576.66
586.26	46801.35
586.42	46930.08
586.58	47075.19
586.74	46976.89
586.90	46600.07
587.06	46777.95
587.22	46986.25
587.38	46787.31
587.54	47327.97
587.70	46768.58
587.86	46927.74
588.02	46721.77
588.18	46974.55
588.34	47007.32
588.49	46232.60
588.65	45872.16
588.81	46270.05
588.97	46103.87
589.13	45818.33
589.29	46560.28
589.45	46384.74
589.61	46679.64
589.77	46705.39
589.93	46614.11
