SpectraSuite Data File
++++++++++++++++++++++++++++++++++++
Date: Fri Oct 25 10:46:57 EDT 2013
User: price-jones
Dark Spectrum Present: No
Reference Spectrum Present: No
Number of Sampled Component Spectra: 1
Spectrometers: USB2+H05261
Integration Time (usec): 100000 (USB2+H05261)
Spectra Averaged: 1 (USB2+H05261)
Boxcar Smoothing: 0 (USB2+H05261)
Correct for Electrical Dark: No (USB2+H05261)
Strobe/Lamp Enabled: No (USB2+H05261)
Correct for Detector Non-linearity: No (USB2+H05261)
Correct for Stray Light: No (USB2+H05261)
Number of Pixels in Processed Spectrum: 2048
>>>>>Begin Processed Spectral Data<<<<<
365.73	135.75
365.92	135.75
366.12	135.75
366.32	11.70
366.52	42.13
366.72	163.84
366.91	9.36
367.11	37.45
367.31	18.72
367.51	14.04
367.70	0.00
367.90	46.81
368.10	28.09
368.30	30.43
368.49	11.70
368.69	23.41
368.89	98.30
369.09	93.62
369.28	23.41
369.48	39.79
369.68	166.18
369.87	138.09
370.07	44.47
370.27	177.88
370.47	215.33
370.66	428.32
370.86	411.93
371.06	479.81
371.25	498.53
371.45	402.57
371.65	526.62
371.84	430.66
372.04	491.51
372.24	435.34
372.44	517.26
372.63	484.49
372.83	491.51
373.03	526.62
373.22	491.51
373.42	538.32
373.62	580.45
373.81	613.22
374.01	533.64
374.21	561.73
374.40	603.86
374.60	613.22
374.79	589.82
374.99	578.11
375.19	554.71
375.38	650.67
375.58	599.18
375.78	692.80
375.97	573.43
376.17	667.05
376.37	638.97
376.56	643.65
376.76	592.16
376.95	660.03
377.15	631.94
377.35	685.78
377.54	683.44
377.74	645.99
377.93	711.52
378.13	643.65
378.33	683.44
378.52	664.71
378.72	648.33
378.91	695.14
379.11	620.24
379.31	720.88
379.50	702.16
379.70	755.99
379.89	720.88
380.09	695.14
380.28	671.73
380.48	741.95
380.68	688.12
380.87	739.61
381.07	660.03
381.26	737.27
381.46	676.41
381.65	624.92
381.85	716.20
382.04	690.46
382.24	746.63
382.43	716.20
382.63	655.35
382.83	732.59
383.02	730.25
383.22	716.20
383.41	777.06
383.61	755.99
383.80	823.87
384.00	767.70
384.19	779.40
384.39	866.00
384.58	849.61
384.78	858.98
384.97	802.80
385.17	809.83
385.36	819.19
385.56	847.27
385.75	835.57
385.95	807.48
386.14	791.10
386.34	835.57
386.53	784.08
386.72	772.38
386.92	910.47
387.11	863.66
387.31	889.40
387.50	826.21
387.70	950.26
387.89	805.14
388.09	912.81
388.28	882.38
388.48	919.83
388.67	891.74
388.86	882.38
389.06	936.21
389.25	945.58
389.45	1034.52
389.64	933.87
389.84	1015.79
390.03	924.51
390.22	997.07
390.42	959.62
390.61	978.34
390.81	1048.56
391.00	966.64
391.19	1004.09
391.39	1109.41
391.58	1057.92
391.78	1057.92
391.97	1011.11
392.16	1104.73
392.36	1043.88
392.55	1027.50
392.75	973.66
392.94	1001.75
393.13	1064.94
393.33	1025.15
393.52	1048.56
393.71	1036.86
393.91	1116.44
394.10	1114.10
394.29	1205.38
394.49	1095.37
394.68	1114.10
394.88	1121.12
395.07	1196.01
395.26	1196.01
395.46	1163.25
395.65	1261.55
395.84	1210.06
396.04	1299.00
396.23	1144.52
396.42	1196.01
396.62	1200.69
396.81	1200.69
397.00	1174.95
397.19	1219.42
397.39	1242.82
397.58	1240.48
397.77	1394.96
397.97	1507.30
398.16	1390.28
398.35	1427.73
398.55	1420.71
398.74	1434.75
398.93	1511.99
399.12	1387.94
399.32	1394.96
399.51	1476.88
399.70	1528.37
399.90	1537.73
400.09	1572.84
400.28	1533.05
400.47	1598.59
400.67	1671.14
400.86	1678.16
401.05	1549.43
401.24	1696.89
401.44	1692.21
401.63	1678.16
401.82	1668.80
402.01	1614.97
402.21	1736.68
402.40	1636.03
402.59	1717.95
402.78	1645.40
402.97	1746.04
403.17	1694.55
403.36	1739.02
403.55	1661.78
403.74	1874.77
403.93	1921.58
404.13	1799.87
404.32	1888.81
404.51	1834.98
404.70	1783.49
404.89	1877.11
405.09	1975.41
405.28	1893.49
405.47	1771.79
405.66	1898.17
405.85	1982.43
406.05	1973.07
406.24	1989.46
406.43	1937.96
406.62	2050.31
406.81	2097.12
407.00	2069.03
407.20	1954.35
407.39	2005.84
407.58	2094.78
407.77	2165.00
407.96	2179.04
408.15	2172.02
408.34	2064.35
408.54	2181.38
408.73	2272.66
408.92	2153.29
409.11	2349.90
409.30	2282.02
409.49	2193.08
409.68	2267.98
409.87	2235.21
410.07	2174.36
410.26	2193.08
410.45	2328.83
410.64	2312.45
410.83	2413.09
411.02	2363.94
411.21	2469.27
411.40	2466.92
411.59	2516.08
411.78	2490.33
411.98	2567.57
412.17	2579.27
412.36	2605.02
412.55	2665.87
412.74	2815.66
412.93	2689.28
413.12	2635.44
413.31	2848.43
413.50	2750.13
413.69	2740.77
413.88	2780.56
414.07	2710.34
414.26	2745.45
414.45	2911.63
414.64	2913.97
414.83	2867.16
415.02	2883.54
415.22	3087.17
415.41	3019.29
415.60	3131.64
415.79	3089.51
415.98	3138.66
416.17	3197.17
416.36	2974.82
416.55	3229.94
416.74	3213.56
416.93	3283.77
417.12	3126.96
417.31	3183.13
417.50	3316.54
417.69	3346.97
417.88	3218.24
418.07	3314.20
418.26	3236.96
418.45	3281.43
418.64	3550.59
418.83	3494.42
419.02	3447.61
419.21	3576.34
419.39	3419.52
419.58	3517.83
419.77	3513.14
419.96	3517.83
420.15	3550.59
420.34	3543.57
420.53	3620.81
420.72	3653.58
420.91	3789.33
421.10	3655.92
421.29	3754.22
421.48	3653.58
421.67	3721.45
421.86	3742.52
422.05	3618.47
422.24	3660.60
422.43	3751.88
422.61	3763.58
422.80	3918.06
422.99	3815.07
423.18	3943.80
423.37	3845.50
423.56	3826.78
423.75	3859.54
423.94	3866.56
424.13	3611.45
424.32	3662.94
424.50	3817.41
424.69	3915.72
424.88	4007.00
425.07	3861.88
425.26	3777.62
425.45	3775.28
425.64	3737.84
425.83	3906.35
426.01	4023.38
426.20	4063.17
426.39	4102.96
426.58	3936.78
426.77	3829.12
426.96	3896.99
427.15	3878.27
427.33	3901.67
427.52	4063.17
427.71	4058.49
427.90	4109.98
428.09	4025.72
428.28	4140.41
428.46	4187.22
428.65	4042.11
428.84	4283.18
429.03	4142.75
429.22	3969.55
429.40	4091.26
429.59	4072.53
429.78	3934.44
429.97	3817.41
430.16	3960.19
430.34	4072.53
430.53	4086.58
430.72	4077.21
430.91	4105.30
431.10	4250.41
431.28	4517.23
431.47	4674.05
431.66	4585.11
431.85	4458.72
432.03	4395.53
432.22	4507.87
432.41	4421.27
432.60	4578.09
432.79	4587.45
432.97	4760.65
433.16	4718.52
433.35	4566.39
433.54	4585.11
433.72	4723.20
433.91	4681.07
434.10	4528.94
434.28	4528.94
434.47	4725.54
434.66	4875.34
434.85	4748.95
435.03	4884.70
435.22	4922.15
435.41	4957.25
435.59	4840.23
435.78	4905.76
435.97	5090.67
436.16	4933.85
436.34	5125.77
436.53	5121.09
436.72	5135.14
436.90	4947.89
437.09	5001.72
437.28	5076.62
437.46	5078.96
437.65	5132.79
437.84	4985.34
438.02	5036.83
438.21	5151.52
438.40	4959.60
438.58	5280.25
438.77	5397.28
438.96	5352.81
439.14	5614.95
439.33	5509.62
439.52	5453.45
439.70	5336.42
439.89	5509.62
440.08	5678.14
440.26	5614.95
440.45	5509.62
440.63	5722.61
440.82	5956.66
441.01	5715.59
441.19	6136.88
441.38	5942.62
441.57	5881.77
441.75	6087.73
441.94	6043.26
442.12	6179.01
442.31	6282.00
442.50	6291.36
442.68	6122.84
442.87	5987.09
443.05	6242.21
443.24	6340.51
443.43	6401.37
443.61	6408.39
443.80	6370.94
443.98	6305.40
444.17	6097.10
444.35	6289.02
444.54	6286.68
444.73	6237.53
444.91	6450.52
445.10	6462.22
445.28	6286.68
445.47	6270.30
445.65	6342.85
445.84	6274.98
446.02	6420.09
446.21	6235.19
446.39	6523.07
446.58	6604.99
446.77	6520.73
446.95	6394.34
447.14	6558.18
447.32	6560.52
447.51	6473.92
447.69	6628.40
447.88	6485.62
448.06	6441.15
448.25	6527.75
448.43	6583.93
448.62	6523.07
448.80	6551.16
448.99	6597.97
449.17	6532.44
449.36	6705.63
449.54	6752.45
449.73	7007.56
449.91	6864.79
450.10	6974.80
450.28	7192.47
450.46	6988.84
450.65	7148.00
450.83	7052.03
451.02	6878.83
451.20	7094.16
451.39	7119.91
451.57	6986.50
451.76	7136.29
451.94	7073.10
452.13	7164.38
452.31	7159.70
452.49	6956.07
452.68	6970.12
452.86	7016.93
453.05	6949.05
453.23	7349.28
453.42	7222.89
453.60	7138.63
453.78	7377.37
453.97	7159.70
454.15	7239.28
454.34	7157.36
454.52	7431.20
454.70	7173.74
454.89	7393.75
455.07	7335.24
455.26	7520.14
455.44	7419.50
455.62	7693.34
455.81	7557.59
455.99	7564.61
456.17	7707.38
456.36	7768.24
456.54	7695.68
456.73	7793.98
456.91	7740.15
457.09	7911.01
457.28	7901.65
457.46	7555.25
457.64	7749.51
457.83	7939.10
458.01	8037.40
458.19	7817.39
458.38	8011.65
458.56	8098.25
458.74	8002.29
458.93	8039.74
459.11	8070.17
459.29	8149.75
459.48	8191.88
459.66	8241.03
459.84	8037.40
460.03	8390.82
460.21	8226.98
460.39	8393.16
460.57	8145.06
460.76	8234.00
460.94	8589.77
461.12	8386.14
461.31	8561.68
461.49	8575.72
461.67	8533.59
461.85	8510.19
462.04	8414.23
462.22	8943.19
462.40	8685.73
462.59	8734.88
462.77	8636.58
462.95	8760.63
463.13	8753.60
463.32	8798.07
463.50	8800.41
463.68	8629.56
463.86	8760.63
464.05	8638.92
464.23	8748.92
464.41	8870.63
464.59	8685.73
464.78	8819.14
464.96	8945.53
465.14	8872.97
465.32	8971.27
465.50	9046.17
465.69	9317.67
465.87	9013.40
466.05	9123.41
466.23	9004.04
466.41	8926.80
466.60	9245.12
466.78	9043.83
466.96	9102.34
467.14	9137.45
467.32	9121.07
467.51	9275.54
467.69	9069.58
467.87	9202.99
468.05	9270.86
468.23	9390.23
468.41	9296.61
468.60	9247.46
468.78	9401.93
468.96	9408.95
469.14	9661.73
469.32	9533.00
469.50	9287.25
469.69	9472.15
469.87	9568.11
470.05	9806.84
470.23	9668.75
470.41	9729.61
470.59	9863.02
470.77	9680.46
470.95	9783.44
471.14	9832.59
471.32	9736.63
471.50	10235.16
471.68	10150.90
471.86	9991.75
472.04	10012.81
472.22	10452.83
472.40	10106.43
472.58	10305.38
472.77	10352.19
472.95	10340.49
473.13	10581.56
473.31	10267.93
473.49	10518.37
473.67	10289.00
473.85	10513.69
474.03	10817.96
474.21	10593.26
474.39	11000.52
474.57	10949.03
474.75	10766.46
474.93	10864.77
475.12	11049.67
475.30	11171.38
475.48	10942.00
475.66	11033.29
475.84	10993.50
476.02	11248.61
476.20	10998.18
476.38	11492.03
476.56	11531.82
476.74	11513.10
476.92	11358.62
477.10	11480.33
477.28	11843.11
477.46	12126.32
477.64	12072.48
477.82	12126.32
478.00	12191.85
478.18	12173.13
478.36	12243.34
478.54	12308.88
478.72	12582.72
478.90	12531.23
479.08	12940.82
479.26	13039.12
479.44	12814.43
479.62	12641.23
479.80	12924.44
479.98	13247.43
480.16	13575.11
480.34	13329.35
480.52	13259.13
480.70	13322.33
480.88	13556.38
481.06	13621.92
481.24	13949.59
481.41	13837.25
481.59	14190.67
481.77	14293.65
481.95	14267.91
482.13	14361.53
482.31	14473.87
482.49	14597.92
482.67	14354.51
482.85	14590.90
483.03	14801.55
483.21	15211.14
483.39	15133.90
483.57	15119.86
483.74	15082.41
483.92	15550.52
484.10	15351.57
484.28	15536.48
484.46	15747.12
484.64	15882.88
484.82	15988.20
485.00	15953.09
485.18	16203.53
485.35	16346.30
485.53	16116.93
485.71	16194.17
485.89	16315.87
486.07	16283.11
486.25	16498.44
486.43	16404.81
486.61	16695.04
486.78	17029.74
486.96	16821.43
487.14	17249.75
487.32	17195.92
487.50	17617.21
487.68	17797.43
487.85	18249.16
488.03	18101.70
488.21	18279.58
488.39	18333.42
488.57	18422.36
488.75	18293.63
488.92	19016.85
489.10	18799.18
489.28	19183.03
489.46	19206.44
489.64	19405.38
489.81	19672.20
489.99	19719.01
490.17	19932.00
490.35	19871.15
490.53	19831.36
490.70	20002.22
490.88	20116.90
491.06	20379.04
491.24	20470.33
491.41	20510.11
491.59	20512.46
491.77	20243.29
491.95	20851.83
492.13	20896.30
492.30	21495.48
492.48	21413.56
492.66	21549.31
492.84	21649.96
493.01	21659.32
493.19	21661.66
493.37	22305.31
493.54	22122.74
493.72	22082.95
493.90	22354.46
494.08	22567.45
494.25	22963.00
494.43	22623.62
494.61	23084.70
494.79	23173.64
494.96	22885.76
495.14	23171.30
495.32	23419.40
495.49	23524.72
495.67	23587.92
495.85	24123.90
496.02	23660.48
496.20	24100.50
496.38	24226.89
496.55	23955.38
496.73	24315.83
496.91	24357.96
497.09	24334.55
497.26	24636.48
497.44	24631.80
497.62	24568.60
497.79	25006.28
497.97	24903.30
498.14	25151.40
498.32	25263.74
498.50	25245.02
498.67	25640.57
498.85	25523.54
499.03	25916.75
499.20	25818.45
499.38	25785.68
499.56	26136.76
499.73	26015.05
499.91	25895.69
500.08	26061.87
500.26	25928.45
500.44	26525.29
500.61	26171.87
500.79	26368.48
500.97	26094.63
501.14	26703.17
501.32	26672.74
501.49	26918.50
501.67	26438.69
501.84	27248.52
502.02	27234.47
502.20	27498.95
502.37	27271.92
502.55	27105.74
502.72	27800.88
502.90	27379.59
503.07	27487.25
503.25	27847.69
503.43	28011.53
503.60	27903.87
503.78	27718.96
503.95	27819.61
504.13	28259.63
504.30	28533.47
504.48	28278.35
504.65	28510.07
504.83	29017.96
505.01	28758.16
505.18	28973.49
505.36	28912.64
505.53	29188.82
505.71	29544.58
505.88	29376.06
506.06	28741.78
506.23	29383.09
506.41	29062.43
506.58	29139.67
506.76	29397.13
506.93	29315.21
507.11	29872.26
507.28	29322.23
507.46	29544.58
507.63	29560.97
507.81	30335.68
507.98	30139.08
508.16	30010.35
508.33	30211.64
508.50	30445.69
508.68	30609.53
508.85	31087.00
509.03	30473.78
509.20	30536.97
509.38	30581.44
509.55	31145.51
509.73	30888.05
509.90	31386.58
510.08	31030.82
510.25	31119.76
510.42	31147.85
510.60	31480.21
510.77	31606.59
510.95	31742.35
511.12	31192.32
511.30	31611.28
511.47	32013.85
511.64	31945.97
511.82	32025.55
511.99	31501.27
512.17	32077.04
512.34	31931.93
512.51	32091.09
512.69	32261.94
512.86	32011.51
513.04	32669.20
513.21	32758.14
513.38	32378.97
513.56	32669.20
513.73	32404.72
513.90	32886.87
514.08	32381.31
514.25	32835.38
514.43	33076.45
514.60	33067.09
514.77	33001.55
514.95	33469.66
515.12	33383.06
515.29	33572.64
515.47	33682.65
515.64	33563.28
515.81	33387.74
515.99	33326.89
516.16	33570.30
516.33	33141.99
516.51	33425.19
516.68	33544.56
516.85	33256.67
517.03	33551.58
517.20	33549.24
517.37	33509.45
517.54	33977.56
517.72	33827.76
517.89	33724.78
518.06	33851.17
518.24	33844.15
518.41	33970.54
518.58	34455.03
518.75	34047.77
518.93	34913.77
519.10	34314.59
519.27	34876.32
519.45	34586.10
519.62	34834.19
519.79	35288.26
519.96	35309.32
520.14	35541.03
520.31	34909.09
520.48	35199.32
520.65	35075.27
520.83	35814.88
521.00	35868.71
521.17	35651.04
521.34	35704.87
521.52	35828.92
521.69	35723.60
521.86	35838.28
522.03	36364.90
522.20	35976.37
522.38	36126.17
522.55	35791.47
522.72	36484.27
522.89	35917.86
523.07	36121.49
523.24	36079.36
523.41	36484.27
523.58	36383.63
523.75	36673.85
523.92	36886.84
524.10	37090.47
524.27	36821.31
524.44	36863.44
524.61	37530.49
524.78	37385.38
524.96	37411.12
525.13	37668.58
525.30	37453.25
525.47	37563.26
525.64	37401.76
525.81	37706.03
525.98	37467.30
526.16	37282.39
526.33	36711.30
526.50	37240.26
526.67	37584.32
526.84	37376.01
527.01	37488.36
527.18	37904.98
527.36	37787.95
527.53	37979.87
527.70	38204.56
527.87	38122.65
528.04	38075.84
528.21	38199.88
528.38	38256.06
528.55	38998.01
528.72	38279.46
528.89	38721.82
529.07	38513.52
529.24	37729.44
529.41	38569.69
529.58	38719.48
529.75	38415.21
529.92	38953.54
530.09	38536.92
530.26	38642.24
530.43	39213.34
530.60	38565.01
530.77	38888.00
530.94	39103.33
531.11	38869.28
531.28	38869.28
531.46	39330.36
531.63	39210.99
531.80	39651.02
531.97	39096.31
532.14	39274.19
532.31	39061.20
532.48	39482.50
532.65	39709.53
532.82	39510.58
532.99	39859.32
533.16	39215.68
533.33	39194.61
533.50	39751.66
533.67	39938.90
533.84	39686.12
534.01	39868.69
534.18	39693.15
534.35	40257.21
534.52	40161.25
534.69	40388.28
534.86	40240.83
535.03	40147.21
535.20	40741.71
535.37	40687.87
535.54	41209.81
535.71	40437.44
535.88	40343.81
536.05	39915.50
536.22	40175.30
536.38	40835.33
536.55	40320.41
536.72	40903.20
536.89	40605.95
537.06	40701.92
537.23	41308.11
537.40	40931.29
537.57	41067.04
537.74	40935.97
537.91	41397.06
538.08	41097.47
538.25	41104.49
538.42	40910.22
538.59	41425.14
538.75	40898.52
538.92	41146.62
539.09	40884.48
539.26	41434.50
539.43	40947.67
539.60	41141.94
539.77	41350.24
539.94	41057.68
540.11	40971.08
540.28	41167.68
540.44	41546.85
540.61	41371.31
540.78	41469.61
540.95	41179.39
541.12	41268.33
541.29	41565.57
541.46	41706.01
541.62	41766.86
541.79	41652.17
541.96	41413.44
542.13	41652.17
542.30	42087.51
542.47	41640.47
542.63	41731.75
542.80	42244.33
542.97	42761.59
543.14	42492.43
543.31	42185.82
543.48	42326.25
543.64	42834.14
543.81	42548.60
543.98	42621.16
544.15	42789.67
544.32	42686.69
544.48	42670.31
544.65	42646.90
544.82	43019.05
544.99	42550.94
545.16	42988.62
545.32	42401.14
545.49	43421.62
545.66	43302.25
545.83	43192.25
546.00	42799.04
546.16	42958.19
546.33	42602.43
546.50	42698.39
546.67	43559.71
546.83	42298.16
547.00	42663.28
547.17	43065.86
547.34	42838.83
547.50	43180.54
547.67	43679.08
547.84	43267.14
548.00	43421.62
548.17	43711.84
548.34	43524.60
548.51	43658.01
548.67	43536.30
548.84	43585.46
549.01	43318.64
549.18	43536.30
549.34	43721.21
549.51	43615.88
549.68	43730.57
549.84	43777.38
550.01	43826.53
550.18	43536.30
550.34	44233.78
550.51	43894.41
550.68	43819.51
550.84	43674.40
551.01	43842.92
551.18	43885.04
551.34	43997.39
551.51	44072.29
551.68	44100.37
551.84	44149.53
552.01	43704.82
552.18	44353.15
552.34	43641.63
552.51	44208.04
552.68	44243.15
552.84	44500.61
553.01	44367.20
553.18	44318.04
553.34	44268.89
553.51	44137.82
553.67	44320.38
553.84	44481.88
554.01	44325.07
554.17	44648.06
554.34	44470.18
554.51	44662.10
554.67	44753.38
554.84	44776.79
555.00	44364.85
555.17	44374.22
555.33	44783.81
555.50	44364.85
555.67	44914.88
555.83	44505.29
556.00	44556.78
556.16	45242.56
556.33	44643.38
556.50	45212.13
556.66	45001.48
556.83	44519.33
556.99	45008.50
557.16	44980.42
557.32	45223.83
557.49	45081.06
557.65	44528.69
557.82	45242.56
557.98	44877.43
558.15	44971.05
558.32	44718.28
558.48	45074.04
558.65	44959.35
558.81	44821.26
558.98	45188.72
559.14	45174.68
559.31	45310.43
559.47	45130.21
559.64	45202.77
559.80	45537.46
559.97	45034.25
560.13	45055.31
560.30	45202.77
560.46	45106.80
560.63	45216.81
560.79	45525.76
560.96	45111.49
561.12	45560.87
561.29	45731.73
561.45	45511.72
561.61	45429.80
561.78	45441.50
561.94	45425.12
562.11	45411.07
562.27	45226.17
562.44	45638.11
562.60	45237.87
562.77	45827.69
562.93	45820.67
563.10	45645.13
563.26	45312.77
563.42	45607.68
563.59	45694.28
563.75	45471.93
563.92	45591.30
564.08	45460.23
564.24	45844.07
564.41	46045.36
564.57	45801.94
564.74	45656.83
564.90	45991.53
565.07	45743.43
565.23	45406.39
565.39	45415.76
565.56	46078.13
565.72	45240.21
565.88	45738.75
566.05	45310.43
566.21	45731.73
566.38	45865.14
566.54	45612.36
566.70	46117.92
566.87	46092.17
567.03	45804.28
567.19	46237.28
567.36	45734.07
567.52	45567.89
567.68	46174.09
567.85	45790.24
568.01	45698.96
568.17	45743.43
568.34	45869.82
568.50	45687.26
568.66	45752.79
568.83	45876.84
568.99	46021.95
569.15	46157.70
569.32	45373.63
569.48	45839.39
569.64	45977.48
569.81	45827.69
569.97	45769.18
570.13	45982.16
570.30	45989.19
570.46	45762.15
570.62	45502.35
570.78	45806.62
570.95	45965.78
571.11	45902.59
571.27	45918.97
571.43	45801.94
571.60	45830.03
571.76	45661.51
571.92	45951.74
572.09	45979.82
572.25	45848.75
572.41	45581.93
572.57	46162.39
572.74	46438.57
572.90	45998.55
573.06	46057.06
573.22	45783.22
573.38	45853.44
573.55	45771.52
573.71	46150.68
573.87	46085.15
574.03	45834.71
574.20	45993.87
574.36	46206.86
574.52	46546.23
574.68	46241.96
574.84	46272.39
575.01	45806.62
575.17	46127.28
575.33	45764.49
575.49	46146.00
575.65	46504.10
575.82	46548.57
575.98	45764.49
576.14	46478.36
576.30	46028.98
576.46	45851.09
576.62	45638.11
576.79	45776.20
576.95	45820.67
577.11	46408.14
577.27	45853.44
577.43	46319.20
577.59	46117.92
577.75	46270.05
577.92	45305.75
578.08	45605.34
578.24	45626.40
578.40	46113.23
578.56	46256.01
578.72	46241.96
578.88	46337.93
579.04	46176.43
579.21	46031.32
579.37	46185.79
579.53	46567.30
579.69	45666.19
579.85	46312.18
580.01	46312.18
580.17	46103.87
580.33	46405.80
580.49	46209.20
580.65	46356.65
580.82	46731.14
580.98	45886.20
581.14	45954.08
581.30	46190.47
581.46	46197.49
581.62	46380.06
581.78	46059.40
581.94	46403.46
582.10	46450.27
582.26	46265.37
582.42	46515.81
582.58	46178.77
582.74	46232.60
582.90	46185.79
583.06	46464.32
583.22	46724.11
583.38	46527.51
583.54	46373.03
583.70	46679.64
583.86	45900.25
584.02	45867.48
584.18	45982.16
584.34	46169.41
584.50	46429.21
584.66	46335.59
584.82	46171.75
584.98	46389.42
585.14	46534.53
585.30	46443.25
585.46	46232.60
585.62	46080.47
585.78	46204.52
585.94	46082.81
586.10	46190.47
586.26	46415.16
586.42	46541.55
586.58	46440.91
586.74	46293.46
586.90	46401.12
587.06	46021.95
587.22	46733.48
587.38	46052.38
587.54	46766.24
587.70	46457.29
587.86	46471.34
588.02	46361.33
588.18	46440.91
588.34	46412.82
588.49	45830.03
588.65	45504.70
588.81	46124.94
588.97	46026.63
589.13	45771.52
589.29	45940.04
589.45	46394.10
589.61	45970.46
589.77	46195.15
589.93	46639.86
