SpectraSuite Data File
++++++++++++++++++++++++++++++++++++
Date: Fri Oct 25 11:34:42 EDT 2013
User: price-jones
Dark Spectrum Present: No
Reference Spectrum Present: No
Number of Sampled Component Spectra: 1
Spectrometers: USB2+H05261
Integration Time (usec): 100000 (USB2+H05261)
Spectra Averaged: 1 (USB2+H05261)
Boxcar Smoothing: 0 (USB2+H05261)
Correct for Electrical Dark: No (USB2+H05261)
Strobe/Lamp Enabled: No (USB2+H05261)
Correct for Detector Non-linearity: No (USB2+H05261)
Correct for Stray Light: No (USB2+H05261)
Number of Pixels in Processed Spectrum: 2048
>>>>>Begin Processed Spectral Data<<<<<
365.73	320.65
365.92	320.65
366.12	320.65
366.32	283.20
366.52	191.92
366.72	194.26
366.91	198.95
367.11	161.50
367.31	142.77
367.51	184.90
367.70	201.29
367.90	175.54
368.10	156.82
368.30	170.86
368.49	154.48
368.69	276.18
368.89	203.63
369.09	138.09
369.28	210.65
369.48	189.58
369.68	187.24
369.87	252.78
370.07	311.29
370.27	339.38
370.47	325.33
370.66	423.64
370.86	545.34
371.06	552.37
371.25	519.60
371.45	503.22
371.65	571.09
371.84	514.92
372.04	547.69
372.24	655.35
372.44	550.03
372.63	603.86
372.83	615.56
373.03	528.96
373.22	557.05
373.42	578.11
373.62	545.34
373.81	622.58
374.01	510.24
374.21	657.69
374.40	643.65
374.60	645.99
374.79	587.47
374.99	578.11
375.19	683.44
375.38	634.29
375.58	690.46
375.78	678.76
375.97	575.77
376.17	615.56
376.37	664.71
376.56	627.26
376.76	667.05
376.95	624.92
377.15	641.31
377.35	692.80
377.54	713.86
377.74	631.94
377.93	683.44
378.13	678.76
378.33	706.84
378.52	702.16
378.72	664.71
378.91	681.10
379.11	695.14
379.31	669.39
379.50	667.05
379.70	709.18
379.89	711.52
380.09	645.99
380.28	793.44
380.48	713.86
380.68	674.07
380.87	760.67
381.07	851.96
381.26	809.83
381.46	739.61
381.65	763.01
381.85	634.29
382.04	802.80
382.24	835.57
382.43	791.10
382.63	835.57
382.83	805.14
383.02	765.36
383.22	851.96
383.41	725.57
383.61	763.01
383.80	819.19
384.00	795.78
384.19	737.27
384.39	725.57
384.58	751.31
384.78	741.95
384.97	814.51
385.17	798.12
385.36	786.42
385.56	777.06
385.75	814.51
385.95	683.44
386.14	833.23
386.34	891.74
386.53	858.98
386.72	821.53
386.92	863.66
387.11	833.23
387.31	936.21
387.50	847.27
387.70	821.53
387.89	952.60
388.09	896.43
388.28	931.53
388.48	858.98
388.67	912.81
388.86	854.30
389.06	952.60
389.25	894.08
389.45	866.00
389.64	875.36
389.84	870.68
390.03	959.62
390.22	908.13
390.42	910.47
390.61	903.45
390.81	997.07
391.00	943.24
391.19	990.05
391.39	964.30
391.58	964.30
391.78	950.26
391.97	1006.43
392.16	931.53
392.36	1095.37
392.55	992.39
392.75	990.05
392.94	1067.28
393.13	1025.15
393.33	987.71
393.52	1020.47
393.71	1076.65
393.91	1039.20
394.10	1018.13
394.29	1001.75
394.49	1109.41
394.68	1137.50
394.88	1034.52
395.07	1020.47
395.26	1036.86
395.46	1153.88
395.65	1205.38
395.84	1137.50
396.04	1256.87
396.23	1104.73
396.42	1088.35
396.62	1139.84
396.81	1177.29
397.00	1221.76
397.19	1135.16
397.39	1118.78
397.58	1125.80
397.77	1163.25
397.97	1160.91
398.16	1186.65
398.35	1207.72
398.55	1259.21
398.74	1205.38
398.93	1228.78
399.12	1259.21
399.32	1343.47
399.51	1317.72
399.70	1282.61
399.90	1242.82
400.09	1280.27
400.28	1282.61
400.47	1259.21
400.67	1294.32
400.86	1359.85
401.05	1406.66
401.24	1387.94
401.44	1394.96
401.63	1373.89
401.82	1432.41
402.01	1401.98
402.21	1394.96
402.40	1362.19
402.59	1472.20
402.78	1376.24
402.97	1474.54
403.17	1479.22
403.36	1467.52
403.55	1488.58
403.74	1619.65
403.93	1537.73
404.13	1500.28
404.32	1416.02
404.51	1537.73
404.70	1516.67
404.89	1507.30
405.09	1579.86
405.28	1671.14
405.47	1645.40
405.66	1675.82
405.85	1699.23
406.05	1659.44
406.24	1727.32
406.43	1685.19
406.62	1788.17
406.81	1774.13
407.00	1645.40
407.20	1664.12
407.39	1727.32
407.58	1626.67
407.77	1776.47
407.96	1778.81
408.15	1739.02
408.34	1757.74
408.54	1790.51
408.73	1820.94
408.92	1769.44
409.11	1851.36
409.30	1839.66
409.49	1891.15
409.68	1952.01
409.87	1872.43
410.07	1952.01
410.26	1872.43
410.45	1914.56
410.64	1977.75
410.83	1994.14
411.02	2073.71
411.21	2115.84
411.40	2176.70
411.59	2169.68
411.78	2143.93
411.98	2059.67
412.17	2193.08
412.36	2155.63
412.55	2071.37
412.74	2218.83
412.93	2204.78
413.12	2368.62
413.31	2258.62
413.50	2303.09
413.69	2312.45
413.88	2305.43
414.07	2338.20
414.26	2190.74
414.45	2429.48
414.64	2387.35
414.83	2286.70
415.02	2462.24
415.22	2487.99
415.41	2480.97
415.60	2462.24
415.79	2478.63
415.98	2593.31
416.17	2574.59
416.36	2511.39
416.55	2436.50
416.74	2656.51
416.93	2551.18
417.12	2656.51
417.31	2743.11
417.50	2785.24
417.69	2761.83
417.88	2670.55
418.07	2722.04
418.26	2691.62
418.45	2827.37
418.64	2888.22
418.83	2916.31
419.02	2881.20
419.21	2960.78
419.39	2906.95
419.58	3019.29
419.77	2876.52
419.96	3068.44
420.15	3054.40
420.34	2951.42
420.53	2995.89
420.72	3054.40
420.91	3012.27
421.10	3220.58
421.29	3047.38
421.48	3056.74
421.67	3143.34
421.86	3148.02
422.05	3110.57
422.24	3089.51
422.43	3211.22
422.61	3054.40
422.80	3330.58
422.99	3297.81
423.18	3279.09
423.37	3232.28
423.56	3183.13
423.75	3281.43
423.94	3197.17
424.13	3073.12
424.32	3239.30
424.50	3251.00
424.69	3339.94
424.88	3365.69
425.07	3281.43
425.26	3265.05
425.45	3370.37
425.64	3070.78
425.83	3220.58
426.01	3304.84
426.20	3248.66
426.39	3379.73
426.58	3274.41
426.77	3239.30
426.96	3337.60
427.15	3421.86
427.33	3389.10
427.52	3314.20
427.71	3363.35
427.90	3494.42
428.09	3510.80
428.28	3405.48
428.46	3566.98
428.65	3480.38
428.84	3503.78
429.03	3517.83
429.22	3386.76
429.40	3482.72
429.59	3651.24
429.78	3492.08
429.97	3438.25
430.16	3808.05
430.34	3695.71
430.53	3667.62
430.72	3599.74
430.91	3660.60
431.10	3623.15
431.28	3611.45
431.47	3721.45
431.66	3698.05
431.85	3815.07
432.03	3904.01
432.22	3920.40
432.41	3805.71
432.60	3859.54
432.79	3794.01
432.97	3794.01
433.16	3985.93
433.35	3777.62
433.54	3833.80
433.72	3960.19
433.91	3861.88
434.10	3985.93
434.28	3911.04
434.47	3885.29
434.66	4011.68
434.85	3997.64
435.03	4196.58
435.22	4084.23
435.41	4290.20
435.59	4168.49
435.78	4166.15
435.97	4098.28
436.16	4117.00
436.34	4255.09
436.53	4109.98
436.72	4407.23
436.90	4215.30
437.09	4360.42
437.28	4308.93
437.46	4276.16
437.65	4304.25
437.84	4325.31
438.02	4400.21
438.21	4322.97
438.40	4287.86
438.58	4545.32
438.77	4461.06
438.96	4550.00
439.14	4554.68
439.33	4514.89
439.52	4669.37
439.70	4807.46
439.89	4786.40
440.08	4711.50
440.26	4727.88
440.45	4737.24
440.63	4767.67
440.82	5060.24
441.01	4816.82
441.19	4987.68
441.38	4966.62
441.57	4903.42
441.75	4999.38
441.94	4987.68
442.12	5100.03
442.31	5233.44
442.50	5135.14
442.68	5095.35
442.87	5198.33
443.05	5249.82
443.24	5261.52
443.43	5242.80
443.61	5343.44
443.80	5362.17
443.98	5025.13
444.17	4966.62
444.35	5287.27
444.54	5439.40
444.73	5284.93
444.91	5458.13
445.10	5268.55
445.28	5341.10
445.47	5420.68
445.65	5336.42
445.84	5406.64
446.02	5467.49
446.21	5345.78
446.39	5399.62
446.58	5497.92
446.77	5490.90
446.95	5207.69
447.14	5359.83
447.32	5460.47
447.51	5497.92
447.69	5404.30
447.88	5540.05
448.06	5593.88
448.25	5509.62
448.43	5465.15
448.62	5584.52
448.80	5502.60
448.99	5734.31
449.17	5472.17
449.36	5390.25
449.54	5610.26
449.73	5713.25
449.91	5643.03
450.10	5806.87
450.28	5757.72
450.46	5741.33
450.65	5687.50
450.83	5837.30
451.02	5804.53
451.20	5893.47
451.39	5935.60
451.57	5956.66
451.76	5685.16
451.94	5837.30
452.13	5856.02
452.31	5851.34
452.49	5841.98
452.68	6036.24
452.86	5963.68
453.05	6188.38
453.23	6083.05
453.42	5877.09
453.60	5947.30
453.78	6097.10
453.97	6127.52
454.15	5895.81
454.34	6015.18
454.52	6237.53
454.70	6132.20
454.89	6188.38
455.07	6319.45
455.26	6335.83
455.44	6303.06
455.62	6415.41
455.81	6331.15
455.99	6324.13
456.17	6377.96
456.36	6417.75
456.54	6494.99
456.73	6572.22
456.91	6853.09
457.09	6658.82
457.28	6658.82
457.46	6539.46
457.64	6581.59
457.83	6565.20
458.01	6525.41
458.19	6832.02
458.38	6841.39
458.56	6822.66
458.74	6815.64
458.93	6820.32
459.11	6857.77
459.29	6801.60
459.48	6867.13
459.66	6771.17
459.84	7096.50
460.03	7023.95
460.21	7080.12
460.39	7028.63
460.57	6808.62
460.76	6984.16
460.94	6930.33
461.12	7236.94
461.31	7054.37
461.49	7035.65
461.67	7185.44
461.85	7309.49
462.04	7255.66
462.22	7623.12
462.40	7405.46
462.59	7272.04
462.77	7396.09
462.95	7412.48
463.13	7103.53
463.32	7492.05
463.50	7454.61
463.68	7564.61
463.86	7431.20
464.05	7459.29
464.23	7419.50
464.41	7499.08
464.59	7414.82
464.78	7709.72
464.96	7438.22
465.14	7585.68
465.32	7590.36
465.50	7709.72
465.69	7681.64
465.87	7915.69
466.05	7625.47
466.23	7573.97
466.41	7784.62
466.60	7899.31
466.78	7822.07
466.96	7620.78
467.14	7639.51
467.32	7861.86
467.51	7927.39
467.69	7695.68
467.87	7808.03
468.05	7850.16
468.23	7786.96
468.41	7803.35
468.60	8105.28
468.78	7983.57
468.96	7943.78
469.14	8128.68
469.32	8131.02
469.50	7887.61
469.69	8126.34
469.87	8175.49
470.05	8105.28
470.23	8250.39
470.41	8234.00
470.59	8397.84
470.77	8273.79
470.95	8280.82
471.14	8676.37
471.32	8145.06
471.50	8545.30
471.68	8552.32
471.86	8545.30
472.04	8547.64
472.22	8643.60
472.40	8627.21
472.58	8774.67
472.77	8884.67
472.95	8791.05
473.13	8950.21
473.31	8706.79
473.49	8961.91
473.67	8685.73
473.85	9043.83
474.03	9083.62
474.21	9092.98
474.39	9254.48
474.57	8994.68
474.75	9350.44
474.93	9495.55
475.12	9554.07
475.30	9453.42
475.48	9469.81
475.66	9497.89
475.84	9252.14
476.02	9713.22
476.20	9479.17
476.38	9792.80
476.56	10106.43
476.74	9867.70
476.92	10101.75
477.10	9940.26
477.28	9809.19
477.46	10078.35
477.64	10190.69
477.82	10406.02
478.00	10651.78
478.18	10438.79
478.36	10548.79
478.54	10593.26
478.72	10572.20
478.90	10740.72
479.08	11042.65
479.26	10925.62
479.44	11052.01
479.62	11110.52
479.80	11054.35
479.98	11143.29
480.16	11477.99
480.34	11300.11
480.52	11410.11
480.70	11758.85
480.88	11342.24
481.06	11679.27
481.24	11775.24
481.41	11875.88
481.59	11903.96
481.77	12102.91
481.95	12067.80
482.13	12182.49
482.31	12044.40
482.49	12400.16
482.67	12615.49
482.85	12685.70
483.03	12692.73
483.21	12961.89
483.39	12922.10
483.57	13069.55
483.74	13238.07
483.92	13413.61
484.10	13188.92
484.28	13420.63
484.46	13509.57
484.64	13905.12
484.82	13781.07
485.00	13755.33
485.18	14207.05
485.35	14267.91
485.53	14097.05
485.71	14090.02
485.89	14420.04
486.07	14553.45
486.25	14740.69
486.43	14740.69
486.61	14628.35
486.78	15007.52
486.96	14855.38
487.14	15112.84
487.32	15066.03
487.50	15316.47
487.68	15351.57
487.85	15557.54
488.03	15566.90
488.21	16233.96
488.39	15852.45
488.57	16250.34
488.75	16081.82
488.92	16629.51
489.10	16465.67
489.28	16645.89
489.46	16959.52
489.64	17048.46
489.81	17069.53
489.99	17123.36
490.17	17043.78
490.35	17355.07
490.53	17530.61
490.70	17268.47
490.88	17411.25
491.06	17598.49
491.24	17799.77
491.41	18148.51
491.59	18356.82
491.77	18157.88
491.95	18562.79
492.13	18174.26
492.30	18537.04
492.48	18745.35
492.66	18838.97
492.84	18696.20
493.01	19047.28
493.19	19049.62
493.37	19316.44
493.54	19157.28
493.72	19374.95
493.90	19520.07
494.08	19564.54
494.25	19688.59
494.43	19824.34
494.61	20060.73
494.79	20205.84
494.96	20114.56
495.14	20137.97
495.32	20496.07
495.49	20154.35
495.67	20844.81
495.85	20439.90
496.02	20798.00
496.20	21151.42
496.38	21223.98
496.55	21039.08
496.73	21418.24
496.91	21268.45
497.09	21408.88
497.26	21514.20
497.44	21743.58
497.62	21879.33
497.79	21991.67
497.97	21979.97
498.14	22169.55
498.32	22274.88
498.50	22162.53
498.67	22347.44
498.85	22197.64
499.03	22677.45
499.20	22487.87
499.38	22787.46
499.56	22852.99
499.73	22937.25
499.91	22867.03
500.08	23241.52
500.26	23096.41
500.44	23133.86
500.61	23576.22
500.79	23295.35
500.97	23379.61
501.14	24205.82
501.32	23939.00
501.49	23819.63
501.67	23988.15
501.84	24196.46
502.02	24105.18
502.20	24156.67
502.37	24215.18
502.55	24592.01
502.72	24592.01
502.90	24280.72
503.07	24304.12
503.25	24531.15
503.43	24332.21
503.60	25067.14
503.78	24793.29
503.95	25099.90
504.13	24919.68
504.30	25074.16
504.48	25443.96
504.65	25153.74
504.83	25544.61
505.01	25692.06
505.18	25666.31
505.36	26073.57
505.53	25792.70
505.71	25834.83
505.88	25649.93
506.06	25401.83
506.23	26036.12
506.41	26113.36
506.58	25956.54
506.76	26094.63
506.93	26476.14
507.11	26305.28
507.28	26771.05
507.46	26438.69
507.63	26782.75
507.81	26841.26
507.98	26352.09
508.16	26857.65
508.33	26906.80
508.50	26852.97
508.68	27182.98
508.85	27227.45
509.03	26867.01
509.20	27250.86
509.38	27620.66
509.55	27285.97
509.73	27545.76
509.90	27821.95
510.08	27992.81
510.25	27644.07
510.42	27857.06
510.60	28187.07
510.77	28208.14
510.95	28278.35
511.12	28147.28
511.30	28531.13
511.47	28329.84
511.64	28505.38
511.82	28744.12
511.99	28334.53
512.17	28685.61
512.34	28481.98
512.51	28505.38
512.69	29202.86
512.86	29153.71
513.04	29240.31
513.21	29142.01
513.38	29167.76
513.56	29542.24
513.73	29078.82
513.90	29378.40
514.08	29359.68
514.25	29640.54
514.43	29493.09
514.60	29898.00
514.77	29905.02
514.95	29631.18
515.12	29834.81
515.29	29504.79
515.47	29809.06
515.64	30387.18
515.81	29699.06
515.99	30153.12
516.16	30281.85
516.33	30536.97
516.51	30576.76
516.68	30265.47
516.85	30452.71
517.03	30876.35
517.20	30733.57
517.37	30747.62
517.54	31079.97
517.72	31374.88
517.89	31056.57
518.06	31096.36
518.24	31290.62
518.41	31051.89
518.58	31264.88
518.75	31035.50
518.93	31323.39
519.10	31477.86
519.27	31660.43
519.45	31655.75
519.62	31639.36
519.79	31798.52
519.96	31955.33
520.14	31428.71
520.31	31655.75
520.48	31861.71
520.65	32016.19
520.83	32488.98
521.00	32500.68
521.17	32245.56
521.34	32353.23
521.52	32730.05
521.69	32421.10
521.86	32741.75
522.03	32917.29
522.20	32531.11
522.38	32863.46
522.55	32809.63
522.72	32910.27
522.89	33179.43
523.07	33556.26
523.24	33333.91
523.41	33317.53
523.58	33397.10
523.75	33301.14
523.92	32828.35
524.10	33324.55
524.27	33591.37
524.44	33542.22
524.61	34092.24
524.78	33968.19
524.96	34511.20
525.13	34169.48
525.30	34141.39
525.47	33736.48
525.64	33874.57
525.81	34101.61
525.98	34565.03
526.16	33830.10
526.33	34029.05
526.50	34265.44
526.67	34181.18
526.84	34033.73
527.01	34742.91
527.18	34403.53
527.36	34794.40
527.53	34646.95
527.70	35089.31
527.87	35061.22
528.04	34747.59
528.21	34888.03
528.38	34960.58
528.55	35131.44
528.72	34810.79
528.89	35126.76
529.07	35093.99
529.24	34969.94
529.41	35323.36
529.58	35339.75
529.75	35309.32
529.92	35482.52
530.09	35433.37
530.26	35674.45
530.43	35536.35
530.60	35538.69
530.77	35693.17
530.94	35665.08
531.11	35777.43
531.28	35878.07
531.46	36219.79
531.63	35924.88
531.80	35812.54
531.97	35676.79
532.14	36177.66
532.31	36065.31
532.48	36311.07
532.65	36680.88
532.82	36172.98
532.99	36093.40
533.16	36404.69
533.33	36652.79
533.50	36435.12
533.67	36439.80
533.84	36598.96
534.01	36858.76
534.18	36989.83
534.35	37092.81
534.52	37064.72
534.69	37095.15
534.86	36856.42
535.03	37095.15
535.20	37280.05
535.37	37249.63
535.54	37308.14
535.71	36914.93
535.88	36938.33
536.05	37092.81
536.22	37677.94
536.38	37399.42
536.55	37521.13
536.72	37666.24
536.89	37226.22
537.06	37163.03
537.23	37738.80
537.40	37387.72
537.57	37048.34
537.74	37392.40
537.91	37656.88
538.08	38043.07
538.25	37933.06
538.42	37804.33
538.59	38160.09
538.75	37670.92
538.92	38281.80
539.09	38476.07
539.26	37827.74
539.43	38284.14
539.60	38560.33
539.77	38312.23
539.94	38455.00
540.11	37979.87
540.28	38719.48
540.44	38485.43
540.61	38370.74
540.78	38258.40
540.95	38646.93
541.12	38841.19
541.29	38569.69
541.46	38646.93
541.62	38712.46
541.79	39044.82
541.96	38330.95
542.13	38499.47
542.30	38829.49
542.47	38609.48
542.63	39077.58
542.80	39278.87
542.97	39098.65
543.14	39522.29
543.31	39203.97
543.48	39019.07
543.64	40109.76
543.81	39622.93
543.98	39601.86
544.15	40002.10
544.32	39917.84
544.48	39859.32
544.65	39903.79
544.82	39665.06
544.99	39718.89
545.16	39915.50
545.32	39749.32
545.49	40011.46
545.66	40058.27
545.83	39746.98
546.00	39833.58
546.16	40048.91
546.33	40254.87
546.50	39620.59
546.67	40219.77
546.83	40016.14
547.00	40299.34
547.17	40201.04
547.34	40425.73
547.50	40596.59
547.67	40793.20
547.84	40800.22
548.00	40568.51
548.17	40961.72
548.34	40650.42
548.51	41078.74
548.67	40350.84
548.84	40828.30
549.01	40638.72
549.18	40442.12
549.34	41221.52
549.51	41134.92
549.68	41404.08
549.84	40814.26
550.01	40671.49
550.18	40793.20
550.34	41226.20
550.51	41160.66
550.68	41062.36
550.84	40863.41
551.01	41205.13
551.18	40961.72
551.34	41273.01
551.51	41415.78
551.68	41453.23
551.84	41549.19
552.01	41109.17
552.18	41420.46
552.34	41331.52
552.51	41460.25
552.68	41357.27
552.84	41565.57
553.01	41745.80
553.18	41778.56
553.34	41404.08
553.51	41394.71
553.67	42050.06
553.84	42045.38
554.01	41537.49
554.17	42230.29
554.34	41916.65
554.51	41703.67
554.67	42066.45
554.84	42447.96
555.00	41846.44
555.17	41773.88
555.33	42438.59
555.50	42113.26
555.67	42010.28
555.83	42010.28
556.00	42452.64
556.16	42611.79
556.33	42305.18
556.50	42033.68
556.66	42129.64
556.83	42277.10
556.99	42707.76
557.16	42667.97
557.32	42433.91
557.49	42642.22
557.65	42541.58
557.82	42752.23
557.98	42703.07
558.15	42546.26
558.32	42611.79
558.48	42483.06
558.65	43208.63
558.81	42862.23
558.98	42230.29
559.14	42747.54
559.31	42714.78
559.47	42639.88
559.64	42864.57
559.80	42712.44
559.97	42684.35
560.13	42766.27
560.30	42564.98
560.46	43084.58
560.63	43100.97
560.79	42749.88
560.96	43096.28
561.12	43243.74
561.29	43129.05
561.45	43082.24
561.61	42813.08
561.78	43131.39
561.94	42857.55
562.11	42829.46
562.27	43051.81
562.44	42955.85
562.60	43122.03
562.77	43306.93
562.93	43632.27
563.10	43379.49
563.26	43140.75
563.42	43489.49
563.59	43377.15
563.75	43545.67
563.92	43374.81
564.08	43370.13
564.24	43288.21
564.41	43533.96
564.57	43606.52
564.74	43625.25
564.90	43262.46
565.07	43374.81
565.23	43522.26
565.39	43531.62
565.56	43753.97
565.72	43320.98
565.88	43800.79
566.05	43510.56
566.21	43732.91
566.38	43519.92
566.54	43835.89
566.70	43779.72
566.87	43789.08
567.03	43643.97
567.19	44062.93
567.36	43508.22
567.52	43695.46
567.68	44196.34
567.85	43878.02
568.01	43950.58
568.17	43557.37
568.34	44425.71
568.50	43798.44
568.66	43992.71
568.83	44072.29
568.99	43966.96
569.15	43627.59
569.32	44074.63
569.48	43889.73
569.64	44194.00
569.81	44304.00
569.97	43920.15
570.13	44013.77
570.30	43667.37
570.46	43786.74
570.62	44439.75
570.78	44327.41
570.95	44170.59
571.11	44362.51
571.27	44142.50
571.43	43723.55
571.60	43875.68
571.76	43885.04
571.92	43667.37
572.09	44091.01
572.25	44147.18
572.41	43758.66
572.57	44563.80
572.74	44872.75
572.90	43957.60
573.06	44406.98
573.22	44423.37
573.38	44421.03
573.55	44149.53
573.71	44488.90
573.87	44535.71
574.03	44170.59
574.20	44542.74
574.36	44631.68
574.52	44818.92
574.68	44416.35
574.84	44425.71
575.01	44837.64
575.17	44463.16
575.33	44430.39
575.49	43948.24
575.65	44711.25
575.82	44505.29
575.98	44488.90
576.14	44921.90
576.30	44863.39
576.46	44254.85
576.62	44701.89
576.79	44648.06
576.95	44135.48
577.11	44151.87
577.27	44142.50
577.43	44339.11
577.59	44598.91
577.75	44390.60
577.92	44566.14
578.08	44327.41
578.24	44479.54
578.40	44980.42
578.56	45123.19
578.72	44470.18
578.88	44781.47
579.04	44526.35
579.21	44528.69
579.37	44449.11
579.53	44751.04
579.69	44360.17
579.85	44598.91
580.01	44414.01
580.17	44573.16
580.33	44610.61
580.49	44844.66
580.65	44594.23
580.82	44699.55
580.98	44327.41
581.14	44201.02
581.30	44631.68
581.46	44463.16
581.62	44236.12
581.78	44156.55
581.94	44643.38
582.10	44533.37
582.26	44774.45
582.42	44748.70
582.58	44605.93
582.74	44828.28
582.90	44470.18
583.06	44659.76
583.22	44498.26
583.38	44924.24
583.54	44294.64
583.70	44687.85
583.86	44793.17
584.02	44591.89
584.18	44715.93
584.34	44973.39
584.50	45031.91
584.66	44999.14
584.82	44961.69
584.98	45343.20
585.14	45099.78
585.30	44507.63
585.46	44830.62
585.62	44863.39
585.78	45343.20
585.94	44411.67
586.10	44657.42
586.26	44540.39
586.42	44907.86
586.58	44870.41
586.74	44439.75
586.90	44706.57
587.06	44718.28
587.22	45010.84
587.38	45020.20
587.54	44884.45
587.70	44886.79
587.86	44687.85
588.02	45228.51
588.18	45371.28
588.34	45153.62
588.49	45200.43
588.65	44680.83
588.81	44818.92
588.97	45029.57
589.13	44774.45
589.29	44987.44
589.45	45132.55
589.61	44683.17
589.77	45261.28
589.93	45305.75
590.08	45127.87
590.24	45118.51
