SpectraSuite Data File
++++++++++++++++++++++++++++++++++++
Date: Fri Oct 25 11:33:58 EDT 2013
User: price-jones
Dark Spectrum Present: No
Reference Spectrum Present: No
Number of Sampled Component Spectra: 1
Spectrometers: USB2+H05261
Integration Time (usec): 100000 (USB2+H05261)
Spectra Averaged: 1 (USB2+H05261)
Boxcar Smoothing: 0 (USB2+H05261)
Correct for Electrical Dark: No (USB2+H05261)
Strobe/Lamp Enabled: No (USB2+H05261)
Correct for Detector Non-linearity: No (USB2+H05261)
Correct for Stray Light: No (USB2+H05261)
Number of Pixels in Processed Spectrum: 2048
>>>>>Begin Processed Spectral Data<<<<<
365.73	308.95
365.92	308.95
366.12	308.95
366.32	205.97
366.52	184.90
366.72	229.37
366.91	168.52
367.11	154.48
367.31	168.52
367.51	264.48
367.70	166.18
367.90	220.01
368.10	208.31
368.30	191.92
368.49	175.54
368.69	184.90
368.89	222.35
369.09	170.86
369.28	208.31
369.48	126.39
369.68	273.84
369.87	180.22
370.07	220.01
370.27	264.48
370.47	313.63
370.66	486.83
370.86	554.71
371.06	561.73
371.25	505.56
371.45	517.26
371.65	535.98
371.84	507.90
372.04	535.98
372.24	608.54
372.44	500.87
372.63	627.26
372.83	519.60
373.03	620.24
373.22	662.37
373.42	645.99
373.62	734.93
373.81	645.99
374.01	657.69
374.21	631.94
374.40	599.18
374.60	704.50
374.79	606.20
374.99	636.63
375.19	685.78
375.38	683.44
375.58	709.18
375.78	723.23
375.97	662.37
376.17	704.50
376.37	653.01
376.56	667.05
376.76	674.07
376.95	627.26
377.15	763.01
377.35	690.46
377.54	629.60
377.74	676.41
377.93	657.69
378.13	692.80
378.33	727.91
378.52	800.46
378.72	774.72
378.91	730.25
379.11	730.25
379.31	648.33
379.50	631.94
379.70	723.23
379.89	709.18
380.09	753.65
380.28	711.52
380.48	699.82
380.68	758.33
380.87	709.18
381.07	791.10
381.26	833.23
381.46	800.46
381.65	755.99
381.85	751.31
382.04	798.12
382.24	753.65
382.43	763.01
382.63	814.51
382.83	784.08
383.02	828.55
383.22	840.25
383.41	739.61
383.61	774.72
383.80	856.64
384.00	795.78
384.19	777.06
384.39	809.83
384.58	809.83
384.78	772.38
384.97	826.21
385.17	842.59
385.36	823.87
385.56	835.57
385.75	833.23
385.95	800.46
386.14	816.85
386.34	877.70
386.53	828.55
386.72	840.25
386.92	889.40
387.11	894.08
387.31	847.27
387.50	856.64
387.70	894.08
387.89	912.81
388.09	798.12
388.28	875.36
388.48	943.24
388.67	891.74
388.86	877.70
389.06	973.66
389.25	966.64
389.45	961.96
389.64	912.81
389.84	922.17
390.03	877.70
390.22	929.19
390.42	877.70
390.61	856.64
390.81	929.19
391.00	945.58
391.19	1018.13
391.39	1013.45
391.58	968.98
391.78	1083.67
391.97	1048.56
392.16	1025.15
392.36	1097.71
392.55	1153.88
392.75	1083.67
392.94	1025.15
393.13	1032.18
393.33	1064.94
393.52	1177.29
393.71	1100.05
393.91	1196.01
394.10	1097.71
394.29	1022.81
394.49	1064.94
394.68	1158.57
394.88	1111.75
395.07	1181.97
395.26	1151.54
395.46	1132.82
395.65	1177.29
395.84	1086.01
396.04	1228.78
396.23	1207.72
396.42	1210.06
396.62	1228.78
396.81	1308.36
397.00	1111.75
397.19	1118.78
397.39	1163.25
397.58	1315.38
397.77	1226.44
397.97	1235.80
398.16	1306.02
398.35	1240.48
398.55	1221.76
398.74	1261.55
398.93	1240.48
399.12	1242.82
399.32	1275.59
399.51	1378.58
399.70	1423.05
399.90	1259.21
400.09	1296.66
400.28	1313.04
400.47	1359.85
400.67	1362.19
400.86	1394.96
401.05	1420.71
401.24	1453.47
401.44	1380.92
401.63	1434.75
401.82	1495.60
402.01	1364.53
402.21	1472.20
402.40	1486.24
402.59	1427.73
402.78	1479.22
402.97	1504.96
403.17	1565.82
403.36	1563.48
403.55	1511.99
403.74	1533.05
403.93	1591.56
404.13	1603.27
404.32	1572.84
404.51	1603.27
404.70	1631.35
404.89	1607.95
405.09	1668.80
405.28	1636.03
405.47	1657.10
405.66	1682.85
405.85	1755.40
406.05	1710.93
406.24	1790.51
406.43	1797.53
406.62	1722.63
406.81	1837.32
407.00	1713.27
407.20	1694.55
407.39	1699.23
407.58	1844.34
407.77	1842.00
407.96	1858.39
408.15	1849.02
408.34	1849.02
408.54	1872.43
408.73	1860.73
408.92	1921.58
409.11	1966.05
409.30	1952.01
409.49	1952.01
409.68	1940.30
409.87	2143.93
410.07	2083.08
410.26	2111.16
410.45	2038.61
410.64	2108.82
410.83	2127.55
411.02	2129.89
411.21	2094.78
411.40	2218.83
411.59	2190.74
411.78	2260.96
411.98	2150.95
412.17	2193.08
412.36	2204.78
412.55	2410.75
412.74	2230.53
412.93	2377.98
413.12	2221.17
413.31	2431.82
413.50	2354.58
413.69	2340.54
413.88	2382.67
414.07	2459.90
414.26	2382.67
414.45	2565.23
414.64	2534.80
414.83	2530.12
415.02	2616.72
415.22	2581.61
415.41	2588.63
415.60	2745.45
415.79	2675.23
415.98	2825.03
416.17	2745.45
416.36	2731.41
416.55	2672.89
416.74	2813.32
416.93	2799.28
417.12	2846.09
417.31	2857.79
417.50	2829.71
417.69	3014.61
417.88	2904.60
418.07	2911.63
418.26	2890.56
418.45	3035.67
418.64	2984.18
418.83	3047.38
419.02	3148.02
419.21	3084.83
419.39	3070.78
419.58	3084.83
419.77	3019.29
419.96	3152.70
420.15	3218.24
420.34	3166.74
420.53	3061.42
420.72	3141.00
420.91	3138.66
421.10	3192.49
421.29	3253.34
421.48	3173.77
421.67	3211.22
421.86	3288.45
422.05	3293.13
422.24	3365.69
422.43	3290.79
422.61	3452.29
422.80	3379.73
422.99	3452.29
423.18	3368.03
423.37	3456.97
423.56	3325.90
423.75	3276.75
423.94	3365.69
424.13	3105.89
424.32	3251.00
424.50	3351.65
424.69	3403.14
424.88	3421.86
425.07	3361.01
425.26	3421.86
425.45	3370.37
425.64	3485.06
425.83	3398.46
426.01	3566.98
426.20	3398.46
426.39	3412.50
426.58	3496.76
426.77	3403.14
426.96	3536.55
427.15	3515.48
427.33	3557.61
427.52	3461.65
427.71	3604.42
427.90	3492.08
428.09	3684.00
428.28	3630.17
428.46	3555.27
428.65	3679.32
428.84	3798.69
429.03	3782.31
429.22	3658.26
429.40	3824.44
429.59	3726.13
429.78	3623.15
429.97	3597.40
430.16	3878.27
430.34	3698.05
430.53	3889.97
430.72	3932.10
430.91	3992.95
431.10	3730.81
431.28	3829.12
431.47	3892.31
431.66	3997.64
431.85	3967.21
432.03	3936.78
432.22	3999.98
432.41	3983.59
432.60	4119.34
432.79	4074.87
432.97	4084.23
433.16	4117.00
433.35	4124.02
433.54	4070.19
433.72	4212.96
433.91	4194.24
434.10	4278.50
434.28	4100.62
434.47	4264.46
434.66	4362.76
434.85	4269.14
435.03	4203.60
435.22	4320.63
435.41	4306.59
435.59	4463.40
435.78	4269.14
435.97	4372.12
436.16	4374.46
436.34	4348.72
436.53	4315.95
436.72	4470.42
436.90	4404.89
437.09	4479.79
437.28	4400.21
437.46	4346.37
437.65	4557.02
437.84	4676.39
438.02	4683.41
438.21	4683.41
438.40	4468.08
438.58	4777.03
438.77	4826.18
438.96	4781.71
439.14	4870.65
439.33	4901.08
439.52	4957.25
439.70	4844.91
439.89	4898.74
440.08	5001.72
440.26	4917.47
440.45	5041.51
440.63	5029.81
440.82	5135.14
441.01	5111.73
441.19	5055.56
441.38	5254.50
441.57	5259.18
441.75	5249.82
441.94	5338.76
442.12	5416.00
442.31	5259.18
442.50	5404.30
442.68	5254.50
442.87	5387.91
443.05	5645.37
443.24	5500.26
443.43	5411.32
443.61	5479.19
443.80	5612.60
443.98	5507.28
444.17	5252.16
444.35	5530.69
444.54	5750.70
444.73	5514.30
444.91	5643.03
445.10	5715.59
445.28	5528.35
445.47	5542.39
445.65	5666.44
445.84	5781.12
446.02	5818.57
446.21	5771.76
446.39	5638.35
446.58	5619.63
446.77	5582.18
446.95	5446.43
447.14	5703.89
447.32	5788.14
447.51	5743.67
447.69	5685.16
447.88	5654.73
448.06	5565.79
448.25	5816.23
448.43	5806.87
448.62	5809.21
448.80	5825.59
448.99	5811.55
449.17	5706.23
449.36	5902.83
449.54	5879.43
449.73	5989.43
449.91	6012.84
450.10	5916.87
450.28	6045.60
450.46	6153.27
450.65	6106.46
450.83	6111.14
451.02	5930.92
451.20	6270.30
451.39	6214.12
451.57	6197.74
451.76	6024.54
451.94	5951.98
452.13	6150.93
452.31	6258.59
452.49	6057.31
452.68	6214.12
452.86	6228.17
453.05	6293.70
453.23	6368.60
453.42	6209.44
453.60	6370.94
453.78	6445.84
453.97	6544.14
454.15	6431.79
454.34	6455.20
454.52	6502.01
454.70	6492.65
454.89	6537.12
455.07	6640.10
455.26	6581.59
455.44	6710.32
455.62	6635.42
455.81	6724.36
455.99	6612.01
456.17	6759.47
456.36	6719.68
456.54	6768.83
456.73	6822.66
456.91	7002.88
457.09	6981.82
457.28	7089.48
457.46	6916.28
457.64	7082.46
457.83	7136.29
458.01	6883.52
458.19	7054.37
458.38	6958.41
458.56	7309.49
458.74	7054.37
458.93	7133.95
459.11	7192.47
459.29	6932.67
459.48	7143.32
459.66	7159.70
459.84	7239.28
460.03	7276.73
460.21	7253.32
460.39	7342.26
460.57	7499.08
460.76	7541.21
460.94	7372.69
461.12	7520.14
461.31	7405.46
461.49	7431.20
461.67	7459.29
461.85	7641.85
462.04	7550.57
462.22	8035.06
462.40	7742.49
462.59	7662.91
462.77	7665.25
462.95	7817.39
463.13	7695.68
463.32	7712.07
463.50	7880.58
463.68	8016.33
463.86	7801.01
464.05	7676.96
464.23	7735.47
464.41	7812.71
464.59	7889.95
464.78	7913.35
464.96	7894.63
465.14	7850.16
465.32	7992.93
465.50	8023.36
465.69	8088.89
465.87	7992.93
466.05	7889.95
466.23	8079.53
466.41	8285.50
466.60	8334.65
466.78	8126.34
466.96	8187.19
467.14	8086.55
467.32	8243.37
467.51	8372.10
467.69	8182.51
467.87	8313.58
468.05	8170.81
468.23	8009.31
468.41	8105.28
468.60	8617.85
468.78	8320.60
468.96	8524.23
469.14	8528.91
469.32	8762.97
469.50	8236.35
469.69	8512.53
469.87	8589.77
470.05	8559.34
470.23	8755.94
470.41	8730.20
470.59	8720.84
470.77	8753.60
470.95	8788.71
471.14	8982.98
471.32	8727.86
471.50	8978.30
471.68	9029.79
471.86	9081.28
472.04	9132.77
472.22	9172.56
472.40	8957.23
472.58	9118.73
472.77	9233.41
472.95	9380.87
473.13	9582.15
473.31	9291.93
473.49	9437.04
473.67	9378.53
473.85	9570.45
474.03	9743.65
474.21	9788.12
474.39	9886.42
474.57	9598.54
474.75	10026.86
474.93	9851.31
475.12	9923.87
475.30	9923.87
475.48	9951.96
475.66	10267.93
475.84	9994.09
476.02	10038.56
476.20	10092.39
476.38	10326.44
476.56	10670.50
476.74	10328.78
476.92	10340.49
477.10	10209.42
477.28	10654.12
477.46	10501.98
477.64	10665.82
477.82	11019.24
478.00	11122.23
478.18	11211.17
478.36	11288.40
478.54	11367.98
478.72	11288.40
478.90	11318.83
479.08	11609.06
479.26	11571.61
479.44	11515.44
479.62	11611.40
479.80	11754.17
479.98	12018.65
480.16	12074.82
480.34	11815.02
480.52	12294.83
480.70	12290.15
480.88	12100.57
481.06	12304.20
481.24	12306.54
481.41	12526.55
481.59	12498.46
481.77	12681.02
481.95	12507.82
482.13	12943.16
482.31	12933.80
482.49	13188.92
482.67	13348.08
482.85	13371.48
483.03	13483.83
483.21	13202.96
483.39	13652.34
483.57	13479.15
483.74	13834.91
483.92	14001.08
484.10	13846.61
484.28	14071.30
484.46	14218.75
484.64	14707.93
484.82	14450.47
485.00	14616.65
485.18	14974.75
485.35	15154.97
485.53	14829.63
485.71	15199.44
485.89	15269.66
486.07	15049.64
486.25	15290.72
486.43	15154.97
486.61	15297.74
486.78	15585.63
486.96	15829.04
487.14	15889.90
487.32	16009.26
487.50	16269.06
487.68	16130.97
487.85	16269.06
488.03	16858.88
488.21	16772.28
488.39	17036.76
488.57	17071.87
488.75	17083.57
488.92	17249.75
489.10	17174.85
489.28	17436.99
489.46	17572.74
489.64	17500.19
489.81	18043.19
489.99	18106.38
490.17	17944.89
490.35	18476.19
490.53	18382.57
490.70	18354.48
490.88	18448.10
491.06	18593.22
491.24	18984.09
491.41	19159.63
491.59	19009.83
491.77	19159.63
491.95	19222.82
492.13	19637.09
492.30	19527.09
492.48	19562.20
492.66	19887.53
492.84	19859.45
493.01	20016.26
493.19	19721.35
493.37	19939.02
493.54	20018.60
493.72	20329.89
493.90	20301.81
494.08	20805.02
494.25	20896.30
494.43	20870.56
494.61	21048.44
494.79	20992.26
494.96	21092.91
495.14	21446.33
495.32	21427.60
495.49	21443.99
495.67	21724.85
495.85	22010.40
496.02	21968.27
496.20	22377.86
496.38	22157.85
496.55	22377.86
496.73	22808.52
496.91	22562.76
497.09	22492.55
497.26	22728.94
497.44	22824.90
497.62	22836.61
497.79	22948.95
497.97	23269.61
498.14	23548.13
498.32	23330.46
498.50	23683.88
498.67	23880.49
498.85	23828.99
499.03	23756.44
499.20	24002.19
499.38	23915.59
499.56	24159.01
499.73	24093.47
499.91	24652.86
500.08	24130.92
500.26	24442.21
500.44	24783.93
500.61	24500.73
500.79	24683.29
500.97	24599.03
501.14	25296.51
501.32	25427.58
501.49	25048.41
501.67	25120.97
501.84	25205.23
502.02	25120.97
502.20	25603.12
502.37	25125.65
502.55	25766.96
502.72	25422.90
502.90	25886.32
503.07	25612.48
503.25	25919.09
503.43	25795.04
503.60	26338.05
503.78	26127.40
503.95	26251.45
504.13	26541.68
504.30	26541.68
504.48	26628.27
504.65	26604.87
504.83	26731.26
505.01	27000.42
505.18	26909.14
505.36	27234.47
505.53	27023.83
505.71	26913.82
505.88	27026.17
506.06	27091.70
506.23	27742.37
506.41	27777.48
506.58	27421.72
506.76	27302.35
506.93	27889.82
507.11	27356.18
507.28	27922.59
507.46	27686.20
507.63	27920.25
507.81	28772.21
507.98	28268.99
508.16	28418.78
508.33	28224.52
508.50	28383.68
508.68	28439.85
508.85	28711.35
509.03	28376.66
509.20	28800.29
509.38	29062.43
509.55	28884.55
509.73	29177.12
509.90	29275.42
510.08	29027.32
510.25	29191.16
510.42	29614.80
510.60	29544.58
510.77	29476.71
510.95	30129.72
511.12	29844.17
511.30	29488.41
511.47	29811.40
511.64	30033.75
511.82	29942.47
511.99	30022.05
512.17	30333.34
512.34	30551.01
512.51	30347.39
512.69	30438.67
512.86	30710.17
513.04	30630.59
513.21	30876.35
513.38	31084.65
513.56	31021.46
513.73	30953.58
513.90	30824.86
514.08	30850.60
514.25	31014.44
514.43	31061.25
514.60	31314.03
514.77	31325.73
514.95	31725.96
515.12	31393.61
515.29	31667.45
515.47	31630.00
515.64	31597.23
515.81	31564.46
515.99	32009.17
516.16	32058.32
516.33	32067.68
516.51	32390.67
516.68	31840.65
516.85	32177.68
517.03	32336.84
517.20	32411.74
517.37	32488.98
517.54	32547.49
517.72	32975.81
517.89	32638.77
518.06	33055.39
518.24	32795.59
518.41	33085.81
518.58	32650.47
518.75	32840.06
518.93	33259.01
519.10	33034.32
519.27	33177.09
519.45	33296.46
519.62	33106.88
519.79	33542.22
519.96	33500.09
520.14	33769.25
520.31	33483.70
520.48	33813.72
520.65	34040.75
520.83	33886.28
521.00	34010.32
521.17	34197.57
521.34	34237.36
521.52	34349.70
521.69	34199.91
521.86	34319.28
522.03	34134.37
522.20	34712.49
522.38	34927.81
522.55	34714.83
522.72	34515.88
522.89	35051.86
523.07	34677.38
523.24	34719.51
523.41	34628.23
523.58	34951.22
523.75	35211.02
523.92	35328.05
524.10	35208.68
524.27	35337.41
524.44	35548.06
524.61	35653.38
524.78	35501.25
524.96	35934.24
525.13	35763.39
525.30	35754.02
525.47	35964.67
525.64	35929.56
525.81	35964.67
525.98	36278.30
526.16	35992.76
526.33	35857.01
526.50	36346.18
526.67	36051.27
526.84	36067.66
527.01	36769.82
527.18	36339.16
527.36	36767.48
527.53	36229.15
527.70	37017.91
527.87	37315.16
528.04	36584.91
528.21	36945.36
528.38	36580.23
528.55	37041.32
528.72	36577.89
528.89	36957.06
529.07	36898.55
529.24	37097.49
529.41	36893.86
529.58	37099.83
529.75	37123.24
529.92	36872.80
530.09	37373.67
530.26	37441.55
530.43	37589.00
530.60	37074.09
530.77	37184.09
530.94	37944.76
531.11	37497.72
531.28	37841.78
531.46	37378.36
531.63	37907.32
531.80	37741.14
531.97	37816.04
532.14	37965.83
532.31	38073.49
532.48	38155.41
532.65	38202.22
532.82	38134.35
532.99	38522.88
533.16	37890.93
533.33	38473.73
533.50	38628.20
533.67	38754.59
533.84	38293.50
534.01	38609.48
534.18	38359.04
534.35	38944.17
534.52	38927.79
534.69	38888.00
534.86	39218.02
535.03	38686.71
535.20	39203.97
535.37	39164.18
535.54	39192.27
535.71	39405.26
535.88	39131.42
536.05	39150.14
536.22	39789.11
536.38	39660.38
536.55	39533.99
536.72	39739.96
536.89	39040.14
537.06	39613.57
537.23	39655.70
537.40	39358.45
537.57	39189.93
537.74	39798.47
537.91	40334.45
538.08	39789.11
538.25	39674.42
538.42	39627.61
538.59	40130.83
538.75	40135.51
538.92	40229.13
539.09	40526.38
539.26	40287.64
539.43	39751.66
539.60	39934.22
539.77	40231.47
539.94	40308.71
540.11	40896.18
540.28	40629.36
540.44	40381.26
540.61	40275.94
540.78	40222.11
540.95	40491.27
541.12	40561.48
541.29	40371.90
541.46	40683.19
541.62	40706.60
541.79	40767.45
541.96	40547.44
542.13	40645.74
542.30	40868.09
542.47	41041.29
542.63	40912.56
542.80	41083.42
542.97	41720.05
543.14	41532.81
543.31	41319.82
543.48	41507.06
543.64	41963.46
543.81	41808.99
543.98	41804.31
544.15	41748.14
544.32	41610.04
544.48	42274.76
544.65	41808.99
544.82	41727.07
544.99	41626.43
545.16	41869.84
545.32	42005.59
545.49	41668.56
545.66	42197.52
545.83	42082.83
546.00	42506.47
546.16	41982.19
546.33	42375.40
546.50	42181.13
546.67	42693.71
546.83	42241.99
547.00	42426.89
547.17	42164.75
547.34	42082.83
547.50	42843.51
547.67	43042.45
547.84	42497.11
548.00	42639.88
548.17	42899.68
548.34	42700.73
548.51	43243.74
548.67	43033.09
548.84	42995.64
549.01	43077.56
549.18	43173.52
549.34	42988.62
549.51	43185.22
549.68	43543.33
549.84	43105.65
550.01	43126.71
550.18	42976.92
550.34	43126.71
550.51	42789.67
550.68	43248.42
550.84	43107.99
551.01	44020.80
551.18	43477.79
551.34	43683.76
551.51	43260.12
551.68	43372.47
551.84	42927.77
552.01	43288.21
552.18	43969.30
552.34	43510.56
552.51	43569.07
552.68	43576.09
552.84	43756.32
553.01	43948.24
553.18	43859.30
553.34	44238.47
553.51	43672.06
553.67	44140.16
553.84	43646.31
554.01	44062.93
554.17	44376.56
554.34	44444.43
554.51	44245.49
554.67	44245.49
554.84	44060.58
555.00	44231.44
555.17	44065.27
555.33	44570.82
555.50	43964.62
555.67	44130.80
555.83	44212.72
556.00	44453.79
556.16	44802.53
556.33	44692.53
556.50	44652.74
556.66	44849.35
556.83	44121.44
556.99	44641.04
557.16	45010.84
557.32	44905.52
557.49	44676.15
557.65	44257.19
557.82	44704.23
557.98	44662.10
558.15	45092.76
558.32	44753.38
558.48	44645.72
558.65	44917.22
558.81	44985.10
558.98	44877.43
559.14	44755.72
559.31	45041.27
559.47	44821.26
559.64	44912.54
559.80	45041.27
559.97	44980.42
560.13	44914.88
560.30	45081.06
560.46	45123.19
560.63	45003.82
560.79	45043.61
560.96	45390.01
561.12	45272.98
561.29	45598.32
561.45	45394.69
561.61	45256.60
561.78	45387.67
561.94	45434.48
562.11	45242.56
562.27	45317.45
562.44	45577.25
562.60	45357.24
562.77	45064.67
562.93	45785.56
563.10	45698.96
563.26	45343.20
563.42	45792.58
563.59	45258.94
563.75	45675.55
563.92	45762.15
564.08	45752.79
564.24	45764.49
564.41	45713.00
564.57	45677.90
564.74	45666.19
564.90	45654.49
565.07	45490.65
565.23	45436.82
565.39	45455.54
565.56	45965.78
565.72	45940.04
565.88	45570.23
566.05	45806.62
566.21	45874.50
566.38	45797.26
566.54	46010.25
566.70	45949.40
566.87	45799.60
567.03	45584.27
567.19	45937.69
567.36	46178.77
567.52	46000.89
567.68	46199.83
567.85	46387.08
568.01	46190.47
568.17	45886.20
568.34	46146.00
568.50	45925.99
568.66	45991.53
568.83	45874.50
568.99	46267.71
569.15	46183.45
569.32	46136.64
569.48	45837.05
569.64	46220.90
569.81	46380.06
569.97	45968.12
570.13	46686.67
570.30	45610.02
570.46	46211.54
570.62	46361.33
570.78	45846.41
570.95	46356.65
571.11	46607.09
571.27	46368.35
571.43	45998.55
571.60	46454.95
571.76	46155.36
571.92	46405.80
572.09	45998.55
572.25	46171.75
572.41	45954.08
572.57	46520.49
572.74	46670.28
572.90	46443.25
573.06	46335.59
573.22	46700.71
573.38	46667.94
573.55	46483.04
573.71	47126.69
573.87	46426.87
574.03	46422.19
574.20	46712.41
574.36	46822.42
574.52	46569.64
574.68	46763.90
574.84	46817.74
575.01	46483.04
575.17	46639.86
575.33	46700.71
575.49	46417.50
575.65	46831.78
575.82	47217.97
575.98	46358.99
576.14	46733.48
576.30	47033.07
576.46	46445.59
576.62	46438.57
576.79	46316.86
576.95	46401.12
577.11	46419.84
577.27	46483.04
577.43	46499.42
577.59	46593.04
577.75	46752.20
577.92	45731.73
578.08	46546.23
578.24	46862.21
578.40	46646.88
578.56	46653.90
578.72	47122.01
578.88	47047.11
579.04	46740.50
579.21	46433.89
579.37	47042.43
579.53	47072.85
579.69	46642.20
579.85	46672.62
580.01	46747.52
580.17	47166.48
580.33	47096.26
580.49	46827.10
580.65	47033.07
580.82	46824.76
580.98	46483.04
581.14	46536.87
581.30	46892.63
581.46	46728.80
581.62	47026.04
581.78	46497.08
581.94	47026.04
582.10	46806.03
582.26	46843.48
582.42	46735.82
582.58	47143.07
582.74	47028.38
582.90	46555.60
583.06	46827.10
583.22	46803.69
583.38	46700.71
583.54	46934.76
583.70	47019.02
583.86	46689.01
584.02	46911.36
584.18	47065.83
584.34	47129.03
584.50	47213.29
584.66	46845.82
584.82	46932.42
584.98	47629.90
585.14	47122.01
585.30	46733.48
585.46	47002.64
585.62	46686.67
585.78	47157.11
585.94	47035.41
586.10	47253.08
586.26	46670.28
586.42	46878.59
586.58	47091.58
586.74	47358.40
586.90	47093.92
587.06	46742.84
587.22	47138.39
587.38	47093.92
587.54	47206.26
587.70	47473.09
587.86	47180.52
588.02	46761.56
588.18	46934.76
588.34	46880.93
588.49	47442.66
588.65	46829.44
588.81	46705.39
588.97	47129.03
589.13	47042.43
589.29	47255.42
589.45	47250.74
589.61	47297.55
589.77	47222.65
589.93	47124.35
590.08	47555.00
