SpectraSuite Data File
++++++++++++++++++++++++++++++++++++
Date: Fri Oct 25 11:25:50 EDT 2013
User: price-jones
Dark Spectrum Present: No
Reference Spectrum Present: No
Number of Sampled Component Spectra: 1
Spectrometers: USB2+H05261
Integration Time (usec): 100000 (USB2+H05261)
Spectra Averaged: 1 (USB2+H05261)
Boxcar Smoothing: 0 (USB2+H05261)
Correct for Electrical Dark: No (USB2+H05261)
Strobe/Lamp Enabled: No (USB2+H05261)
Correct for Detector Non-linearity: No (USB2+H05261)
Correct for Stray Light: No (USB2+H05261)
Number of Pixels in Processed Spectrum: 2048
>>>>>Begin Processed Spectral Data<<<<<
365.73	184.90
365.92	184.90
366.12	184.90
366.32	142.77
366.52	100.64
366.72	229.37
366.91	177.88
367.11	201.29
367.31	184.90
367.51	156.82
367.70	184.90
367.90	110.01
368.10	67.88
368.30	170.86
368.49	131.07
368.69	117.03
368.89	161.50
369.09	175.54
369.28	166.18
369.48	217.67
369.68	166.18
369.87	222.35
370.07	238.73
370.27	245.76
370.47	332.36
370.66	543.00
370.86	613.22
371.06	664.71
371.25	650.67
371.45	669.39
371.65	692.80
371.84	720.88
372.04	727.91
372.24	692.80
372.44	692.80
372.63	636.63
372.83	777.06
373.03	725.57
373.22	786.42
373.42	868.34
373.62	779.40
373.81	858.98
374.01	807.48
374.21	793.44
374.40	805.14
374.60	807.48
374.79	777.06
374.99	798.12
375.19	851.96
375.38	903.45
375.58	784.08
375.78	875.36
375.97	884.72
376.17	915.15
376.37	931.53
376.56	821.53
376.76	947.92
376.95	926.85
377.15	861.32
377.35	912.81
377.54	835.57
377.74	901.11
377.93	861.32
378.13	961.96
378.33	807.48
378.52	1025.15
378.72	922.17
378.91	968.98
379.11	854.30
379.31	959.62
379.50	938.55
379.70	947.92
379.89	959.62
380.09	1013.45
380.28	1008.77
380.48	908.13
380.68	976.00
380.87	919.83
381.07	1041.54
381.26	1039.20
381.46	1011.11
381.65	1046.22
381.85	1029.84
382.04	1025.15
382.24	1053.24
382.43	1027.50
382.63	1050.90
382.83	1062.60
383.02	1107.07
383.22	1228.78
383.41	1102.39
383.61	1086.01
383.80	1217.08
384.00	1069.62
384.19	1046.22
384.39	1160.91
384.58	1104.73
384.78	1086.01
384.97	1188.99
385.17	1104.73
385.36	1233.46
385.56	1235.80
385.75	1193.67
385.95	1172.61
386.14	1146.86
386.34	1228.78
386.53	1086.01
386.72	1228.78
386.92	1198.35
387.11	1282.61
387.31	1172.61
387.50	1306.02
387.70	1259.21
387.89	1219.42
388.09	1317.72
388.28	1273.25
388.48	1259.21
388.67	1266.23
388.86	1376.24
389.06	1401.98
389.25	1357.51
389.45	1378.58
389.64	1334.11
389.84	1366.87
390.03	1345.81
390.22	1458.15
390.42	1355.17
390.61	1306.02
390.81	1465.18
391.00	1432.41
391.19	1427.73
391.39	1394.96
391.58	1418.36
391.78	1479.22
391.97	1483.90
392.16	1502.62
392.36	1467.52
392.55	1467.52
392.75	1596.25
392.94	1472.20
393.13	1530.71
393.33	1575.18
393.52	1596.25
393.71	1519.01
393.91	1540.07
394.10	1521.35
394.29	1647.74
394.49	1579.86
394.68	1633.69
394.88	1638.38
395.07	1715.61
395.26	1549.43
395.46	1734.34
395.65	1717.95
395.84	1645.40
396.04	1722.63
396.23	1675.82
396.42	1706.25
396.62	1799.87
396.81	1722.63
397.00	1654.76
397.19	1727.32
397.39	1769.44
397.58	1804.55
397.77	1806.89
397.97	1956.69
398.16	1830.30
398.35	1898.17
398.55	1764.76
398.74	1930.94
398.93	1987.11
399.12	2005.84
399.32	1820.94
399.51	1921.58
399.70	1998.82
399.90	1998.82
400.09	1944.99
400.28	1998.82
400.47	2054.99
400.67	2108.82
400.86	2186.06
401.05	2176.70
401.24	2167.34
401.44	2099.46
401.63	2092.44
401.82	2036.27
402.01	2120.53
402.21	2230.53
402.40	2155.63
402.59	2101.80
402.78	2160.31
402.97	2181.38
403.17	2260.96
403.36	2260.96
403.55	2267.98
403.74	2345.22
403.93	2347.56
404.13	2363.94
404.32	2370.96
404.51	2373.30
404.70	2375.64
404.89	2450.54
405.09	2553.52
405.28	2415.43
405.47	2471.61
405.66	2551.18
405.85	2558.21
406.05	2548.84
406.24	2544.16
406.43	2555.86
406.62	2558.21
406.81	2670.55
407.00	2623.74
407.20	2597.99
407.39	2607.36
407.58	2635.44
407.77	2710.34
407.96	2700.98
408.15	2698.64
408.34	2771.19
408.54	2785.24
408.73	2808.64
408.92	2944.39
409.11	2928.01
409.30	2860.13
409.49	2958.44
409.68	2801.62
409.87	2885.88
410.07	2963.12
410.26	2930.35
410.45	2979.50
410.64	3155.04
410.83	3101.21
411.02	2944.39
411.21	3215.90
411.40	3075.46
411.59	3213.56
411.78	3150.36
411.98	3117.59
412.17	3365.69
412.36	3297.81
412.55	3342.28
412.74	3368.03
412.93	3386.76
413.12	3358.67
413.31	3602.08
413.50	3496.76
413.69	3412.50
413.88	3534.21
414.07	3475.70
414.26	3660.60
414.45	3730.81
414.64	3801.03
414.83	3742.52
415.02	3761.24
415.22	3772.94
415.41	3765.92
415.60	3864.22
415.79	3932.10
415.98	3911.04
416.17	3953.16
416.36	4051.47
416.55	3913.38
416.74	3927.42
416.93	4142.75
417.12	4098.28
417.31	4168.49
417.50	4081.89
417.69	4269.14
417.88	4236.37
418.07	4308.93
418.26	4285.52
418.45	4276.16
418.64	4498.51
418.83	4348.72
419.02	4379.14
419.21	4444.68
419.39	4528.94
419.58	4472.76
419.77	4496.17
419.96	4526.60
420.15	4557.02
420.34	4669.37
420.53	4517.23
420.72	4627.24
420.91	4816.82
421.10	4774.69
421.29	4774.69
421.48	4542.98
421.67	4636.60
421.86	4744.27
422.05	4718.52
422.24	4830.87
422.43	4966.62
422.61	4854.27
422.80	5069.60
422.99	4819.16
423.18	4854.27
423.37	5060.24
423.56	4802.78
423.75	4849.59
423.94	4896.40
424.13	4674.05
424.32	4734.90
424.50	5067.26
424.69	5121.09
424.88	4870.65
425.07	5027.47
425.26	4828.53
425.45	4975.98
425.64	5146.84
425.83	5046.20
426.01	5032.15
426.20	5137.48
426.39	4922.15
426.58	5013.43
426.77	5050.88
426.96	5212.37
427.15	4994.70
427.33	5135.14
427.52	5142.16
427.71	5268.55
427.90	5343.44
428.09	5240.46
428.28	5334.08
428.46	5350.46
428.65	5378.55
428.84	5582.18
429.03	5465.15
429.22	5320.04
429.40	5476.85
429.59	5561.11
429.78	5282.59
429.97	5348.12
430.16	5514.30
430.34	5572.82
430.53	5685.16
430.72	5636.01
430.91	5589.20
431.10	5441.75
431.28	5694.52
431.47	5760.06
431.66	5851.34
431.85	5673.46
432.03	5874.74
432.22	6017.52
432.41	5804.53
432.60	5877.09
432.79	5877.09
432.97	5959.00
433.16	6031.56
433.35	5935.60
433.54	5980.07
433.72	6050.28
433.91	6190.72
434.10	6190.72
434.28	6099.44
434.47	6099.44
434.66	6291.36
434.85	6272.64
435.03	6354.55
435.22	6366.26
435.41	6406.05
435.59	6422.43
435.78	6494.99
435.97	6424.77
436.16	6422.43
436.34	6427.11
436.53	6630.74
436.72	6544.14
436.90	6300.72
437.09	6569.88
437.28	6436.47
437.46	6555.84
437.65	6785.21
437.84	6665.85
438.02	6736.06
438.21	6766.49
438.40	6562.86
438.58	6942.03
438.77	6927.99
438.96	6867.13
439.14	7131.61
439.33	7059.06
439.52	7129.27
439.70	7185.44
439.89	7138.63
440.08	7342.26
440.26	7309.49
440.45	7318.86
440.63	7573.97
440.82	7716.75
441.01	7609.08
441.19	7700.36
441.38	7667.60
441.57	7779.94
441.75	7779.94
441.94	7918.03
442.12	7892.29
442.31	8196.56
442.50	7974.21
442.68	7911.01
442.87	7906.33
443.05	8088.89
443.24	8180.17
443.43	8196.56
443.61	8243.37
443.80	8573.38
443.98	8142.72
444.17	7707.38
444.35	8142.72
444.54	8477.42
444.73	8205.92
444.91	8210.60
445.10	8236.35
445.28	8224.64
445.47	8344.01
445.65	8060.80
445.84	8397.84
446.02	8512.53
446.21	8404.86
446.39	8381.46
446.58	8498.49
446.77	8428.27
446.95	8269.11
447.14	8517.21
447.32	8465.72
447.51	8470.40
447.69	8393.16
447.88	8496.14
448.06	8484.44
448.25	8472.74
448.43	8559.34
448.62	8601.47
448.80	8451.67
448.99	8510.19
449.17	8667.00
449.36	8613.17
449.54	8828.50
449.73	9104.68
449.91	8952.55
450.10	9074.26
450.28	9069.58
450.46	9032.13
450.65	8926.80
450.83	9062.55
451.02	9057.87
451.20	9165.54
451.39	9050.85
451.57	9076.60
451.76	9174.90
451.94	9095.32
452.13	9228.73
452.31	9287.25
452.49	9202.99
452.68	9348.10
452.86	9329.38
453.05	9584.49
453.23	9488.53
453.42	9329.38
453.60	9476.83
453.78	9516.62
453.97	9561.09
454.15	9586.83
454.34	9341.08
454.52	9851.31
454.70	9612.58
454.89	9844.29
455.07	9930.89
455.26	9753.01
455.44	9891.10
455.62	9778.76
455.81	9874.72
455.99	10164.95
456.17	9811.53
456.36	10209.42
456.54	10019.83
456.73	10328.78
456.91	10319.42
457.09	10384.96
457.28	10527.73
457.46	10534.75
457.64	10511.35
457.83	10604.97
458.01	10307.72
458.19	10771.15
458.38	10572.20
458.56	10604.97
458.74	10785.19
458.93	10532.41
459.11	10682.20
459.29	10626.03
459.48	10792.21
459.66	10782.85
459.84	10616.67
460.03	11239.25
460.21	10885.83
460.39	10967.75
460.57	10925.62
460.76	11087.12
460.94	11112.86
461.12	11173.72
461.31	11070.73
461.49	11140.95
461.67	11487.35
461.85	11510.75
462.04	11157.33
462.22	12009.29
462.40	11637.14
462.59	11428.84
462.77	11637.14
462.95	11660.55
463.13	11461.60
463.32	11709.70
463.50	11857.15
463.68	11674.59
463.86	11873.54
464.05	11494.37
464.23	11712.04
464.41	11672.25
464.59	11407.77
464.78	12109.93
464.96	11857.15
465.14	11852.47
465.32	12044.40
465.50	12091.21
465.69	12107.59
465.87	11936.73
466.05	12133.34
466.23	12002.27
466.41	12376.75
466.60	12388.46
466.78	11992.90
466.96	12194.19
467.14	12318.24
467.32	12421.22
467.51	12531.23
467.69	12187.17
467.87	12493.78
468.05	12603.78
468.23	12638.89
468.41	12418.88
468.60	12524.21
468.78	12561.66
468.96	12648.26
469.14	12840.18
469.32	12936.14
469.50	12477.40
469.69	12947.84
469.87	12891.67
470.05	12891.67
470.23	12978.27
470.41	13013.38
470.59	13231.05
470.77	13352.76
470.95	13397.23
471.14	13657.03
471.32	13207.64
471.50	13657.03
471.68	13483.83
471.86	13635.96
472.04	13830.23
472.22	13947.25
472.40	13858.31
472.58	13682.77
472.77	13881.72
472.95	14321.74
473.13	14630.69
473.31	14148.54
473.49	14162.58
473.67	14026.83
473.85	14127.47
474.03	14808.57
474.21	14698.56
474.39	14445.79
474.57	14649.41
474.75	14951.34
474.93	15068.37
475.12	15047.30
475.30	15066.03
475.48	14960.70
475.66	15290.72
475.84	15199.44
476.02	15435.83
476.20	15173.69
476.38	15639.46
476.56	15864.15
476.74	16009.26
476.92	15550.52
477.10	15733.08
477.28	16187.14
477.46	16233.96
477.64	16191.83
477.82	16851.86
478.00	17055.48
478.18	16741.85
478.36	16678.66
478.54	17039.10
478.72	17027.40
478.90	17088.25
479.08	17444.01
479.26	17713.17
479.44	17752.96
479.62	17729.56
479.80	17837.22
479.98	18118.09
480.16	18775.78
480.34	18125.11
480.52	18787.48
480.70	18410.65
480.88	18567.47
481.06	18824.93
481.24	18944.30
481.41	18916.21
481.59	19314.10
481.77	19393.68
481.95	19412.40
482.13	19775.19
482.31	19749.44
482.49	20205.84
482.67	20290.10
482.85	20273.72
483.03	20561.61
483.21	20758.21
483.39	20889.28
483.57	20872.90
483.74	21174.83
483.92	21479.10
484.10	21231.00
484.28	21675.70
484.46	21942.52
484.64	22150.83
484.82	21951.88
485.00	22059.55
485.18	22845.97
485.35	22986.40
485.53	22728.94
485.71	22930.23
485.89	23407.70
486.07	23337.48
486.25	23262.58
486.43	23456.85
486.61	23927.30
486.78	24318.17
486.96	24231.57
487.14	24620.10
487.32	24561.58
487.50	24655.20
487.68	24886.92
487.85	25223.95
488.03	25448.64
488.21	25802.07
488.39	25701.42
488.57	26155.49
488.75	26464.44
488.92	26780.41
489.10	26551.04
489.28	26773.39
489.46	27414.69
489.64	26885.73
489.81	27594.92
489.99	27583.21
490.17	27449.80
490.35	28156.64
490.53	28151.96
490.70	28573.26
490.88	28067.70
491.06	28769.86
491.24	28989.88
491.41	29282.44
491.59	29228.61
491.77	29256.70
491.95	29621.82
492.13	29549.26
492.30	30113.33
492.48	29785.66
492.66	30043.12
492.84	30394.20
493.01	30661.02
493.19	30799.11
493.37	30817.83
493.54	30981.67
493.72	31644.04
493.90	31304.67
494.08	31826.60
494.25	31756.39
494.43	31725.96
494.61	32013.85
494.79	32428.12
494.96	32133.21
495.14	33024.96
495.32	32856.44
495.49	32811.97
495.67	33472.00
495.85	33340.93
496.02	33535.20
496.20	34080.54
496.38	33626.48
496.55	33703.71
496.73	34583.76
496.91	34520.56
497.09	34920.79
497.26	34888.03
497.44	34902.07
497.62	35007.39
497.79	35632.32
497.97	35180.59
498.14	36151.91
498.32	36032.55
498.50	36084.04
498.67	36788.54
498.85	36318.09
499.03	36685.56
499.20	36538.10
499.38	36886.84
499.56	37017.91
499.73	37425.17
499.91	36882.16
500.08	37221.54
500.26	37514.11
500.44	37291.76
500.61	37163.03
500.79	37687.31
500.97	38003.28
501.14	38684.37
501.32	38616.50
501.49	38298.19
501.67	38862.26
501.84	38972.26
502.02	39070.56
502.20	38897.36
502.37	39285.89
502.55	39461.43
502.72	39821.87
502.90	39608.89
503.07	39524.63
503.25	39597.18
503.43	39679.10
503.60	40172.96
503.78	40687.87
503.95	40362.54
504.13	40334.45
504.30	40507.65
504.48	40128.48
504.65	40753.41
504.83	40542.76
505.01	40999.16
505.18	40966.40
505.36	41455.57
505.53	41076.40
505.71	41521.10
505.88	41368.97
506.06	41359.61
506.23	41530.47
506.41	41432.16
506.58	42375.40
506.76	42380.08
506.93	42625.84
507.11	42525.19
507.28	42609.45
507.46	42602.43
507.63	42976.92
507.81	43372.47
507.98	42459.66
508.16	43054.15
508.33	43332.68
508.50	43255.44
508.68	43531.62
508.85	43992.71
509.03	43817.17
509.20	44147.18
509.38	44243.15
509.55	44467.84
509.73	44374.22
509.90	44233.78
510.08	44320.38
510.25	44659.76
510.42	44617.63
510.60	45036.59
510.77	45008.50
510.95	45284.68
511.12	44931.26
511.30	45272.98
511.47	45429.80
511.64	45380.65
511.82	45827.69
511.99	45794.92
512.17	45525.76
512.34	45687.26
512.51	46415.16
512.69	46014.93
512.86	46183.45
513.04	46787.31
513.21	46492.40
513.38	46569.64
513.56	46504.10
513.73	46801.35
513.90	47082.22
514.08	46686.67
514.25	47421.59
514.43	47182.86
514.60	47480.11
514.77	46948.81
514.95	47512.88
515.12	47143.07
515.29	47533.94
515.47	47917.79
515.64	48065.24
515.81	47571.39
515.99	48184.61
516.16	48282.91
516.33	48266.53
516.51	48364.83
516.68	48666.76
516.85	48573.14
517.03	48788.47
517.20	48884.43
517.37	48968.69
517.54	48732.29
517.72	48704.21
517.89	48903.15
518.06	49570.21
518.24	49212.10
518.41	49345.51
518.58	49385.30
518.75	49111.46
518.93	49511.69
519.10	49457.86
519.27	49581.91
519.45	49474.24
519.62	49879.16
519.79	50094.49
519.96	50089.80
520.14	49865.11
520.31	50248.96
520.48	50438.54
520.65	49923.63
520.83	50380.03
521.00	50553.23
521.17	50630.47
521.34	50581.32
521.52	50887.93
521.69	50808.35
521.86	50801.33
522.03	51040.06
522.20	51430.93
522.38	51402.85
522.55	51318.59
522.72	51356.03
522.89	51222.62
523.07	51709.46
523.24	51709.46
523.41	51751.59
523.58	51674.35
523.75	52226.71
523.92	51908.40
524.10	51943.51
524.27	51976.28
524.44	51763.29
524.61	52292.25
524.78	52039.47
524.96	51877.97
525.13	52360.12
525.30	52310.97
525.47	52477.15
525.64	52385.87
525.81	52608.22
525.98	52776.74
526.16	52781.42
526.33	52439.70
526.50	53109.10
526.67	52669.08
526.84	53001.43
527.01	52835.25
527.18	53017.82
527.36	52982.71
527.53	53001.43
527.70	53670.82
527.87	53282.30
528.04	53373.58
528.21	53319.74
528.38	53326.77
528.55	53556.14
528.72	53460.18
528.89	53368.90
529.07	53226.12
529.24	53331.45
529.41	53668.48
529.58	53319.74
529.75	53776.15
529.92	53633.38
530.09	53682.53
530.26	54007.86
530.43	53853.39
530.60	53717.64
530.77	53893.18
530.94	53715.29
531.11	54000.84
531.28	54138.93
531.46	53762.11
531.63	54026.59
531.80	54277.02
531.97	54174.04
532.14	54415.11
532.31	54576.61
532.48	54557.89
532.65	54436.18
532.82	54663.21
532.99	54536.82
533.16	54440.86
533.33	54700.66
533.50	54845.77
533.67	54695.98
533.84	54527.46
534.01	54670.23
534.18	55086.85
534.35	55412.18
534.52	55030.68
534.69	55128.98
534.86	55213.24
535.03	55143.02
535.20	55117.28
535.37	55313.88
535.54	55306.86
535.71	55311.54
535.88	55231.96
536.05	55393.46
536.22	55538.57
536.38	55538.57
536.55	55536.23
536.72	55529.21
536.89	55730.50
537.06	55358.35
537.23	55718.79
537.40	55480.06
537.57	55487.08
537.74	55976.25
537.91	55889.65
538.08	55777.31
538.25	55817.10
538.42	55634.53
538.59	56093.28
538.75	55861.57
538.92	56027.74
539.09	56399.89
539.26	55983.27
539.43	56189.24
539.60	56175.20
539.77	56144.77
539.94	56444.36
540.11	56383.51
540.28	56442.02
540.44	56423.29
540.61	56685.43
540.78	56203.28
540.95	56205.62
541.12	56397.55
541.29	56418.61
541.46	56343.72
541.62	56472.45
541.79	56640.96
541.96	56488.83
542.13	56416.27
542.30	56662.03
542.47	57090.35
542.63	56849.27
542.80	56935.87
542.97	57216.74
543.14	57368.87
543.31	57151.20
543.48	56973.32
543.64	57361.85
543.81	57207.37
543.98	57240.14
544.15	57312.70
544.32	57406.32
544.48	57776.12
544.65	57340.78
544.82	57439.09
544.99	57113.75
545.16	57593.56
545.32	57408.66
545.49	57574.84
545.66	57776.12
545.83	57682.50
546.00	57623.99
546.16	57689.52
546.33	57396.96
546.50	57537.39
546.67	57605.26
546.83	57544.41
547.00	57506.96
547.17	57593.56
547.34	57923.58
547.50	58042.95
547.67	57991.45
547.84	57670.80
548.00	57829.96
548.17	58078.05
548.34	58136.57
548.51	58183.38
548.67	58108.48
548.84	58190.40
549.01	58054.65
549.18	58258.27
549.34	58159.97
549.51	58169.33
549.68	58340.19
549.84	58281.68
550.01	58335.51
550.18	58047.63
550.34	58473.60
550.51	58482.97
550.68	58279.34
550.84	58415.09
551.01	58499.35
551.18	58604.67
551.34	58569.57
551.51	58529.78
551.68	58592.97
551.84	58602.33
552.01	58473.60
552.18	58850.43
552.34	58450.20
552.51	58705.32
552.68	58379.98
552.84	58707.66
553.01	58944.05
553.18	58740.42
553.34	58834.05
553.51	58525.10
553.67	58672.55
553.84	58990.86
554.01	58939.37
554.17	58822.34
554.34	59035.33
554.51	58932.35
554.67	58885.54
554.84	58930.01
555.00	59098.53
555.17	58784.90
555.33	58939.37
555.50	58812.98
555.67	58887.88
555.83	58944.05
556.00	59086.82
556.16	59185.13
556.33	59231.94
556.50	59166.40
556.66	59426.20
556.83	59152.36
556.99	59370.03
557.16	59543.23
557.32	59643.87
557.49	59573.66
557.65	59299.81
557.82	59182.79
557.98	59330.24
558.15	59571.32
558.32	59283.43
558.48	59320.88
558.65	59597.06
558.81	59533.87
558.98	59578.34
559.14	59393.43
559.31	59718.77
559.47	59709.41
559.64	59941.12
559.80	59681.32
559.97	59718.77
560.13	59538.55
560.30	59594.72
560.46	59693.02
560.63	59636.85
560.79	59814.73
560.96	59877.93
561.12	59870.90
561.29	59536.21
561.45	59735.15
561.61	59615.79
561.78	59700.04
561.94	59849.84
562.11	59882.61
562.27	59880.27
562.44	59973.89
562.60	59781.96
562.77	60023.04
562.93	59732.81
563.10	60041.76
563.26	59845.16
563.42	60175.17
563.59	60093.25
563.75	59959.84
563.92	59994.95
564.08	59999.63
564.24	60170.49
564.41	60156.45
564.57	60280.50
564.74	59959.84
564.90	60266.45
565.07	60259.43
565.23	60037.08
565.39	60079.21
565.56	60257.09
565.72	60243.05
565.88	60193.90
566.05	60011.34
566.21	60076.87
566.38	60198.58
566.54	60240.71
566.70	60313.26
566.87	60339.01
567.03	60140.07
567.19	60519.23
567.36	60158.79
567.52	60243.05
567.68	60327.31
567.85	60334.33
568.01	60526.25
568.17	60191.56
568.34	60369.44
568.50	60224.32
568.66	60425.61
568.83	60484.12
568.99	60292.20
569.15	60434.97
569.32	60221.98
569.48	60537.96
569.64	60388.16
569.81	60392.84
569.97	60205.60
570.13	60449.02
570.30	60285.18
570.46	60322.63
570.62	60315.61
570.78	60374.12
570.95	60566.04
571.11	60603.49
571.27	60278.16
571.43	60556.68
571.60	60392.84
571.76	60463.06
571.92	60715.84
572.09	60493.49
572.25	60575.40
572.41	60619.88
572.57	60463.06
572.74	60734.56
572.90	60582.43
573.06	60720.52
573.22	60582.43
573.38	60654.98
573.55	60505.19
573.71	60837.54
573.87	60692.43
574.03	60589.45
574.20	60694.77
574.36	60477.10
574.52	60720.52
574.68	60753.29
574.84	60762.65
575.01	60818.82
575.17	60465.40
575.33	60418.59
575.49	60598.81
575.65	61001.38
575.82	60549.66
575.98	60767.33
576.14	60938.19
576.30	60587.11
576.46	60860.95
576.62	60608.17
576.79	60779.03
576.95	60853.93
577.11	60949.89
577.27	60896.06
577.43	60760.31
577.59	60844.57
577.75	60654.98
577.92	60664.35
578.08	60846.91
578.24	60636.26
578.40	60921.80
578.56	60685.41
578.72	60683.07
578.88	61010.74
579.04	60849.25
579.21	60945.21
579.37	60673.71
579.53	60992.02
579.69	60533.28
579.85	60762.65
580.01	60657.32
580.17	60619.88
580.33	60952.23
580.49	60985.00
580.65	61022.45
580.82	60814.14
580.98	60750.94
581.14	60662.00
581.30	61038.83
581.46	60874.99
581.62	60750.94
581.78	60706.47
581.94	60905.42
582.10	60896.06
582.26	60860.95
582.42	60767.33
582.58	61027.13
582.74	60933.51
582.90	60921.80
583.06	60790.73
583.22	60743.92
583.38	60945.21
583.54	60846.91
583.70	60886.70
583.86	60992.02
584.02	60535.62
584.18	60989.68
584.34	61006.06
584.50	61003.72
584.66	60905.42
584.82	60884.36
584.98	61151.18
585.14	61087.98
585.30	60867.97
585.46	61036.49
585.62	60910.10
585.78	61071.60
585.94	60729.88
586.10	60837.54
586.26	60818.82
586.42	61006.06
586.58	61027.13
586.74	61109.05
586.90	60931.17
587.06	60956.91
587.22	61003.72
587.38	61050.53
587.54	61031.81
587.70	61219.05
587.86	60921.80
588.02	61001.38
588.18	61209.69
588.34	60996.70
588.49	60776.69
