SpectraSuite Data File
++++++++++++++++++++++++++++++++++++
Date: Fri Oct 25 11:22:35 EDT 2013
User: price-jones
Dark Spectrum Present: No
Reference Spectrum Present: No
Number of Sampled Component Spectra: 1
Spectrometers: USB2+H05261
Integration Time (usec): 100000 (USB2+H05261)
Spectra Averaged: 1 (USB2+H05261)
Boxcar Smoothing: 0 (USB2+H05261)
Correct for Electrical Dark: No (USB2+H05261)
Strobe/Lamp Enabled: No (USB2+H05261)
Correct for Detector Non-linearity: No (USB2+H05261)
Correct for Stray Light: No (USB2+H05261)
Number of Pixels in Processed Spectrum: 2048
>>>>>Begin Processed Spectral Data<<<<<
365.73	285.55
365.92	285.55
366.12	285.55
366.32	194.26
366.52	156.82
366.72	163.84
366.91	63.19
367.11	149.79
367.31	93.62
367.51	124.05
367.70	79.58
367.90	133.41
368.10	72.56
368.30	84.26
368.49	175.54
368.69	208.31
368.89	182.56
369.09	114.69
369.28	105.32
369.48	105.32
369.68	140.43
369.87	248.10
370.07	220.01
370.27	241.08
370.47	327.68
370.66	589.82
370.86	608.54
371.06	685.78
371.25	627.26
371.45	617.90
371.65	748.97
371.84	650.67
372.04	634.29
372.24	751.31
372.44	655.35
372.63	720.88
372.83	720.88
373.03	725.57
373.22	805.14
373.42	751.31
373.62	753.65
373.81	748.97
374.01	837.91
374.21	770.04
374.40	826.21
374.60	828.55
374.79	753.65
374.99	781.74
375.19	842.59
375.38	779.40
375.58	828.55
375.78	961.96
375.97	903.45
376.17	954.94
376.37	798.12
376.56	880.04
376.76	933.87
376.95	887.06
377.15	870.68
377.35	880.04
377.54	861.32
377.74	842.59
377.93	936.21
378.13	910.47
378.33	931.53
378.52	891.74
378.72	877.70
378.91	940.90
379.11	917.49
379.31	901.11
379.50	997.07
379.70	971.32
379.89	1036.86
380.09	912.81
380.28	940.90
380.48	987.71
380.68	1046.22
380.87	884.72
381.07	1046.22
381.26	1057.92
381.46	973.66
381.65	1036.86
381.85	1067.28
382.04	1046.22
382.24	1055.58
382.43	1053.24
382.63	1043.88
382.83	1111.75
383.02	1109.41
383.22	1135.16
383.41	1086.01
383.61	1111.75
383.80	1095.37
384.00	1174.95
384.19	1128.14
384.39	1123.46
384.58	1146.86
384.78	1158.57
384.97	1228.78
385.17	1078.99
385.36	1184.31
385.56	1249.85
385.75	1217.08
385.95	1128.14
386.14	1137.50
386.34	1109.41
386.53	1093.03
386.72	1191.33
386.92	1196.01
387.11	1118.78
387.31	1261.55
387.50	1252.19
387.70	1268.57
387.89	1203.04
388.09	1261.55
388.28	1313.04
388.48	1270.91
388.67	1355.17
388.86	1329.42
389.06	1291.98
389.25	1355.17
389.45	1308.36
389.64	1306.02
389.84	1362.19
390.03	1427.73
390.22	1416.02
390.42	1458.15
390.61	1441.77
390.81	1371.55
391.00	1404.32
391.19	1437.09
391.39	1371.55
391.58	1458.15
391.78	1544.75
391.97	1483.90
392.16	1497.94
392.36	1483.90
392.55	1486.24
392.75	1481.56
392.94	1502.62
393.13	1554.12
393.33	1455.81
393.52	1467.52
393.71	1647.74
393.91	1596.25
394.10	1572.84
394.29	1654.76
394.49	1577.52
394.68	1654.76
394.88	1774.13
395.07	1713.27
395.26	1661.78
395.46	1650.08
395.65	1741.36
395.84	1685.19
396.04	1732.00
396.23	1771.79
396.42	1802.21
396.62	1802.21
396.81	1682.85
397.00	1818.60
397.19	1778.81
397.39	1820.94
397.58	1863.07
397.77	1778.81
397.97	1813.92
398.16	1884.13
398.35	1914.56
398.55	1832.64
398.74	1877.11
398.93	1970.73
399.12	1867.75
399.32	1940.30
399.51	1991.80
399.70	2073.71
399.90	1984.77
400.09	2059.67
400.28	2113.50
400.47	2040.95
400.67	1987.11
400.86	2108.82
401.05	2188.40
401.24	2076.06
401.44	2076.06
401.63	2181.38
401.82	2113.50
402.01	2094.78
402.21	2157.97
402.40	2232.87
402.59	2279.68
402.78	2218.83
402.97	2260.96
403.17	2321.81
403.36	2214.15
403.55	2256.28
403.74	2370.96
403.93	2347.56
404.13	2305.43
404.32	2429.48
404.51	2279.68
404.70	2424.80
404.89	2354.58
405.09	2544.16
405.28	2544.16
405.47	2541.82
405.66	2586.29
405.85	2530.12
406.05	2605.02
406.24	2630.76
406.43	2516.08
406.62	2712.68
406.81	2672.89
407.00	2682.25
407.20	2597.99
407.39	2628.42
407.58	2644.81
407.77	2722.04
407.96	2715.02
408.15	2693.96
408.34	2729.06
408.54	2871.84
408.73	2764.17
408.92	2902.26
409.11	2888.22
409.30	2799.28
409.49	2822.69
409.68	2918.65
409.87	2913.97
410.07	3023.97
410.26	3185.47
410.45	3080.14
410.64	3056.74
410.83	3045.04
411.02	3185.47
411.21	3180.79
411.40	3119.93
411.59	3227.60
411.78	3243.98
411.98	3279.09
412.17	3339.94
412.36	3361.01
412.55	3351.65
412.74	3386.76
412.93	3386.76
413.12	3351.65
413.31	3604.42
413.50	3499.10
413.69	3501.44
413.88	3578.68
414.07	3618.47
414.26	3627.83
414.45	3651.24
414.64	3641.87
414.83	3831.46
415.02	3763.58
415.22	3805.71
415.41	3927.42
415.60	3953.16
415.79	4030.40
415.98	4042.11
416.17	3861.88
416.36	3957.85
416.55	3920.40
416.74	4189.56
416.93	4117.00
417.12	4194.24
417.31	4194.24
417.50	4093.60
417.69	4198.92
417.88	4482.13
418.07	4241.05
418.26	4447.02
418.45	4428.29
418.64	4624.90
418.83	4425.95
419.02	4547.66
419.21	4697.46
419.39	4671.71
419.58	4517.23
419.77	4545.32
419.96	4603.83
420.15	4751.29
420.34	4589.79
420.53	4706.82
420.72	4765.33
420.91	4809.80
421.10	4732.56
421.29	4854.27
421.48	4774.69
421.67	4737.24
421.86	4676.39
422.05	4873.00
422.24	4849.59
422.43	4910.44
422.61	4980.66
422.80	5069.60
422.99	5018.11
423.18	4880.02
423.37	5142.16
423.56	5252.16
423.75	5055.56
423.94	4896.40
424.13	4657.67
424.32	4957.25
424.50	4959.60
424.69	5132.79
424.88	5212.37
425.07	4985.34
425.26	4922.15
425.45	5116.41
425.64	5020.45
425.83	5057.90
426.01	5174.92
426.20	5097.69
426.39	5153.86
426.58	5172.58
426.77	5167.90
426.96	5331.74
427.15	5245.14
427.33	5104.71
427.52	5327.06
427.71	5228.76
427.90	5338.76
428.09	5535.37
428.28	5315.36
428.46	5305.99
428.65	5509.62
428.84	5528.35
429.03	5387.91
429.22	5408.98
429.40	5462.81
429.59	5500.26
429.78	5268.55
429.97	5249.82
430.16	5544.73
430.34	5666.44
430.53	5678.14
430.72	5619.63
430.91	5809.21
431.10	5734.31
431.28	5804.53
431.47	5792.83
431.66	5771.76
431.85	5746.02
432.03	6087.73
432.22	5877.09
432.41	6015.18
432.60	6005.81
432.79	5900.49
432.97	6038.58
433.16	6024.54
433.35	6071.35
433.54	6115.82
433.72	6221.14
433.91	6080.71
434.10	6164.97
434.28	6160.29
434.47	6368.60
434.66	6347.53
434.85	6448.18
435.03	6572.22
435.22	6326.47
435.41	6359.24
435.59	6455.20
435.78	6530.09
435.97	6504.35
436.16	6569.88
436.34	6331.15
436.53	6558.18
436.72	6782.87
436.90	6546.48
437.09	6628.40
437.28	6518.39
437.46	6555.84
437.65	6689.25
437.84	6846.07
438.02	6707.98
438.21	6764.15
438.40	6693.93
438.58	7105.87
438.77	7040.33
438.96	7091.82
439.14	7185.44
439.33	7232.26
439.52	7178.42
439.70	7393.75
439.89	7332.90
440.08	7295.45
440.26	7499.08
440.45	7513.12
440.63	7335.24
440.82	7454.61
441.01	7503.76
441.19	7655.89
441.38	7719.09
441.57	7838.45
441.75	7936.76
441.94	8035.06
442.12	7971.86
442.31	8091.23
442.50	8184.85
442.68	8060.80
442.87	8255.07
443.05	8236.35
443.24	8191.88
443.43	8194.22
443.61	8271.45
443.80	8571.04
443.98	8098.25
444.17	8109.96
444.35	8234.00
444.54	8372.10
444.73	8241.03
444.91	8336.99
445.10	8559.34
445.28	8393.16
445.47	8334.65
445.65	8393.16
445.84	8662.32
446.02	8559.34
446.21	8444.65
446.39	8250.39
446.58	8458.70
446.77	8549.98
446.95	8479.76
447.14	8526.57
447.32	8512.53
447.51	8376.78
447.69	8652.96
447.88	8624.87
448.06	8573.38
448.25	8557.00
448.43	8608.49
448.62	8571.04
448.80	8667.00
448.99	8926.80
449.17	8936.17
449.36	8571.04
449.54	8872.97
449.73	8950.21
449.91	9102.34
450.10	9039.15
450.28	9163.20
450.46	9074.26
450.65	9064.89
450.83	9048.51
451.02	9240.44
451.20	9111.71
451.39	9282.56
451.57	9294.27
451.76	9247.46
451.94	9238.09
452.13	9558.75
452.31	9451.08
452.49	9214.69
452.68	9413.63
452.86	9263.84
453.05	9687.48
453.23	9626.62
453.42	9661.73
453.60	9425.34
453.78	9661.73
453.97	9415.98
454.15	9453.42
454.34	9619.60
454.52	9788.12
454.70	9722.59
454.89	9788.12
455.07	9764.72
455.26	9937.91
455.44	10059.62
455.62	9984.73
455.81	9891.10
455.99	10253.89
456.17	10146.22
456.36	10190.69
456.54	10382.62
456.73	10251.55
456.91	10595.61
457.09	10546.45
457.28	10700.93
457.46	10326.44
457.64	10745.40
457.83	10686.89
458.01	10752.42
458.19	10757.10
458.38	10548.79
458.56	10609.65
458.74	10771.15
458.93	10747.74
459.11	11096.48
459.29	10743.06
459.48	10970.09
459.66	10972.43
459.84	10974.77
460.03	11087.12
460.21	11213.51
460.39	11009.88
460.57	11052.01
460.76	11063.71
460.94	11126.91
461.12	11311.81
461.31	11073.07
461.49	11269.68
461.67	11477.99
461.85	11459.26
462.04	11550.54
462.22	12072.48
462.40	11742.47
462.59	11681.61
462.77	11573.95
462.95	11700.34
463.13	11674.59
463.32	11910.99
463.50	11672.25
463.68	12053.76
463.86	12077.16
464.05	11765.87
464.23	11602.04
464.41	12011.63
464.59	11693.32
464.78	12461.01
464.96	12215.26
465.14	11990.56
465.32	11985.88
465.50	12030.35
465.69	12381.43
465.87	12425.90
466.05	12301.86
466.23	12308.88
466.41	12224.62
466.60	12599.10
466.78	12248.02
466.96	12215.26
467.14	12351.01
467.32	12468.03
467.51	12655.28
467.69	12297.17
467.87	12374.41
468.05	12716.13
468.23	12549.95
468.41	12568.68
468.60	13027.42
468.78	12830.82
468.96	12737.20
469.14	12891.67
469.32	12943.16
469.50	12854.22
469.69	13191.26
469.87	13486.17
470.05	13415.95
470.23	13050.83
470.41	13202.96
470.59	13540.00
470.77	13294.24
470.95	13331.69
471.14	13549.36
471.32	13170.19
471.50	13586.81
471.68	13633.62
471.86	13799.80
472.04	13874.70
472.22	14410.68
472.40	13984.70
472.58	13848.95
472.77	14097.05
472.95	14431.74
473.13	14892.83
473.31	13977.68
473.49	14164.92
473.67	14235.14
473.85	14370.89
474.03	14794.53
474.21	14827.29
474.39	14984.11
474.57	14782.82
474.75	14855.38
474.93	15183.06
475.12	15094.11
475.30	15449.88
475.48	14956.02
475.66	15644.14
475.84	15339.87
476.02	15461.58
476.20	15454.56
476.38	15651.16
476.56	16156.72
476.74	16353.32
476.92	15768.19
477.10	16044.37
477.28	16315.87
477.46	16264.38
477.64	16613.12
477.82	16624.83
478.00	17109.32
478.18	16613.12
478.36	17233.36
478.54	17235.70
478.72	17404.22
478.90	17338.69
479.08	17729.56
479.26	17710.83
479.44	18097.02
479.62	18052.55
479.80	18185.96
479.98	18635.35
480.16	18618.96
480.34	18471.51
480.52	18497.25
480.70	19030.90
480.88	18630.66
481.06	19028.56
481.24	19082.39
481.41	19311.76
481.59	19601.99
481.77	19686.25
481.95	19594.96
482.13	20226.91
482.31	19901.58
482.49	20465.64
482.67	20580.33
482.85	20788.64
483.03	21144.40
483.21	20776.94
483.39	21041.42
483.57	20929.07
483.74	21165.46
483.92	21621.87
484.10	21277.81
484.28	21689.74
484.46	22202.32
484.64	22497.23
484.82	21905.07
485.00	22913.84
485.18	22958.31
485.35	23278.97
485.53	22841.29
485.71	23491.96
485.89	24184.76
486.07	23651.11
486.25	23548.13
486.43	23833.68
486.61	23978.79
486.78	24254.97
486.96	24687.97
487.14	24800.32
487.32	24781.59
487.50	25350.34
487.68	25158.42
487.85	25617.16
488.03	25848.88
488.21	26249.11
488.39	26183.57
488.57	26462.10
488.75	26544.02
488.92	26799.13
489.10	27091.70
489.28	27112.77
489.46	27475.55
489.64	27374.91
489.81	27828.97
489.99	27981.10
490.17	28063.02
490.35	28320.48
490.53	28783.91
490.70	29057.75
490.88	28453.89
491.06	28491.34
491.24	29280.10
491.41	29481.39
491.59	29626.50
491.77	29694.38
491.95	29947.15
492.13	30359.09
492.30	30293.55
492.48	30354.41
492.66	30511.22
492.84	30768.68
493.01	30848.26
493.19	31068.27
493.37	31688.51
493.54	31374.88
493.72	32055.98
493.90	31529.36
494.08	31913.20
494.25	32187.05
494.43	32229.18
494.61	32547.49
494.79	33017.94
494.96	32531.11
495.14	33029.64
495.32	33570.30
495.49	33795.00
495.67	33624.14
495.85	33820.74
496.02	34405.88
496.20	34565.03
496.38	34600.14
496.55	34529.92
496.73	35112.72
496.91	34962.92
497.09	35318.68
497.26	35679.13
497.44	35325.71
497.62	35929.56
497.79	36350.86
497.97	36084.04
498.14	36357.88
498.32	36519.38
498.50	36786.20
498.67	36896.20
498.85	36666.83
499.03	37392.40
499.20	37336.23
499.38	37118.56
499.56	37715.39
499.73	37895.61
499.91	37701.35
500.08	37996.26
500.26	37951.79
500.44	37844.12
500.61	38447.98
500.79	38043.07
500.97	38724.16
501.14	38909.07
501.32	38794.38
501.49	38941.83
501.67	39187.59
501.84	39239.08
502.02	39246.10
502.20	39381.85
502.37	40210.40
502.55	39751.66
502.72	40163.59
502.90	39847.62
503.07	40179.98
503.25	40189.34
503.43	40264.24
503.60	40697.24
503.78	40341.47
503.95	40732.34
504.13	40980.44
504.30	41118.53
504.48	41244.92
504.65	41560.89
504.83	41654.51
505.01	41537.49
505.18	41640.47
505.36	41963.46
505.53	41689.62
505.71	41776.22
505.88	42066.45
506.06	41727.07
506.23	42403.49
506.41	42110.92
506.58	42768.61
506.76	42782.65
506.93	43302.25
507.11	43105.65
507.28	42906.70
507.46	43550.35
507.63	43522.26
507.81	43978.67
507.98	43517.58
508.16	43997.39
508.33	43821.85
508.50	44128.46
508.68	43936.54
508.85	43950.58
509.03	44201.02
509.20	44481.88
509.38	44856.37
509.55	45031.91
509.73	45006.16
509.90	45221.49
510.08	45003.82
510.25	45158.30
510.42	45244.90
510.60	45720.02
510.77	45656.83
510.95	45904.93
511.12	45326.81
511.30	45897.91
511.47	46057.06
511.64	45972.80
511.82	46089.83
511.99	46340.27
512.17	46681.98
512.34	46138.98
512.51	47019.02
512.69	46803.69
512.86	46719.43
513.04	47281.16
513.21	46848.16
513.38	46937.10
513.56	47110.30
513.73	47093.92
513.90	47519.90
514.08	47098.60
514.25	47332.65
514.43	48002.05
514.60	48027.79
514.77	47810.12
514.95	47770.33
515.12	47997.37
515.29	48107.37
515.47	48308.66
515.64	48463.13
515.81	48301.64
515.99	48804.85
516.16	48992.09
516.33	48856.34
516.51	49074.01
516.68	49013.16
516.85	49001.46
517.03	49191.04
517.20	49357.22
517.37	49401.69
517.54	49258.91
517.72	49251.89
517.89	49256.57
518.06	49705.96
518.24	49984.48
518.41	49649.78
518.58	49673.19
518.75	49745.75
518.93	49855.75
519.10	49958.73
519.27	49947.03
519.45	50204.49
519.62	50365.99
519.79	50639.83
519.96	50136.62
520.14	50768.56
520.31	50487.70
520.48	50841.12
520.65	50923.04
520.83	50944.10
521.00	50878.57
521.17	51210.92
521.34	51033.04
521.52	51194.54
521.69	51168.79
521.86	51189.86
522.03	51461.36
522.20	51877.97
522.38	51793.71
522.55	51730.52
522.72	51765.63
522.89	51700.09
523.07	52137.77
523.24	51842.87
523.41	51941.17
523.58	52083.94
523.75	52299.27
523.92	52116.71
524.10	52526.30
524.27	52442.04
524.44	52612.90
524.61	52458.43
524.78	52676.10
524.96	52701.84
525.13	52493.54
525.30	52835.25
525.47	53010.79
525.64	52643.33
525.81	52966.32
525.98	53244.85
526.16	52971.00
526.33	53172.29
526.50	53572.52
526.67	52985.05
526.84	53268.25
527.01	53228.46
527.18	53265.91
527.36	53457.84
527.53	53551.46
527.70	53572.52
527.87	53902.54
528.04	53525.71
528.21	53605.29
528.38	53696.57
528.55	54000.84
528.72	53815.94
528.89	53595.93
529.07	53588.91
529.24	53616.99
529.41	53902.54
529.58	53921.26
529.75	53860.41
529.92	54033.61
530.09	54206.81
530.26	54368.30
530.43	54145.95
530.60	54241.92
530.77	54277.02
530.94	54548.53
531.11	54555.55
531.28	54370.64
531.46	54658.53
531.63	54511.08
531.80	54691.30
531.97	54717.04
532.14	54820.03
532.31	54857.48
532.48	55119.62
532.65	55075.15
532.82	54703.00
532.99	54768.54
533.16	54660.87
533.33	55224.94
533.50	55114.94
533.67	55119.62
533.84	55140.68
534.01	55199.19
534.18	55140.68
534.35	55503.46
534.52	55196.85
534.69	55688.37
534.86	55451.97
535.03	55550.27
535.20	55157.06
535.37	55655.60
535.54	55608.79
535.71	55458.99
535.88	55749.22
536.05	56072.21
536.22	55842.84
536.38	55910.72
536.55	55945.83
536.72	56072.21
536.89	55819.44
537.06	55978.59
537.23	56240.73
537.40	55964.55
537.57	55849.86
537.74	56268.82
537.91	56409.25
538.08	56315.63
538.25	55973.91
538.42	56065.19
538.59	56238.39
538.75	56472.45
538.92	56182.22
539.09	56652.67
539.26	56306.27
539.43	56378.82
539.60	56502.87
539.77	56505.21
539.94	56729.90
540.11	56612.88
540.28	56619.90
540.44	56655.01
540.61	56690.12
540.78	56757.99
540.95	56772.03
541.12	56704.16
541.29	56769.69
541.46	56818.84
541.62	56882.04
541.79	56919.49
541.96	56535.64
542.13	56956.94
542.30	57020.13
542.47	57069.28
542.63	57310.36
542.80	57272.91
542.97	57406.32
543.14	57485.90
543.31	57467.17
543.48	57469.51
543.64	57670.80
543.81	57422.70
543.98	57670.80
544.15	57659.10
544.32	57935.28
544.48	57762.08
544.65	57691.86
544.82	57556.11
544.99	57530.37
545.16	57766.76
545.32	57719.95
545.49	57801.87
545.66	58258.27
545.83	57909.53
546.00	57689.52
546.16	58005.50
546.33	57862.72
546.50	57869.75
546.67	57986.77
546.83	57874.43
547.00	58117.84
547.17	57991.45
547.34	58195.08
547.50	58258.27
547.67	58389.34
547.84	58340.19
548.00	58323.81
548.17	58478.28
548.34	58487.65
548.51	58387.00
548.67	58375.30
548.84	58340.19
549.01	58363.60
549.18	58183.38
549.34	58525.10
549.51	58576.59
549.68	58525.10
549.84	58651.48
550.01	58651.48
550.18	58555.52
550.34	58590.63
550.51	58855.11
550.68	58700.64
550.84	58489.99
551.01	58965.12
551.18	58740.42
551.34	58878.52
551.51	58993.20
551.68	59044.69
551.84	58845.75
552.01	58754.47
552.18	58986.18
552.34	59007.25
552.51	58976.82
552.68	58857.45
552.84	59070.44
553.01	59316.20
553.18	59056.40
553.34	59093.85
553.51	58932.35
553.67	59128.95
553.84	59135.98
554.01	58969.80
554.17	59145.34
554.34	59318.54
554.51	59194.49
554.67	59414.50
554.84	59271.73
555.00	59260.02
555.17	59245.98
555.33	59437.90
555.50	59444.93
555.67	59229.60
555.83	59260.02
556.00	59524.50
556.16	59709.41
556.33	59749.20
556.50	59414.50
556.66	59730.47
556.83	59426.20
556.99	59608.76
557.16	59842.82
557.32	59798.35
557.49	59749.20
557.65	59622.81
557.82	59690.68
557.98	59718.77
558.15	59716.43
558.32	59732.81
558.48	59435.56
558.65	59763.24
558.81	59620.47
558.98	59854.52
559.14	59969.21
559.31	59866.22
559.47	60025.38
559.64	59788.98
559.80	59784.30
559.97	60165.81
560.13	59938.78
560.30	60018.36
560.46	59941.12
560.63	60072.19
560.79	59973.89
560.96	60212.62
561.12	60081.55
561.29	59950.48
561.45	60065.17
561.61	60095.60
561.78	60055.81
561.94	60233.69
562.11	60055.81
562.27	60217.30
562.44	60072.19
562.60	60313.26
562.77	60411.57
562.93	60184.54
563.10	60339.01
563.26	60247.73
563.42	60537.96
563.59	60289.86
563.75	60467.74
563.92	60205.60
564.08	60245.39
564.24	60324.97
564.41	60259.43
564.57	60509.87
564.74	60444.33
564.90	60460.72
565.07	60460.72
565.23	60367.10
565.39	60278.16
565.56	60439.65
565.72	60369.44
565.88	60437.31
566.05	60420.93
566.21	60331.99
566.38	60441.99
566.54	60423.27
566.70	60542.64
566.87	60638.60
567.03	60214.96
567.19	60699.45
567.36	60622.22
567.52	60505.19
567.68	60706.47
567.85	60484.12
568.01	60547.32
568.17	60650.30
568.34	60814.14
568.50	60678.39
568.66	60577.75
568.83	60507.53
568.99	60521.57
569.15	60566.04
569.32	60697.11
569.48	60624.56
569.64	60755.63
569.81	60645.62
569.97	60718.18
570.13	60626.90
570.30	60832.86
570.46	60769.67
570.62	60811.80
570.78	60725.20
570.95	60664.35
571.11	60842.23
571.27	60755.63
571.43	60687.75
571.60	60739.24
571.76	60893.72
571.92	60877.33
572.09	60889.04
572.25	60802.44
572.41	60739.24
572.57	60755.63
572.74	60992.02
572.90	60872.65
573.06	60959.25
573.22	60889.04
573.38	60961.59
573.55	60975.64
573.71	61219.05
573.87	60790.73
574.03	60650.30
574.20	60889.04
574.36	60877.33
574.52	60947.55
574.68	60853.93
574.84	60938.19
575.01	61013.08
575.17	61038.83
575.33	60900.74
575.49	60933.51
575.65	61052.87
575.82	60968.61
575.98	61048.19
576.14	60989.68
576.30	61223.73
576.46	60954.57
576.62	61022.45
576.79	61237.78
576.95	60896.06
577.11	61240.12
577.27	61279.91
577.43	60949.89
577.59	60879.67
577.75	61022.45
577.92	60893.72
578.08	60989.68
578.24	61095.00
578.40	61221.39
578.56	61141.81
578.72	61041.17
578.88	61102.03
579.04	61272.88
579.21	61169.90
579.37	61193.31
579.53	61268.20
579.69	61024.79
579.85	61066.92
580.01	61130.11
580.17	60949.89
580.33	61125.43
580.49	61181.60
580.65	61179.26
580.82	61389.91
580.98	61003.72
581.14	60959.25
581.30	61312.67
581.46	61090.32
581.62	61235.44
581.78	61291.61
581.94	61223.73
582.10	61268.20
582.26	61312.67
582.42	61087.98
582.58	61352.46
582.74	61080.96
582.90	61261.18
583.06	61125.43
583.22	60949.89
583.38	61165.22
583.54	61223.73
583.70	61300.97
583.86	61109.05
584.02	61020.11
584.18	61420.34
584.34	61137.13
584.50	61116.07
584.66	60963.93
584.82	61099.68
584.98	61333.74
585.14	61289.27
585.30	61205.01
585.46	61354.80
585.62	61300.97
585.78	61422.68
585.94	61052.87
586.10	61212.03
586.26	61139.47
586.42	61488.21
586.58	61268.20
586.74	61244.80
586.90	61244.80
587.06	61216.71
587.22	61410.98
587.38	61197.99
587.54	61490.55
587.70	61621.62
587.86	61478.85
588.02	61317.35
588.18	61406.30
588.34	61345.44
588.49	61165.22
