SpectraSuite Data File
++++++++++++++++++++++++++++++++++++
Date: Fri Oct 25 11:33:32 EDT 2013
User: price-jones
Dark Spectrum Present: No
Reference Spectrum Present: No
Number of Sampled Component Spectra: 1
Spectrometers: USB2+H05261
Integration Time (usec): 100000 (USB2+H05261)
Spectra Averaged: 1 (USB2+H05261)
Boxcar Smoothing: 0 (USB2+H05261)
Correct for Electrical Dark: No (USB2+H05261)
Strobe/Lamp Enabled: No (USB2+H05261)
Correct for Detector Non-linearity: No (USB2+H05261)
Correct for Stray Light: No (USB2+H05261)
Number of Pixels in Processed Spectrum: 2048
>>>>>Begin Processed Spectral Data<<<<<
365.73	271.50
365.92	271.50
366.12	271.50
366.32	191.92
366.52	135.75
366.72	119.37
366.91	175.54
367.11	201.29
367.31	182.56
367.51	152.13
367.70	234.05
367.90	196.60
368.10	189.58
368.30	184.90
368.49	159.16
368.69	170.86
368.89	119.37
369.09	196.60
369.28	184.90
369.48	210.65
369.68	229.37
369.87	205.97
370.07	255.12
370.27	285.55
370.47	379.17
370.66	479.81
370.86	454.06
371.06	505.56
371.25	617.90
371.45	479.81
371.65	519.60
371.84	566.41
372.04	559.39
372.24	566.41
372.44	533.64
372.63	557.05
372.83	610.88
373.03	645.99
373.22	653.01
373.42	641.31
373.62	610.88
373.81	610.88
374.01	613.22
374.21	585.13
374.40	589.82
374.60	603.86
374.79	664.71
374.99	613.22
375.19	669.39
375.38	629.60
375.58	638.97
375.78	660.03
375.97	655.35
376.17	664.71
376.37	662.37
376.56	643.65
376.76	664.71
376.95	702.16
377.15	695.14
377.35	706.84
377.54	718.54
377.74	657.69
377.93	720.88
378.13	704.50
378.33	671.73
378.52	671.73
378.72	758.33
378.91	793.44
379.11	720.88
379.31	674.07
379.50	667.05
379.70	748.97
379.89	755.99
380.09	636.63
380.28	657.69
380.48	674.07
380.68	695.14
380.87	805.14
381.07	695.14
381.26	755.99
381.46	779.40
381.65	823.87
381.85	737.27
382.04	791.10
382.24	730.25
382.43	781.74
382.63	711.52
382.83	821.53
383.02	793.44
383.22	835.57
383.41	826.21
383.61	763.01
383.80	816.85
384.00	821.53
384.19	800.46
384.39	809.83
384.58	753.65
384.78	819.19
384.97	788.76
385.17	791.10
385.36	884.72
385.56	837.91
385.75	849.61
385.95	812.17
386.14	952.60
386.34	840.25
386.53	858.98
386.72	823.87
386.92	894.08
387.11	901.11
387.31	940.90
387.50	901.11
387.70	880.04
387.89	851.96
388.09	875.36
388.28	875.36
388.48	875.36
388.67	917.49
388.86	992.39
389.06	940.90
389.25	901.11
389.45	926.85
389.64	877.70
389.84	976.00
390.03	992.39
390.22	961.96
390.42	994.73
390.61	905.79
390.81	919.83
391.00	983.02
391.19	950.26
391.39	966.64
391.58	1043.88
391.78	1055.58
391.97	994.73
392.16	971.32
392.36	1022.81
392.55	1104.73
392.75	1053.24
392.94	1156.22
393.13	1029.84
393.33	1029.84
393.52	1020.47
393.71	1139.84
393.91	1069.62
394.10	1078.99
394.29	1128.14
394.49	1074.31
394.68	1034.52
394.88	1081.33
395.07	1107.07
395.26	1088.35
395.46	1177.29
395.65	1139.84
395.84	1146.86
396.04	1296.66
396.23	1268.57
396.42	1280.27
396.62	1205.38
396.81	1263.89
397.00	1233.46
397.19	1301.34
397.39	1217.08
397.58	1249.85
397.77	1214.74
397.97	1247.51
398.16	1301.34
398.35	1362.19
398.55	1273.25
398.74	1331.76
398.93	1343.47
399.12	1256.87
399.32	1284.95
399.51	1341.13
399.70	1338.79
399.90	1306.02
400.09	1406.66
400.28	1411.34
400.47	1401.98
400.67	1427.73
400.86	1401.98
401.05	1416.02
401.24	1411.34
401.44	1399.64
401.63	1357.51
401.82	1500.28
402.01	1406.66
402.21	1504.96
402.40	1544.75
402.59	1511.99
402.78	1516.67
402.97	1507.30
403.17	1514.33
403.36	1448.79
403.55	1519.01
403.74	1607.95
403.93	1652.42
404.13	1633.69
404.32	1610.29
404.51	1596.25
404.70	1661.78
404.89	1563.48
405.09	1586.88
405.28	1605.61
405.47	1750.72
405.66	1724.97
405.85	1762.42
406.05	1682.85
406.24	1799.87
406.43	1802.21
406.62	1823.28
406.81	1818.60
407.00	1753.06
407.20	1825.62
407.39	1809.23
407.58	1839.66
407.77	1811.57
407.96	1905.20
408.15	1823.28
408.34	1884.13
408.54	1937.96
408.73	1952.01
408.92	1944.99
409.11	1991.80
409.30	1994.14
409.49	2022.22
409.68	2026.90
409.87	2104.14
410.07	2136.91
410.26	2078.40
410.45	2054.99
410.64	2043.29
410.83	2127.55
411.02	2052.65
411.21	2169.68
411.40	2083.08
411.59	2223.51
411.78	2249.25
411.98	2221.17
412.17	2232.87
412.36	2235.21
412.55	2267.98
412.74	2293.72
412.93	2342.88
413.12	2298.41
413.31	2366.28
413.50	2438.84
413.69	2466.92
413.88	2427.14
414.07	2401.39
414.26	2452.88
414.45	2546.50
414.64	2520.76
414.83	2612.04
415.02	2754.81
415.22	2607.36
415.41	2686.94
415.60	2579.27
415.79	2668.21
415.98	2944.39
416.17	2712.68
416.36	2825.03
416.55	2745.45
416.74	2785.24
416.93	2794.60
417.12	2778.22
417.31	2827.37
417.50	2906.95
417.69	2932.69
417.88	2963.12
418.07	3049.72
418.26	3026.31
418.45	2888.22
418.64	3075.46
418.83	3122.27
419.02	3087.17
419.21	3105.89
419.39	3234.62
419.58	3047.38
419.77	3019.29
419.96	3148.02
420.15	3171.43
420.34	3133.98
420.53	3131.64
420.72	3215.90
420.91	3218.24
421.10	3190.15
421.29	3316.54
421.48	3220.58
421.67	3330.58
421.86	3356.33
422.05	3335.26
422.24	3375.05
422.43	3272.07
422.61	3372.71
422.80	3466.33
422.99	3503.78
423.18	3407.82
423.37	3442.93
423.56	3412.50
423.75	3342.28
423.94	3283.77
424.13	3176.11
424.32	3309.52
424.50	3435.91
424.69	3627.83
424.88	3442.93
425.07	3321.22
425.26	3442.93
425.45	3412.50
425.64	3473.36
425.83	3442.93
426.01	3478.04
426.20	3482.72
426.39	3515.48
426.58	3452.29
426.77	3487.40
426.96	3534.21
427.15	3391.44
427.33	3463.99
427.52	3606.77
427.71	3639.53
427.90	3676.98
428.09	3679.32
428.28	3555.27
428.46	3592.72
428.65	3693.37
428.84	3892.31
429.03	3826.78
429.22	3754.22
429.40	3733.15
429.59	3620.81
429.78	3499.10
429.97	3597.40
430.16	3669.96
430.34	3868.91
430.53	3847.84
430.72	4011.68
430.91	3981.25
431.10	3932.10
431.28	3875.93
431.47	3967.21
431.66	3915.72
431.85	4007.00
432.03	4021.04
432.22	4060.83
432.41	4077.21
432.60	4025.72
432.79	4088.92
432.97	4205.94
433.16	4107.64
433.35	4166.15
433.54	4074.87
433.72	4161.47
433.91	4191.90
434.10	4215.30
434.28	4149.77
434.47	4287.86
434.66	4301.90
434.85	4255.09
435.03	4259.78
435.22	4278.50
435.41	4337.01
435.59	4299.56
435.78	4491.49
435.97	4568.73
436.16	4365.10
436.34	4407.23
436.53	4411.91
436.72	4613.20
436.90	4528.94
437.09	4454.04
437.28	4444.68
437.46	4547.66
437.65	4447.02
437.84	4627.24
438.02	4589.79
438.21	4596.81
438.40	4610.86
438.58	4744.27
438.77	5013.43
438.96	4671.71
439.14	4774.69
439.33	4891.72
439.52	4781.71
439.70	4940.87
439.89	4910.44
440.08	4954.91
440.26	4940.87
440.45	4973.64
440.63	5144.50
440.82	5034.49
441.01	5102.37
441.19	5116.41
441.38	5179.61
441.57	5327.06
441.75	5313.02
441.94	5437.06
442.12	5366.85
442.31	5446.43
442.50	5458.13
442.68	5430.04
442.87	5483.88
443.05	5434.72
443.24	5647.71
443.43	5568.13
443.61	5518.98
443.80	5727.29
443.98	5554.09
444.17	5249.82
444.35	5509.62
444.54	5776.44
444.73	5799.85
444.91	5638.35
445.10	5584.52
445.28	5703.89
445.47	5640.69
445.65	5575.16
445.84	5778.78
446.02	5626.65
446.21	5579.84
446.39	5647.71
446.58	5680.48
446.77	5764.74
446.95	5626.65
447.14	5778.78
447.32	5930.92
447.51	5724.95
447.69	5736.65
447.88	5626.65
448.06	5827.93
448.25	5879.43
448.43	5849.00
448.62	5877.09
448.80	5760.06
448.99	5872.40
449.17	5764.74
449.36	5748.36
449.54	5834.96
449.73	5942.62
449.91	6167.31
450.10	6061.99
450.28	6197.74
450.46	6087.73
450.65	6080.71
450.83	6246.89
451.02	6188.38
451.20	6190.72
451.39	6069.01
451.57	6122.84
451.76	6085.39
451.94	6258.59
452.13	6214.12
452.31	6321.79
452.49	6249.23
452.68	6368.60
452.86	6176.67
453.05	6310.08
453.23	6455.20
453.42	6162.63
453.60	6310.08
453.78	6485.62
453.97	6321.79
454.15	6380.30
454.34	6207.10
454.52	6492.65
454.70	6487.96
454.89	6473.92
455.07	6513.71
455.26	6712.66
455.44	6504.35
455.62	6806.28
455.81	6628.40
455.99	6785.21
456.17	6722.02
456.36	6846.07
456.54	6904.58
456.73	6909.26
456.91	7059.06
457.09	6848.41
457.28	7145.66
457.46	6918.62
457.64	7276.73
457.83	7089.48
458.01	6916.28
458.19	7133.95
458.38	7021.61
458.56	7108.21
458.74	7304.81
458.93	7007.56
459.11	7166.72
459.29	7143.32
459.48	7281.41
459.66	7222.89
459.84	7372.69
460.03	7470.99
460.21	7517.80
460.39	7461.63
460.57	7456.95
460.76	7438.22
460.94	7356.30
461.12	7595.04
461.31	7433.54
461.49	7555.25
461.67	7475.67
461.85	7566.95
462.04	7578.65
462.22	8194.22
462.40	7599.72
462.59	7700.36
462.77	7679.30
462.95	7651.21
463.13	7857.18
463.32	7892.29
463.50	7836.11
463.68	7812.71
463.86	7885.26
464.05	7824.41
464.23	7801.01
464.41	7894.63
464.59	7847.82
464.78	8004.63
464.96	8224.64
465.14	7976.55
465.32	7974.21
465.50	8238.69
465.69	8299.54
465.87	8067.83
466.05	8159.11
466.23	8077.19
466.41	8168.47
466.60	8301.88
466.78	8128.68
466.96	8306.56
467.14	8243.37
467.32	8388.48
467.51	8411.89
467.69	8079.53
467.87	8423.59
468.05	8320.60
468.23	8482.10
468.41	8140.38
468.60	8531.25
468.78	8531.25
468.96	8234.00
469.14	8674.03
469.32	8674.03
469.50	8367.42
469.69	8655.30
469.87	8542.96
470.05	8655.30
470.23	9029.79
470.41	8844.88
470.59	8947.87
470.77	8730.20
470.95	8732.54
471.14	9111.71
471.32	8875.31
471.50	9139.79
471.68	9008.72
471.86	9050.85
472.04	9205.33
472.22	9355.12
472.40	9104.68
472.58	9252.14
472.77	9350.44
472.95	9437.04
473.13	9701.52
473.31	9383.21
473.49	9366.82
473.67	9603.22
473.85	9617.26
474.03	9795.14
474.21	9872.38
474.39	9715.56
474.57	9666.41
474.75	9823.23
474.93	10047.92
475.12	9966.00
475.30	10132.18
475.48	9785.78
475.66	10209.42
475.84	10326.44
476.02	10293.68
476.20	10286.65
476.38	10396.66
476.56	10506.66
476.74	10775.83
476.92	10399.00
477.10	10441.13
477.28	10633.05
477.46	10679.86
477.64	10750.08
477.82	10782.85
478.00	11094.14
478.18	11077.76
478.36	11129.25
478.54	11239.25
478.72	11592.67
478.90	11485.01
479.08	11763.53
479.26	11531.82
479.44	11786.94
479.62	11728.42
479.80	11730.76
479.98	11971.84
480.16	12212.92
480.34	12079.50
480.52	12252.70
480.70	12308.88
480.88	12114.61
481.06	12287.81
481.24	12285.47
481.41	12538.25
481.59	12772.30
481.77	12896.35
481.95	12865.92
482.13	12905.71
482.31	13291.90
482.49	13383.18
482.67	13366.80
482.85	13460.42
483.03	13561.06
483.21	13701.50
483.39	13687.45
483.57	13722.56
483.74	13872.36
483.92	13881.72
484.10	14314.72
484.28	14307.69
484.46	14450.47
484.64	14630.69
484.82	14642.39
485.00	14707.93
485.18	14965.39
485.35	15314.13
485.53	15311.78
485.71	14984.11
485.89	15616.05
486.07	15279.02
486.25	15417.11
486.43	15482.64
486.61	15882.88
486.78	15847.77
486.96	15822.02
487.14	16037.35
487.32	16004.58
487.50	16198.85
487.68	16313.53
487.85	16496.10
488.03	16657.59
488.21	17041.44
488.39	16999.31
488.57	17238.05
488.75	17266.13
488.92	17514.23
489.10	17905.10
489.28	17640.62
489.46	17638.28
489.64	17579.76
489.81	18434.06
489.99	18064.25
490.17	17963.61
490.35	18471.51
490.53	18668.11
490.70	18815.57
490.88	18733.65
491.06	18958.34
491.24	18743.01
491.41	18787.48
491.59	19087.07
491.77	19176.01
491.95	19466.24
492.13	19700.29
492.30	19843.06
492.48	19857.10
492.66	19864.13
492.84	19878.17
493.01	19967.11
493.19	20262.02
493.37	20107.54
493.54	20456.28
493.72	20823.75
493.90	20650.55
494.08	20769.91
494.25	20582.67
494.43	21050.78
494.61	21135.04
494.79	21144.40
494.96	21069.50
495.14	21465.05
495.32	22001.04
495.49	21404.20
495.67	21802.09
495.85	22022.10
496.02	22370.84
496.20	22567.45
496.38	22338.07
496.55	22312.33
496.73	23098.75
496.91	22335.73
497.09	23070.66
497.26	23023.85
497.44	22923.21
497.62	23274.29
497.79	23508.34
497.97	23438.12
498.14	23726.01
498.32	24046.66
498.50	23889.85
498.67	24049.00
498.85	23812.61
499.03	24074.75
499.20	23653.45
499.38	24128.58
499.56	24292.42
499.73	24278.38
499.91	24393.06
500.08	24833.08
500.26	24861.17
500.44	24863.51
500.61	24893.94
500.79	24837.76
500.97	24987.56
501.14	25102.25
501.32	25509.50
501.49	25233.32
501.67	25940.16
501.84	25350.34
502.02	25678.02
502.20	25652.27
502.37	25844.20
502.55	25970.58
502.72	25914.41
502.90	26209.32
503.07	26080.59
503.25	25874.62
503.43	26101.65
503.60	26216.34
503.78	26473.80
503.95	26216.34
504.13	26506.57
504.30	26761.69
504.48	27056.59
504.65	26806.16
504.83	27089.36
505.01	26934.88
505.18	27051.91
505.36	27129.15
505.53	27309.37
505.71	27442.78
505.88	27604.28
506.06	27410.01
506.23	27583.21
506.41	27725.99
506.58	27807.90
506.76	27819.61
506.93	27761.09
507.11	27983.44
507.28	28254.95
507.46	28318.14
507.63	28631.77
507.81	28615.39
507.98	28343.89
508.16	28280.69
508.33	28662.20
508.50	28587.30
508.68	28851.78
508.85	28872.85
509.03	29074.13
509.20	28884.55
509.38	28903.28
509.55	29479.05
509.73	29493.09
509.90	29476.71
510.08	29249.67
510.25	29551.60
510.42	30022.05
510.60	29642.88
510.77	29895.66
510.95	29949.50
511.12	30012.69
511.30	30174.19
511.47	30433.99
511.64	30092.27
511.82	30398.88
511.99	30323.98
512.17	30635.27
512.34	30335.68
512.51	30747.62
512.69	30654.00
512.86	30632.93
513.04	30845.92
513.21	30532.29
513.38	31466.16
513.56	31299.98
513.73	30995.71
513.90	30984.01
514.08	31346.79
514.25	31667.45
514.43	31566.81
514.60	31367.86
514.77	31782.13
514.95	31990.44
515.12	31604.25
515.29	31559.78
515.47	32098.11
515.64	32163.64
515.81	31955.33
515.99	31945.97
516.16	32355.57
516.33	32318.12
516.51	32676.22
516.68	32308.76
516.85	32517.06
517.03	32919.63
517.20	32720.69
517.37	33041.34
517.54	32884.53
517.72	32910.27
517.89	32914.95
518.06	33127.94
518.24	33034.32
518.41	33022.62
518.58	33607.75
518.75	33081.13
518.93	33352.63
519.10	33102.20
519.27	33663.93
519.45	33666.27
519.62	33977.56
519.79	33413.49
519.96	33785.63
520.14	33949.47
520.31	33263.69
520.48	34237.36
520.65	34012.66
520.83	34408.22
521.00	34686.74
521.17	34801.43
521.34	34532.26
521.52	34714.83
521.69	34501.84
521.86	34473.75
522.03	34707.80
522.20	34927.81
522.38	35459.12
522.55	35276.55
522.72	34679.72
522.89	35007.39
523.07	35489.54
523.24	35562.10
523.41	35555.08
523.58	35229.74
523.75	35744.66
523.92	35913.18
524.10	35651.04
524.27	35424.01
524.44	35688.49
524.61	35805.52
524.78	36233.83
524.96	36034.89
525.13	36364.90
525.30	36304.05
525.47	36299.37
525.64	36140.21
525.81	36273.62
525.98	36556.83
526.16	36133.19
526.33	36184.68
526.50	36465.55
526.67	36996.85
526.84	36931.31
527.01	36353.20
527.18	36493.63
527.36	36893.86
527.53	37027.28
527.70	36924.29
527.87	37109.19
528.04	36966.42
528.21	37282.39
528.38	37280.05
528.55	37329.20
528.72	37184.09
528.89	37923.70
529.07	37443.89
529.24	37050.68
529.41	37450.91
529.58	37453.25
529.75	37497.72
529.92	37876.89
530.09	37584.32
530.26	37607.73
530.43	38024.34
530.60	37549.21
530.77	37542.19
530.94	37743.48
531.11	37883.91
531.28	38164.78
531.46	38019.66
531.63	38141.37
531.80	38607.14
531.97	38569.69
532.14	38553.30
532.31	37865.19
532.48	38410.53
532.65	39091.63
532.82	38658.63
532.99	38913.75
533.16	38845.87
533.33	38705.44
533.50	38838.85
533.67	38778.00
533.84	38635.22
534.01	38705.44
534.18	39227.38
534.35	39489.52
534.52	39171.21
534.69	39171.21
534.86	39267.17
535.03	39536.33
535.20	39494.20
535.37	39772.72
535.54	39433.35
535.71	39646.33
535.88	39732.93
536.05	39154.82
536.22	39498.88
536.38	39676.76
536.55	39917.84
536.72	39861.66
536.89	39643.99
537.06	39892.09
537.23	40116.78
537.40	39730.59
537.57	39746.98
537.74	39686.12
537.91	40332.11
538.08	40051.25
538.25	39599.52
538.42	40535.74
538.59	40563.82
538.75	40528.72
538.92	40453.82
539.09	40570.85
539.26	40517.01
539.43	40390.62
539.60	40673.83
539.77	40460.84
539.94	40809.58
540.11	40760.43
540.28	41261.30
540.44	40945.33
540.61	41081.08
540.78	40748.73
540.95	41127.89
541.12	40964.06
541.29	40851.71
541.46	40957.03
541.62	41099.81
541.79	41214.49
541.96	40751.07
542.13	40828.30
542.30	41284.71
542.47	41448.55
542.63	41315.14
542.80	41642.81
542.97	41982.19
543.14	42403.49
543.31	41909.63
543.48	41104.49
543.64	42424.55
543.81	41773.88
543.98	41968.15
544.15	42190.50
544.32	41888.57
544.48	42202.20
544.65	42307.52
544.82	42525.19
544.99	42260.71
545.16	42234.97
545.32	42651.58
545.49	42450.30
545.66	42712.44
545.83	42932.45
546.00	42862.23
546.16	42644.56
546.33	42981.60
546.50	42319.23
546.67	42747.54
546.83	42557.96
547.00	42717.12
547.17	42768.61
547.34	42878.61
547.50	43374.81
547.67	43681.42
547.84	42969.90
548.00	43112.67
548.17	43178.20
548.34	43028.41
548.51	43473.11
548.67	43229.69
548.84	43250.76
549.01	43115.01
549.18	43187.56
549.34	43203.95
549.51	43655.67
549.68	43679.08
549.84	43800.79
550.01	43838.23
550.18	43538.65
550.34	43643.97
550.51	43578.43
550.68	43435.66
550.84	43236.72
551.01	44435.07
551.18	43873.34
551.34	43805.47
551.51	43779.72
551.68	44177.61
551.84	43676.74
552.01	43749.29
552.18	43763.34
552.34	43739.93
552.51	43929.51
552.68	43952.92
552.84	44041.86
553.01	44362.51
553.18	43873.34
553.34	44404.64
553.51	44175.27
553.67	44175.27
553.84	44545.08
554.01	44570.82
554.17	44334.43
554.34	44760.40
554.51	44519.33
554.67	44552.10
554.84	44769.77
555.00	44612.95
555.17	44875.09
555.33	44816.58
555.50	44886.79
555.67	45024.89
555.83	45186.38
556.00	44900.84
556.16	45214.47
556.33	44641.04
556.50	45244.90
556.66	44601.25
556.83	44575.50
556.99	45455.54
557.16	45104.46
557.32	45352.56
557.49	45392.35
557.65	44694.87
557.82	44996.80
557.98	45235.53
558.15	45441.50
558.32	45184.04
558.48	45059.99
558.65	45354.90
558.81	45595.98
558.98	45029.57
559.14	45270.64
559.31	44989.78
559.47	45022.54
559.64	45539.80
559.80	45642.79
559.97	45425.12
560.13	45024.89
560.30	45308.09
560.46	45876.84
560.63	45361.92
560.79	46071.10
560.96	45979.82
561.12	45736.41
561.29	45745.77
561.45	45642.79
561.61	45614.70
561.78	45436.82
561.94	45556.19
562.11	46148.34
562.27	45820.67
562.44	45593.64
562.60	46206.86
562.77	45853.44
562.93	46024.29
563.10	46087.49
563.26	45872.16
563.42	46459.63
563.59	45797.26
563.75	45841.73
563.92	46267.71
564.08	45661.51
564.24	46321.54
564.41	45865.14
564.57	45876.84
564.74	46508.79
564.90	45942.38
565.07	46047.70
565.23	46174.09
565.39	46061.74
565.56	46532.19
565.72	46312.18
565.88	45991.53
566.05	46473.68
566.21	46267.71
566.38	46007.91
566.54	46160.05
566.70	46539.21
566.87	46401.12
567.03	45759.81
567.19	46681.98
567.36	46227.92
567.52	46389.42
567.68	46794.33
567.85	46560.28
568.01	46894.97
568.17	46644.54
568.34	46740.50
568.50	46532.19
568.66	46134.30
568.83	46679.64
568.99	46349.63
569.15	46717.09
569.32	46525.17
569.48	46579.00
569.64	47000.30
569.81	46564.96
569.97	46333.24
570.13	46539.21
570.30	46153.02
570.46	46880.93
570.62	47042.43
570.78	46920.72
570.95	46712.41
571.11	46703.05
571.27	46473.68
571.43	46836.46
571.60	46560.28
571.76	46452.61
571.92	46916.04
572.09	46480.70
572.25	46707.73
572.41	46742.84
572.57	46845.82
572.74	47363.08
572.90	46707.73
573.06	46817.74
573.22	46944.12
573.38	46667.94
573.55	46953.49
573.71	47346.70
573.87	47269.46
574.03	47051.79
574.20	47224.99
574.36	46972.21
574.52	46937.10
574.68	46939.44
574.84	47054.13
575.01	47145.41
575.17	47281.16
575.33	47430.96
575.49	46777.95
575.65	47421.59
575.82	47342.02
575.98	47276.48
576.14	46995.62
576.30	47206.26
576.46	47035.41
576.62	46869.23
576.79	47065.83
576.95	46429.21
577.11	47334.99
577.27	47271.80
577.43	47187.54
577.59	46845.82
577.75	46916.04
577.92	46953.49
578.08	47138.39
578.24	47012.00
578.40	47051.79
578.56	47166.48
578.72	47042.43
578.88	47400.53
579.04	47285.84
579.21	47496.49
579.37	47180.52
579.53	47103.28
579.69	47047.11
579.85	46887.95
580.01	47594.79
580.17	47421.59
580.33	47550.32
580.49	47606.50
580.65	47070.51
580.82	47412.23
580.98	47164.14
581.14	47292.86
581.30	47391.17
581.46	47084.56
581.62	47105.62
581.78	47093.92
581.94	47531.60
582.10	47168.82
582.26	47175.84
582.42	47533.94
582.58	47199.24
582.74	47416.91
582.90	47297.55
583.06	47547.98
583.22	46899.65
583.38	47016.68
583.54	47243.71
583.70	47421.59
583.86	47688.42
584.02	47522.24
584.18	47533.94
584.34	47517.56
584.50	47547.98
584.66	47239.03
584.82	47620.54
584.98	47704.80
585.14	48020.77
585.30	47566.71
585.46	47267.12
585.62	47459.04
585.78	47732.89
585.94	47290.52
586.10	47180.52
586.26	47056.47
586.42	47426.28
586.58	47363.08
586.74	47627.56
586.90	47515.22
587.06	47416.91
587.22	47393.51
587.38	47452.02
587.54	47751.61
587.70	48193.97
587.86	47526.92
588.02	47351.38
588.18	47089.24
588.34	47337.33
588.49	47597.13
588.65	47566.71
588.81	47423.93
588.97	47962.26
589.13	47573.73
589.29	47847.57
589.45	47758.63
589.61	47686.07
589.77	47838.21
589.93	47782.04
590.08	47770.33
