SpectraSuite Data File
++++++++++++++++++++++++++++++++++++
Date: Fri Oct 25 11:34:28 EDT 2013
User: price-jones
Dark Spectrum Present: No
Reference Spectrum Present: No
Number of Sampled Component Spectra: 1
Spectrometers: USB2+H05261
Integration Time (usec): 100000 (USB2+H05261)
Spectra Averaged: 1 (USB2+H05261)
Boxcar Smoothing: 0 (USB2+H05261)
Correct for Electrical Dark: No (USB2+H05261)
Strobe/Lamp Enabled: No (USB2+H05261)
Correct for Detector Non-linearity: No (USB2+H05261)
Correct for Stray Light: No (USB2+H05261)
Number of Pixels in Processed Spectrum: 2048
>>>>>Begin Processed Spectral Data<<<<<
365.73	341.72
365.92	341.72
366.12	341.72
366.32	208.31
366.52	203.63
366.72	210.65
366.91	203.63
367.11	170.86
367.31	184.90
367.51	184.90
367.70	163.84
367.90	184.90
368.10	175.54
368.30	180.22
368.49	149.79
368.69	234.05
368.89	191.92
369.09	180.22
369.28	262.14
369.48	198.95
369.68	264.48
369.87	198.95
370.07	229.37
370.27	173.20
370.47	325.33
370.66	440.02
370.86	561.73
371.06	517.26
371.25	528.96
371.45	535.98
371.65	589.82
371.84	550.03
372.04	603.86
372.24	566.41
372.44	524.28
372.63	559.39
372.83	681.10
373.03	643.65
373.22	629.60
373.42	575.77
373.62	573.43
373.81	620.24
374.01	589.82
374.21	608.54
374.40	655.35
374.60	653.01
374.79	681.10
374.99	643.65
375.19	631.94
375.38	695.14
375.58	636.63
375.78	664.71
375.97	678.76
376.17	706.84
376.37	781.74
376.56	798.12
376.76	648.33
376.95	627.26
377.15	699.82
377.35	650.67
377.54	688.12
377.74	664.71
377.93	704.50
378.13	664.71
378.33	674.07
378.52	716.20
378.72	688.12
378.91	664.71
379.11	695.14
379.31	695.14
379.50	674.07
379.70	671.73
379.89	723.23
380.09	734.93
380.28	737.27
380.48	667.05
380.68	727.91
380.87	744.29
381.07	786.42
381.26	753.65
381.46	709.18
381.65	730.25
381.85	713.86
382.04	795.78
382.24	758.33
382.43	786.42
382.63	706.84
382.83	791.10
383.02	746.63
383.22	814.51
383.41	779.40
383.61	805.14
383.80	788.76
384.00	681.10
384.19	798.12
384.39	755.99
384.58	765.36
384.78	840.25
384.97	767.70
385.17	767.70
385.36	779.40
385.56	772.38
385.75	830.89
385.95	791.10
386.14	826.21
386.34	837.91
386.53	800.46
386.72	844.93
386.92	912.81
387.11	849.61
387.31	805.14
387.50	814.51
387.70	823.87
387.89	910.47
388.09	903.45
388.28	903.45
388.48	945.58
388.67	915.15
388.86	870.68
389.06	828.55
389.25	898.77
389.45	987.71
389.64	992.39
389.84	901.11
390.03	985.37
390.22	1032.18
390.42	973.66
390.61	917.49
390.81	966.64
391.00	973.66
391.19	950.26
391.39	973.66
391.58	919.83
391.78	1067.28
391.97	1022.81
392.16	924.51
392.36	1088.35
392.55	1025.15
392.75	1001.75
392.94	978.34
393.13	1116.44
393.33	901.11
393.52	1048.56
393.71	992.39
393.91	1111.75
394.10	1062.60
394.29	1057.92
394.49	1076.65
394.68	1097.71
394.88	1114.10
395.07	1114.10
395.26	1071.97
395.46	1088.35
395.65	1156.22
395.84	1184.31
396.04	1214.74
396.23	1125.80
396.42	1158.57
396.62	1256.87
396.81	1174.95
397.00	1188.99
397.19	1172.61
397.39	1228.78
397.58	1224.10
397.77	1172.61
397.97	1266.23
398.16	1238.14
398.35	1165.59
398.55	1296.66
398.74	1219.42
398.93	1324.74
399.12	1238.14
399.32	1245.16
399.51	1294.32
399.70	1270.91
399.90	1263.89
400.09	1299.00
400.28	1369.21
400.47	1277.93
400.67	1373.89
400.86	1369.21
401.05	1373.89
401.24	1303.68
401.44	1465.18
401.63	1446.45
401.82	1357.51
402.01	1366.87
402.21	1427.73
402.40	1420.71
402.59	1404.32
402.78	1490.92
402.97	1448.79
403.17	1462.83
403.36	1526.03
403.55	1579.86
403.74	1516.67
403.93	1549.43
404.13	1474.54
404.32	1542.41
404.51	1591.56
404.70	1579.86
404.89	1554.12
405.09	1584.54
405.28	1717.95
405.47	1598.59
405.66	1666.46
405.85	1694.55
406.05	1673.48
406.24	1703.91
406.43	1638.38
406.62	1682.85
406.81	1919.24
407.00	1785.83
407.20	1687.53
407.39	1755.40
407.58	1699.23
407.77	1753.06
407.96	1834.98
408.15	1804.55
408.34	1774.13
408.54	1837.32
408.73	1937.96
408.92	1961.37
409.11	1966.05
409.30	1921.58
409.49	1970.73
409.68	1844.34
409.87	1916.90
410.07	1968.39
410.26	1886.47
410.45	1937.96
410.64	1921.58
410.83	2097.12
411.02	2064.35
411.21	2026.90
411.40	2054.99
411.59	2265.64
411.78	2083.08
411.98	2113.50
412.17	2267.98
412.36	2207.13
412.55	2169.68
412.74	2165.00
412.93	2275.00
413.12	2342.88
413.31	2328.83
413.50	2328.83
413.69	2303.09
413.88	2347.56
414.07	2382.67
414.26	2487.99
414.45	2401.39
414.64	2401.39
414.83	2487.99
415.02	2502.03
415.22	2532.46
415.41	2583.95
415.60	2586.29
415.79	2661.19
415.98	2616.72
416.17	2682.25
416.36	2614.38
416.55	2633.10
416.74	2729.06
416.93	2612.04
417.12	2771.19
417.31	2757.15
417.50	2773.53
417.69	2785.24
417.88	2834.39
418.07	2782.90
418.26	2815.66
418.45	2780.56
418.64	2834.39
418.83	2977.16
419.02	2846.09
419.21	3042.70
419.39	2939.71
419.58	2874.18
419.77	3023.97
419.96	2991.20
420.15	3073.12
420.34	3084.83
420.53	3019.29
420.72	3148.02
420.91	3066.10
421.10	3272.07
421.29	3255.69
421.48	3124.62
421.67	3091.85
421.86	3098.87
422.05	3136.32
422.24	3061.42
422.43	3272.07
422.61	3265.05
422.80	3311.86
422.99	3337.60
423.18	3316.54
423.37	3300.16
423.56	3087.17
423.75	3379.73
423.94	3103.55
424.13	3141.00
424.32	3126.96
424.50	3300.16
424.69	3307.18
424.88	3321.22
425.07	3225.26
425.26	3262.71
425.45	3426.54
425.64	3206.53
425.83	3279.09
426.01	3382.07
426.20	3318.88
426.39	3358.67
426.58	3293.13
426.77	3274.41
426.96	3384.41
427.15	3262.71
427.33	3398.46
427.52	3456.97
427.71	3419.52
427.90	3466.33
428.09	3559.95
428.28	3445.27
428.46	3562.30
428.65	3674.64
428.84	3672.30
429.03	3627.83
429.22	3543.57
429.40	3620.81
429.59	3590.38
429.78	3517.83
429.97	3590.38
430.16	3543.57
430.34	3667.62
430.53	3698.05
430.72	3674.64
430.91	3681.66
431.10	3756.56
431.28	3744.86
431.47	3866.56
431.66	3794.01
431.85	3829.12
432.03	3904.01
432.22	3812.73
432.41	3868.91
432.60	3889.97
432.79	3999.98
432.97	4014.02
433.16	3960.19
433.35	3957.85
433.54	4074.87
433.72	4032.74
433.91	3953.16
434.10	4009.34
434.28	3971.89
434.47	4021.04
434.66	3992.95
434.85	4128.70
435.03	4201.26
435.22	4135.73
435.41	4156.79
435.59	4149.77
435.78	4088.92
435.97	4126.36
436.16	4334.67
436.34	4292.54
436.53	4231.69
436.72	4468.08
436.90	4269.14
437.09	4369.78
437.28	4278.50
437.46	4379.14
437.65	4334.67
437.84	4362.76
438.02	4346.37
438.21	4255.09
438.40	4432.97
438.58	4542.98
438.77	4631.92
438.96	4505.53
439.14	4540.64
439.33	4652.98
439.52	4671.71
439.70	4746.61
439.89	4781.71
440.08	4875.34
440.26	4791.08
440.45	4650.64
440.63	4807.46
440.82	5018.11
441.01	4924.49
441.19	4861.29
441.38	4987.68
441.57	5116.41
441.75	5085.98
441.94	5144.50
442.12	5116.41
442.31	5076.62
442.50	5273.23
442.68	5212.37
442.87	5184.29
443.05	5252.16
443.24	5547.07
443.43	5324.72
443.61	5444.09
443.80	5399.62
443.98	5240.46
444.17	5011.09
444.35	5329.40
444.54	5530.69
444.73	5359.83
444.91	5439.40
445.10	5355.15
445.28	5383.23
445.47	5221.74
445.65	5406.64
445.84	5596.22
446.02	5610.26
446.21	5507.28
446.39	5287.27
446.58	5483.88
446.77	5458.13
446.95	5329.40
447.14	5565.79
447.32	5500.26
447.51	5591.54
447.69	5366.85
447.88	5441.75
448.06	5631.33
448.25	5682.82
448.43	5600.90
448.62	5593.88
448.80	5530.69
448.99	5561.11
449.17	5504.94
449.36	5626.65
449.54	5664.10
449.73	5664.10
449.91	5795.17
450.10	5877.09
450.28	5841.98
450.46	5692.18
450.65	5738.99
450.83	6008.16
451.02	5858.36
451.20	5977.73
451.39	5888.79
451.57	5961.34
451.76	5664.10
451.94	6057.31
452.13	5989.43
452.31	6146.25
452.49	5926.24
452.68	6017.52
452.86	5930.92
453.05	6239.87
453.23	6176.67
453.42	5989.43
453.60	5912.19
453.78	6200.08
453.97	6223.48
454.15	6235.19
454.34	6155.61
454.52	6230.51
454.70	6347.53
454.89	6319.45
455.07	6476.26
455.26	6380.30
455.44	6335.83
455.62	6373.28
455.81	6361.58
455.99	6487.96
456.17	6604.99
456.36	6644.78
456.54	6537.12
456.73	6593.29
456.91	6661.16
457.09	6747.76
457.28	6731.38
457.46	6796.92
457.64	6785.21
457.83	6560.52
458.01	6715.00
458.19	6920.96
458.38	6881.18
458.56	6963.09
458.74	6986.50
458.93	6906.92
459.11	6651.80
459.29	6722.02
459.48	6890.54
459.66	6949.05
459.84	7016.93
460.03	7323.54
460.21	7201.83
460.39	7122.25
460.57	7054.37
460.76	7117.57
460.94	7222.89
461.12	7073.10
461.31	7030.97
461.49	7110.55
461.67	7091.82
461.85	7328.22
462.04	7227.57
462.22	7585.68
462.40	7393.75
462.59	7276.73
462.77	7276.73
462.95	7421.84
463.13	7447.58
463.32	7384.39
463.50	7550.57
463.68	7492.05
463.86	7569.29
464.05	7489.71
464.23	7616.10
464.41	7705.04
464.59	7588.02
464.78	7756.54
464.96	7754.19
465.14	7583.34
465.32	7859.52
465.50	7793.98
465.69	7824.41
465.87	7747.17
466.05	7581.00
466.23	7782.28
466.41	7836.11
466.60	7941.44
466.78	8023.36
466.96	7709.72
467.14	7581.00
467.32	7789.30
467.51	8145.06
467.69	7744.83
467.87	8208.26
468.05	8032.72
468.23	7791.64
468.41	7915.69
468.60	8226.98
468.78	8182.51
468.96	7950.80
469.14	8191.88
469.32	8564.02
469.50	7974.21
469.69	8189.53
469.87	8241.03
470.05	8287.84
470.23	8318.26
470.41	8425.93
470.59	8414.23
470.77	8533.59
470.95	8552.32
471.14	8428.27
471.32	8393.16
471.50	8678.71
471.68	8753.60
471.86	8578.06
472.04	8767.65
472.22	8912.76
472.40	8755.94
472.58	8833.18
472.77	9111.71
472.95	9022.77
473.13	9228.73
473.31	9167.88
473.49	9013.40
473.67	8947.87
473.85	9174.90
474.03	9383.21
474.21	9525.98
474.39	9202.99
474.57	9275.54
474.75	9385.55
474.93	9476.83
475.12	9453.42
475.30	9451.08
475.48	9479.17
475.66	9631.30
475.84	9575.13
476.02	9626.62
476.20	9668.75
476.38	10113.45
476.56	10162.61
476.74	10076.01
476.92	10078.35
477.10	10136.86
477.28	10356.87
477.46	10068.98
477.64	10237.50
477.82	10459.85
478.00	10993.50
478.18	10541.77
478.36	10663.48
478.54	10824.98
478.72	10750.08
478.90	11122.23
479.08	11047.33
479.26	11140.95
479.44	11239.25
479.62	11243.93
479.80	11421.81
479.98	11412.45
480.16	11559.91
480.34	11606.72
480.52	11595.01
480.70	11683.95
480.88	11662.89
481.06	11925.03
481.24	12084.19
481.41	11934.39
481.59	12203.55
481.77	12271.43
481.95	12231.64
482.13	12411.86
482.31	12119.29
482.49	12704.43
482.67	12662.30
482.85	12741.88
483.03	13071.89
483.21	12861.24
483.39	13158.49
483.57	13099.98
483.74	13097.64
483.92	13209.98
484.10	13348.08
484.28	13689.79
484.46	13802.14
484.64	14045.55
484.82	13825.54
485.00	14083.00
485.18	14218.75
485.35	14539.41
485.53	14260.88
485.71	14157.90
485.89	14647.07
486.07	14684.52
486.25	14469.19
486.43	14944.32
486.61	14862.40
486.78	14988.79
486.96	15215.82
487.14	15234.55
487.32	15318.81
487.50	15520.09
487.68	15676.91
487.85	15700.31
488.03	15810.32
488.21	16226.93
488.39	16025.65
488.57	16194.17
488.75	16285.45
488.92	16383.75
489.10	16840.15
489.28	16910.37
489.46	17076.55
489.64	16800.37
489.81	17151.45
489.99	17256.77
490.17	17324.65
490.35	17401.88
490.53	17692.11
490.70	17832.54
490.88	18019.78
491.06	17921.48
491.24	18155.54
491.41	18270.22
491.59	18452.78
491.77	18216.39
491.95	18567.47
492.13	18738.33
492.30	18728.97
492.48	18595.56
492.66	18831.95
492.84	18831.95
493.01	19384.32
493.19	19414.74
493.37	19321.12
493.54	19693.27
493.72	19784.55
493.90	19592.62
494.08	19559.86
494.25	20006.90
494.43	19754.12
494.61	20070.09
494.79	20491.39
494.96	20463.30
495.14	20648.21
495.32	20723.10
495.49	20704.38
495.67	20683.31
495.85	21039.08
496.02	21179.51
496.20	21434.63
496.38	21483.78
496.55	21586.76
496.73	22015.08
496.91	21542.29
497.09	21551.65
497.26	21647.61
497.44	21818.47
497.62	22122.74
497.79	22445.74
497.97	22003.38
498.14	22389.56
498.32	22356.80
498.50	22506.59
498.67	23063.64
498.85	22586.17
499.03	22710.22
499.20	22843.63
499.38	22970.02
499.56	23026.19
499.73	23307.05
499.91	23456.85
500.08	23681.54
500.26	23367.91
500.44	23775.16
500.61	23929.64
500.79	23529.41
500.97	23768.14
501.14	24196.46
501.32	24222.20
501.49	23758.78
501.67	24107.52
501.84	24442.21
502.02	23969.43
502.20	24718.40
502.37	24613.07
502.55	24587.33
502.72	24599.03
502.90	24519.45
503.07	24741.80
503.25	24854.15
503.43	25053.09
503.60	25181.82
503.78	24938.41
503.95	25181.82
504.13	25228.63
504.30	25303.53
504.48	25600.78
504.65	25413.54
504.83	26005.69
505.01	25898.03
505.18	25614.82
505.36	25977.61
505.53	25689.72
505.71	26136.76
505.88	26031.44
506.06	26089.95
506.23	26321.66
506.41	26520.61
506.58	26525.29
506.76	26464.44
506.93	26670.40
507.11	26829.56
507.28	27117.45
507.46	26946.59
507.63	27096.38
507.81	27410.01
507.98	27197.02
508.16	27051.91
508.33	26962.97
508.50	27140.85
508.68	27604.28
508.85	27852.38
509.03	27606.62
509.20	27906.21
509.38	27573.85
509.55	27943.66
509.73	27683.86
509.90	27868.76
510.08	28011.53
510.25	27974.08
510.42	28393.04
510.60	28386.02
510.77	28570.92
510.95	28676.24
511.12	28971.15
511.30	28390.70
511.47	28716.03
511.64	28510.07
511.82	29109.24
511.99	29233.29
512.17	29130.31
512.34	28521.77
512.51	29380.74
512.69	29694.38
512.86	29528.20
513.04	29308.19
513.21	29563.31
513.38	29635.86
513.56	29710.76
513.73	29563.31
513.90	29839.49
514.08	29846.51
514.25	29893.32
514.43	30132.06
514.60	29893.32
514.77	30143.76
514.95	30307.60
515.12	30422.28
515.29	30401.22
515.47	30742.94
515.64	31044.87
515.81	30445.69
515.99	30651.66
516.16	31168.91
516.33	30546.33
516.51	31131.47
516.68	30843.58
516.85	30745.28
517.03	31489.57
517.20	31035.50
517.37	31587.87
517.54	31660.43
517.72	31283.60
517.89	31622.98
518.06	31622.98
518.24	31765.75
518.41	31459.14
518.58	31637.02
518.75	31400.63
518.93	32011.51
519.10	31576.17
519.27	31934.27
519.45	32084.06
519.62	32196.41
519.79	32765.16
519.96	31929.59
520.14	32236.20
520.31	32652.81
520.48	32545.15
520.65	32524.08
520.83	32767.50
521.00	32924.32
521.17	32657.49
521.34	32818.99
521.52	32737.07
521.69	33137.30
521.86	33188.80
522.03	33434.55
522.20	33277.74
522.38	33560.94
522.55	33537.54
522.72	33050.70
522.89	33273.06
523.07	33862.87
523.24	33364.34
523.41	33743.50
523.58	33703.71
523.75	33820.74
523.92	34082.88
524.10	33909.68
524.27	33769.25
524.44	34033.73
524.61	34169.48
524.78	33750.52
524.96	34298.21
525.13	34293.53
525.30	34473.75
525.47	34403.53
525.64	34363.75
525.81	34588.44
525.98	34653.97
526.16	34794.40
526.33	34616.52
526.50	34885.68
526.67	34820.15
526.84	34953.56
527.01	35068.25
527.18	35044.84
527.36	35321.02
527.53	35084.63
527.70	35562.10
527.87	35180.59
528.04	35566.78
528.21	35496.56
528.38	35056.54
528.55	35510.61
528.72	35470.82
528.89	35548.06
529.07	35271.87
529.24	35459.12
529.41	35959.99
529.58	35751.68
529.75	35632.32
529.92	35871.05
530.09	35793.81
530.26	35985.74
530.43	36208.09
530.60	36088.72
530.77	36109.78
530.94	36444.48
531.11	36025.53
531.28	35908.50
531.46	36472.57
531.63	35889.77
531.80	36456.18
531.97	36765.14
532.14	36739.39
532.31	36383.63
532.48	36428.10
532.65	36362.56
532.82	36811.95
532.99	36781.52
533.16	36435.12
533.33	37031.96
533.50	36968.76
533.67	36875.14
533.84	36872.80
534.01	37001.53
534.18	37567.94
534.35	37816.04
534.52	37584.32
534.69	37436.87
534.86	37762.20
535.03	37413.46
535.20	37703.69
535.37	38274.78
535.54	37647.52
535.71	37647.52
535.88	37776.25
536.05	38024.34
536.22	37954.13
536.38	38225.63
536.55	37649.86
536.72	37804.33
536.89	37794.97
537.06	37752.84
537.23	37619.43
537.40	37848.80
537.57	38274.78
537.74	37825.40
537.91	38387.13
538.08	38286.48
538.25	37893.27
538.42	38665.65
538.59	38775.66
538.75	38394.15
538.92	38679.69
539.09	38749.91
539.26	38976.94
539.43	38806.08
539.60	38731.18
539.77	38436.28
539.94	38880.98
540.11	38888.00
540.28	39028.43
540.44	38675.01
540.61	38962.90
540.78	38778.00
540.95	38906.73
541.12	38834.17
541.29	38794.38
541.46	39124.40
541.62	39573.78
541.79	39342.06
541.96	39096.31
542.13	38799.06
542.30	39325.68
542.47	39419.30
542.63	39779.74
542.80	39995.07
542.97	39910.82
543.14	40390.62
543.31	40072.31
543.48	39805.49
543.64	40994.48
543.81	39892.09
543.98	40346.15
544.15	40088.70
544.32	39906.13
544.48	40062.95
544.65	40465.52
544.82	40435.10
544.99	40062.95
545.16	40591.91
545.32	40294.66
545.49	40467.86
545.66	40830.65
545.83	40622.34
546.00	40388.28
546.16	40816.60
546.33	40980.44
546.50	40098.06
546.67	40835.33
546.83	40587.23
547.00	40512.33
547.17	40891.50
547.34	40580.21
547.50	40811.92
547.67	41209.81
547.84	41141.94
548.00	41287.05
548.17	41237.90
548.34	40914.90
548.51	41289.39
548.67	41167.68
548.84	41340.88
549.01	41186.41
549.18	41441.53
549.34	41511.74
549.51	41525.78
549.68	41535.15
549.84	41792.61
550.01	41787.92
550.18	41364.29
550.34	41656.85
550.51	41481.31
550.68	42003.25
550.84	41429.82
551.01	41970.49
551.18	41965.81
551.34	41659.20
551.51	42316.89
551.68	41811.33
551.84	41881.55
552.01	41717.71
552.18	41713.03
552.34	41588.98
552.51	42218.58
552.68	41811.33
552.84	42349.65
553.01	42321.57
553.18	41989.21
553.34	42405.83
553.51	42211.56
553.67	42253.69
553.84	42031.34
554.01	42597.75
554.17	42192.84
554.34	43030.75
554.51	42560.30
554.67	42871.59
554.84	42291.14
555.00	42433.91
555.17	42777.97
555.33	42852.87
555.50	42838.83
555.67	42789.67
555.83	42529.87
556.00	42955.85
556.16	43005.00
556.33	42784.99
556.50	42780.31
556.66	42920.74
556.83	42838.83
556.99	42955.85
557.16	42976.92
557.32	43475.45
557.49	43100.97
557.65	43051.81
557.82	43138.41
557.98	43445.02
558.15	42981.60
558.32	43173.52
558.48	43438.00
558.65	42841.17
558.81	42913.72
558.98	43828.87
559.14	43178.20
559.31	43381.83
559.47	43454.39
559.64	43765.68
559.80	43517.58
559.97	43852.28
560.13	43180.54
560.30	43957.60
560.46	43894.41
560.63	43639.29
560.79	43896.75
560.96	43646.31
561.12	44030.16
561.29	43873.34
561.45	43999.73
561.61	43611.20
561.78	43739.93
561.94	43969.30
562.11	43742.27
562.27	44233.78
562.44	43681.42
562.60	44046.54
562.77	44051.22
562.93	43775.04
563.10	43625.25
563.26	43915.47
563.42	44292.30
563.59	44067.61
563.75	43882.70
563.92	43929.51
564.08	44011.43
564.24	43798.44
564.41	43796.10
564.57	43723.55
564.74	44318.04
564.90	43915.47
565.07	43997.39
565.23	44390.60
565.39	44280.60
565.56	43981.01
565.72	44369.54
565.88	44186.97
566.05	44163.57
566.21	44299.32
566.38	44308.68
566.54	44414.01
566.70	44406.98
566.87	44105.06
567.03	44165.91
567.19	44423.37
567.36	44402.30
567.52	44282.94
567.68	44830.62
567.85	44172.93
568.01	44507.63
568.17	44629.34
568.34	44444.43
568.50	44456.14
568.66	44311.02
568.83	44292.30
568.99	44292.30
569.15	44498.26
569.32	44474.86
569.48	44327.41
569.64	45057.65
569.81	44395.28
569.97	44589.55
570.13	44914.88
570.30	44069.95
570.46	44605.93
570.62	44694.87
570.78	44655.08
570.95	44584.86
571.11	44540.39
571.27	44807.22
571.43	44416.35
571.60	45132.55
571.76	44437.41
571.92	44825.94
572.09	44832.96
572.25	44566.14
572.41	44882.11
572.57	44704.23
572.74	45003.82
572.90	44814.24
573.06	44765.09
573.22	45172.34
573.38	44868.07
573.55	45057.65
573.71	45357.24
573.87	44725.30
574.03	44882.11
574.20	45298.73
574.36	45088.08
574.52	45102.12
574.68	44704.23
574.84	45158.30
575.01	44935.95
575.17	44910.20
575.33	45511.72
575.49	44868.07
575.65	45652.15
575.82	45364.26
575.98	44949.99
576.14	45574.91
576.30	45364.26
576.46	44769.77
576.62	45003.82
576.79	44502.95
576.95	44772.11
577.11	44828.28
577.27	45464.91
577.43	45165.32
577.59	45518.74
577.75	45237.87
577.92	44746.36
578.08	45401.71
578.24	44776.79
578.40	45291.71
578.56	45392.35
578.72	45244.90
578.88	45476.61
579.04	45312.77
579.21	45223.83
579.37	45118.51
579.53	45118.51
579.69	45055.31
579.85	45132.55
580.01	45392.35
580.17	45118.51
580.33	45382.99
580.49	45485.97
580.65	45125.53
580.82	45345.54
580.98	44737.00
581.14	44919.56
581.30	45338.52
581.46	45413.41
581.62	45392.35
581.78	45413.41
581.94	45549.17
582.10	45212.13
582.26	45340.86
582.42	45134.89
582.58	45354.90
582.74	45003.82
582.90	45275.32
583.06	45301.07
583.22	45179.36
583.38	44788.49
583.54	45354.90
583.70	45235.53
583.86	45570.23
584.02	45055.31
584.18	45818.33
584.34	45329.16
584.50	45523.42
584.66	45535.12
584.82	45148.93
584.98	45656.83
585.14	45710.66
585.30	45504.70
585.46	45560.87
585.62	45151.27
585.78	45497.67
585.94	45331.50
586.10	45642.79
586.26	45474.27
586.42	45338.52
586.58	45261.28
586.74	45390.01
586.90	45036.59
587.06	45251.92
587.22	45865.14
587.38	45422.78
587.54	45734.07
587.70	45930.67
587.86	45518.74
588.02	45418.10
588.18	45420.44
588.34	45155.96
588.49	45399.37
588.65	45186.38
588.81	45731.73
588.97	45588.95
589.13	45553.85
589.29	45315.11
589.45	46117.92
589.61	46115.58
589.77	46012.59
589.93	45764.49
590.08	45717.68
