SpectraSuite Data File
++++++++++++++++++++++++++++++++++++
Date: Fri Oct 25 10:48:27 EDT 2013
User: price-jones
Dark Spectrum Present: No
Reference Spectrum Present: No
Number of Sampled Component Spectra: 1
Spectrometers: USB2+H05261
Integration Time (usec): 100000 (USB2+H05261)
Spectra Averaged: 1 (USB2+H05261)
Boxcar Smoothing: 0 (USB2+H05261)
Correct for Electrical Dark: No (USB2+H05261)
Strobe/Lamp Enabled: No (USB2+H05261)
Correct for Detector Non-linearity: No (USB2+H05261)
Correct for Stray Light: No (USB2+H05261)
Number of Pixels in Processed Spectrum: 2048
>>>>>Begin Processed Spectral Data<<<<<
365.73	91.28
365.92	91.28
366.12	91.28
366.32	14.04
366.52	63.19
366.72	79.58
366.91	56.17
367.11	81.92
367.31	60.85
367.51	7.02
367.70	28.09
367.90	63.19
368.10	23.41
368.30	0.00
368.49	32.77
368.69	60.85
368.89	65.54
369.09	42.13
369.28	81.92
369.48	39.79
369.68	39.79
369.87	70.22
370.07	112.35
370.27	126.39
370.47	234.05
370.66	358.10
370.86	409.59
371.06	477.47
371.25	421.30
371.45	372.15
371.65	500.87
371.84	461.09
372.04	496.19
372.24	514.92
372.44	496.19
372.63	496.19
372.83	477.47
373.03	528.96
373.22	543.00
373.42	552.37
373.62	573.43
373.81	587.47
374.01	550.03
374.21	547.69
374.40	622.58
374.60	573.43
374.79	627.26
374.99	538.32
375.19	587.47
375.38	573.43
375.58	566.41
375.78	599.18
375.97	620.24
376.17	664.71
376.37	638.97
376.56	582.79
376.76	587.47
376.95	629.60
377.15	610.88
377.35	634.29
377.54	638.97
377.74	676.41
377.93	697.48
378.13	723.23
378.33	739.61
378.52	589.82
378.72	709.18
378.91	748.97
379.11	615.56
379.31	662.37
379.50	713.86
379.70	702.16
379.89	697.48
380.09	716.20
380.28	678.76
380.48	720.88
380.68	760.67
380.87	716.20
381.07	723.23
381.26	741.95
381.46	592.16
381.65	695.14
381.85	697.48
382.04	697.48
382.24	671.73
382.43	739.61
382.63	713.86
382.83	793.44
383.02	706.84
383.22	791.10
383.41	763.01
383.61	816.85
383.80	772.38
384.00	837.91
384.19	760.67
384.39	805.14
384.58	844.93
384.78	849.61
384.97	788.76
385.17	870.68
385.36	814.51
385.56	854.30
385.75	800.46
385.95	856.64
386.14	833.23
386.34	844.93
386.53	877.70
386.72	870.68
386.92	917.49
387.11	882.38
387.31	835.57
387.50	905.79
387.70	854.30
387.89	901.11
388.09	882.38
388.28	884.72
388.48	908.13
388.67	966.64
388.86	910.47
389.06	987.71
389.25	957.28
389.45	990.05
389.64	866.00
389.84	978.34
390.03	1071.97
390.22	1135.16
390.42	992.39
390.61	1020.47
390.81	1036.86
391.00	1046.22
391.19	973.66
391.39	976.00
391.58	1060.26
391.78	954.94
391.97	990.05
392.16	1064.94
392.36	1046.22
392.55	978.34
392.75	1076.65
392.94	1069.62
393.13	1053.24
393.33	1064.94
393.52	1057.92
393.71	1104.73
393.91	1135.16
394.10	1114.10
394.29	1172.61
394.49	1160.91
394.68	1207.72
394.88	1249.85
395.07	1277.93
395.26	1228.78
395.46	1219.42
395.65	1167.93
395.84	1193.67
396.04	1327.08
396.23	1174.95
396.42	1174.95
396.62	1144.52
396.81	1287.29
397.00	1291.98
397.19	1291.98
397.39	1282.61
397.58	1317.72
397.77	1409.00
397.97	1352.83
398.16	1352.83
398.35	1437.09
398.55	1554.12
398.74	1556.46
398.93	1558.80
399.12	1514.33
399.32	1448.79
399.51	1495.60
399.70	1589.22
399.90	1519.01
400.09	1547.09
400.28	1584.54
400.47	1558.80
400.67	1638.38
400.86	1652.42
401.05	1586.88
401.24	1607.95
401.44	1600.93
401.63	1605.61
401.82	1853.70
402.01	1650.08
402.21	1743.70
402.40	1657.10
402.59	1636.03
402.78	1739.02
402.97	1717.95
403.17	1682.85
403.36	1757.74
403.55	1797.53
403.74	1834.98
403.93	1837.32
404.13	1837.32
404.32	1867.75
404.51	1811.57
404.70	1823.28
404.89	1860.73
405.09	1973.07
405.28	1858.39
405.47	1937.96
405.66	1942.64
405.85	2047.97
406.05	2064.35
406.24	1926.26
406.43	2108.82
406.62	2099.46
406.81	2062.01
407.00	2139.25
407.20	1984.77
407.39	2080.74
407.58	2125.21
407.77	2174.36
407.96	2221.17
408.15	2221.17
408.34	2181.38
408.54	2328.83
408.73	2251.60
408.92	2284.36
409.11	2310.11
409.30	2282.02
409.49	2289.04
409.68	2242.23
409.87	2214.15
410.07	2305.43
410.26	2321.81
410.45	2251.60
410.64	2385.01
410.83	2354.58
411.02	2382.67
411.21	2672.89
411.40	2483.31
411.59	2614.38
411.78	2597.99
411.98	2630.76
412.17	2665.87
412.36	2565.23
412.55	2693.96
412.74	2700.98
412.93	2672.89
413.12	2733.75
413.31	2829.71
413.50	2843.75
413.69	2878.86
413.88	2841.41
414.07	2857.79
414.26	2871.84
414.45	2970.14
414.64	2911.63
414.83	2956.10
415.02	2881.20
415.22	3112.91
415.41	3030.99
415.60	3028.65
415.79	3038.02
415.98	3089.51
416.17	3236.96
416.36	3204.19
416.55	3236.96
416.74	3222.92
416.93	3220.58
417.12	3197.17
417.31	3213.56
417.50	3316.54
417.69	3419.52
417.88	3356.33
418.07	3384.41
418.26	3412.50
418.45	3353.99
418.64	3501.44
418.83	3538.89
419.02	3370.37
419.21	3475.70
419.39	3590.38
419.58	3482.72
419.77	3379.73
419.96	3471.01
420.15	3796.35
420.34	3639.53
420.53	3707.41
420.72	3723.79
420.91	3829.12
421.10	3733.15
421.29	3875.93
421.48	3667.62
421.67	3805.71
421.86	3627.83
422.05	3719.11
422.24	3716.77
422.43	3798.69
422.61	3796.35
422.80	3845.50
422.99	3817.41
423.18	3672.30
423.37	3899.33
423.56	3698.05
423.75	3768.26
423.94	3801.03
424.13	3606.77
424.32	3700.39
424.50	3922.74
424.69	3908.69
424.88	3953.16
425.07	3777.62
425.26	3714.43
425.45	3822.09
425.64	3955.51
425.83	3913.38
426.01	4222.33
426.20	3918.06
426.39	3932.10
426.58	3885.29
426.77	3831.46
426.96	3756.56
427.15	3997.64
427.33	3948.48
427.52	4084.23
427.71	4072.53
427.90	4007.00
428.09	4032.74
428.28	3946.14
428.46	4215.30
428.65	4212.96
428.84	4161.47
429.03	4271.48
429.22	4046.79
429.40	4053.81
429.59	4072.53
429.78	3861.88
429.97	3913.38
430.16	4004.66
430.34	4159.13
430.53	4081.89
430.72	4196.58
430.91	4142.75
431.10	4322.97
431.28	4362.76
431.47	4421.27
431.66	4631.92
431.85	4507.87
432.03	4404.89
432.22	4650.64
432.41	4601.49
432.60	4608.51
432.79	4634.26
432.97	4795.76
433.16	4800.44
433.35	4493.83
433.54	4512.55
433.72	4812.14
433.91	4580.43
434.10	4643.62
434.28	4660.01
434.47	4912.78
434.66	4802.78
434.85	4828.53
435.03	4863.63
435.22	4964.28
435.41	4933.85
435.59	5062.58
435.78	5029.81
435.97	5083.64
436.16	5069.60
436.34	4887.04
436.53	5064.92
436.72	5191.31
436.90	5057.90
437.09	5158.54
437.28	4980.66
437.46	5214.71
437.65	5107.05
437.84	5083.64
438.02	5153.86
438.21	5205.35
438.40	5046.20
438.58	5228.76
438.77	5366.85
438.96	5383.23
439.14	5451.11
439.33	5619.63
439.52	5565.79
439.70	5430.04
439.89	5832.62
440.08	5589.20
440.26	5469.83
440.45	5565.79
440.63	5872.40
440.82	5832.62
441.01	5914.53
441.19	5830.27
441.38	6026.88
441.57	5987.09
441.75	6080.71
441.94	6202.42
442.12	6218.80
442.31	6171.99
442.50	6317.11
442.68	6153.27
442.87	6120.50
443.05	6239.87
443.24	6438.81
443.43	6455.20
443.61	6366.26
443.80	6499.67
443.98	6300.72
444.17	6195.40
444.35	6581.59
444.54	6478.60
444.73	6476.26
444.91	6368.60
445.10	6303.06
445.28	6436.47
445.47	6366.26
445.65	6277.32
445.84	6333.49
446.02	6544.14
446.21	6319.45
446.39	6342.85
446.58	6452.86
446.77	6616.69
446.95	6516.05
447.14	6663.51
447.32	6544.14
447.51	6623.72
447.69	6595.63
447.88	6832.02
448.06	6668.19
448.25	6511.37
448.43	6675.21
448.62	6324.13
448.80	6579.25
448.99	6707.98
449.17	6754.79
449.36	6656.48
449.54	6993.52
449.73	6876.49
449.91	7021.61
450.10	6909.26
450.28	7112.89
450.46	7056.72
450.65	6970.12
450.83	7157.36
451.02	7016.93
451.20	7272.04
451.39	7080.12
451.57	7187.79
451.76	7028.63
451.94	7119.91
452.13	7045.01
452.31	7075.44
452.49	6949.05
452.68	7063.74
452.86	7037.99
453.05	7148.00
453.23	7372.69
453.42	7300.13
453.60	7173.74
453.78	7456.95
453.97	7194.81
454.15	7253.32
454.34	7311.83
454.52	7515.46
454.70	7360.98
454.89	7328.22
455.07	7485.03
455.26	7555.25
455.44	7641.85
455.62	7541.21
455.81	7749.51
455.99	7754.19
456.17	7700.36
456.36	7810.37
456.54	7803.35
456.73	7918.03
456.91	8070.17
457.09	7971.86
457.28	8210.60
457.46	8032.72
457.64	7953.14
457.83	8131.02
458.01	8021.02
458.19	8140.38
458.38	8002.29
458.56	8210.60
458.74	8152.09
458.93	8044.42
459.11	8189.53
459.29	8198.90
459.48	8182.51
459.66	8393.16
459.84	8245.71
460.03	8400.18
460.21	8236.35
460.39	8322.94
460.57	8402.52
460.76	8358.05
460.94	8552.32
461.12	8376.78
461.31	8505.51
461.49	8468.06
461.67	8414.23
461.85	8758.28
462.04	8552.32
462.22	9109.36
462.40	8711.47
462.59	8641.26
462.77	8617.85
462.95	9083.62
463.13	8943.19
463.32	8737.22
463.50	8896.38
463.68	8945.53
463.86	8912.76
464.05	8964.25
464.23	8952.55
464.41	9071.92
464.59	8842.54
464.78	9013.40
464.96	8966.59
465.14	8704.45
465.32	8922.12
465.50	8999.36
465.69	9174.90
465.87	9100.00
466.05	9254.48
466.23	9097.66
466.41	9032.13
466.60	9277.88
466.78	9104.68
466.96	9191.28
467.14	9270.86
467.32	9331.72
467.51	9270.86
467.69	9132.77
467.87	9359.80
468.05	9273.20
468.23	9142.13
468.41	9277.88
468.60	9568.11
468.78	9596.20
468.96	9446.40
469.14	9640.67
469.32	9741.31
469.50	9439.38
469.69	9561.09
469.87	9713.22
470.05	9687.48
470.23	9769.40
470.41	9743.65
470.59	9898.13
470.77	9626.62
470.95	9743.65
471.14	9820.89
471.32	9905.15
471.50	10216.44
471.68	10146.22
471.86	10195.37
472.04	10221.12
472.22	10478.58
472.40	10267.93
472.58	10375.59
472.77	10050.26
472.95	10513.69
473.13	10862.43
473.31	10572.20
473.49	10527.73
473.67	10527.73
473.85	10483.26
474.03	10965.41
474.21	10988.82
474.39	10937.32
474.57	10778.17
474.75	11002.86
474.93	11054.35
475.12	11112.86
475.30	11159.67
475.48	10906.90
475.66	11393.73
475.84	11253.30
476.02	11215.85
476.20	11300.11
476.38	11407.77
476.56	11513.10
476.74	11719.06
476.92	11775.24
477.10	11550.54
477.28	12025.67
477.46	11882.90
477.64	11981.20
477.82	12020.99
478.00	12461.01
478.18	12311.22
478.36	12259.73
478.54	12854.22
478.72	12798.05
478.90	12746.56
479.08	12912.74
479.26	12982.95
479.44	12973.59
479.62	12924.44
479.80	13078.91
479.98	13142.11
480.16	13240.41
480.34	13429.99
480.52	13551.70
480.70	13701.50
480.88	13495.53
481.06	13958.96
481.24	13872.36
481.41	14354.51
481.59	14160.24
481.77	14228.12
481.95	14225.78
482.13	14544.09
482.31	14368.55
482.49	14675.16
482.67	14476.21
482.85	14700.90
483.03	14846.02
483.21	15129.22
483.39	15239.23
483.57	15166.67
483.74	15508.39
483.92	15503.71
484.10	15403.07
484.28	15634.78
484.46	16177.78
484.64	16058.42
484.82	16180.12
485.00	15967.13
485.18	16400.13
485.35	16409.50
485.53	16088.84
485.71	16189.49
485.89	16327.58
486.07	16423.54
486.25	16599.08
486.43	16823.77
486.61	16893.99
486.78	17015.69
486.96	17408.90
487.14	17568.06
487.32	17680.41
487.50	17614.87
487.68	17921.48
487.85	18363.84
488.03	18415.34
488.21	18457.46
488.39	18551.09
488.57	18352.14
488.75	18640.03
488.92	18721.95
489.10	19367.93
489.28	19323.46
489.46	19257.93
489.64	19424.11
489.81	19796.25
489.99	20259.68
490.17	19978.81
490.35	20318.19
490.53	20114.56
490.70	20121.59
490.88	20891.62
491.06	20760.55
491.24	20442.24
491.41	20470.33
491.59	20809.70
491.77	20526.50
491.95	20800.34
492.13	21287.17
492.30	21359.73
492.48	21752.94
492.66	21671.02
492.84	21671.02
493.01	21823.16
493.19	22127.42
493.37	21982.31
493.54	22106.36
493.72	22401.27
493.90	22221.05
494.08	22731.28
494.25	22843.63
494.43	22871.72
494.61	23082.36
494.79	23496.64
494.96	23190.03
495.14	23356.21
495.32	23374.93
495.49	23730.69
495.67	23859.42
495.85	24177.73
496.02	23854.74
496.20	24416.47
496.38	24320.51
496.55	24112.20
496.73	24739.46
496.91	24500.73
497.09	24685.63
497.26	24900.96
497.44	24996.92
497.62	24964.15
497.79	25245.02
497.97	25022.67
498.14	25666.31
498.32	25242.68
498.50	25586.74
498.67	25537.59
498.85	25879.30
499.03	25837.17
499.20	26258.47
499.38	25804.41
499.56	26047.82
499.73	26237.41
499.91	26277.19
500.08	26522.95
500.26	26522.95
500.44	26497.20
500.61	26359.11
500.79	26326.35
500.97	26574.44
501.14	27330.44
501.32	26969.99
501.49	27197.02
501.67	27185.32
501.84	27185.32
502.02	27314.05
502.20	27482.57
502.37	27967.06
502.55	27711.94
502.72	27985.79
502.90	27510.66
503.07	27733.01
503.25	27707.26
503.43	28095.79
503.60	28245.58
503.78	28086.43
503.95	28079.41
504.13	28308.78
504.30	28489.00
504.48	28329.84
504.65	28711.35
504.83	29170.10
505.01	29039.03
505.18	28968.81
505.36	29132.65
505.53	29184.14
505.71	29347.98
505.88	29933.11
506.06	29060.09
506.23	29280.10
506.41	29214.57
506.58	29715.44
506.76	29869.92
506.93	30017.37
507.11	29912.05
507.28	30040.78
507.46	29773.95
507.63	29820.77
507.81	30333.34
507.98	29977.58
508.16	30150.78
508.33	30391.86
508.50	30501.86
508.68	30679.74
508.85	30965.29
509.03	30752.30
509.20	30789.75
509.38	31049.55
509.55	31246.15
509.73	31562.12
509.90	31398.29
510.08	31529.36
510.25	31126.78
510.42	31225.09
510.60	31569.15
510.77	31580.85
510.95	32133.21
511.12	32051.30
511.30	32058.32
511.47	32051.30
511.64	32177.68
511.82	32074.70
511.99	32252.58
512.17	32360.25
512.34	32657.49
512.51	32488.98
512.69	32477.27
512.86	32481.95
513.04	33322.21
513.21	32985.17
513.38	32900.91
513.56	33193.48
513.73	32360.25
513.90	32774.52
514.08	32851.76
514.25	33127.94
514.43	33390.08
514.60	33099.86
514.77	33099.86
514.95	33394.76
515.12	33390.08
515.29	33659.24
515.47	33556.26
515.64	34340.34
515.81	33516.47
515.99	33495.41
516.16	33914.36
516.33	33542.22
516.51	33511.79
516.68	33380.72
516.85	33565.62
517.03	33860.53
517.20	33862.87
517.37	33982.24
517.54	34003.30
517.72	33926.07
517.89	34087.56
518.06	33907.34
518.24	34272.46
518.41	33972.88
518.58	34775.68
518.75	34499.50
518.93	34796.74
519.10	35086.97
519.27	35091.65
519.45	34712.49
519.62	35077.61
519.79	35199.32
519.96	35257.83
520.14	35676.79
520.31	35255.49
520.48	35529.33
520.65	35559.76
520.83	35957.65
521.00	35629.98
521.17	35700.19
521.34	35613.59
521.52	35931.90
521.69	36472.57
521.86	36390.65
522.03	36243.20
522.20	36409.37
522.38	36282.98
522.55	36650.45
522.72	36065.31
522.89	36093.40
523.07	36800.24
523.24	36446.82
523.41	36821.31
523.58	36613.00
523.75	37067.06
523.92	37165.37
524.10	36903.23
524.27	37301.12
524.44	37029.62
524.61	37443.89
524.78	37640.50
524.96	37219.20
525.13	37715.39
525.30	38094.56
525.47	37804.33
525.64	37584.32
525.81	37612.41
525.98	37521.13
526.16	37514.11
526.33	37411.12
526.50	37642.84
526.67	37469.64
526.84	37783.27
527.01	37769.22
527.18	37797.31
527.36	38040.73
527.53	38342.66
527.70	38562.67
527.87	38684.37
528.04	38277.12
528.21	38483.09
528.38	38302.87
528.55	38443.30
528.72	38848.21
528.89	39105.67
529.07	38635.22
529.24	38562.67
529.41	38742.89
529.58	38806.08
529.75	38717.14
529.92	38508.83
530.09	39438.03
530.26	38951.20
530.43	39063.54
530.60	39103.33
530.77	39042.48
530.94	39449.73
531.11	40023.16
531.28	39262.49
531.46	39786.77
531.63	39536.33
531.80	39543.35
531.97	39590.16
532.14	39587.82
532.31	39234.40
532.48	39550.37
532.65	39875.71
532.82	40025.50
532.99	40233.81
533.16	39782.09
533.33	39983.37
533.50	40280.62
533.67	40098.06
533.84	39805.49
534.01	40327.43
534.18	39945.92
534.35	40821.28
534.52	40013.80
534.69	40212.74
534.86	40648.08
535.03	40102.74
535.20	41076.40
535.37	41055.34
535.54	40940.65
535.71	40491.27
535.88	40655.11
536.05	40783.83
536.22	40938.31
536.38	41008.53
536.55	40741.71
536.72	40318.07
536.89	40542.76
537.06	40612.98
537.23	41113.85
537.40	40900.86
537.57	40875.12
537.74	41076.40
537.91	41687.28
538.08	41553.87
538.25	41160.66
538.42	41474.29
538.59	41478.97
538.75	41333.86
538.92	41364.29
539.09	41483.66
539.26	41240.24
539.43	41352.58
539.60	41462.59
539.77	41457.91
539.94	41591.32
540.11	41439.18
540.28	41429.82
540.44	41783.24
540.61	41551.53
540.78	41277.69
540.95	41916.65
541.12	41446.21
541.29	41893.25
541.46	41895.59
541.62	41986.87
541.79	42387.10
541.96	41907.29
542.13	42014.96
542.30	41879.21
542.47	42047.72
542.63	42314.55
542.80	42209.22
542.97	42614.13
543.14	42630.52
543.31	42618.81
543.48	42841.17
543.64	43028.41
543.81	43297.57
543.98	42981.60
544.15	42682.01
544.32	42911.38
544.48	43285.87
544.65	42864.57
544.82	42969.90
544.99	42845.85
545.16	42454.98
545.32	42721.80
545.49	43328.00
545.66	43236.72
545.83	43040.11
546.00	43636.95
546.16	43414.60
546.33	42934.79
546.50	43077.56
546.67	43309.27
546.83	42869.25
547.00	43110.33
547.17	43330.34
547.34	43414.60
547.50	43592.48
547.67	43660.35
547.84	43129.05
548.00	44161.23
548.17	43793.76
548.34	43875.68
548.51	44023.14
548.67	43697.80
548.84	44374.22
549.01	43976.33
549.18	43910.79
549.34	44004.41
549.51	43934.20
549.68	43978.67
549.84	44102.71
550.01	44264.21
550.18	43943.56
550.34	43831.21
550.51	43812.49
550.68	43938.88
550.84	43791.42
551.01	44430.39
551.18	44353.15
551.34	44151.87
551.51	44619.97
551.68	44093.35
551.84	44311.02
552.01	44194.00
552.18	44123.78
552.34	44299.32
552.51	44140.16
552.68	44065.27
552.84	44631.68
553.01	44875.09
553.18	44095.69
553.34	44245.49
553.51	44634.02
553.67	44699.55
553.84	44729.98
554.01	44683.17
554.17	44952.33
554.34	44701.89
554.51	44914.88
554.67	45500.01
554.84	45059.99
555.00	44952.33
555.17	44552.10
555.33	44814.24
555.50	45118.51
555.67	45179.36
555.83	45090.42
556.00	45181.70
556.16	45200.43
556.33	44961.69
556.50	44793.17
556.66	45268.30
556.83	45177.02
556.99	45549.17
557.16	45008.50
557.32	44849.35
557.49	45324.47
557.65	45116.17
557.82	45263.62
557.98	45329.16
558.15	45067.02
558.32	45804.28
558.48	44968.71
558.65	45448.52
558.81	45474.27
558.98	45258.94
559.14	45750.45
559.31	45284.68
559.47	45441.50
559.64	45654.49
559.80	45729.39
559.97	45804.28
560.13	45345.54
560.30	45701.30
560.46	45521.08
560.63	45263.62
560.79	45703.64
560.96	45722.37
561.12	46000.89
561.29	45439.16
561.45	45532.78
561.61	45942.38
561.78	45654.49
561.94	45420.44
562.11	45808.96
562.27	45797.26
562.44	45270.64
562.60	45902.59
562.77	46050.04
562.93	45593.64
563.10	46370.69
563.26	45518.74
563.42	45956.42
563.59	45544.48
563.75	45958.76
563.92	46150.68
564.08	45897.91
564.24	45909.61
564.41	46134.30
564.57	45872.16
564.74	46057.06
564.90	45867.48
565.07	46007.91
565.23	45743.43
565.39	46270.05
565.56	46314.52
565.72	45794.92
565.88	46160.05
566.05	46190.47
566.21	46532.19
566.38	45848.75
566.54	46227.92
566.70	46265.37
566.87	46644.54
567.03	46153.02
567.19	46581.34
567.36	46635.17
567.52	45947.06
567.68	46422.19
567.85	46148.34
568.01	46253.67
568.17	45968.12
568.34	46438.57
568.50	46143.66
568.66	46101.53
568.83	45991.53
568.99	45853.44
569.15	46344.95
569.32	46038.34
569.48	46005.57
569.64	46532.19
569.81	46234.94
569.97	46232.60
570.13	46246.65
570.30	46181.11
570.46	45794.92
570.62	45951.74
570.78	45921.31
570.95	46028.98
571.11	46253.67
571.27	46120.26
571.43	46370.69
571.60	46548.57
571.76	46021.95
571.92	46501.76
572.09	46363.67
572.25	46291.12
572.41	46260.69
572.57	46246.65
572.74	46485.38
572.90	46342.61
573.06	46586.02
573.22	46791.99
573.38	46267.71
573.55	46305.16
573.71	46176.43
573.87	46167.07
574.03	46103.87
574.20	46473.68
574.36	46312.18
574.52	46431.55
574.68	46471.34
574.84	46590.70
575.01	46059.40
575.17	46136.64
575.33	46026.63
575.49	46178.77
575.65	46665.60
575.82	46761.56
575.98	46394.10
576.14	46471.34
576.30	46190.47
576.46	46071.10
576.62	46438.57
576.79	46541.55
576.95	45776.20
577.11	46464.32
577.27	46288.77
577.43	46323.88
577.59	46443.25
577.75	46361.33
577.92	45982.16
578.08	46169.41
578.24	46014.93
578.40	46398.78
578.56	46604.75
578.72	46234.94
578.88	46705.39
579.04	46431.55
579.21	46202.18
579.37	46396.44
579.53	46866.89
579.69	46550.91
579.85	46806.03
580.01	46532.19
580.17	46607.09
580.33	46904.34
580.49	46501.76
580.65	46501.76
580.82	46440.91
580.98	46604.75
581.14	46309.84
581.30	46424.53
581.46	46756.88
581.62	46731.14
581.78	46588.36
581.94	46693.69
582.10	46525.17
582.26	46871.57
582.42	46354.31
582.58	46747.52
582.74	46466.66
582.90	46326.22
583.06	46651.56
583.22	46689.01
583.38	46843.48
583.54	46911.36
583.70	46408.14
583.86	46450.27
584.02	46197.49
584.18	46946.47
584.34	46525.17
584.50	46564.96
584.66	46391.76
584.82	46471.34
584.98	46689.01
585.14	46976.89
585.30	46344.95
585.46	46691.35
585.62	46246.65
585.78	46363.67
585.94	46490.06
586.10	46298.14
586.26	46176.43
586.42	47002.64
586.58	46754.54
586.74	46429.21
586.90	46490.06
587.06	46621.13
587.22	46850.50
587.38	46267.71
587.54	46859.87
587.70	46630.49
587.86	46457.29
588.02	46571.98
588.18	47044.77
588.34	46277.07
588.49	46422.19
588.65	46155.36
588.81	46185.79
588.97	46679.64
589.13	46246.65
589.29	46192.81
589.45	46199.83
589.61	46480.70
589.77	46794.33
589.93	46756.88
590.08	46939.44
