SpectraSuite Data File
++++++++++++++++++++++++++++++++++++
Date: Fri Oct 25 11:26:18 EDT 2013
User: price-jones
Dark Spectrum Present: No
Reference Spectrum Present: No
Number of Sampled Component Spectra: 1
Spectrometers: USB2+H05261
Integration Time (usec): 100000 (USB2+H05261)
Spectra Averaged: 1 (USB2+H05261)
Boxcar Smoothing: 0 (USB2+H05261)
Correct for Electrical Dark: No (USB2+H05261)
Strobe/Lamp Enabled: No (USB2+H05261)
Correct for Detector Non-linearity: No (USB2+H05261)
Correct for Stray Light: No (USB2+H05261)
Number of Pixels in Processed Spectrum: 2048
>>>>>Begin Processed Spectral Data<<<<<
365.73	273.84
365.92	273.84
366.12	273.84
366.32	135.75
366.52	95.96
366.72	205.97
366.91	119.37
367.11	128.73
367.31	142.77
367.51	131.07
367.70	170.86
367.90	180.22
368.10	112.35
368.30	135.75
368.49	102.98
368.69	201.29
368.89	145.11
369.09	173.20
369.28	205.97
369.48	156.82
369.68	189.58
369.87	184.90
370.07	259.80
370.27	266.82
370.47	449.38
370.66	617.90
370.86	580.45
371.06	671.73
371.25	660.03
371.45	620.24
371.65	678.76
371.84	704.50
372.04	711.52
372.24	723.23
372.44	711.52
372.63	833.23
372.83	751.31
373.03	681.10
373.22	786.42
373.42	779.40
373.62	739.61
373.81	716.20
374.01	732.59
374.21	844.93
374.40	842.59
374.60	866.00
374.79	781.74
374.99	819.19
375.19	847.27
375.38	877.70
375.58	849.61
375.78	842.59
375.97	795.78
376.17	938.55
376.37	912.81
376.56	835.57
376.76	891.74
376.95	931.53
377.15	924.51
377.35	908.13
377.54	887.06
377.74	936.21
377.93	851.96
378.13	924.51
378.33	961.96
378.52	961.96
378.72	884.72
378.91	968.98
379.11	891.74
379.31	851.96
379.50	966.64
379.70	952.60
379.89	952.60
380.09	971.32
380.28	891.74
380.48	1029.84
380.68	1041.54
380.87	964.30
381.07	1078.99
381.26	1022.81
381.46	994.73
381.65	1078.99
381.85	1149.20
382.04	1025.15
382.24	1043.88
382.43	1083.67
382.63	1062.60
382.83	1029.84
383.02	1069.62
383.22	1198.35
383.41	1055.58
383.61	1107.07
383.80	1177.29
384.00	1139.84
384.19	1111.75
384.39	1144.52
384.58	1128.14
384.78	1165.59
384.97	1247.51
385.17	1076.65
385.36	1210.06
385.56	1259.21
385.75	1219.42
385.95	1217.08
386.14	1266.23
386.34	1177.29
386.53	1245.16
386.72	1163.25
386.92	1228.78
387.11	1228.78
387.31	1284.95
387.50	1275.59
387.70	1217.08
387.89	1310.70
388.09	1287.29
388.28	1291.98
388.48	1306.02
388.67	1254.53
388.86	1350.49
389.06	1303.68
389.25	1376.24
389.45	1345.81
389.64	1343.47
389.84	1282.61
390.03	1401.98
390.22	1369.21
390.42	1397.30
390.61	1399.64
390.81	1390.28
391.00	1451.13
391.19	1411.34
391.39	1371.55
391.58	1392.62
391.78	1474.54
391.97	1476.88
392.16	1516.67
392.36	1490.92
392.55	1579.86
392.75	1542.41
392.94	1434.75
393.13	1483.90
393.33	1577.52
393.52	1584.54
393.71	1591.56
393.91	1511.99
394.10	1575.18
394.29	1563.48
394.49	1624.33
394.68	1638.38
394.88	1645.40
395.07	1650.08
395.26	1720.29
395.46	1607.95
395.65	1572.84
395.84	1713.27
396.04	1790.51
396.23	1750.72
396.42	1696.89
396.62	1816.26
396.81	1771.79
397.00	1722.63
397.19	1795.19
397.39	1762.42
397.58	1842.00
397.77	1727.32
397.97	1856.04
398.16	1851.36
398.35	1895.83
398.55	1853.70
398.74	1912.22
398.93	2031.58
399.12	1991.80
399.32	1902.86
399.51	1933.28
399.70	1935.62
399.90	1998.82
400.09	2099.46
400.28	2139.25
400.47	2026.90
400.67	2101.80
400.86	2005.84
401.05	2005.84
401.24	2099.46
401.44	2188.40
401.63	2132.23
401.82	2153.29
402.01	2162.66
402.21	2172.02
402.40	2345.22
402.59	2232.87
402.78	2087.76
402.97	2270.32
403.17	2190.74
403.36	2300.75
403.55	2258.62
403.74	2354.58
403.93	2296.07
404.13	2319.47
404.32	2335.85
404.51	2321.81
404.70	2359.26
404.89	2356.92
405.09	2530.12
405.28	2539.48
405.47	2483.31
405.66	2448.20
405.85	2504.37
406.05	2410.75
406.24	2539.48
406.43	2602.68
406.62	2597.99
406.81	2532.46
407.00	2469.27
407.20	2558.21
407.39	2574.59
407.58	2630.76
407.77	2710.34
407.96	2700.98
408.15	2768.85
408.34	2729.06
408.54	2759.49
408.73	2738.43
408.92	2775.88
409.11	2843.75
409.30	2829.71
409.49	2729.06
409.68	2909.29
409.87	2923.33
410.07	2977.16
410.26	2963.12
410.45	2944.39
410.64	3005.25
410.83	3045.04
411.02	3073.12
411.21	3110.57
411.40	3066.10
411.59	3281.43
411.78	3112.91
411.98	3173.77
412.17	3272.07
412.36	3236.96
412.55	3211.22
412.74	3475.70
412.93	3353.99
413.12	3309.52
413.31	3604.42
413.50	3424.20
413.69	3499.10
413.88	3630.17
414.07	3447.61
414.26	3590.38
414.45	3779.97
414.64	3714.43
414.83	3688.68
415.02	3761.24
415.22	3784.65
415.41	3868.91
415.60	3817.41
415.79	3957.85
415.98	3871.25
416.17	3927.42
416.36	3899.33
416.55	4035.08
416.74	4124.02
416.93	4056.15
417.12	4028.06
417.31	4166.15
417.50	4161.47
417.69	4243.39
417.88	4030.40
418.07	4346.37
418.26	4301.90
418.45	4400.21
418.64	4329.99
418.83	4390.84
419.02	4557.02
419.21	4477.44
419.39	4575.75
419.58	4566.39
419.77	4395.53
419.96	4624.90
420.15	4432.97
420.34	4578.09
420.53	4617.88
420.72	4713.84
420.91	4662.35
421.10	4741.93
421.29	4765.33
421.48	4720.86
421.67	4784.06
421.86	4744.27
422.05	4781.71
422.24	4711.50
422.43	4858.95
422.61	4938.53
422.80	4964.28
422.99	4880.02
423.18	4961.94
423.37	4959.60
423.56	4917.47
423.75	4887.04
423.94	4683.41
424.13	4777.03
424.32	4915.12
424.50	4994.70
424.69	5111.73
424.88	4947.89
425.07	4987.68
425.26	4922.15
425.45	5004.07
425.64	5085.98
425.83	4933.85
426.01	5163.22
426.20	5020.45
426.39	5060.24
426.58	5036.83
426.77	5001.72
426.96	5095.35
427.15	5170.24
427.33	5139.82
427.52	5055.56
427.71	5266.21
427.90	5149.18
428.09	5231.10
428.28	5334.08
428.46	5268.55
428.65	5205.35
428.84	5577.50
429.03	5488.56
429.22	5401.96
429.40	5556.43
429.59	5427.70
429.78	5184.29
429.97	5245.14
430.16	5535.37
430.34	5617.29
430.53	5636.01
430.72	5692.18
430.91	5710.91
431.10	5666.44
431.28	5717.93
431.47	5771.76
431.66	5710.91
431.85	5731.97
432.03	5872.40
432.22	5816.23
432.41	5825.59
432.60	5942.62
432.79	6132.20
432.97	6115.82
433.16	5991.77
433.35	5844.32
433.54	6193.06
433.72	6090.07
433.91	6174.33
434.10	6251.57
434.28	6188.38
434.47	6221.14
434.66	6188.38
434.85	6321.79
435.03	6265.61
435.22	6143.91
435.41	6516.05
435.59	6300.72
435.78	6424.77
435.97	6342.85
436.16	6361.58
436.34	6581.59
436.53	6494.99
436.72	6679.89
436.90	6471.58
437.09	6558.18
437.28	6438.81
437.46	6480.94
437.65	6621.38
437.84	6761.81
438.02	6583.93
438.21	6815.64
438.40	6581.59
438.58	6984.16
438.77	6892.88
438.96	7016.93
439.14	7096.50
439.33	7176.08
439.52	7131.61
439.70	7276.73
439.89	7265.02
440.08	7316.51
440.26	7222.89
440.45	7318.86
440.63	7424.18
440.82	7641.85
441.01	7368.01
441.19	7683.98
441.38	7824.41
441.57	7660.57
441.75	7793.98
441.94	7681.64
442.12	7906.33
442.31	7850.16
442.50	8102.93
442.68	7801.01
442.87	8098.25
443.05	7971.86
443.24	8042.08
443.43	8156.77
443.61	8107.62
443.80	8336.99
443.98	8049.10
444.17	7918.03
444.35	8344.01
444.54	8210.60
444.73	8173.15
444.91	8299.54
445.10	8348.69
445.28	8248.05
445.47	8262.09
445.65	8262.09
445.84	8430.61
446.02	8381.46
446.21	8212.94
446.39	8404.86
446.58	8727.86
446.77	8547.64
446.95	8156.77
447.14	8320.60
447.32	8627.21
447.51	8514.87
447.69	8500.83
447.88	8444.65
448.06	8542.96
448.25	8552.32
448.43	8381.46
448.62	8573.38
448.80	8416.57
448.99	8681.05
449.17	8755.94
449.36	8561.68
449.54	8706.79
449.73	8938.51
449.91	8985.32
450.10	9097.66
450.28	9004.04
450.46	8978.30
450.65	8922.12
450.83	8938.51
451.02	9053.19
451.20	9135.11
451.39	9266.18
451.57	8964.25
451.76	9130.43
451.94	9172.56
452.13	9118.73
452.31	9205.33
452.49	9060.21
452.68	9584.49
452.86	9125.75
453.05	9635.99
453.23	9514.28
453.42	9394.91
453.60	9317.67
453.78	9579.81
453.97	9390.23
454.15	9589.17
454.34	9488.53
454.52	9476.83
454.70	9359.80
454.89	9713.22
455.07	9764.72
455.26	9614.92
455.44	9832.59
455.62	9748.33
455.81	9680.46
455.99	9954.30
456.17	9966.00
456.36	10043.24
456.54	10085.37
456.73	10207.08
456.91	10537.09
457.09	10312.40
457.28	10672.84
457.46	10389.64
457.64	10494.96
457.83	10597.95
458.01	10223.46
458.19	10654.12
458.38	10420.06
458.56	10520.71
458.74	10452.83
458.93	10478.58
459.11	10595.61
459.29	10829.66
459.48	10923.28
459.66	10700.93
459.84	10892.85
460.03	11286.06
460.21	10967.75
460.39	10885.83
460.57	10885.83
460.76	10920.94
460.94	11082.44
461.12	11232.23
461.31	11206.48
461.49	11110.52
461.67	11173.72
461.85	11468.62
462.04	11194.78
462.22	11925.03
462.40	11557.57
462.59	11482.67
462.77	11300.11
462.95	11616.08
463.13	11644.17
463.32	11611.40
463.50	11735.45
463.68	11506.07
463.86	11744.81
464.05	11735.45
464.23	11672.25
464.41	11857.15
464.59	11606.72
464.78	12163.76
464.96	11887.58
465.14	11925.03
465.32	11903.96
465.50	11941.41
465.69	12287.81
465.87	12018.65
466.05	12159.08
466.23	12311.22
466.41	12147.38
466.60	12271.43
466.78	12198.87
466.96	11943.75
467.14	12362.71
467.32	12250.36
467.51	12528.89
467.69	12140.36
467.87	12475.06
468.05	12629.53
468.23	12367.39
468.41	12351.01
468.60	12428.24
468.78	12411.86
468.96	12547.61
469.14	12854.22
469.32	12985.29
469.50	12636.55
469.69	12851.88
469.87	13029.76
470.05	13137.43
470.23	12868.27
470.41	13088.28
470.59	13451.06
470.77	13074.23
470.95	13083.59
471.14	13504.89
471.32	13390.20
471.50	13654.69
471.68	13778.73
471.86	13565.74
472.04	13654.69
472.22	13947.25
472.40	13383.18
472.58	13893.42
472.77	13881.72
472.95	13970.66
473.13	14420.04
473.31	13919.17
473.49	13884.06
473.67	14141.52
473.85	14291.31
474.03	14787.50
474.21	14558.13
474.39	14696.22
474.57	14714.95
474.75	14883.47
474.93	14981.77
475.12	15030.92
475.30	15012.20
475.48	14956.02
475.66	15021.56
475.84	14885.81
476.02	15379.66
476.20	15112.84
476.38	15805.64
476.56	15793.94
476.74	16161.40
476.92	15679.25
477.10	15737.76
477.28	16020.97
477.46	16027.99
477.64	16053.73
477.82	16477.37
478.00	17219.32
478.18	16444.60
478.36	16854.20
478.54	17216.98
478.72	17034.42
478.90	17448.69
479.08	17376.14
479.26	17504.87
479.44	17710.83
479.62	17699.13
479.80	18127.45
479.98	18352.14
480.16	18497.25
480.34	18115.75
480.52	18300.65
480.70	18719.60
480.88	18319.37
481.06	18855.36
481.24	18569.81
481.41	19002.81
481.59	19304.74
481.77	19309.42
481.95	19328.14
482.13	19742.42
482.31	19494.32
482.49	19995.20
482.67	20098.18
482.85	20278.40
483.03	20500.75
483.21	20709.06
483.39	20697.36
483.57	20650.55
483.74	20999.29
483.92	21078.86
484.10	21231.00
484.28	21656.98
484.46	21734.21
484.64	21923.80
484.82	21687.40
485.00	22169.55
485.18	22239.77
485.35	22801.50
485.53	22686.81
485.71	22827.24
485.89	23548.13
486.07	23094.07
486.25	23049.60
486.43	23307.05
486.61	23562.17
486.78	23924.96
486.96	24004.53
487.14	24706.70
487.32	24381.36
487.50	24849.47
487.68	25095.22
487.85	24973.52
488.03	25668.66
488.21	25647.59
488.39	25617.16
488.57	26183.57
488.75	26302.94
488.92	26197.62
489.10	26331.03
489.28	26553.38
489.46	26888.07
489.64	26845.94
489.81	27419.38
489.99	27297.67
490.17	27388.95
490.35	27356.18
490.53	28210.48
490.70	28278.35
490.88	28252.61
491.06	28856.46
491.24	28950.09
491.41	29237.97
491.59	28966.47
491.77	29120.95
491.95	29282.44
492.13	29607.78
492.30	29731.83
492.48	29661.61
492.66	29905.02
492.84	30153.12
493.01	30321.64
493.19	30682.08
493.37	30649.32
493.54	31189.98
493.72	31517.65
493.90	31433.39
494.08	31971.72
494.25	31960.02
494.43	32222.16
494.61	32114.49
494.79	32294.71
494.96	32318.12
495.14	32467.91
495.32	32828.35
495.49	33392.42
495.67	33179.43
495.85	33408.81
496.02	33656.90
496.20	33762.23
496.38	33970.54
496.55	33823.08
496.73	35063.57
496.91	34462.05
497.09	34932.50
497.26	34993.35
497.44	34546.31
497.62	34728.87
497.79	35576.14
497.97	35431.03
498.14	35910.84
498.32	35779.77
498.50	36091.06
498.67	36402.35
498.85	36135.53
499.03	36360.22
499.20	36687.90
499.38	36886.84
499.56	36596.62
499.73	37371.33
499.91	37495.38
500.08	37273.03
500.26	37439.21
500.44	37574.96
500.61	37537.51
500.79	37364.31
500.97	38094.56
501.14	38440.96
501.32	38567.35
501.49	38361.38
501.67	38436.28
501.84	38848.21
502.02	38349.68
502.20	39005.03
502.37	39232.06
502.55	39145.46
502.72	39117.37
502.90	39718.89
503.07	39236.74
503.25	39496.54
503.43	39370.15
503.60	39959.97
503.78	39688.46
503.95	40367.22
504.13	40402.33
504.30	40603.61
504.48	40175.30
504.65	40275.94
504.83	40952.35
505.01	41078.74
505.18	41022.57
505.36	41111.51
505.53	40835.33
505.71	41612.38
505.88	41722.39
506.06	41233.22
506.23	42003.25
506.41	41638.13
506.58	42106.24
506.76	42232.63
506.93	42031.34
507.11	42382.42
507.28	42033.68
507.46	42564.98
507.63	42693.71
507.81	43019.05
507.98	43150.12
508.16	42618.81
508.33	43199.27
508.50	43454.39
508.68	43557.37
508.85	43871.00
509.03	43217.99
509.20	43529.28
509.38	44081.65
509.55	44334.43
509.73	44212.72
509.90	44449.11
510.08	44198.68
510.25	44388.26
510.42	44809.56
510.60	45195.74
510.77	44673.81
510.95	45361.92
511.12	44987.44
511.30	45425.12
511.47	45055.31
511.64	45191.06
511.82	45734.07
511.99	45317.45
512.17	45640.45
512.34	45827.69
512.51	46216.22
512.69	45841.73
512.86	46358.99
513.04	46162.39
513.21	46665.60
513.38	46447.93
513.56	46948.81
513.73	46419.84
513.90	46674.96
514.08	46644.54
514.25	47409.89
514.43	47220.31
514.60	47255.42
514.77	47285.84
514.95	47686.07
515.12	47807.78
515.29	47098.60
515.47	48079.28
515.64	47749.27
515.81	47973.96
515.99	47756.29
516.16	48179.93
516.33	48294.61
516.51	48381.21
516.68	48472.49
516.85	48053.54
517.03	49024.86
517.20	48605.91
517.37	48563.78
517.54	48938.26
517.72	48233.76
517.89	49153.59
518.06	49055.29
518.24	49031.88
518.41	48861.02
518.58	49460.20
518.75	48622.29
518.93	49139.55
519.10	49420.41
519.27	49354.88
519.45	49549.14
519.62	49954.05
519.79	50064.06
519.96	49783.19
520.14	49932.99
520.31	50108.53
520.48	50094.49
520.65	50337.90
520.83	50593.02
521.00	50520.46
521.17	50471.31
521.34	50389.39
521.52	50782.60
521.69	50698.34
521.86	51002.61
522.03	50904.31
522.20	51224.96
522.38	51260.07
522.55	51248.37
522.72	51124.32
522.89	50932.40
523.07	51419.23
523.24	51091.55
523.41	51473.06
523.58	51222.62
523.75	51669.67
523.92	51491.79
524.10	51863.93
524.27	51980.96
524.44	52112.03
524.61	51812.44
524.78	51934.15
524.96	52114.37
525.13	52168.20
525.30	52058.20
525.47	52191.61
525.64	52102.67
525.81	52512.26
525.98	52495.88
526.16	52748.65
526.33	52736.95
526.50	52615.24
526.67	52701.84
526.84	52755.68
527.01	52797.80
527.18	52938.24
527.36	52931.22
527.53	52790.78
527.70	53162.93
527.87	53265.91
528.04	53064.63
528.21	53247.19
528.38	53162.93
528.55	53013.13
528.72	52924.19
528.89	53389.96
529.07	53535.07
529.24	53462.52
529.41	53450.81
529.58	53460.18
529.75	53521.03
529.92	53827.64
530.09	53499.97
530.26	53675.51
530.43	53874.45
530.60	53755.08
530.77	53731.68
530.94	53640.40
531.11	53598.27
531.28	54068.72
531.46	53998.50
531.63	54031.27
531.80	54176.38
531.97	54227.87
532.14	54380.01
532.31	54454.90
532.48	54553.21
532.65	54358.94
532.82	54293.41
532.99	54576.61
533.16	54534.48
533.33	54609.38
533.50	54639.81
533.67	54808.32
533.84	54314.47
534.01	54770.88
534.18	54583.63
534.35	55246.00
534.52	55192.17
534.69	54901.95
534.86	54983.86
535.03	54869.18
535.20	55035.36
535.37	55105.57
535.54	55136.00
535.71	54934.71
535.88	55262.39
536.05	55304.52
536.22	55353.67
536.38	55622.83
536.55	55554.96
536.72	55552.62
536.89	55215.58
537.06	55433.25
537.23	55618.15
537.40	55372.39
537.57	55608.79
537.74	55814.76
537.91	55922.42
538.08	55671.98
538.25	55510.49
538.42	55732.84
538.59	56222.01
538.75	55868.59
538.92	56020.72
539.09	55983.27
539.26	56086.26
539.43	56062.85
539.60	56175.20
539.77	56168.18
539.94	56322.65
540.11	56034.77
540.28	56254.78
540.44	56303.93
540.61	56390.53
540.78	56301.59
540.95	56493.51
541.12	56137.75
541.29	56479.47
541.46	56647.99
541.62	56231.37
541.79	56390.53
541.96	56154.13
542.13	56339.04
542.30	56406.91
542.47	56671.39
542.63	56750.97
542.80	56596.49
542.97	56917.15
543.14	57193.33
543.31	56970.98
543.48	57078.64
543.64	57167.58
543.81	57315.04
543.98	57069.28
544.15	57310.36
544.32	57432.07
544.48	57513.98
544.65	57181.63
544.82	57249.50
544.99	57144.18
545.16	57345.47
545.32	57336.10
545.49	57392.28
545.66	57654.42
545.83	57471.85
546.00	57513.98
546.16	57481.22
546.33	57258.87
546.50	57364.19
546.67	57628.67
546.83	57394.62
547.00	57560.79
547.17	57499.94
547.34	57544.41
547.50	57733.99
547.67	57769.10
547.84	58019.54
548.00	58031.24
548.17	57968.05
548.34	57930.60
548.51	58010.18
548.67	58085.07
548.84	58127.20
549.01	58010.18
549.18	57811.23
549.34	58047.63
549.51	58106.14
549.68	58010.18
549.84	58255.93
550.01	57977.41
550.18	58136.57
550.34	58298.06
550.51	58347.21
550.68	58197.42
550.84	58155.29
551.01	58429.13
551.18	58234.87
551.34	58239.55
551.51	58501.69
551.68	58424.45
551.84	58511.05
552.01	58389.34
552.18	58401.05
552.34	58443.18
552.51	58693.61
552.68	58649.14
552.84	58714.68
553.01	58529.78
553.18	58614.04
553.34	58993.20
553.51	58611.70
553.67	58464.24
553.84	58855.11
554.01	58965.12
554.17	58864.47
554.34	59018.95
554.51	58845.75
554.67	59093.85
554.84	58838.73
555.00	58763.83
555.17	58995.54
555.33	58698.30
555.50	58714.68
555.67	58899.58
555.83	58827.02
556.00	59147.68
556.16	59351.30
556.33	59138.32
556.50	59079.80
556.66	59047.04
556.83	59070.44
556.99	59437.90
557.16	59260.02
557.32	59480.03
557.49	59599.40
557.65	59210.87
557.82	59348.96
557.98	59145.34
558.15	59430.88
558.32	59379.39
558.48	59295.13
558.65	59292.79
558.81	59498.76
558.98	59299.81
559.14	59423.86
559.31	59384.07
559.47	59568.97
559.64	59346.62
559.80	59447.27
559.97	59629.83
560.13	59447.27
560.30	59690.68
560.46	59412.16
560.63	59585.36
560.79	59753.88
560.96	59856.86
561.12	59620.47
561.29	59632.17
561.45	59903.67
561.61	59751.54
561.78	59648.55
561.94	59590.04
562.11	59819.41
562.27	59854.52
562.44	59875.58
562.60	59929.42
562.77	59798.35
562.93	59845.16
563.10	59978.57
563.26	59660.26
563.42	60170.49
563.59	59955.16
563.75	59817.07
563.92	60058.15
564.08	59934.10
564.24	59966.87
564.41	60065.17
564.57	60058.15
564.74	60001.97
564.90	60027.72
565.07	59962.18
565.23	59964.52
565.39	59992.61
565.56	60039.42
565.72	60100.28
565.88	59997.29
566.05	60055.81
566.21	59934.10
566.38	60079.21
566.54	60140.07
566.70	60182.19
566.87	60088.57
567.03	60023.04
567.19	60479.44
567.36	60069.85
567.52	60104.96
567.68	60409.23
567.85	60327.31
568.01	60315.61
568.17	60196.24
568.34	60271.14
568.50	60055.81
568.66	60175.17
568.83	60025.38
568.99	60161.13
569.15	60280.50
569.32	60390.50
569.48	60355.39
569.64	60388.16
569.81	60341.35
569.97	60140.07
570.13	60306.24
570.30	60121.34
570.46	60362.42
570.62	60310.92
570.78	60411.57
570.95	60308.58
571.11	60437.31
571.27	60177.51
571.43	60243.05
571.60	60549.66
571.76	60320.29
571.92	60486.46
572.09	60432.63
572.25	60439.65
572.41	60385.82
572.57	60537.96
572.74	60584.77
572.90	60495.83
573.06	60507.53
573.22	60411.57
573.38	60566.04
573.55	60392.84
573.71	60575.40
573.87	60610.51
574.03	60535.62
574.20	60554.34
574.36	60608.17
574.52	60619.88
574.68	60470.08
574.84	60783.71
575.01	60654.98
575.17	60451.36
575.33	60598.81
575.49	60460.72
575.65	60500.51
575.82	60788.39
575.98	60701.79
576.14	60821.16
576.30	60687.75
576.46	60472.42
576.62	60601.15
576.79	60441.99
576.95	60589.45
577.11	60729.88
577.27	60601.15
577.43	60666.69
577.59	60673.71
577.75	60509.87
577.92	60526.25
578.08	60505.19
578.24	60734.56
578.40	60797.76
578.56	60811.80
578.72	60662.00
578.88	60973.30
579.04	60945.21
579.21	60776.69
579.37	60746.26
579.53	60931.17
579.69	60612.85
579.85	60587.11
580.01	60507.53
580.17	60596.47
580.33	60865.63
580.49	60919.46
580.65	60755.63
580.82	60846.91
580.98	60671.37
581.14	60605.83
581.30	60685.41
581.46	60793.07
581.62	60811.80
581.78	60776.69
581.94	60903.08
582.10	60816.48
582.26	60790.73
582.42	60584.77
582.58	60823.50
582.74	60832.86
582.90	60647.96
583.06	60736.90
583.22	60519.23
583.38	60676.05
583.54	60968.61
583.70	60664.35
583.86	60793.07
584.02	60697.11
584.18	60811.80
584.34	60764.99
584.50	60835.20
584.66	60795.42
584.82	60903.08
584.98	60945.21
585.14	60975.64
585.30	60788.39
585.46	60786.05
585.62	60762.65
585.78	61057.56
585.94	60570.72
586.10	60877.33
586.26	60926.49
586.42	60942.87
586.58	61045.85
586.74	60867.97
586.90	60797.76
587.06	60926.49
587.22	60865.63
587.38	61062.24
587.54	60917.12
587.70	60956.91
587.86	61085.64
588.02	60954.57
588.18	60935.85
588.34	60914.78
588.49	61010.74
