SpectraSuite Data File
++++++++++++++++++++++++++++++++++++
Date: Fri Oct 25 11:22:50 EDT 2013
User: price-jones
Dark Spectrum Present: No
Reference Spectrum Present: No
Number of Sampled Component Spectra: 1
Spectrometers: USB2+H05261
Integration Time (usec): 100000 (USB2+H05261)
Spectra Averaged: 1 (USB2+H05261)
Boxcar Smoothing: 0 (USB2+H05261)
Correct for Electrical Dark: No (USB2+H05261)
Strobe/Lamp Enabled: No (USB2+H05261)
Correct for Detector Non-linearity: No (USB2+H05261)
Correct for Stray Light: No (USB2+H05261)
Number of Pixels in Processed Spectrum: 2048
>>>>>Begin Processed Spectral Data<<<<<
365.73	273.84
365.92	273.84
366.12	273.84
366.32	170.86
366.52	152.13
366.72	154.48
366.91	100.64
367.11	112.35
367.31	147.45
367.51	124.05
367.70	159.16
367.90	145.11
368.10	154.48
368.30	147.45
368.49	135.75
368.69	138.09
368.89	110.01
369.09	145.11
369.28	231.71
369.48	121.71
369.68	93.62
369.87	152.13
370.07	189.58
370.27	234.05
370.47	383.85
370.66	552.37
370.86	622.58
371.06	645.99
371.25	746.63
371.45	645.99
371.65	648.33
371.84	737.27
372.04	648.33
372.24	655.35
372.44	741.95
372.63	711.52
372.83	777.06
373.03	809.83
373.22	774.72
373.42	676.41
373.62	737.27
373.81	765.36
374.01	842.59
374.21	823.87
374.40	732.59
374.60	870.68
374.79	821.53
374.99	816.85
375.19	816.85
375.38	802.80
375.58	805.14
375.78	795.78
375.97	894.08
376.17	968.98
376.37	763.01
376.56	844.93
376.76	854.30
376.95	844.93
377.15	919.83
377.35	851.96
377.54	940.90
377.74	908.13
377.93	875.36
378.13	973.66
378.33	943.24
378.52	915.15
378.72	966.64
378.91	910.47
379.11	947.92
379.31	964.30
379.50	851.96
379.70	943.24
379.89	968.98
380.09	961.96
380.28	959.62
380.48	968.98
380.68	898.77
380.87	997.07
381.07	1039.20
381.26	1020.47
381.46	912.81
381.65	1027.50
381.85	1078.99
382.04	1064.94
382.24	1139.84
382.43	1069.62
382.63	945.58
382.83	1050.90
383.02	1102.39
383.22	1170.27
383.41	1135.16
383.61	1156.22
383.80	1165.59
384.00	1128.14
384.19	1135.16
384.39	1130.48
384.58	1212.40
384.78	1181.97
384.97	1184.31
385.17	1174.95
385.36	1165.59
385.56	1245.16
385.75	1219.42
385.95	1158.57
386.14	1156.22
386.34	1221.76
386.53	1210.06
386.72	1235.80
386.92	1287.29
387.11	1165.59
387.31	1247.51
387.50	1228.78
387.70	1224.10
387.89	1184.31
388.09	1322.40
388.28	1324.74
388.48	1352.83
388.67	1207.72
388.86	1226.44
389.06	1275.59
389.25	1322.40
389.45	1366.87
389.64	1327.08
389.84	1380.92
390.03	1385.60
390.22	1413.68
390.42	1378.58
390.61	1392.62
390.81	1390.28
391.00	1451.13
391.19	1423.05
391.39	1479.22
391.58	1526.03
391.78	1483.90
391.97	1563.48
392.16	1551.78
392.36	1612.63
392.55	1523.69
392.75	1519.01
392.94	1526.03
393.13	1598.59
393.33	1511.99
393.52	1626.67
393.71	1621.99
393.91	1561.14
394.10	1568.16
394.29	1638.38
394.49	1614.97
394.68	1633.69
394.88	1657.10
395.07	1549.43
395.26	1673.48
395.46	1732.00
395.65	1631.35
395.84	1710.93
396.04	1753.06
396.23	1769.44
396.42	1762.42
396.62	1809.23
396.81	1755.40
397.00	1764.76
397.19	1851.36
397.39	1739.02
397.58	1830.30
397.77	1820.94
397.97	1783.49
398.16	1874.77
398.35	1886.47
398.55	1872.43
398.74	1846.68
398.93	1966.05
399.12	1919.24
399.32	1923.92
399.51	1912.22
399.70	1916.90
399.90	1984.77
400.09	2033.93
400.28	2078.40
400.47	2038.61
400.67	1998.82
400.86	2090.10
401.05	2160.31
401.24	2031.58
401.44	2165.00
401.63	2115.84
401.82	2078.40
402.01	2141.59
402.21	2235.21
402.40	2209.47
402.59	2101.80
402.78	2097.12
402.97	2265.64
403.17	2338.20
403.36	2190.74
403.55	2356.92
403.74	2251.60
403.93	2342.88
404.13	2443.52
404.32	2253.94
404.51	2502.03
404.70	2464.58
404.89	2476.29
405.09	2406.07
405.28	2511.39
405.47	2399.05
405.66	2513.74
405.85	2555.86
406.05	2438.84
406.24	2628.42
406.43	2558.21
406.62	2595.65
406.81	2672.89
407.00	2644.81
407.20	2668.21
407.39	2801.62
407.58	2672.89
407.77	2794.60
407.96	2733.75
408.15	2693.96
408.34	2860.13
408.54	2799.28
408.73	2771.19
408.92	2937.37
409.11	2846.09
409.30	2942.05
409.49	2881.20
409.68	2930.35
409.87	3054.40
410.07	2974.82
410.26	3012.27
410.45	3056.74
410.64	2984.18
410.83	3087.17
411.02	3126.96
411.21	3176.11
411.40	3091.85
411.59	3241.64
411.78	3148.02
411.98	3213.56
412.17	3304.84
412.36	3365.69
412.55	3265.05
412.74	3379.73
412.93	3449.95
413.12	3365.69
413.31	3595.06
413.50	3410.16
413.69	3522.51
413.88	3517.83
414.07	3674.64
414.26	3733.15
414.45	3648.90
414.64	3702.73
414.83	3796.35
415.02	3749.54
415.22	3859.54
415.41	3908.69
415.60	3943.80
415.79	3962.53
415.98	4021.04
416.17	3995.29
416.36	4077.21
416.55	4112.32
416.74	3974.23
416.93	3985.93
417.12	4189.56
417.31	4138.07
417.50	4327.65
417.69	4404.89
417.88	4458.72
418.07	4334.67
418.26	4353.40
418.45	4414.25
418.64	4627.24
418.83	4526.60
419.02	4475.10
419.21	4554.68
419.39	4428.29
419.58	4503.19
419.77	4500.85
419.96	4533.62
420.15	4587.45
420.34	4528.94
420.53	4601.49
420.72	4643.62
420.91	4610.86
421.10	4755.97
421.29	4887.04
421.48	4683.41
421.67	4905.76
421.86	4702.14
422.05	4887.04
422.24	4739.58
422.43	4931.51
422.61	4781.71
422.80	5008.75
422.99	4905.76
423.18	5018.11
423.37	4975.98
423.56	4959.60
423.75	4837.89
423.94	4863.63
424.13	4601.49
424.32	4865.97
424.50	5020.45
424.69	5338.76
424.88	5336.42
425.07	5128.11
425.26	5048.54
425.45	4947.89
425.64	4954.91
425.83	4966.62
426.01	5210.03
426.20	5076.62
426.39	5043.85
426.58	5053.22
426.77	5055.56
426.96	5219.39
427.15	5104.71
427.33	5156.20
427.52	5226.42
427.71	5247.48
427.90	5205.35
428.09	5486.22
428.28	5488.56
428.46	5507.28
428.65	5376.21
428.84	5458.13
429.03	5675.80
429.22	5305.99
429.40	5446.43
429.59	5689.84
429.78	5380.89
429.97	5331.74
430.16	5542.39
430.34	5561.11
430.53	5549.41
430.72	5533.03
430.91	5671.12
431.10	5605.58
431.28	5827.93
431.47	5877.09
431.66	5834.96
431.85	5713.25
432.03	6022.20
432.22	6083.05
432.41	5832.62
432.60	5954.32
432.79	5914.53
432.97	6024.54
433.16	6083.05
433.35	6017.52
433.54	6160.29
433.72	6115.82
433.91	6129.86
434.10	6289.02
434.28	6310.08
434.47	6097.10
434.66	6272.64
434.85	6359.24
435.03	6335.83
435.22	6387.32
435.41	6516.05
435.59	6422.43
435.78	6487.96
435.97	6459.88
436.16	6317.11
436.34	6553.50
436.53	6523.07
436.72	6619.04
436.90	6420.09
437.09	6864.79
437.28	6480.94
437.46	6623.72
437.65	6853.09
437.84	6848.41
438.02	6930.33
438.21	6839.05
438.40	6799.26
438.58	7082.46
438.77	6984.16
438.96	7143.32
439.14	7145.66
439.33	7115.23
439.52	7157.36
439.70	7208.85
439.89	7433.54
440.08	7508.44
440.26	7564.61
440.45	7492.05
440.63	7398.43
440.82	7674.62
441.01	7581.00
441.19	7461.63
441.38	7960.16
441.57	8037.40
441.75	7995.27
441.94	7934.42
442.12	8023.36
442.31	7896.97
442.50	8037.40
442.68	8128.68
442.87	8109.96
443.05	8262.09
443.24	8187.19
443.43	8273.79
443.61	8177.83
443.80	8500.83
443.98	8147.40
444.17	7906.33
444.35	8304.22
444.54	8435.29
444.73	8439.97
444.91	8325.29
445.10	8585.08
445.28	8346.35
445.47	8182.51
445.65	8421.25
445.84	8594.45
446.02	8528.91
446.21	8641.26
446.39	8428.27
446.58	8657.64
446.77	8603.81
446.95	8215.28
447.14	8482.10
447.32	8685.73
447.51	8657.64
447.69	8631.90
447.88	8582.74
448.06	8582.74
448.25	8400.18
448.43	8517.21
448.62	8519.55
448.80	8664.66
448.99	8683.39
449.17	8709.13
449.36	8648.28
449.54	8973.61
449.73	8985.32
449.91	8968.93
450.10	9006.38
450.28	9205.33
450.46	9088.30
450.65	9083.62
450.83	9210.01
451.02	8938.51
451.20	9451.08
451.39	9334.06
451.57	9214.69
451.76	8992.34
451.94	9303.63
452.13	9254.48
452.31	9432.36
452.49	9266.18
452.68	9643.01
452.86	9479.17
453.05	9521.30
453.23	9610.24
453.42	9298.95
453.60	9336.40
453.78	9724.93
453.97	9650.03
454.15	9724.93
454.34	9582.15
454.52	9884.08
454.70	9621.94
454.89	9825.57
455.07	9860.68
455.26	9989.41
455.44	9984.73
455.62	9909.83
455.81	10188.35
455.99	10148.56
456.17	10059.62
456.36	10356.87
456.54	10445.81
456.73	10448.15
456.91	10324.10
457.09	10347.51
457.28	10532.41
457.46	10455.17
457.64	10630.71
457.83	10373.25
458.01	10532.41
458.19	10890.51
458.38	10565.18
458.56	10794.55
458.74	10778.17
458.93	10850.72
459.11	10757.10
459.29	11035.63
459.48	10988.82
459.66	10782.85
459.84	10927.96
460.03	11302.45
460.21	11211.17
460.39	11154.99
460.57	10888.17
460.76	11159.67
460.94	11019.24
461.12	11197.12
461.31	11442.88
461.49	11337.56
461.67	11323.51
461.85	11424.15
462.04	11527.14
462.22	11974.18
462.40	11585.65
462.59	11459.26
462.77	11569.27
462.95	11819.71
463.13	11660.55
463.32	11602.04
463.50	11751.83
463.68	11929.71
463.86	12006.95
464.05	11859.49
464.23	11786.94
464.41	11906.31
464.59	11662.89
464.78	12250.36
464.96	11798.64
465.14	11901.62
465.32	12086.53
465.50	12266.75
465.69	12461.01
465.87	12203.55
466.05	12421.22
466.23	12327.60
466.41	12374.41
466.60	12575.70
466.78	12278.45
466.96	12229.30
467.14	12322.92
467.32	12479.74
467.51	12624.85
467.69	12257.39
467.87	12596.76
468.05	12800.39
468.23	12620.17
468.41	12823.80
468.60	12369.73
468.78	12844.86
468.96	12767.62
469.14	12868.27
469.32	12936.14
469.50	12905.71
469.69	12896.35
469.87	13186.58
470.05	13083.59
470.23	13429.99
470.41	13312.97
470.59	13399.57
470.77	13305.95
470.95	13114.02
471.14	13654.69
471.32	13198.28
471.50	13383.18
471.68	13589.15
471.86	13912.14
472.04	13764.69
472.22	14244.50
472.40	13530.64
472.58	14141.52
472.77	13982.36
472.95	14043.21
473.13	14745.38
473.31	14061.94
473.49	14099.39
473.67	14342.80
473.85	14307.69
474.03	14824.95
474.21	14700.90
474.39	14831.97
474.57	14946.66
474.75	14970.07
474.93	14850.70
475.12	15171.35
475.30	15286.04
475.48	15180.71
475.66	15166.67
475.84	15410.09
476.02	15417.11
476.20	15403.07
476.38	15515.41
476.56	16105.23
476.74	16276.09
476.92	15840.75
477.10	16042.03
477.28	16098.20
477.46	16348.64
477.64	16458.65
477.82	16723.13
478.00	16999.31
478.18	17048.46
478.36	17186.55
478.54	17310.60
478.72	17460.40
478.90	17488.48
479.08	17647.64
479.26	17802.11
479.44	18214.05
479.62	17994.04
479.80	17818.50
479.98	18235.11
480.16	18675.13
480.34	18476.19
480.52	18806.20
480.70	18724.29
480.88	18565.13
481.06	18995.79
481.24	18946.64
481.41	19225.16
481.59	19466.24
481.77	19894.55
481.95	19606.67
482.13	20037.33
482.31	19948.39
482.49	20465.64
482.67	20432.88
482.85	20603.74
483.03	20400.11
483.21	20893.96
483.39	21319.94
483.57	21322.28
483.74	21308.24
483.92	21832.52
484.10	21785.71
484.28	21956.57
484.46	22277.22
484.64	22403.61
484.82	22476.16
485.00	22483.19
485.18	22757.03
485.35	23122.15
485.53	22782.77
485.71	23419.40
485.89	23807.93
486.07	23513.02
486.25	23779.84
486.43	23953.04
486.61	24135.60
486.78	24379.02
486.96	24437.53
487.14	25017.99
487.32	24748.82
487.50	24900.96
487.68	25137.35
487.85	25497.80
488.03	25621.84
488.21	26064.21
488.39	26214.00
488.57	26373.16
488.75	26333.37
488.92	26403.58
489.10	26684.45
489.28	26478.48
489.46	27482.57
489.64	27372.57
489.81	28236.22
489.99	27938.97
490.17	28194.09
490.35	28547.51
490.53	28212.82
490.70	28861.15
490.88	28498.36
491.06	29022.64
491.24	28999.24
491.41	29247.33
491.59	29582.03
491.77	29916.73
491.95	29682.67
492.13	30003.33
492.30	30221.00
492.48	30160.14
492.66	30384.83
492.84	30740.60
493.01	30932.52
493.19	30836.56
493.37	31482.55
493.54	31358.50
493.72	31873.42
493.90	31756.39
494.08	32070.02
494.25	32423.44
494.43	32542.81
494.61	32521.74
494.79	32896.23
494.96	32849.42
495.14	33589.03
495.32	33439.23
495.49	33666.27
495.67	33338.59
495.85	33668.61
496.02	33844.15
496.20	34534.60
496.38	34188.21
496.55	34419.92
496.73	35164.21
496.91	35138.46
497.09	35058.88
497.26	35601.89
497.44	35098.67
497.62	35620.61
497.79	36397.67
497.97	35901.48
498.14	36364.90
498.32	36325.11
498.50	36765.14
498.67	36458.52
498.85	36624.70
499.03	36849.39
499.20	36896.20
499.38	36825.99
499.56	37048.34
499.73	37504.74
499.91	37640.50
500.08	38340.32
500.26	37390.06
500.44	38174.14
500.61	38595.43
500.79	38099.24
500.97	38574.37
501.14	39035.45
501.32	38735.87
501.49	38965.24
501.67	39037.80
501.84	39302.28
502.02	39075.24
502.20	39508.24
502.37	39370.15
502.55	39732.93
502.72	39749.32
502.90	40266.58
503.07	39744.64
503.25	40376.58
503.43	40292.32
503.60	39852.30
503.78	40685.53
503.95	40526.38
504.13	40811.92
504.30	40928.95
504.48	40877.46
504.65	40978.10
504.83	41329.18
505.01	41523.44
505.18	41460.25
505.36	41993.89
505.53	41783.24
505.71	42043.04
505.88	42024.32
506.06	41968.15
506.23	42387.10
506.41	42029.00
506.58	42408.17
506.76	42700.73
506.93	42295.82
507.11	42714.78
507.28	42815.42
507.46	42988.62
507.63	43145.44
507.81	43409.92
507.98	43648.65
508.16	43398.21
508.33	43531.62
508.50	44172.93
508.68	43880.36
508.85	44664.44
509.03	44341.45
509.20	44442.09
509.38	45022.54
509.55	44839.98
509.73	44926.58
509.90	44619.97
510.08	44849.35
510.25	44809.56
510.42	45406.39
510.60	45282.34
510.77	45329.16
510.95	45804.28
511.12	45474.27
511.30	45422.78
511.47	45471.93
511.64	45457.88
511.82	46424.53
511.99	45886.20
512.17	46373.03
512.34	46354.31
512.51	46887.95
512.69	46644.54
512.86	47047.11
513.04	47012.00
513.21	46855.18
513.38	46923.06
513.56	47110.30
513.73	47147.75
513.90	47576.07
514.08	47297.55
514.25	47723.52
514.43	47646.29
514.60	47784.38
514.77	47590.11
514.95	48196.31
515.12	47611.18
515.29	47866.30
515.47	48369.51
515.64	48423.34
515.81	48105.03
515.99	48435.05
516.16	48739.32
516.33	48596.54
516.51	48903.15
516.68	48849.32
516.85	49373.60
517.03	49186.36
517.20	49275.30
517.37	49352.54
517.54	48912.52
517.72	49373.60
517.89	49535.10
518.06	49368.92
518.24	49579.57
518.41	49652.12
518.58	49907.24
518.75	49497.65
518.93	50047.68
519.10	49925.97
519.27	49951.71
519.45	49818.30
519.62	50358.97
519.79	50010.23
519.96	50197.47
520.14	50677.28
520.31	50440.89
520.48	50773.24
520.65	50782.60
520.83	50775.58
521.00	50852.82
521.17	50735.79
521.34	50810.69
521.52	50939.42
521.69	51051.76
521.86	51332.63
522.03	51519.87
522.20	51875.63
522.38	51964.57
522.55	51641.58
522.72	51737.54
522.89	51676.69
523.07	52060.54
523.24	51917.76
523.41	52011.38
523.58	51601.79
523.75	52313.31
523.92	51716.48
524.10	52184.58
524.27	52079.26
524.44	52484.17
524.61	52226.71
524.78	52222.03
524.96	52652.69
525.13	52865.68
525.30	52825.89
525.47	52666.73
525.64	52750.99
525.81	53151.23
525.98	53144.20
526.16	52601.20
526.33	52968.66
526.50	53289.32
526.67	52940.58
526.84	53359.53
527.01	52846.96
527.18	53066.97
527.36	53305.70
527.53	53160.59
527.70	53612.31
527.87	53595.93
528.04	53565.50
528.21	53586.57
528.38	53432.09
528.55	53827.64
528.72	53556.14
528.89	53813.60
529.07	53783.17
529.24	53478.90
529.41	53958.71
529.58	54164.68
529.75	53467.20
529.92	54120.21
530.09	54227.87
530.26	54124.89
530.43	54152.97
530.60	54066.38
530.77	53951.69
530.94	54225.53
531.11	54239.57
531.28	54490.01
531.46	54452.56
531.63	54590.66
531.80	54312.13
531.97	54857.48
532.14	54869.18
532.31	54913.65
532.48	54864.50
532.65	54838.75
532.82	54939.39
532.99	54866.84
533.16	54798.96
533.33	55267.07
533.50	55332.60
533.67	55082.17
533.84	54684.28
534.01	54918.33
534.18	55323.24
534.35	55569.00
534.52	55257.71
534.69	55561.98
534.86	55444.95
535.03	55737.52
535.20	55547.93
535.37	55231.96
535.54	55601.77
535.71	55419.20
535.88	55779.65
536.05	55412.18
536.22	55819.44
536.38	55962.21
536.55	55913.06
536.72	55884.97
536.89	55884.97
537.06	55985.61
537.23	56069.87
537.40	55821.78
537.57	56128.39
537.74	56177.54
537.91	56214.99
538.08	56193.92
538.25	55992.64
538.42	56020.72
538.59	56348.40
538.75	55950.51
538.92	56067.53
539.09	56399.89
539.26	56376.48
539.43	56362.44
539.60	56477.13
539.77	56151.79
539.94	56765.01
540.11	56449.04
540.28	56603.52
540.44	56868.00
540.61	56601.18
540.78	56554.36
540.95	56776.72
541.12	56802.46
541.29	56570.75
541.46	56659.69
541.62	56919.49
541.79	56999.07
541.96	56704.16
542.13	56530.96
542.30	56921.83
542.47	57207.37
542.63	57160.56
542.80	57055.24
542.97	57420.36
543.14	57563.14
543.31	57378.23
543.48	57326.74
543.64	57673.14
543.81	57663.78
543.98	57521.01
544.15	57602.92
544.32	57813.57
544.48	57614.63
544.65	57689.52
544.82	57549.09
544.99	57504.62
545.16	57860.38
545.32	57628.67
545.49	57858.04
545.66	57855.70
545.83	58017.20
546.00	57958.69
546.16	57888.47
546.33	57839.32
546.50	57855.70
546.67	57942.30
546.83	57666.12
547.00	57937.62
547.17	58012.52
547.34	57977.41
547.50	57935.28
547.67	58394.03
547.84	58206.78
548.00	58557.86
548.17	58461.90
548.34	58372.96
548.51	58518.07
548.67	58447.86
548.84	58515.73
549.01	58361.26
549.18	58248.91
549.34	58450.20
549.51	58721.70
549.68	58637.44
549.84	58534.46
550.01	58637.44
550.18	58525.10
550.34	58667.87
550.51	58901.92
550.68	58749.79
550.84	58702.98
551.01	58775.53
551.18	58836.39
551.34	58803.62
551.51	58677.23
551.68	58787.24
551.84	58618.72
552.01	58766.17
552.18	58841.07
552.34	58798.94
552.51	58922.99
552.68	58848.09
552.84	58918.31
553.01	59089.16
553.18	59143.00
553.34	59018.95
553.51	59070.44
553.67	58995.54
553.84	59110.23
554.01	59227.26
554.17	59449.61
554.34	59327.90
554.51	59330.24
554.67	59348.96
554.84	59208.53
555.00	59260.02
555.17	59175.76
555.33	59318.54
555.50	59056.40
555.67	59107.89
555.83	59178.10
556.00	59367.69
556.16	59503.44
556.33	59578.34
556.50	59536.21
556.66	59653.23
556.83	59451.95
556.99	59751.54
557.16	59667.28
557.32	59678.98
557.49	59906.01
557.65	59428.54
557.82	59416.84
557.98	59554.93
558.15	59660.26
558.32	59505.78
558.48	59700.04
558.65	59650.89
558.81	59636.85
558.98	59774.94
559.14	59807.71
559.31	59863.88
559.47	59852.18
559.64	59835.80
559.80	59901.33
559.97	60144.75
560.13	59648.55
560.30	60065.17
560.46	59751.54
560.63	60062.83
560.79	59957.50
560.96	60109.64
561.12	59901.33
561.29	59971.55
561.45	60268.79
561.61	60034.74
561.78	59994.95
561.94	59866.22
562.11	59936.44
562.27	60205.60
562.44	60046.44
562.60	60322.63
562.77	60376.46
562.93	60086.23
563.10	60348.37
563.26	60287.52
563.42	60446.68
563.59	60243.05
563.75	60229.01
563.92	60322.63
564.08	60233.69
564.24	60390.50
564.41	60231.35
564.57	60240.71
564.74	60238.37
564.90	60257.09
565.07	60315.61
565.23	60458.38
565.39	60430.29
565.56	60315.61
565.72	60320.29
565.88	60395.18
566.05	60261.77
566.21	60458.38
566.38	60540.30
566.54	60526.25
566.70	60512.21
566.87	60580.09
567.03	60214.96
567.19	60533.28
567.36	60498.17
567.52	60427.95
567.68	60601.15
567.85	60392.84
568.01	60559.02
568.17	60479.44
568.34	60624.56
568.50	60662.00
568.66	60486.46
568.83	60697.11
568.99	60601.15
569.15	60495.83
569.32	60729.88
569.48	60814.14
569.64	60856.27
569.81	60472.42
569.97	60704.13
570.13	60683.07
570.30	60486.46
570.46	60598.81
570.62	60996.70
570.78	60720.52
570.95	60837.54
571.11	60863.29
571.27	60860.95
571.43	60772.01
571.60	60874.99
571.76	60800.10
571.92	60781.37
572.09	60811.80
572.25	60886.70
572.41	60844.57
572.57	60935.85
572.74	60992.02
572.90	60874.99
573.06	60837.54
573.22	61001.38
573.38	60755.63
573.55	60940.53
573.71	60924.14
573.87	60912.44
574.03	60795.42
574.20	60814.14
574.36	60734.56
574.52	61036.49
574.68	61123.09
574.84	60945.21
575.01	61029.47
575.17	60844.57
575.33	60867.97
575.49	60959.25
575.65	61090.32
575.82	61038.83
575.98	60931.17
576.14	61275.22
576.30	61120.75
576.46	60865.63
576.62	60938.19
576.79	61069.26
576.95	60928.83
577.11	60945.21
577.27	61127.77
577.43	61013.08
577.59	61015.43
577.75	61223.73
577.92	60905.42
578.08	61137.13
578.24	61106.71
578.40	61226.07
578.56	61181.60
578.72	61120.75
578.88	61169.90
579.04	61249.48
579.21	61106.71
579.37	61226.07
579.53	61247.14
579.69	61095.00
579.85	60996.70
580.01	61169.90
580.17	61052.87
580.33	61151.18
580.49	61160.54
580.65	61083.30
580.82	61057.56
580.98	60956.91
581.14	61041.17
581.30	61052.87
581.46	61165.22
581.62	61120.75
581.78	61139.47
581.94	61146.50
582.10	61113.73
582.26	61251.82
582.42	61146.50
582.58	61097.34
582.74	61013.08
582.90	61219.05
583.06	61109.05
583.22	61066.92
583.38	61139.47
583.54	61123.09
583.70	61205.01
583.86	61305.65
584.02	61085.64
584.18	61197.99
584.34	61183.94
584.50	61251.82
584.66	61240.12
584.82	61006.06
584.98	61219.05
585.14	61336.08
585.30	61116.07
585.46	61153.52
585.62	61240.12
585.78	61553.75
585.94	61024.79
586.10	61160.54
586.26	61240.12
586.42	61347.78
586.58	61436.72
586.74	61207.35
586.90	61123.09
587.06	61165.22
587.22	61235.44
587.38	61202.67
587.54	61511.62
587.70	61628.65
587.86	61375.87
588.02	61333.74
588.18	61483.53
588.34	61130.11
588.49	61432.04
