SpectraSuite Data File
++++++++++++++++++++++++++++++++++++
Date: Fri Oct 25 10:47:43 EDT 2013
User: price-jones
Dark Spectrum Present: No
Reference Spectrum Present: No
Number of Sampled Component Spectra: 1
Spectrometers: USB2+H05261
Integration Time (usec): 100000 (USB2+H05261)
Spectra Averaged: 1 (USB2+H05261)
Boxcar Smoothing: 0 (USB2+H05261)
Correct for Electrical Dark: No (USB2+H05261)
Strobe/Lamp Enabled: No (USB2+H05261)
Correct for Detector Non-linearity: No (USB2+H05261)
Correct for Stray Light: No (USB2+H05261)
Number of Pixels in Processed Spectrum: 2048
>>>>>Begin Processed Spectral Data<<<<<
365.73	170.86
365.92	170.86
366.12	170.86
366.32	93.62
366.52	37.45
366.72	49.15
366.91	21.06
367.11	49.15
367.31	93.62
367.51	0.00
367.70	0.00
367.90	60.85
368.10	46.81
368.30	65.54
368.49	65.54
368.69	67.88
368.89	81.92
369.09	63.19
369.28	74.90
369.48	21.06
369.68	0.00
369.87	86.60
370.07	63.19
370.27	145.11
370.47	145.11
370.66	416.62
370.86	376.83
371.06	451.72
371.25	477.47
371.45	369.80
371.65	500.87
371.84	470.45
372.04	444.70
372.24	489.17
372.44	491.51
372.63	493.85
372.83	524.28
373.03	559.39
373.22	575.77
373.42	503.22
373.62	498.53
373.81	512.58
374.01	526.62
374.21	524.28
374.40	634.29
374.60	503.22
374.79	507.90
374.99	568.75
375.19	631.94
375.38	596.84
375.58	538.32
375.78	578.11
375.97	566.41
376.17	636.63
376.37	608.54
376.56	552.37
376.76	610.88
376.95	603.86
377.15	578.11
377.35	587.47
377.54	613.22
377.74	568.75
377.93	627.26
378.13	531.30
378.33	671.73
378.52	664.71
378.72	667.05
378.91	566.41
379.11	660.03
379.31	664.71
379.50	603.86
379.70	695.14
379.89	713.86
380.09	608.54
380.28	678.76
380.48	709.18
380.68	634.29
380.87	627.26
381.07	629.60
381.26	767.70
381.46	653.01
381.65	739.61
381.85	667.05
382.04	599.18
382.24	657.69
382.43	648.33
382.63	664.71
382.83	622.58
383.02	755.99
383.22	748.97
383.41	695.14
383.61	692.80
383.80	744.29
384.00	725.57
384.19	664.71
384.39	741.95
384.58	713.86
384.78	723.23
384.97	739.61
385.17	697.48
385.36	765.36
385.56	763.01
385.75	678.76
385.95	767.70
386.14	819.19
386.34	748.97
386.53	748.97
386.72	734.93
386.92	837.91
387.11	713.86
387.31	826.21
387.50	807.48
387.70	828.55
387.89	730.25
388.09	835.57
388.28	802.80
388.48	858.98
388.67	933.87
388.86	854.30
389.06	828.55
389.25	833.23
389.45	959.62
389.64	924.51
389.84	933.87
390.03	896.43
390.22	952.60
390.42	870.68
390.61	922.17
390.81	910.47
391.00	994.73
391.19	1025.15
391.39	858.98
391.58	990.05
391.78	961.96
391.97	964.30
392.16	863.66
392.36	1011.11
392.55	957.28
392.75	931.53
392.94	978.34
393.13	983.02
393.33	1001.75
393.52	1015.79
393.71	1036.86
393.91	1071.97
394.10	1006.43
394.29	1069.62
394.49	1013.45
394.68	994.73
394.88	1172.61
395.07	1067.28
395.26	1102.39
395.46	1146.86
395.65	1177.29
395.84	1032.18
396.04	1139.84
396.23	1109.41
396.42	1144.52
396.62	1156.22
396.81	1034.52
397.00	1093.03
397.19	1181.97
397.39	1210.06
397.58	1198.35
397.77	1266.23
397.97	1259.21
398.16	1277.93
398.35	1263.89
398.55	1245.16
398.74	1310.70
398.93	1289.64
399.12	1242.82
399.32	1313.04
399.51	1277.93
399.70	1364.53
399.90	1380.92
400.09	1439.43
400.28	1296.66
400.47	1462.83
400.67	1362.19
400.86	1376.24
401.05	1437.09
401.24	1509.65
401.44	1493.26
401.63	1453.47
401.82	1483.90
402.01	1444.11
402.21	1418.36
402.40	1523.69
402.59	1453.47
402.78	1404.32
402.97	1469.86
403.17	1511.99
403.36	1537.73
403.55	1572.84
403.74	1638.38
403.93	1565.82
404.13	1624.33
404.32	1678.16
404.51	1692.21
404.70	1668.80
404.89	1593.90
405.09	1708.59
405.28	1706.25
405.47	1605.61
405.66	1621.99
405.85	1703.91
406.05	1839.66
406.24	1776.47
406.43	1720.29
406.62	1816.26
406.81	1893.49
407.00	1757.74
407.20	1842.00
407.39	1837.32
407.58	1933.28
407.77	1870.09
407.96	1888.81
408.15	1937.96
408.34	1870.09
408.54	1891.15
408.73	1973.07
408.92	1994.14
409.11	2022.22
409.30	2087.76
409.49	2015.20
409.68	1935.62
409.87	2059.67
410.07	2083.08
410.26	2087.76
410.45	2134.57
410.64	2141.59
410.83	2120.53
411.02	2127.55
411.21	2202.44
411.40	2143.93
411.59	2225.85
411.78	2174.36
411.98	2293.72
412.17	2270.32
412.36	2380.32
412.55	2370.96
412.74	2490.33
412.93	2354.58
413.12	2392.03
413.31	2600.34
413.50	2434.16
413.69	2464.58
413.88	2487.99
414.07	2513.74
414.26	2560.55
414.45	2672.89
414.64	2525.44
414.83	2668.21
415.02	2626.08
415.22	2689.28
415.41	2745.45
415.60	2726.72
415.79	2731.41
415.98	2836.73
416.17	2846.09
416.36	2864.82
416.55	2719.70
416.74	2778.22
416.93	2869.50
417.12	2808.64
417.31	2925.67
417.50	2937.37
417.69	3159.72
417.88	2991.20
418.07	2864.82
418.26	3052.06
418.45	3075.46
418.64	3201.85
418.83	3073.12
419.02	3112.91
419.21	3185.47
419.39	3124.62
419.58	3098.87
419.77	3171.43
419.96	3297.81
420.15	3260.37
420.34	3248.66
420.53	3307.18
420.72	3372.71
420.91	3297.81
421.10	3377.39
421.29	3337.60
421.48	3358.67
421.67	3400.80
421.86	3325.90
422.05	3377.39
422.24	3267.39
422.43	3412.50
422.61	3396.12
422.80	3555.27
422.99	3613.79
423.18	3445.27
423.37	3555.27
423.56	3494.42
423.75	3435.91
423.94	3403.14
424.13	3253.34
424.32	3351.65
424.50	3510.80
424.69	3386.76
424.88	3492.08
425.07	3461.65
425.26	3510.80
425.45	3611.45
425.64	3522.51
425.83	3386.76
426.01	3541.23
426.20	3424.20
426.39	3637.19
426.58	3548.25
426.77	3456.97
426.96	3440.59
427.15	3564.64
427.33	3630.17
427.52	3653.58
427.71	3742.52
427.90	3707.41
428.09	3681.66
428.28	3651.24
428.46	3637.19
428.65	3676.98
428.84	3836.14
429.03	3836.14
429.22	3674.64
429.40	3716.77
429.59	3651.24
429.78	3672.30
429.97	3613.79
430.16	3602.08
430.34	3700.39
430.53	3791.67
430.72	3794.01
430.91	3744.86
431.10	3941.46
431.28	4014.02
431.47	4091.26
431.66	4117.00
431.85	4018.70
432.03	4231.69
432.22	4210.62
432.41	4098.28
432.60	4208.28
432.79	4201.26
432.97	4306.59
433.16	4170.83
433.35	4187.22
433.54	4278.50
433.72	4201.26
433.91	4187.22
434.10	4395.53
434.28	4182.54
434.47	4262.12
434.66	4341.69
434.85	4386.16
435.03	4383.82
435.22	4203.60
435.41	4498.51
435.59	4720.86
435.78	4606.17
435.97	4477.44
436.16	4561.70
436.34	4451.70
436.53	4676.39
436.72	4760.65
436.90	4580.43
437.09	4575.75
437.28	4404.89
437.46	4587.45
437.65	4655.33
437.84	4648.30
438.02	4748.95
438.21	4788.74
438.40	4578.09
438.58	4802.78
438.77	4819.16
438.96	4767.67
439.14	4931.51
439.33	4887.04
439.52	5104.71
439.70	4985.34
439.89	5020.45
440.08	5020.45
440.26	5219.39
440.45	4952.57
440.63	5135.14
440.82	5266.21
441.01	5252.16
441.19	5296.63
441.38	5345.78
441.57	5423.02
441.75	5334.08
441.94	5570.48
442.12	5518.98
442.31	5582.18
442.50	5593.88
442.68	5575.16
442.87	5675.80
443.05	5671.12
443.24	5699.20
443.43	5631.33
443.61	5874.74
443.80	5820.91
443.98	5685.16
444.17	5554.09
444.35	5804.53
444.54	5912.19
444.73	5746.02
444.91	5717.93
445.10	5809.21
445.28	5703.89
445.47	5589.20
445.65	5923.90
445.84	5879.43
446.02	5926.24
446.21	5846.66
446.39	5919.21
446.58	5891.13
446.77	5942.62
446.95	5685.16
447.14	5783.46
447.32	5877.09
447.51	5912.19
447.69	5863.04
447.88	5996.45
448.06	6054.97
448.25	5973.05
448.43	5998.79
448.62	6134.54
448.80	5933.26
448.99	6061.99
449.17	6171.99
449.36	6099.44
449.54	6132.20
449.73	6284.34
449.91	6300.72
450.10	6251.57
450.28	6331.15
450.46	6509.03
450.65	6186.04
450.83	6377.96
451.02	6150.93
451.20	6382.64
451.39	6525.41
451.57	6382.64
451.76	6389.66
451.94	6429.45
452.13	6464.56
452.31	6225.82
452.49	6450.52
452.68	6567.54
452.86	6576.91
453.05	6480.94
453.23	6384.98
453.42	6548.82
453.60	6429.45
453.78	6551.16
453.97	6642.44
454.15	6614.35
454.34	6614.35
454.52	6717.34
454.70	6626.06
454.89	6960.75
455.07	6731.38
455.26	6775.85
455.44	6764.15
455.62	6970.12
455.81	6778.19
455.99	6761.81
456.17	6988.84
456.36	6942.03
456.54	7145.66
456.73	7206.51
456.91	7138.63
457.09	7094.16
457.28	7363.33
457.46	7026.29
457.64	7234.60
457.83	7293.11
458.01	7016.93
458.19	7461.63
458.38	7206.51
458.56	7269.70
458.74	7248.64
458.93	7449.93
459.11	7428.86
459.29	7417.16
459.48	7400.77
459.66	7564.61
459.84	7424.18
460.03	7480.35
460.21	7499.08
460.39	7681.64
460.57	7473.33
460.76	7578.65
460.94	7599.72
461.12	7641.85
461.31	7782.28
461.49	7709.72
461.67	7599.72
461.85	7798.66
462.04	7723.77
462.22	8400.18
462.40	8023.36
462.59	7737.81
462.77	7882.92
462.95	7969.52
463.13	8091.23
463.32	7943.78
463.50	7950.80
463.68	8154.43
463.86	7988.25
464.05	8091.23
464.23	7948.46
464.41	8042.08
464.59	7985.91
464.78	8369.76
464.96	8168.47
465.14	8063.15
465.32	8250.39
465.50	8248.05
465.69	8355.71
465.87	8238.69
466.05	8336.99
466.23	8308.90
466.41	8191.88
466.60	8479.76
466.78	8175.49
466.96	8212.94
467.14	8262.09
467.32	8334.65
467.51	8636.58
467.69	8271.45
467.87	8491.46
468.05	8575.72
468.23	8674.03
468.41	8582.74
468.60	8655.30
468.78	8667.00
468.96	8510.19
469.14	8549.98
469.32	8734.88
469.50	8514.87
469.69	8819.14
469.87	8727.86
470.05	8837.86
470.23	8887.01
470.41	8840.20
470.59	8997.02
470.77	8952.55
470.95	8905.74
471.14	9100.00
471.32	8835.52
471.50	9174.90
471.68	9320.01
471.86	9327.03
472.04	9191.28
472.22	9390.23
472.40	9221.71
472.58	9397.25
472.77	9523.64
472.95	9432.36
473.13	9586.83
473.31	9455.76
473.49	9603.22
473.67	9423.00
473.85	9633.64
474.03	9764.72
474.21	9776.42
474.39	9909.83
474.57	9956.64
474.75	9839.61
474.93	10012.81
475.12	9909.83
475.30	10033.88
475.48	10019.83
475.66	10298.36
475.84	10113.45
476.02	10253.89
476.20	10431.77
476.38	10516.03
476.56	10764.12
476.74	10478.58
476.92	10679.86
477.10	10707.95
477.28	10785.19
477.46	10693.91
477.64	10841.36
477.82	10995.84
478.00	11419.47
478.18	11393.73
478.36	11386.71
478.54	11321.17
478.72	11580.97
478.90	11550.54
479.08	11721.40
479.26	11754.17
479.44	11723.74
479.62	11962.48
479.80	11824.39
479.98	11847.79
480.16	12304.20
480.34	12376.75
480.52	12468.03
480.70	12493.78
480.88	12367.39
481.06	12463.35
481.24	12222.28
481.41	12697.41
481.59	12800.39
481.77	12814.43
481.95	13123.38
482.13	13050.83
482.31	12793.37
482.49	13172.54
482.67	13575.11
482.85	13432.33
483.03	13708.52
483.21	13757.67
483.39	14026.83
483.57	14059.60
483.74	13750.65
483.92	14132.15
484.10	14232.80
484.28	14431.74
484.46	14504.30
484.64	14523.02
484.82	14413.02
485.00	14593.24
485.18	14890.49
485.35	15061.35
485.53	14911.55
485.71	14824.95
485.89	15225.18
486.07	15332.85
486.25	15274.34
486.43	15559.88
486.61	15646.48
486.78	15812.66
486.96	16067.78
487.14	16084.16
487.32	16060.76
487.50	16423.54
487.68	16570.99
487.85	16596.74
488.03	16748.87
488.21	17046.12
488.39	16893.99
488.57	17006.33
488.75	17151.45
488.92	17294.22
489.10	17418.27
489.28	17783.39
489.46	17734.24
489.64	17813.82
489.81	18129.79
489.99	18104.04
490.17	18492.57
490.35	18726.63
490.53	18310.01
490.70	19023.87
490.88	18644.71
491.06	19206.44
491.24	19040.26
491.41	18932.59
491.59	19136.22
491.77	18991.11
491.95	19154.94
492.13	19377.30
492.30	19513.05
492.48	19803.27
492.66	19824.34
492.84	19831.36
493.01	20039.67
493.19	20255.00
493.37	20393.09
493.54	20374.36
493.72	20463.30
493.90	20652.89
494.08	20641.18
494.25	21240.36
494.43	21060.14
494.61	21352.71
494.79	21109.29
494.96	21099.93
495.14	21514.20
495.32	21764.64
495.49	21696.77
495.67	21589.10
495.85	21628.89
496.02	22218.71
496.20	22017.42
496.38	22113.38
496.55	22223.39
496.73	22834.27
496.91	22328.71
497.09	22724.26
497.26	22834.27
497.44	22710.22
497.62	23126.83
497.79	23140.88
497.97	23365.57
498.14	23396.00
498.32	23339.82
498.50	23337.48
498.67	23658.14
498.85	23627.71
499.03	23828.99
499.20	24058.37
499.38	24304.12
499.56	24023.26
499.73	24297.10
499.91	24381.36
500.08	24285.40
500.26	24425.83
500.44	24634.14
500.61	24755.85
500.79	24606.05
500.97	24690.31
501.14	25029.69
501.32	24868.19
501.49	25064.80
501.67	25048.41
501.84	25380.77
502.02	24903.30
502.20	25331.62
502.37	25661.63
502.55	25743.55
502.72	25551.63
502.90	25460.35
503.07	25708.44
503.25	25696.74
503.43	25912.07
503.60	25993.99
503.78	25830.15
503.95	25834.83
504.13	26003.35
504.30	26195.28
504.48	26134.42
504.65	26541.68
504.83	26520.61
505.01	26775.73
505.18	26651.68
505.36	26848.29
505.53	27297.67
505.71	27351.50
505.88	27129.15
506.06	27501.29
506.23	26955.95
506.41	27550.45
506.58	27232.13
506.76	27534.06
506.93	27608.96
507.11	27421.72
507.28	27618.32
507.46	27517.68
507.63	27917.91
507.81	27688.54
507.98	27529.38
508.16	28063.02
508.33	28173.03
508.50	28226.86
508.68	28329.84
508.85	28638.80
509.03	28266.65
509.20	28753.48
509.38	29123.29
509.55	28694.97
509.73	29125.63
509.90	28620.07
510.08	28917.32
510.25	28671.56
510.42	28919.66
510.60	29677.99
510.77	29266.06
510.95	29137.33
511.12	29076.48
511.30	29788.00
511.47	29802.04
511.64	29731.83
511.82	29923.75
511.99	29727.14
512.17	29879.28
512.34	29825.45
512.51	30171.85
512.69	30295.89
512.86	30197.59
513.04	30377.81
513.21	30602.50
513.38	30298.23
513.56	30394.20
513.73	30658.68
513.90	30754.64
514.08	30686.76
514.25	30764.00
514.43	30712.51
514.60	30883.37
514.77	30845.92
514.95	31337.43
515.12	30740.60
515.29	31019.12
515.47	31325.73
515.64	31606.59
515.81	31653.40
515.99	31321.05
516.16	31592.55
516.33	31379.56
516.51	31569.15
516.68	31206.36
516.85	31292.96
517.03	31723.62
517.20	31732.98
517.37	31922.57
517.54	32126.19
517.72	31988.10
517.89	32100.45
518.06	31653.40
518.24	31952.99
518.41	32020.87
518.58	32039.59
518.75	32432.80
518.93	33076.45
519.10	32563.87
519.27	32694.94
519.45	32638.77
519.62	32713.67
519.79	32924.32
519.96	32900.91
520.14	33090.49
520.31	32938.36
520.48	32999.21
520.65	33090.49
520.83	33282.42
521.00	33219.22
521.17	33851.17
521.34	33895.64
521.52	33806.70
521.69	33874.57
521.86	33986.92
522.03	34082.88
522.20	33769.25
522.38	34068.84
522.55	34270.12
522.72	33689.67
522.89	34029.05
523.07	34265.44
523.24	34045.43
523.41	34497.16
523.58	34330.98
523.75	34338.00
523.92	34714.83
524.10	34719.51
524.27	34756.96
524.44	34602.48
524.61	34569.71
524.78	35227.40
524.96	34953.56
525.13	35325.71
525.30	35538.69
525.47	34965.26
525.64	34988.67
525.81	35143.14
525.98	35290.60
526.16	35196.98
526.33	35204.00
526.50	35770.41
526.67	35264.85
526.84	35395.92
527.01	35634.66
527.18	35260.17
527.36	35791.47
527.53	35824.24
527.70	36294.69
527.87	36266.60
528.04	35772.75
528.21	36224.47
528.38	36128.51
528.55	36187.02
528.72	36376.61
528.89	36222.13
529.07	36460.87
529.24	36100.42
529.41	36163.62
529.58	36390.65
529.75	36252.56
529.92	36149.57
530.09	36629.38
530.26	36620.02
530.43	36994.51
530.60	36634.06
530.77	36840.03
530.94	36659.81
531.11	37038.98
531.28	36259.58
531.46	36823.65
531.63	37003.87
531.80	36973.44
531.97	37350.27
532.14	37046.00
532.31	36982.80
532.48	37366.65
532.65	37244.94
532.82	37209.84
532.99	37319.84
533.16	37258.99
533.33	37560.92
533.50	37659.22
533.67	38045.41
533.84	37572.62
534.01	37776.25
534.18	37413.46
534.35	37928.38
534.52	37844.12
534.69	38022.00
534.86	37968.17
535.03	37689.65
535.20	38363.72
535.37	38305.21
535.54	38469.04
535.71	37682.62
535.88	38586.07
536.05	38251.38
536.22	38218.61
536.38	38445.64
536.55	37769.22
536.72	38122.65
536.89	38213.93
537.06	38649.27
537.23	38827.15
537.40	38244.35
537.57	38602.46
537.74	38462.02
537.91	38630.54
538.08	38981.62
538.25	38682.03
538.42	39105.67
538.59	38347.34
538.75	39126.74
538.92	39014.39
539.09	39112.69
539.26	39068.22
539.43	39194.61
539.60	39349.09
539.77	39257.81
539.94	39225.04
540.11	39089.29
540.28	39316.32
540.44	39318.66
540.61	39412.28
540.78	38796.72
540.95	39182.91
541.12	39309.30
541.29	39295.25
541.46	39751.66
541.62	39660.38
541.79	40217.43
541.96	39456.75
542.13	39126.74
542.30	39669.74
542.47	39545.69
542.63	39906.13
542.80	40086.36
542.97	39999.76
543.14	40474.88
543.31	40084.01
543.48	40105.08
543.64	40591.91
543.81	40460.84
543.98	40542.76
544.15	40032.52
544.32	40549.78
544.48	40978.10
544.65	40638.72
544.82	40912.56
544.99	40116.78
545.16	40549.78
545.32	40306.37
545.49	40905.54
545.66	41055.34
545.83	41050.66
546.00	40959.38
546.16	40772.13
546.33	40713.62
546.50	40608.29
546.67	40453.82
546.83	40479.57
547.00	41053.00
547.17	40856.39
547.34	41216.83
547.50	41474.29
547.67	41343.22
547.84	41085.76
548.00	41060.02
548.17	41565.57
548.34	41359.61
548.51	41502.38
548.67	41710.69
548.84	41577.28
549.01	41631.11
549.18	41221.52
549.34	41591.32
549.51	41418.12
549.68	41626.43
549.84	41741.11
550.01	41998.57
550.18	41617.07
550.34	41605.36
550.51	41701.32
550.68	42005.59
550.84	41202.79
551.01	42136.66
551.18	41647.49
551.34	41989.21
551.51	42134.32
551.68	41830.05
551.84	42316.89
552.01	41481.31
552.18	41926.02
552.34	41481.31
552.51	42534.56
552.68	41998.57
552.84	42733.50
553.01	42660.94
553.18	42443.27
553.34	42312.20
553.51	41851.12
553.67	42361.36
553.84	42562.64
554.01	42305.18
554.17	42642.22
554.34	42513.49
554.51	42794.36
554.67	42780.31
554.84	42707.76
555.00	42422.21
555.17	42157.73
555.33	42974.58
555.50	42017.30
555.67	42873.93
555.83	42319.23
556.00	42567.32
556.16	43100.97
556.33	42742.86
556.50	42644.56
556.66	43124.37
556.83	42553.28
556.99	43353.74
557.16	43103.31
557.32	43133.73
557.49	43342.04
557.65	42459.66
557.82	43009.68
557.98	43290.55
558.15	42869.25
558.32	42784.99
558.48	43250.76
558.65	42969.90
558.81	43203.95
558.98	43484.81
559.14	42911.38
559.31	43171.18
559.47	43210.97
559.64	43508.22
559.80	43445.02
559.97	43185.22
560.13	42777.97
560.30	43229.69
560.46	43536.30
560.63	43019.05
560.79	43622.90
560.96	43489.49
561.12	43782.06
561.29	43452.05
561.45	43152.46
561.61	43538.65
561.78	43540.99
561.94	43519.92
562.11	42857.55
562.27	43744.61
562.44	43349.06
562.60	43585.46
562.77	43753.97
562.93	43115.01
563.10	43597.16
563.26	43650.99
563.42	43353.74
563.59	43351.40
563.75	43494.18
563.92	43866.32
564.08	43906.11
564.24	44074.63
564.41	44081.65
564.57	43646.31
564.74	43524.60
564.90	43981.01
565.07	43847.60
565.23	43756.32
565.39	43540.99
565.56	43812.49
565.72	43440.34
565.88	43580.78
566.05	43608.86
566.21	43725.89
566.38	43798.44
566.54	43878.02
566.70	43756.32
566.87	44397.62
567.03	43826.53
567.19	44313.36
567.36	44133.14
567.52	43562.05
567.68	44289.96
567.85	44091.01
568.01	43627.59
568.17	44142.50
568.34	44526.35
568.50	43885.04
568.66	44205.70
568.83	44341.45
568.99	43791.42
569.15	43800.79
569.32	43873.34
569.48	43934.20
569.64	44542.74
569.81	44154.21
569.97	43700.14
570.13	44053.56
570.30	44098.03
570.46	43751.63
570.62	43842.92
570.78	43863.98
570.95	43758.66
571.11	44348.47
571.27	44123.78
571.43	44083.99
571.60	43943.56
571.76	44369.54
571.92	44456.14
572.09	44357.83
572.25	44243.15
572.41	44119.10
572.57	44289.96
572.74	44598.91
572.90	44516.99
573.06	44512.31
573.22	44376.56
573.38	43997.39
573.55	44339.11
573.71	44568.48
573.87	43915.47
574.03	43777.38
574.20	44201.02
574.36	44570.82
574.52	44732.32
574.68	44584.86
574.84	44306.34
575.01	44240.81
575.17	44339.11
575.33	44334.43
575.49	44238.47
575.65	44425.71
575.82	44378.90
575.98	44252.51
576.14	44835.30
576.30	44236.12
576.46	44388.26
576.62	44659.76
576.79	44282.94
576.95	43920.15
577.11	44566.14
577.27	44231.44
577.43	44034.84
577.59	44308.68
577.75	44287.62
577.92	44332.09
578.08	43943.56
578.24	44020.80
578.40	44163.57
578.56	44617.63
578.72	44624.65
578.88	44243.15
579.04	44535.71
579.21	44418.69
579.37	44201.02
579.53	44694.87
579.69	44428.05
579.85	44289.96
580.01	44133.14
580.17	44577.84
580.33	44917.22
580.49	44882.11
580.65	44456.14
580.82	44893.82
580.98	44430.39
581.14	44603.59
581.30	44626.99
581.46	44285.28
581.62	44460.82
581.78	44357.83
581.94	44800.19
582.10	44486.56
582.26	44275.91
582.42	44645.72
582.58	44823.60
582.74	44428.05
582.90	44648.06
583.06	44744.02
583.22	44830.62
583.38	44580.18
583.54	44577.84
583.70	44685.51
583.86	44390.60
584.02	44006.75
584.18	45052.97
584.34	44294.64
584.50	44563.80
584.66	44676.15
584.82	44313.36
584.98	44617.63
585.14	44699.55
585.30	44069.95
585.46	44535.71
585.62	44388.26
585.78	44013.77
585.94	44350.81
586.10	44591.89
586.26	44350.81
586.42	44634.02
586.58	45048.29
586.74	44549.76
586.90	44531.03
587.06	44236.12
587.22	44650.40
587.38	44727.64
587.54	45170.00
587.70	44556.78
587.86	44739.34
588.02	44612.95
588.18	44732.32
588.34	44381.24
588.49	44648.06
588.65	44182.29
588.81	44240.81
588.97	44615.29
589.13	44406.98
589.29	44746.36
589.45	44760.40
589.61	44718.28
589.77	44821.26
589.93	44732.32
590.08	44687.85
590.24	44844.66
