SpectraSuite Data File
++++++++++++++++++++++++++++++++++++
Date: Fri Oct 25 10:44:07 EDT 2013
User: price-jones
Dark Spectrum Present: No
Reference Spectrum Present: No
Number of Sampled Component Spectra: 1
Spectrometers: USB2+H05261
Integration Time (usec): 100000 (USB2+H05261)
Spectra Averaged: 1 (USB2+H05261)
Boxcar Smoothing: 0 (USB2+H05261)
Correct for Electrical Dark: No (USB2+H05261)
Strobe/Lamp Enabled: No (USB2+H05261)
Correct for Detector Non-linearity: No (USB2+H05261)
Correct for Stray Light: No (USB2+H05261)
Number of Pixels in Processed Spectrum: 2048
>>>>>Begin Processed Spectral Data<<<<<
365.73	124.05
365.92	124.05
366.12	124.05
366.32	49.15
366.52	86.60
366.72	4.68
366.91	0.00
367.11	0.00
367.31	11.70
367.51	77.24
367.70	56.17
367.90	0.00
368.10	0.00
368.30	25.75
368.49	56.17
368.69	126.39
368.89	25.75
369.09	100.64
369.28	51.49
369.48	23.41
369.68	105.32
369.87	30.43
370.07	131.07
370.27	56.17
370.47	184.90
370.66	348.74
370.86	367.46
371.06	454.06
371.25	547.69
371.45	444.70
371.65	425.98
371.84	449.38
372.04	442.36
372.24	454.06
372.44	559.39
372.63	550.03
372.83	521.94
373.03	538.32
373.22	519.60
373.42	517.26
373.62	500.87
373.81	486.83
374.01	545.34
374.21	575.77
374.40	505.56
374.60	512.58
374.79	500.87
374.99	641.31
375.19	631.94
375.38	589.82
375.58	559.39
375.78	617.90
375.97	697.48
376.17	688.12
376.37	596.84
376.56	617.90
376.76	599.18
376.95	587.47
377.15	582.79
377.35	557.05
377.54	667.05
377.74	631.94
377.93	662.37
378.13	683.44
378.33	734.93
378.52	608.54
378.72	648.33
378.91	660.03
379.11	648.33
379.31	624.92
379.50	678.76
379.70	727.91
379.89	730.25
380.09	681.10
380.28	704.50
380.48	676.41
380.68	723.23
380.87	706.84
381.07	603.86
381.26	704.50
381.46	758.33
381.65	723.23
381.85	706.84
382.04	760.67
382.24	655.35
382.43	695.14
382.63	653.01
382.83	697.48
383.02	758.33
383.22	828.55
383.41	713.86
383.61	781.74
383.80	821.53
384.00	795.78
384.19	772.38
384.39	821.53
384.58	753.65
384.78	791.10
384.97	844.93
385.17	826.21
385.36	805.14
385.56	777.06
385.75	777.06
385.95	795.78
386.14	968.98
386.34	849.61
386.53	851.96
386.72	800.46
386.92	964.30
387.11	851.96
387.31	779.40
387.50	866.00
387.70	863.66
387.89	847.27
388.09	854.30
388.28	931.53
388.48	912.81
388.67	950.26
388.86	887.06
389.06	938.55
389.25	957.28
389.45	1006.43
389.64	933.87
389.84	924.51
390.03	945.58
390.22	1008.77
390.42	1118.78
390.61	1050.90
390.81	1015.79
391.00	1048.56
391.19	1100.05
391.39	1034.52
391.58	1081.33
391.78	1078.99
391.97	1100.05
392.16	1064.94
392.36	1050.90
392.55	1027.50
392.75	992.39
392.94	1053.24
393.13	1013.45
393.33	994.73
393.52	973.66
393.71	1174.95
393.91	1090.69
394.10	1191.33
394.29	1151.54
394.49	1151.54
394.68	1233.46
394.88	1118.78
395.07	1219.42
395.26	1238.14
395.46	1191.33
395.65	1191.33
395.84	1289.64
396.04	1282.61
396.23	1193.67
396.42	1256.87
396.62	1259.21
396.81	1210.06
397.00	1259.21
397.19	1259.21
397.39	1294.32
397.58	1465.18
397.77	1423.05
397.97	1434.75
398.16	1385.60
398.35	1481.56
398.55	1448.79
398.74	1432.41
398.93	1565.82
399.12	1544.75
399.32	1448.79
399.51	1511.99
399.70	1643.06
399.90	1535.39
400.09	1624.33
400.28	1565.82
400.47	1558.80
400.67	1544.75
400.86	1675.82
401.05	1591.56
401.24	1671.14
401.44	1673.48
401.63	1741.36
401.82	1657.10
402.01	1771.79
402.21	1717.95
402.40	1750.72
402.59	1710.93
402.78	1673.48
402.97	1778.81
403.17	1753.06
403.36	1877.11
403.55	1830.30
403.74	1909.88
403.93	1795.19
404.13	1886.47
404.32	1820.94
404.51	1954.35
404.70	1909.88
404.89	1802.21
405.09	1994.14
405.28	2045.63
405.47	2001.16
405.66	1994.14
405.85	1982.43
406.05	2022.22
406.24	2085.42
406.43	1994.14
406.62	2080.74
406.81	2104.14
407.00	2045.63
407.20	2043.29
407.39	2043.29
407.58	2209.47
407.77	2251.60
407.96	2202.44
408.15	2204.78
408.34	2270.32
408.54	2328.83
408.73	2335.85
408.92	2251.60
409.11	2291.38
409.30	2403.73
409.49	2375.64
409.68	2286.70
409.87	2265.64
410.07	2312.45
410.26	2408.41
410.45	2354.58
410.64	2469.27
410.83	2406.07
411.02	2466.92
411.21	2665.87
411.40	2513.74
411.59	2537.14
411.78	2679.91
411.98	2600.34
412.17	2693.96
412.36	2621.40
412.55	2736.09
412.74	2705.66
412.93	2684.59
413.12	2684.59
413.31	2867.16
413.50	2717.36
413.69	2925.67
413.88	2803.96
414.07	2836.73
414.26	2876.52
414.45	2836.73
414.64	2848.43
414.83	3042.70
415.02	2951.42
415.22	2972.48
415.41	3169.09
415.60	3059.08
415.79	3232.28
415.98	3241.64
416.17	3239.30
416.36	3136.32
416.55	3194.83
416.74	3286.11
416.93	3243.98
417.12	3269.73
417.31	3344.63
417.50	3346.97
417.69	3482.72
417.88	3489.74
418.07	3468.67
418.26	3323.56
418.45	3555.27
418.64	3604.42
418.83	3698.05
419.02	3562.30
419.21	3597.40
419.39	3599.74
419.58	3471.01
419.77	3494.42
419.96	3616.13
420.15	3765.92
420.34	3705.07
420.53	3716.77
420.72	3831.46
420.91	3822.09
421.10	3770.60
421.29	3915.72
421.48	3772.94
421.67	3833.80
421.86	3726.13
422.05	3805.71
422.24	3695.71
422.43	3709.75
422.61	3857.20
422.80	3997.64
422.99	3925.08
423.18	3873.59
423.37	4042.11
423.56	3962.53
423.75	3920.40
423.94	3950.82
424.13	3840.82
424.32	3784.65
424.50	4042.11
424.69	3957.85
424.88	4042.11
425.07	3904.01
425.26	3819.75
425.45	3845.50
425.64	3985.93
425.83	4011.68
426.01	3904.01
426.20	4074.87
426.39	3976.57
426.58	3941.46
426.77	4037.42
426.96	3875.93
427.15	4098.28
427.33	4142.75
427.52	4051.47
427.71	4124.02
427.90	4149.77
428.09	4170.83
428.28	4166.15
428.46	4180.20
428.65	4081.89
428.84	4217.65
429.03	4234.03
429.22	4152.11
429.40	4189.56
429.59	4081.89
429.78	4021.04
429.97	3894.65
430.16	4046.79
430.34	4109.98
430.53	4149.77
430.72	4217.65
430.91	4229.35
431.10	4341.69
431.28	4475.10
431.47	4550.00
431.66	4760.65
431.85	4451.70
432.03	4676.39
432.22	4709.16
432.41	4657.67
432.60	4760.65
432.79	4774.69
432.97	4723.20
433.16	4786.40
433.35	4660.01
433.54	4557.02
433.72	4582.77
433.91	4657.67
434.10	4770.01
434.28	4840.23
434.47	4945.55
434.66	4943.21
434.85	4947.89
435.03	5043.85
435.22	4940.87
435.41	5053.22
435.59	5116.41
435.78	5104.71
435.97	5249.82
436.16	5160.88
436.34	4964.28
436.53	4929.17
436.72	5205.35
436.90	5013.43
437.09	5179.61
437.28	5160.88
437.46	5172.58
437.65	5156.20
437.84	5200.67
438.02	5109.39
438.21	5268.55
438.40	5135.14
438.58	5210.03
438.77	5390.25
438.96	5296.63
439.14	5406.64
439.33	5521.32
439.52	5614.95
439.70	5544.73
439.89	5518.98
440.08	5734.31
440.26	5696.86
440.45	5668.78
440.63	5998.79
440.82	5912.19
441.01	5774.10
441.19	5891.13
441.38	6118.16
441.57	5963.68
441.75	6197.74
441.94	6143.91
442.12	6221.14
442.31	6326.47
442.50	6415.41
442.68	6424.77
442.87	6370.94
443.05	6354.55
443.24	6462.22
443.43	6410.73
443.61	6263.27
443.80	6438.81
443.98	6310.08
444.17	6303.06
444.35	6420.09
444.54	6600.31
444.73	6509.03
444.91	6572.22
445.10	6562.86
445.28	6422.43
445.47	6452.86
445.65	6384.98
445.84	6445.84
446.02	6642.44
446.21	6438.81
446.39	6469.24
446.58	6654.14
446.77	6595.63
446.95	6609.67
447.14	6574.56
447.32	6902.24
447.51	6665.85
447.69	6459.88
447.88	6644.78
448.06	6822.66
448.25	6595.63
448.43	6743.08
448.62	6836.70
448.80	6715.00
448.99	6841.39
449.17	6698.61
449.36	6773.51
449.54	6878.83
449.73	7016.93
449.91	6986.50
450.10	7059.06
450.28	7157.36
450.46	7246.30
450.65	7096.50
450.83	7293.11
451.02	7171.40
451.20	7185.44
451.39	7220.55
451.57	7262.68
451.76	7133.95
451.94	7309.49
452.13	7304.81
452.31	7133.95
452.49	6974.80
452.68	7152.68
452.86	7045.01
453.05	7169.06
453.23	7164.38
453.42	7339.92
453.60	7330.56
453.78	7463.97
453.97	7386.73
454.15	7454.61
454.34	7232.26
454.52	7506.10
454.70	7454.61
454.89	7337.58
455.07	7531.84
455.26	7770.58
455.44	7695.68
455.62	7618.44
455.81	7744.83
455.99	7751.85
456.17	7712.07
456.36	7899.31
456.54	7915.69
456.73	8161.45
456.91	8063.15
457.09	8327.63
457.28	8191.88
457.46	7915.69
457.64	7953.14
457.83	7957.82
458.01	7985.91
458.19	8264.43
458.38	8259.75
458.56	8182.51
458.74	8355.71
458.93	8409.54
459.11	8259.75
459.29	8180.17
459.48	8416.57
459.66	8339.33
459.84	8276.13
460.03	8348.69
460.21	8589.77
460.39	8739.56
460.57	8360.39
460.76	8468.06
460.94	8823.82
461.12	8601.47
461.31	8667.00
461.49	8601.47
461.67	8568.70
461.85	8814.46
462.04	8945.53
462.22	9345.76
462.40	9252.14
462.59	8725.52
462.77	9020.42
462.95	8910.42
463.13	8849.57
463.32	8795.73
463.50	8915.10
463.68	8945.53
463.86	9067.24
464.05	8910.42
464.23	8954.89
464.41	8994.68
464.59	9057.87
464.78	8947.87
464.96	9123.41
465.14	9184.26
465.32	9036.81
465.50	9423.00
465.69	9100.00
465.87	9259.16
466.05	9277.88
466.23	9128.09
466.41	9156.18
466.60	9214.69
466.78	9053.19
466.96	9256.82
467.14	9193.62
467.32	9476.83
467.51	9383.21
467.69	9420.66
467.87	9455.76
468.05	9425.34
468.23	9369.16
468.41	9404.27
468.60	9593.86
468.78	9652.37
468.96	9563.43
469.14	9561.09
469.32	9640.67
469.50	9415.98
469.69	9554.07
469.87	9856.00
470.05	9764.72
470.23	9947.28
470.41	9844.29
470.59	9984.73
470.77	9664.07
470.95	10106.43
471.14	10167.29
471.32	9818.55
471.50	10361.55
471.68	10281.97
471.86	10445.81
472.04	10380.28
472.22	10665.82
472.40	10604.97
472.58	10415.38
472.77	10595.61
472.95	10499.64
473.13	10904.56
473.31	10544.11
473.49	10417.72
473.67	10597.95
473.85	10815.62
474.03	10853.06
474.21	10843.70
474.39	10946.69
474.57	11023.92
474.75	11075.42
474.93	11272.02
475.12	11131.59
475.30	11377.34
475.48	11234.57
475.66	11241.59
475.84	11293.08
476.02	11293.08
476.20	11428.84
476.38	11566.93
476.56	11833.75
476.74	12081.85
476.92	11833.75
477.10	11840.77
477.28	12131.00
477.46	12109.93
477.64	12315.90
477.82	12381.43
478.00	12690.38
478.18	12360.37
478.36	12610.81
478.54	12643.57
478.72	12564.00
478.90	12879.97
479.08	12891.67
479.26	12830.82
479.44	13095.30
479.62	13027.42
479.80	13352.76
479.98	13371.48
480.16	13678.09
480.34	13429.99
480.52	13937.89
480.70	13446.38
480.88	13422.97
481.06	13930.87
481.24	14038.53
481.41	14150.88
481.59	14471.53
481.77	14347.48
481.95	14141.52
482.13	14403.66
482.31	14508.98
482.49	14780.48
482.67	14726.65
482.85	15000.49
483.03	15393.70
483.21	15152.63
483.39	15211.14
483.57	15538.82
483.74	15723.72
483.92	15639.46
484.10	15611.37
484.28	16161.40
484.46	16004.58
484.64	16561.63
484.82	15999.90
485.00	16468.01
485.18	16442.26
485.35	16800.37
485.53	16280.77
485.71	16018.63
485.89	16716.11
486.07	16435.24
486.25	16800.37
486.43	16741.85
486.61	17263.79
486.78	17401.88
486.96	17453.37
487.14	17860.63
487.32	17568.06
487.50	18085.32
487.68	18230.43
487.85	18209.37
488.03	18471.51
488.21	18850.67
488.39	18738.33
488.57	18719.60
488.75	18745.35
488.92	19154.94
489.10	19136.22
489.28	19435.81
489.46	19466.24
489.64	19529.43
489.81	20093.50
489.99	20222.23
490.17	19840.72
490.35	20545.22
490.53	20137.97
490.70	20662.25
490.88	20533.52
491.06	20414.15
491.24	20444.58
491.41	20863.54
491.59	20908.01
491.77	20879.92
491.95	21331.64
492.13	21352.71
492.30	21752.94
492.48	21809.11
492.66	21804.43
492.84	21940.18
493.01	22104.02
493.19	22092.32
493.37	22396.59
493.54	22305.31
493.72	22686.81
493.90	22625.96
494.08	22663.41
494.25	23042.57
494.43	23131.51
494.61	23379.61
494.79	23388.97
494.96	23396.00
495.14	23407.70
495.32	23784.52
495.49	23545.79
495.67	23871.12
495.85	23847.72
496.02	24367.32
496.20	24601.37
496.38	24105.18
496.55	24683.29
496.73	25205.23
496.91	24865.85
497.09	25359.70
497.26	25074.16
497.44	25310.55
497.62	25163.10
497.79	25830.15
497.97	25376.09
498.14	25542.27
498.32	25638.23
498.50	25511.84
498.67	25989.31
498.85	26082.93
499.03	26342.73
499.20	26525.29
499.38	26022.08
499.56	26508.91
499.73	26499.55
499.91	26651.68
500.08	26647.00
500.26	26373.16
500.44	26394.22
500.61	26529.97
500.79	26726.58
500.97	27002.76
501.14	27321.07
501.32	27187.66
501.49	26850.63
501.67	27161.92
501.84	27332.78
502.02	27332.78
502.20	27639.39
502.37	28037.28
502.55	28093.45
502.72	27983.44
502.90	27967.06
503.07	28484.32
503.25	28404.74
503.43	27983.44
503.60	28243.24
503.78	27915.57
503.95	28278.35
504.13	28442.19
504.30	28811.99
504.48	28737.10
504.65	28959.45
504.83	29060.09
505.01	29139.67
505.18	28994.56
505.36	29490.75
505.53	29663.95
505.71	29720.12
505.88	29729.48
506.06	28982.85
506.23	29453.30
506.41	29355.00
506.58	29720.12
506.76	29766.93
506.93	30256.11
507.11	29839.49
507.28	30008.01
507.46	29773.95
507.63	29956.52
507.81	30064.18
507.98	30490.16
508.16	30668.04
508.33	30593.14
508.50	30785.07
508.68	30778.04
508.85	31115.08
509.03	30986.35
509.20	31372.54
509.38	31243.81
509.55	31318.71
509.73	31131.47
509.90	31503.61
510.08	31400.63
510.25	31634.68
510.42	31379.56
510.60	31740.00
510.77	31985.76
510.95	32034.91
511.12	31674.47
511.30	31887.46
511.47	32133.21
511.64	32524.08
511.82	32070.02
511.99	32091.09
512.17	32437.48
512.34	32259.60
512.51	32610.68
512.69	32971.13
512.86	32816.65
513.04	33497.75
513.21	32821.33
513.38	32723.03
513.56	33020.28
513.73	32701.96
513.90	33076.45
514.08	32989.85
514.25	33371.36
514.43	33404.13
514.60	33448.60
514.77	33153.69
514.95	33677.97
515.12	33193.48
515.29	33301.14
515.47	34054.79
515.64	34188.21
515.81	33766.91
515.99	34040.75
516.16	33621.80
516.33	33703.71
516.51	33383.06
516.68	33420.51
516.85	33453.28
517.03	33757.55
517.20	34199.91
517.37	34696.10
517.54	34309.91
517.72	34506.52
517.89	34319.28
518.06	34129.69
518.24	34235.02
518.41	34213.95
518.58	34436.30
518.75	34918.45
518.93	34747.59
519.10	34979.31
519.27	34946.54
519.45	34815.47
519.62	35206.34
519.79	35056.54
519.96	35529.33
520.14	35648.70
520.31	35445.07
520.48	35679.13
520.65	35229.74
520.83	35875.73
521.00	36119.15
521.17	35962.33
521.34	35978.72
521.52	36030.21
521.69	36341.50
521.86	36133.19
522.03	36114.47
522.20	36266.60
522.38	36715.98
522.55	36694.92
522.72	36870.46
522.89	36779.18
523.07	36739.39
523.24	36517.04
523.41	36947.70
523.58	36940.68
523.75	37333.89
523.92	37221.54
524.10	37586.66
524.27	37099.83
524.44	37394.74
524.61	37647.52
524.78	37331.54
524.96	37263.67
525.13	37600.71
525.30	38005.62
525.47	37724.75
525.64	37483.68
525.81	37729.44
525.98	37455.59
526.16	37514.11
526.33	37443.89
526.50	37890.93
526.67	37411.12
526.84	37422.83
527.01	37296.44
527.18	37900.29
527.36	38050.09
527.53	38541.60
527.70	38457.34
527.87	38508.83
528.04	38202.22
528.21	38419.89
528.38	38623.52
528.55	38848.21
528.72	38583.73
528.89	39253.12
529.07	38962.90
529.24	38848.21
529.41	38850.55
529.58	39054.18
529.75	39026.09
529.92	39604.20
530.09	39159.50
530.26	39203.97
530.43	39325.68
530.60	39117.37
530.77	39035.45
530.94	39868.69
531.11	39278.87
531.28	39182.91
531.46	39924.86
531.63	39751.66
531.80	39386.54
531.97	39351.43
532.14	39491.86
532.31	39328.02
532.48	39550.37
532.65	40208.06
532.82	39484.84
532.99	39807.83
533.16	39707.19
533.33	40175.30
533.50	40088.70
533.67	40018.48
533.84	39894.43
534.01	40414.03
534.18	39952.94
534.35	40208.06
534.52	40275.94
534.69	40615.32
534.86	40442.12
535.03	40446.80
535.20	40861.07
535.37	40891.50
535.54	40947.67
535.71	40556.80
535.88	40631.70
536.05	40676.17
536.22	40676.17
536.38	40868.09
536.55	41137.26
536.72	40821.28
536.89	40631.70
537.06	41099.81
537.23	41324.50
537.40	40889.16
537.57	41020.23
537.74	40666.81
537.91	41191.09
538.08	41251.94
538.25	41081.08
538.42	41303.43
538.59	41600.68
538.75	41392.37
538.92	41383.01
539.09	41715.37
539.26	41198.11
539.43	41509.40
539.60	41832.39
539.77	41184.07
539.94	41617.07
540.11	41486.00
540.28	41525.78
540.44	41869.84
540.61	41581.96
540.78	41855.80
540.95	41930.70
541.12	41663.88
541.29	41621.75
541.46	42197.52
541.62	41893.25
541.79	42241.99
541.96	42033.68
542.13	41830.05
542.30	42082.83
542.47	42431.57
542.63	42012.62
542.80	42139.00
542.97	42445.62
543.14	42763.93
543.31	42707.76
543.48	43206.29
543.64	43370.13
543.81	43084.58
543.98	43243.74
544.15	42939.47
544.32	43100.97
544.48	43105.65
544.65	43054.15
544.82	43152.46
544.99	42632.86
545.16	43386.51
545.32	42806.06
545.49	43583.12
545.66	43901.43
545.83	43447.36
546.00	43587.80
546.16	43077.56
546.33	43257.78
546.50	42763.93
546.67	43339.70
546.83	43180.54
547.00	43512.90
547.17	43232.04
547.34	43459.07
547.50	43505.88
547.67	43487.15
547.84	43377.15
548.00	43997.39
548.17	43665.03
548.34	44126.12
548.51	44278.25
548.67	43819.51
548.84	43885.04
549.01	43730.57
549.18	43737.59
549.34	44032.50
549.51	44306.34
549.68	43950.58
549.84	43800.79
550.01	44238.47
550.18	44222.08
550.34	43899.09
550.51	44491.24
550.68	43969.30
550.84	43723.55
551.01	43966.96
551.18	44126.12
551.34	44519.33
551.51	44451.45
551.68	44224.42
551.84	44570.82
552.01	44023.14
552.18	44016.11
552.34	44411.67
552.51	44388.26
552.68	44414.01
552.84	44252.51
553.01	45130.21
553.18	44624.65
553.34	44170.59
553.51	44360.17
553.67	44528.69
553.84	45020.20
554.01	44486.56
554.17	45132.55
554.34	45296.39
554.51	45111.49
554.67	44952.33
554.84	45333.84
555.00	44851.69
555.17	44421.03
555.33	44474.86
555.50	44397.62
555.67	45006.16
555.83	44910.20
556.00	45139.57
556.16	45181.70
556.33	45144.25
556.50	45141.91
556.66	45165.32
556.83	44898.50
556.99	45270.64
557.16	44839.98
557.32	44905.52
557.49	45441.50
557.65	44804.88
557.82	44708.91
557.98	45495.33
558.15	45476.61
558.32	45298.73
558.48	45298.73
558.65	45202.77
558.81	44713.59
558.98	45048.29
559.14	45022.54
559.31	45322.13
559.47	45474.27
559.64	45588.95
559.80	45439.16
559.97	45415.76
560.13	45123.19
560.30	45331.50
560.46	45495.33
560.63	45890.88
560.79	45446.18
560.96	45778.54
561.12	45595.98
561.29	45532.78
561.45	45432.14
561.61	45507.04
561.78	45528.10
561.94	45193.40
562.11	45041.27
562.27	45439.16
562.44	45492.99
562.60	45918.97
562.77	45586.61
562.93	45883.86
563.10	45961.10
563.26	45373.63
563.42	45794.92
563.59	45766.84
563.75	45514.06
563.92	45956.42
564.08	45883.86
564.24	45858.12
564.41	45727.05
564.57	45748.11
564.74	45886.20
564.90	45397.03
565.07	45876.84
565.23	45895.56
565.39	45778.54
565.56	45942.38
565.72	45497.67
565.88	45792.58
566.05	45832.37
566.21	46047.70
566.38	45811.31
566.54	45862.80
566.70	46520.49
566.87	46241.96
567.03	46021.95
567.19	46288.77
567.36	46024.29
567.52	45890.88
567.68	46288.77
567.85	45563.21
568.01	46110.89
568.17	45626.40
568.34	45869.82
568.50	45588.95
568.66	45888.54
568.83	46181.11
568.99	45525.76
569.15	45858.12
569.32	45956.42
569.48	45801.94
569.64	45741.09
569.81	45715.34
569.97	45380.65
570.13	45909.61
570.30	45694.28
570.46	45628.74
570.62	45591.30
570.78	45516.40
570.95	45312.77
571.11	45869.82
571.27	46000.89
571.43	45567.89
571.60	46160.05
571.76	46068.76
571.92	45696.62
572.09	46211.54
572.25	45907.27
572.41	46160.05
572.57	46511.13
572.74	46515.81
572.90	45867.48
573.06	46237.28
573.22	45965.78
573.38	45860.46
573.55	46183.45
573.71	46625.81
573.87	46202.18
574.03	46527.51
574.20	46340.27
574.36	46071.10
574.52	46623.47
574.68	46274.73
574.84	46337.93
575.01	45989.19
575.17	46401.12
575.33	46272.39
575.49	45958.76
575.65	46541.55
575.82	46579.00
575.98	46052.38
576.14	46569.64
576.30	46569.64
576.46	46263.03
576.62	45722.37
576.79	45741.09
576.95	46092.17
577.11	46017.27
577.27	46099.19
577.43	46138.98
577.59	46457.29
577.75	45993.87
577.92	45776.20
578.08	45916.63
578.24	46307.50
578.40	46113.23
578.56	46099.19
578.72	46148.34
578.88	46571.98
579.04	46440.91
579.21	46127.28
579.37	46368.35
579.53	46183.45
579.69	46106.21
579.85	46220.90
580.01	46579.00
580.17	46452.61
580.33	46436.23
580.49	46412.82
580.65	46527.51
580.82	46162.39
580.98	46274.73
581.14	46005.57
581.30	46291.12
581.46	46667.94
581.62	46164.73
581.78	46628.15
581.94	46469.00
582.10	46164.73
582.26	46705.39
582.42	46410.48
582.58	45895.56
582.74	46213.88
582.90	46337.93
583.06	46663.26
583.22	46347.29
583.38	46745.18
583.54	46855.18
583.70	46667.94
583.86	46293.46
584.02	46328.56
584.18	46609.43
584.34	46443.25
584.50	46426.87
584.66	46096.85
584.82	46124.94
584.98	46375.37
585.14	46625.81
585.30	46506.44
585.46	46375.37
585.62	45633.42
585.78	46148.34
585.94	45844.07
586.10	46270.05
586.26	46536.87
586.42	46075.79
586.58	46478.36
586.74	46417.50
586.90	46384.74
587.06	46607.09
587.22	46504.10
587.38	46546.23
587.54	46337.93
587.70	46321.54
587.86	46590.70
588.02	46483.04
588.18	46368.35
588.34	46351.97
588.49	45902.59
588.65	45563.21
588.81	45713.00
588.97	45436.82
589.13	45394.69
589.29	46185.79
589.45	46258.35
589.61	46469.00
589.77	46749.86
589.93	46450.27
