SpectraSuite Data File
++++++++++++++++++++++++++++++++++++
Date: Fri Oct 25 10:44:50 EDT 2013
User: price-jones
Dark Spectrum Present: No
Reference Spectrum Present: No
Number of Sampled Component Spectra: 1
Spectrometers: USB2+H05261
Integration Time (usec): 100000 (USB2+H05261)
Spectra Averaged: 1 (USB2+H05261)
Boxcar Smoothing: 0 (USB2+H05261)
Correct for Electrical Dark: No (USB2+H05261)
Strobe/Lamp Enabled: No (USB2+H05261)
Correct for Detector Non-linearity: No (USB2+H05261)
Correct for Stray Light: No (USB2+H05261)
Number of Pixels in Processed Spectrum: 2048
>>>>>Begin Processed Spectral Data<<<<<
365.73	156.82
365.92	156.82
366.12	156.82
366.32	67.88
366.52	124.05
366.72	51.49
366.91	32.77
367.11	0.00
367.31	79.58
367.51	46.81
367.70	14.04
367.90	11.70
368.10	51.49
368.30	35.11
368.49	25.75
368.69	37.45
368.89	70.22
369.09	0.00
369.28	86.60
369.48	56.17
369.68	114.69
369.87	77.24
370.07	114.69
370.27	140.43
370.47	191.92
370.66	292.57
370.86	400.23
371.06	463.43
371.25	447.04
371.45	400.23
371.65	458.74
371.84	451.72
372.04	489.17
372.24	425.98
372.44	456.40
372.63	519.60
372.83	500.87
373.03	440.02
373.22	440.02
373.42	486.83
373.62	463.43
373.81	524.28
374.01	535.98
374.21	557.05
374.40	580.45
374.60	610.88
374.79	608.54
374.99	538.32
375.19	585.13
375.38	510.24
375.58	624.92
375.78	554.71
375.97	564.07
376.17	582.79
376.37	568.75
376.56	603.86
376.76	594.50
376.95	596.84
377.15	664.71
377.35	629.60
377.54	617.90
377.74	571.09
377.93	552.37
378.13	587.47
378.33	636.63
378.52	620.24
378.72	606.20
378.91	641.31
379.11	610.88
379.31	589.82
379.50	582.79
379.70	657.69
379.89	608.54
380.09	688.12
380.28	662.37
380.48	622.58
380.68	676.41
380.87	608.54
381.07	699.82
381.26	676.41
381.46	638.97
381.65	674.07
381.85	608.54
382.04	587.47
382.24	575.77
382.43	681.10
382.63	629.60
382.83	739.61
383.02	727.91
383.22	706.84
383.41	730.25
383.61	718.54
383.80	823.87
384.00	688.12
384.19	662.37
384.39	685.78
384.58	718.54
384.78	709.18
384.97	758.33
385.17	763.01
385.36	767.70
385.56	711.52
385.75	741.95
385.95	809.83
386.14	791.10
386.34	793.44
386.53	819.19
386.72	866.00
386.92	905.79
387.11	805.14
387.31	830.89
387.50	798.12
387.70	791.10
387.89	858.98
388.09	718.54
388.28	774.72
388.48	863.66
388.67	873.02
388.86	889.40
389.06	898.77
389.25	910.47
389.45	821.53
389.64	880.04
389.84	983.02
390.03	945.58
390.22	971.32
390.42	858.98
390.61	882.38
390.81	887.06
391.00	868.34
391.19	1018.13
391.39	980.68
391.58	924.51
391.78	901.11
391.97	1086.01
392.16	856.64
392.36	1013.45
392.55	917.49
392.75	1001.75
392.94	976.00
393.13	889.40
393.33	1004.09
393.52	971.32
393.71	1011.11
393.91	992.39
394.10	997.07
394.29	978.34
394.49	1011.11
394.68	1107.07
394.88	1069.62
395.07	1177.29
395.26	1193.67
395.46	1095.37
395.65	1238.14
395.84	1104.73
396.04	1174.95
396.23	1116.44
396.42	1027.50
396.62	1057.92
396.81	1142.18
397.00	1165.59
397.19	1193.67
397.39	1214.74
397.58	1289.64
397.77	1277.93
397.97	1249.85
398.16	1301.34
398.35	1331.76
398.55	1324.74
398.74	1409.00
398.93	1392.62
399.12	1380.92
399.32	1380.92
399.51	1444.11
399.70	1345.81
399.90	1322.40
400.09	1373.89
400.28	1418.36
400.47	1458.15
400.67	1500.28
400.86	1434.75
401.05	1462.83
401.24	1434.75
401.44	1568.16
401.63	1537.73
401.82	1490.92
402.01	1481.56
402.21	1497.94
402.40	1535.39
402.59	1474.54
402.78	1511.99
402.97	1514.33
403.17	1549.43
403.36	1600.93
403.55	1678.16
403.74	1692.21
403.93	1633.69
404.13	1671.14
404.32	1661.78
404.51	1710.93
404.70	1708.59
404.89	1657.10
405.09	1832.64
405.28	1678.16
405.47	1724.97
405.66	1818.60
405.85	1832.64
406.05	1778.81
406.24	1879.45
406.43	1856.04
406.62	1813.92
406.81	1961.37
407.00	1806.89
407.20	1827.96
407.39	1769.44
407.58	1905.20
407.77	1923.92
407.96	2005.84
408.15	1877.11
408.34	1937.96
408.54	1987.11
408.73	1959.03
408.92	2008.18
409.11	2038.61
409.30	1968.39
409.49	2022.22
409.68	1947.33
409.87	2054.99
410.07	2036.27
410.26	2057.33
410.45	2108.82
410.64	2132.23
410.83	2216.49
411.02	2179.04
411.21	2389.69
411.40	2258.62
411.59	2347.56
411.78	2289.04
411.98	2246.91
412.17	2340.54
412.36	2399.05
412.55	2410.75
412.74	2516.08
412.93	2448.20
413.12	2377.98
413.31	2562.89
413.50	2523.10
413.69	2539.48
413.88	2612.04
414.07	2581.61
414.26	2583.95
414.45	2530.12
414.64	2541.82
414.83	2656.51
415.02	2719.70
415.22	2806.30
415.41	2822.69
415.60	2850.77
415.79	2794.60
415.98	2740.77
416.17	2827.37
416.36	2801.62
416.55	2867.16
416.74	2871.84
416.93	3014.61
417.12	2939.71
417.31	2986.52
417.50	2946.73
417.69	3089.51
417.88	3091.85
418.07	3094.19
418.26	3194.83
418.45	3112.91
418.64	3190.15
418.83	3112.91
419.02	3180.79
419.21	3274.41
419.39	3370.37
419.58	3091.85
419.77	3269.73
419.96	3297.81
420.15	3328.24
420.34	3323.56
420.53	3337.60
420.72	3330.58
420.91	3267.39
421.10	3459.31
421.29	3351.65
421.48	3496.76
421.67	3396.12
421.86	3351.65
422.05	3428.88
422.24	3440.59
422.43	3421.86
422.61	3407.82
422.80	3559.95
422.99	3559.95
423.18	3564.64
423.37	3623.15
423.56	3592.72
423.75	3449.95
423.94	3485.06
424.13	3272.07
424.32	3351.65
424.50	3733.15
424.69	3583.36
424.88	3641.87
425.07	3543.57
425.26	3597.40
425.45	3473.36
425.64	3545.91
425.83	3499.10
426.01	3644.21
426.20	3571.66
426.39	3702.73
426.58	3564.64
426.77	3644.21
426.96	3702.73
427.15	3676.98
427.33	3672.30
427.52	3730.81
427.71	3770.60
427.90	3747.20
428.09	3840.82
428.28	3803.37
428.46	3796.35
428.65	3847.84
428.84	3840.82
429.03	3941.46
429.22	3784.65
429.40	3861.88
429.59	3798.69
429.78	3545.91
429.97	3616.13
430.16	3672.30
430.34	3852.52
430.53	3906.35
430.72	3817.41
430.91	3892.31
431.10	4004.66
431.28	4177.86
431.47	4018.70
431.66	4280.84
431.85	4156.79
432.03	4194.24
432.22	4063.17
432.41	4365.10
432.60	4245.73
432.79	4294.88
432.97	4348.72
433.16	4205.94
433.35	4112.32
433.54	4217.65
433.72	4236.37
433.91	4294.88
434.10	4306.59
434.28	4276.16
434.47	4421.27
434.66	4559.36
434.85	4493.83
435.03	4521.92
435.22	4557.02
435.41	4655.33
435.59	4589.79
435.78	4571.07
435.97	4564.04
436.16	4660.01
436.34	4606.17
436.53	4695.11
436.72	4814.48
436.90	4540.64
437.09	4709.16
437.28	4538.30
437.46	4624.90
437.65	4650.64
437.84	4594.47
438.02	4784.06
438.21	4823.84
438.40	4706.82
438.58	4863.63
438.77	4924.49
438.96	4882.36
439.14	4987.68
439.33	5116.41
439.52	4947.89
439.70	5001.72
439.89	5186.63
440.08	5210.03
440.26	5064.92
440.45	5149.18
440.63	5289.61
440.82	5359.83
441.01	5303.65
441.19	5472.17
441.38	5502.60
441.57	5371.53
441.75	5593.88
441.94	5778.78
442.12	5781.12
442.31	5612.60
442.50	5603.24
442.68	5738.99
442.87	5738.99
443.05	5825.59
443.24	5783.46
443.43	5809.21
443.61	5591.54
443.80	6057.31
443.98	5680.48
444.17	5703.89
444.35	5907.51
444.54	6059.65
444.73	5856.02
444.91	5870.06
445.10	5760.06
445.28	5790.49
445.47	5657.07
445.65	5980.07
445.84	5877.09
446.02	6099.44
446.21	5926.24
446.39	5813.89
446.58	6005.81
446.77	6115.82
446.95	5935.60
447.14	5961.34
447.32	6134.54
447.51	6181.35
447.69	5881.77
447.88	6085.39
448.06	6097.10
448.25	6040.92
448.43	6190.72
448.62	6230.51
448.80	6085.39
448.99	6083.05
449.17	6296.04
449.36	6164.97
449.54	6237.53
449.73	6314.77
449.91	6380.30
450.10	6377.96
450.28	6382.64
450.46	6555.84
450.65	6530.09
450.83	6469.24
451.02	6396.68
451.20	6616.69
451.39	6560.52
451.57	6506.69
451.76	6546.48
451.94	6707.98
452.13	6384.98
452.31	6558.18
452.49	6525.41
452.68	6558.18
452.86	6579.25
453.05	6520.73
453.23	6773.51
453.42	6630.74
453.60	6644.78
453.78	6778.19
453.97	6612.01
454.15	6703.29
454.34	6684.57
454.52	6867.13
454.70	6918.62
454.89	6733.72
455.07	6883.52
455.26	6846.07
455.44	6942.03
455.62	6857.77
455.81	6974.80
455.99	6949.05
456.17	7009.90
456.36	7162.04
456.54	7243.96
456.73	7140.97
456.91	7543.55
457.09	7360.98
457.28	7417.16
457.46	7255.66
457.64	7297.79
457.83	7211.19
458.01	7183.10
458.19	7480.35
458.38	7346.94
458.56	7506.10
458.74	7550.57
458.93	7517.80
459.11	7389.07
459.29	7634.83
459.48	7527.16
459.66	7658.23
459.84	7456.95
460.03	7763.56
460.21	7639.51
460.39	7726.11
460.57	7700.36
460.76	7803.35
460.94	7796.32
461.12	7903.99
461.31	7918.03
461.49	7885.26
461.67	7819.73
461.85	7859.52
462.04	7894.63
462.22	8013.99
462.40	8091.23
462.59	8037.40
462.77	8208.26
462.95	8046.76
463.13	8124.00
463.32	8060.80
463.50	8208.26
463.68	8009.31
463.86	8159.11
464.05	8046.76
464.23	8032.72
464.41	8278.47
464.59	7983.57
464.78	8540.61
464.96	8163.79
465.14	8124.00
465.32	8400.18
465.50	8418.91
465.69	8395.50
465.87	8468.06
466.05	8187.19
466.23	8280.82
466.41	8149.75
466.60	8566.36
466.78	8418.91
466.96	8435.29
467.14	8477.42
467.32	8451.67
467.51	8568.70
467.69	8432.95
467.87	8498.49
468.05	8889.35
468.23	8514.87
468.41	8688.07
468.60	8655.30
468.78	8791.05
468.96	8685.73
469.14	8746.58
469.32	8788.71
469.50	8861.27
469.69	8954.89
469.87	9041.49
470.05	8823.82
470.23	8854.25
470.41	9109.36
470.59	9207.67
470.77	9050.85
470.95	8940.85
471.14	9118.73
471.32	8982.98
471.50	9296.61
471.68	9266.18
471.86	9252.14
472.04	9533.00
472.22	9699.18
472.40	9329.38
472.58	9507.26
472.77	9682.80
472.95	9516.62
473.13	9916.85
473.31	9523.64
473.49	9626.62
473.67	9633.64
473.85	9715.56
474.03	10099.41
474.21	10024.51
474.39	10146.22
474.57	10012.81
474.75	10300.70
474.93	10455.17
475.12	10099.41
475.30	10326.44
475.48	10134.52
475.66	10256.23
475.84	10326.44
476.02	10324.10
476.20	10361.55
476.38	10600.29
476.56	10937.32
476.74	10874.13
476.92	10696.25
477.10	10644.76
477.28	11171.38
477.46	11000.52
477.64	11241.59
477.82	11382.03
478.00	11370.32
478.18	11295.43
478.36	11431.18
478.54	11793.96
478.72	11761.19
478.90	11850.13
479.08	11999.93
479.26	11793.96
479.44	12053.76
479.62	12074.82
479.80	12203.55
479.98	12369.73
480.16	12311.22
480.34	12425.90
480.52	12430.59
480.70	12622.51
480.88	12336.96
481.06	12671.66
481.24	12613.15
481.41	12922.10
481.59	13036.78
481.77	13125.72
481.95	13188.92
482.13	13387.86
482.31	13490.85
482.49	13596.17
482.67	13444.04
482.85	13937.89
483.03	13825.54
483.21	13977.68
483.39	14083.00
483.57	14010.45
483.74	14176.62
483.92	14614.30
484.10	14218.75
484.28	14621.33
484.46	14593.24
484.64	15133.90
484.82	14581.54
485.00	15192.42
485.18	14874.10
485.35	15143.27
485.53	15054.33
485.71	15208.80
485.89	15529.45
486.07	15295.40
486.25	15501.37
486.43	15358.60
486.61	15934.37
486.78	16058.42
486.96	15971.82
487.14	16615.46
487.32	16266.72
487.50	16615.46
487.68	16355.66
487.85	16872.92
488.03	17123.36
488.21	17319.96
488.39	17177.19
488.57	17282.52
488.75	17474.44
488.92	17909.78
489.10	17802.11
489.28	17954.25
489.46	17951.91
489.64	17891.06
489.81	18478.53
489.99	18298.31
490.17	18508.96
490.35	18745.35
490.53	18707.90
490.70	18909.19
490.88	18850.67
491.06	18885.78
491.24	19000.47
491.41	19283.67
491.59	18970.04
491.77	19115.16
491.95	19594.96
492.13	19227.50
492.30	19826.68
492.48	19798.59
492.66	20044.35
492.84	20114.56
493.01	20418.83
493.19	20620.12
493.37	20388.41
493.54	20755.87
493.72	21027.37
493.90	20938.43
494.08	21064.82
494.25	21404.20
494.43	21341.00
494.61	21483.78
494.79	21694.43
494.96	21649.96
495.14	21816.13
495.32	22008.06
495.49	21694.43
495.67	22490.21
495.85	22487.87
496.02	22384.88
496.20	22632.98
496.38	22764.05
496.55	22848.31
496.73	23122.15
496.91	23145.56
497.09	22874.06
497.26	23150.24
497.44	22960.66
497.62	23318.76
497.79	23342.16
497.97	23253.22
498.14	23529.41
498.32	23946.02
498.50	23814.95
498.67	24313.48
498.85	24025.60
499.03	24166.03
499.20	24355.61
499.38	24245.61
499.56	24547.54
499.73	24350.93
499.91	24584.99
500.08	24896.28
500.26	24542.86
500.44	24533.50
500.61	24489.03
500.79	25043.73
500.97	24959.47
501.14	25298.85
501.32	25153.74
501.49	25338.64
501.67	25207.57
501.84	25640.57
502.02	25401.83
502.20	25806.75
502.37	25642.91
502.55	25851.22
502.72	26082.93
502.90	26134.42
503.07	25846.54
503.25	26237.41
503.43	26312.30
503.60	26157.83
503.78	26108.68
503.95	25724.83
504.13	26815.52
504.30	26504.23
504.48	26920.84
504.65	27185.32
504.83	27211.07
505.01	27110.43
505.18	27346.82
505.36	27501.29
505.53	27061.27
505.71	27578.53
505.88	27660.45
506.06	27325.75
506.23	27576.19
506.41	27672.15
506.58	27857.06
506.76	27695.56
506.93	27676.83
507.11	27880.46
507.28	27990.47
507.46	28587.30
507.63	28135.58
507.81	28503.04
507.98	28187.07
508.16	28451.55
508.33	28278.35
508.50	28697.31
508.68	28685.61
508.85	29366.70
509.03	29177.12
509.20	29120.95
509.38	29383.09
509.55	29287.12
509.73	29399.47
509.90	29385.43
510.08	29057.75
510.25	29350.32
510.42	29490.75
510.60	29610.12
510.77	29785.66
510.95	29860.55
511.12	29373.72
511.30	29968.22
511.47	30218.66
511.64	30199.93
511.82	30319.30
511.99	30277.17
512.17	30314.62
512.34	30328.66
512.51	30366.11
512.69	30738.26
512.86	30639.95
513.04	30895.07
513.21	30766.34
513.38	30515.90
513.56	30611.87
513.73	30834.22
513.90	31044.87
514.08	30766.34
514.25	31047.21
514.43	31087.00
514.60	31166.57
514.77	30930.18
514.95	31491.91
515.12	31419.35
515.29	31395.95
515.47	32086.40
515.64	32006.83
515.81	31517.65
515.99	31590.21
516.16	31742.35
516.33	31679.15
516.51	31819.58
516.68	31693.19
516.85	31517.65
517.03	32299.39
517.20	31983.42
517.37	32039.59
517.54	32247.90
517.72	32222.16
517.89	32208.11
518.06	32208.11
518.24	32081.72
518.41	32290.03
518.58	32423.44
518.75	32222.16
518.93	33235.61
519.10	32877.51
519.27	33127.94
519.45	32950.06
519.62	33294.12
519.79	32966.45
519.96	33106.88
520.14	33539.88
520.31	33404.13
520.48	33401.79
520.65	33418.17
520.83	33720.10
521.00	33827.76
521.17	33509.45
521.34	34103.95
521.52	34029.05
521.69	33659.24
521.86	34473.75
522.03	34298.21
522.20	33874.57
522.38	34202.25
522.55	34265.44
522.72	34391.83
522.89	34487.79
523.07	34550.99
523.24	34295.87
523.41	34700.78
523.58	34478.43
523.75	35138.46
523.92	34817.81
524.10	35370.18
524.27	35005.05
524.44	35065.91
524.61	35152.51
524.78	34930.16
524.96	35166.55
525.13	35278.89
525.30	35606.57
525.47	35381.88
525.64	35456.78
525.81	35442.73
525.98	35599.55
526.16	35339.75
526.33	35786.79
526.50	35747.00
526.67	35056.54
526.84	35875.73
527.01	35461.46
527.18	35871.05
527.36	36208.09
527.53	35962.33
527.70	36378.95
527.87	36198.73
528.04	36409.37
528.21	36383.63
528.38	36528.74
528.55	36334.48
528.72	36154.26
528.89	37092.81
529.07	36189.36
529.24	36652.79
529.41	36774.50
529.58	36517.04
529.75	36786.20
529.92	36495.97
530.09	36774.50
530.26	37153.66
530.43	36755.77
530.60	37038.98
530.77	36629.38
530.94	37535.17
531.11	36854.08
531.28	37371.33
531.46	37635.81
531.63	37420.48
531.80	36914.93
531.97	37263.67
532.14	37315.16
532.31	37640.50
532.48	37383.04
532.65	37476.66
532.82	37544.53
532.99	37785.61
533.16	37610.07
533.33	37628.79
533.50	37694.33
533.67	37872.21
533.84	37806.67
534.01	38139.03
534.18	38040.73
534.35	37972.85
534.52	38199.88
534.69	38553.30
534.86	38494.79
535.03	38260.74
535.20	38211.59
535.37	38333.29
535.54	38969.92
535.71	38410.53
535.88	38513.52
536.05	38660.97
536.22	38646.93
536.38	38220.95
536.55	38855.23
536.72	38492.45
536.89	38557.99
537.06	39084.61
537.23	39145.46
537.40	38792.04
537.57	38972.26
537.74	38721.82
537.91	39365.47
538.08	38880.98
538.25	38871.62
538.42	39164.18
538.59	38981.62
538.75	38546.28
538.92	39040.14
539.09	39166.52
539.26	39330.36
539.43	39215.68
539.60	39445.05
539.77	39356.11
539.94	39346.75
540.11	39105.67
540.28	39454.41
540.44	39091.63
540.61	39744.64
540.78	39648.68
540.95	39562.08
541.12	39786.77
541.29	40105.08
541.46	39840.60
541.62	39723.57
541.79	39826.56
541.96	39622.93
542.13	39498.88
542.30	39819.53
542.47	39929.54
542.63	40327.43
542.80	40123.80
542.97	40556.80
543.14	40669.15
543.31	40472.54
543.48	40233.81
543.64	41050.66
543.81	41507.06
543.98	40772.13
544.15	40514.67
544.32	40793.20
544.48	41226.20
544.65	40643.40
544.82	40512.33
544.99	40830.65
545.16	41118.53
545.32	40924.27
545.49	41219.17
545.66	41432.16
545.83	41399.40
546.00	41139.60
546.16	41144.28
546.33	40648.08
546.50	41050.66
546.67	41408.76
546.83	41181.73
547.00	41167.68
547.17	41216.83
547.34	41628.77
547.50	41165.34
547.67	41865.16
547.84	41638.13
548.00	41654.51
548.17	42021.98
548.34	41750.48
548.51	41914.31
548.67	41991.55
548.84	42244.33
549.01	41848.78
549.18	41979.85
549.34	42014.96
549.51	42087.51
549.68	41874.52
549.84	41881.55
550.01	42169.43
550.18	41916.65
550.34	41958.78
550.51	41851.12
550.68	41937.72
550.84	41764.52
551.01	42089.85
551.18	42167.09
551.34	42230.29
551.51	42120.28
551.68	42501.79
551.84	42703.07
552.01	42394.12
552.18	42314.55
552.34	42265.39
552.51	42632.86
552.68	42466.68
552.84	42756.91
553.01	42728.82
553.18	42347.31
553.34	42724.14
553.51	42206.88
553.67	42096.88
553.84	42349.65
554.01	42962.87
554.17	42651.58
554.34	42796.70
554.51	43007.34
554.67	43026.07
554.84	42630.52
555.00	42506.47
555.17	42600.09
555.33	43143.09
555.50	42958.19
555.67	42958.19
555.83	43072.88
556.00	42939.47
556.16	43082.24
556.33	43133.73
556.50	43047.13
556.66	43175.86
556.83	42529.87
556.99	43395.87
557.16	43241.40
557.32	43143.09
557.49	43421.62
557.65	42948.83
557.82	43257.78
557.98	43302.25
558.15	43316.29
558.32	43323.32
558.48	43145.44
558.65	43316.29
558.81	43480.13
558.98	43150.12
559.14	43524.60
559.31	42937.13
559.47	43215.65
559.64	43718.87
559.80	43758.66
559.97	43882.70
560.13	43234.38
560.30	43152.46
560.46	43777.38
560.63	43531.62
560.79	43779.72
560.96	43924.83
561.12	43515.24
561.29	43463.75
561.45	43676.74
561.61	43510.56
561.78	43810.15
561.94	43758.66
562.11	43599.50
562.27	43461.41
562.44	43831.21
562.60	43971.64
562.77	43753.97
562.93	43849.94
563.10	43854.62
563.26	43356.08
563.42	44079.31
563.59	43845.26
563.75	43779.72
563.92	43655.67
564.08	43903.77
564.24	43983.35
564.41	44236.12
564.57	43814.83
564.74	43686.10
564.90	43889.73
565.07	44261.87
565.23	43990.37
565.39	44027.82
565.56	44165.91
565.72	43878.02
565.88	44158.89
566.05	44048.88
566.21	43634.61
566.38	43966.96
566.54	43927.17
566.70	43948.24
566.87	44538.05
567.03	44371.88
567.19	44762.75
567.36	44360.17
567.52	43859.30
567.68	44367.20
567.85	43658.01
568.01	44196.34
568.17	44105.06
568.34	44519.33
568.50	44023.14
568.66	44098.03
568.83	43908.45
568.99	44044.20
569.15	43725.89
569.32	43971.64
569.48	44362.51
569.64	44664.44
569.81	44275.91
569.97	44524.01
570.13	44135.48
570.30	43770.36
570.46	44037.18
570.62	43807.81
570.78	43583.12
570.95	43999.73
571.11	44385.92
571.27	44222.08
571.43	44095.69
571.60	44011.43
571.76	44336.77
571.92	44423.37
572.09	44257.19
572.25	44404.64
572.41	44327.41
572.57	44194.00
572.74	44582.52
572.90	44423.37
573.06	44683.17
573.22	44154.21
573.38	44098.03
573.55	44264.21
573.71	44360.17
573.87	44353.15
574.03	44217.40
574.20	44442.09
574.36	44514.65
574.52	44406.98
574.68	44498.26
574.84	44552.10
575.01	44346.13
575.17	44350.81
575.33	44128.46
575.49	44533.37
575.65	44573.16
575.82	44701.89
575.98	44369.54
576.14	44488.90
576.30	44416.35
576.46	44540.39
576.62	44638.70
576.79	44507.63
576.95	43962.28
577.11	44582.52
577.27	44222.08
577.43	44624.65
577.59	44486.56
577.75	44678.49
577.92	43959.94
578.08	44423.37
578.24	44299.32
578.40	44584.86
578.56	44477.20
578.72	44163.57
578.88	44802.53
579.04	44835.30
579.21	44989.78
579.37	44657.42
579.53	44741.68
579.69	44025.48
579.85	44325.07
580.01	44306.34
580.17	44603.59
580.33	44514.65
580.49	44914.88
580.65	44989.78
580.82	44526.35
580.98	44147.18
581.14	44540.39
581.30	44872.75
581.46	45008.50
581.62	44411.67
581.78	44755.72
581.94	44758.06
582.10	44552.10
582.26	44720.62
582.42	44409.32
582.58	44591.89
582.74	44676.15
582.90	45162.98
583.06	44727.64
583.22	44554.44
583.38	44931.26
583.54	44694.87
583.70	44512.31
583.86	44994.46
584.02	44289.96
584.18	44802.53
584.34	44477.20
584.50	44769.77
584.66	44760.40
584.82	44432.73
584.98	44718.28
585.14	44655.08
585.30	44542.74
585.46	44861.05
585.62	44247.83
585.78	45008.50
585.94	44767.43
586.10	44549.76
586.26	44495.92
586.42	44776.79
586.58	45010.84
586.74	44790.83
586.90	44390.60
587.06	44406.98
587.22	44807.22
587.38	44463.16
587.54	44648.06
587.70	44877.43
587.86	45141.91
588.02	45256.60
588.18	44912.54
588.34	44722.96
588.49	44322.72
588.65	44128.46
588.81	44353.15
588.97	44301.66
589.13	44587.21
589.29	44463.16
589.45	44634.02
589.61	44935.95
589.77	44952.33
589.93	44973.39
590.08	45064.67
590.24	44847.00
