SpectraSuite Data File
++++++++++++++++++++++++++++++++++++
Date: Fri Oct 25 10:47:17 EDT 2013
User: price-jones
Dark Spectrum Present: No
Reference Spectrum Present: No
Number of Sampled Component Spectra: 1
Spectrometers: USB2+H05261
Integration Time (usec): 100000 (USB2+H05261)
Spectra Averaged: 1 (USB2+H05261)
Boxcar Smoothing: 0 (USB2+H05261)
Correct for Electrical Dark: No (USB2+H05261)
Strobe/Lamp Enabled: No (USB2+H05261)
Correct for Detector Non-linearity: No (USB2+H05261)
Correct for Stray Light: No (USB2+H05261)
Number of Pixels in Processed Spectrum: 2048
>>>>>Begin Processed Spectral Data<<<<<
365.73	149.79
365.92	149.79
366.12	149.79
366.32	0.00
366.52	28.09
366.72	2.34
366.91	0.00
367.11	0.00
367.31	49.15
367.51	77.24
367.70	9.36
367.90	79.58
368.10	0.00
368.30	32.77
368.49	72.56
368.69	131.07
368.89	88.94
369.09	0.00
369.28	65.54
369.48	114.69
369.68	81.92
369.87	147.45
370.07	126.39
370.27	175.54
370.47	194.26
370.66	304.27
370.86	447.04
371.06	386.19
371.25	437.68
371.45	414.27
371.65	421.30
371.84	440.02
372.04	362.78
372.24	477.47
372.44	402.57
372.63	440.02
372.83	451.72
373.03	533.64
373.22	397.89
373.42	456.40
373.62	526.62
373.81	482.15
374.01	482.15
374.21	510.24
374.40	519.60
374.60	498.53
374.79	587.47
374.99	500.87
375.19	587.47
375.38	524.28
375.58	498.53
375.78	613.22
375.97	503.22
376.17	603.86
376.37	578.11
376.56	575.77
376.76	627.26
376.95	561.73
377.15	606.20
377.35	585.13
377.54	557.05
377.74	606.20
377.93	596.84
378.13	557.05
378.33	622.58
378.52	573.43
378.72	688.12
378.91	575.77
379.11	641.31
379.31	552.37
379.50	568.75
379.70	631.94
379.89	608.54
380.09	601.52
380.28	594.50
380.48	592.16
380.68	638.97
380.87	634.29
381.07	606.20
381.26	636.63
381.46	634.29
381.65	664.71
381.85	622.58
382.04	620.24
382.24	739.61
382.43	655.35
382.63	653.01
382.83	681.10
383.02	727.91
383.22	739.61
383.41	578.11
383.61	641.31
383.80	676.41
384.00	617.90
384.19	653.01
384.39	713.86
384.58	737.27
384.78	784.08
384.97	706.84
385.17	720.88
385.36	702.16
385.56	706.84
385.75	727.91
385.95	800.46
386.14	744.29
386.34	823.87
386.53	840.25
386.72	758.33
386.92	748.97
387.11	727.91
387.31	732.59
387.50	821.53
387.70	779.40
387.89	751.31
388.09	772.38
388.28	809.83
388.48	807.48
388.67	833.23
388.86	795.78
389.06	765.36
389.25	891.74
389.45	870.68
389.64	826.21
389.84	851.96
390.03	875.36
390.22	870.68
390.42	868.34
390.61	842.59
390.81	851.96
391.00	929.19
391.19	882.38
391.39	924.51
391.58	880.04
391.78	929.19
391.97	868.34
392.16	924.51
392.36	999.41
392.55	898.77
392.75	910.47
392.94	880.04
393.13	1034.52
393.33	973.66
393.52	1050.90
393.71	997.07
393.91	1029.84
394.10	1001.75
394.29	966.64
394.49	990.05
394.68	1036.86
394.88	1060.26
395.07	1083.67
395.26	1055.58
395.46	1043.88
395.65	1144.52
395.84	1064.94
396.04	1207.72
396.23	1090.69
396.42	1093.03
396.62	1132.82
396.81	1064.94
397.00	1114.10
397.19	1109.41
397.39	1137.50
397.58	1165.59
397.77	1165.59
397.97	1191.33
398.16	1170.27
398.35	1224.10
398.55	1231.12
398.74	1282.61
398.93	1247.51
399.12	1196.01
399.32	1114.10
399.51	1273.25
399.70	1280.27
399.90	1280.27
400.09	1306.02
400.28	1306.02
400.47	1341.13
400.67	1352.83
400.86	1324.74
401.05	1427.73
401.24	1383.26
401.44	1369.21
401.63	1348.15
401.82	1387.94
402.01	1369.21
402.21	1411.34
402.40	1458.15
402.59	1533.05
402.78	1467.52
402.97	1397.30
403.17	1441.77
403.36	1474.54
403.55	1493.26
403.74	1600.93
403.93	1556.46
404.13	1544.75
404.32	1530.71
404.51	1586.88
404.70	1535.39
404.89	1551.78
405.09	1614.97
405.28	1715.61
405.47	1619.65
405.66	1643.06
405.85	1652.42
406.05	1638.38
406.24	1621.99
406.43	1591.56
406.62	1685.19
406.81	1748.38
407.00	1781.15
407.20	1732.00
407.39	1694.55
407.58	1830.30
407.77	1767.10
407.96	1909.88
408.15	1858.39
408.34	1877.11
408.54	1860.73
408.73	1980.09
408.92	1961.37
409.11	1872.43
409.30	1942.64
409.49	1980.09
409.68	1940.30
409.87	2010.52
410.07	2001.16
410.26	2057.33
410.45	2001.16
410.64	2076.06
410.83	2125.21
411.02	2024.56
411.21	2150.95
411.40	2071.37
411.59	2228.19
411.78	2183.72
411.98	2211.81
412.17	2209.47
412.36	2172.02
412.55	2225.85
412.74	2244.57
412.93	2284.36
413.12	2289.04
413.31	2277.34
413.50	2415.43
413.69	2380.32
413.88	2296.07
414.07	2478.63
414.26	2476.29
414.45	2551.18
414.64	2436.50
414.83	2499.69
415.02	2628.42
415.22	2555.86
415.41	2630.76
415.60	2593.31
415.79	2710.34
415.98	2715.02
416.17	2743.11
416.36	2658.85
416.55	2764.17
416.74	2813.32
416.93	2689.28
417.12	2834.39
417.31	2808.64
417.50	2693.96
417.69	2857.79
417.88	2906.95
418.07	2820.35
418.26	2972.48
418.45	2981.84
418.64	3131.64
418.83	3012.27
419.02	3105.89
419.21	3033.33
419.39	3063.76
419.58	3119.93
419.77	3052.06
419.96	2981.84
420.15	3192.49
420.34	3070.78
420.53	3148.02
420.72	3185.47
420.91	3222.92
421.10	3157.38
421.29	3293.13
421.48	3211.22
421.67	3211.22
421.86	3295.47
422.05	3234.62
422.24	3159.72
422.43	3370.37
422.61	3361.01
422.80	3417.18
422.99	3358.67
423.18	3389.10
423.37	3412.50
423.56	3314.20
423.75	3351.65
423.94	3272.07
424.13	3206.53
424.32	3098.87
424.50	3316.54
424.69	3353.99
424.88	3321.22
425.07	3405.48
425.26	3400.80
425.45	3384.41
425.64	3356.33
425.83	3456.97
426.01	3454.63
426.20	3384.41
426.39	3475.70
426.58	3368.03
426.77	3384.41
426.96	3438.25
427.15	3396.12
427.33	3545.91
427.52	3595.06
427.71	3574.00
427.90	3574.00
428.09	3702.73
428.28	3440.59
428.46	3562.30
428.65	3700.39
428.84	3709.75
429.03	3803.37
429.22	3506.12
429.40	3602.08
429.59	3651.24
429.78	3508.46
429.97	3529.53
430.16	3454.63
430.34	3709.75
430.53	3737.84
430.72	3861.88
430.91	3674.64
431.10	3805.71
431.28	3882.95
431.47	3805.71
431.66	3969.55
431.85	3880.61
432.03	3948.48
432.22	3955.51
432.41	3971.89
432.60	4074.87
432.79	3974.23
432.97	4180.20
433.16	4028.06
433.35	4056.15
433.54	4030.40
433.72	4142.75
433.91	3999.98
434.10	4095.94
434.28	4131.05
434.47	4203.60
434.66	4138.07
434.85	4301.90
435.03	4360.42
435.22	4304.25
435.41	4379.14
435.59	4395.53
435.78	4245.73
435.97	4320.63
436.16	4404.89
436.34	4285.52
436.53	4564.04
436.72	4585.11
436.90	4468.08
437.09	4517.23
437.28	4440.00
437.46	4432.97
437.65	4432.97
437.84	4498.51
438.02	4449.36
438.21	4503.19
438.40	4461.06
438.58	4596.81
438.77	4812.14
438.96	4645.96
439.14	4702.14
439.33	4861.29
439.52	4793.42
439.70	4826.18
439.89	4915.12
440.08	4924.49
440.26	5029.81
440.45	5008.75
440.63	5011.09
440.82	5277.91
441.01	5020.45
441.19	5067.26
441.38	5104.71
441.57	5219.39
441.75	5247.48
441.94	5273.23
442.12	5495.58
442.31	5497.92
442.50	5476.85
442.68	5245.14
442.87	5268.55
443.05	5441.75
443.24	5483.88
443.43	5465.15
443.61	5451.11
443.80	5746.02
443.98	5277.91
444.17	5294.29
444.35	5654.73
444.54	5680.48
444.73	5748.36
444.91	5568.13
445.10	5605.58
445.28	5621.97
445.47	5537.71
445.65	5556.43
445.84	5685.16
446.02	5561.11
446.21	5797.51
446.39	5474.51
446.58	5731.97
446.77	5664.10
446.95	5582.18
447.14	5659.42
447.32	5909.85
447.51	5661.76
447.69	5720.27
447.88	5760.06
448.06	5729.63
448.25	5858.36
448.43	5774.10
448.62	5701.54
448.80	5687.50
448.99	5757.72
449.17	5771.76
449.36	5741.33
449.54	5937.94
449.73	5928.58
449.91	6061.99
450.10	5944.96
450.28	6029.22
450.46	6080.71
450.65	6164.97
450.83	6099.44
451.02	6073.69
451.20	6279.66
451.39	6092.41
451.57	6183.70
451.76	6263.27
451.94	5933.26
452.13	6160.29
452.31	6256.25
452.49	6253.91
452.68	6235.19
452.86	6143.91
453.05	6321.79
453.23	6270.30
453.42	6176.67
453.60	6272.64
453.78	6326.47
453.97	6307.74
454.15	6403.71
454.34	6225.82
454.52	6513.71
454.70	6546.48
454.89	6604.99
455.07	6537.12
455.26	6436.47
455.44	6609.67
455.62	6621.38
455.81	6682.23
455.99	6527.75
456.17	6684.57
456.36	6729.04
456.54	6834.36
456.73	6927.99
456.91	6932.67
457.09	6923.30
457.28	7133.95
457.46	6715.00
457.64	7140.97
457.83	7037.99
458.01	6953.73
458.19	6939.69
458.38	6935.01
458.56	7054.37
458.74	6958.41
458.93	7063.74
459.11	7133.95
459.29	7162.04
459.48	7171.40
459.66	7269.70
459.84	7262.68
460.03	7192.47
460.21	7208.85
460.39	7255.66
460.57	7405.46
460.76	7433.54
460.94	7461.63
461.12	7459.29
461.31	7405.46
461.49	7368.01
461.67	7419.50
461.85	7529.50
462.04	7597.38
462.22	8018.68
462.40	7625.47
462.59	7646.53
462.77	7719.09
462.95	7581.00
463.13	7723.77
463.32	7791.64
463.50	7740.15
463.68	7836.11
463.86	7676.96
464.05	7695.68
464.23	7618.44
464.41	7852.50
464.59	7747.17
464.78	7899.31
464.96	7854.84
465.14	7812.71
465.32	8002.29
465.50	7880.58
465.69	8046.76
465.87	7939.10
466.05	8086.55
466.23	8028.04
466.41	8138.04
466.60	8372.10
466.78	8002.29
466.96	7936.76
467.14	8212.94
467.32	8252.73
467.51	8248.05
467.69	8189.53
467.87	8128.68
468.05	8290.18
468.23	8229.32
468.41	8255.07
468.60	8173.15
468.78	8456.36
468.96	8262.09
469.14	8294.86
469.32	8355.71
469.50	8180.17
469.69	8446.99
469.87	8676.37
470.05	8613.17
470.23	8615.51
470.41	8622.53
470.59	8711.47
470.77	8706.79
470.95	8842.54
471.14	8793.39
471.32	8500.83
471.50	8978.30
471.68	8968.93
471.86	8872.97
472.04	8915.10
472.22	9029.79
472.40	8877.65
472.58	8959.57
472.77	9123.41
472.95	9298.95
473.13	9448.74
473.31	9048.51
473.49	9114.05
473.67	9348.10
473.85	9167.88
474.03	9650.03
474.21	9626.62
474.39	9507.26
474.57	9736.63
474.75	9652.37
474.93	9771.74
475.12	9586.83
475.30	9753.01
475.48	9895.78
475.66	10092.39
475.84	9844.29
476.02	9989.41
476.20	10043.24
476.38	10078.35
476.56	10321.76
476.74	10263.25
476.92	10291.34
477.10	10305.38
477.28	10516.03
477.46	10537.09
477.64	10483.26
477.82	10930.30
478.00	11009.88
478.18	10913.92
478.36	10930.30
478.54	10972.43
478.72	11089.46
478.90	11213.51
479.08	11297.77
479.26	11229.89
479.44	11360.96
479.62	11286.06
479.80	11669.91
479.98	11686.29
480.16	12037.38
480.34	11765.87
480.52	12154.40
480.70	12011.63
480.88	12009.29
481.06	12203.55
481.24	12002.27
481.41	12336.96
481.59	12456.33
481.77	12367.39
481.95	12610.81
482.13	12788.69
482.31	12795.71
482.49	12891.67
482.67	12987.63
482.85	13158.49
483.03	13352.76
483.21	13439.36
483.39	13682.77
483.57	13334.03
483.74	13530.64
483.92	13591.49
484.10	13687.45
484.28	14045.55
484.46	14190.67
484.64	14195.35
484.82	14230.46
485.00	14398.98
485.18	14286.63
485.35	14621.33
485.53	14569.83
485.71	14649.41
485.89	15026.24
486.07	14972.41
486.25	15023.90
486.43	14883.47
486.61	15133.90
486.78	15379.66
486.96	15475.62
487.14	15597.33
487.32	15466.26
487.50	15815.00
487.68	16240.98
487.85	16203.53
488.03	16238.64
488.21	16271.40
488.39	16688.02
488.57	16678.66
488.75	16713.77
488.92	16865.90
489.10	17043.78
489.28	17205.28
489.46	17242.73
489.64	17282.52
489.81	17696.79
489.99	17682.75
490.17	17891.06
490.35	17909.78
490.53	17996.38
490.70	18331.08
490.88	18214.05
491.06	18586.19
491.24	18380.23
491.41	18427.04
491.59	18705.56
491.77	18768.76
491.95	18778.12
492.13	18981.74
492.30	19330.48
492.48	19070.68
492.66	19393.68
492.84	19110.47
493.01	19520.07
493.19	19695.61
493.37	19489.64
493.54	19922.64
493.72	20013.92
493.90	19953.07
494.08	20315.85
494.25	20369.68
494.43	20669.27
494.61	20559.27
494.79	20884.60
494.96	20760.55
495.14	20779.28
495.32	21102.27
495.49	20985.24
495.67	21364.41
495.85	21069.50
496.02	21336.32
496.20	21656.98
496.38	21701.45
496.55	21947.20
496.73	22087.64
496.91	21926.14
497.09	21659.32
497.26	22017.42
497.44	22068.91
497.62	22553.40
497.79	22778.09
497.97	22518.29
498.14	22609.58
498.32	22588.51
498.50	22857.67
498.67	23276.63
498.85	23044.91
499.03	23103.43
499.20	23433.44
499.38	23260.24
499.56	23513.02
499.73	23496.64
499.91	23742.39
500.08	24088.79
500.26	23421.74
500.44	23796.23
500.61	24109.86
500.79	24002.19
500.97	23910.91
501.14	24414.13
501.32	24496.05
501.49	24142.63
501.67	24463.28
501.84	24379.02
502.02	24390.72
502.20	24730.10
502.37	25092.88
502.55	24697.33
502.72	24917.34
502.90	24936.07
503.07	25001.60
503.25	25319.92
503.43	25120.97
503.60	25184.16
503.78	25303.53
503.95	25146.72
504.13	25731.85
504.30	25743.55
504.48	25668.66
504.65	25745.89
504.83	26071.23
505.01	26059.52
505.18	25867.60
505.36	26483.16
505.53	26223.36
505.71	26693.81
505.88	26356.77
506.06	26228.04
506.23	26595.51
506.41	26335.71
506.58	26562.74
506.76	27033.19
506.93	26930.20
507.11	27035.53
507.28	26946.59
507.46	26885.73
507.63	26810.84
507.81	27349.16
507.98	27105.74
508.16	27372.57
508.33	27651.09
508.50	27527.04
508.68	27522.36
508.85	27927.27
509.03	27601.94
509.20	28154.30
509.38	28456.23
509.55	28161.33
509.73	28435.17
509.90	28320.48
510.08	28187.07
510.25	28355.59
510.42	28381.34
510.60	28725.39
510.77	28725.39
510.95	28402.40
511.12	28863.49
511.30	29130.31
511.47	29006.26
511.64	28957.11
511.82	29055.41
511.99	29298.83
512.17	29207.55
512.34	29186.48
512.51	29214.57
512.69	29624.16
512.86	29872.26
513.04	29596.07
513.21	29694.38
513.38	30129.72
513.56	29795.02
513.73	29647.57
513.90	30038.44
514.08	30050.14
514.25	29879.28
514.43	30106.31
514.60	30045.46
514.77	30164.82
514.95	30473.78
515.12	30635.27
515.29	30422.28
515.47	30462.07
515.64	30441.01
515.81	30651.66
515.99	30726.55
516.16	30817.83
516.33	31028.48
516.51	31295.30
516.68	30916.14
516.85	30586.12
517.03	31281.26
517.20	31108.06
517.37	31260.20
517.54	31082.31
517.72	31089.34
517.89	31009.76
518.06	31494.25
518.24	31222.75
518.41	31447.44
518.58	31700.22
518.75	31653.40
518.93	31922.57
519.10	32107.47
519.27	32088.74
519.45	32268.97
519.62	32418.76
519.79	32320.46
519.96	31793.84
520.14	32439.82
520.31	32500.68
520.48	32414.08
520.65	32371.95
520.83	32627.07
521.00	32493.66
521.17	33024.96
521.34	32842.40
521.52	32931.34
521.69	33006.23
521.86	32987.51
522.03	33060.07
522.20	33228.59
522.38	33329.23
522.55	33242.63
522.72	32992.19
522.89	33310.50
523.07	33886.28
523.24	33600.73
523.41	33163.05
523.58	33357.32
523.75	34038.41
523.92	34082.88
524.10	34209.27
524.27	33930.75
524.44	33467.32
524.61	34408.22
524.78	34143.74
524.96	34176.50
525.13	34373.11
525.30	34801.43
525.47	34546.31
525.64	34307.57
525.81	34646.95
525.98	34700.78
526.16	33986.92
526.33	34492.47
526.50	34841.21
526.67	34305.23
526.84	34979.31
527.01	34653.97
527.18	34632.91
527.36	34925.47
527.53	34733.55
527.70	35115.06
527.87	35229.74
528.04	35185.27
528.21	35651.04
528.38	35590.19
528.55	35510.61
528.72	35555.08
528.89	35864.03
529.07	35615.93
529.24	35166.55
529.41	35735.30
529.58	35803.17
529.75	35440.39
529.92	36020.84
530.09	36222.13
530.26	35899.14
530.43	35896.80
530.60	35557.42
530.77	35679.13
530.94	36421.08
531.11	36383.63
531.28	36545.12
531.46	35889.77
531.63	36505.34
531.80	36341.50
531.97	36388.31
532.14	36243.20
532.31	35964.67
532.48	36533.42
532.65	37163.03
532.82	36659.81
532.99	36875.14
533.16	36306.39
533.33	36730.03
533.50	36910.25
533.67	36933.65
533.84	36921.95
534.01	37153.66
534.18	36945.36
534.35	37212.18
534.52	37193.45
534.69	36830.67
534.86	37336.23
535.03	36856.42
535.20	37584.32
535.37	37378.36
535.54	37883.91
535.71	37144.30
535.88	37689.65
536.05	37462.61
536.22	37530.49
536.38	37668.58
536.55	37738.80
536.72	38026.68
536.89	37944.76
537.06	37483.68
537.23	38017.32
537.40	37708.37
537.57	37865.19
537.74	37869.87
537.91	38162.43
538.08	38101.58
538.25	37963.49
538.42	38148.39
538.59	38036.05
538.75	37809.01
538.92	38075.84
539.09	38768.63
539.26	38511.17
539.43	38319.25
539.60	38649.27
539.77	38557.99
539.94	38866.94
540.11	38684.37
540.28	38447.98
540.44	38153.07
540.61	38293.50
540.78	38321.59
540.95	38733.53
541.12	38684.37
541.29	38356.70
541.46	38595.43
541.62	38637.56
541.79	38988.64
541.96	38417.55
542.13	38733.53
542.30	38960.56
542.47	39227.38
542.63	38979.28
542.80	39002.69
542.97	39428.66
543.14	39466.11
543.31	39777.40
543.48	39229.72
543.64	40046.57
543.81	39754.00
543.98	39304.62
544.15	39948.26
544.32	40034.86
544.48	39805.49
544.65	40030.18
544.82	40102.74
544.99	39615.91
545.16	40046.57
545.32	39735.27
545.49	40154.23
545.66	40353.18
545.83	40048.91
546.00	40484.25
546.16	40268.92
546.33	40142.53
546.50	39597.18
546.67	40081.67
546.83	40016.14
547.00	40219.77
547.17	40547.44
547.34	40509.99
547.50	40341.47
547.67	40367.22
547.84	40369.56
548.00	40870.43
548.17	40928.95
548.34	40879.80
548.51	40891.50
548.67	40687.87
548.84	40898.52
549.01	40900.86
549.18	40554.46
549.34	41296.41
549.51	40828.30
549.68	40980.44
549.84	40851.71
550.01	41139.60
550.18	40975.76
550.34	41013.21
550.51	40697.24
550.68	41177.04
550.84	40730.00
551.01	41050.66
551.18	40882.14
551.34	41113.85
551.51	41155.98
551.68	41385.35
551.84	41390.03
552.01	40933.63
552.18	41226.20
552.34	41006.19
552.51	41710.69
552.68	41366.63
552.84	41624.09
553.01	41914.31
553.18	41677.92
553.34	41158.32
553.51	41303.43
553.67	41883.89
553.84	41794.95
554.01	41846.44
554.17	41954.10
554.34	42087.51
554.51	42099.22
554.67	42281.78
554.84	41947.08
555.00	42052.41
555.17	42246.67
555.33	42366.04
555.50	41846.44
555.67	42312.20
555.83	42216.24
556.00	42045.38
556.16	42363.70
556.33	41982.19
556.50	42286.46
556.66	42445.62
556.83	42094.53
556.99	42253.69
557.16	42450.30
557.32	42326.25
557.49	42426.89
557.65	42232.63
557.82	42101.56
557.98	42230.29
558.15	42183.48
558.32	42698.39
558.48	42733.50
558.65	42602.43
558.81	42604.77
558.98	42223.26
559.14	42328.59
559.31	42508.81
559.47	42569.66
559.64	42763.93
559.80	42569.66
559.97	42579.03
560.13	42529.87
560.30	42550.94
560.46	42534.56
560.63	42469.02
560.79	42738.18
560.96	42911.38
561.12	43267.14
561.29	42885.64
561.45	42906.70
561.61	43072.88
561.78	42597.75
561.94	42967.55
562.11	42728.82
562.27	43096.28
562.44	42782.65
562.60	42459.66
562.77	43091.60
562.93	43168.84
563.10	43210.97
563.26	42649.24
563.42	43122.03
563.59	42895.00
563.75	43206.29
563.92	43480.13
564.08	43100.97
564.24	43599.50
564.41	42810.74
564.57	43206.29
564.74	43112.67
564.90	43337.36
565.07	43208.63
565.23	43255.44
565.39	42801.38
565.56	43063.52
565.72	42682.01
565.88	43274.16
566.05	42871.59
566.21	43367.79
566.38	42997.98
566.54	42703.07
566.70	43440.34
566.87	43936.54
567.03	43075.22
567.19	43641.63
567.36	43503.54
567.52	43110.33
567.68	43384.17
567.85	42990.96
568.01	43290.55
568.17	43433.32
568.34	43351.40
568.50	43650.99
568.66	43189.91
568.83	43367.79
568.99	43227.35
569.15	43702.48
569.32	43543.33
569.48	43555.03
569.64	43592.48
569.81	43812.49
569.97	43430.98
570.13	43852.28
570.30	43573.75
570.46	43627.59
570.62	43559.71
570.78	43482.47
570.95	43601.84
571.11	43543.33
571.27	43178.20
571.43	43255.44
571.60	43505.88
571.76	43388.85
571.92	43475.45
572.09	43393.53
572.25	43423.96
572.41	43056.50
572.57	43824.19
572.74	44051.22
572.90	43702.48
573.06	43543.33
573.22	43480.13
573.38	43166.50
573.55	43281.19
573.71	43557.37
573.87	43529.28
574.03	43419.28
574.20	43592.48
574.36	43461.41
574.52	43597.16
574.68	43798.44
574.84	44109.74
575.01	43756.32
575.17	43875.68
575.33	43826.53
575.49	43636.95
575.65	44072.29
575.82	43948.24
575.98	43782.06
576.14	44215.06
576.30	43407.58
576.46	43966.96
576.62	43363.11
576.79	43765.68
576.95	43913.13
577.11	43278.85
577.27	44278.25
577.43	44009.09
577.59	44018.46
577.75	43735.25
577.92	43739.93
578.08	43796.10
578.24	43550.35
578.40	43849.94
578.56	44023.14
578.72	43606.52
578.88	43833.55
579.04	44250.17
579.21	43791.42
579.37	43749.29
579.53	43634.61
579.69	43402.89
579.85	44023.14
580.01	43913.13
580.17	44044.20
580.33	44079.31
580.49	43910.79
580.65	43814.83
580.82	44112.08
580.98	43540.99
581.14	43882.70
581.30	43800.79
581.46	43924.83
581.62	43646.31
581.78	43576.09
581.94	44289.96
582.10	44062.93
582.26	44437.41
582.42	43973.98
582.58	44109.74
582.74	43384.17
582.90	43828.87
583.06	44023.14
583.22	44170.59
583.38	44114.42
583.54	44123.78
583.70	43753.97
583.86	44091.01
584.02	43732.91
584.18	43952.92
584.34	43744.61
584.50	44212.72
584.66	43473.11
584.82	43866.32
584.98	44486.56
585.14	44076.97
585.30	43889.73
585.46	44172.93
585.62	43643.97
585.78	43725.89
585.94	43590.14
586.10	44044.20
586.26	43824.19
586.42	43995.05
586.58	43723.55
586.74	43746.95
586.90	43812.49
587.06	43620.56
587.22	43683.76
587.38	44095.69
587.54	44091.01
587.70	44322.72
587.86	44147.18
588.02	44091.01
588.18	44748.70
588.34	44032.50
588.49	44051.22
588.65	44018.46
588.81	43674.40
588.97	44219.74
589.13	43990.37
589.29	43793.76
589.45	44341.45
589.61	44144.84
589.77	44280.60
589.93	44137.82
590.08	44683.17
590.24	44545.08
590.40	44264.21
