SpectraSuite Data File
++++++++++++++++++++++++++++++++++++
Date: Fri Oct 25 11:33:37 EDT 2013
User: price-jones
Dark Spectrum Present: No
Reference Spectrum Present: No
Number of Sampled Component Spectra: 1
Spectrometers: USB2+H05261
Integration Time (usec): 100000 (USB2+H05261)
Spectra Averaged: 1 (USB2+H05261)
Boxcar Smoothing: 0 (USB2+H05261)
Correct for Electrical Dark: No (USB2+H05261)
Strobe/Lamp Enabled: No (USB2+H05261)
Correct for Detector Non-linearity: No (USB2+H05261)
Correct for Stray Light: No (USB2+H05261)
Number of Pixels in Processed Spectrum: 2048
>>>>>Begin Processed Spectral Data<<<<<
365.73	229.37
365.92	229.37
366.12	229.37
366.32	205.97
366.52	220.01
366.72	255.12
366.91	149.79
367.11	205.97
367.31	175.54
367.51	149.79
367.70	187.24
367.90	217.67
368.10	159.16
368.30	84.26
368.49	95.96
368.69	234.05
368.89	229.37
369.09	215.33
369.28	280.86
369.48	212.99
369.68	234.05
369.87	250.44
370.07	203.63
370.27	301.93
370.47	325.33
370.66	507.90
370.86	498.53
371.06	552.37
371.25	557.05
371.45	470.45
371.65	589.82
371.84	620.24
372.04	538.32
372.24	489.17
372.44	550.03
372.63	538.32
372.83	599.18
373.03	603.86
373.22	531.30
373.42	634.29
373.62	636.63
373.81	622.58
374.01	645.99
374.21	650.67
374.40	620.24
374.60	657.69
374.79	683.44
374.99	690.46
375.19	613.22
375.38	634.29
375.58	662.37
375.78	690.46
375.97	704.50
376.17	755.99
376.37	648.33
376.56	648.33
376.76	662.37
376.95	568.75
377.15	681.10
377.35	653.01
377.54	648.33
377.74	699.82
377.93	723.23
378.13	631.94
378.33	638.97
378.52	716.20
378.72	748.97
378.91	711.52
379.11	741.95
379.31	678.76
379.50	746.63
379.70	690.46
379.89	795.78
380.09	781.74
380.28	739.61
380.48	699.82
380.68	669.39
380.87	795.78
381.07	805.14
381.26	866.00
381.46	767.70
381.65	737.27
381.85	812.17
382.04	758.33
382.24	779.40
382.43	746.63
382.63	748.97
382.83	784.08
383.02	809.83
383.22	798.12
383.41	779.40
383.61	858.98
383.80	816.85
384.00	805.14
384.19	823.87
384.39	732.59
384.58	840.25
384.78	854.30
384.97	849.61
385.17	833.23
385.36	919.83
385.56	854.30
385.75	798.12
385.95	812.17
386.14	898.77
386.34	917.49
386.53	912.81
386.72	830.89
386.92	994.73
387.11	898.77
387.31	915.15
387.50	887.06
387.70	912.81
387.89	875.36
388.09	875.36
388.28	924.51
388.48	889.40
388.67	905.79
388.86	870.68
389.06	938.55
389.25	847.27
389.45	1008.77
389.64	933.87
389.84	1036.86
390.03	926.85
390.22	992.39
390.42	1060.26
390.61	936.21
390.81	931.53
391.00	931.53
391.19	980.68
391.39	929.19
391.58	1071.97
391.78	1123.46
391.97	1064.94
392.16	1029.84
392.36	1118.78
392.55	1081.33
392.75	1036.86
392.94	1001.75
393.13	1041.54
393.33	1013.45
393.52	1041.54
393.71	1097.71
393.91	1109.41
394.10	1015.79
394.29	1163.25
394.49	999.41
394.68	1123.46
394.88	1128.14
395.07	1135.16
395.26	1130.48
395.46	1172.61
395.65	1132.82
395.84	1231.12
396.04	1181.97
396.23	1203.04
396.42	1228.78
396.62	1224.10
396.81	1207.72
397.00	1156.22
397.19	1268.57
397.39	1167.93
397.58	1186.65
397.77	1203.04
397.97	1259.21
398.16	1266.23
398.35	1282.61
398.55	1240.48
398.74	1315.38
398.93	1296.66
399.12	1301.34
399.32	1254.53
399.51	1317.72
399.70	1240.48
399.90	1310.70
400.09	1437.09
400.28	1357.51
400.47	1331.76
400.67	1425.39
400.86	1369.21
401.05	1432.41
401.24	1406.66
401.44	1416.02
401.63	1420.71
401.82	1439.43
402.01	1448.79
402.21	1521.35
402.40	1493.26
402.59	1476.88
402.78	1509.65
402.97	1441.77
403.17	1556.46
403.36	1526.03
403.55	1540.07
403.74	1708.59
403.93	1579.86
404.13	1652.42
404.32	1603.27
404.51	1645.40
404.70	1680.50
404.89	1661.78
405.09	1776.47
405.28	1767.10
405.47	1654.76
405.66	1568.16
405.85	1699.23
406.05	1713.27
406.24	1762.42
406.43	1816.26
406.62	1783.49
406.81	1781.15
407.00	1706.25
407.20	1797.53
407.39	1715.61
407.58	1839.66
407.77	1891.15
407.96	1912.22
408.15	1907.54
408.34	1886.47
408.54	1914.56
408.73	1893.49
408.92	2017.54
409.11	1949.67
409.30	2008.18
409.49	1930.94
409.68	1998.82
409.87	2024.56
410.07	2017.54
410.26	2033.93
410.45	2129.89
410.64	2012.86
410.83	2094.78
411.02	2108.82
411.21	2207.13
411.40	2118.18
411.59	2228.19
411.78	2216.49
411.98	2181.38
412.17	2277.34
412.36	2242.23
412.55	2267.98
412.74	2239.89
412.93	2448.20
413.12	2253.94
413.31	2410.75
413.50	2342.88
413.69	2434.16
413.88	2422.45
414.07	2513.74
414.26	2569.91
414.45	2590.97
414.64	2532.46
414.83	2626.08
415.02	2626.08
415.22	2668.21
415.41	2745.45
415.60	2670.55
415.79	2621.40
415.98	2754.81
416.17	2722.04
416.36	2686.94
416.55	2745.45
416.74	2782.90
416.93	2764.17
417.12	2789.92
417.31	2911.63
417.50	2920.99
417.69	2904.60
417.88	3035.67
418.07	2904.60
418.26	3084.83
418.45	3087.17
418.64	3138.66
418.83	3101.21
419.02	2991.20
419.21	3148.02
419.39	3056.74
419.58	3138.66
419.77	3101.21
419.96	3129.30
420.15	3236.96
420.34	3309.52
420.53	3164.40
420.72	3330.58
420.91	3141.00
421.10	3169.09
421.29	3293.13
421.48	3052.06
421.67	3302.50
421.86	3311.86
422.05	3353.99
422.24	3328.24
422.43	3384.41
422.61	3328.24
422.80	3403.14
422.99	3456.97
423.18	3576.34
423.37	3440.59
423.56	3365.69
423.75	3419.52
423.94	3480.38
424.13	3133.98
424.32	3307.18
424.50	3410.16
424.69	3496.76
424.88	3461.65
425.07	3463.99
425.26	3353.99
425.45	3363.35
425.64	3417.18
425.83	3613.79
426.01	3405.48
426.20	3534.21
426.39	3431.23
426.58	3398.46
426.77	3330.58
426.96	3557.61
427.15	3548.25
427.33	3660.60
427.52	3576.34
427.71	3583.36
427.90	3574.00
428.09	3620.81
428.28	3623.15
428.46	3679.32
428.65	3592.72
428.84	3772.94
429.03	3770.60
429.22	3588.04
429.40	3728.47
429.59	3892.31
429.78	3709.75
429.97	3684.00
430.16	3719.11
430.34	3836.14
430.53	3868.91
430.72	3948.48
430.91	3861.88
431.10	3894.65
431.28	3880.61
431.47	3915.72
431.66	3983.59
431.85	4081.89
432.03	3999.98
432.22	3997.64
432.41	4049.13
432.60	4063.17
432.79	4147.43
432.97	4147.43
433.16	4028.06
433.35	4091.26
433.54	4238.71
433.72	4133.39
433.91	4145.09
434.10	4210.62
434.28	4093.60
434.47	4285.52
434.66	4203.60
434.85	4297.22
435.03	4407.23
435.22	4379.14
435.41	4472.76
435.59	4468.08
435.78	4287.86
435.97	4528.94
436.16	4344.03
436.34	4346.37
436.53	4444.68
436.72	4566.39
436.90	4418.93
437.09	4540.64
437.28	4512.55
437.46	4592.13
437.65	4524.26
437.84	4697.46
438.02	4660.01
438.21	4547.66
438.40	4596.81
438.58	4702.14
438.77	4807.46
438.96	4760.65
439.14	4887.04
439.33	4882.36
439.52	4943.21
439.70	4814.48
439.89	4950.23
440.08	5100.03
440.26	5078.96
440.45	4908.10
440.63	5041.51
440.82	5205.35
441.01	5116.41
441.19	5247.48
441.38	5291.95
441.57	5280.25
441.75	5364.51
441.94	5357.49
442.12	5537.71
442.31	5352.81
442.50	5411.32
442.68	5544.73
442.87	5549.41
443.05	5565.79
443.24	5551.75
443.43	5533.03
443.61	5579.84
443.80	5542.39
443.98	5528.35
444.17	5158.54
444.35	5617.29
444.54	5621.97
444.73	5734.31
444.91	5729.63
445.10	5598.56
445.28	5628.99
445.47	5654.73
445.65	5755.38
445.84	5675.80
446.02	5788.14
446.21	5724.95
446.39	5687.50
446.58	5860.70
446.77	5816.23
446.95	5528.35
447.14	5659.42
447.32	5750.70
447.51	5837.30
447.69	5762.40
447.88	5769.42
448.06	5804.53
448.25	5645.37
448.43	5736.65
448.62	5767.08
448.80	5804.53
448.99	5809.21
449.17	6059.65
449.36	5743.67
449.54	5970.71
449.73	6246.89
449.91	6179.01
450.10	5942.62
450.28	6115.82
450.46	5970.71
450.65	6073.69
450.83	6108.80
451.02	6069.01
451.20	6221.14
451.39	6143.91
451.57	6326.47
451.76	6260.93
451.94	6169.65
452.13	6382.64
452.31	6291.36
452.49	6169.65
452.68	6368.60
452.86	6422.43
453.05	6441.15
453.23	6555.84
453.42	6218.80
453.60	6235.19
453.78	6445.84
453.97	6314.77
454.15	6448.18
454.34	6569.88
454.52	6492.65
454.70	6544.14
454.89	6703.29
455.07	6604.99
455.26	6780.53
455.44	6722.02
455.62	6644.78
455.81	6693.93
455.99	6794.58
456.17	6855.43
456.36	6771.17
456.54	6920.96
456.73	6890.54
456.91	6935.01
457.09	7199.49
457.28	7164.38
457.46	7087.14
457.64	7279.07
457.83	7000.54
458.01	7098.84
458.19	7169.06
458.38	7028.63
458.56	7115.23
458.74	7173.74
458.93	7110.55
459.11	7276.73
459.29	7211.19
459.48	7222.89
459.66	7283.75
459.84	7262.68
460.03	7494.40
460.21	7234.60
460.39	7318.86
460.57	7325.88
460.76	7382.05
460.94	7396.09
461.12	7571.63
461.31	7543.55
461.49	7473.33
461.67	7372.69
461.85	7679.30
462.04	7630.15
462.22	7946.12
462.40	7796.32
462.59	7676.96
462.77	7733.13
462.95	7854.84
463.13	7721.43
463.32	7829.09
463.50	7962.50
463.68	7992.93
463.86	7997.61
464.05	7793.98
464.23	7981.23
464.41	7946.12
464.59	7868.88
464.78	8236.35
464.96	8124.00
465.14	7906.33
465.32	8116.98
465.50	7873.56
465.69	8163.79
465.87	8159.11
466.05	8175.49
466.23	8147.40
466.41	8173.15
466.60	8498.49
466.78	8388.48
466.96	8269.11
467.14	8367.42
467.32	8290.18
467.51	8332.31
467.69	8198.90
467.87	8484.44
468.05	8372.10
468.23	8290.18
468.41	8170.81
468.60	8517.21
468.78	8374.44
468.96	8587.43
469.14	8507.85
469.32	8858.93
469.50	8538.27
469.69	8641.26
469.87	8683.39
470.05	8875.31
470.23	8854.25
470.41	8823.82
470.59	8931.48
470.77	8805.10
470.95	8954.89
471.14	9135.11
471.32	8816.80
471.50	8877.65
471.68	8954.89
471.86	9128.09
472.04	9132.77
472.22	9303.63
472.40	9153.84
472.58	9261.50
472.77	9338.74
472.95	9401.93
473.13	9846.63
473.31	9291.93
473.49	9624.28
473.67	9336.40
473.85	9495.55
474.03	9612.58
474.21	9640.67
474.39	9820.89
474.57	9846.63
474.75	9832.59
474.93	9907.49
475.12	9998.77
475.30	10083.03
475.48	10190.69
475.66	9998.77
475.84	10073.67
476.02	10394.32
476.20	10317.08
476.38	10403.68
476.56	10572.20
476.74	10633.05
476.92	10237.50
477.10	10293.68
477.28	10527.73
477.46	10663.48
477.64	10761.78
477.82	10944.34
478.00	11070.73
478.18	11342.24
478.36	11253.30
478.54	11410.11
478.72	11445.22
478.90	11459.26
479.08	11955.46
479.26	11665.23
479.44	11587.99
479.62	11915.67
479.80	11803.32
479.98	12023.33
480.16	12189.51
480.34	12175.47
480.52	12266.75
480.70	12100.57
480.88	12346.33
481.06	12343.99
481.24	12360.37
481.41	12610.81
481.59	12828.48
481.77	12950.18
481.95	12957.21
482.13	13048.49
482.31	13053.17
482.49	13561.06
482.67	13284.88
482.85	13554.04
483.03	13404.25
483.21	13685.11
483.39	13703.84
483.57	13837.25
483.74	14080.66
483.92	14171.94
484.10	14104.07
484.28	14256.20
484.46	14434.08
484.64	14752.40
484.82	14391.95
485.00	14867.08
485.18	15012.20
485.35	15403.07
485.53	15192.42
485.71	15054.33
485.89	15295.40
486.07	15489.67
486.25	15538.82
486.43	15712.02
486.61	15625.42
486.78	15866.49
486.96	15838.41
487.14	16540.57
487.32	16191.83
487.50	16252.68
487.68	16432.90
487.85	16727.81
488.03	16755.90
488.21	17247.41
488.39	17282.52
488.57	17050.80
488.75	17027.40
488.92	17418.27
489.10	17671.04
489.28	17486.14
489.46	17687.43
489.64	17970.63
489.81	18118.09
489.99	18160.22
490.17	18260.86
490.35	18462.15
490.53	18691.52
490.70	18984.09
490.88	18780.46
491.06	18948.98
491.24	18633.00
491.41	18979.40
491.59	19396.02
491.77	19302.40
491.95	19112.81
492.13	19800.93
492.30	19709.65
492.48	19604.33
492.66	19950.73
492.84	20070.09
493.01	19964.77
493.19	20187.12
493.37	20379.04
493.54	20446.92
493.72	20549.90
493.90	20418.83
494.08	20952.48
494.25	20929.07
494.43	20879.92
494.61	21191.21
494.79	21212.28
494.96	21186.53
495.14	21493.14
495.32	21614.85
495.49	21921.46
495.67	21748.26
495.85	22071.25
496.02	22218.71
496.20	22059.55
496.38	22251.47
496.55	22480.85
496.73	23396.00
496.91	22747.67
497.09	22827.24
497.26	22948.95
497.44	23080.02
497.62	23140.88
497.79	23372.59
497.97	23536.43
498.14	23728.35
498.32	23625.37
498.50	23716.65
498.67	24250.29
498.85	23812.61
499.03	23854.74
499.20	24285.40
499.38	24458.60
499.56	24570.94
499.73	24411.79
499.91	24849.47
500.08	24987.56
500.26	24730.10
500.44	24713.72
500.61	24767.55
500.79	24861.17
500.97	24936.07
501.14	25635.89
501.32	25640.57
501.49	25696.74
501.67	25418.22
501.84	25364.39
502.02	25593.76
502.20	25474.39
502.37	25776.32
502.55	26059.52
502.72	25970.58
502.90	26122.72
503.07	25958.88
503.25	26237.41
503.43	25926.11
503.60	26462.10
503.78	26665.72
503.95	26396.56
504.13	26778.07
504.30	26984.04
504.48	26698.49
504.65	26902.12
504.83	26913.82
505.01	27342.14
505.18	27171.28
505.36	26965.31
505.53	27391.29
505.71	27564.49
505.88	27606.62
506.06	27314.05
506.23	27623.00
506.41	27683.86
506.58	28184.73
506.76	28048.98
506.93	28116.86
507.11	28018.55
507.28	28177.71
507.46	28243.24
507.63	28442.19
507.81	28554.54
507.98	28467.94
508.16	28659.86
508.33	29008.60
508.50	28952.43
508.68	28807.31
508.85	28875.19
509.03	28744.12
509.20	29263.72
509.38	29277.76
509.55	29134.99
509.73	29345.64
509.90	29085.84
510.08	29455.64
510.25	29572.67
510.42	29656.93
510.60	29968.22
510.77	29977.58
510.95	30279.51
511.12	30127.38
511.30	30101.63
511.47	29888.64
511.64	30211.64
511.82	30469.09
511.99	30340.36
512.17	30703.15
512.34	30323.98
512.51	30967.63
512.69	31000.40
512.86	31000.40
513.04	31051.89
513.21	31089.34
513.38	31213.38
513.56	31592.55
513.73	30969.97
513.90	31512.97
514.08	31529.36
514.25	31536.38
514.43	31599.57
514.60	31803.20
514.77	31559.78
514.95	31983.42
515.12	31557.44
515.29	31957.67
515.47	31920.23
515.64	32308.76
515.81	32348.54
515.99	32280.67
516.16	32481.95
516.33	32460.89
516.51	32561.53
516.68	32472.59
516.85	32570.90
517.03	32884.53
517.20	32732.39
517.37	32561.53
517.54	33043.68
517.72	32896.23
517.89	32973.47
518.06	33160.71
518.24	33280.08
518.41	33163.05
518.58	32954.74
518.75	33315.19
518.93	33479.02
519.10	33249.65
519.27	33886.28
519.45	33640.52
519.62	33818.40
519.79	33694.35
519.96	33902.66
520.14	34012.66
520.31	33977.56
520.48	34192.89
520.65	33921.38
520.83	34511.20
521.00	34422.26
521.17	34368.43
521.34	34424.60
521.52	34714.83
521.69	34684.40
521.86	34782.70
522.03	35159.53
522.20	35227.40
522.38	35398.26
522.55	35047.18
522.72	34766.32
522.89	35697.85
523.07	35515.29
523.24	35641.68
523.41	35213.36
523.58	35159.53
523.75	35578.48
523.92	35182.93
524.10	35847.64
524.27	36030.21
524.44	36130.85
524.61	35756.36
524.78	36093.40
524.96	35601.89
525.13	36472.57
525.30	36112.13
525.47	36273.62
525.64	36133.19
525.81	36278.30
525.98	36133.19
526.16	36411.71
526.33	36746.41
526.50	36896.20
526.67	36549.81
526.84	36528.74
527.01	36753.43
527.18	36783.86
527.36	36622.36
527.53	37116.22
527.70	37064.72
527.87	37308.14
528.04	37146.64
528.21	37158.34
528.38	37523.47
528.55	37165.37
528.72	37237.92
528.89	37521.13
529.07	37221.54
529.24	37156.00
529.41	37471.98
529.58	37062.38
529.75	37481.34
529.92	37621.77
530.09	37734.12
530.26	37862.85
530.43	37691.99
530.60	37404.10
530.77	37589.00
530.94	37811.35
531.11	37844.12
531.28	38174.14
531.46	38700.76
531.63	38094.56
531.80	38373.08
531.97	38141.37
532.14	38639.90
532.31	38279.46
532.48	38574.37
532.65	38667.99
532.82	38670.33
532.99	38780.34
533.16	38389.47
533.33	38998.01
533.50	39206.31
533.67	38806.08
533.84	38712.46
534.01	38799.06
534.18	38820.13
534.35	39351.43
534.52	39309.30
534.69	39510.58
534.86	39199.29
535.03	39412.28
535.20	39454.41
535.37	39646.33
535.54	39358.45
535.71	39442.71
535.88	39524.63
536.05	39330.36
536.22	39826.56
536.38	39962.31
536.55	39667.40
536.72	39833.58
536.89	39611.23
537.06	40048.91
537.23	39995.07
537.40	40222.11
537.57	39990.39
537.74	40044.23
537.91	40280.62
538.08	40011.46
538.25	39887.41
538.42	40079.33
538.59	40535.74
538.75	40161.25
538.92	40804.90
539.09	40683.19
539.26	40582.55
539.43	40287.64
539.60	40842.35
539.77	40629.36
539.94	41006.19
540.11	40870.43
540.28	40809.58
540.44	40786.18
540.61	40617.66
540.78	40935.97
540.95	40985.12
541.12	41055.34
541.29	40928.95
541.46	41216.83
541.62	41184.07
541.79	41387.69
541.96	41003.85
542.13	41628.77
542.30	40999.16
542.47	41378.33
542.63	41621.75
542.80	41713.03
542.97	42052.41
543.14	42089.85
543.31	42029.00
543.48	42281.78
543.64	42223.26
543.81	42199.86
543.98	42246.67
544.15	41930.70
544.32	42469.02
544.48	42452.64
544.65	42155.39
544.82	42710.10
544.99	41888.57
545.16	42169.43
545.32	42569.66
545.49	42789.67
545.66	42621.16
545.83	42763.93
546.00	42419.87
546.16	42953.51
546.33	42480.72
546.50	42136.66
546.67	42759.25
546.83	42429.23
547.00	42560.30
547.17	42880.95
547.34	42712.44
547.50	42986.28
547.67	43215.65
547.84	43299.91
548.00	43325.66
548.17	43445.02
548.34	43208.63
548.51	43494.18
548.67	43276.51
548.84	43264.80
549.01	43236.72
549.18	43512.90
549.34	43393.53
549.51	43913.13
549.68	43735.25
549.84	43615.88
550.01	43805.47
550.18	43646.31
550.34	43924.83
550.51	43842.92
550.68	43814.83
550.84	43601.84
551.01	43992.71
551.18	43648.65
551.34	44486.56
551.51	44196.34
551.68	44060.58
551.84	43796.10
552.01	43728.23
552.18	44137.82
552.34	43510.56
552.51	44121.44
552.68	44430.39
552.84	44435.07
553.01	44201.02
553.18	44091.01
553.34	44446.77
553.51	44294.64
553.67	44091.01
553.84	44711.25
554.01	44540.39
554.17	44491.24
554.34	45013.18
554.51	44870.41
554.67	44797.85
554.84	44367.20
555.00	44409.32
555.17	44772.11
555.33	44837.64
555.50	44474.86
555.67	44704.23
555.83	45148.93
556.00	44519.33
556.16	45127.87
556.33	45277.66
556.50	44971.05
556.66	44622.31
556.83	44615.29
556.99	45237.87
557.16	45659.17
557.32	45137.23
557.49	45600.66
557.65	44816.58
557.82	44711.25
557.98	45001.48
558.15	45184.04
558.32	45649.81
558.48	45106.80
558.65	45394.69
558.81	45364.26
558.98	45031.91
559.14	45455.54
559.31	45223.83
559.47	45436.82
559.64	45549.17
559.80	45684.92
559.97	45258.94
560.13	45191.06
560.30	45397.03
560.46	45434.48
560.63	45853.44
560.79	45724.71
560.96	46014.93
561.12	45794.92
561.29	45799.60
561.45	46078.13
561.61	45834.71
561.78	46014.93
561.94	45825.35
562.11	46003.23
562.27	46031.32
562.44	45628.74
562.60	46129.62
562.77	45918.97
562.93	45844.07
563.10	45729.39
563.26	45490.65
563.42	46185.79
563.59	46026.63
563.75	46330.90
563.92	45713.00
564.08	46244.30
564.24	46000.89
564.41	46557.94
564.57	46248.99
564.74	46225.58
564.90	45872.16
565.07	46368.35
565.23	46270.05
565.39	45755.13
565.56	46632.83
565.72	45783.22
565.88	46469.00
566.05	46459.63
566.21	46176.43
566.38	46204.52
566.54	46291.12
566.70	46775.61
566.87	46667.94
567.03	46256.01
567.19	46770.93
567.36	46506.44
567.52	46387.08
567.68	46787.31
567.85	46447.93
568.01	46536.87
568.17	46995.62
568.34	46794.33
568.50	46728.80
568.66	46286.43
568.83	46461.97
568.99	46461.97
569.15	46464.32
569.32	46431.55
569.48	46564.96
569.64	46586.02
569.81	46595.38
569.97	46782.63
570.13	47250.74
570.30	46288.77
570.46	46775.61
570.62	46892.63
570.78	46686.67
570.95	46880.93
571.11	47199.24
571.27	46754.54
571.43	46216.22
571.60	46667.94
571.76	46663.26
571.92	46775.61
572.09	46934.76
572.25	46576.66
572.41	46677.30
572.57	46583.68
572.74	47182.86
572.90	46586.02
573.06	47089.24
573.22	46799.01
573.38	47007.32
573.55	47033.07
573.71	47061.15
573.87	47227.33
574.03	46953.49
574.20	47232.01
574.36	47220.31
574.52	46745.18
574.68	47014.34
574.84	47224.99
575.01	47281.16
575.17	47138.39
575.33	47159.45
575.49	46953.49
575.65	47508.19
575.82	47213.29
575.98	47047.11
576.14	47503.51
576.30	47161.79
576.46	46937.10
576.62	47044.77
576.79	47070.51
576.95	46752.20
577.11	47189.88
577.27	47229.67
577.43	46918.38
577.59	47363.08
577.75	46806.03
577.92	46630.49
578.08	46883.27
578.24	47030.72
578.40	47243.71
578.56	47512.88
578.72	47374.78
578.88	47693.10
579.04	46960.51
579.21	47084.56
579.37	47072.85
579.53	47594.79
579.69	47796.08
579.85	46920.72
580.01	47049.45
580.17	47143.07
580.33	47346.70
580.49	47182.86
580.65	47260.10
580.82	47220.31
580.98	47217.97
581.14	47304.57
581.30	47519.90
581.46	47199.24
581.62	47325.63
581.78	47501.17
581.94	47297.55
582.10	47405.21
582.26	47526.92
582.42	47224.99
582.58	47470.75
582.74	47442.66
582.90	47398.19
583.06	47239.03
583.22	47562.03
583.38	47482.45
583.54	47667.35
583.70	47573.73
583.86	47461.38
584.02	47421.59
584.18	47599.47
584.34	47526.92
584.50	47992.68
584.66	47583.09
584.82	47557.35
584.98	47992.68
585.14	47800.76
585.30	47412.23
585.46	47426.28
585.62	47206.26
585.78	47681.39
585.94	47365.42
586.10	47150.09
586.26	47325.63
586.42	47377.12
586.58	47505.85
586.74	47236.69
586.90	47430.96
587.06	47606.50
587.22	47585.43
587.38	47526.92
587.54	47882.68
587.70	47791.40
587.86	47262.44
588.02	47157.11
588.18	48044.18
588.34	47688.42
588.49	47873.32
588.65	47760.97
588.81	47288.18
588.97	47639.26
589.13	48011.41
589.29	47653.31
589.45	47522.24
589.61	47885.02
589.77	47672.03
589.93	48032.47
590.08	48062.90
