SpectraSuite Data File
++++++++++++++++++++++++++++++++++++
Date: Fri Oct 25 11:23:40 EDT 2013
User: price-jones
Dark Spectrum Present: No
Reference Spectrum Present: No
Number of Sampled Component Spectra: 1
Spectrometers: USB2+H05261
Integration Time (usec): 100000 (USB2+H05261)
Spectra Averaged: 1 (USB2+H05261)
Boxcar Smoothing: 0 (USB2+H05261)
Correct for Electrical Dark: No (USB2+H05261)
Strobe/Lamp Enabled: No (USB2+H05261)
Correct for Detector Non-linearity: No (USB2+H05261)
Correct for Stray Light: No (USB2+H05261)
Number of Pixels in Processed Spectrum: 2048
>>>>>Begin Processed Spectral Data<<<<<
365.73	222.35
365.92	222.35
366.12	222.35
366.32	126.39
366.52	135.75
366.72	220.01
366.91	133.41
367.11	201.29
367.31	102.98
367.51	72.56
367.70	114.69
367.90	161.50
368.10	119.37
368.30	126.39
368.49	187.24
368.69	149.79
368.89	149.79
369.09	133.41
369.28	135.75
369.48	135.75
369.68	229.37
369.87	210.65
370.07	224.69
370.27	159.16
370.47	346.40
370.66	592.16
370.86	643.65
371.06	681.10
371.25	716.20
371.45	713.86
371.65	683.44
371.84	669.39
372.04	624.92
372.24	779.40
372.44	674.07
372.63	856.64
372.83	744.29
373.03	730.25
373.22	763.01
373.42	784.08
373.62	772.38
373.81	849.61
374.01	791.10
374.21	788.76
374.40	739.61
374.60	903.45
374.79	842.59
374.99	763.01
375.19	898.77
375.38	786.42
375.58	793.44
375.78	924.51
375.97	807.48
376.17	922.17
376.37	891.74
376.56	926.85
376.76	805.14
376.95	847.27
377.15	919.83
377.35	915.15
377.54	936.21
377.74	828.55
377.93	924.51
378.13	952.60
378.33	940.90
378.52	931.53
378.72	957.28
378.91	880.04
379.11	816.85
379.31	973.66
379.50	896.43
379.70	1053.24
379.89	1018.13
380.09	987.71
380.28	957.28
380.48	1001.75
380.68	1018.13
380.87	1071.97
381.07	1039.20
381.26	1074.31
381.46	952.60
381.65	973.66
381.85	954.94
382.04	1137.50
382.24	1121.12
382.43	1050.90
382.63	1086.01
382.83	1064.94
383.02	1057.92
383.22	1181.97
383.41	1081.33
383.61	1088.35
383.80	1090.69
384.00	1062.60
384.19	1149.20
384.39	1055.58
384.58	1186.65
384.78	1121.12
384.97	1153.88
385.17	1114.10
385.36	1203.04
385.56	1177.29
385.75	1111.75
385.95	1240.48
386.14	1221.76
386.34	1165.59
386.53	1240.48
386.72	1128.14
386.92	1200.69
387.11	1196.01
387.31	1287.29
387.50	1233.46
387.70	1308.36
387.89	1177.29
388.09	1228.78
388.28	1350.49
388.48	1277.93
388.67	1320.06
388.86	1317.72
389.06	1238.14
389.25	1273.25
389.45	1355.17
389.64	1221.76
389.84	1390.28
390.03	1411.34
390.22	1383.26
390.42	1357.51
390.61	1380.92
390.81	1401.98
391.00	1455.81
391.19	1439.43
391.39	1387.94
391.58	1343.47
391.78	1411.34
391.97	1486.24
392.16	1460.49
392.36	1554.12
392.55	1526.03
392.75	1495.60
392.94	1614.97
393.13	1497.94
393.33	1519.01
393.52	1570.50
393.71	1572.84
393.91	1497.94
394.10	1551.78
394.29	1666.46
394.49	1645.40
394.68	1724.97
394.88	1565.82
395.07	1671.14
395.26	1678.16
395.46	1638.38
395.65	1619.65
395.84	1675.82
396.04	1757.74
396.23	1743.70
396.42	1834.98
396.62	1778.81
396.81	1724.97
397.00	1739.02
397.19	1753.06
397.39	1696.89
397.58	1863.07
397.77	1856.04
397.97	1806.89
398.16	1863.07
398.35	1877.11
398.55	1884.13
398.74	1832.64
398.93	1898.17
399.12	1870.09
399.32	1907.54
399.51	1926.26
399.70	1994.14
399.90	1937.96
400.09	2012.86
400.28	2045.63
400.47	2064.35
400.67	2024.56
400.86	2033.93
401.05	1996.48
401.24	2162.66
401.44	2127.55
401.63	2076.06
401.82	2157.97
402.01	2083.08
402.21	2272.66
402.40	2092.44
402.59	2134.57
402.78	2195.42
402.97	2148.61
403.17	2277.34
403.36	2232.87
403.55	2228.19
403.74	2417.77
403.93	2361.60
404.13	2431.82
404.32	2279.68
404.51	2340.54
404.70	2385.01
404.89	2403.73
405.09	2387.35
405.28	2382.67
405.47	2448.20
405.66	2567.57
405.85	2569.91
406.05	2546.50
406.24	2518.42
406.43	2548.84
406.62	2621.40
406.81	2609.70
407.00	2637.78
407.20	2562.89
407.39	2668.21
407.58	2647.15
407.77	2619.06
407.96	2661.19
408.15	2733.75
408.34	2712.68
408.54	2808.64
408.73	2857.79
408.92	2803.96
409.11	2867.16
409.30	2963.12
409.49	2885.88
409.68	2988.86
409.87	3077.80
410.07	3040.36
410.26	2796.94
410.45	3056.74
410.64	2977.16
410.83	3066.10
411.02	3087.17
411.21	3283.77
411.40	3173.77
411.59	3197.17
411.78	3171.43
411.98	3192.49
412.17	3342.28
412.36	3344.63
412.55	3328.24
412.74	3405.48
412.93	3370.37
413.12	3281.43
413.31	3651.24
413.50	3578.68
413.69	3531.87
413.88	3571.66
414.07	3637.19
414.26	3611.45
414.45	3735.50
414.64	3641.87
414.83	3808.05
415.02	3639.53
415.22	3798.69
415.41	3861.88
415.60	3794.01
415.79	3988.27
415.98	3962.53
416.17	4021.04
416.36	3908.69
416.55	4058.49
416.74	4049.13
416.93	4135.73
417.12	4121.68
417.31	4002.32
417.50	4339.35
417.69	4304.25
417.88	4145.09
418.07	4362.76
418.26	4236.37
418.45	4140.41
418.64	4458.72
418.83	4454.04
419.02	4418.93
419.21	4643.62
419.39	4510.21
419.58	4482.13
419.77	4444.68
419.96	4732.56
420.15	4678.73
420.34	4498.51
420.53	4713.84
420.72	4622.56
420.91	4873.00
421.10	4861.29
421.29	4858.95
421.48	4692.77
421.67	4704.48
421.86	4706.82
422.05	4896.40
422.24	4634.26
422.43	4870.65
422.61	4880.02
422.80	4912.78
422.99	4826.18
423.18	4844.91
423.37	5004.07
423.56	4973.64
423.75	4915.12
423.94	4915.12
424.13	4608.51
424.32	4772.35
424.50	5053.22
424.69	5195.99
424.88	5029.81
425.07	4938.53
425.26	4933.85
425.45	4929.17
425.64	4950.23
425.83	5102.37
426.01	4891.72
426.20	4933.85
426.39	5011.09
426.58	5013.43
426.77	5081.30
426.96	5020.45
427.15	5123.43
427.33	5224.08
427.52	5172.58
427.71	5191.31
427.90	5221.74
428.09	5238.12
428.28	5394.93
428.46	5455.79
428.65	5408.98
428.84	5490.90
429.03	5490.90
429.22	5427.70
429.40	5406.64
429.59	5427.70
429.78	5310.68
429.97	5231.10
430.16	5329.40
430.34	5500.26
430.53	5507.28
430.72	5706.23
430.91	5593.88
431.10	5734.31
431.28	5811.55
431.47	5769.42
431.66	5909.85
431.85	5682.82
432.03	5923.90
432.22	5980.07
432.41	5937.94
432.60	5841.98
432.79	5968.37
432.97	5881.77
433.16	6054.97
433.35	6015.18
433.54	6092.41
433.72	6029.22
433.91	6010.50
434.10	6064.33
434.28	6094.76
434.47	6289.02
434.66	6305.40
434.85	6373.28
435.03	6319.45
435.22	6363.92
435.41	6392.00
435.59	6511.37
435.78	6492.65
435.97	6530.09
436.16	6380.30
436.34	6523.07
436.53	6443.49
436.72	6532.44
436.90	6480.94
437.09	6607.33
437.28	6408.39
437.46	6516.05
437.65	6832.02
437.84	6733.72
438.02	6726.70
438.21	6883.52
438.40	6806.28
438.58	7021.61
438.77	7014.59
438.96	6974.80
439.14	7103.53
439.33	7155.02
439.52	7162.04
439.70	7145.66
439.89	7384.39
440.08	7335.24
440.26	7323.54
440.45	7456.95
440.63	7438.22
440.82	7599.72
441.01	7597.38
441.19	7618.44
441.38	7599.72
441.57	7880.58
441.75	7885.26
441.94	7939.10
442.12	8028.04
442.31	8074.85
442.50	8028.04
442.68	8046.76
442.87	7777.60
443.05	8173.15
443.24	8243.37
443.43	8133.36
443.61	8252.73
443.80	8248.05
443.98	7990.59
444.17	7903.99
444.35	8278.47
444.54	8461.04
444.73	8308.90
444.91	8278.47
445.10	8379.12
445.28	8301.88
445.47	8336.99
445.65	8402.52
445.84	8510.19
446.02	8613.17
446.21	8528.91
446.39	8484.44
446.58	8540.61
446.77	8594.45
446.95	8299.54
447.14	8524.23
447.32	8690.41
447.51	8475.08
447.69	8414.23
447.88	8568.70
448.06	8442.31
448.25	8521.89
448.43	8645.94
448.62	8664.66
448.80	8592.11
448.99	8552.32
449.17	8781.69
449.36	8865.95
449.54	8821.48
449.73	9006.38
449.91	8985.32
450.10	9083.62
450.28	8982.98
450.46	9006.38
450.65	9053.19
450.83	9359.80
451.02	8964.25
451.20	9214.69
451.39	9280.22
451.57	9291.93
451.76	8945.53
451.94	9184.26
452.13	9399.59
452.31	9219.37
452.49	9242.78
452.68	9245.12
452.86	9324.69
453.05	9369.16
453.23	9547.05
453.42	9455.76
453.60	9465.13
453.78	9645.35
453.97	9476.83
454.15	9434.70
454.34	9420.66
454.52	9741.31
454.70	9769.40
454.89	9839.61
455.07	9823.23
455.26	9942.60
455.44	9923.87
455.62	9942.60
455.81	9881.74
455.99	9947.28
456.17	10003.45
456.36	9872.38
456.54	9989.41
456.73	10420.06
456.91	10628.37
457.09	10464.54
457.28	10546.45
457.46	10242.18
457.64	10611.99
457.83	10668.16
458.01	10466.88
458.19	10874.13
458.38	10466.88
458.56	10911.58
458.74	10478.58
458.93	10729.02
459.11	10761.78
459.29	10743.06
459.48	10869.45
459.66	10857.75
459.84	10977.11
460.03	11145.63
460.21	11019.24
460.39	11136.27
460.57	10895.19
460.76	10967.75
460.94	11325.85
461.12	11330.53
461.31	11208.83
461.49	11159.67
461.67	11349.26
461.85	11410.11
462.04	11321.17
462.22	11529.48
462.40	11700.34
462.59	11524.80
462.77	11513.10
462.95	11728.42
463.13	11775.24
463.32	11702.68
463.50	11751.83
463.68	11822.05
463.86	11740.13
464.05	11726.08
464.23	11566.93
464.41	11796.30
464.59	11822.05
464.78	12238.66
464.96	12032.69
465.14	11901.62
465.32	11929.71
465.50	12208.23
465.69	12203.55
465.87	12252.70
466.05	11793.96
466.23	12154.40
466.41	12358.03
466.60	12491.44
466.78	12145.04
466.96	12149.72
467.14	12109.93
467.32	12397.82
467.51	12390.80
467.69	12250.36
467.87	12196.53
468.05	12493.78
468.23	12407.18
468.41	12695.07
468.60	12458.67
468.78	12601.44
468.96	12835.50
469.14	12655.28
469.32	13041.46
469.50	12428.24
469.69	13067.21
469.87	13107.00
470.05	13043.81
470.23	13121.04
470.41	13336.37
470.59	13322.33
470.77	13008.70
470.95	13327.01
471.14	13462.76
471.32	13132.75
471.50	13514.25
471.68	13631.28
471.86	13851.29
472.04	13771.71
472.22	13954.27
472.40	13762.35
472.58	14106.41
472.77	14200.03
472.95	14176.62
473.13	14916.23
473.31	14111.09
473.49	14174.28
473.67	13958.96
473.85	14391.95
474.03	14740.69
474.21	14286.63
474.39	14913.89
474.57	14621.33
474.75	14867.08
474.93	15087.09
475.12	14995.81
475.30	15243.91
475.48	15136.24
475.66	15309.44
475.84	15190.08
476.02	15283.70
476.20	15463.92
476.38	15527.11
476.56	16137.99
476.74	16194.17
476.92	15819.68
477.10	15896.92
477.28	15840.75
477.46	16215.23
477.64	16423.54
477.82	16252.68
478.00	16734.83
478.18	16891.65
478.36	17039.10
478.54	17263.79
478.72	17109.32
478.90	17692.11
479.08	17425.29
479.26	17867.65
479.44	17687.43
479.62	17741.26
479.80	17982.34
479.98	18291.29
480.16	18677.48
480.34	18314.69
480.52	18569.81
480.70	18647.05
480.88	18504.28
481.06	18698.54
481.24	18743.01
481.41	19112.81
481.59	19414.74
481.77	19534.11
481.95	19740.08
482.13	19758.80
482.31	19620.71
482.49	20357.98
482.67	20339.26
482.85	20500.75
483.03	20638.84
483.21	21102.27
483.39	20886.94
483.57	20690.34
483.74	21165.46
483.92	21460.37
484.10	21326.96
484.28	21895.71
484.46	22047.85
484.64	22417.65
484.82	22099.34
485.00	22513.61
485.18	22630.64
485.35	22951.29
485.53	22946.61
485.71	23007.47
485.89	23208.75
486.07	23438.12
486.25	23466.21
486.43	23332.80
486.61	24367.32
486.78	24397.74
486.96	24247.95
487.14	24599.03
487.32	24538.18
487.50	25046.07
487.68	25221.61
487.85	25137.35
488.03	25851.22
488.21	25589.08
488.39	25659.29
488.57	26164.85
488.75	26249.11
488.92	26452.73
489.10	27061.27
489.28	26625.93
489.46	27206.39
489.64	26897.44
489.81	28100.47
489.99	27597.26
490.17	27669.81
490.35	28336.87
490.53	28568.58
490.70	28563.90
490.88	28191.75
491.06	29186.48
491.24	28669.22
491.41	29069.45
491.59	29329.25
491.77	29352.66
491.95	29881.62
492.13	29883.96
492.30	30338.02
492.48	30087.59
492.66	30349.73
492.84	30703.15
493.01	30848.26
493.19	31044.87
493.37	31161.89
493.54	30850.60
493.72	31775.11
493.90	31431.05
494.08	31915.54
494.25	32275.99
494.43	31941.29
494.61	32430.46
494.79	32428.12
494.96	32488.98
495.14	32844.74
495.32	33259.01
495.49	32950.06
495.67	33591.37
495.85	33069.43
496.02	34059.48
496.20	34043.09
496.38	34258.42
496.55	34211.61
496.73	35007.39
496.91	34668.02
497.09	35189.95
497.26	34967.60
497.44	35227.40
497.62	35674.45
497.79	35494.22
497.97	35721.26
498.14	36053.61
498.32	36318.09
498.50	36318.09
498.67	36636.41
498.85	36765.14
499.03	36882.16
499.20	36783.86
499.38	36973.44
499.56	36624.70
499.73	37024.93
499.91	37195.79
500.08	37734.12
500.26	37537.51
500.44	37549.21
500.61	37785.61
500.79	37823.06
500.97	38253.72
501.14	38635.22
501.32	38618.84
501.49	38843.53
501.67	38670.33
501.84	38981.62
502.02	38557.99
502.20	39248.44
502.37	39370.15
502.55	39140.78
502.72	39576.12
502.90	39447.39
503.07	39641.65
503.25	39838.26
503.43	39697.83
503.60	40437.44
503.78	40388.28
503.95	40297.00
504.13	40910.22
504.30	40893.84
504.48	40938.31
504.65	40914.90
504.83	41200.45
505.01	41432.16
505.18	41188.75
505.36	41911.97
505.53	41514.08
505.71	41689.62
505.88	42366.04
506.06	41516.42
506.23	41972.83
506.41	42204.54
506.58	42529.87
506.76	42124.96
506.93	42494.77
507.11	42307.52
507.28	42768.61
507.46	43299.91
507.63	43161.82
507.81	43201.61
507.98	42843.51
508.16	43175.86
508.33	43590.14
508.50	43428.64
508.68	43604.18
508.85	43950.58
509.03	43873.34
509.20	44065.27
509.38	44217.40
509.55	44292.30
509.73	44507.63
509.90	44966.37
510.08	44598.91
510.25	44648.06
510.42	44364.85
510.60	45017.86
510.77	45207.45
510.95	45811.31
511.12	45303.41
511.30	45022.54
511.47	45797.26
511.64	45382.99
511.82	45869.82
511.99	45514.06
512.17	46131.96
512.34	45881.52
512.51	46464.32
512.69	46284.09
512.86	46586.02
513.04	46696.03
513.21	46829.44
513.38	46616.45
513.56	47152.43
513.73	46595.38
513.90	46756.88
514.08	46878.59
514.25	47313.93
514.43	47674.37
514.60	47414.57
514.77	47571.39
514.95	47646.29
515.12	47679.05
515.29	47681.39
515.47	48149.50
515.64	47922.47
515.81	48039.50
515.99	47969.28
516.16	48715.91
516.33	48619.95
516.51	48631.65
516.68	48554.41
516.85	48992.09
517.03	49162.95
517.20	48732.29
517.37	49111.46
517.54	48795.49
517.72	49357.22
517.89	49123.16
518.06	49492.97
518.24	49095.08
518.41	49104.44
518.58	49563.18
518.75	49511.69
518.93	49944.69
519.10	49668.51
519.27	49717.66
519.45	49790.22
519.62	49916.61
519.79	50115.55
519.96	50396.42
520.14	50028.95
520.31	50188.11
520.48	50576.64
520.65	50513.44
520.83	51007.29
521.00	50515.78
521.17	50417.48
521.34	50684.30
521.52	50829.41
521.69	50995.59
521.86	51166.45
522.03	51393.48
522.20	51508.17
522.38	51601.79
522.55	51576.04
522.72	51473.06
522.89	51288.16
523.07	51849.89
523.24	51634.56
523.41	51554.98
523.58	51444.98
523.75	51999.68
523.92	51931.81
524.10	52004.36
524.27	52097.98
524.44	51957.55
524.61	52254.80
524.78	52257.14
524.96	52502.90
525.13	52467.79
525.30	52549.71
525.47	52701.84
525.64	52420.98
525.81	52601.20
525.98	52963.98
526.16	52800.15
526.33	52643.33
526.50	52926.53
526.67	52956.96
526.84	52952.28
527.01	53137.18
527.18	52830.57
527.36	53045.90
527.53	53076.33
527.70	53310.38
527.87	53530.39
528.04	53064.63
528.21	53560.82
528.38	53691.89
528.55	53521.03
528.72	53354.85
528.89	53804.24
529.07	53621.67
529.24	53525.71
529.41	53839.34
529.58	53914.24
529.75	53661.46
529.92	53584.22
530.09	53839.34
530.26	53886.15
530.43	54019.56
530.60	53787.85
530.77	53661.46
530.94	54012.54
531.11	54108.50
531.28	54274.68
531.46	54370.64
531.63	54246.60
531.80	54302.77
531.97	54628.10
532.14	54721.72
532.31	54466.61
532.48	54740.45
532.65	54635.13
532.82	54773.22
532.99	54721.72
533.16	54698.32
533.33	54780.24
533.50	55175.79
533.67	54890.24
533.84	54780.24
534.01	54993.23
534.18	55002.59
534.35	55320.90
534.52	55248.35
534.69	55346.65
534.86	55274.09
535.03	55091.53
535.20	55103.23
535.37	55419.20
535.54	55121.96
535.71	55428.57
535.88	55547.93
536.05	55358.35
536.22	55526.87
536.38	55480.06
536.55	55538.57
536.72	55606.45
536.89	55735.18
537.06	55763.26
537.23	56027.74
537.40	55601.77
537.57	55957.53
537.74	55873.27
537.91	55938.80
538.08	55896.67
538.25	55887.31
538.42	55819.44
538.59	56313.29
538.75	56151.79
538.92	56203.28
539.09	56402.23
539.26	56346.06
539.43	56413.93
539.60	56381.16
539.77	56545.00
539.94	56383.51
540.11	56371.80
540.28	56322.65
540.44	56547.34
540.61	56704.16
540.78	56545.00
540.95	56596.49
541.12	56657.35
541.29	56458.40
541.46	56371.80
541.62	56786.08
541.79	56790.76
541.96	56465.42
542.13	56753.31
542.30	57027.15
542.47	56755.65
542.63	56832.89
542.80	57219.08
542.97	57155.88
543.14	57254.18
543.31	57155.88
543.48	57235.46
543.64	57506.96
543.81	57436.75
543.98	57427.38
544.15	57474.20
544.32	57687.18
544.48	57574.84
544.65	57352.49
544.82	57570.16
544.99	57254.18
545.16	57385.25
545.32	57403.98
545.49	57748.04
545.66	57764.42
545.83	57759.74
546.00	57820.59
546.16	57731.65
546.33	57396.96
546.50	57614.63
546.67	57733.99
546.83	57570.16
547.00	57771.44
547.17	57825.28
547.34	58103.80
547.50	58080.39
547.67	58150.61
547.84	58110.82
548.00	58267.64
548.17	58405.73
548.34	58166.99
548.51	58127.20
548.67	58244.23
548.84	58333.17
549.01	58253.59
549.18	58103.80
549.34	58232.53
549.51	58312.11
549.68	58660.85
549.84	58525.10
550.01	58370.62
550.18	58372.96
550.34	58389.34
550.51	58717.02
550.68	58688.93
550.84	58145.93
551.01	58642.12
551.18	58396.37
551.34	58583.61
551.51	58541.48
551.68	58824.68
551.84	58553.18
552.01	58536.80
552.18	58677.23
552.34	58824.68
552.51	58691.27
552.68	58728.72
552.84	58590.63
553.01	58976.82
553.18	58960.44
553.34	59082.14
553.51	58773.19
553.67	58848.09
553.84	59009.59
554.01	59047.04
554.17	59037.67
554.34	58887.88
554.51	59054.06
554.67	59243.64
554.84	59084.48
555.00	59121.93
555.17	59224.92
555.33	59339.60
555.50	58990.86
555.67	59058.74
555.83	59124.27
556.00	59103.21
556.16	59629.83
556.33	59297.47
556.50	59238.96
556.66	59494.08
556.83	59320.88
556.99	59412.16
557.16	59547.91
557.32	59419.18
557.49	59686.00
557.65	59330.24
557.82	59465.99
557.98	59311.52
558.15	59613.44
558.32	59618.13
558.48	59512.80
558.65	59599.40
558.81	59554.93
558.98	59695.36
559.14	59828.77
559.31	59870.90
559.47	59625.15
559.64	59725.79
559.80	59704.73
559.97	59662.60
560.13	59611.10
560.30	59941.12
560.46	59728.13
560.63	59728.13
560.79	59901.33
560.96	59906.01
561.12	59931.76
561.29	59751.54
561.45	59971.55
561.61	59856.86
561.78	59969.21
561.94	59887.29
562.11	59924.74
562.27	59929.42
562.44	59943.46
562.60	60268.79
562.77	59999.63
562.93	59934.10
563.10	60058.15
563.26	60051.12
563.42	60126.02
563.59	60051.12
563.75	60168.15
563.92	60074.53
564.08	59922.40
564.24	60245.39
564.41	60133.04
564.57	60200.92
564.74	60196.24
564.90	60282.84
565.07	60243.05
565.23	60184.54
565.39	60175.17
565.56	60341.35
565.72	60334.33
565.88	60472.42
566.05	60367.10
566.21	60067.51
566.38	60097.94
566.54	60385.82
566.70	60542.64
566.87	60175.17
567.03	60306.24
567.19	60521.57
567.36	60374.12
567.52	60488.80
567.68	60659.66
567.85	60308.58
568.01	60530.93
568.17	60289.86
568.34	60584.77
568.50	60458.38
568.66	60203.26
568.83	60350.71
568.99	60278.16
569.15	60446.68
569.32	60413.91
569.48	60331.99
569.64	60676.05
569.81	60334.33
569.97	60320.29
570.13	60463.06
570.30	60559.02
570.46	60530.93
570.62	60598.81
570.78	60650.30
570.95	60580.09
571.11	60734.56
571.27	60465.40
571.43	60598.81
571.60	60533.28
571.76	60718.18
571.92	60645.62
572.09	60573.06
572.25	60790.73
572.41	60392.84
572.57	60582.43
572.74	60793.07
572.90	60654.98
573.06	60671.37
573.22	60547.32
573.38	60568.38
573.55	60697.11
573.71	60893.72
573.87	60870.31
574.03	60582.43
574.20	60694.77
574.36	60654.98
574.52	60608.17
574.68	60790.73
574.84	60786.05
575.01	60891.38
575.17	60573.06
575.33	60797.76
575.49	60734.56
575.65	60769.67
575.82	60795.42
575.98	60872.65
576.14	61031.81
576.30	60966.27
576.46	60669.03
576.62	60832.86
576.79	60683.07
576.95	60718.18
577.11	60764.99
577.27	60816.48
577.43	60898.40
577.59	60776.69
577.75	60713.50
577.92	60858.61
578.08	60882.02
578.24	60867.97
578.40	61013.08
578.56	61038.83
578.72	61059.90
578.88	61219.05
579.04	60987.34
579.21	60891.38
579.37	60872.65
579.53	61036.49
579.69	60865.63
579.85	60999.04
580.01	61087.98
580.17	60816.48
580.33	60970.96
580.49	61057.56
580.65	60933.51
580.82	61027.13
580.98	60828.18
581.14	60823.50
581.30	61008.40
581.46	61050.53
581.62	61085.64
581.78	60842.23
581.94	61109.05
582.10	60860.95
582.26	61003.72
582.42	60959.25
582.58	60924.14
582.74	60989.68
582.90	60959.25
583.06	60856.27
583.22	60907.76
583.38	60917.12
583.54	60992.02
583.70	61008.40
583.86	60982.66
584.02	61041.17
584.18	61183.94
584.34	60931.17
584.50	60954.57
584.66	60933.51
584.82	60692.43
584.98	61265.86
585.14	60994.36
585.30	60809.46
585.46	61216.71
585.62	61155.86
585.78	61291.61
585.94	60842.23
586.10	61003.72
586.26	61008.40
586.42	61226.07
586.58	61148.84
586.74	61151.18
586.90	60966.27
587.06	61174.58
587.22	61141.81
587.38	61116.07
587.54	61258.84
587.70	61120.75
587.86	60966.27
588.02	61167.56
588.18	61408.64
588.34	61034.15
588.49	61162.88
