SpectraSuite Data File
++++++++++++++++++++++++++++++++++++
Date: Fri Oct 25 11:23:47 EDT 2013
User: price-jones
Dark Spectrum Present: No
Reference Spectrum Present: No
Number of Sampled Component Spectra: 1
Spectrometers: USB2+H05261
Integration Time (usec): 100000 (USB2+H05261)
Spectra Averaged: 1 (USB2+H05261)
Boxcar Smoothing: 0 (USB2+H05261)
Correct for Electrical Dark: No (USB2+H05261)
Strobe/Lamp Enabled: No (USB2+H05261)
Correct for Detector Non-linearity: No (USB2+H05261)
Correct for Stray Light: No (USB2+H05261)
Number of Pixels in Processed Spectrum: 2048
>>>>>Begin Processed Spectral Data<<<<<
365.73	276.18
365.92	276.18
366.12	276.18
366.32	147.45
366.52	152.13
366.72	70.22
366.91	117.03
367.11	133.41
367.31	138.09
367.51	93.62
367.70	131.07
367.90	84.26
368.10	88.94
368.30	128.73
368.49	112.35
368.69	147.45
368.89	203.63
369.09	93.62
369.28	128.73
369.48	161.50
369.68	126.39
369.87	189.58
370.07	201.29
370.27	250.44
370.47	255.12
370.66	589.82
370.86	657.69
371.06	674.07
371.25	662.37
371.45	636.63
371.65	699.82
371.84	739.61
372.04	692.80
372.24	629.60
372.44	685.78
372.63	779.40
372.83	732.59
373.03	727.91
373.22	713.86
373.42	734.93
373.62	763.01
373.81	767.70
374.01	819.19
374.21	812.17
374.40	823.87
374.60	793.44
374.79	784.08
374.99	837.91
375.19	887.06
375.38	753.65
375.58	746.63
375.78	875.36
375.97	777.06
376.17	809.83
376.37	847.27
376.56	882.38
376.76	880.04
376.95	868.34
377.15	929.19
377.35	952.60
377.54	830.89
377.74	924.51
377.93	943.24
378.13	861.32
378.33	926.85
378.52	964.30
378.72	903.45
378.91	1020.47
379.11	943.24
379.31	917.49
379.50	999.41
379.70	968.98
379.89	954.94
380.09	959.62
380.28	990.05
380.48	999.41
380.68	976.00
380.87	987.71
381.07	966.64
381.26	1034.52
381.46	1060.26
381.65	1121.12
381.85	964.30
382.04	1062.60
382.24	1111.75
382.43	985.37
382.63	1036.86
382.83	1114.10
383.02	1095.37
383.22	1118.78
383.41	1097.71
383.61	1109.41
383.80	1067.28
384.00	1144.52
384.19	1109.41
384.39	1228.78
384.58	1224.10
384.78	1142.18
384.97	1076.65
385.17	1100.05
385.36	1111.75
385.56	1130.48
385.75	1252.19
385.95	1163.25
386.14	1160.91
386.34	1210.06
386.53	1188.99
386.72	1210.06
386.92	1203.04
387.11	1306.02
387.31	1198.35
387.50	1296.66
387.70	1137.50
387.89	1254.53
388.09	1289.64
388.28	1240.48
388.48	1352.83
388.67	1378.58
388.86	1296.66
389.06	1383.26
389.25	1348.15
389.45	1364.53
389.64	1378.58
389.84	1345.81
390.03	1331.76
390.22	1455.81
390.42	1350.49
390.61	1320.06
390.81	1322.40
391.00	1446.45
391.19	1483.90
391.39	1511.99
391.58	1446.45
391.78	1397.30
391.97	1465.18
392.16	1378.58
392.36	1547.09
392.55	1486.24
392.75	1472.20
392.94	1563.48
393.13	1549.43
393.33	1563.48
393.52	1636.03
393.71	1645.40
393.91	1671.14
394.10	1556.46
394.29	1591.56
394.49	1568.16
394.68	1671.14
394.88	1610.29
395.07	1556.46
395.26	1722.63
395.46	1610.29
395.65	1675.82
395.84	1741.36
396.04	1842.00
396.23	1799.87
396.42	1750.72
396.62	1769.44
396.81	1893.49
397.00	1722.63
397.19	1781.15
397.39	1806.89
397.58	1734.34
397.77	1799.87
397.97	1865.41
398.16	1937.96
398.35	1912.22
398.55	1956.69
398.74	1907.54
398.93	1872.43
399.12	1989.46
399.32	1891.15
399.51	1998.82
399.70	1984.77
399.90	1954.35
400.09	2057.33
400.28	2005.84
400.47	2001.16
400.67	2022.22
400.86	2059.67
401.05	2062.01
401.24	2153.29
401.44	2160.31
401.63	2165.00
401.82	2181.38
402.01	2143.93
402.21	2209.47
402.40	2242.23
402.59	2230.53
402.78	2270.32
402.97	2263.30
403.17	2228.19
403.36	2291.38
403.55	2263.30
403.74	2399.05
403.93	2457.56
404.13	2324.15
404.32	2389.69
404.51	2263.30
404.70	2443.52
404.89	2406.07
405.09	2509.05
405.28	2450.54
405.47	2450.54
405.66	2612.04
405.85	2605.02
406.05	2614.38
406.24	2518.42
406.43	2600.34
406.62	2658.85
406.81	2654.17
407.00	2633.10
407.20	2733.75
407.39	2644.81
407.58	2743.11
407.77	2897.58
407.96	2869.50
408.15	2881.20
408.34	2773.53
408.54	2738.43
408.73	2810.98
408.92	2841.41
409.11	2902.26
409.30	2958.44
409.49	2981.84
409.68	2862.48
409.87	2918.65
410.07	2977.16
410.26	3070.78
410.45	2979.50
410.64	3108.23
410.83	3091.85
411.02	3098.87
411.21	3138.66
411.40	3176.11
411.59	3141.00
411.78	3279.09
411.98	3112.91
412.17	3344.63
412.36	3351.65
412.55	3520.17
412.74	3417.18
412.93	3506.12
413.12	3515.48
413.31	3592.72
413.50	3555.27
413.69	3480.38
413.88	3400.80
414.07	3524.85
414.26	3501.44
414.45	3674.64
414.64	3819.75
414.83	3831.46
415.02	3693.37
415.22	3744.86
415.41	3758.90
415.60	3911.04
415.79	4028.06
415.98	4018.70
416.17	3889.97
416.36	4093.60
416.55	3992.95
416.74	4140.41
416.93	4093.60
417.12	4112.32
417.31	4119.34
417.50	4100.62
417.69	4388.50
417.88	4451.70
418.07	4264.46
418.26	4400.21
418.45	4325.31
418.64	4489.15
418.83	4351.06
419.02	4451.70
419.21	4435.32
419.39	4643.62
419.58	4545.32
419.77	4599.15
419.96	4533.62
420.15	4660.01
420.34	4727.88
420.53	4617.88
420.72	4781.71
420.91	4685.75
421.10	4814.48
421.29	4896.40
421.48	4683.41
421.67	4826.18
421.86	4772.35
422.05	4716.18
422.24	4828.53
422.43	4926.83
422.61	4959.60
422.80	5006.41
422.99	4987.68
423.18	5116.41
423.37	5053.22
423.56	4917.47
423.75	4945.55
423.94	4798.10
424.13	4580.43
424.32	4737.24
424.50	4901.08
424.69	5160.88
424.88	5081.30
425.07	4999.38
425.26	4997.04
425.45	4828.53
425.64	5011.09
425.83	4933.85
426.01	5060.24
426.20	5135.14
426.39	5102.37
426.58	5055.56
426.77	5093.01
426.96	5172.58
427.15	5249.82
427.33	5172.58
427.52	5238.12
427.71	5294.29
427.90	5336.42
428.09	5359.83
428.28	5366.85
428.46	5430.04
428.65	5362.17
428.84	5502.60
429.03	5544.73
429.22	5404.30
429.40	5383.23
429.59	5465.15
429.78	5427.70
429.97	5317.70
430.16	5619.63
430.34	5589.20
430.53	5640.69
430.72	5619.63
430.91	5720.27
431.10	5687.50
431.28	5851.34
431.47	6073.69
431.66	5930.92
431.85	5795.17
432.03	5998.79
432.22	6080.71
432.41	6033.90
432.60	5895.81
432.79	6069.01
432.97	6029.22
433.16	6164.97
433.35	6054.97
433.54	6148.59
433.72	6043.26
433.91	6050.28
434.10	6221.14
434.28	5973.05
434.47	6239.87
434.66	6251.57
434.85	6221.14
435.03	6420.09
435.22	6211.78
435.41	6434.13
435.59	6502.01
435.78	6459.88
435.97	6420.09
436.16	6452.86
436.34	6492.65
436.53	6607.33
436.72	6726.70
436.90	6478.60
437.09	6700.95
437.28	6579.25
437.46	6651.80
437.65	6729.04
437.84	6799.26
438.02	6855.43
438.21	6829.68
438.40	6759.47
438.58	7073.10
438.77	7077.78
438.96	7077.78
439.14	7190.13
439.33	7180.76
439.52	7185.44
439.70	7178.42
439.89	7262.68
440.08	7435.88
440.26	7456.95
440.45	7377.37
440.63	7410.14
440.82	7770.58
441.01	7482.69
441.19	7609.08
441.38	7641.85
441.57	7702.70
441.75	7899.31
441.94	8084.21
442.12	7967.18
442.31	8079.53
442.50	7976.55
442.68	8013.99
442.87	7988.25
443.05	8088.89
443.24	8341.67
443.43	8217.62
443.61	8142.72
443.80	8372.10
443.98	8116.98
444.17	7894.63
444.35	8278.47
444.54	8547.64
444.73	8376.78
444.91	8365.07
445.10	8409.54
445.28	8315.92
445.47	8269.11
445.65	8442.31
445.84	8423.59
446.02	8575.72
446.21	8339.33
446.39	8437.63
446.58	8580.40
446.77	8713.81
446.95	8269.11
447.14	8617.85
447.32	8465.72
447.51	8564.02
447.69	8463.38
447.88	8657.64
448.06	8655.30
448.25	8468.06
448.43	8507.85
448.62	8575.72
448.80	8748.92
448.99	8683.39
449.17	8667.00
449.36	8727.86
449.54	8833.18
449.73	8819.14
449.91	8966.59
450.10	9132.77
450.28	9097.66
450.46	9256.82
450.65	9076.60
450.83	9074.26
451.02	8940.85
451.20	9158.52
451.39	9287.25
451.57	9228.73
451.76	9256.82
451.94	9303.63
452.13	9345.76
452.31	9401.93
452.49	9149.15
452.68	9521.30
452.86	9628.96
453.05	9479.17
453.23	9755.35
453.42	9540.02
453.60	9533.00
453.78	9921.53
453.97	9551.73
454.15	9502.58
454.34	9537.68
454.52	9577.47
454.70	9778.76
454.89	9912.17
455.07	9813.87
455.26	9860.68
455.44	9909.83
455.62	9954.30
455.81	9996.43
455.99	9818.55
456.17	10099.41
456.36	10300.70
456.54	10291.34
456.73	10380.28
456.91	10551.14
457.09	10354.53
457.28	10583.90
457.46	10174.31
457.64	10455.17
457.83	10619.01
458.01	10476.24
458.19	10656.46
458.38	10619.01
458.56	10832.00
458.74	10932.64
458.93	10663.48
459.11	10806.25
459.29	10780.51
459.48	11077.76
459.66	10799.23
459.84	10967.75
460.03	11262.66
460.21	11052.01
460.39	11246.27
460.57	11075.42
460.76	11386.71
460.94	11356.28
461.12	11382.03
461.31	11164.36
461.49	11302.45
461.67	11281.38
461.85	11304.79
462.04	11494.37
462.22	11573.95
462.40	11559.91
462.59	11655.87
462.77	11573.95
462.95	11709.70
463.13	11721.40
463.32	11548.20
463.50	11679.27
463.68	11836.09
463.86	11885.24
464.05	11901.62
464.23	11683.95
464.41	12037.38
464.59	11782.26
464.78	12147.38
464.96	12039.72
465.14	11901.62
465.32	12056.10
465.50	12208.23
465.69	12243.34
465.87	12233.98
466.05	12229.30
466.23	12299.52
466.41	12369.73
466.60	12573.36
466.78	12241.00
466.96	12170.79
467.14	12168.45
467.32	12503.14
467.51	12587.40
467.69	12212.92
467.87	12727.83
468.05	12561.66
468.23	12540.59
468.41	12519.53
468.60	12528.89
468.78	12975.93
468.96	12580.38
469.14	12980.61
469.32	13102.32
469.50	12517.18
469.69	12924.44
469.87	13238.07
470.05	13291.90
470.23	12973.59
470.41	13472.12
470.59	13568.09
470.77	13458.08
470.95	13509.57
471.14	13544.68
471.32	13254.45
471.50	13741.29
471.68	13575.11
471.86	13556.38
472.04	13839.59
472.22	14160.24
472.40	13598.51
472.58	14181.31
472.77	14054.92
472.95	14326.42
473.13	14614.30
473.31	14326.42
473.49	14389.61
473.67	14511.32
473.85	14417.70
474.03	14675.16
474.21	14630.69
474.39	14881.13
474.57	14913.89
474.75	15201.78
474.93	15084.75
475.12	14991.13
475.30	15515.41
475.48	15117.52
475.66	15250.93
475.84	15091.77
476.02	15632.44
476.20	15609.03
476.38	15941.39
476.56	16208.21
476.74	16004.58
476.92	16140.33
477.10	16149.70
477.28	16245.66
477.46	16411.84
477.64	16528.86
477.82	16486.73
478.00	17057.82
478.18	17109.32
478.36	17114.00
478.54	17245.07
478.72	17142.08
478.90	17781.05
479.08	17741.26
479.26	18064.25
479.44	17724.88
479.62	17968.29
479.80	18094.68
479.98	18143.83
480.16	18558.11
480.34	18555.77
480.52	18843.65
480.70	18457.46
480.88	18707.90
481.06	18941.96
481.24	19051.96
481.41	19138.56
481.59	19651.14
481.77	19477.94
481.95	19700.29
482.13	19843.06
482.31	19908.60
482.49	20025.62
482.67	20498.41
482.85	20795.66
483.03	20877.58
483.21	20872.90
483.39	21165.46
483.57	20847.15
483.74	21172.49
483.92	21607.83
484.10	21397.18
484.28	21818.47
484.46	22139.13
484.64	22356.80
484.82	21888.69
485.00	22302.96
485.18	22862.35
485.35	23105.77
485.53	22576.81
485.71	23070.66
485.89	23749.42
486.07	23468.55
486.25	23763.46
486.43	23992.83
486.61	23847.72
486.78	24381.36
486.96	24269.01
487.14	24912.66
487.32	24755.85
487.50	25181.82
487.68	25193.53
487.85	25200.55
488.03	25785.68
488.21	26125.06
488.39	26052.50
488.57	26382.52
488.75	26230.38
488.92	26656.36
489.10	26782.75
489.28	27182.98
489.46	27080.00
489.64	26939.57
489.81	27651.09
489.99	27805.56
490.17	27772.80
490.35	28194.09
490.53	28203.46
490.70	28638.80
490.88	28795.61
491.06	28854.12
491.24	29060.09
491.41	29345.64
491.59	29516.50
491.77	29551.60
491.95	29926.09
492.13	30115.67
492.30	30228.02
492.48	29923.75
492.66	30602.50
492.84	30841.24
493.01	30862.30
493.19	31042.53
493.37	31047.21
493.54	31241.47
493.72	31828.95
493.90	31646.38
494.08	32219.81
494.25	32229.18
494.43	32243.22
494.61	32954.74
494.79	32498.34
494.96	32496.00
495.14	33144.33
495.32	33446.26
495.49	33694.35
495.67	33523.49
495.85	34036.07
496.02	33745.84
496.20	34387.15
496.38	34103.95
496.55	34235.02
496.73	35304.64
496.91	34866.96
497.09	35058.88
497.26	35173.57
497.44	35290.60
497.62	35365.49
497.79	36360.22
497.97	35606.57
498.14	36442.14
498.32	36521.72
498.50	36334.48
498.67	36776.84
498.85	36861.10
499.03	37083.45
499.20	37303.46
499.38	37141.96
499.56	37305.80
499.73	37361.97
499.91	37874.55
500.08	38068.81
500.26	37729.44
500.44	38218.61
500.61	38129.67
500.79	37977.53
500.97	38272.44
501.14	38873.96
501.32	38948.85
501.49	38588.41
501.67	39047.16
501.84	39281.21
502.02	39056.52
502.20	39545.69
502.37	39370.15
502.55	39454.41
502.72	39732.93
502.90	39908.47
503.07	39833.58
503.25	40421.05
503.43	40142.53
503.60	39999.76
503.78	40280.62
503.95	40355.52
504.13	41006.19
504.30	40957.03
504.48	40781.49
504.65	40964.06
504.83	41469.61
505.01	41464.93
505.18	41357.27
505.36	41731.75
505.53	41455.57
505.71	41979.85
505.88	42424.55
506.06	41710.69
506.23	42511.15
506.41	42080.49
506.58	42314.55
506.76	42452.64
506.93	42749.88
507.11	42539.24
507.28	43049.47
507.46	43079.90
507.63	43337.36
507.81	43203.95
507.98	43351.40
508.16	43753.97
508.33	43826.53
508.50	43833.55
508.68	44065.27
508.85	44477.20
509.03	43915.47
509.20	44079.31
509.38	44666.78
509.55	44783.81
509.73	44746.36
509.90	45184.04
510.08	44648.06
510.25	44912.54
510.42	45104.46
510.60	45549.17
510.77	46036.00
510.95	45621.72
511.12	45453.20
511.30	45691.94
511.47	45958.76
511.64	46176.43
511.82	45837.05
511.99	46047.70
512.17	46408.14
512.34	46234.94
512.51	46649.22
512.69	46976.89
512.86	46831.78
513.04	46742.84
513.21	46775.61
513.38	46590.70
513.56	47313.93
513.73	47437.98
513.90	47299.89
514.08	47470.75
514.25	47536.28
514.43	47636.92
514.60	47421.59
514.77	47796.08
514.95	48329.72
515.12	47473.09
515.29	47803.10
515.47	48182.27
515.64	48315.68
515.81	48205.67
515.99	48570.80
516.16	48954.64
516.33	48767.40
516.51	48884.43
516.68	48645.69
516.85	48692.50
517.03	49043.59
517.20	49338.49
517.37	49172.31
517.54	48772.08
517.72	49050.61
517.89	49497.65
518.06	49577.23
518.24	49258.91
518.41	49631.06
518.58	49991.50
518.75	49577.23
518.93	49738.72
519.10	49574.89
519.27	49897.88
519.45	50050.02
519.62	50174.06
519.79	49947.03
519.96	50300.45
520.14	50370.67
520.31	50270.03
520.48	50616.43
520.65	50260.66
520.83	50899.63
521.00	51161.77
521.17	50892.61
521.34	50981.55
521.52	50997.93
521.69	51189.86
521.86	51110.28
522.03	51255.39
522.20	51606.47
522.38	51475.40
522.55	51681.37
522.72	51714.14
522.89	51473.06
523.07	51889.68
523.24	51774.99
523.41	51749.24
523.58	51784.35
523.75	52095.64
523.92	52065.22
524.10	52200.97
524.27	52474.81
524.44	52350.76
524.61	52275.87
524.78	52399.91
524.96	52561.41
525.13	52598.86
525.30	52767.38
525.47	52758.02
525.64	52732.27
525.81	53038.88
525.98	53010.79
526.16	52542.69
526.33	52816.53
526.50	53366.55
526.67	53174.63
526.84	53191.01
527.01	52975.69
527.18	53045.90
527.36	53396.98
527.53	53148.88
527.70	53708.27
527.87	53703.59
528.04	53546.78
528.21	53656.78
528.38	53514.01
528.55	53453.15
528.72	53595.93
528.89	53675.51
529.07	53394.64
529.24	53841.68
529.41	54064.03
529.58	53574.86
529.75	53916.58
529.92	54209.15
530.09	54152.97
530.26	54265.32
530.43	54326.17
530.60	53972.75
530.77	54169.36
530.94	54515.76
531.11	54122.55
531.28	54508.74
531.46	54564.91
531.63	54387.03
531.80	54522.78
531.97	54644.49
532.14	54499.37
532.31	54700.66
532.48	54969.82
532.65	54728.75
532.82	54539.16
532.99	54841.09
533.16	54944.08
533.33	54988.55
533.50	55374.73
533.67	54756.83
533.84	54958.12
534.01	55339.63
534.18	55384.10
534.35	55655.60
534.52	55269.41
534.69	55426.23
534.86	55447.29
535.03	55332.60
535.20	55220.26
535.37	55341.97
535.54	55458.99
535.71	55650.92
535.88	55430.91
536.05	55793.69
536.22	55693.05
536.38	55957.53
536.55	55697.73
536.72	55763.26
536.89	55681.34
537.06	55777.31
537.23	55793.69
537.40	55667.30
537.57	55880.29
537.74	55973.91
537.91	56303.93
538.08	56182.22
538.25	55753.90
538.42	56168.18
538.59	56287.54
538.75	56264.14
538.92	56376.48
539.09	56411.59
539.26	56114.34
539.43	56245.41
539.60	56589.47
539.77	56474.79
539.94	56748.63
540.11	56542.66
540.28	56399.89
540.44	56718.20
540.61	56669.05
540.78	56463.08
540.95	56694.80
541.12	56659.69
541.29	56678.41
541.46	56537.98
541.62	56554.36
541.79	56835.23
541.96	56573.09
542.13	56985.02
542.30	56839.91
542.47	57200.35
542.63	57010.77
542.80	57216.74
542.97	57427.38
543.14	57319.72
543.31	57506.96
543.48	57497.60
543.64	57722.29
543.81	57645.05
543.98	57661.44
544.15	57558.45
544.32	57890.81
544.48	57635.69
544.65	57764.42
544.82	57586.54
544.99	57478.88
545.16	57659.10
545.32	57502.28
545.49	57745.70
545.66	57764.42
545.83	57799.53
546.00	57853.36
546.16	57895.49
546.33	57684.84
546.50	57640.37
546.67	57968.05
546.83	57832.30
547.00	58106.14
547.17	57914.22
547.34	57937.62
547.50	58007.84
547.67	58281.68
547.84	58115.50
548.00	58454.88
548.17	58466.58
548.34	58284.02
548.51	58515.73
548.67	58464.24
548.84	58422.11
549.01	58206.78
549.18	58003.16
549.34	58342.53
549.51	58504.03
549.68	58553.18
549.84	58529.78
550.01	58691.27
550.18	58429.13
550.34	58590.63
550.51	58693.61
550.68	58756.81
550.84	58560.20
551.01	58646.80
551.18	58667.87
551.34	58749.79
551.51	58798.94
551.68	58915.96
551.84	58908.94
552.01	58740.42
552.18	58857.45
552.34	58759.15
552.51	59110.23
552.68	58766.17
552.84	58546.16
553.01	59084.48
553.18	59028.31
553.34	59084.48
553.51	58969.80
553.67	58756.81
553.84	59126.61
554.01	59007.25
554.17	59341.94
554.34	59243.64
554.51	59262.36
554.67	59231.94
554.84	59065.76
555.00	59227.26
555.17	59051.72
555.33	59182.79
555.50	59241.30
555.67	59145.34
555.83	59143.00
556.00	59285.77
556.16	59707.07
556.33	59494.08
556.50	59365.35
556.66	59550.25
556.83	59355.99
556.99	59824.09
557.16	59793.67
557.32	59662.60
557.49	59676.64
557.65	59606.42
557.82	59334.92
557.98	59517.48
558.15	59608.76
558.32	59615.79
558.48	59468.33
558.65	59444.93
558.81	59681.32
558.98	59697.70
559.14	59746.86
559.31	59810.05
559.47	59576.00
559.64	59924.74
559.80	59945.80
559.97	59898.99
560.13	59739.83
560.30	59901.33
560.46	59971.55
560.63	59927.08
560.79	60041.76
560.96	59971.55
561.12	60254.75
561.29	59969.21
561.45	59870.90
561.61	60027.72
561.78	59948.14
561.94	60067.51
562.11	60069.85
562.27	60060.49
562.44	60243.05
562.60	60217.30
562.77	60186.88
562.93	60240.71
563.10	60001.97
563.26	59999.63
563.42	60200.92
563.59	60048.78
563.75	60219.64
563.92	60163.47
564.08	60306.24
564.24	60257.09
564.41	60388.16
564.57	60378.80
564.74	60324.97
564.90	60329.65
565.07	60479.44
565.23	60189.22
565.39	60254.75
565.56	60367.10
565.72	60350.71
565.88	60205.60
566.05	60182.19
566.21	60512.21
566.38	60420.93
566.54	60519.23
566.70	60306.24
566.87	60453.70
567.03	60182.19
567.19	60587.11
567.36	60516.89
567.52	60420.93
567.68	60673.71
567.85	60519.23
568.01	60601.15
568.17	60271.14
568.34	60488.80
568.50	60479.44
568.66	60355.39
568.83	60598.81
568.99	60533.28
569.15	60317.95
569.32	60715.84
569.48	60619.88
569.64	60664.35
569.81	60544.98
569.97	60481.78
570.13	60772.01
570.30	60734.56
570.46	60369.44
570.62	60942.87
570.78	60664.35
570.95	60673.71
571.11	60816.48
571.27	60561.36
571.43	60685.41
571.60	61020.11
571.76	60699.45
571.92	60732.22
572.09	60797.76
572.25	60683.07
572.41	60523.91
572.57	60891.38
572.74	60788.39
572.90	60671.37
573.06	60952.23
573.22	60795.42
573.38	60823.50
573.55	60809.46
573.71	60882.02
573.87	60816.48
574.03	60685.41
574.20	60860.95
574.36	60865.63
574.52	60947.55
574.68	60945.21
574.84	60874.99
575.01	60982.66
575.17	60905.42
575.33	60795.42
575.49	60874.99
575.65	61099.68
575.82	61186.28
575.98	60999.04
576.14	61055.21
576.30	61024.79
576.46	60582.43
576.62	60992.02
576.79	60853.93
576.95	60851.59
577.11	60989.68
577.27	61130.11
577.43	60928.83
577.59	60776.69
577.75	60849.25
577.92	60954.57
578.08	60982.66
578.24	60966.27
578.40	61216.71
578.56	60966.27
578.72	61123.09
578.88	61013.08
579.04	61020.11
579.21	61080.96
579.37	61013.08
579.53	61134.79
579.69	60835.20
579.85	61020.11
580.01	61097.34
580.17	61097.34
580.33	61120.75
580.49	61034.15
580.65	61312.67
580.82	60947.55
580.98	61134.79
581.14	61062.24
581.30	61272.88
581.46	60839.89
581.62	61085.64
581.78	61043.51
581.94	61057.56
582.10	61010.74
582.26	61226.07
582.42	61066.92
582.58	61188.63
582.74	60947.55
582.90	61144.16
583.06	61188.63
583.22	61148.84
583.38	61305.65
583.54	61174.58
583.70	61158.20
583.86	61162.88
584.02	61095.00
584.18	61244.80
584.34	61169.90
584.50	61095.00
584.66	60956.91
584.82	61090.32
584.98	61176.92
585.14	61251.82
585.30	61020.11
585.46	61155.86
585.62	61125.43
585.78	61202.67
585.94	61111.39
586.10	61144.16
586.26	61078.62
586.42	61450.77
586.58	61226.07
586.74	61123.09
586.90	61263.52
587.06	61193.31
587.22	61359.48
587.38	61151.18
587.54	61317.35
587.70	61394.59
587.86	61155.86
588.02	61221.39
588.18	61338.42
588.34	61322.04
588.49	61338.42
