SpectraSuite Data File
++++++++++++++++++++++++++++++++++++
Date: Fri Oct 25 11:25:03 EDT 2013
User: price-jones
Dark Spectrum Present: No
Reference Spectrum Present: No
Number of Sampled Component Spectra: 1
Spectrometers: USB2+H05261
Integration Time (usec): 100000 (USB2+H05261)
Spectra Averaged: 1 (USB2+H05261)
Boxcar Smoothing: 0 (USB2+H05261)
Correct for Electrical Dark: No (USB2+H05261)
Strobe/Lamp Enabled: No (USB2+H05261)
Correct for Detector Non-linearity: No (USB2+H05261)
Correct for Stray Light: No (USB2+H05261)
Number of Pixels in Processed Spectrum: 2048
>>>>>Begin Processed Spectral Data<<<<<
365.73	308.95
365.92	308.95
366.12	308.95
366.32	100.64
366.52	142.77
366.72	133.41
366.91	138.09
367.11	159.16
367.31	124.05
367.51	128.73
367.70	131.07
367.90	168.52
368.10	119.37
368.30	133.41
368.49	107.66
368.69	196.60
368.89	147.45
369.09	112.35
369.28	201.29
369.48	133.41
369.68	191.92
369.87	210.65
370.07	191.92
370.27	224.69
370.47	285.55
370.66	538.32
370.86	559.39
371.06	667.05
371.25	627.26
371.45	697.48
371.65	681.10
371.84	667.05
372.04	660.03
372.24	770.04
372.44	706.84
372.63	718.54
372.83	702.16
373.03	737.27
373.22	741.95
373.42	772.38
373.62	744.29
373.81	727.91
374.01	823.87
374.21	823.87
374.40	809.83
374.60	777.06
374.79	798.12
374.99	835.57
375.19	849.61
375.38	880.04
375.58	908.13
375.78	786.42
375.97	844.93
376.17	844.93
376.37	840.25
376.56	814.51
376.76	816.85
376.95	863.66
377.15	870.68
377.35	929.19
377.54	933.87
377.74	945.58
377.93	875.36
378.13	905.79
378.33	931.53
378.52	917.49
378.72	971.32
378.91	947.92
379.11	966.64
379.31	964.30
379.50	889.40
379.70	971.32
379.89	945.58
380.09	994.73
380.28	896.43
380.48	1001.75
380.68	1032.18
380.87	1027.50
381.07	973.66
381.26	1043.88
381.46	1083.67
381.65	1132.82
381.85	1036.86
382.04	947.92
382.24	1083.67
382.43	1088.35
382.63	1078.99
382.83	1027.50
383.02	1011.11
383.22	1104.73
383.41	1025.15
383.61	1039.20
383.80	1109.41
384.00	1118.78
384.19	1078.99
384.39	1104.73
384.58	1086.01
384.78	1128.14
384.97	1048.56
385.17	1008.77
385.36	1167.93
385.56	1142.18
385.75	1235.80
385.95	1139.84
386.14	1170.27
386.34	1217.08
386.53	1196.01
386.72	1205.38
386.92	1224.10
387.11	1266.23
387.31	1249.85
387.50	1205.38
387.70	1240.48
387.89	1291.98
388.09	1282.61
388.28	1345.81
388.48	1291.98
388.67	1256.87
388.86	1317.72
389.06	1373.89
389.25	1387.94
389.45	1371.55
389.64	1261.55
389.84	1378.58
390.03	1409.00
390.22	1331.76
390.42	1359.85
390.61	1371.55
390.81	1387.94
391.00	1493.26
391.19	1563.48
391.39	1338.79
391.58	1390.28
391.78	1474.54
391.97	1448.79
392.16	1385.60
392.36	1483.90
392.55	1423.05
392.75	1614.97
392.94	1561.14
393.13	1554.12
393.33	1497.94
393.52	1523.69
393.71	1563.48
393.91	1547.09
394.10	1591.56
394.29	1638.38
394.49	1636.03
394.68	1612.63
394.88	1638.38
395.07	1614.97
395.26	1722.63
395.46	1638.38
395.65	1631.35
395.84	1760.08
396.04	1701.57
396.23	1760.08
396.42	1678.16
396.62	1722.63
396.81	1764.76
397.00	1823.28
397.19	1778.81
397.39	1755.40
397.58	1832.64
397.77	1832.64
397.97	1842.00
398.16	1825.62
398.35	1860.73
398.55	1783.49
398.74	1891.15
398.93	1888.81
399.12	1905.20
399.32	1830.30
399.51	1900.52
399.70	2073.71
399.90	2038.61
400.09	2008.18
400.28	1968.39
400.47	1881.79
400.67	2047.97
400.86	2069.03
401.05	1959.03
401.24	2127.55
401.44	2085.42
401.63	2085.42
401.82	2122.87
402.01	2094.78
402.21	2165.00
402.40	2150.95
402.59	2073.71
402.78	2195.42
402.97	2190.74
403.17	2160.31
403.36	2167.34
403.55	2317.13
403.74	2347.56
403.93	2417.77
404.13	2275.00
404.32	2399.05
404.51	2361.60
404.70	2349.90
404.89	2352.24
405.09	2588.63
405.28	2420.11
405.47	2473.95
405.66	2471.61
405.85	2478.63
406.05	2469.27
406.24	2506.71
406.43	2605.02
406.62	2509.05
406.81	2686.94
407.00	2602.68
407.20	2583.95
407.39	2677.57
407.58	2733.75
407.77	2724.38
407.96	2768.85
408.15	2771.19
408.34	2654.17
408.54	2822.69
408.73	2808.64
408.92	2843.75
409.11	2904.60
409.30	2920.99
409.49	2932.69
409.68	2904.60
409.87	2761.83
410.07	2813.32
410.26	2958.44
410.45	2986.52
410.64	2998.23
410.83	3028.65
411.02	3061.42
411.21	3155.04
411.40	3141.00
411.59	3098.87
411.78	3141.00
411.98	3255.69
412.17	3211.22
412.36	3279.09
412.55	3269.73
412.74	3309.52
412.93	3361.01
413.12	3314.20
413.31	3555.27
413.50	3307.18
413.69	3426.54
413.88	3585.70
414.07	3545.91
414.26	3581.02
414.45	3707.41
414.64	3604.42
414.83	3665.28
415.02	3756.56
415.22	3801.03
415.41	3997.64
415.60	3899.33
415.79	4037.42
415.98	4074.87
416.17	3894.65
416.36	4035.08
416.55	3812.73
416.74	4081.89
416.93	4002.32
417.12	4100.62
417.31	4119.34
417.50	4147.43
417.69	4292.54
417.88	4145.09
418.07	4344.03
418.26	4245.73
418.45	4372.12
418.64	4362.76
418.83	4386.16
419.02	4463.40
419.21	4566.39
419.39	4468.08
419.58	4360.42
419.77	4344.03
419.96	4519.57
420.15	4428.29
420.34	4421.27
420.53	4564.04
420.72	4704.48
420.91	4634.26
421.10	4819.16
421.29	4875.34
421.48	4805.12
421.67	4772.35
421.86	4788.74
422.05	4758.31
422.24	4662.35
422.43	4894.06
422.61	4898.74
422.80	4884.70
422.99	4929.17
423.18	4936.19
423.37	4847.25
423.56	4821.50
423.75	4891.72
423.94	4795.76
424.13	4538.30
424.32	4748.95
424.50	5128.11
424.69	5165.56
424.88	5172.58
425.07	5004.07
425.26	4926.83
425.45	4924.49
425.64	4748.95
425.83	5006.41
426.01	4971.30
426.20	5039.17
426.39	5022.79
426.58	5053.22
426.77	4987.68
426.96	5104.71
427.15	4964.28
427.33	5266.21
427.52	5125.77
427.71	5462.81
427.90	5308.34
428.09	5256.84
428.28	5411.32
428.46	5446.43
428.65	5315.36
428.84	5523.66
429.03	5490.90
429.22	5444.09
429.40	5528.35
429.59	5579.84
429.78	5219.39
429.97	5331.74
430.16	5486.22
430.34	5643.03
430.53	5610.26
430.72	5664.10
430.91	5706.23
431.10	5542.39
431.28	5851.34
431.47	5741.33
431.66	5652.39
431.85	5734.31
432.03	5919.21
432.22	5846.66
432.41	5830.27
432.60	5804.53
432.79	5928.58
432.97	5914.53
433.16	5951.98
433.35	5987.09
433.54	6047.94
433.72	6059.65
433.91	5996.45
434.10	6118.16
434.28	6141.57
434.47	6179.01
434.66	6216.46
434.85	6427.11
435.03	6387.32
435.22	6202.42
435.41	6569.88
435.59	6354.55
435.78	6380.30
435.97	6422.43
436.16	6469.24
436.34	6574.56
436.53	6389.66
436.72	6705.63
436.90	6548.82
437.09	6630.74
437.28	6483.28
437.46	6658.82
437.65	6733.72
437.84	6726.70
438.02	6843.73
438.21	6705.63
438.40	6677.55
438.58	6927.99
438.77	6869.47
438.96	6722.02
439.14	7234.60
439.33	7096.50
439.52	7030.97
439.70	7211.19
439.89	7360.98
440.08	7421.84
440.26	7332.90
440.45	7307.15
440.63	7346.94
440.82	7503.76
441.01	7658.23
441.19	7513.12
441.38	7742.49
441.57	7705.04
441.75	7878.24
441.94	7911.01
442.12	7894.63
442.31	7950.80
442.50	7967.18
442.68	8086.55
442.87	8004.63
443.05	8091.23
443.24	8142.72
443.43	8070.17
443.61	8308.90
443.80	8374.44
443.98	7836.11
444.17	7744.83
444.35	8161.45
444.54	8320.60
444.73	8114.64
444.91	8219.96
445.10	8173.15
445.28	8402.52
445.47	8264.43
445.65	8234.00
445.84	8388.48
446.02	8341.67
446.21	8339.33
446.39	8430.61
446.58	8564.02
446.77	8482.10
446.95	8299.54
447.14	8461.04
447.32	8512.53
447.51	8369.76
447.69	8458.70
447.88	8468.06
448.06	8528.91
448.25	8629.56
448.43	8631.90
448.62	8390.82
448.80	8418.91
448.99	8744.24
449.17	8585.08
449.36	8500.83
449.54	8957.23
449.73	8966.59
449.91	9100.00
450.10	8896.38
450.28	8950.21
450.46	8821.48
450.65	9170.22
450.83	8840.20
451.02	9013.40
451.20	9245.12
451.39	9062.55
451.57	9015.74
451.76	9018.08
451.94	9132.77
452.13	9268.52
452.31	9111.71
452.49	9217.03
452.68	9179.58
452.86	9451.08
453.05	9430.02
453.23	9366.82
453.42	9287.25
453.60	9233.41
453.78	9605.56
453.97	9455.76
454.15	9362.14
454.34	9455.76
454.52	9547.05
454.70	9633.64
454.89	9682.80
455.07	9806.84
455.26	9713.22
455.44	9958.98
455.62	9748.33
455.81	10024.51
455.99	10106.43
456.17	9961.32
456.36	9916.85
456.54	10265.59
456.73	10277.29
456.91	10438.79
457.09	10249.21
457.28	10597.95
457.46	10366.23
457.64	10525.39
457.83	10616.67
458.01	10326.44
458.19	10684.55
458.38	10532.41
458.56	10740.72
458.74	10644.76
458.93	10714.97
459.11	10860.09
459.29	10846.04
459.48	10768.80
459.66	10670.50
459.84	10817.96
460.03	11140.95
460.21	10712.63
460.39	11091.80
460.57	10951.37
460.76	10899.87
460.94	11112.86
461.12	11143.29
461.31	11145.63
461.49	11035.63
461.67	11300.11
461.85	11459.26
462.04	11047.33
462.22	11936.73
462.40	11742.47
462.59	11770.55
462.77	11459.26
462.95	11480.33
463.13	11571.61
463.32	11606.72
463.50	11868.86
463.68	11740.13
463.86	11871.20
464.05	11702.68
464.23	11733.11
464.41	11756.51
464.59	11714.38
464.78	12166.10
464.96	12166.10
465.14	11543.52
465.32	12051.42
465.50	12032.69
465.69	12105.25
465.87	12123.98
466.05	12212.92
466.23	12077.16
466.41	12077.16
466.60	12313.56
466.78	12058.44
466.96	12044.40
467.14	12152.06
467.32	12358.03
467.51	12564.00
467.69	12196.53
467.87	12397.82
468.05	12709.11
468.23	12273.77
468.41	12365.05
468.60	12737.20
468.78	12662.30
468.96	12575.70
469.14	12603.78
469.32	13160.83
469.50	12650.60
469.69	13034.44
469.87	12870.61
470.05	13039.12
470.23	12973.59
470.41	13266.16
470.59	13301.26
470.77	13221.69
470.95	13411.27
471.14	13488.51
471.32	13153.81
471.50	13537.66
471.68	13387.86
471.86	13460.42
472.04	14160.24
472.22	13928.53
472.40	13760.01
472.58	13558.72
472.77	13937.89
472.95	14176.62
473.13	14736.01
473.31	13769.37
473.49	14162.58
473.67	14003.43
473.85	14146.20
474.03	14654.09
474.21	14541.75
474.39	14705.59
474.57	14719.63
474.75	15159.65
474.93	14902.19
475.12	14785.16
475.30	15077.73
475.48	15005.17
475.66	15131.56
475.84	15103.48
476.02	15276.68
476.20	15206.46
476.38	15543.50
476.56	16170.76
476.74	15845.43
476.92	16023.31
477.10	15740.10
477.28	16091.18
477.46	15925.00
477.64	16226.93
477.82	16404.81
478.00	17034.42
478.18	16704.40
478.36	16926.75
478.54	16798.02
478.72	17385.50
478.90	17439.33
479.08	17671.04
479.26	17446.35
479.44	17701.47
479.62	17799.77
479.80	17727.22
479.98	18015.10
480.16	18614.28
480.34	18319.37
480.52	18686.84
480.70	18232.77
480.88	18246.82
481.06	18892.80
481.24	18705.56
481.41	19047.28
481.59	19290.70
481.77	19440.49
481.95	19669.86
482.13	19679.22
482.31	19510.71
482.49	20140.31
482.67	20046.69
482.85	20051.37
483.03	20662.25
483.21	20884.60
483.39	20954.82
483.57	20854.17
483.74	20982.90
483.92	21184.19
484.10	21268.45
484.28	21837.20
484.46	22012.74
484.64	22089.98
484.82	22024.44
485.00	22164.87
485.18	22618.94
485.35	22848.31
485.53	22342.75
485.71	22998.10
485.89	23426.42
486.07	23183.01
486.25	23449.83
486.43	23550.47
486.61	23707.29
486.78	24018.58
486.96	23964.75
487.14	24512.43
487.32	24725.42
487.50	24816.70
487.68	24919.68
487.85	25312.89
488.03	25387.79
488.21	25727.17
488.39	25858.24
488.57	25916.75
488.75	26141.44
488.92	26113.36
489.10	26539.33
489.28	26838.92
489.46	27105.74
489.64	27047.23
489.81	27150.21
489.99	27660.45
490.17	27868.76
490.35	28060.68
490.53	28173.03
490.70	28257.29
490.88	28226.86
491.06	28709.01
491.24	28304.10
491.41	29053.07
491.59	28830.72
491.77	29221.59
491.95	29373.72
492.13	29696.72
492.30	29881.62
492.48	29919.07
492.66	30089.93
492.84	30293.55
493.01	30764.00
493.19	30630.59
493.37	30698.47
493.54	31166.57
493.72	31564.46
493.90	31529.36
494.08	31283.60
494.25	31442.76
494.43	32037.25
494.61	32355.57
494.79	32107.47
494.96	32437.48
495.14	32921.98
495.32	33029.64
495.49	33177.09
495.67	32554.51
495.85	33317.53
496.02	33584.35
496.20	34036.07
496.38	33982.24
496.55	33846.49
496.73	35072.93
496.91	34618.86
497.09	34569.71
497.26	34920.79
497.44	34333.32
497.62	35311.66
497.79	35637.00
497.97	35548.06
498.14	35924.88
498.32	36294.69
498.50	36081.70
498.67	36257.24
498.85	36144.89
499.03	36601.30
499.20	36584.91
499.38	36844.71
499.56	37132.60
499.73	37057.70
499.91	37179.41
500.08	36968.76
500.26	37401.76
500.44	37563.26
500.61	37741.14
500.79	37986.89
500.97	38164.78
501.14	38667.99
501.32	38190.52
501.49	38162.43
501.67	38515.86
501.84	38497.13
502.02	38527.56
502.20	38862.26
502.37	38862.26
502.55	39075.24
502.72	39646.33
502.90	39651.02
503.07	39232.06
503.25	39796.13
503.43	39321.00
503.60	39672.08
503.78	40428.07
503.95	40285.30
504.13	40233.81
504.30	40130.83
504.48	40692.55
504.65	40325.09
504.83	40978.10
505.01	41195.77
505.18	41020.23
505.36	41397.06
505.53	41298.75
505.71	41696.64
505.88	41553.87
506.06	41752.82
506.23	41715.37
506.41	41626.43
506.58	42326.25
506.76	42323.91
506.93	42515.83
507.11	42031.34
507.28	42068.79
507.46	42721.80
507.63	42855.21
507.81	43182.88
507.98	43276.51
508.16	43063.52
508.33	42733.50
508.50	43452.05
508.68	43370.13
508.85	43606.52
509.03	43920.15
509.20	44004.41
509.38	44383.58
509.55	44369.54
509.73	44622.31
509.90	44563.80
510.08	44507.63
510.25	44622.31
510.42	44556.78
510.60	45181.70
510.77	45216.81
510.95	45460.23
511.12	45268.30
511.30	45097.44
511.47	44945.31
511.64	45324.47
511.82	45731.73
511.99	45556.19
512.17	45874.50
512.34	45792.58
512.51	46209.20
512.69	46010.25
512.86	45815.99
513.04	46649.22
513.21	46344.95
513.38	46525.17
513.56	46742.84
513.73	46894.97
513.90	46700.71
514.08	46824.76
514.25	47414.57
514.43	47168.82
514.60	47636.92
514.77	47473.09
514.95	47756.29
515.12	47522.24
515.29	47508.19
515.47	47782.04
515.64	48175.25
515.81	47964.60
515.99	47962.26
516.16	48652.72
516.33	47941.19
516.51	48200.99
516.68	48402.28
516.85	48343.77
517.03	48734.63
517.20	48891.45
517.37	48598.88
517.54	48680.80
517.72	48947.62
517.89	48856.34
518.06	49139.55
518.24	49420.41
518.41	49177.00
518.58	49375.94
518.75	49144.23
518.93	49401.69
519.10	49366.58
519.27	49497.65
519.45	49411.05
519.62	49963.42
519.79	49808.94
519.96	49762.13
520.14	49890.86
520.31	50052.36
520.48	50054.70
520.65	50092.15
520.83	50578.98
521.00	50326.20
521.17	50487.70
521.34	50471.31
521.52	50710.05
521.69	50515.78
521.86	50913.67
522.03	51004.95
522.20	50939.42
522.38	51220.28
522.55	51449.66
522.72	51260.07
522.89	51320.93
523.07	51489.45
523.24	51192.20
523.41	51774.99
523.58	51246.03
523.75	51657.96
523.92	51423.91
524.10	51686.05
524.27	51985.64
524.44	51737.54
524.61	52032.45
524.78	52039.47
524.96	51966.91
525.13	51985.64
525.30	52310.97
525.47	52554.39
525.64	52538.01
525.81	52584.82
525.98	52435.02
526.16	52327.36
526.33	52589.50
526.50	52584.82
526.67	52596.52
526.84	53191.01
527.01	52612.90
527.18	52839.93
527.36	52861.00
527.53	52903.13
527.70	53090.37
527.87	53319.74
528.04	53055.26
528.21	53373.58
528.38	53338.47
528.55	53240.17
528.72	53392.30
528.89	53340.81
529.07	53301.02
529.24	53186.33
529.41	53499.97
529.58	53574.86
529.75	53572.52
529.92	53612.31
530.09	53514.01
530.26	53996.16
530.43	53897.86
530.60	53766.79
530.77	53769.13
530.94	54031.27
531.11	53736.36
531.28	54040.63
531.46	54188.08
531.63	53993.82
531.80	54021.90
531.97	54351.92
532.14	54468.95
532.31	54234.89
532.48	54534.48
532.65	54389.37
532.82	54370.64
532.99	54848.11
533.16	54651.51
533.33	54585.97
533.50	54770.88
533.67	54770.88
533.84	54651.51
534.01	54965.14
534.18	54813.01
534.35	55105.57
534.52	54923.01
534.69	55096.21
534.86	55133.66
535.03	54967.48
535.20	55070.46
535.37	55136.00
535.54	55337.29
535.71	55065.78
535.88	55330.26
536.05	55281.11
536.22	55496.44
536.38	55519.85
536.55	55379.42
536.72	55821.78
536.89	55482.40
537.06	55674.32
537.23	55693.05
537.40	55489.42
537.57	55456.65
537.74	55494.10
537.91	55936.46
538.08	55707.09
538.25	55753.90
538.42	55906.04
538.59	56294.56
538.75	55852.20
538.92	55976.25
539.09	56097.96
539.26	56004.34
539.43	56097.96
539.60	56264.14
539.77	56126.05
539.94	56119.02
540.11	56409.25
540.28	56385.85
540.44	56662.03
540.61	56264.14
540.78	56282.86
540.95	56404.57
541.12	56273.50
541.29	56296.91
541.46	56458.40
541.62	56519.26
541.79	56530.96
541.96	56226.69
542.13	56615.22
542.30	56523.94
542.47	56706.50
542.63	56687.78
542.80	56891.40
542.97	56863.32
543.14	57139.50
543.31	57104.39
543.48	57434.41
543.64	57457.81
543.81	57251.84
543.98	57364.19
544.15	57415.68
544.32	57425.04
544.48	57467.17
544.65	57310.36
544.82	57338.44
544.99	57202.69
545.16	57544.41
545.32	57284.61
545.49	57677.82
545.66	57785.49
545.83	57687.18
546.00	57616.97
546.16	57485.90
546.33	57504.62
546.50	57403.98
546.67	57755.06
546.83	57247.16
547.00	57703.57
547.17	57628.67
547.34	57588.88
547.50	57869.75
547.67	57862.72
547.84	57846.34
548.00	58209.12
548.17	58225.51
548.34	58103.80
548.51	58117.84
548.67	58342.53
548.84	58108.48
549.01	58106.14
549.18	58143.59
549.34	58134.23
549.51	58342.53
549.68	58365.94
549.84	58354.24
550.01	58293.38
550.18	58230.19
550.34	58485.31
550.51	58415.09
550.68	58316.79
550.84	58269.98
551.01	58492.33
551.18	58457.22
551.34	58567.23
551.51	58450.20
551.68	58494.67
551.84	58630.42
552.01	58630.42
552.18	58518.07
552.34	58560.20
552.51	58536.80
552.68	58452.54
552.84	58494.67
553.01	58815.32
553.18	58632.76
553.34	58951.07
553.51	58525.10
553.67	58621.06
553.84	58848.09
554.01	58988.52
554.17	59002.56
554.34	58983.84
554.51	58927.67
554.67	59121.93
554.84	58906.60
555.00	58866.81
555.17	58815.32
555.33	59147.68
555.50	58841.07
555.67	59011.93
555.83	59037.67
556.00	59103.21
556.16	59355.99
556.33	59304.49
556.50	59297.47
556.66	59215.55
556.83	58969.80
556.99	59524.50
557.16	59276.41
557.32	59313.86
557.49	59283.43
557.65	59327.90
557.82	59325.56
557.98	59388.75
558.15	59400.46
558.32	59576.00
558.48	59269.39
558.65	59236.62
558.81	59451.95
558.98	59454.29
559.14	59620.47
559.31	59545.57
559.47	59477.69
559.64	59627.49
559.80	59763.24
559.97	59704.73
560.13	59554.93
560.30	59779.62
560.46	59676.64
560.63	59702.38
560.79	59767.92
560.96	59788.98
561.12	59840.48
561.29	59784.30
561.45	59824.09
561.61	59786.64
561.78	59590.04
561.94	59702.38
562.11	59756.22
562.27	59833.46
562.44	59877.93
562.60	60186.88
562.77	59863.88
562.93	59660.26
563.10	60023.04
563.26	59791.33
563.42	60278.16
563.59	60128.36
563.75	59639.19
563.92	59824.09
564.08	59999.63
564.24	60062.83
564.41	60198.58
564.57	60111.98
564.74	60004.31
564.90	59971.55
565.07	59976.23
565.23	60062.83
565.39	60046.44
565.56	60055.81
565.72	60046.44
565.88	60116.66
566.05	60060.49
566.21	60051.12
566.38	60093.25
566.54	60273.48
566.70	60193.90
566.87	60210.28
567.03	60161.13
567.19	60203.26
567.36	60355.39
567.52	60039.42
567.68	60420.93
567.85	60343.69
568.01	60369.44
568.17	60219.64
568.34	60495.83
568.50	60420.93
568.66	60172.83
568.83	60317.95
568.99	60207.94
569.15	60444.33
569.32	60177.51
569.48	60175.17
569.64	60687.75
569.81	60364.76
569.97	60329.65
570.13	60388.16
570.30	60301.56
570.46	60413.91
570.62	60334.33
570.78	60584.77
570.95	60346.03
571.11	60617.53
571.27	60310.92
571.43	60598.81
571.60	60624.56
571.76	60549.66
571.92	60498.17
572.09	60500.51
572.25	60423.27
572.41	60339.01
572.57	60477.10
572.74	60722.86
572.90	60465.40
573.06	60624.56
573.22	60566.04
573.38	60608.17
573.55	60577.75
573.71	60757.97
573.87	60622.22
574.03	60479.44
574.20	60736.90
574.36	60406.89
574.52	60587.11
574.68	60816.48
574.84	60786.05
575.01	60734.56
575.17	60544.98
575.33	60732.22
575.49	60441.99
575.65	60807.12
575.82	60767.33
575.98	60427.95
576.14	60893.72
576.30	60846.91
576.46	60760.31
576.62	60638.60
576.79	60521.57
576.95	60561.36
577.11	60650.30
577.27	61031.81
577.43	60863.29
577.59	60839.89
577.75	60727.54
577.92	60762.65
578.08	60617.53
578.24	60638.60
578.40	60867.97
578.56	61010.74
578.72	60772.01
578.88	60926.49
579.04	60900.74
579.21	61069.26
579.37	60926.49
579.53	60977.98
579.69	60748.60
579.85	60680.73
580.01	60828.18
580.17	60619.88
580.33	60900.74
580.49	60882.02
580.65	60741.58
580.82	60671.37
580.98	60903.08
581.14	60821.16
581.30	60720.52
581.46	60856.27
581.62	61034.15
581.78	60914.78
581.94	60924.14
582.10	60804.78
582.26	60617.53
582.42	60917.12
582.58	60846.91
582.74	61076.28
582.90	60926.49
583.06	60940.53
583.22	60858.61
583.38	60814.14
583.54	60786.05
583.70	61078.62
583.86	61006.06
584.02	60591.79
584.18	60989.68
584.34	60973.30
584.50	60921.80
584.66	60907.76
584.82	60687.75
584.98	60938.19
585.14	61165.22
585.30	60910.10
585.46	60999.04
585.62	60959.25
585.78	61169.90
585.94	60942.87
586.10	61036.49
586.26	60992.02
586.42	61062.24
586.58	60945.21
586.74	61193.31
586.90	60842.23
587.06	60839.89
587.22	61034.15
587.38	60952.23
587.54	61160.54
587.70	61179.26
587.86	61010.74
588.02	61041.17
588.18	61071.60
588.34	60961.59
588.49	61031.81
