SpectraSuite Data File
++++++++++++++++++++++++++++++++++++
Date: Fri Oct 25 11:26:18 EDT 2013
User: price-jones
Dark Spectrum Present: No
Reference Spectrum Present: No
Number of Sampled Component Spectra: 1
Spectrometers: USB2+H05261
Integration Time (usec): 100000 (USB2+H05261)
Spectra Averaged: 1 (USB2+H05261)
Boxcar Smoothing: 0 (USB2+H05261)
Correct for Electrical Dark: No (USB2+H05261)
Strobe/Lamp Enabled: No (USB2+H05261)
Correct for Detector Non-linearity: No (USB2+H05261)
Correct for Stray Light: No (USB2+H05261)
Number of Pixels in Processed Spectrum: 2048
>>>>>Begin Processed Spectral Data<<<<<
365.73	250.44
365.92	250.44
366.12	250.44
366.32	180.22
366.52	142.77
366.72	145.11
366.91	119.37
367.11	229.37
367.31	107.66
367.51	142.77
367.70	131.07
367.90	135.75
368.10	135.75
368.30	159.16
368.49	114.69
368.69	196.60
368.89	133.41
369.09	201.29
369.28	177.88
369.48	208.31
369.68	278.52
369.87	168.52
370.07	121.71
370.27	301.93
370.47	292.57
370.66	585.13
370.86	688.12
371.06	662.37
371.25	699.82
371.45	608.54
371.65	667.05
371.84	730.25
372.04	674.07
372.24	746.63
372.44	781.74
372.63	730.25
372.83	809.83
373.03	758.33
373.22	748.97
373.42	805.14
373.62	711.52
373.81	807.48
374.01	807.48
374.21	772.38
374.40	763.01
374.60	851.96
374.79	887.06
374.99	882.38
375.19	744.29
375.38	877.70
375.58	833.23
375.78	891.74
375.97	905.79
376.17	976.00
376.37	833.23
376.56	870.68
376.76	819.19
376.95	835.57
377.15	889.40
377.35	894.08
377.54	959.62
377.74	952.60
377.93	924.51
378.13	959.62
378.33	938.55
378.52	917.49
378.72	994.73
378.91	884.72
379.11	887.06
379.31	931.53
379.50	959.62
379.70	976.00
379.89	1057.92
380.09	985.37
380.28	976.00
380.48	1018.13
380.68	1004.09
380.87	1015.79
381.07	1027.50
381.26	1062.60
381.46	990.05
381.65	1032.18
381.85	1034.52
382.04	1090.69
382.24	1064.94
382.43	1069.62
382.63	992.39
382.83	1132.82
383.02	1118.78
383.22	1165.59
383.41	1100.05
383.61	1032.18
383.80	1123.46
384.00	1160.91
384.19	1039.20
384.39	1170.27
384.58	1188.99
384.78	1207.72
384.97	1196.01
385.17	1097.71
385.36	1217.08
385.56	1139.84
385.75	1184.31
385.95	1170.27
386.14	1224.10
386.34	1198.35
386.53	1188.99
386.72	1273.25
386.92	1210.06
387.11	1217.08
387.31	1291.98
387.50	1242.82
387.70	1226.44
387.89	1247.51
388.09	1219.42
388.28	1273.25
388.48	1306.02
388.67	1334.11
388.86	1359.85
389.06	1221.76
389.25	1378.58
389.45	1373.89
389.64	1336.45
389.84	1373.89
390.03	1416.02
390.22	1355.17
390.42	1409.00
390.61	1394.96
390.81	1380.92
391.00	1397.30
391.19	1453.47
391.39	1465.18
391.58	1420.71
391.78	1497.94
391.97	1563.48
392.16	1437.09
392.36	1589.22
392.55	1418.36
392.75	1474.54
392.94	1486.24
393.13	1547.09
393.33	1519.01
393.52	1530.71
393.71	1497.94
393.91	1565.82
394.10	1547.09
394.29	1497.94
394.49	1481.56
394.68	1621.99
394.88	1717.95
395.07	1755.40
395.26	1523.69
395.46	1654.76
395.65	1720.29
395.84	1750.72
396.04	1858.39
396.23	1706.25
396.42	1785.83
396.62	1692.21
396.81	1769.44
397.00	1802.21
397.19	1767.10
397.39	1717.95
397.58	1736.68
397.77	1778.81
397.97	1722.63
398.16	1823.28
398.35	1888.81
398.55	1856.04
398.74	1891.15
398.93	1839.66
399.12	1907.54
399.32	1937.96
399.51	1923.92
399.70	1982.43
399.90	2080.74
400.09	1987.11
400.28	2012.86
400.47	2054.99
400.67	2125.21
400.86	2092.44
401.05	2204.78
401.24	2097.12
401.44	2052.65
401.63	2188.40
401.82	2174.36
402.01	2155.63
402.21	2207.13
402.40	2256.28
402.59	2080.74
402.78	2223.51
402.97	2174.36
403.17	2284.36
403.36	2265.64
403.55	2303.09
403.74	2279.68
403.93	2277.34
404.13	2361.60
404.32	2375.64
404.51	2345.22
404.70	2476.29
404.89	2445.86
405.09	2443.52
405.28	2375.64
405.47	2473.95
405.66	2483.31
405.85	2506.71
406.05	2406.07
406.24	2466.92
406.43	2616.72
406.62	2637.78
406.81	2689.28
407.00	2569.91
407.20	2567.57
407.39	2661.19
407.58	2736.09
407.77	2780.56
407.96	2787.58
408.15	2759.49
408.34	2700.98
408.54	2853.11
408.73	2825.03
408.92	2818.00
409.11	2839.07
409.30	2918.65
409.49	2892.90
409.68	2967.80
409.87	2967.80
410.07	3035.67
410.26	2977.16
410.45	2902.26
410.64	2991.20
410.83	2995.89
411.02	3073.12
411.21	3180.79
411.40	3103.55
411.59	3150.36
411.78	3206.53
411.98	3187.81
412.17	3218.24
412.36	3356.33
412.55	3314.20
412.74	3295.47
412.93	3384.41
413.12	3269.73
413.31	3438.25
413.50	3426.54
413.69	3529.53
413.88	3585.70
414.07	3510.80
414.26	3552.93
414.45	3681.66
414.64	3599.74
414.83	3702.73
415.02	3831.46
415.22	3744.86
415.41	3817.41
415.60	3854.86
415.79	3936.78
415.98	4004.66
416.17	4051.47
416.36	3988.27
416.55	4002.32
416.74	4063.17
416.93	3983.59
417.12	4042.11
417.31	4180.20
417.50	4095.94
417.69	4154.45
417.88	4170.83
418.07	4262.12
418.26	4198.92
418.45	4407.23
418.64	4437.66
418.83	4339.35
419.02	4447.02
419.21	4573.41
419.39	4498.51
419.58	4472.76
419.77	4477.44
419.96	4545.32
420.15	4608.51
420.34	4645.96
420.53	4601.49
420.72	4718.52
420.91	4723.20
421.10	4671.71
421.29	4854.27
421.48	4791.08
421.67	4685.75
421.86	4807.46
422.05	4762.99
422.24	4671.71
422.43	4978.32
422.61	4840.23
422.80	4844.91
422.99	4910.44
423.18	5085.98
423.37	4950.23
423.56	4861.29
423.75	4910.44
423.94	4795.76
424.13	4559.36
424.32	4751.29
424.50	4912.78
424.69	5062.58
424.88	4975.98
425.07	5008.75
425.26	5034.49
425.45	4933.85
425.64	4802.78
425.83	4938.53
426.01	5013.43
426.20	5226.42
426.39	5067.26
426.58	4954.91
426.77	5036.83
426.96	5158.54
427.15	5238.12
427.33	5074.28
427.52	5050.88
427.71	5179.61
427.90	5254.50
428.09	5170.24
428.28	5310.68
428.46	5479.19
428.65	5275.57
428.84	5502.60
429.03	5582.18
429.22	5165.56
429.40	5476.85
429.59	5535.37
429.78	5418.34
429.97	5268.55
430.16	5399.62
430.34	5710.91
430.53	5708.57
430.72	5727.29
430.91	5591.54
431.10	5657.07
431.28	5729.63
431.47	5607.92
431.66	6033.90
431.85	5834.96
432.03	5827.93
432.22	6024.54
432.41	5884.11
432.60	5926.24
432.79	5834.96
432.97	5888.79
433.16	5970.71
433.35	5987.09
433.54	6118.16
433.72	6031.56
433.91	6001.13
434.10	6183.70
434.28	6223.48
434.47	6319.45
434.66	6195.40
434.85	6394.34
435.03	6223.48
435.22	6005.81
435.41	6555.84
435.59	6296.04
435.78	6483.28
435.97	6366.26
436.16	6511.37
436.34	6267.95
436.53	6420.09
436.72	6686.91
436.90	6342.85
437.09	6459.88
437.28	6502.01
437.46	6546.48
437.65	6579.25
437.84	6817.98
438.02	6719.68
438.21	6710.32
438.40	6572.22
438.58	6927.99
438.77	7033.31
438.96	6860.11
439.14	7026.29
439.33	6909.26
439.52	7396.09
439.70	7265.02
439.89	7435.88
440.08	7368.01
440.26	7337.58
440.45	7150.34
440.63	7169.06
440.82	7712.07
441.01	7419.50
441.19	7595.04
441.38	7623.12
441.57	7791.64
441.75	7742.49
441.94	7826.75
442.12	7957.82
442.31	8086.55
442.50	8002.29
442.68	8049.10
442.87	8070.17
443.05	8056.12
443.24	8098.25
443.43	8128.68
443.61	8299.54
443.80	8365.07
443.98	8016.33
444.17	7887.61
444.35	8210.60
444.54	8346.35
444.73	8191.88
444.91	8432.95
445.10	8468.06
445.28	8241.03
445.47	8250.39
445.65	8189.53
445.84	8308.90
446.02	8498.49
446.21	8442.31
446.39	8173.15
446.58	8549.98
446.77	8547.64
446.95	8407.20
447.14	8269.11
447.32	8538.27
447.51	8290.18
447.69	8493.80
447.88	8631.90
448.06	8395.50
448.25	8468.06
448.43	8627.21
448.62	8725.52
448.80	8624.87
448.99	8718.50
449.17	8798.07
449.36	8554.66
449.54	8669.34
449.73	8924.46
449.91	8884.67
450.10	8793.39
450.28	8931.48
450.46	8964.25
450.65	8872.97
450.83	8901.06
451.02	8987.66
451.20	9277.88
451.39	9100.00
451.57	9238.09
451.76	9214.69
451.94	9207.67
452.13	9308.31
452.31	9502.58
452.49	9242.78
452.68	9413.63
452.86	9111.71
453.05	9481.51
453.23	9472.15
453.42	9261.50
453.60	9303.63
453.78	9551.73
453.97	9273.20
454.15	9481.51
454.34	9294.27
454.52	9568.11
454.70	9664.07
454.89	9846.63
455.07	9762.37
455.26	9537.68
455.44	9722.59
455.62	9951.96
455.81	9804.50
455.99	9863.02
456.17	10064.30
456.36	10078.35
456.54	10193.03
456.73	10347.51
456.91	10186.01
457.09	10443.47
457.28	10415.38
457.46	10506.66
457.64	10478.58
457.83	10576.88
458.01	10296.02
458.19	10663.48
458.38	10597.95
458.56	10429.43
458.74	10640.08
458.93	10654.12
459.11	10738.38
459.29	10710.29
459.48	10878.81
459.66	10717.31
459.84	10911.58
460.03	10902.22
460.21	10930.30
460.39	11173.72
460.57	11023.92
460.76	10979.45
460.94	11035.63
461.12	11012.22
461.31	11016.90
461.49	11239.25
461.67	11243.93
461.85	11321.17
462.04	11503.73
462.22	11784.60
462.40	11522.46
462.59	11410.11
462.77	11463.94
462.95	11644.17
463.13	11541.18
463.32	11569.27
463.50	11576.29
463.68	11562.25
463.86	11962.48
464.05	11658.21
464.23	11648.85
464.41	11721.40
464.59	11665.23
464.78	12262.07
464.96	11964.82
465.14	11833.75
465.32	11910.99
465.50	12135.68
465.69	12077.16
465.87	12044.40
466.05	12091.21
466.23	12084.19
466.41	12037.38
466.60	12177.81
466.78	12191.85
466.96	11932.05
467.14	12121.63
467.32	12334.62
467.51	12688.04
467.69	12149.72
467.87	12482.08
468.05	12697.41
468.23	12416.54
468.41	12336.96
468.60	12650.60
468.78	12744.22
468.96	12624.85
469.14	12617.83
469.32	12858.90
469.50	12552.29
469.69	13041.46
469.87	13202.96
470.05	13181.90
470.23	13153.81
470.41	13020.40
470.59	13130.41
470.77	13188.92
470.95	13317.65
471.14	13516.59
471.32	13130.41
471.50	13479.15
471.68	13507.23
471.86	13694.47
472.04	13881.72
472.22	13839.59
472.40	13720.22
472.58	13832.57
472.77	14207.05
472.95	14420.04
473.13	14436.42
473.31	13792.78
473.49	14061.94
473.67	14101.73
473.85	14207.05
474.03	14635.37
474.21	14576.86
474.39	14537.07
474.57	14609.62
474.75	14904.53
474.93	14998.15
475.12	14862.40
475.30	15154.97
475.48	15002.83
475.66	15080.07
475.84	15068.37
476.02	15136.24
476.20	15311.78
476.38	15604.35
476.56	15815.00
476.74	15733.08
476.92	16070.12
477.10	15920.32
477.28	16175.44
477.46	15943.73
477.64	16524.18
477.82	16355.66
478.00	16835.47
478.18	16641.21
478.36	16975.91
478.54	17032.08
478.72	16989.95
478.90	17408.90
479.08	17200.60
479.26	17809.14
479.44	17886.37
479.62	17834.88
479.80	17673.39
479.98	18033.83
480.16	18415.34
480.34	18541.72
480.52	18579.17
480.70	18487.89
480.88	18192.98
481.06	18595.56
481.24	18782.80
481.41	19129.20
481.59	19548.15
481.77	19328.14
481.95	19461.55
482.13	19676.88
482.31	19449.85
482.49	20273.72
482.67	20081.80
482.85	20262.02
483.03	20819.07
483.21	20893.96
483.39	20875.24
483.57	20858.85
483.74	21439.31
483.92	21481.44
484.10	21113.97
484.28	21289.51
484.46	21893.37
484.64	22038.48
484.82	22118.06
485.00	22143.81
485.18	22588.51
485.35	22836.61
485.53	22595.53
485.71	23131.51
485.89	23187.69
486.07	23349.18
486.25	23627.71
486.43	23742.39
486.61	23468.55
486.78	23887.51
486.96	24271.36
487.14	24341.57
487.32	24435.19
487.50	24603.71
487.68	25055.43
487.85	25298.85
488.03	25102.25
488.21	25907.39
488.39	25921.43
488.57	25991.65
488.75	25830.15
488.92	26544.02
489.10	26803.82
489.28	26593.17
489.46	27014.46
489.64	27264.90
489.81	27728.33
489.99	27421.72
490.17	27821.95
490.35	27725.99
490.53	28182.39
490.70	28112.17
490.88	28381.34
491.06	28479.64
491.24	28561.56
491.41	28547.51
491.59	29331.59
491.77	29106.90
491.95	29062.43
492.13	29511.81
492.30	29848.85
492.48	29879.28
492.66	30092.27
492.84	30249.08
493.01	30417.60
493.19	30375.47
493.37	31271.90
493.54	31068.27
493.72	31426.37
493.90	31447.44
494.08	31721.28
494.25	31868.73
494.43	31716.60
494.61	32264.28
494.79	32299.39
494.96	32790.91
495.14	32435.14
495.32	33149.01
495.49	32933.68
495.67	33113.90
495.85	33294.12
496.02	33802.02
496.20	33736.48
496.38	33860.53
496.55	34010.32
496.73	34281.83
496.91	34506.52
497.09	34532.26
497.26	34923.13
497.44	35040.16
497.62	34827.17
497.79	35814.88
497.97	35269.53
498.14	36257.24
498.32	36163.62
498.50	36191.70
498.67	36247.88
498.85	36517.04
499.03	36308.73
499.20	36547.47
499.38	36554.49
499.56	37010.89
499.73	37191.11
499.91	36849.39
500.08	37720.07
500.26	37720.07
500.44	37310.48
500.61	37572.62
500.79	37703.69
500.97	38124.99
501.14	38024.34
501.32	38478.41
501.49	38298.19
501.67	38838.85
501.84	38944.17
502.02	38885.66
502.20	38895.02
502.37	39044.82
502.55	39185.25
502.72	39414.62
502.90	39288.23
503.07	39447.39
503.25	39800.81
503.43	39484.84
503.60	39796.13
503.78	40222.11
503.95	40271.26
504.13	40519.35
504.30	40388.28
504.48	40690.21
504.65	40683.19
504.83	41118.53
505.01	41415.78
505.18	41062.36
505.36	41174.70
505.53	40992.14
505.71	41500.04
505.88	41780.90
506.06	41577.28
506.23	41605.36
506.41	41422.80
506.58	42054.75
506.76	41982.19
506.93	41792.61
507.11	42073.47
507.28	42845.85
507.46	42780.31
507.63	42707.76
507.81	43014.37
507.98	42490.09
508.16	43208.63
508.33	43323.32
508.50	43524.60
508.68	43374.81
508.85	43545.67
509.03	43906.11
509.20	43753.97
509.38	44479.54
509.55	44390.60
509.73	44186.97
509.90	44278.25
510.08	44212.72
510.25	44594.23
510.42	44554.44
510.60	44809.56
510.77	44856.37
510.95	44919.56
511.12	45027.23
511.30	45111.49
511.47	45375.97
511.64	45230.85
511.82	45839.39
511.99	45488.31
512.17	45570.23
512.34	45619.38
512.51	46099.19
512.69	45893.22
512.86	46277.07
513.04	46045.36
513.21	46527.51
513.38	46656.24
513.56	46349.63
513.73	46717.09
513.90	46871.57
514.08	46700.71
514.25	47555.00
514.43	47068.17
514.60	47281.16
514.77	47016.68
514.95	47325.63
515.12	47220.31
515.29	47339.68
515.47	47770.33
515.64	47763.31
515.81	47800.76
515.99	47976.30
516.16	48163.54
516.33	48301.64
516.51	48713.57
516.68	48411.64
516.85	48622.29
517.03	48568.46
517.20	48919.54
517.37	48849.32
517.54	48774.42
517.72	48617.61
517.89	48699.53
518.06	49195.72
518.24	48891.45
518.41	49010.82
518.58	48893.79
518.75	49027.20
518.93	49478.92
519.10	49191.04
519.27	49467.22
519.45	49371.26
519.62	49741.06
519.79	49743.41
519.96	49581.91
520.14	50131.93
520.31	49808.94
520.48	50483.01
520.65	49902.56
520.83	50415.14
521.00	50681.96
521.17	50450.25
521.34	50550.89
521.52	50733.45
521.69	50511.10
521.86	50614.08
522.03	51054.11
522.20	50979.21
522.38	51449.66
522.55	51386.46
522.72	51082.19
522.89	51150.07
523.07	51285.82
523.24	51379.44
523.41	51501.15
523.58	51444.98
523.75	51962.23
523.92	51767.97
524.10	51966.91
524.27	52348.42
524.44	51730.52
524.61	52065.22
524.78	52137.77
524.96	51744.56
525.13	52233.74
525.30	52065.22
525.47	52423.32
525.64	52294.59
525.81	52514.60
525.98	52369.49
526.16	52257.14
526.33	52369.49
526.50	52849.30
526.67	52528.64
526.84	52818.87
527.01	52739.29
527.18	52809.51
527.36	52697.16
527.53	53109.10
527.70	53069.31
527.87	52893.77
528.04	53038.88
528.21	53319.74
528.38	53319.74
528.55	53434.43
528.72	53521.03
528.89	53471.88
529.07	53333.79
529.24	53233.14
529.41	53691.89
529.58	53544.44
529.75	53748.06
529.92	53525.71
530.09	53670.82
530.26	53371.24
530.43	54087.44
530.60	53598.27
530.77	53572.52
530.94	53792.53
531.11	53818.28
531.28	53907.22
531.46	54054.67
531.63	54270.00
531.80	54045.31
531.97	54223.19
532.14	54295.75
532.31	54087.44
532.48	54291.07
532.65	54387.03
532.82	54429.16
532.99	54759.17
533.16	54574.27
533.33	54700.66
533.50	54707.68
533.67	54955.78
533.84	54429.16
534.01	54941.74
534.18	54897.27
534.35	55285.79
534.52	54915.99
534.69	54932.37
534.86	55224.94
535.03	54691.30
535.20	55220.26
535.37	55278.77
535.54	55316.22
535.71	55107.91
535.88	55384.10
536.05	55501.12
536.22	55552.62
536.38	55470.70
536.55	55267.07
536.72	55512.83
536.89	55133.66
537.06	55316.22
537.23	55538.57
537.40	55746.88
537.57	55634.53
537.74	55412.18
537.91	55899.01
538.08	55856.88
538.25	55676.66
538.42	55711.77
538.59	56193.92
538.75	55791.35
538.92	56069.87
539.09	56170.52
539.26	55891.99
539.43	56126.05
539.60	56193.92
539.77	56289.88
539.94	56236.05
540.11	56432.66
540.28	56224.35
540.44	56463.08
540.61	56367.12
540.78	56229.03
540.95	56119.02
541.12	56086.26
541.29	56467.76
541.46	56683.09
541.62	56367.12
541.79	56704.16
541.96	56144.77
542.13	56498.19
542.30	56809.48
542.47	56666.71
542.63	56987.36
542.80	56872.68
542.97	56877.36
543.14	57223.76
543.31	57057.58
543.48	57373.55
543.64	57249.50
543.81	57092.69
543.98	57205.03
544.15	57221.42
544.32	57504.62
544.48	57422.70
544.65	57279.93
544.82	57118.43
544.99	57125.46
545.16	57263.55
545.32	57359.51
545.49	57616.97
545.66	57647.39
545.83	57638.03
546.00	57619.31
546.16	57600.58
546.33	57286.95
546.50	57193.33
546.67	57593.56
546.83	57251.84
547.00	57642.71
547.17	57347.81
547.34	57577.18
547.50	57818.25
547.67	57958.69
547.84	57879.11
548.00	58000.82
548.17	58096.78
548.34	57860.38
548.51	58131.89
548.67	57984.43
548.84	58026.56
549.01	58010.18
549.18	57944.64
549.34	58129.54
549.51	58181.04
549.68	58136.57
549.84	58145.93
550.01	58340.19
550.18	58202.10
550.34	58195.08
550.51	58145.93
550.68	58319.13
550.84	58197.42
551.01	58396.37
551.18	58464.24
551.34	58553.18
551.51	58445.52
551.68	58532.12
551.84	58630.42
552.01	58342.53
552.18	58583.61
552.34	58431.47
552.51	58543.82
552.68	58298.06
552.84	58459.56
553.01	58700.64
553.18	58553.18
553.34	58735.74
553.51	58649.14
553.67	58796.60
553.84	58749.79
554.01	58944.05
554.17	58972.14
554.34	58948.73
554.51	58763.83
554.67	59016.61
554.84	58740.42
555.00	58829.37
555.17	58773.19
555.33	58906.60
555.50	58937.03
555.67	58864.47
555.83	58838.73
556.00	58962.78
556.16	59381.73
556.33	59063.42
556.50	59152.36
556.66	59112.57
556.83	59093.85
556.99	59220.23
557.16	59435.56
557.32	59316.20
557.49	59505.78
557.65	59241.30
557.82	59260.02
557.98	59402.80
558.15	59274.07
558.32	59461.31
558.48	59388.75
558.65	59421.52
558.81	59248.32
558.98	59585.36
559.14	59597.06
559.31	59416.84
559.47	59636.85
559.64	59590.04
559.80	59721.11
559.97	59526.84
560.13	59461.31
560.30	59447.27
560.46	59814.73
560.63	59774.94
560.79	59526.84
560.96	59805.37
561.12	59945.80
561.29	59735.15
561.45	59938.78
561.61	59725.79
561.78	59590.04
561.94	59554.93
562.11	59767.92
562.27	59674.30
562.44	59873.24
562.60	60086.23
562.77	59852.18
562.93	59657.91
563.10	59901.33
563.26	59772.60
563.42	60027.72
563.59	59964.52
563.75	59936.44
563.92	59887.29
564.08	59770.26
564.24	60023.04
564.41	59994.95
564.57	59929.42
564.74	60039.42
564.90	60048.78
565.07	60032.40
565.23	59980.91
565.39	60135.38
565.56	60147.09
565.72	59931.76
565.88	60097.94
566.05	59924.74
566.21	60107.30
566.38	60074.53
566.54	60383.48
566.70	60191.56
566.87	60030.06
567.03	59999.63
567.19	60273.48
567.36	60224.32
567.52	60439.65
567.68	60486.46
567.85	60301.56
568.01	60320.29
568.17	60229.01
568.34	60266.45
568.50	60240.71
568.66	60257.09
568.83	60294.54
568.99	60144.75
569.15	60353.05
569.32	60322.63
569.48	60214.96
569.64	60481.78
569.81	60343.69
569.97	60266.45
570.13	60296.88
570.30	60165.81
570.46	60289.86
570.62	60268.79
570.78	60177.51
570.95	60432.63
571.11	60395.18
571.27	60449.02
571.43	60236.03
571.60	60514.55
571.76	60640.94
571.92	60542.64
572.09	60479.44
572.25	60444.33
572.41	60362.42
572.57	60456.04
572.74	60680.73
572.90	60409.23
573.06	60479.44
573.22	60474.76
573.38	60561.36
573.55	60685.41
573.71	60638.60
573.87	60465.40
574.03	60547.32
574.20	60512.21
574.36	60388.16
574.52	60638.60
574.68	60680.73
574.84	60537.96
575.01	60713.50
575.17	60699.45
575.33	60533.28
575.49	60561.36
575.65	60622.22
575.82	60757.97
575.98	60683.07
576.14	60760.31
576.30	60734.56
576.46	60577.75
576.62	60722.86
576.79	60615.19
576.95	60537.96
577.11	60715.84
577.27	60790.73
577.43	60774.35
577.59	60750.94
577.75	60601.15
577.92	60594.13
578.08	60566.04
578.24	60666.69
578.40	60835.20
578.56	61001.38
578.72	60741.58
578.88	60942.87
579.04	61008.40
579.21	60800.10
579.37	60898.40
579.53	60800.10
579.69	60741.58
579.85	60748.60
580.01	60767.33
580.17	60708.82
580.33	60877.33
580.49	60816.48
580.65	60739.24
580.82	60701.79
580.98	60741.58
581.14	60596.47
581.30	60935.85
581.46	60767.33
581.62	60734.56
581.78	60779.03
581.94	60865.63
582.10	60825.84
582.26	60795.42
582.42	60720.52
582.58	60704.13
582.74	60942.87
582.90	60849.25
583.06	60685.41
583.22	60699.45
583.38	60842.23
583.54	60685.41
583.70	60860.95
583.86	60912.44
584.02	60776.69
584.18	60961.59
584.34	60804.78
584.50	60898.40
584.66	60790.73
584.82	60741.58
584.98	60982.66
585.14	61059.90
585.30	60851.59
585.46	60844.57
585.62	60858.61
585.78	60973.30
585.94	60741.58
586.10	61036.49
586.26	60846.91
586.42	60858.61
586.58	61092.66
586.74	61029.47
586.90	61034.15
587.06	60739.24
587.22	60954.57
587.38	60884.36
587.54	61010.74
587.70	61104.37
587.86	60949.89
588.02	60807.12
588.18	61010.74
588.34	60896.06
588.49	60708.82
