SpectraSuite Data File
++++++++++++++++++++++++++++++++++++
Date: Fri Oct 25 11:34:46 EDT 2013
User: price-jones
Dark Spectrum Present: No
Reference Spectrum Present: No
Number of Sampled Component Spectra: 1
Spectrometers: USB2+H05261
Integration Time (usec): 100000 (USB2+H05261)
Spectra Averaged: 1 (USB2+H05261)
Boxcar Smoothing: 0 (USB2+H05261)
Correct for Electrical Dark: No (USB2+H05261)
Strobe/Lamp Enabled: No (USB2+H05261)
Correct for Detector Non-linearity: No (USB2+H05261)
Correct for Stray Light: No (USB2+H05261)
Number of Pixels in Processed Spectrum: 2048
>>>>>Begin Processed Spectral Data<<<<<
365.73	327.68
365.92	327.68
366.12	327.68
366.32	168.52
366.52	175.54
366.72	234.05
366.91	166.18
367.11	229.37
367.31	191.92
367.51	142.77
367.70	196.60
367.90	257.46
368.10	168.52
368.30	212.99
368.49	212.99
368.69	198.95
368.89	234.05
369.09	248.10
369.28	250.44
369.48	152.13
369.68	196.60
369.87	287.89
370.07	201.29
370.27	292.57
370.47	322.99
370.66	449.38
370.86	561.73
371.06	559.39
371.25	573.43
371.45	561.73
371.65	596.84
371.84	533.64
372.04	531.30
372.24	610.88
372.44	571.09
372.63	617.90
372.83	580.45
373.03	545.34
373.22	503.22
373.42	617.90
373.62	575.77
373.81	582.79
374.01	664.71
374.21	688.12
374.40	587.47
374.60	592.16
374.79	603.86
374.99	603.86
375.19	655.35
375.38	667.05
375.58	692.80
375.78	662.37
375.97	645.99
376.17	662.37
376.37	645.99
376.56	669.39
376.76	657.69
376.95	692.80
377.15	627.26
377.35	730.25
377.54	692.80
377.74	674.07
377.93	720.88
378.13	587.47
378.33	669.39
378.52	758.33
378.72	669.39
378.91	702.16
379.11	791.10
379.31	683.44
379.50	702.16
379.70	748.97
379.89	720.88
380.09	727.91
380.28	760.67
380.48	725.57
380.68	781.74
380.87	706.84
381.07	755.99
381.26	748.97
381.46	711.52
381.65	744.29
381.85	805.14
382.04	709.18
382.24	674.07
382.43	711.52
382.63	777.06
382.83	755.99
383.02	840.25
383.22	723.23
383.41	765.36
383.61	809.83
383.80	802.80
384.00	819.19
384.19	788.76
384.39	739.61
384.58	828.55
384.78	833.23
384.97	826.21
385.17	870.68
385.36	802.80
385.56	772.38
385.75	800.46
385.95	847.27
386.14	880.04
386.34	861.32
386.53	837.91
386.72	905.79
386.92	877.70
387.11	910.47
387.31	858.98
387.50	837.91
387.70	807.48
387.89	870.68
388.09	924.51
388.28	849.61
388.48	851.96
388.67	873.02
388.86	823.87
389.06	903.45
389.25	933.87
389.45	924.51
389.64	936.21
389.84	926.85
390.03	919.83
390.22	966.64
390.42	973.66
390.61	835.57
390.81	1053.24
391.00	971.32
391.19	994.73
391.39	926.85
391.58	1055.58
391.78	985.37
391.97	1057.92
392.16	1013.45
392.36	1086.01
392.55	978.34
392.75	1034.52
392.94	917.49
393.13	973.66
393.33	1020.47
393.52	1036.86
393.71	1071.97
393.91	1076.65
394.10	1041.54
394.29	1095.37
394.49	1048.56
394.68	1050.90
394.88	1172.61
395.07	1102.39
395.26	1121.12
395.46	1247.51
395.65	1132.82
395.84	1163.25
396.04	1186.65
396.23	1151.54
396.42	1081.33
396.62	1107.07
396.81	1214.74
397.00	1130.48
397.19	1135.16
397.39	1231.12
397.58	1224.10
397.77	1177.29
397.97	1135.16
398.16	1167.93
398.35	1249.85
398.55	1289.64
398.74	1196.01
398.93	1226.44
399.12	1291.98
399.32	1224.10
399.51	1242.82
399.70	1308.36
399.90	1256.87
400.09	1324.74
400.28	1359.85
400.47	1392.62
400.67	1362.19
400.86	1364.53
401.05	1299.00
401.24	1373.89
401.44	1467.52
401.63	1469.86
401.82	1366.87
402.01	1439.43
402.21	1437.09
402.40	1242.82
402.59	1467.52
402.78	1394.96
402.97	1392.62
403.17	1425.39
403.36	1462.83
403.55	1521.35
403.74	1568.16
403.93	1526.03
404.13	1497.94
404.32	1420.71
404.51	1490.92
404.70	1537.73
404.89	1603.27
405.09	1600.93
405.28	1504.96
405.47	1584.54
405.66	1643.06
405.85	1675.82
406.05	1647.74
406.24	1713.27
406.43	1703.91
406.62	1621.99
406.81	1607.95
407.00	1701.57
407.20	1732.00
407.39	1743.70
407.58	1678.16
407.77	1757.74
407.96	1717.95
408.15	1858.39
408.34	1834.98
408.54	1874.77
408.73	1839.66
408.92	1771.79
409.11	1778.81
409.30	1902.86
409.49	1863.07
409.68	1839.66
409.87	1921.58
410.07	1949.67
410.26	2054.99
410.45	1973.07
410.64	1982.43
410.83	1930.94
411.02	2001.16
411.21	2073.71
411.40	2204.78
411.59	2097.12
411.78	2134.57
411.98	2085.42
412.17	2059.67
412.36	2176.70
412.55	2211.81
412.74	2169.68
412.93	2270.32
413.12	2232.87
413.31	2270.32
413.50	2277.34
413.69	2310.11
413.88	2296.07
414.07	2368.62
414.26	2373.30
414.45	2464.58
414.64	2394.37
414.83	2363.94
415.02	2504.37
415.22	2469.27
415.41	2473.95
415.60	2541.82
415.79	2579.27
415.98	2642.46
416.17	2530.12
416.36	2602.68
416.55	2686.94
416.74	2693.96
416.93	2530.12
417.12	2679.91
417.31	2693.96
417.50	2778.22
417.69	2876.52
417.88	2803.96
418.07	2722.04
418.26	2766.51
418.45	2775.88
418.64	2874.18
418.83	2913.97
419.02	2766.51
419.21	2913.97
419.39	2958.44
419.58	2902.26
419.77	2839.07
419.96	3033.33
420.15	3012.27
420.34	3042.70
420.53	3119.93
420.72	3192.49
420.91	3028.65
421.10	3016.95
421.29	3070.78
421.48	3101.21
421.67	3124.62
421.86	3183.13
422.05	3131.64
422.24	3019.29
422.43	3190.15
422.61	3258.03
422.80	3307.18
422.99	3162.06
423.18	3169.09
423.37	3218.24
423.56	3288.45
423.75	3316.54
423.94	3138.66
424.13	3059.08
424.32	3187.81
424.50	3246.32
424.69	3229.94
424.88	3321.22
425.07	3176.11
425.26	3262.71
425.45	3243.98
425.64	3206.53
425.83	3227.60
426.01	3349.31
426.20	3276.75
426.39	3386.76
426.58	3328.24
426.77	3358.67
426.96	3339.94
427.15	3353.99
427.33	3410.16
427.52	3302.50
427.71	3625.49
427.90	3583.36
428.09	3564.64
428.28	3468.67
428.46	3543.57
428.65	3435.91
428.84	3618.47
429.03	3684.00
429.22	3452.29
429.40	3527.19
429.59	3440.59
429.78	3335.26
429.97	3524.85
430.16	3674.64
430.34	3719.11
430.53	3726.13
430.72	3641.87
430.91	3716.77
431.10	3599.74
431.28	3669.96
431.47	3686.34
431.66	3730.81
431.85	3786.99
432.03	3908.69
432.22	3962.53
432.41	3950.82
432.60	3824.44
432.79	3847.84
432.97	3948.48
433.16	3873.59
433.35	3730.81
433.54	3899.33
433.72	3925.08
433.91	3927.42
434.10	3922.74
434.28	3880.61
434.47	3995.29
434.66	4135.73
434.85	4088.92
435.03	4126.36
435.22	4131.05
435.41	4077.21
435.59	4184.88
435.78	4245.73
435.97	3990.61
436.16	4081.89
436.34	4250.41
436.53	4236.37
436.72	4341.69
436.90	4135.73
437.09	4255.09
437.28	4203.60
437.46	4196.58
437.65	4133.39
437.84	4435.32
438.02	4414.25
438.21	4421.27
438.40	4344.03
438.58	4409.57
438.77	4395.53
438.96	4542.98
439.14	4669.37
439.33	4631.92
439.52	4585.11
439.70	4641.28
439.89	4807.46
440.08	4809.80
440.26	4823.84
440.45	4676.39
440.63	4835.55
440.82	4952.57
441.01	4865.97
441.19	4870.65
441.38	4985.34
441.57	5011.09
441.75	5090.67
441.94	5001.72
442.12	5167.90
442.31	5193.65
442.50	5240.46
442.68	5064.92
442.87	5144.50
443.05	5289.61
443.24	5226.42
443.43	5217.05
443.61	5352.81
443.80	5474.51
443.98	5144.50
444.17	5118.75
444.35	5383.23
444.54	5327.06
444.73	5144.50
444.91	5275.57
445.10	5432.38
445.28	5277.91
445.47	5144.50
445.65	5226.42
445.84	5404.30
446.02	5390.25
446.21	5439.40
446.39	5434.72
446.58	5537.71
446.77	5327.06
446.95	5259.18
447.14	5488.56
447.32	5465.15
447.51	5390.25
447.69	5345.78
447.88	5448.77
448.06	5586.86
448.25	5418.34
448.43	5350.46
448.62	5516.64
448.80	5488.56
448.99	5561.11
449.17	5582.18
449.36	5451.11
449.54	5561.11
449.73	5612.60
449.91	5678.14
450.10	5685.16
450.28	5781.12
450.46	5916.87
450.65	5785.80
450.83	5727.29
451.02	5853.68
451.20	5930.92
451.39	5827.93
451.57	6001.13
451.76	5762.40
451.94	5900.49
452.13	5980.07
452.31	6029.22
452.49	5959.00
452.68	6036.24
452.86	5837.30
453.05	6087.73
453.23	6038.58
453.42	5963.68
453.60	6092.41
453.78	6071.35
453.97	6066.67
454.15	6024.54
454.34	5973.05
454.52	6298.38
454.70	6363.92
454.89	6331.15
455.07	6134.54
455.26	6333.49
455.44	6359.24
455.62	6228.17
455.81	6319.45
455.99	6284.34
456.17	6406.05
456.36	6434.13
456.54	6499.67
456.73	6420.09
456.91	6696.27
457.09	6576.91
457.28	6771.17
457.46	6576.91
457.64	6906.92
457.83	6609.67
458.01	6590.95
458.19	6787.55
458.38	6876.49
458.56	6841.39
458.74	6930.33
458.93	6820.32
459.11	6813.30
459.29	6743.08
459.48	6970.12
459.66	6778.19
459.84	6911.60
460.03	7042.67
460.21	7143.32
460.39	6874.15
460.57	6967.77
460.76	7009.90
460.94	7056.72
461.12	7061.40
461.31	7138.63
461.49	6965.43
461.67	7042.67
461.85	7297.79
462.04	7145.66
462.22	7363.33
462.40	7557.59
462.59	7269.70
462.77	7368.01
462.95	7360.98
463.13	7466.31
463.32	7358.64
463.50	7541.21
463.68	7501.42
463.86	7283.75
464.05	7293.11
464.23	7250.98
464.41	7573.97
464.59	7405.46
464.78	7552.91
464.96	7581.00
465.14	7370.35
465.32	7386.73
465.50	7403.11
465.69	7709.72
465.87	7562.27
466.05	7676.96
466.23	7932.08
466.41	7740.15
466.60	7950.80
466.78	7733.13
466.96	7730.79
467.14	7674.62
467.32	7850.16
467.51	7878.24
467.69	7555.25
467.87	7808.03
468.05	7997.61
468.23	7983.57
468.41	7880.58
468.60	7974.21
468.78	7976.55
468.96	7941.44
469.14	8163.79
469.32	7985.91
469.50	8156.77
469.69	8154.43
469.87	8372.10
470.05	8135.70
470.23	8245.71
470.41	8327.63
470.59	8360.39
470.77	8505.51
470.95	8557.00
471.14	8456.36
471.32	8255.07
471.50	8652.96
471.68	8634.24
471.86	8564.02
472.04	8538.27
472.22	8919.78
472.40	8580.40
472.58	8592.11
472.77	8720.84
472.95	8748.92
473.13	9064.89
473.31	8755.94
473.49	9015.74
473.67	8915.10
473.85	9074.26
474.03	8992.34
474.21	9118.73
474.39	9249.80
474.57	9289.59
474.75	9291.93
474.93	9509.60
475.12	9357.46
475.30	9252.14
475.48	9659.39
475.66	9760.03
475.84	9668.75
476.02	9699.18
476.20	9544.70
476.38	9708.54
476.56	10017.49
476.74	10031.54
476.92	9977.70
477.10	9884.08
477.28	10003.45
477.46	10183.67
477.64	10281.97
477.82	10289.00
478.00	10647.10
478.18	10424.75
478.36	10670.50
478.54	10623.69
478.72	10850.72
478.90	10918.60
479.08	10759.44
479.26	11101.16
479.44	11138.61
479.62	10913.92
479.80	11253.30
479.98	11281.38
480.16	11527.14
480.34	11534.16
480.52	11667.57
480.70	11541.18
480.88	11489.69
481.06	11627.78
481.24	11833.75
481.41	11728.42
481.59	11997.59
481.77	11983.54
481.95	11999.93
482.13	12409.52
482.31	12360.37
482.49	12741.88
482.67	12458.67
482.85	12863.58
483.03	12674.00
483.21	12744.22
483.39	12961.89
483.57	13057.85
483.74	12926.78
483.92	13242.75
484.10	13083.59
484.28	13507.23
484.46	13731.92
484.64	13762.35
484.82	13589.15
485.00	13919.17
485.18	14176.62
485.35	14281.95
485.53	14204.71
485.71	14356.85
485.89	14597.92
486.07	14427.06
486.25	14406.00
486.43	14480.89
486.61	14925.60
486.78	14670.48
486.96	14885.81
487.14	15150.29
487.32	15215.82
487.50	15337.53
487.68	15587.97
487.85	15276.68
488.03	15623.08
488.21	15981.18
488.39	15859.47
488.57	16355.66
488.75	16077.14
488.92	16315.87
489.10	16589.72
489.28	16479.71
489.46	16678.66
489.64	16854.20
489.81	16999.31
489.99	17493.16
490.17	17106.98
490.35	17259.11
490.53	17422.95
490.70	17853.61
490.88	17385.50
491.06	17996.38
491.24	17862.97
491.41	17989.36
491.59	18125.11
491.77	18015.10
491.95	18359.16
492.13	18633.00
492.30	18527.68
492.48	18614.28
492.66	18438.74
492.84	18817.91
493.01	18876.42
493.19	19281.33
493.37	19124.52
493.54	19515.39
493.72	19435.81
493.90	19365.59
494.08	19475.60
494.25	19648.80
494.43	19744.76
494.61	19829.02
494.79	20299.47
494.96	20023.28
495.14	20262.02
495.32	20285.42
495.49	20489.05
495.67	20655.23
495.85	20753.53
496.02	20599.05
496.20	21034.39
496.38	20868.22
496.55	21223.98
496.73	21778.68
496.91	21336.32
497.09	21797.41
497.26	21462.71
497.44	21422.92
497.62	21558.67
497.79	22073.59
497.97	22033.80
498.14	22019.76
498.32	22223.39
498.50	22136.79
498.67	22497.23
498.85	22726.60
499.03	22752.35
499.20	22466.80
499.38	23124.49
499.56	23014.49
499.73	22806.18
499.91	23377.27
500.08	23152.58
500.26	23412.38
500.44	23498.98
500.61	23620.69
500.79	23564.51
500.97	23688.56
501.14	23793.89
501.32	24023.26
501.49	23651.11
501.67	23819.63
501.84	24109.86
502.02	23985.81
502.20	24250.29
502.37	24430.51
502.55	23997.51
502.72	24355.61
502.90	24479.66
503.07	24531.15
503.25	24636.48
503.43	24552.22
503.60	24685.63
503.78	24802.66
503.95	24683.29
504.13	25242.68
504.30	25151.40
504.48	24966.49
504.65	25366.73
504.83	25432.26
505.01	25783.34
505.18	25645.25
505.36	25565.67
505.53	25715.47
505.71	25773.98
505.88	26214.00
506.06	25886.32
506.23	25956.54
506.41	26302.94
506.58	26450.39
506.76	26101.65
506.93	26192.94
507.11	26483.16
507.28	26391.88
507.46	26480.82
507.63	26485.50
507.81	26651.68
507.98	26682.11
508.16	26574.44
508.33	26871.69
508.50	27197.02
508.68	27374.91
508.85	27054.25
509.03	27232.13
509.20	27257.88
509.38	27498.95
509.55	27520.02
509.73	27775.14
509.90	27508.32
510.08	27585.55
510.25	27721.30
510.42	27688.54
510.60	28210.48
510.77	28222.18
510.95	28121.54
511.12	28467.94
511.30	28350.91
511.47	28362.61
511.64	28158.99
511.82	28526.45
511.99	28580.28
512.17	28629.43
512.34	28713.69
512.51	28594.32
512.69	29144.35
512.86	29109.24
513.04	29230.95
513.21	28594.32
513.38	29270.74
513.56	29776.30
513.73	29326.91
513.90	29432.24
514.08	29242.65
514.25	29605.44
514.43	29762.25
514.60	29584.37
514.77	29670.97
514.95	29998.65
515.12	29460.32
515.29	30185.89
515.47	30005.67
515.64	30525.27
515.81	29956.52
515.99	30174.19
516.16	31002.74
516.33	30527.61
516.51	30717.19
516.68	30302.92
516.85	30543.99
517.03	30984.01
517.20	30429.30
517.37	30810.81
517.54	30691.44
517.72	31042.53
517.89	31206.36
518.06	31159.55
518.24	30888.05
518.41	31365.52
518.58	31295.30
518.75	31154.87
518.93	31159.55
519.10	31681.49
519.27	31463.82
519.45	31316.37
519.62	32006.83
519.79	31735.32
519.96	31847.67
520.14	31796.18
520.31	31775.11
520.48	32329.82
520.65	31892.14
520.83	32374.29
521.00	32325.14
521.17	32208.11
521.34	32224.50
521.52	32746.44
521.69	32790.91
521.86	32561.53
522.03	32498.34
522.20	32657.49
522.38	32954.74
522.55	33223.90
522.72	32772.18
522.89	32945.38
523.07	33226.24
523.24	32933.68
523.41	33282.42
523.58	32903.25
523.75	33251.99
523.92	33443.91
524.10	33467.32
524.27	33699.03
524.44	33472.00
524.61	34033.73
524.78	33406.47
524.96	34143.74
525.13	33928.41
525.30	33942.45
525.47	34080.54
525.64	34019.69
525.81	34230.33
525.98	34075.86
526.16	34031.39
526.33	34092.24
526.50	34382.47
526.67	34113.31
526.84	34408.22
527.01	34787.38
527.18	34632.91
527.36	34366.09
527.53	34581.42
527.70	34972.28
527.87	34644.61
528.04	34614.18
528.21	34852.92
528.38	34895.05
528.55	35414.65
528.72	34993.35
528.89	34878.66
529.07	35129.10
529.24	35082.29
529.41	35271.87
529.58	34883.34
529.75	34993.35
529.92	35316.34
530.09	35138.46
530.26	35356.13
530.43	35634.66
530.60	35358.47
530.77	35803.17
530.94	35831.26
531.11	35873.39
531.28	35803.17
531.46	35716.58
531.63	36247.88
531.80	35395.92
531.97	35880.41
532.14	35756.36
532.31	36282.98
532.48	36385.97
532.65	36727.69
532.82	36575.55
532.99	36294.69
533.16	36327.45
533.33	36456.18
533.50	36121.49
533.67	36400.01
533.84	36746.41
534.01	36631.72
534.18	36622.36
534.35	36528.74
534.52	37141.96
534.69	37212.18
534.86	37219.20
535.03	36617.68
535.20	37228.56
535.37	37127.92
535.54	37237.92
535.71	37067.06
535.88	37490.70
536.05	37315.16
536.22	37230.90
536.38	37230.90
536.55	37350.27
536.72	36935.99
536.89	36910.25
537.06	37551.56
537.23	37722.41
537.40	37436.87
537.57	37336.23
537.74	37790.29
537.91	37633.47
538.08	37895.61
538.25	37699.01
538.42	37933.06
538.59	38005.62
538.75	37876.89
538.92	38064.13
539.09	38012.64
539.26	38075.84
539.43	38206.90
539.60	38075.84
539.77	38253.72
539.94	38405.85
540.11	38665.65
540.28	38534.58
540.44	38466.70
540.61	38326.27
540.78	38733.53
540.95	38499.47
541.12	38330.95
541.29	38368.40
541.46	38621.18
541.62	38759.27
541.79	38925.45
541.96	38843.53
542.13	38518.20
542.30	38770.97
542.47	39012.05
542.63	39431.01
542.80	39056.52
542.97	39409.94
543.14	39309.30
543.31	39271.85
543.48	39150.14
543.64	40016.14
543.81	39496.54
543.98	39744.64
544.15	39353.77
544.32	39999.76
544.48	39688.46
544.65	39704.85
544.82	39777.40
544.99	39164.18
545.16	39391.22
545.32	39536.33
545.49	40297.00
545.66	40531.06
545.83	40245.51
546.00	40325.09
546.16	39674.42
546.33	39999.76
546.50	39800.81
546.67	40456.16
546.83	39674.42
547.00	40098.06
547.17	40044.23
547.34	40411.69
547.50	40428.07
547.67	40753.41
547.84	40631.70
548.00	40582.55
548.17	41177.04
548.34	40708.94
548.51	40603.61
548.67	40332.11
548.84	40795.54
549.01	40865.75
549.18	40671.49
549.34	40641.06
549.51	41003.85
549.68	40891.50
549.84	41078.74
550.01	41247.26
550.18	40903.20
550.34	41123.21
550.51	41338.54
550.68	41130.23
550.84	41003.85
551.01	41230.88
551.18	41137.26
551.34	41385.35
551.51	41478.97
551.68	41638.13
551.84	41502.38
552.01	40980.44
552.18	41125.55
552.34	41385.35
552.51	41911.97
552.68	41315.14
552.84	41258.96
553.01	41591.32
553.18	41212.15
553.34	41926.02
553.51	41511.74
553.67	41542.17
553.84	41984.53
554.01	41841.76
554.17	42403.49
554.34	42258.37
554.51	41778.56
554.67	42131.98
554.84	41937.72
555.00	42068.79
555.17	41881.55
555.33	41970.49
555.50	41717.71
555.67	41848.78
555.83	42143.69
556.00	42195.18
556.16	42803.72
556.33	42621.16
556.50	42429.23
556.66	42604.77
556.83	42181.13
556.99	42459.66
557.16	42857.55
557.32	42740.52
557.49	42588.39
557.65	42782.65
557.82	42321.57
557.98	42623.50
558.15	42518.17
558.32	42756.91
558.48	42611.79
558.65	42363.70
558.81	42792.01
558.98	42726.48
559.14	42443.27
559.31	42696.05
559.47	42670.31
559.64	43000.32
559.80	43222.67
559.97	42801.38
560.13	42445.62
560.30	43091.60
560.46	43028.41
560.63	43194.59
560.79	43241.40
560.96	43449.70
561.12	43356.08
561.29	43042.45
561.45	43323.32
561.61	43079.90
561.78	42983.94
561.94	43068.20
562.11	43182.88
562.27	42820.10
562.44	43414.60
562.60	43199.27
562.77	43306.93
562.93	43503.54
563.10	43550.35
563.26	43105.65
563.42	43981.01
563.59	43409.92
563.75	43154.80
563.92	43241.40
564.08	43313.95
564.24	43407.58
564.41	43136.07
564.57	43297.57
564.74	43281.19
564.90	43543.33
565.07	43543.33
565.23	43615.88
565.39	43337.36
565.56	43484.81
565.72	43145.44
565.88	43454.39
566.05	43636.95
566.21	43540.99
566.38	43693.12
566.54	44016.11
566.70	43648.65
566.87	43672.06
567.03	43585.46
567.19	43899.09
567.36	44048.88
567.52	43732.91
567.68	43908.45
567.85	43976.33
568.01	43505.88
568.17	43552.69
568.34	43643.97
568.50	43943.56
568.66	43756.32
568.83	43908.45
568.99	43428.64
569.15	43761.00
569.32	43908.45
569.48	43789.08
569.64	44177.61
569.81	44231.44
569.97	44133.14
570.13	44306.34
570.30	43770.36
570.46	44201.02
570.62	44154.21
570.78	43943.56
570.95	44516.99
571.11	44570.82
571.27	43952.92
571.43	44100.37
571.60	44100.37
571.76	43873.34
571.92	44280.60
572.09	44091.01
572.25	44346.13
572.41	43477.79
572.57	44184.63
572.74	44746.36
572.90	44261.87
573.06	44196.34
573.22	44048.88
573.38	44449.11
573.55	44198.68
573.71	44605.93
573.87	44121.44
574.03	44636.36
574.20	44760.40
574.36	43779.72
574.52	44229.10
574.68	44577.84
574.84	44126.12
575.01	44247.83
575.17	44395.28
575.33	44598.91
575.49	44364.85
575.65	44650.40
575.82	44456.14
575.98	44797.85
576.14	44708.91
576.30	44437.41
576.46	44636.36
576.62	43973.98
576.79	44552.10
576.95	44428.05
577.11	44381.24
577.27	44322.72
577.43	45151.27
577.59	44758.06
577.75	44182.29
577.92	44226.76
578.08	44289.96
578.24	44266.55
578.40	44725.30
578.56	44727.64
578.72	44622.31
578.88	44390.60
579.04	44587.21
579.21	44425.71
579.37	44619.97
579.53	44910.20
579.69	44144.84
579.85	44566.14
580.01	44477.20
580.17	44563.80
580.33	44825.94
580.49	44772.11
580.65	44652.74
580.82	44554.44
580.98	44287.62
581.14	44346.13
581.30	44732.32
581.46	44339.11
581.62	44533.37
581.78	44884.45
581.94	44568.48
582.10	44325.07
582.26	44832.96
582.42	44367.20
582.58	44631.68
582.74	44802.53
582.90	44760.40
583.06	44697.21
583.22	44577.84
583.38	44790.83
583.54	44790.83
583.70	44598.91
583.86	44533.37
584.02	44622.31
584.18	45013.18
584.34	45038.93
584.50	44851.69
584.66	44762.75
584.82	44699.55
584.98	45102.12
585.14	44893.82
585.30	44245.49
585.46	44886.79
585.62	44664.44
585.78	44933.60
585.94	44444.43
586.10	44634.02
586.26	44598.91
586.42	44622.31
586.58	44528.69
586.74	44926.58
586.90	44486.56
587.06	44729.98
587.22	45003.82
587.38	44683.17
587.54	45179.36
587.70	45106.80
587.86	45071.70
588.02	44678.49
588.18	44786.15
588.34	44603.59
588.49	44964.03
588.65	44863.39
588.81	45282.34
588.97	45191.06
589.13	44896.16
589.29	44514.65
589.45	45067.02
589.61	45366.60
589.77	45202.77
589.93	45394.69
590.08	45280.00
