SpectraSuite Data File
++++++++++++++++++++++++++++++++++++
Date: Fri Oct 25 10:43:21 EDT 2013
User: price-jones
Dark Spectrum Present: No
Reference Spectrum Present: No
Number of Sampled Component Spectra: 1
Spectrometers: USB2+H05261
Integration Time (usec): 100000 (USB2+H05261)
Spectra Averaged: 1 (USB2+H05261)
Boxcar Smoothing: 0 (USB2+H05261)
Correct for Electrical Dark: No (USB2+H05261)
Strobe/Lamp Enabled: No (USB2+H05261)
Correct for Detector Non-linearity: No (USB2+H05261)
Correct for Stray Light: No (USB2+H05261)
Number of Pixels in Processed Spectrum: 2048
>>>>>Begin Processed Spectral Data<<<<<
365.73	124.05
365.92	124.05
366.12	124.05
366.32	93.62
366.52	0.00
366.72	4.68
366.91	0.00
367.11	0.00
367.31	28.09
367.51	88.94
367.70	67.88
367.90	32.77
368.10	0.00
368.30	0.00
368.49	2.34
368.69	23.41
368.89	9.36
369.09	0.00
369.28	88.94
369.48	30.43
369.68	46.81
369.87	105.32
370.07	128.73
370.27	46.81
370.47	212.99
370.66	390.87
370.86	428.32
371.06	425.98
371.25	477.47
371.45	423.64
371.65	433.00
371.84	456.40
372.04	383.85
372.24	416.62
372.44	493.85
372.63	568.75
372.83	465.77
373.03	514.92
373.22	547.69
373.42	552.37
373.62	587.47
373.81	571.09
374.01	631.94
374.21	535.98
374.40	528.96
374.60	657.69
374.79	568.75
374.99	617.90
375.19	620.24
375.38	636.63
375.58	559.39
375.78	636.63
375.97	564.07
376.17	671.73
376.37	564.07
376.56	596.84
376.76	608.54
376.95	690.46
377.15	566.41
377.35	559.39
377.54	653.01
377.74	624.92
377.93	617.90
378.13	671.73
378.33	685.78
378.52	622.58
378.72	744.29
378.91	720.88
379.11	631.94
379.31	669.39
379.50	650.67
379.70	650.67
379.89	746.63
380.09	725.57
380.28	627.26
380.48	716.20
380.68	657.69
380.87	669.39
381.07	692.80
381.26	702.16
381.46	741.95
381.65	643.65
381.85	786.42
382.04	674.07
382.24	725.57
382.43	688.12
382.63	671.73
382.83	751.31
383.02	734.93
383.22	664.71
383.41	671.73
383.61	730.25
383.80	793.44
384.00	730.25
384.19	793.44
384.39	809.83
384.58	819.19
384.78	772.38
384.97	842.59
385.17	777.06
385.36	758.33
385.56	884.72
385.75	784.08
385.95	739.61
386.14	856.64
386.34	772.38
386.53	842.59
386.72	870.68
386.92	856.64
387.11	884.72
387.31	971.32
387.50	896.43
387.70	835.57
387.89	884.72
388.09	863.66
388.28	800.46
388.48	964.30
388.67	849.61
388.86	882.38
389.06	968.98
389.25	961.96
389.45	952.60
389.64	952.60
389.84	968.98
390.03	973.66
390.22	999.41
390.42	931.53
390.61	929.19
390.81	1088.35
391.00	997.07
391.19	1090.69
391.39	1029.84
391.58	1032.18
391.78	1025.15
391.97	1048.56
392.16	1086.01
392.36	1076.65
392.55	1048.56
392.75	959.62
392.94	1039.20
393.13	987.71
393.33	968.98
393.52	1039.20
393.71	1057.92
393.91	1160.91
394.10	1100.05
394.29	1090.69
394.49	1172.61
394.68	1139.84
394.88	1231.12
395.07	1207.72
395.26	1306.02
395.46	1174.95
395.65	1210.06
395.84	1207.72
396.04	1259.21
396.23	1338.79
396.42	1123.46
396.62	1207.72
396.81	1263.89
397.00	1144.52
397.19	1261.55
397.39	1277.93
397.58	1331.76
397.77	1315.38
397.97	1404.32
398.16	1416.02
398.35	1458.15
398.55	1514.33
398.74	1486.24
398.93	1624.33
399.12	1504.96
399.32	1502.62
399.51	1547.09
399.70	1600.93
399.90	1640.72
400.09	1582.20
400.28	1617.31
400.47	1474.54
400.67	1713.27
400.86	1626.67
401.05	1717.95
401.24	1675.82
401.44	1673.48
401.63	1715.61
401.82	1710.93
402.01	1710.93
402.21	1682.85
402.40	1724.97
402.59	1753.06
402.78	1657.10
402.97	1708.59
403.17	1825.62
403.36	1785.83
403.55	1762.42
403.74	1813.92
403.93	1923.92
404.13	1802.21
404.32	1872.43
404.51	1956.69
404.70	1921.58
404.89	1944.99
405.09	1989.46
405.28	2052.65
405.47	1937.96
405.66	1944.99
405.85	1944.99
406.05	1935.62
406.24	1834.98
406.43	1856.04
406.62	2129.89
406.81	2148.61
407.00	2057.33
407.20	1984.77
407.39	1989.46
407.58	2073.71
407.77	2312.45
407.96	2122.87
408.15	2188.40
408.34	2169.68
408.54	2277.34
408.73	2324.15
408.92	2235.21
409.11	2277.34
409.30	2333.51
409.49	2298.41
409.68	2373.30
409.87	2235.21
410.07	2342.88
410.26	2331.17
410.45	2417.77
410.64	2424.80
410.83	2417.77
411.02	2572.25
411.21	2567.57
411.40	2633.10
411.59	2684.59
411.78	2658.85
411.98	2597.99
412.17	2572.25
412.36	2602.68
412.55	2689.28
412.74	2668.21
412.93	2818.00
413.12	2710.34
413.31	2890.56
413.50	2799.28
413.69	2789.92
413.88	2970.14
414.07	2944.39
414.26	2925.67
414.45	2916.31
414.64	3028.65
414.83	3073.12
415.02	3000.57
415.22	3054.40
415.41	3138.66
415.60	3049.72
415.79	3227.60
415.98	3199.51
416.17	3178.45
416.36	3187.81
416.55	3115.25
416.74	3157.38
416.93	3274.41
417.12	3323.56
417.31	3279.09
417.50	3459.31
417.69	3463.99
417.88	3302.50
418.07	3449.95
418.26	3478.04
418.45	3602.08
418.64	3562.30
418.83	3508.46
419.02	3520.17
419.21	3562.30
419.39	3541.23
419.58	3454.63
419.77	3604.42
419.96	3585.70
420.15	3737.84
420.34	3702.73
420.53	3826.78
420.72	3906.35
420.91	3768.26
421.10	3803.37
421.29	3882.95
421.48	3913.38
421.67	3911.04
421.86	3875.93
422.05	3831.46
422.24	3763.58
422.43	3953.16
422.61	3819.75
422.80	4049.13
422.99	3859.54
423.18	3911.04
423.37	4037.42
423.56	4077.21
423.75	3843.16
423.94	3772.94
424.13	3623.15
424.32	3817.41
424.50	3925.08
424.69	4018.70
424.88	4105.30
425.07	3964.87
425.26	3889.97
425.45	3962.53
425.64	3904.01
425.83	3836.14
426.01	4102.96
426.20	3953.16
426.39	3969.55
426.58	4035.08
426.77	3831.46
426.96	3812.73
427.15	3957.85
427.33	4053.81
427.52	3953.16
427.71	4131.05
427.90	4175.52
428.09	4184.88
428.28	4060.83
428.46	4166.15
428.65	4131.05
428.84	4266.80
429.03	4229.35
429.22	4079.55
429.40	4133.39
429.59	4023.38
429.78	3911.04
429.97	3992.95
430.16	4021.04
430.34	4112.32
430.53	4081.89
430.72	4229.35
430.91	4362.76
431.10	4348.72
431.28	4669.37
431.47	4678.73
431.66	4767.67
431.85	4465.74
432.03	4561.70
432.22	4690.43
432.41	4744.27
432.60	4550.00
432.79	4734.90
432.97	4861.29
433.16	4702.14
433.35	4592.13
433.54	4755.97
433.72	4695.11
433.91	4713.84
434.10	4760.65
434.28	4896.40
434.47	4861.29
434.66	5006.41
434.85	4898.74
435.03	4861.29
435.22	4880.02
435.41	5142.16
435.59	5137.48
435.78	5144.50
435.97	5100.03
436.16	5095.35
436.34	5224.08
436.53	5088.32
436.72	5242.80
436.90	5020.45
437.09	5128.11
437.28	5116.41
437.46	5095.35
437.65	5184.29
437.84	5097.69
438.02	5142.16
438.21	5135.14
438.40	5153.86
438.58	5479.19
438.77	5542.39
438.96	5263.86
439.14	5467.49
439.33	5575.16
439.52	5530.69
439.70	5687.50
439.89	5708.57
440.08	5540.05
440.26	5692.18
440.45	5657.07
440.63	5884.11
440.82	5982.41
441.01	5949.64
441.19	6017.52
441.38	6040.92
441.57	6146.25
441.75	6125.18
441.94	6305.40
442.12	6256.25
442.31	6277.32
442.50	6251.57
442.68	6146.25
442.87	6352.21
443.05	6427.11
443.24	6403.71
443.43	6366.26
443.61	6274.98
443.80	6743.08
443.98	6417.75
444.17	6209.44
444.35	6555.84
444.54	6668.19
444.73	6504.35
444.91	6492.65
445.10	6541.80
445.28	6431.79
445.47	6296.04
445.65	6394.34
445.84	6518.39
446.02	6675.21
446.21	6532.44
446.39	6506.69
446.58	6647.12
446.77	6616.69
446.95	6562.86
447.14	6794.58
447.32	6808.62
447.51	6761.81
447.69	6715.00
447.88	6679.89
448.06	6864.79
448.25	6693.93
448.43	6670.53
448.62	6602.65
448.80	6616.69
448.99	6923.30
449.17	6846.07
449.36	6565.20
449.54	6888.20
449.73	7056.72
449.91	7033.31
450.10	6981.82
450.28	7293.11
450.46	7124.59
450.65	7063.74
450.83	7197.15
451.02	7063.74
451.20	7265.02
451.39	7349.28
451.57	7164.38
451.76	7222.89
451.94	7173.74
452.13	7365.67
452.31	7215.87
452.49	7129.27
452.68	7492.05
452.86	7049.69
453.05	7206.51
453.23	7192.47
453.42	7286.09
453.60	7332.90
453.78	7508.44
453.97	7234.60
454.15	7463.97
454.34	7386.73
454.52	7508.44
454.70	7527.16
454.89	7534.18
455.07	7644.19
455.26	7644.19
455.44	7691.00
455.62	7922.71
455.81	7569.29
455.99	7838.45
456.17	7667.60
456.36	7817.39
456.54	7847.82
456.73	8046.76
456.91	8226.98
457.09	8058.46
457.28	8109.96
457.46	8056.12
457.64	8145.06
457.83	8152.09
458.01	7969.52
458.19	8203.58
458.38	8262.09
458.56	8257.41
458.74	8215.28
458.93	8475.08
459.11	8138.04
459.29	8358.05
459.48	8077.19
459.66	8383.80
459.84	8404.86
460.03	8589.77
460.21	8461.04
460.39	8599.13
460.57	8596.79
460.76	8681.05
460.94	8594.45
461.12	8643.60
461.31	8751.26
461.49	8542.96
461.67	8308.90
461.85	8734.88
462.04	8828.50
462.22	9355.12
462.40	9064.89
462.59	8669.34
462.77	8624.87
462.95	9172.56
463.13	8784.03
463.32	8994.68
463.50	8947.87
463.68	9144.47
463.86	9090.64
464.05	8814.46
464.23	8992.34
464.41	9092.98
464.59	8908.08
464.78	9158.52
464.96	9081.28
465.14	8826.16
465.32	9139.79
465.50	9062.55
465.69	9298.95
465.87	9165.54
466.05	9224.05
466.23	8931.48
466.41	9001.70
466.60	9210.01
466.78	9329.38
466.96	9186.60
467.14	9191.28
467.32	9408.95
467.51	9334.06
467.69	9240.44
467.87	9266.18
468.05	9427.68
468.23	9186.60
468.41	9441.72
468.60	9378.53
468.78	9577.47
468.96	9612.58
469.14	9703.86
469.32	9785.78
469.50	9767.06
469.69	9647.69
469.87	9745.99
470.05	9841.95
470.23	9745.99
470.41	9804.50
470.59	10043.24
470.77	10054.94
470.95	9940.26
471.14	10068.98
471.32	10033.88
471.50	10352.19
471.68	10099.41
471.86	10443.47
472.04	10183.67
472.22	10511.35
472.40	10197.71
472.58	10331.12
472.77	10228.14
472.95	10562.84
473.13	10885.83
473.31	10501.98
473.49	10593.26
473.67	10759.44
473.85	10602.63
474.03	10918.60
474.21	11073.07
474.39	11119.89
474.57	11073.07
474.75	10937.32
474.93	11105.84
475.12	11070.73
475.30	11403.09
475.48	11096.48
475.66	11344.58
475.84	11042.65
476.02	11225.21
476.20	11339.90
476.38	11353.94
476.56	11653.53
476.74	11885.24
476.92	11798.64
477.10	11660.55
477.28	12217.60
477.46	12173.13
477.64	12107.59
477.82	12283.13
478.00	12634.21
478.18	12685.70
478.36	12650.60
478.54	12737.20
478.72	12594.42
478.90	12760.60
479.08	12936.14
479.26	13331.69
479.44	13078.91
479.62	12980.61
479.80	13341.05
479.98	13273.18
480.16	13551.70
480.34	13411.27
480.52	13518.93
480.70	13942.57
480.88	13544.68
481.06	14139.18
481.24	13909.80
481.41	14193.01
481.59	14342.80
481.77	14424.72
481.95	14305.35
482.13	14494.94
482.31	14490.26
482.49	14766.44
482.67	14609.62
482.85	14977.09
483.03	15176.03
483.21	15311.78
483.39	15468.60
483.57	15274.34
483.74	15667.55
483.92	15606.69
484.10	15620.74
484.28	15969.48
484.46	16205.87
484.64	16196.51
484.82	15885.22
485.00	15985.86
485.18	16332.26
485.35	16292.47
485.53	16023.31
485.71	16002.24
485.89	16313.53
486.07	16315.87
486.25	16575.67
486.43	16531.20
486.61	17022.72
486.78	17341.03
486.96	16975.91
487.14	17628.92
487.32	17631.26
487.50	17680.41
487.68	18001.06
487.85	18408.31
488.03	18462.15
488.21	18658.75
488.39	18518.32
488.57	18569.81
488.75	18941.96
488.92	19185.37
489.10	19227.50
489.28	19227.50
489.46	19466.24
489.64	19723.69
489.81	20063.07
489.99	20098.18
490.17	19939.02
490.35	20255.00
490.53	20222.23
490.70	20381.38
490.88	20336.91
491.06	21064.82
491.24	20573.31
491.41	20769.91
491.59	20690.34
491.77	20893.96
491.95	20938.43
492.13	21200.57
492.30	21259.09
492.48	21626.55
492.66	22019.76
492.84	22024.44
493.01	22141.47
493.19	21942.52
493.37	22401.27
493.54	22530.00
493.72	22445.74
493.90	22501.91
494.08	22948.95
494.25	22941.93
494.43	23082.36
494.61	23391.31
494.79	23349.18
494.96	23225.14
495.14	23117.47
495.32	23660.48
495.49	23482.59
495.67	23225.14
495.85	23887.51
496.02	24173.05
496.20	24119.22
496.38	24086.45
496.55	24524.13
496.73	24882.24
496.91	24407.11
497.09	25039.05
497.26	24975.86
497.44	24819.04
497.62	25216.93
497.79	25247.36
497.97	25102.25
498.14	25036.71
498.32	25432.26
498.50	25516.52
498.67	25993.99
498.85	26134.42
499.03	26022.08
499.20	26398.90
499.38	26150.81
499.56	26515.93
499.73	26242.09
499.91	26455.08
500.08	26569.76
500.26	26478.48
500.44	26429.33
500.61	26675.09
500.79	26305.28
500.97	26836.58
501.14	26682.11
501.32	26773.39
501.49	27187.66
501.67	27094.04
501.84	27154.90
502.02	27564.49
502.20	27683.86
502.37	27505.98
502.55	27583.21
502.72	28025.57
502.90	28381.34
503.07	28002.17
503.25	28130.90
503.43	27953.02
503.60	28268.99
503.78	27920.25
503.95	28072.39
504.13	28327.50
504.30	28561.56
504.48	28489.00
504.65	28889.23
504.83	28591.98
505.01	29097.54
505.18	28847.10
505.36	29493.09
505.53	29439.26
505.71	29640.54
505.88	29668.63
506.06	29699.06
506.23	29755.23
506.41	29282.44
506.58	29905.02
506.76	29343.30
506.93	29876.94
507.11	29640.54
507.28	30221.00
507.46	29876.94
507.63	29715.44
507.81	30045.46
507.98	30031.41
508.16	30087.59
508.33	30408.24
508.50	30485.48
508.68	30998.06
508.85	31503.61
509.03	30838.90
509.20	31281.26
509.38	31012.10
509.55	31222.75
509.73	31571.49
509.90	31447.44
510.08	31030.82
510.25	31192.32
510.42	31711.92
510.60	31779.79
510.77	31742.35
510.95	32060.66
511.12	31889.80
511.30	32238.54
511.47	32023.21
511.64	31842.99
511.82	32224.50
511.99	31899.16
512.17	32304.07
512.34	31931.93
512.51	32498.34
512.69	32341.52
512.86	32521.74
513.04	32788.56
513.21	32439.82
513.38	32559.19
513.56	32811.97
513.73	32627.07
513.90	32692.60
514.08	32905.59
514.25	33017.94
514.43	33104.54
514.60	33415.83
514.77	33020.28
514.95	33610.09
515.12	33305.82
515.29	33251.99
515.47	33661.58
515.64	33937.77
515.81	33535.20
515.99	33701.37
516.16	33603.07
516.33	33521.15
516.51	33249.65
516.68	33106.88
516.85	33050.70
517.03	33476.68
517.20	33947.13
517.37	34487.79
517.54	34150.76
517.72	34429.28
517.89	33663.93
518.06	33701.37
518.24	33750.52
518.41	34232.68
518.58	34092.24
518.75	34717.17
518.93	34560.35
519.10	34808.45
519.27	34649.29
519.45	35519.97
519.62	35707.21
519.79	34993.35
519.96	35096.33
520.14	35372.52
520.31	35288.26
520.48	35501.25
520.65	35526.99
520.83	35821.90
521.00	35948.29
521.17	36027.87
521.34	35866.37
521.52	35828.92
521.69	36304.05
521.86	36229.15
522.03	36079.36
522.20	36264.26
522.38	36170.64
522.55	36278.30
522.72	36278.30
522.89	36238.51
523.07	36793.22
523.24	36687.90
523.41	37165.37
523.58	36374.27
523.75	37301.12
523.92	36835.35
524.10	37329.20
524.27	37240.26
524.44	37268.35
524.61	37036.64
524.78	37607.73
524.96	37860.51
525.13	37404.10
525.30	37448.57
525.47	37364.31
525.64	37329.20
525.81	37380.70
525.98	37277.71
526.16	37177.07
526.33	37200.47
526.50	37095.15
526.67	37277.71
526.84	37401.76
527.01	37275.37
527.18	38029.02
527.36	38031.36
527.53	37745.82
527.70	38422.23
527.87	38014.98
528.04	38417.55
528.21	38471.39
528.38	38630.54
528.55	38717.14
528.72	38789.70
528.89	38719.48
529.07	38745.23
529.24	38288.82
529.41	38368.40
529.58	38693.74
529.75	38487.77
529.92	38986.30
530.09	39070.56
530.26	39285.89
530.43	39189.93
530.60	38586.07
530.77	39330.36
530.94	39325.68
531.11	39075.24
531.28	39248.44
531.46	39232.06
531.63	39241.42
531.80	39299.94
531.97	38923.11
532.14	39580.80
532.31	38873.96
532.48	39325.68
532.65	39751.66
532.82	39234.40
532.99	39552.71
533.16	39550.37
533.33	39566.76
533.50	39676.76
533.67	39641.65
533.84	39981.03
534.01	39587.82
534.18	39782.09
534.35	40392.97
534.52	40081.67
534.69	40355.52
534.86	40652.76
535.03	40521.69
535.20	40879.80
535.37	40999.16
535.54	40453.82
535.71	40566.16
535.88	40741.71
536.05	40285.30
536.22	40650.42
536.38	40591.91
536.55	40617.66
536.72	40411.69
536.89	40634.04
537.06	40952.35
537.23	41048.32
537.40	40556.80
537.57	41134.92
537.74	41148.96
537.91	41205.13
538.08	40966.40
538.25	40830.65
538.42	40996.82
538.59	40865.75
538.75	40912.56
538.92	41247.26
539.09	41078.74
539.26	41137.26
539.43	41057.68
539.60	41177.04
539.77	41104.49
539.94	41237.90
540.11	41439.18
540.28	41319.82
540.44	41345.56
540.61	41277.69
540.78	41041.29
540.95	41345.56
541.12	41062.36
541.29	41404.08
541.46	41420.46
541.62	42085.17
541.79	41635.79
541.96	41713.03
542.13	41495.36
542.30	42101.56
542.47	41872.18
542.63	41759.84
542.80	41895.59
542.97	42368.38
543.14	42241.99
543.31	42756.91
543.48	42314.55
543.64	42735.84
543.81	42494.77
543.98	42855.21
544.15	42321.57
544.32	43140.75
544.48	42857.55
544.65	42796.70
544.82	43161.82
544.99	42595.41
545.16	42660.94
545.32	42714.78
545.49	43058.84
545.66	42784.99
545.83	43367.79
546.00	42649.24
546.16	43042.45
546.33	43075.22
546.50	42782.65
546.67	43152.46
546.83	42590.73
547.00	43180.54
547.17	42569.66
547.34	42953.51
547.50	43217.99
547.67	43115.01
547.84	43388.85
548.00	43606.52
548.17	43737.59
548.34	43590.14
548.51	43819.51
548.67	43662.69
548.84	43285.87
549.01	43475.45
549.18	43203.95
549.34	43592.48
549.51	43576.09
549.68	44098.03
549.84	43489.49
550.01	43957.60
550.18	43863.98
550.34	43629.93
550.51	43761.00
550.68	43379.49
550.84	43430.98
551.01	43709.50
551.18	43625.25
551.34	43988.03
551.51	43934.20
551.68	43871.00
551.84	43861.64
552.01	43838.23
552.18	43735.25
552.34	43952.92
552.51	44385.92
552.68	43997.39
552.84	44402.30
553.01	44102.71
553.18	44083.99
553.34	44217.40
553.51	44060.58
553.67	44769.77
553.84	44767.43
554.01	44701.89
554.17	44910.20
554.34	44589.55
554.51	44222.08
554.67	44975.73
554.84	44552.10
555.00	44355.49
555.17	44807.22
555.33	44556.78
555.50	44884.45
555.67	44488.90
555.83	44912.54
556.00	44341.45
556.16	44964.03
556.33	44444.43
556.50	44472.52
556.66	44949.99
556.83	44243.15
556.99	44423.37
557.16	44390.60
557.32	45015.52
557.49	44858.71
557.65	44917.22
557.82	44502.95
557.98	44994.46
558.15	45734.07
558.32	44729.98
558.48	44814.24
558.65	44521.67
558.81	44729.98
558.98	44912.54
559.14	45118.51
559.31	44463.16
559.47	44882.11
559.64	44935.95
559.80	45263.62
559.97	44683.17
560.13	44690.19
560.30	45116.17
560.46	45315.11
560.63	45045.95
560.79	45352.56
560.96	45319.79
561.12	45031.91
561.29	44910.20
561.45	45165.32
561.61	45226.17
561.78	45251.92
561.94	45270.64
562.11	45305.75
562.27	45280.00
562.44	45373.63
562.60	45387.67
562.77	45200.43
562.93	45102.12
563.10	45382.99
563.26	45350.22
563.42	45382.99
563.59	45713.00
563.75	45338.52
563.92	45787.90
564.08	45469.59
564.24	45310.43
564.41	45551.51
564.57	45359.58
564.74	45621.72
564.90	45647.47
565.07	45221.49
565.23	45418.10
565.39	45270.64
565.56	45607.68
565.72	45013.18
565.88	45165.32
566.05	45244.90
566.21	45408.73
566.38	45450.86
566.54	45481.29
566.70	45872.16
566.87	45743.43
567.03	45502.35
567.19	46038.34
567.36	45701.30
567.52	45663.85
567.68	45923.65
567.85	45055.31
568.01	45422.78
568.17	45436.82
568.34	45443.84
568.50	45556.19
568.66	45933.01
568.83	45769.18
568.99	45059.99
569.15	45436.82
569.32	45696.62
569.48	45647.47
569.64	45668.53
569.81	45670.87
569.97	45820.67
570.13	45799.60
570.30	45666.19
570.46	45272.98
570.62	45151.27
570.78	44769.77
570.95	45586.61
571.11	45883.86
571.27	45272.98
571.43	45516.40
571.60	45886.20
571.76	45675.55
571.92	45514.06
572.09	45595.98
572.25	45722.37
572.41	46209.20
572.57	45881.52
572.74	46366.01
572.90	46036.00
573.06	45656.83
573.22	46323.88
573.38	45916.63
573.55	45469.59
573.71	45986.85
573.87	46021.95
574.03	45785.56
574.20	45617.04
574.36	45874.50
574.52	45883.86
574.68	45818.33
574.84	45689.60
575.01	45705.98
575.17	45841.73
575.33	45663.85
575.49	45366.60
575.65	45832.37
575.82	46199.83
575.98	45680.24
576.14	46003.23
576.30	45755.13
576.46	45701.30
576.62	45605.34
576.79	45839.39
576.95	45614.70
577.11	45963.44
577.27	45500.01
577.43	45738.75
577.59	45825.35
577.75	45940.04
577.92	45694.28
578.08	45251.92
578.24	45635.77
578.40	45696.62
578.56	45813.65
578.72	45925.99
578.88	46000.89
579.04	45928.33
579.21	45717.68
579.37	45593.64
579.53	46028.98
579.69	45612.36
579.85	45584.27
580.01	45935.35
580.17	45546.82
580.33	45544.48
580.49	46248.99
580.65	45315.11
580.82	45883.86
580.98	45715.34
581.14	45755.13
581.30	46387.08
581.46	45792.58
581.62	45605.34
581.78	46057.06
581.94	46424.53
582.10	46174.09
582.26	46220.90
582.42	45900.25
582.58	45743.43
582.74	45942.38
582.90	45858.12
583.06	46267.71
583.22	45598.32
583.38	46272.39
583.54	45883.86
583.70	45771.52
583.86	45853.44
584.02	45766.84
584.18	46040.68
584.34	45921.31
584.50	46129.62
584.66	45673.21
584.82	45818.33
584.98	45794.92
585.14	45734.07
585.30	45879.18
585.46	46284.09
585.62	45682.58
585.78	45815.99
585.94	45954.08
586.10	45666.19
586.26	45937.69
586.42	46026.63
586.58	46019.61
586.74	46178.77
586.90	45937.69
587.06	45783.22
587.22	46117.92
587.38	45642.79
587.54	46066.42
587.70	45930.67
587.86	46024.29
588.02	45846.41
588.18	46267.71
588.34	45492.99
588.49	45284.68
588.65	45305.75
588.81	45312.77
588.97	45022.54
589.13	44772.11
589.29	45392.35
589.45	45455.54
589.61	45734.07
589.77	46138.98
589.93	45996.21
590.08	45883.86
