SpectraSuite Data File
++++++++++++++++++++++++++++++++++++
Date: Fri Oct 25 11:34:43 EDT 2013
User: price-jones
Dark Spectrum Present: No
Reference Spectrum Present: No
Number of Sampled Component Spectra: 1
Spectrometers: USB2+H05261
Integration Time (usec): 100000 (USB2+H05261)
Spectra Averaged: 1 (USB2+H05261)
Boxcar Smoothing: 0 (USB2+H05261)
Correct for Electrical Dark: No (USB2+H05261)
Strobe/Lamp Enabled: No (USB2+H05261)
Correct for Detector Non-linearity: No (USB2+H05261)
Correct for Stray Light: No (USB2+H05261)
Number of Pixels in Processed Spectrum: 2048
>>>>>Begin Processed Spectral Data<<<<<
365.73	236.39
365.92	236.39
366.12	236.39
366.32	184.90
366.52	205.97
366.72	184.90
366.91	182.56
367.11	154.48
367.31	187.24
367.51	145.11
367.70	257.46
367.90	191.92
368.10	145.11
368.30	189.58
368.49	238.73
368.69	222.35
368.89	220.01
369.09	126.39
369.28	259.80
369.48	182.56
369.68	222.35
369.87	238.73
370.07	299.59
370.27	238.73
370.47	346.40
370.66	531.30
370.86	573.43
371.06	580.45
371.25	540.66
371.45	540.66
371.65	594.50
371.84	528.96
372.04	538.32
372.24	615.56
372.44	554.71
372.63	620.24
372.83	585.13
373.03	631.94
373.22	620.24
373.42	582.79
373.62	624.92
373.81	610.88
374.01	662.37
374.21	706.84
374.40	589.82
374.60	641.31
374.79	622.58
374.99	716.20
375.19	655.35
375.38	688.12
375.58	645.99
375.78	678.76
375.97	678.76
376.17	772.38
376.37	692.80
376.56	660.03
376.76	657.69
376.95	645.99
377.15	645.99
377.35	676.41
377.54	678.76
377.74	660.03
377.93	706.84
378.13	720.88
378.33	720.88
378.52	662.37
378.72	631.94
378.91	683.44
379.11	709.18
379.31	685.78
379.50	674.07
379.70	706.84
379.89	746.63
380.09	744.29
380.28	748.97
380.48	741.95
380.68	697.48
380.87	711.52
381.07	725.57
381.26	748.97
381.46	739.61
381.65	709.18
381.85	683.44
382.04	737.27
382.24	709.18
382.43	699.82
382.63	744.29
382.83	887.06
383.02	767.70
383.22	830.89
383.41	781.74
383.61	727.91
383.80	814.51
384.00	802.80
384.19	795.78
384.39	772.38
384.58	793.44
384.78	791.10
384.97	833.23
385.17	763.01
385.36	816.85
385.56	849.61
385.75	861.32
385.95	901.11
386.14	894.08
386.34	830.89
386.53	828.55
386.72	842.59
386.92	884.72
387.11	903.45
387.31	882.38
387.50	959.62
387.70	863.66
387.89	922.17
388.09	851.96
388.28	903.45
388.48	894.08
388.67	894.08
388.86	866.00
389.06	959.62
389.25	910.47
389.45	901.11
389.64	919.83
389.84	950.26
390.03	912.81
390.22	961.96
390.42	950.26
390.61	917.49
390.81	915.15
391.00	983.02
391.19	978.34
391.39	1057.92
391.58	968.98
391.78	1036.86
391.97	966.64
392.16	987.71
392.36	992.39
392.55	999.41
392.75	997.07
392.94	1081.33
393.13	1086.01
393.33	908.13
393.52	1048.56
393.71	1076.65
393.91	1062.60
394.10	1057.92
394.29	1074.31
394.49	1086.01
394.68	1088.35
394.88	1104.73
395.07	1109.41
395.26	1027.50
395.46	1062.60
395.65	1151.54
395.84	1102.39
396.04	1196.01
396.23	1118.78
396.42	1078.99
396.62	1153.88
396.81	1200.69
397.00	1181.97
397.19	1107.07
397.39	1104.73
397.58	1259.21
397.77	1196.01
397.97	1177.29
398.16	1219.42
398.35	1165.59
398.55	1212.40
398.74	1277.93
398.93	1263.89
399.12	1193.67
399.32	1270.91
399.51	1275.59
399.70	1331.76
399.90	1289.64
400.09	1331.76
400.28	1448.79
400.47	1357.51
400.67	1446.45
400.86	1383.26
401.05	1404.32
401.24	1472.20
401.44	1472.20
401.63	1474.54
401.82	1448.79
402.01	1420.71
402.21	1409.00
402.40	1472.20
402.59	1373.89
402.78	1413.68
402.97	1437.09
403.17	1444.11
403.36	1519.01
403.55	1479.22
403.74	1509.65
403.93	1511.99
404.13	1617.31
404.32	1521.35
404.51	1579.86
404.70	1554.12
404.89	1533.05
405.09	1577.52
405.28	1526.03
405.47	1621.99
405.66	1652.42
405.85	1605.61
406.05	1626.67
406.24	1523.69
406.43	1715.61
406.62	1617.31
406.81	1727.32
407.00	1666.46
407.20	1666.46
407.39	1715.61
407.58	1781.15
407.77	1755.40
407.96	1790.51
408.15	1834.98
408.34	1785.83
408.54	1912.22
408.73	1849.02
408.92	1909.88
409.11	1977.75
409.30	1867.75
409.49	1947.33
409.68	1816.26
409.87	1844.34
410.07	1944.99
410.26	1884.13
410.45	1895.83
410.64	2111.16
410.83	2010.52
411.02	1956.69
411.21	2129.89
411.40	2099.46
411.59	2078.40
411.78	1980.09
411.98	2038.61
412.17	2160.31
412.36	2146.27
412.55	2197.76
412.74	2246.91
412.93	2134.57
413.12	2289.04
413.31	2370.96
413.50	2293.72
413.69	2331.17
413.88	2401.39
414.07	2321.81
414.26	2333.51
414.45	2270.32
414.64	2438.84
414.83	2441.18
415.02	2523.10
415.22	2558.21
415.41	2443.52
415.60	2485.65
415.79	2551.18
415.98	2630.76
416.17	2593.31
416.36	2642.46
416.55	2677.57
416.74	2675.23
416.93	2588.63
417.12	2663.53
417.31	2799.28
417.50	2803.96
417.69	2836.73
417.88	2829.71
418.07	2712.68
418.26	2820.35
418.45	2904.60
418.64	3066.10
418.83	2834.39
419.02	3054.40
419.21	2888.22
419.39	2944.39
419.58	2869.50
419.77	2782.90
419.96	2991.20
420.15	3131.64
420.34	2986.52
420.53	3035.67
420.72	2942.05
420.91	3070.78
421.10	3059.08
421.29	3204.19
421.48	2925.67
421.67	3077.80
421.86	3169.09
422.05	3155.04
422.24	3005.25
422.43	3052.06
422.61	3133.98
422.80	3316.54
422.99	3178.45
423.18	3253.34
423.37	3204.19
423.56	3274.41
423.75	3251.00
423.94	3152.70
424.13	3145.68
424.32	3133.98
424.50	3318.88
424.69	3330.58
424.88	3281.43
425.07	3166.74
425.26	3239.30
425.45	3386.76
425.64	3220.58
425.83	3361.01
426.01	3349.31
426.20	3295.47
426.39	3295.47
426.58	3414.84
426.77	3290.79
426.96	3314.20
427.15	3330.58
427.33	3417.18
427.52	3527.19
427.71	3421.86
427.90	3557.61
428.09	3524.85
428.28	3515.48
428.46	3445.27
428.65	3496.76
428.84	3592.72
429.03	3550.59
429.22	3473.36
429.40	3700.39
429.59	3655.92
429.78	3363.35
429.97	3461.65
430.16	3639.53
430.34	3641.87
430.53	3595.06
430.72	3620.81
430.91	3770.60
431.10	3634.85
431.28	3803.37
431.47	3836.14
431.66	3824.44
431.85	3716.77
432.03	3861.88
432.22	3929.76
432.41	3868.91
432.60	3892.31
432.79	3901.67
432.97	4002.32
433.16	3939.12
433.35	3798.69
433.54	3906.35
433.72	3885.29
433.91	4091.26
434.10	4063.17
434.28	4114.66
434.47	4159.13
434.66	4042.11
434.85	4088.92
435.03	4081.89
435.22	3873.59
435.41	4318.29
435.59	4203.60
435.78	4112.32
435.97	4339.35
436.16	4166.15
436.34	4081.89
436.53	4215.30
436.72	4348.72
436.90	4119.34
437.09	4245.73
437.28	4250.41
437.46	4259.78
437.65	4320.63
437.84	4428.29
438.02	4423.61
438.21	4465.74
438.40	4266.80
438.58	4468.08
438.77	4521.92
438.96	4407.23
439.14	4716.18
439.33	4524.26
439.52	4695.11
439.70	4770.01
439.89	4657.67
440.08	4737.24
440.26	4755.97
440.45	4786.40
440.63	4854.27
440.82	4929.17
441.01	4720.86
441.19	5100.03
441.38	4971.30
441.57	4840.23
441.75	4961.94
441.94	5095.35
442.12	5097.69
442.31	5270.89
442.50	5263.86
442.68	5174.92
442.87	5069.60
443.05	5280.25
443.24	5256.84
443.43	5324.72
443.61	5348.12
443.80	5369.19
443.98	5200.67
444.17	5041.51
444.35	5252.16
444.54	5474.51
444.73	5322.38
444.91	5301.31
445.10	5275.57
445.28	5284.93
445.47	5305.99
445.65	5291.95
445.84	5401.96
446.02	5500.26
446.21	5406.64
446.39	5404.30
446.58	5521.32
446.77	5446.43
446.95	5305.99
447.14	5331.74
447.32	5514.30
447.51	5310.68
447.69	5387.91
447.88	5556.43
448.06	5514.30
448.25	5628.99
448.43	5596.22
448.62	5474.51
448.80	5427.70
448.99	5535.37
449.17	5528.35
449.36	5614.95
449.54	5612.60
449.73	5823.25
449.91	5907.51
450.10	5652.39
450.28	5816.23
450.46	5734.31
450.65	5825.59
450.83	5914.53
451.02	5813.89
451.20	5792.83
451.39	5682.82
451.57	5879.43
451.76	5748.36
451.94	5727.29
452.13	5956.66
452.31	6038.58
452.49	5944.96
452.68	5991.77
452.86	6024.54
453.05	6022.20
453.23	6031.56
453.42	6010.50
453.60	5909.85
453.78	6029.22
453.97	6033.90
454.15	5912.19
454.34	6188.38
454.52	6174.33
454.70	6258.59
454.89	6204.76
455.07	6307.74
455.26	6242.21
455.44	6310.08
455.62	6274.98
455.81	6291.36
455.99	6324.13
456.17	6406.05
456.36	6452.86
456.54	6373.28
456.73	6476.26
456.91	6492.65
457.09	6626.06
457.28	6792.23
457.46	6607.33
457.64	6750.10
457.83	6614.35
458.01	6743.08
458.19	6782.87
458.38	6782.87
458.56	6810.96
458.74	6918.62
458.93	6881.18
459.11	6878.83
459.29	6885.86
459.48	6705.63
459.66	6726.70
459.84	6869.47
460.03	7173.74
460.21	7049.69
460.39	7033.31
460.57	6972.46
460.76	7054.37
460.94	7124.59
461.12	7290.77
461.31	7035.65
461.49	6937.35
461.67	6885.86
461.85	7524.82
462.04	7166.72
462.22	7267.36
462.40	7272.04
462.59	7288.43
462.77	7180.76
462.95	7328.22
463.13	7426.52
463.32	7379.71
463.50	7410.14
463.68	7506.10
463.86	7433.54
464.05	7325.88
464.23	7438.22
464.41	7695.68
464.59	7311.83
464.78	7658.23
464.96	7384.39
465.14	7545.89
465.32	7658.23
465.50	7777.60
465.69	7777.60
465.87	7534.18
466.05	7763.56
466.23	7702.70
466.41	7932.08
466.60	7829.09
466.78	7751.85
466.96	7784.62
467.14	7822.07
467.32	7609.08
467.51	7906.33
467.69	7770.58
467.87	7939.10
468.05	8018.68
468.23	7957.82
468.41	7885.26
468.60	8004.63
468.78	8140.38
468.96	8028.04
469.14	8102.93
469.32	8060.80
469.50	7988.25
469.69	8332.31
469.87	8336.99
470.05	8231.66
470.23	8327.63
470.41	8236.35
470.59	8379.12
470.77	8351.03
470.95	8313.58
471.14	8678.71
471.32	8285.50
471.50	8589.77
471.68	8538.27
471.86	8589.77
472.04	8769.99
472.22	8786.37
472.40	8746.58
472.58	8692.75
472.77	8821.48
472.95	8896.38
473.13	9144.47
473.31	8978.30
473.49	8870.63
473.67	8727.86
473.85	8990.00
474.03	9270.86
474.21	9280.22
474.39	9352.78
474.57	9338.74
474.75	9465.13
474.93	9469.81
475.12	9348.10
475.30	9373.85
475.48	9544.70
475.66	9509.60
475.84	9675.77
476.02	9589.17
476.20	9680.46
476.38	9863.02
476.56	10143.88
476.74	10118.14
476.92	9919.19
477.10	9898.13
477.28	9958.98
477.46	9991.75
477.64	10260.91
477.82	10267.93
478.00	10729.02
478.18	10473.90
478.36	10675.18
478.54	10553.48
478.72	10817.96
478.90	10787.53
479.08	10920.94
479.26	11014.56
479.44	11012.22
479.62	10979.45
479.80	11239.25
479.98	11265.00
480.16	11463.94
480.34	11304.79
480.52	11705.02
480.70	11564.59
480.88	11417.13
481.06	11747.15
481.24	11730.76
481.41	11641.82
481.59	12271.43
481.77	12030.35
481.95	12030.35
482.13	12285.47
482.31	12381.43
482.49	12486.76
482.67	12535.91
482.85	12814.43
483.03	12697.41
483.21	12755.92
483.39	12849.54
483.57	13174.88
483.74	13137.43
483.92	13235.73
484.10	13233.39
484.28	13312.97
484.46	13355.10
484.64	13860.65
484.82	13767.03
485.00	13736.60
485.18	13996.40
485.35	14075.98
485.53	14010.45
485.71	14359.19
485.89	14635.37
486.07	14328.76
486.25	14712.61
486.43	14530.05
486.61	14656.43
486.78	14995.81
486.96	14860.06
487.14	15035.60
487.32	15328.17
487.50	15318.81
487.68	15503.71
487.85	15503.71
488.03	15749.46
488.21	16128.63
488.39	16018.63
488.57	16159.06
488.75	16388.43
488.92	16348.64
489.10	16718.45
489.28	16774.62
489.46	16863.56
489.64	16774.62
489.81	17586.79
489.99	17146.76
490.17	16961.86
490.35	17343.37
490.53	17275.49
490.70	17715.51
490.88	17584.44
491.06	17928.50
491.24	17811.48
491.41	18178.94
491.59	17963.61
491.77	17860.63
491.95	18354.48
492.13	18572.15
492.30	18682.16
492.48	18523.00
492.66	18490.23
492.84	18782.80
493.01	18986.43
493.19	18974.72
493.37	19068.34
493.54	19269.63
493.72	19506.02
493.90	19559.86
494.08	19592.62
494.25	19674.54
494.43	19941.36
494.61	19578.58
494.79	20018.60
494.96	20152.01
495.14	19955.41
495.32	20336.91
495.49	20727.78
495.67	20622.46
495.85	20776.94
496.02	20868.22
496.20	21123.33
496.38	20954.82
496.55	21137.38
496.73	21809.11
496.91	21542.29
497.09	21603.14
497.26	21500.16
497.44	21682.72
497.62	21893.37
497.79	22309.99
497.97	21795.07
498.14	22263.18
498.32	22530.00
498.50	22286.58
498.67	22607.23
498.85	22558.08
499.03	22735.96
499.20	22696.17
499.38	22803.84
499.56	23070.66
499.73	23154.92
499.91	23206.41
500.08	23166.62
500.26	23033.21
500.44	23283.65
500.61	23449.83
500.79	23293.01
500.97	23632.39
501.14	24046.66
501.32	23634.73
501.49	24074.75
501.67	24327.53
501.84	23903.89
502.02	24259.65
502.20	23796.23
502.37	23950.70
502.55	24095.82
502.72	24315.83
502.90	24629.46
503.07	24299.44
503.25	24613.07
503.43	24240.93
503.60	24786.27
503.78	24917.34
503.95	24751.17
504.13	24889.26
504.30	25291.83
504.48	24994.58
504.65	25343.32
504.83	25490.77
505.01	25586.74
505.18	25530.56
505.36	25689.72
505.53	25701.42
505.71	25862.92
505.88	25717.81
506.06	25654.61
506.23	26078.25
506.41	26047.82
506.58	26136.76
506.76	26120.38
506.93	26101.65
507.11	26153.15
507.28	26639.98
507.46	26462.10
507.63	26508.91
507.81	26785.09
507.98	26712.53
508.16	26831.90
508.33	27094.04
508.50	26881.05
508.68	26946.59
508.85	27180.64
509.03	27335.12
509.20	27255.54
509.38	27304.69
509.55	27463.85
509.73	27740.03
509.90	27756.41
510.08	27777.48
510.25	27618.32
510.42	27800.88
510.60	27920.25
510.77	28276.01
510.95	28247.93
511.12	27920.25
511.30	28484.32
511.47	28428.15
511.64	28191.75
511.82	28570.92
511.99	28591.98
512.17	28772.21
512.34	28856.46
512.51	29064.77
512.69	29109.24
512.86	29170.10
513.04	29034.35
513.21	29202.86
513.38	29340.96
513.56	29252.02
513.73	29441.60
513.90	29647.57
514.08	29193.50
514.25	29797.36
514.43	29979.92
514.60	29488.41
514.77	29961.20
514.95	29809.06
515.12	29422.87
515.29	29605.44
515.47	30316.96
515.64	29727.14
515.81	30099.29
515.99	30384.83
516.16	30492.50
516.33	30764.00
516.51	30431.65
516.68	30403.56
516.85	30714.85
517.03	30796.77
517.20	30930.18
517.37	30885.71
517.54	30649.32
517.72	30843.58
517.89	31030.82
518.06	31091.68
518.24	31185.30
518.41	31117.42
518.58	31283.60
518.75	30859.96
518.93	31587.87
519.10	31606.59
519.27	31580.85
519.45	31431.05
519.62	31519.99
519.79	31871.07
519.96	31927.25
520.14	31552.76
520.31	32135.56
520.48	32350.88
520.65	31915.54
520.83	31971.72
521.00	32510.04
521.17	32385.99
521.34	32196.41
521.52	32367.27
521.69	32826.01
521.86	32645.79
522.03	32488.98
522.20	33057.73
522.38	33193.48
522.55	32891.55
522.72	33163.05
522.89	33179.43
523.07	32994.53
523.24	33479.02
523.41	33474.34
523.58	33172.41
523.75	33652.22
523.92	33338.59
524.10	34099.26
524.27	33633.50
524.44	33881.60
524.61	33460.30
524.78	33530.51
524.96	33809.04
525.13	34213.95
525.30	34197.57
525.47	34155.44
525.64	33998.62
525.81	34529.92
525.98	33979.90
526.16	34181.18
526.33	34284.17
526.50	34330.98
526.67	34412.90
526.84	34670.36
527.01	34403.53
527.18	34569.71
527.36	34543.97
527.53	34345.02
527.70	34932.50
527.87	35070.59
528.04	35044.84
528.21	35026.12
528.38	34911.43
528.55	35049.52
528.72	34998.03
528.89	34646.95
529.07	35143.14
529.24	34960.58
529.41	35449.75
529.58	35700.19
529.75	35330.39
529.92	35494.22
530.09	34937.18
530.26	35484.86
530.43	35704.87
530.60	35501.25
530.77	35192.30
530.94	35402.94
531.11	35557.42
531.28	35962.33
531.46	35917.86
531.63	36060.63
531.80	36182.34
531.97	36037.23
532.14	36142.55
532.31	36025.53
532.48	36315.75
532.65	36299.37
532.82	36184.68
532.99	36226.81
533.16	36392.99
533.33	36715.98
533.50	36503.00
533.67	36737.05
533.84	36327.45
534.01	37277.71
534.18	36514.70
534.35	37088.13
534.52	36683.22
534.69	37354.95
534.86	37273.03
535.03	36823.65
535.20	37471.98
535.37	37235.58
535.54	36893.86
535.71	36961.74
535.88	37305.80
536.05	37085.79
536.22	37607.73
536.38	37450.91
536.55	37563.26
536.72	37727.10
536.89	37605.39
537.06	37479.00
537.23	38052.43
537.40	37865.19
537.57	37488.36
537.74	37338.57
537.91	37406.44
538.08	38146.05
538.25	37998.60
538.42	38160.09
538.59	38274.78
538.75	37848.80
538.92	38146.05
539.09	38146.05
539.26	38426.92
539.43	38075.84
539.60	38335.63
539.77	38323.93
539.94	38515.86
540.11	38548.62
540.28	38518.20
540.44	38490.11
540.61	38471.39
540.78	38356.70
540.95	38745.23
541.12	38525.22
541.29	38522.88
541.46	38033.71
541.62	38780.34
541.79	39173.55
541.96	38712.46
542.13	39075.24
542.30	39063.54
542.47	38920.77
542.63	38990.98
542.80	39274.19
542.97	39548.03
543.14	39487.18
543.31	39496.54
543.48	39658.04
543.64	39948.26
543.81	39817.19
543.98	39550.37
544.15	39817.19
544.32	39908.47
544.48	40163.59
544.65	39777.40
544.82	40093.38
544.99	39515.26
545.16	39784.43
545.32	39796.13
545.49	39974.01
545.66	40367.22
545.83	40165.93
546.00	40467.86
546.16	40502.97
546.33	40154.23
546.50	39810.17
546.67	40392.97
546.83	39969.33
547.00	40275.94
547.17	39966.99
547.34	40449.14
547.50	40039.54
547.67	41277.69
547.84	40346.15
548.00	40830.65
548.17	40982.78
548.34	40961.72
548.51	40928.95
548.67	40816.60
548.84	40495.95
549.01	40765.11
549.18	40825.96
549.34	41137.26
549.51	41460.25
549.68	41202.79
549.84	41053.00
550.01	40947.67
550.18	40865.75
550.34	41053.00
550.51	41593.66
550.68	41397.06
550.84	40760.43
551.01	40975.76
551.18	41495.36
551.34	41497.70
551.51	41460.25
551.68	41244.92
551.84	41584.30
552.01	41331.52
552.18	41347.90
552.34	41338.54
552.51	41799.63
552.68	41776.22
552.84	41766.86
553.01	41888.57
553.18	41759.84
553.34	41935.38
553.51	41808.99
553.67	41916.65
553.84	42359.02
554.01	41656.85
554.17	41900.27
554.34	41713.03
554.51	42082.83
554.67	42153.05
554.84	42038.36
555.00	42171.77
555.17	42183.48
555.33	42246.67
555.50	42029.00
555.67	41944.74
555.83	42281.78
556.00	42108.58
556.16	42885.64
556.33	42660.94
556.50	42359.02
556.66	42298.16
556.83	41942.40
556.99	42644.56
557.16	42983.94
557.32	42635.20
557.49	42923.08
557.65	42667.97
557.82	42429.23
557.98	42487.74
558.15	42906.70
558.32	42834.14
558.48	42543.92
558.65	42536.90
558.81	42906.70
558.98	42515.83
559.14	43040.11
559.31	42689.03
559.47	42887.98
559.64	43260.12
559.80	42962.87
559.97	43208.63
560.13	42803.72
560.30	43075.22
560.46	43323.32
560.63	43370.13
560.79	42777.97
560.96	43187.56
561.12	43194.59
561.29	43030.75
561.45	43246.08
561.61	43063.52
561.78	43480.13
561.94	43377.15
562.11	43222.67
562.27	43243.74
562.44	43005.00
562.60	43440.34
562.77	43777.38
562.93	43381.83
563.10	43796.10
563.26	43365.45
563.42	44308.68
563.59	43728.23
563.75	43070.54
563.92	43140.75
564.08	43470.77
564.24	43622.90
564.41	43859.30
564.57	43400.55
564.74	43533.96
564.90	43447.36
565.07	43512.90
565.23	43669.72
565.39	43545.67
565.56	43924.83
565.72	43697.80
565.88	43679.08
566.05	43779.72
566.21	43608.86
566.38	43257.78
566.54	43945.90
566.70	43941.22
566.87	43716.53
567.03	43309.27
567.19	44081.65
567.36	43966.96
567.52	43828.87
567.68	44245.49
567.85	43866.32
568.01	43936.54
568.17	43559.71
568.34	44271.23
568.50	43772.70
568.66	44093.35
568.83	44203.36
568.99	44023.14
569.15	44088.67
569.32	43545.67
569.48	43718.87
569.64	44046.54
569.81	44226.76
569.97	44109.74
570.13	44378.90
570.30	44058.24
570.46	43777.38
570.62	44531.03
570.78	43922.49
570.95	44004.41
571.11	44451.45
571.27	44493.58
571.43	43833.55
571.60	43899.09
571.76	44371.88
571.92	43936.54
572.09	43871.00
572.25	43906.11
572.41	44371.88
572.57	44526.35
572.74	44168.25
572.90	44238.47
573.06	44076.97
573.22	44444.43
573.38	44289.96
573.55	44364.85
573.71	45069.36
573.87	44465.50
574.03	44542.74
574.20	44657.42
574.36	44617.63
574.52	44484.22
574.68	44421.03
574.84	44914.88
575.01	44381.24
575.17	44694.87
575.33	44512.31
575.49	44360.17
575.65	44954.67
575.82	44608.27
575.98	44163.57
576.14	44975.73
576.30	44781.47
576.46	44418.69
576.62	44729.98
576.79	44542.74
576.95	44299.32
577.11	44392.94
577.27	44612.95
577.43	44666.78
577.59	44158.89
577.75	44144.84
577.92	44257.19
578.08	44811.90
578.24	44545.08
578.40	44816.58
578.56	44765.09
578.72	44573.16
578.88	45125.53
579.04	44629.34
579.21	44322.72
579.37	44463.16
579.53	44575.50
579.69	44421.03
579.85	44505.29
580.01	44531.03
580.17	44652.74
580.33	44804.88
580.49	44814.24
580.65	44861.05
580.82	45027.23
580.98	44626.99
581.14	44388.26
581.30	44774.45
581.46	45069.36
581.62	44603.59
581.78	44631.68
581.94	44905.52
582.10	44708.91
582.26	45031.91
582.42	44437.41
582.58	44891.48
582.74	44582.52
582.90	44561.46
583.06	44828.28
583.22	44659.76
583.38	45083.40
583.54	44861.05
583.70	44657.42
583.86	44793.17
584.02	44500.61
584.18	45059.99
584.34	44919.56
584.50	45329.16
584.66	44868.07
584.82	44612.95
584.98	44989.78
585.14	45308.09
585.30	44774.45
585.46	44524.01
585.62	44905.52
585.78	44701.89
585.94	44456.14
586.10	45062.33
586.26	44786.15
586.42	44863.39
586.58	44912.54
586.74	44996.80
586.90	44673.81
587.06	44648.06
587.22	44886.79
587.38	44755.72
587.54	45078.72
587.70	45223.83
587.86	45242.56
588.02	44797.85
588.18	44886.79
588.34	45296.39
588.49	44964.03
588.65	44980.42
588.81	45081.06
588.97	45134.89
589.13	44737.00
589.29	44837.64
589.45	45649.81
589.61	45244.90
589.77	45069.36
589.93	44828.28
590.08	45125.53
590.24	45331.50
