SpectraSuite Data File
++++++++++++++++++++++++++++++++++++
Date: Fri Oct 25 11:22:55 EDT 2013
User: price-jones
Dark Spectrum Present: No
Reference Spectrum Present: No
Number of Sampled Component Spectra: 1
Spectrometers: USB2+H05261
Integration Time (usec): 100000 (USB2+H05261)
Spectra Averaged: 1 (USB2+H05261)
Boxcar Smoothing: 0 (USB2+H05261)
Correct for Electrical Dark: No (USB2+H05261)
Strobe/Lamp Enabled: No (USB2+H05261)
Correct for Detector Non-linearity: No (USB2+H05261)
Correct for Stray Light: No (USB2+H05261)
Number of Pixels in Processed Spectrum: 2048
>>>>>Begin Processed Spectral Data<<<<<
365.73	182.56
365.92	182.56
366.12	182.56
366.32	119.37
366.52	63.19
366.72	152.13
366.91	105.32
367.11	70.22
367.31	100.64
367.51	159.16
367.70	163.84
367.90	91.28
368.10	124.05
368.30	119.37
368.49	138.09
368.69	198.95
368.89	84.26
369.09	110.01
369.28	140.43
369.48	51.49
369.68	145.11
369.87	182.56
370.07	152.13
370.27	194.26
370.47	308.95
370.66	543.00
370.86	594.50
371.06	702.16
371.25	770.04
371.45	638.97
371.65	688.12
371.84	685.78
372.04	662.37
372.24	746.63
372.44	690.46
372.63	758.33
372.83	777.06
373.03	732.59
373.22	741.95
373.42	777.06
373.62	826.21
373.81	851.96
374.01	786.42
374.21	821.53
374.40	856.64
374.60	854.30
374.79	837.91
374.99	821.53
375.19	847.27
375.38	791.10
375.58	887.06
375.78	800.46
375.97	931.53
376.17	854.30
376.37	840.25
376.56	894.08
376.76	835.57
376.95	819.19
377.15	826.21
377.35	889.40
377.54	877.70
377.74	877.70
377.93	908.13
378.13	889.40
378.33	980.68
378.52	894.08
378.72	1013.45
378.91	908.13
379.11	971.32
379.31	1008.77
379.50	898.77
379.70	985.37
379.89	1057.92
380.09	1004.09
380.28	973.66
380.48	917.49
380.68	971.32
380.87	1004.09
381.07	994.73
381.26	1006.43
381.46	1116.44
381.65	1076.65
381.85	985.37
382.04	1029.84
382.24	1071.97
382.43	1025.15
382.63	1055.58
382.83	1041.54
383.02	1053.24
383.22	1093.03
383.41	1074.31
383.61	1006.43
383.80	1125.80
384.00	1001.75
384.19	1090.69
384.39	1242.82
384.58	1135.16
384.78	1046.22
384.97	1177.29
385.17	1144.52
385.36	1172.61
385.56	1165.59
385.75	1167.93
385.95	1184.31
386.14	1217.08
386.34	1174.95
386.53	1163.25
386.72	1146.86
386.92	1240.48
387.11	1081.33
387.31	1231.12
387.50	1219.42
387.70	1287.29
387.89	1291.98
388.09	1184.31
388.28	1252.19
388.48	1296.66
388.67	1352.83
388.86	1294.32
389.06	1277.93
389.25	1308.36
389.45	1334.11
389.64	1352.83
389.84	1397.30
390.03	1453.47
390.22	1301.34
390.42	1352.83
390.61	1427.73
390.81	1383.26
391.00	1519.01
391.19	1434.75
391.39	1413.68
391.58	1481.56
391.78	1432.41
391.97	1378.58
392.16	1474.54
392.36	1514.33
392.55	1547.09
392.75	1497.94
392.94	1495.60
393.13	1481.56
393.33	1570.50
393.52	1453.47
393.71	1600.93
393.91	1563.48
394.10	1589.22
394.29	1579.86
394.49	1563.48
394.68	1519.01
394.88	1657.10
395.07	1694.55
395.26	1617.31
395.46	1685.19
395.65	1741.36
395.84	1659.44
396.04	1795.19
396.23	1774.13
396.42	1692.21
396.62	1757.74
396.81	1846.68
397.00	1846.68
397.19	1811.57
397.39	1820.94
397.58	1867.75
397.77	1753.06
397.97	1813.92
398.16	1774.13
398.35	1884.13
398.55	1764.76
398.74	1956.69
398.93	1980.09
399.12	1916.90
399.32	1853.70
399.51	1902.86
399.70	2134.57
399.90	2038.61
400.09	1966.05
400.28	1994.14
400.47	2076.06
400.67	1919.24
400.86	1998.82
401.05	2080.74
401.24	2033.93
401.44	2080.74
401.63	2204.78
401.82	2146.27
402.01	2249.25
402.21	2104.14
402.40	2157.97
402.59	2195.42
402.78	2183.72
402.97	2211.81
403.17	2310.11
403.36	2174.36
403.55	2270.32
403.74	2291.38
403.93	2424.80
404.13	2354.58
404.32	2342.88
404.51	2338.20
404.70	2480.97
404.89	2462.24
405.09	2523.10
405.28	2415.43
405.47	2574.59
405.66	2455.22
405.85	2478.63
406.05	2576.93
406.24	2574.59
406.43	2616.72
406.62	2502.03
406.81	2736.09
407.00	2597.99
407.20	2593.31
407.39	2546.50
407.58	2679.91
407.77	2745.45
407.96	2726.72
408.15	2796.94
408.34	2848.43
408.54	2932.69
408.73	2703.32
408.92	2885.88
409.11	2918.65
409.30	2979.50
409.49	2960.78
409.68	2949.08
409.87	2949.08
410.07	3066.10
410.26	3033.33
410.45	2977.16
410.64	3014.61
410.83	3068.44
411.02	3089.51
411.21	3098.87
411.40	3176.11
411.59	3272.07
411.78	3103.55
411.98	3274.41
412.17	3286.11
412.36	3358.67
412.55	3555.27
412.74	3396.12
412.93	3363.35
413.12	3412.50
413.31	3660.60
413.50	3428.88
413.69	3454.63
413.88	3723.79
414.07	3681.66
414.26	3669.96
414.45	3705.07
414.64	3686.34
414.83	3686.34
415.02	3845.50
415.22	4011.68
415.41	3873.59
415.60	3798.69
415.79	3957.85
415.98	3971.89
416.17	4114.66
416.36	4131.05
416.55	4002.32
416.74	4021.04
416.93	4182.54
417.12	4161.47
417.31	4117.00
417.50	4175.52
417.69	4374.46
417.88	4215.30
418.07	4280.84
418.26	4447.02
418.45	4425.95
418.64	4599.15
418.83	4470.42
419.02	4491.49
419.21	4486.81
419.39	4585.11
419.58	4526.60
419.77	4578.09
419.96	4608.51
420.15	4755.97
420.34	4774.69
420.53	4685.75
420.72	4751.29
420.91	4791.08
421.10	4765.33
421.29	4741.93
421.48	4833.21
421.67	4968.96
421.86	4798.10
422.05	4905.76
422.24	4894.06
422.43	4985.34
422.61	5001.72
422.80	5081.30
422.99	4903.42
423.18	5069.60
423.37	4844.91
423.56	4922.15
423.75	4968.96
423.94	4990.02
424.13	4482.13
424.32	4727.88
424.50	5018.11
424.69	5205.35
424.88	5186.63
425.07	4912.78
425.26	4994.70
425.45	5055.56
425.64	5053.22
425.83	5036.83
426.01	5151.52
426.20	5008.75
426.39	5085.98
426.58	5032.15
426.77	5097.69
426.96	5132.79
427.15	5107.05
427.33	5268.55
427.52	4987.68
427.71	5284.93
427.90	5181.95
428.09	5221.74
428.28	5390.25
428.46	5385.57
428.65	5303.65
428.84	5558.77
429.03	5455.79
429.22	5336.42
429.40	5416.00
429.59	5420.68
429.78	5268.55
429.97	5476.85
430.16	5671.12
430.34	5596.22
430.53	5902.83
430.72	5755.38
430.91	5736.65
431.10	5673.46
431.28	5820.91
431.47	5802.19
431.66	5905.17
431.85	5856.02
432.03	6061.99
432.22	6003.47
432.41	5919.21
432.60	6076.03
432.79	6061.99
432.97	5940.28
433.16	6064.33
433.35	6050.28
433.54	6108.80
433.72	6092.41
433.91	6141.57
434.10	6274.98
434.28	6256.25
434.47	6354.55
434.66	6356.90
434.85	6429.45
435.03	6466.90
435.22	6455.20
435.41	6635.42
435.59	6345.19
435.78	6511.37
435.97	6560.52
436.16	6480.94
436.34	6541.80
436.53	6483.28
436.72	6642.44
436.90	6452.86
437.09	6757.13
437.28	6567.54
437.46	6579.25
437.65	6717.34
437.84	6815.64
438.02	6689.25
438.21	6761.81
438.40	6874.15
438.58	7028.63
438.77	6939.69
438.96	6981.82
439.14	7250.98
439.33	7286.09
439.52	7220.55
439.70	7258.00
439.89	7431.20
440.08	7344.60
440.26	7445.24
440.45	7456.95
440.63	7517.80
440.82	7555.25
441.01	7581.00
441.19	7740.15
441.38	7627.81
441.57	7829.09
441.75	7779.94
441.94	8016.33
442.12	8042.08
442.31	7950.80
442.50	8053.78
442.68	8131.02
442.87	7957.82
443.05	8152.09
443.24	8446.99
443.43	8266.77
443.61	8243.37
443.80	8681.05
443.98	8114.64
444.17	7934.42
444.35	8257.41
444.54	8294.86
444.73	8271.45
444.91	8224.64
445.10	8421.25
445.28	8561.68
445.47	8360.39
445.65	8482.10
445.84	8692.75
446.02	8461.04
446.21	8449.33
446.39	8610.83
446.58	8615.51
446.77	8791.05
446.95	8430.61
447.14	8578.06
447.32	8762.97
447.51	8503.17
447.69	8540.61
447.88	8678.71
448.06	8531.25
448.25	8751.26
448.43	8744.24
448.62	8702.11
448.80	8615.51
448.99	8753.60
449.17	8889.35
449.36	8837.86
449.54	9039.15
449.73	9011.06
449.91	9036.81
450.10	9078.94
450.28	8856.59
450.46	9092.98
450.65	9029.79
450.83	9184.26
451.02	8961.91
451.20	9214.69
451.39	9146.81
451.57	9193.62
451.76	9195.96
451.94	9329.38
452.13	9376.19
452.31	9427.68
452.49	9233.41
452.68	9390.23
452.86	9385.55
453.05	9638.33
453.23	9650.03
453.42	9584.49
453.60	9495.55
453.78	9614.92
453.97	9507.26
454.15	9570.45
454.34	9551.73
454.52	9753.01
454.70	9870.04
454.89	9734.29
455.07	9708.54
455.26	9818.55
455.44	10019.83
455.62	9914.51
455.81	10010.47
455.99	9914.51
456.17	10204.74
456.36	10164.95
456.54	10221.12
456.73	10326.44
456.91	10583.90
457.09	10452.83
457.28	10736.04
457.46	10448.15
457.64	10569.86
457.83	10406.02
458.01	10597.95
458.19	10768.80
458.38	10609.65
458.56	10794.55
458.74	10759.44
458.93	10906.90
459.11	10836.68
459.29	10794.55
459.48	10684.55
459.66	10820.30
459.84	11063.71
460.03	11080.10
460.21	11056.69
460.39	11035.63
460.57	11150.31
460.76	11208.83
460.94	11243.93
461.12	11367.98
461.31	11314.15
461.49	11335.21
461.67	11325.85
461.85	11623.10
462.04	11517.78
462.22	11805.66
462.40	11719.06
462.59	11459.26
462.77	11599.70
462.95	11763.53
463.13	11719.06
463.32	11555.22
463.50	11922.69
463.68	11829.07
463.86	11981.20
464.05	11730.76
464.23	11810.34
464.41	11915.67
464.59	11564.59
464.78	12203.55
464.96	12149.72
465.14	11955.46
465.32	12175.47
465.50	12114.61
465.69	12208.23
465.87	12486.76
466.05	12334.62
466.23	12325.26
466.41	12255.04
466.60	12568.68
466.78	12170.79
466.96	12365.05
467.14	12514.84
467.32	12343.99
467.51	12620.17
467.69	12198.87
467.87	12575.70
468.05	12428.24
468.23	12507.82
468.41	12540.59
468.60	12676.34
468.78	12702.09
468.96	13067.21
469.14	12802.73
469.32	13221.69
469.50	12762.94
469.69	13289.56
469.87	13397.23
470.05	13266.16
470.23	13273.18
470.41	13383.18
470.59	13291.90
470.77	13357.44
470.95	13263.82
471.14	13490.85
471.32	13397.23
471.50	13448.72
471.68	13841.93
471.86	13678.09
472.04	13949.59
472.22	14125.13
472.40	13715.54
472.58	14120.45
472.77	14134.50
472.95	14317.06
473.13	14864.74
473.31	14366.21
473.49	14251.52
473.67	14380.25
473.85	14450.47
474.03	14633.03
474.21	14621.33
474.39	15007.52
474.57	14728.99
474.75	15059.01
474.93	15183.06
475.12	14946.66
475.30	15257.95
475.48	15279.02
475.66	15328.17
475.84	15108.16
476.02	15463.92
476.20	15414.77
476.38	15910.96
476.56	15999.90
476.74	16472.69
476.92	16009.26
477.10	16079.48
477.28	16449.28
477.46	16264.38
477.64	16510.14
477.82	16629.51
478.00	17123.36
478.18	16805.05
478.36	17139.74
478.54	17547.00
478.72	17486.14
478.90	17469.76
479.08	17970.63
479.26	17902.76
479.44	17884.03
479.62	17708.49
479.80	18150.85
479.98	18429.38
480.16	18668.11
480.34	18663.43
480.52	18916.21
480.70	18794.50
480.88	18745.35
481.06	19187.71
481.24	18888.12
481.41	19372.61
481.59	19728.38
481.77	19641.78
481.95	19974.13
482.13	19864.13
482.31	20194.14
482.49	20606.08
482.67	20432.88
482.85	20961.84
483.03	20840.13
483.21	20973.54
483.39	21270.79
483.57	21324.62
483.74	21319.94
483.92	21481.44
484.10	21280.15
484.28	21965.93
484.46	22106.36
484.64	22614.26
484.82	21951.88
485.00	22555.74
485.18	23096.41
485.35	23484.94
485.53	22757.03
485.71	23550.47
485.89	23592.60
486.07	23623.03
486.25	23487.28
486.43	23934.32
486.61	24142.63
486.78	24505.41
486.96	24552.22
487.14	24922.02
487.32	25118.63
487.50	25291.83
487.68	25521.20
487.85	25802.07
488.03	25853.56
488.21	25872.28
488.39	26010.37
488.57	26146.12
488.75	26504.23
488.92	26635.30
489.10	27414.69
489.28	26831.90
489.46	27393.63
489.64	27290.65
489.81	27857.06
489.99	28030.26
490.17	27845.35
490.35	28390.70
490.53	28409.42
490.70	28620.07
490.88	28402.40
491.06	29181.80
491.24	29380.74
491.41	29289.46
491.59	29802.04
491.77	29956.52
491.95	30345.05
492.13	29692.04
492.30	30586.12
492.48	30438.67
492.66	30555.69
492.84	30478.46
493.01	31103.38
493.19	30749.96
493.37	31152.53
493.54	31480.21
493.72	31555.10
493.90	31695.53
494.08	32084.06
494.25	32463.23
494.43	32725.37
494.61	32910.27
494.79	32610.68
494.96	32676.22
495.14	33235.61
495.32	33427.53
495.49	33752.87
495.67	33350.29
495.85	33893.30
496.02	33839.47
496.20	34209.27
496.38	34799.08
496.55	34141.39
496.73	35189.95
496.91	34930.16
497.09	35379.54
497.26	35115.06
497.44	35161.87
497.62	35742.32
497.79	36116.81
497.97	36231.49
498.14	36161.28
498.32	36872.80
498.50	36495.97
498.67	36886.84
498.85	36701.94
499.03	37027.28
499.20	37015.57
499.38	36973.44
499.56	37106.85
499.73	37834.76
499.91	37757.52
500.08	37759.86
500.26	37593.68
500.44	37748.16
500.61	38419.89
500.79	37928.38
500.97	38513.52
501.14	38614.16
501.32	39173.55
501.49	38785.02
501.67	39260.15
501.84	39454.41
502.02	39056.52
502.20	39332.70
502.37	39519.95
502.55	39391.22
502.72	40009.12
502.90	39866.34
503.07	40123.80
503.25	40245.51
503.43	40081.67
503.60	40545.10
503.78	40854.05
503.95	41031.93
504.13	40980.44
504.30	40975.76
504.48	40601.27
504.65	41420.46
504.83	41584.30
505.01	41429.82
505.18	41621.75
505.36	42377.74
505.53	41504.72
505.71	41839.42
505.88	42213.90
506.06	42124.96
506.23	42597.75
506.41	42574.34
506.58	42806.06
506.76	42284.12
506.93	42817.76
507.11	42789.67
507.28	42876.27
507.46	43089.26
507.63	43220.33
507.81	43739.93
507.98	43037.77
508.16	43711.84
508.33	43957.60
508.50	43981.01
508.68	43910.79
508.85	44329.75
509.03	44514.65
509.20	44208.04
509.38	44800.19
509.55	45074.04
509.73	45109.14
509.90	44917.22
510.08	45116.17
510.25	44589.55
510.42	45233.19
510.60	45303.41
510.77	45832.37
510.95	45989.19
511.12	45455.54
511.30	45902.59
511.47	45787.90
511.64	45876.84
511.82	46298.14
511.99	46054.72
512.17	46197.49
512.34	46415.16
512.51	46501.76
512.69	46714.75
512.86	46763.90
513.04	46595.38
513.21	46569.64
513.38	47068.17
513.56	47023.70
513.73	47360.74
513.90	47557.35
514.08	47056.47
514.25	47667.35
514.43	47936.51
514.60	47931.83
514.77	48100.35
514.95	48168.22
515.12	47679.05
515.29	48371.85
515.47	48313.34
515.64	48636.33
515.81	48404.62
515.99	48465.47
516.16	48882.09
516.33	48722.93
516.51	49338.49
516.68	49200.40
516.85	48797.83
517.03	49233.17
517.20	49254.23
517.37	48947.62
517.54	49184.02
517.72	48715.91
517.89	49586.59
518.06	49851.07
518.24	49397.01
518.41	49614.68
518.58	49277.64
518.75	49551.48
518.93	49876.82
519.10	49982.14
519.27	50007.89
519.45	50445.57
519.62	50494.72
519.79	50670.26
519.96	50419.82
520.14	50677.28
520.31	50829.41
520.48	50663.24
520.65	50932.40
520.83	51105.60
521.00	51210.92
521.17	50806.01
521.34	51133.68
521.52	51304.54
521.69	51304.54
521.86	51388.80
522.03	51753.93
522.20	51592.43
522.38	51484.76
522.55	51854.57
522.72	51683.71
522.89	51569.02
523.07	52004.36
523.24	51789.03
523.41	51943.51
523.58	51873.29
523.75	52102.67
523.92	52266.50
524.10	52229.05
524.27	52540.35
524.44	52320.34
524.61	52456.09
524.78	52308.63
524.96	52095.64
525.13	52552.05
525.30	52638.65
525.47	53052.92
525.64	52832.91
525.81	52910.15
525.98	53183.99
526.16	53169.95
526.33	52959.30
526.50	53155.91
526.67	53057.60
526.84	53429.75
527.01	53010.79
527.18	53064.63
527.36	53001.43
527.53	53427.41
527.70	53813.60
527.87	53614.65
528.04	53542.10
528.21	53675.51
528.38	53607.63
528.55	53979.78
528.72	53591.25
528.89	53654.44
529.07	53663.80
529.24	53649.76
529.41	54117.87
529.58	53724.66
529.75	54000.84
529.92	53916.58
530.09	54190.42
530.26	54213.83
530.43	54295.75
530.60	53876.79
530.77	54176.38
530.94	54312.13
531.11	54363.62
531.28	54403.41
531.46	54693.64
531.63	54527.46
531.80	54726.41
531.97	54695.98
532.14	54955.78
532.31	54805.98
532.48	54646.83
532.65	54752.15
532.82	54801.30
532.99	54939.39
533.16	54855.14
533.33	54979.18
533.50	55341.97
533.67	55185.15
533.84	55030.68
534.01	55206.22
534.18	55238.98
534.35	55611.13
534.52	55576.02
534.69	55569.00
534.86	55725.81
535.03	55388.78
535.20	55405.16
535.37	55620.49
535.54	55545.59
535.71	55522.19
535.88	55819.44
536.05	55786.67
536.22	55812.41
536.38	55803.05
536.55	56147.11
536.72	56027.74
536.89	56018.38
537.06	55810.07
537.23	56006.68
537.40	56062.85
537.57	56041.79
537.74	56044.13
537.91	56233.71
538.08	56207.97
538.25	55791.35
538.42	56193.92
538.59	56460.74
538.75	56203.28
538.92	56243.07
539.09	56491.17
539.26	56285.20
539.43	56463.08
539.60	56526.28
539.77	56245.41
539.94	56772.03
540.11	56650.33
540.28	56727.56
540.44	56549.68
540.61	56884.38
540.78	56528.62
540.95	56647.99
541.12	56552.02
541.29	56720.54
541.46	56919.49
541.62	56886.72
541.79	56942.89
541.96	56734.59
542.13	56762.67
542.30	56919.49
542.47	57296.31
542.63	57303.34
542.80	57066.94
542.97	57455.47
543.14	57336.10
543.31	57364.19
543.48	57350.15
543.64	57755.06
543.81	57497.60
543.98	57631.01
544.15	57560.79
544.32	57581.86
544.48	57673.14
544.65	57783.15
544.82	57549.09
544.99	57396.96
545.16	57902.51
545.32	57399.30
545.49	57607.61
545.66	57942.30
545.83	57670.80
546.00	58216.14
546.16	57818.25
546.33	57834.64
546.50	57691.86
546.67	58021.88
546.83	57642.71
547.00	57888.47
547.17	57991.45
547.34	58080.39
547.50	58059.33
547.67	58141.25
547.84	58166.99
548.00	58344.87
548.17	58567.23
548.34	58265.30
548.51	58487.65
548.67	58686.59
548.84	58614.04
549.01	58550.84
549.18	58408.07
549.34	58480.63
549.51	58403.39
549.68	58761.49
549.84	58265.30
550.01	58773.19
550.18	58574.25
550.34	58688.93
550.51	58866.81
550.68	58803.62
550.84	58597.65
551.01	58848.09
551.18	58820.00
551.34	58871.49
551.51	58801.28
551.68	58712.34
551.84	58815.32
552.01	58574.25
552.18	58941.71
552.34	58922.99
552.51	58939.37
552.68	58901.92
552.84	58780.21
553.01	59126.61
553.18	59084.48
553.34	59182.79
553.51	58887.88
553.67	59274.07
553.84	59224.92
554.01	59161.72
554.17	59035.33
554.34	59220.23
554.51	59178.10
554.67	59224.92
554.84	59250.66
555.00	59245.98
555.17	59278.75
555.33	59306.83
555.50	59168.74
555.67	59339.60
555.83	59236.62
556.00	59402.80
556.16	59833.46
556.33	59655.57
556.50	59395.77
556.66	59414.50
556.83	59278.75
556.99	59461.31
557.16	59634.51
557.32	59737.49
557.49	59803.03
557.65	59798.35
557.82	59620.47
557.98	59683.66
558.15	59648.55
558.32	59470.67
558.48	59660.26
558.65	59767.92
558.81	59714.09
558.98	59880.27
559.14	59854.52
559.31	59910.69
559.47	59910.69
559.64	59980.91
559.80	59917.71
559.97	60205.60
560.13	59842.82
560.30	60034.74
560.46	60079.21
560.63	60001.97
560.79	60198.58
560.96	59957.50
561.12	60240.71
561.29	60074.53
561.45	60161.13
561.61	59859.20
561.78	59957.50
561.94	60184.54
562.11	60025.38
562.27	60275.82
562.44	60086.23
562.60	60245.39
562.77	60282.84
562.93	59910.69
563.10	60427.95
563.26	60130.70
563.42	60324.97
563.59	60254.75
563.75	60142.41
563.92	60395.18
564.08	60374.12
564.24	60374.12
564.41	60327.31
564.57	60500.51
564.74	60250.07
564.90	60329.65
565.07	60453.70
565.23	60350.71
565.39	60406.89
565.56	60334.33
565.72	60317.95
565.88	60353.05
566.05	60416.25
566.21	60514.55
566.38	60519.23
566.54	60687.75
566.70	60797.76
566.87	60587.11
567.03	60460.72
567.19	60734.56
567.36	60598.81
567.52	60420.93
567.68	60741.58
567.85	60858.61
568.01	60652.64
568.17	60495.83
568.34	60626.90
568.50	60619.88
568.66	60446.68
568.83	60746.26
568.99	60631.58
569.15	60603.49
569.32	60741.58
569.48	60694.77
569.64	60874.99
569.81	60624.56
569.97	60662.00
570.13	60652.64
570.30	60580.09
570.46	60711.16
570.62	60669.03
570.78	60687.75
570.95	60734.56
571.11	60779.03
571.27	60533.28
571.43	60982.66
571.60	61050.53
571.76	60807.12
571.92	60802.44
572.09	60870.31
572.25	60779.03
572.41	60685.41
572.57	60947.55
572.74	61139.47
572.90	60818.82
573.06	60800.10
573.22	60973.30
573.38	60776.69
573.55	60797.76
573.71	61183.94
573.87	60970.96
574.03	60767.33
574.20	61043.51
574.36	60905.42
574.52	60891.38
574.68	60879.67
574.84	61247.14
575.01	60884.36
575.17	61024.79
575.33	60837.54
575.49	60870.31
575.65	61085.64
575.82	61284.59
575.98	60975.64
576.14	61352.46
576.30	61141.81
576.46	60968.61
576.62	60870.31
576.79	61073.94
576.95	60823.50
577.11	61024.79
577.27	61123.09
577.43	60935.85
577.59	61001.38
577.75	61087.98
577.92	60734.56
578.08	61048.19
578.24	61038.83
578.40	61275.22
578.56	61073.94
578.72	61017.77
578.88	61368.85
579.04	61291.61
579.21	61139.47
579.37	61141.81
579.53	61176.92
579.69	60982.66
579.85	60837.54
580.01	61109.05
580.17	60893.72
580.33	61151.18
580.49	61205.01
580.65	61052.87
580.82	61097.34
580.98	61071.60
581.14	60980.32
581.30	61193.31
581.46	61111.39
581.62	61322.04
581.78	61083.30
581.94	61366.51
582.10	61322.04
582.26	61293.95
582.42	61062.24
582.58	61034.15
582.74	61099.68
582.90	61106.71
583.06	61160.54
583.22	61125.43
583.38	61333.74
583.54	61261.18
583.70	61092.66
583.86	61188.63
584.02	61165.22
584.18	61364.17
584.34	61181.60
584.50	61401.61
584.66	61174.58
584.82	61116.07
584.98	61310.33
585.14	61279.91
585.30	61235.44
585.46	61233.10
585.62	61256.50
585.78	61216.71
585.94	61104.37
586.10	61242.46
586.26	61263.52
586.42	61024.79
586.58	61221.39
586.74	61212.03
586.90	61256.50
587.06	61195.65
587.22	61221.39
587.38	61434.38
587.54	61422.68
587.70	61499.92
587.86	61375.87
588.02	61174.58
588.18	61373.53
588.34	61338.42
588.49	61202.67
