SpectraSuite Data File
++++++++++++++++++++++++++++++++++++
Date: Fri Oct 25 10:47:04 EDT 2013
User: price-jones
Dark Spectrum Present: No
Reference Spectrum Present: No
Number of Sampled Component Spectra: 1
Spectrometers: USB2+H05261
Integration Time (usec): 100000 (USB2+H05261)
Spectra Averaged: 1 (USB2+H05261)
Boxcar Smoothing: 0 (USB2+H05261)
Correct for Electrical Dark: No (USB2+H05261)
Strobe/Lamp Enabled: No (USB2+H05261)
Correct for Detector Non-linearity: No (USB2+H05261)
Correct for Stray Light: No (USB2+H05261)
Number of Pixels in Processed Spectrum: 2048
>>>>>Begin Processed Spectral Data<<<<<
365.73	152.13
365.92	152.13
366.12	152.13
366.32	95.96
366.52	88.94
366.72	93.62
366.91	4.68
367.11	0.00
367.31	30.43
367.51	30.43
367.70	72.56
367.90	110.01
368.10	25.75
368.30	35.11
368.49	4.68
368.69	84.26
368.89	67.88
369.09	74.90
369.28	91.28
369.48	93.62
369.68	86.60
369.87	14.04
370.07	60.85
370.27	88.94
370.47	257.46
370.66	341.72
370.86	456.40
371.06	482.15
371.25	468.11
371.45	449.38
371.65	477.47
371.84	418.96
372.04	435.34
372.24	444.70
372.44	533.64
372.63	440.02
372.83	505.56
373.03	505.56
373.22	528.96
373.42	461.09
373.62	496.19
373.81	589.82
374.01	566.41
374.21	472.79
374.40	573.43
374.60	521.94
374.79	521.94
374.99	552.37
375.19	484.49
375.38	543.00
375.58	557.05
375.78	545.34
375.97	535.98
376.17	585.13
376.37	592.16
376.56	580.45
376.76	641.31
376.95	578.11
377.15	636.63
377.35	655.35
377.54	589.82
377.74	585.13
377.93	592.16
378.13	599.18
378.33	627.26
378.52	643.65
378.72	702.16
378.91	641.31
379.11	582.79
379.31	580.45
379.50	610.88
379.70	545.34
379.89	615.56
380.09	634.29
380.28	674.07
380.48	636.63
380.68	629.60
380.87	683.44
381.07	664.71
381.26	709.18
381.46	615.56
381.65	657.69
381.85	615.56
382.04	575.77
382.24	645.99
382.43	613.22
382.63	704.50
382.83	678.76
383.02	723.23
383.22	737.27
383.41	706.84
383.61	781.74
383.80	720.88
384.00	814.51
384.19	720.88
384.39	753.65
384.58	760.67
384.78	819.19
384.97	720.88
385.17	732.59
385.36	755.99
385.56	723.23
385.75	800.46
385.95	741.95
386.14	725.57
386.34	793.44
386.53	877.70
386.72	781.74
386.92	854.30
387.11	802.80
387.31	788.76
387.50	786.42
387.70	812.17
387.89	819.19
388.09	788.76
388.28	861.32
388.48	840.25
388.67	961.96
388.86	842.59
389.06	877.70
389.25	903.45
389.45	933.87
389.64	844.93
389.84	976.00
390.03	887.06
390.22	889.40
390.42	929.19
390.61	866.00
390.81	915.15
391.00	985.37
391.19	1048.56
391.39	936.21
391.58	985.37
391.78	959.62
391.97	964.30
392.16	945.58
392.36	1034.52
392.55	1015.79
392.75	973.66
392.94	950.26
393.13	917.49
393.33	947.92
393.52	1123.46
393.71	973.66
393.91	1008.77
394.10	976.00
394.29	1109.41
394.49	1125.80
394.68	1137.50
394.88	1135.16
395.07	1233.46
395.26	1144.52
395.46	1219.42
395.65	1149.20
395.84	1149.20
396.04	1221.76
396.23	1121.12
396.42	1088.35
396.62	1090.69
396.81	1151.54
397.00	1238.14
397.19	1118.78
397.39	1186.65
397.58	1233.46
397.77	1226.44
397.97	1240.48
398.16	1245.16
398.35	1268.57
398.55	1291.98
398.74	1294.32
398.93	1348.15
399.12	1296.66
399.32	1334.11
399.51	1306.02
399.70	1423.05
399.90	1336.45
400.09	1479.22
400.28	1514.33
400.47	1366.87
400.67	1453.47
400.86	1488.58
401.05	1488.58
401.24	1441.77
401.44	1579.86
401.63	1558.80
401.82	1476.88
402.01	1465.18
402.21	1476.88
402.40	1479.22
402.59	1579.86
402.78	1584.54
402.97	1619.65
403.17	1619.65
403.36	1596.25
403.55	1657.10
403.74	1760.08
403.93	1664.12
404.13	1727.32
404.32	1631.35
404.51	1734.34
404.70	1827.96
404.89	1661.78
405.09	1776.47
405.28	1818.60
405.47	1736.68
405.66	1797.53
405.85	1753.06
406.05	1762.42
406.24	1783.49
406.43	1783.49
406.62	1799.87
406.81	1926.26
407.00	1834.98
407.20	1818.60
407.39	1914.56
407.58	1975.41
407.77	1863.07
407.96	1980.09
408.15	1996.48
408.34	1973.07
408.54	2120.53
408.73	2071.37
408.92	2104.14
409.11	2129.89
409.30	2101.80
409.49	2052.65
409.68	2050.31
409.87	2024.56
410.07	2155.63
410.26	2120.53
410.45	2258.62
410.64	2136.91
410.83	2228.19
411.02	2139.25
411.21	2300.75
411.40	2307.77
411.59	2392.03
411.78	2321.81
411.98	2436.50
412.17	2394.37
412.36	2401.39
412.55	2483.31
412.74	2424.80
412.93	2495.01
413.12	2389.69
413.31	2715.02
413.50	2583.95
413.69	2546.50
413.88	2712.68
414.07	2602.68
414.26	2555.86
414.45	2672.89
414.64	2731.41
414.83	2726.72
415.02	2836.73
415.22	2771.19
415.41	2874.18
415.60	2902.26
415.79	2796.94
415.98	2792.26
416.17	2862.48
416.36	2970.14
416.55	2897.58
416.74	2981.84
416.93	3002.91
417.12	3084.83
417.31	3047.38
417.50	3084.83
417.69	3133.98
417.88	3185.47
418.07	3190.15
418.26	3192.49
418.45	3215.90
418.64	3433.57
418.83	3190.15
419.02	3241.64
419.21	3335.26
419.39	3248.66
419.58	3199.51
419.77	3218.24
419.96	3243.98
420.15	3424.20
420.34	3384.41
420.53	3361.01
420.72	3487.40
420.91	3452.29
421.10	3576.34
421.29	3412.50
421.48	3445.27
421.67	3581.02
421.86	3538.89
422.05	3431.23
422.24	3508.46
422.43	3503.78
422.61	3471.01
422.80	3585.70
422.99	3531.87
423.18	3602.08
423.37	3653.58
423.56	3761.24
423.75	3503.78
423.94	3480.38
424.13	3323.56
424.32	3485.06
424.50	3627.83
424.69	3578.68
424.88	3672.30
425.07	3552.93
425.26	3798.69
425.45	3606.77
425.64	3695.71
425.83	3590.38
426.01	3651.24
426.20	3595.06
426.39	3674.64
426.58	3585.70
426.77	3679.32
426.96	3716.77
427.15	3655.92
427.33	3758.90
427.52	3611.45
427.71	3854.86
427.90	3695.71
428.09	3911.04
428.28	3784.65
428.46	3843.16
428.65	3845.50
428.84	3927.42
429.03	4032.74
429.22	3794.01
429.40	3878.27
429.59	3756.56
429.78	3698.05
429.97	3721.45
430.16	3779.97
430.34	3805.71
430.53	3925.08
430.72	3978.91
430.91	3962.53
431.10	3960.19
431.28	4074.87
431.47	4142.75
431.66	4297.22
431.85	4187.22
432.03	4175.52
432.22	4475.10
432.41	4297.22
432.60	4292.54
432.79	4215.30
432.97	4322.97
433.16	4250.41
433.35	4362.76
433.54	4353.40
433.72	4423.61
433.91	4292.54
434.10	4381.48
434.28	4526.60
434.47	4400.21
434.66	4643.62
434.85	4542.98
435.03	4512.55
435.22	4652.98
435.41	4791.08
435.59	4573.41
435.78	4699.80
435.97	4589.79
436.16	4695.11
436.34	4613.20
436.53	4634.26
436.72	4774.69
436.90	4585.11
437.09	4744.27
437.28	4723.20
437.46	4779.37
437.65	4870.65
437.84	4945.55
438.02	4758.31
438.21	4938.53
438.40	4777.03
438.58	4959.60
438.77	4957.25
438.96	5039.17
439.14	4999.38
439.33	5174.92
439.52	5207.69
439.70	5313.02
439.89	5116.41
440.08	5137.48
440.26	5313.02
440.45	5270.89
440.63	5268.55
440.82	5500.26
441.01	5373.87
441.19	5416.00
441.38	5430.04
441.57	5540.05
441.75	5518.98
441.94	5722.61
442.12	5720.27
442.31	5820.91
442.50	5811.55
442.68	5825.59
442.87	5809.21
443.05	5734.31
443.24	5832.62
443.43	5902.83
443.61	5942.62
443.80	6040.92
443.98	5764.74
444.17	5687.50
444.35	6087.73
444.54	5921.56
444.73	5977.73
444.91	5919.21
445.10	5935.60
445.28	5949.64
445.47	5949.64
445.65	6040.92
445.84	5966.03
446.02	6118.16
446.21	6146.25
446.39	6101.78
446.58	6080.71
446.77	6118.16
446.95	5970.71
447.14	6267.95
447.32	6260.93
447.51	6179.01
447.69	6115.82
447.88	6054.97
448.06	6141.57
448.25	6162.63
448.43	6326.47
448.62	6169.65
448.80	6085.39
448.99	6253.91
449.17	6347.53
449.36	6115.82
449.54	6279.66
449.73	6300.72
449.91	6633.08
450.10	6506.69
450.28	6548.82
450.46	6665.85
450.65	6623.72
450.83	6586.27
451.02	6586.27
451.20	6717.34
451.39	6764.15
451.57	6476.26
451.76	6668.19
451.94	6544.14
452.13	6597.97
452.31	6829.68
452.49	6490.31
452.68	6628.40
452.86	6612.01
453.05	6693.93
453.23	6810.96
453.42	6689.25
453.60	6628.40
453.78	6761.81
453.97	6640.10
454.15	6715.00
454.34	6909.26
454.52	6862.45
454.70	7136.29
454.89	6857.77
455.07	6981.82
455.26	6878.83
455.44	6904.58
455.62	7215.87
455.81	7094.16
455.99	6984.16
456.17	7220.55
456.36	7126.93
456.54	7300.13
456.73	7339.92
456.91	7440.56
457.09	7377.37
457.28	7538.87
457.46	7447.58
457.64	7421.84
457.83	7454.61
458.01	7356.30
458.19	7606.74
458.38	7527.16
458.56	7665.25
458.74	7573.97
458.93	7627.81
459.11	7646.53
459.29	7566.95
459.48	7660.57
459.66	7737.81
459.84	7925.05
460.03	7887.61
460.21	7793.98
460.39	7887.61
460.57	7798.66
460.76	7880.58
460.94	7974.21
461.12	7932.08
461.31	7946.12
461.49	7922.71
461.67	7934.42
461.85	8149.75
462.04	8039.74
462.22	8622.53
462.40	8269.11
462.59	8119.32
462.77	8060.80
462.95	8290.18
463.13	8336.99
463.32	8219.96
463.50	8018.68
463.68	8311.24
463.86	8149.75
464.05	8161.45
464.23	8175.49
464.41	8482.10
464.59	8327.63
464.78	8603.81
464.96	8418.91
465.14	8344.01
465.32	8657.64
465.50	8491.46
465.69	8439.97
465.87	8315.92
466.05	8465.72
466.23	8245.71
466.41	8613.17
466.60	8542.96
466.78	8477.42
466.96	8603.81
467.14	8648.28
467.32	8615.51
467.51	8931.48
467.69	8463.38
467.87	8641.26
468.05	8659.98
468.23	8772.33
468.41	8753.60
468.60	8887.01
468.78	8938.51
468.96	8662.32
469.14	8875.31
469.32	9090.64
469.50	8699.77
469.69	8992.34
469.87	9083.62
470.05	8856.59
470.23	9320.01
470.41	9043.83
470.59	9219.37
470.77	9235.75
470.95	9268.52
471.14	9383.21
471.32	9146.81
471.50	9441.72
471.68	9490.87
471.86	9589.17
472.04	9610.24
472.22	9809.19
472.40	9357.46
472.58	9540.02
472.77	9628.96
472.95	9816.21
473.13	10090.05
473.31	9809.19
473.49	9818.55
473.67	9748.33
473.85	10029.20
474.03	10188.35
474.21	10146.22
474.39	10059.62
474.57	10235.16
474.75	10249.21
474.93	10476.24
475.12	10420.06
475.30	10553.48
475.48	10214.10
475.66	10640.08
475.84	10516.03
476.02	10464.54
476.20	10614.33
476.38	10754.76
476.56	11063.71
476.74	10693.91
476.92	11059.03
477.10	11030.94
477.28	11180.74
477.46	11243.93
477.64	11262.66
477.82	11578.63
478.00	11564.59
478.18	11447.56
478.36	11536.50
478.54	11929.71
478.72	11765.87
478.90	11925.03
479.08	12411.86
479.26	12112.27
479.44	12182.49
479.62	12336.96
479.80	12400.16
479.98	12299.52
480.16	12748.90
480.34	12468.03
480.52	12802.73
480.70	12809.75
480.88	12599.10
481.06	12868.27
481.24	12950.18
481.41	13275.52
481.59	13439.36
481.77	13259.13
481.95	13401.91
482.13	13710.86
482.31	13224.03
482.49	13699.16
482.67	13556.38
482.85	13774.05
483.03	13998.74
483.21	14083.00
483.39	14473.87
483.57	14094.71
483.74	14324.08
483.92	14815.59
484.10	14331.10
484.28	14768.78
484.46	14930.28
484.64	15281.36
484.82	14867.08
485.00	15082.41
485.18	15372.64
485.35	15555.20
485.53	15232.21
485.71	15091.77
485.89	15721.38
486.07	15506.05
486.25	15695.63
486.43	16037.35
486.61	16011.60
486.78	16154.38
486.96	16156.72
487.14	16573.33
487.32	16514.82
487.50	16826.11
487.68	16922.07
487.85	17493.16
488.03	17074.21
488.21	17305.92
488.39	17259.11
488.57	17657.00
488.75	17689.77
488.92	17848.93
489.10	17839.56
489.28	18272.56
489.46	18420.02
489.64	18249.16
489.81	18719.60
489.99	18834.29
490.17	18752.37
490.35	18995.79
490.53	18754.71
490.70	18714.92
490.88	19143.24
491.06	19573.90
491.24	19398.36
491.41	19363.25
491.59	19428.79
491.77	19468.58
491.95	19910.94
492.13	20093.50
492.30	20271.38
492.48	20287.76
492.66	20152.01
492.84	20580.33
493.01	21006.31
493.19	20397.77
493.37	20779.28
493.54	20861.19
493.72	21200.57
493.90	20917.37
494.08	21277.81
494.25	21612.51
494.43	21642.93
494.61	21853.58
494.79	21996.35
494.96	22001.04
495.14	22061.89
495.32	22003.38
495.49	22553.40
495.67	22640.00
495.85	22656.39
496.02	22902.14
496.20	22771.07
496.38	22862.35
496.55	22801.50
496.73	23391.31
496.91	23351.52
497.09	23222.80
497.26	23592.60
497.44	23304.71
497.62	23346.84
497.79	23814.95
497.97	23805.59
498.14	23946.02
498.32	24023.26
498.50	23887.51
498.67	24257.31
498.85	24400.08
499.03	24584.99
499.20	24453.92
499.38	24603.71
499.56	25041.39
499.73	24919.68
499.91	24727.76
500.08	25230.98
500.26	25050.75
500.44	25338.64
500.61	25191.19
500.79	24893.94
500.97	25542.27
501.14	25415.88
501.32	25682.70
501.49	25762.28
501.67	25563.33
501.84	26017.40
502.02	26012.71
502.20	26022.08
502.37	26471.46
502.55	26129.74
502.72	25947.18
502.90	26485.50
503.07	26178.89
503.25	26335.71
503.43	26412.95
503.60	26796.79
503.78	26775.73
503.95	26869.35
504.13	27061.27
504.30	26930.20
504.48	27056.59
504.65	27180.64
504.83	27262.56
505.01	27395.97
505.18	27707.26
505.36	27999.83
505.53	27735.35
505.71	28142.60
505.88	28032.60
506.06	28013.87
506.23	27812.59
506.41	28137.92
506.58	28025.57
506.76	28603.69
506.93	28170.69
507.11	28425.81
507.28	28322.82
507.46	28297.08
507.63	28535.81
507.81	28694.97
507.98	28545.17
508.16	28996.90
508.33	29186.48
508.50	28884.55
508.68	28978.17
508.85	29457.98
509.03	28933.70
509.20	29137.33
509.38	29682.67
509.55	29785.66
509.73	29598.41
509.90	29689.70
510.08	29745.87
510.25	29762.25
510.42	30029.07
510.60	29832.47
510.77	30213.98
510.95	30129.72
511.12	30122.69
511.30	30223.34
511.47	30469.09
511.64	30476.12
511.82	30525.27
511.99	30314.62
512.17	30773.36
512.34	30529.95
512.51	30972.31
512.69	30976.99
512.86	31346.79
513.04	30831.88
513.21	31194.66
513.38	31227.43
513.56	31206.36
513.73	31002.74
513.90	31517.65
514.08	31262.54
514.25	31531.70
514.43	31456.80
514.60	31634.68
514.77	31365.52
514.95	31735.32
515.12	32191.73
515.29	32098.11
515.47	31971.72
515.64	32308.76
515.81	32009.17
515.99	31988.10
516.16	32084.06
516.33	32294.71
516.51	32350.88
516.68	32423.44
516.85	31807.88
517.03	31992.78
517.20	32158.96
517.37	32128.53
517.54	32650.47
517.72	32622.39
517.89	32474.93
518.06	32790.91
518.24	33029.64
518.41	32711.33
518.58	32788.56
518.75	32982.83
518.93	33284.76
519.10	33354.97
519.27	33336.25
519.45	33312.84
519.62	33539.88
519.79	33635.84
519.96	33928.41
520.14	33654.56
520.31	33778.61
520.48	34190.55
520.65	33944.79
520.83	34148.42
521.00	34405.88
521.17	33993.94
521.34	34471.41
521.52	34574.39
521.69	34323.96
521.86	35016.75
522.03	34920.79
522.20	34754.61
522.38	34499.50
522.55	34738.23
522.72	34541.63
522.89	34724.19
523.07	34927.81
523.24	34560.35
523.41	34974.63
523.58	35126.76
523.75	35622.95
523.92	35487.20
524.10	35601.89
524.27	35648.70
524.44	35531.67
524.61	35842.96
524.78	35711.89
524.96	36163.62
525.13	36044.25
525.30	35985.74
525.47	35971.69
525.64	36032.55
525.81	35922.54
525.98	36013.82
526.16	36020.84
526.33	36058.29
526.50	36077.02
526.67	35777.43
526.84	35772.75
527.01	35962.33
527.18	36341.50
527.36	36460.87
527.53	36973.44
527.70	36959.40
527.87	36795.56
528.04	36257.24
528.21	36699.60
528.38	36905.57
528.55	37209.84
528.72	37287.07
528.89	37357.29
529.07	37308.14
529.24	36683.22
529.41	37509.43
529.58	37088.13
529.75	36905.57
529.92	37591.34
530.09	37663.90
530.26	37376.01
530.43	37567.94
530.60	36957.06
530.77	37336.23
530.94	38047.75
531.11	37406.44
531.28	37612.41
531.46	37794.97
531.63	38155.41
531.80	37542.19
531.97	38007.96
532.14	37888.59
532.31	37628.79
532.48	37830.08
532.65	38302.87
532.82	37841.78
532.99	38036.05
533.16	38349.68
533.33	37853.48
533.50	38511.17
533.67	38419.89
533.84	38059.45
534.01	38508.83
534.18	38246.69
534.35	38763.95
534.52	38199.88
534.69	38892.68
534.86	38485.43
535.03	38785.02
535.20	39054.18
535.37	38822.47
535.54	39049.50
535.71	39021.41
535.88	39215.68
536.05	39033.11
536.22	38995.67
536.38	39452.07
536.55	38658.63
536.72	39311.64
536.89	39288.23
537.06	39068.22
537.23	39503.56
537.40	39208.65
537.57	39786.77
537.74	39452.07
537.91	39505.90
538.08	39828.90
538.25	39201.63
538.42	39828.90
538.59	39442.71
538.75	39651.02
538.92	39775.06
539.09	40187.00
539.26	39871.03
539.43	39730.59
539.60	40215.08
539.77	39599.52
539.94	40041.88
540.11	39604.20
540.28	39721.23
540.44	39651.02
540.61	40025.50
540.78	39840.60
540.95	39892.09
541.12	40098.06
541.29	39948.26
541.46	40032.52
541.62	40336.79
541.79	40495.95
541.96	40098.06
542.13	40268.92
542.30	40456.16
542.47	40627.02
542.63	40187.00
542.80	40622.34
542.97	41322.16
543.14	40786.18
543.31	40718.30
543.48	41015.55
543.64	41535.15
543.81	41284.71
543.98	41097.47
544.15	41263.64
544.32	41591.32
544.48	41478.97
544.65	41233.22
544.82	41703.67
544.99	40975.76
545.16	41411.10
545.32	41102.15
545.49	41930.70
545.66	41413.44
545.83	41790.27
546.00	41626.43
546.16	41287.05
546.33	41708.35
546.50	41600.68
546.67	41926.02
546.83	41352.58
547.00	41684.94
547.17	41783.24
547.34	41750.48
547.50	42665.63
547.67	41886.23
547.84	41766.86
548.00	41780.90
548.17	42309.86
548.34	42068.79
548.51	42342.63
548.67	42394.12
548.84	42375.40
549.01	42466.68
549.18	41851.12
549.34	42492.43
549.51	42429.23
549.68	42466.68
549.84	42642.22
550.01	42462.00
550.18	42080.49
550.34	42639.88
550.51	42218.58
550.68	42410.51
550.84	42396.46
551.01	42525.19
551.18	42581.37
551.34	42707.76
551.51	42574.34
551.68	42866.91
551.84	42836.48
552.01	42824.78
552.18	42497.11
552.34	42581.37
552.51	43206.29
552.68	43012.02
552.84	42923.08
553.01	43026.07
553.18	42913.72
553.34	42733.50
553.51	42902.02
553.67	42653.92
553.84	43246.08
554.01	43007.34
554.17	43430.98
554.34	43519.92
554.51	43489.49
554.67	43718.87
554.84	43536.30
555.00	43126.71
555.17	43150.12
555.33	43337.36
555.50	43646.31
555.67	43498.86
555.83	43374.81
556.00	43337.36
556.16	43700.14
556.33	43704.82
556.50	43501.20
556.66	43800.79
556.83	43388.85
556.99	43695.46
557.16	43475.45
557.32	43526.94
557.49	43395.87
557.65	43875.68
557.82	43599.50
557.98	43580.78
558.15	43936.54
558.32	43885.04
558.48	43962.28
558.65	43833.55
558.81	43826.53
558.98	43779.72
559.14	44112.08
559.31	43849.94
559.47	43833.55
559.64	43992.71
559.80	44144.84
559.97	44151.87
560.13	43548.01
560.30	43548.01
560.46	44273.57
560.63	44130.80
560.79	44364.85
560.96	44467.84
561.12	43981.01
561.29	44313.36
561.45	43742.27
561.61	43997.39
561.78	44549.76
561.94	44133.14
562.11	44292.30
562.27	43934.20
562.44	44528.69
562.60	44524.01
562.77	44589.55
562.93	43821.85
563.10	44423.37
563.26	43688.44
563.42	44563.80
563.59	44528.69
563.75	44570.82
563.92	44608.27
564.08	44388.26
564.24	44285.28
564.41	44807.22
564.57	44498.26
564.74	44467.84
564.90	44488.90
565.07	44809.56
565.23	44474.86
565.39	44643.38
565.56	44603.59
565.72	44027.82
565.88	44732.32
566.05	44402.30
566.21	44418.69
566.38	44659.76
566.54	44839.98
566.70	44561.46
566.87	44669.12
567.03	44870.41
567.19	45284.68
567.36	44837.64
567.52	44189.31
567.68	44863.39
567.85	44629.34
568.01	44584.86
568.17	44334.43
568.34	44392.94
568.50	44624.65
568.66	44334.43
568.83	44645.72
568.99	44648.06
569.15	44500.61
569.32	44811.90
569.48	44762.75
569.64	44931.26
569.81	44935.95
569.97	44575.50
570.13	44954.67
570.30	44940.63
570.46	44734.66
570.62	44243.15
570.78	44807.22
570.95	44460.82
571.11	44987.44
571.27	44828.28
571.43	44985.10
571.60	44942.97
571.76	44765.09
571.92	44854.03
572.09	44842.32
572.25	44587.21
572.41	44781.47
572.57	44755.72
572.74	45130.21
572.90	44968.71
573.06	44746.36
573.22	44755.72
573.38	45118.51
573.55	44610.61
573.71	45174.68
573.87	44942.97
574.03	44999.14
574.20	44652.74
574.36	44488.90
574.52	45378.31
574.68	45209.79
574.84	45277.66
575.01	44989.78
575.17	44720.62
575.33	44823.60
575.49	44903.18
575.65	45151.27
575.82	45425.12
575.98	44992.12
576.14	45366.60
576.30	45113.83
576.46	45015.52
576.62	45219.15
576.79	44849.35
576.95	44933.60
577.11	44531.03
577.27	44760.40
577.43	45069.36
577.59	45125.53
577.75	44912.54
577.92	45200.43
578.08	44868.07
578.24	44500.61
578.40	44980.42
578.56	45003.82
578.72	45226.17
578.88	45254.26
579.04	45516.40
579.21	44676.15
579.37	44910.20
579.53	45029.57
579.69	44645.72
579.85	45439.16
580.01	45514.06
580.17	45146.59
580.33	45310.43
580.49	45443.84
580.65	45097.44
580.82	45212.13
580.98	45148.93
581.14	44837.64
581.30	45001.48
581.46	45261.28
581.62	45132.55
581.78	45303.41
581.94	45043.61
582.10	45265.96
582.26	45195.74
582.42	45312.77
582.58	45099.78
582.74	44938.29
582.90	45446.18
583.06	45392.35
583.22	45148.93
583.38	45202.77
583.54	45296.39
583.70	44886.79
583.86	44891.48
584.02	44718.28
584.18	45141.91
584.34	45242.56
584.50	45284.68
584.66	45041.27
584.82	45123.19
584.98	45560.87
585.14	45324.47
585.30	44825.94
585.46	45291.71
585.62	45280.00
585.78	45184.04
585.94	45001.48
586.10	44926.58
586.26	45277.66
586.42	45366.60
586.58	45588.95
586.74	45256.60
586.90	44907.86
587.06	44938.29
587.22	45359.58
587.38	45120.85
587.54	45474.27
587.70	45303.41
587.86	45748.11
588.02	45399.37
588.18	45588.95
588.34	45207.45
588.49	44767.43
588.65	45017.86
588.81	44844.66
588.97	45397.03
589.13	44940.63
589.29	45031.91
589.45	45008.50
589.61	45392.35
589.77	45317.45
589.93	45237.87
590.08	45654.49
590.24	45682.58
