SpectraSuite Data File
++++++++++++++++++++++++++++++++++++
Date: Fri Oct 25 11:22:34 EDT 2013
User: price-jones
Dark Spectrum Present: No
Reference Spectrum Present: No
Number of Sampled Component Spectra: 1
Spectrometers: USB2+H05261
Integration Time (usec): 100000 (USB2+H05261)
Spectra Averaged: 1 (USB2+H05261)
Boxcar Smoothing: 0 (USB2+H05261)
Correct for Electrical Dark: No (USB2+H05261)
Strobe/Lamp Enabled: No (USB2+H05261)
Correct for Detector Non-linearity: No (USB2+H05261)
Correct for Stray Light: No (USB2+H05261)
Number of Pixels in Processed Spectrum: 2048
>>>>>Begin Processed Spectral Data<<<<<
365.73	191.92
365.92	191.92
366.12	191.92
366.32	124.05
366.52	133.41
366.72	201.29
366.91	79.58
367.11	126.39
367.31	93.62
367.51	212.99
367.70	35.11
367.90	102.98
368.10	63.19
368.30	72.56
368.49	114.69
368.69	135.75
368.89	210.65
369.09	105.32
369.28	208.31
369.48	184.90
369.68	159.16
369.87	217.67
370.07	177.88
370.27	220.01
370.47	294.91
370.66	571.09
370.86	697.48
371.06	676.41
371.25	660.03
371.45	634.29
371.65	720.88
371.84	688.12
372.04	617.90
372.24	781.74
372.44	770.04
372.63	709.18
372.83	755.99
373.03	744.29
373.22	772.38
373.42	737.27
373.62	772.38
373.81	798.12
374.01	798.12
374.21	816.85
374.40	788.76
374.60	798.12
374.79	732.59
374.99	884.72
375.19	751.31
375.38	858.98
375.58	840.25
375.78	858.98
375.97	950.26
376.17	849.61
376.37	851.96
376.56	840.25
376.76	863.66
376.95	840.25
377.15	903.45
377.35	898.77
377.54	903.45
377.74	919.83
377.93	889.40
378.13	919.83
378.33	940.90
378.52	952.60
378.72	1043.88
378.91	961.96
379.11	943.24
379.31	961.96
379.50	889.40
379.70	1048.56
379.89	954.94
380.09	933.87
380.28	987.71
380.48	954.94
380.68	954.94
380.87	987.71
381.07	999.41
381.26	994.73
381.46	957.28
381.65	1090.69
381.85	1093.03
382.04	966.64
382.24	1121.12
382.43	1102.39
382.63	983.02
382.83	1062.60
383.02	1188.99
383.22	1137.50
383.41	1132.82
383.61	1167.93
383.80	1144.52
384.00	1139.84
384.19	1123.46
384.39	1219.42
384.58	1100.05
384.78	1172.61
384.97	1242.82
385.17	1156.22
385.36	1132.82
385.56	1196.01
385.75	1191.33
385.95	1219.42
386.14	1191.33
386.34	1240.48
386.53	1235.80
386.72	1242.82
386.92	1294.32
387.11	1174.95
387.31	1263.89
387.50	1188.99
387.70	1228.78
387.89	1327.08
388.09	1306.02
388.28	1249.85
388.48	1242.82
388.67	1390.28
388.86	1306.02
389.06	1301.34
389.25	1350.49
389.45	1362.19
389.64	1345.81
389.84	1348.15
390.03	1313.04
390.22	1315.38
390.42	1369.21
390.61	1366.87
390.81	1420.71
391.00	1329.42
391.19	1547.09
391.39	1390.28
391.58	1530.71
391.78	1406.66
391.97	1483.90
392.16	1547.09
392.36	1558.80
392.55	1509.65
392.75	1558.80
392.94	1586.88
393.13	1448.79
393.33	1593.90
393.52	1535.39
393.71	1600.93
393.91	1624.33
394.10	1593.90
394.29	1678.16
394.49	1652.42
394.68	1680.50
394.88	1736.68
395.07	1687.53
395.26	1652.42
395.46	1659.44
395.65	1788.17
395.84	1671.14
396.04	1750.72
396.23	1811.57
396.42	1706.25
396.62	1823.28
396.81	1844.34
397.00	1774.13
397.19	1867.75
397.39	1879.45
397.58	1792.85
397.77	1809.23
397.97	1867.75
398.16	1820.94
398.35	1898.17
398.55	1905.20
398.74	1853.70
398.93	1977.75
399.12	1895.83
399.32	1926.26
399.51	1982.43
399.70	2033.93
399.90	2064.35
400.09	2136.91
400.28	2040.95
400.47	2071.37
400.67	1973.07
400.86	2085.42
401.05	2012.86
401.24	2054.99
401.44	2157.97
401.63	2179.04
401.82	2165.00
402.01	2073.71
402.21	2153.29
402.40	2169.68
402.59	2197.76
402.78	2202.44
402.97	2232.87
403.17	2282.02
403.36	2228.19
403.55	2347.56
403.74	2359.26
403.93	2422.45
404.13	2394.37
404.32	2310.11
404.51	2333.51
404.70	2399.05
404.89	2551.18
405.09	2471.61
405.28	2513.74
405.47	2509.05
405.66	2569.91
405.85	2612.04
406.05	2551.18
406.24	2628.42
406.43	2614.38
406.62	2602.68
406.81	2555.86
407.00	2609.70
407.20	2539.48
407.39	2717.36
407.58	2691.62
407.77	2700.98
407.96	2668.21
408.15	2782.90
408.34	2785.24
408.54	2839.07
408.73	2862.48
408.92	2904.60
409.11	2857.79
409.30	3026.31
409.49	2820.35
409.68	2949.08
409.87	2853.11
410.07	3176.11
410.26	3117.59
410.45	3206.53
410.64	3141.00
410.83	3183.13
411.02	3183.13
411.21	3218.24
411.40	3204.19
411.59	3232.28
411.78	3229.94
411.98	3176.11
412.17	3353.99
412.36	3304.84
412.55	3433.57
412.74	3236.96
412.93	3342.28
413.12	3353.99
413.31	3590.38
413.50	3459.31
413.69	3506.12
413.88	3606.77
414.07	3592.72
414.26	3623.15
414.45	3707.41
414.64	3719.11
414.83	3854.86
415.02	3812.73
415.22	3875.93
415.41	3868.91
415.60	3812.73
415.79	3831.46
415.98	3908.69
416.17	3971.89
416.36	3997.64
416.55	4227.01
416.74	4128.70
416.93	4161.47
417.12	4119.34
417.31	4285.52
417.50	4196.58
417.69	4301.90
417.88	4290.20
418.07	4262.12
418.26	4280.84
418.45	4292.54
418.64	4589.79
418.83	4538.30
419.02	4432.97
419.21	4524.26
419.39	4613.20
419.58	4507.87
419.77	4454.04
419.96	4568.73
420.15	4580.43
420.34	4645.96
420.53	4652.98
420.72	4760.65
420.91	4770.01
421.10	4753.63
421.29	4868.31
421.48	4748.95
421.67	4805.12
421.86	4903.42
422.05	5125.77
422.24	4760.65
422.43	5008.75
422.61	5076.62
422.80	5043.85
422.99	4947.89
423.18	5032.15
423.37	5071.94
423.56	5097.69
423.75	5085.98
423.94	4781.71
424.13	4571.07
424.32	4973.64
424.50	5118.75
424.69	5144.50
424.88	5102.37
425.07	4816.82
425.26	4919.81
425.45	4961.94
425.64	4952.57
425.83	5048.54
426.01	5139.82
426.20	5135.14
426.39	5149.18
426.58	5245.14
426.77	4957.25
426.96	5151.52
427.15	5064.92
427.33	5455.79
427.52	5174.92
427.71	5214.71
427.90	5310.68
428.09	5437.06
428.28	5219.39
428.46	5446.43
428.65	5268.55
428.84	5455.79
429.03	5537.71
429.22	5458.13
429.40	5659.42
429.59	5591.54
429.78	5448.77
429.97	5301.31
430.16	5453.45
430.34	5802.19
430.53	5760.06
430.72	5818.57
430.91	5535.37
431.10	5652.39
431.28	5783.46
431.47	5935.60
431.66	5909.85
431.85	5856.02
432.03	5834.96
432.22	5984.75
432.41	5977.73
432.60	5898.15
432.79	6045.60
432.97	5947.30
433.16	6012.84
433.35	6148.59
433.54	6197.74
433.72	6232.85
433.91	6200.08
434.10	6244.55
434.28	6057.31
434.47	6190.72
434.66	6335.83
434.85	6368.60
435.03	6366.26
435.22	6504.35
435.41	6527.75
435.59	6380.30
435.78	6478.60
435.97	6516.05
436.16	6457.54
436.34	6436.47
436.53	6597.97
436.72	6485.62
436.90	6530.09
437.09	6630.74
437.28	6588.61
437.46	6796.92
437.65	6794.58
437.84	6738.40
438.02	6670.53
438.21	6743.08
438.40	6628.40
438.58	7007.56
438.77	7169.06
438.96	6953.73
439.14	7140.97
439.33	7314.17
439.52	7185.44
439.70	7267.36
439.89	7543.55
440.08	7566.95
440.26	7604.40
440.45	7300.13
440.63	7496.74
440.82	7775.26
441.01	7637.17
441.19	7782.28
441.38	7747.17
441.57	7896.97
441.75	7793.98
441.94	7875.90
442.12	7997.61
442.31	8226.98
442.50	8131.02
442.68	8145.06
442.87	7995.27
443.05	8358.05
443.24	8306.56
443.43	8255.07
443.61	8304.22
443.80	8463.38
443.98	8170.81
444.17	7999.95
444.35	8269.11
444.54	8454.02
444.73	8365.07
444.91	8358.05
445.10	8245.71
445.28	8395.50
445.47	8203.58
445.65	8383.80
445.84	8500.83
446.02	8421.25
446.21	8713.81
446.39	8540.61
446.58	8704.45
446.77	8681.05
446.95	8269.11
447.14	8421.25
447.32	8760.63
447.51	8545.30
447.69	8505.51
447.88	8475.08
448.06	8774.67
448.25	8631.90
448.43	8601.47
448.62	8709.13
448.80	8692.75
448.99	8690.41
449.17	8966.59
449.36	8786.37
449.54	8950.21
449.73	9027.45
449.91	9132.77
450.10	9144.47
450.28	9156.18
450.46	9210.01
450.65	9186.60
450.83	9296.61
451.02	9214.69
451.20	9378.53
451.39	8999.36
451.57	9334.06
451.76	9320.01
451.94	9261.50
452.13	9460.45
452.31	9558.75
452.49	9191.28
452.68	9479.17
452.86	9305.97
453.05	9631.30
453.23	9640.67
453.42	9540.02
453.60	9635.99
453.78	9760.03
453.97	9687.48
454.15	9666.41
454.34	9469.81
454.52	9717.90
454.70	9818.55
454.89	9792.80
455.07	9825.57
455.26	10162.61
455.44	10068.98
455.62	10043.24
455.81	9827.91
455.99	10263.25
456.17	10019.83
456.36	10104.09
456.54	10047.92
456.73	10541.77
456.91	10597.95
457.09	10239.84
457.28	10878.81
457.46	10211.76
457.64	10698.59
457.83	10565.18
458.01	10602.63
458.19	10752.42
458.38	10750.08
458.56	10876.47
458.74	10930.30
458.93	10551.14
459.11	10841.36
459.29	10951.37
459.48	10977.11
459.66	10984.13
459.84	11037.97
460.03	11363.30
460.21	10981.79
460.39	11260.32
460.57	11295.43
460.76	11262.66
460.94	11281.38
461.12	11417.13
461.31	11314.15
461.49	11265.00
461.67	11442.88
461.85	11520.12
462.04	11386.71
462.22	11925.03
462.40	11887.58
462.59	11571.61
462.77	11564.59
462.95	11908.65
463.13	11705.02
463.32	11915.67
463.50	11878.22
463.68	11927.37
463.86	12042.06
464.05	11826.73
464.23	11775.24
464.41	11906.31
464.59	11793.96
464.78	12154.40
464.96	11892.26
465.14	12013.97
465.32	12243.34
465.50	12369.73
465.69	12402.50
465.87	12231.64
466.05	12414.20
466.23	12386.12
466.41	12496.12
466.60	12741.88
466.78	12308.88
466.96	12292.49
467.14	12538.25
467.32	12453.99
467.51	12739.54
467.69	12489.10
467.87	12582.72
468.05	12727.83
468.23	12329.94
468.41	12788.69
468.60	12978.27
468.78	13116.36
468.96	12568.68
469.14	12847.20
469.32	13261.48
469.50	12786.35
469.69	13025.08
469.87	13221.69
470.05	13486.17
470.23	13589.15
470.41	13343.39
470.59	13359.78
470.77	13369.14
470.95	13490.85
471.14	13598.51
471.32	13322.33
471.50	13743.63
471.68	13633.62
471.86	13806.82
472.04	13855.97
472.22	14436.42
472.40	13748.31
472.58	14050.24
472.77	14087.68
472.95	14520.68
473.13	14857.72
473.31	14272.59
473.49	14303.01
473.67	14293.65
473.85	14326.42
474.03	14778.14
474.21	14988.79
474.39	14906.87
474.57	14836.66
474.75	15000.49
474.93	15199.44
475.12	14897.51
475.30	15407.75
475.48	15248.59
475.66	15171.35
475.84	15557.54
476.02	15749.46
476.20	15695.63
476.38	16203.53
476.56	16025.65
476.74	16231.62
476.92	15939.05
477.10	15864.15
477.28	16297.15
477.46	16322.90
477.64	16615.46
477.82	16699.72
478.00	17167.83
478.18	17083.57
478.36	17312.94
478.54	17427.63
478.72	17212.30
478.90	17345.71
479.08	17661.68
479.26	17834.88
479.44	17907.44
479.62	17844.24
479.80	18326.39
479.98	18462.15
480.16	18806.20
480.34	18359.16
480.52	18988.77
480.70	18876.42
480.88	18405.97
481.06	18775.78
481.24	18895.14
481.41	19232.18
481.59	19674.54
481.77	19962.43
481.95	19791.57
482.13	19798.59
482.31	19850.08
482.49	20421.17
482.67	20018.60
482.85	20898.64
483.03	21109.29
483.21	21071.84
483.39	21205.25
483.57	21078.86
483.74	21406.54
483.92	21743.58
484.10	21371.43
484.28	22181.26
484.46	21996.35
484.64	22527.66
484.82	22246.79
485.00	22892.78
485.18	23000.44
485.35	23358.55
485.53	22583.83
485.71	23543.45
485.89	24053.69
486.07	23583.24
486.25	24151.99
486.43	23681.54
486.61	24367.32
486.78	24360.30
486.96	24383.70
487.14	24659.88
487.32	25099.90
487.50	25172.46
487.68	25364.39
487.85	25837.17
488.03	25591.42
488.21	26326.35
488.39	26162.51
488.57	26644.66
488.75	26546.36
488.92	26757.00
489.10	27314.05
489.28	27002.76
489.46	27421.72
489.64	27232.13
489.81	28208.14
489.99	28175.37
490.17	28236.22
490.35	28746.46
490.53	28767.52
490.70	28594.32
490.88	28374.31
491.06	29078.82
491.24	29350.32
491.41	29399.47
491.59	29872.26
491.77	29549.26
491.95	30110.99
492.13	30103.97
492.30	30635.27
492.48	29963.54
492.66	30529.95
492.84	30675.06
493.01	30988.69
493.19	30759.32
493.37	31077.63
493.54	31519.99
493.72	31889.80
493.90	31997.46
494.08	32360.25
494.25	32535.79
494.43	32247.90
494.61	32865.80
494.79	32847.08
494.96	32708.99
495.14	33439.23
495.32	33184.12
495.49	33603.07
495.67	33706.05
495.85	34443.32
496.02	33509.45
496.20	34361.40
496.38	34326.30
496.55	34642.27
496.73	35541.03
496.91	35215.70
497.09	35414.65
497.26	35534.01
497.44	35405.28
497.62	35765.73
497.79	36156.60
497.97	35777.43
498.14	36486.61
498.32	36811.95
498.50	36950.04
498.67	37179.41
498.85	36893.86
499.03	37479.00
499.20	37214.52
499.38	37523.47
499.56	37055.36
499.73	37675.60
499.91	37909.66
500.08	38148.39
500.26	37434.53
500.44	38150.73
500.61	38106.26
500.79	37874.55
500.97	38635.22
501.14	38572.03
501.32	38415.21
501.49	39531.65
501.67	39086.95
501.84	39409.94
502.02	39292.91
502.20	39533.99
502.37	39772.72
502.55	39505.90
502.72	40116.78
502.90	39981.03
503.07	39749.32
503.25	40198.70
503.43	40233.81
503.60	40732.34
503.78	40793.20
503.95	40762.77
504.13	41263.64
504.30	41387.69
504.48	40982.78
504.65	40940.65
504.83	41373.65
505.01	41895.59
505.18	41694.30
505.36	42377.74
505.53	41975.17
505.71	42160.07
505.88	41614.72
506.06	41958.78
506.23	42438.59
506.41	42174.11
506.58	42906.70
506.76	42553.28
506.93	43005.00
507.11	42696.05
507.28	43002.66
507.46	43370.13
507.63	43007.34
507.81	43320.98
507.98	43386.51
508.16	44016.11
508.33	43973.98
508.50	43985.69
508.68	43964.62
508.85	44224.42
509.03	44535.71
509.20	44744.02
509.38	44961.69
509.55	44694.87
509.73	44980.42
509.90	45301.07
510.08	44903.18
510.25	45418.10
510.42	45776.20
510.60	45553.85
510.77	45755.13
510.95	45867.48
511.12	45677.90
511.30	45785.56
511.47	46043.02
511.64	46146.00
511.82	46429.21
511.99	46291.12
512.17	46878.59
512.34	46248.99
512.51	46703.05
512.69	46918.38
512.86	47007.32
513.04	47229.67
513.21	47203.92
513.38	47526.92
513.56	47407.55
513.73	46979.23
513.90	47592.45
514.08	47466.06
514.25	47505.85
514.43	47988.00
514.60	48144.82
514.77	48315.68
514.95	48451.43
515.12	47721.18
515.29	48177.59
515.47	48303.98
515.64	48594.20
515.81	48259.51
515.99	48381.21
516.16	48769.74
516.33	49209.76
516.51	48952.30
516.68	48961.67
516.85	49277.64
517.03	49179.34
517.20	49656.81
517.37	49256.57
517.54	49186.36
517.72	49626.38
517.89	49808.94
518.06	49631.06
518.24	49502.33
518.41	49574.89
518.58	49815.96
518.75	49872.14
518.93	49979.80
519.10	50085.12
519.27	50113.21
519.45	49965.76
519.62	50588.34
519.79	50508.76
519.96	50375.35
520.14	50688.98
520.31	50417.48
520.48	50665.58
520.65	50672.60
520.83	51309.22
521.00	51332.63
521.17	51000.27
521.34	51313.90
521.52	51077.51
521.69	51398.16
521.86	51386.46
522.03	51372.42
522.20	51559.66
522.38	51791.37
522.55	51770.31
522.72	51749.24
522.89	51672.01
523.07	52301.61
523.24	51587.75
523.41	52289.91
523.58	52130.75
523.75	52142.45
523.92	52306.29
524.10	52179.90
524.27	52186.92
524.44	52542.69
524.61	52411.62
524.78	52240.76
524.96	52603.54
525.13	52655.03
525.30	52931.22
525.47	52973.34
525.64	52992.07
525.81	52949.94
525.98	53010.79
526.16	52828.23
526.33	53375.92
526.50	53216.76
526.67	53113.78
526.84	53301.02
527.01	53024.84
527.18	53375.92
527.36	53244.85
527.53	53495.28
527.70	53616.99
527.87	53844.02
528.04	53778.49
528.21	53895.52
528.38	53598.27
528.55	53928.28
528.72	53766.79
528.89	54049.99
529.07	53506.99
529.24	53968.07
529.41	54230.21
529.58	54005.52
529.75	54120.21
529.92	53862.75
530.09	54078.08
530.26	54475.97
530.43	54642.15
530.60	54068.72
530.77	54066.38
530.94	54492.35
531.11	54403.41
531.28	54501.71
531.46	54653.85
531.63	54714.70
531.80	54529.80
531.97	55044.72
532.14	54941.74
532.31	54803.64
532.48	54866.84
532.65	55002.59
532.82	54773.22
532.99	55246.00
533.16	54923.01
533.33	55236.64
533.50	55320.90
533.67	55269.41
533.84	54838.75
534.01	55075.15
534.18	55217.92
534.35	55606.45
534.52	55370.05
534.69	55606.45
534.86	55604.11
535.03	55515.17
535.20	55433.25
535.37	55817.10
535.54	55653.26
535.71	55721.13
535.88	55751.56
536.05	55849.86
536.22	56161.15
536.38	56088.60
536.55	55931.78
536.72	55941.14
536.89	56060.51
537.06	56060.51
537.23	56095.62
537.40	55943.48
537.57	55828.80
537.74	56205.62
537.91	56233.71
538.08	56172.86
538.25	56226.69
538.42	56346.06
538.59	56502.87
538.75	56165.84
538.92	56299.25
539.09	56605.86
539.26	56264.14
539.43	56460.74
539.60	56633.94
539.77	56458.40
539.94	56938.21
540.11	56631.60
540.28	56837.57
540.44	56767.35
540.61	56591.81
540.78	56570.75
540.95	56872.68
541.12	56655.01
541.29	56797.78
541.46	57043.54
541.62	57034.17
541.79	56858.63
541.96	56610.54
542.13	57043.54
542.30	56875.02
542.47	57219.08
542.63	57179.29
542.80	57034.17
542.97	57268.23
543.14	57305.68
543.31	57389.94
543.48	57565.48
543.64	57717.61
543.81	57542.07
543.98	57710.59
544.15	57717.61
544.32	57846.34
544.48	57888.47
544.65	57670.80
544.82	57602.92
544.99	57556.11
545.16	57963.37
545.32	57895.49
545.49	57932.94
545.66	58113.16
545.83	58003.16
546.00	58056.99
546.16	58157.63
546.33	57848.68
546.50	57785.49
546.67	58052.31
546.83	57921.24
547.00	58082.73
547.17	57909.53
547.34	58225.51
547.50	58152.95
547.67	58291.04
547.84	58054.65
548.00	58379.98
548.17	58642.12
548.34	58616.38
548.51	58698.30
548.67	58440.84
548.84	58550.84
549.01	58466.58
549.18	58412.75
549.34	58487.65
549.51	58532.12
549.68	58698.30
549.84	58695.95
550.01	58557.86
550.18	58422.11
550.34	58766.17
550.51	58705.32
550.68	58482.97
550.84	58480.63
551.01	58761.49
551.18	58822.34
551.34	58960.44
551.51	58735.74
551.68	58796.60
551.84	58803.62
552.01	58747.45
552.18	59065.76
552.34	59007.25
552.51	59077.46
552.68	59021.29
552.84	58695.95
553.01	59405.14
553.18	59206.19
553.34	59056.40
553.51	59100.87
553.67	59047.04
553.84	59028.31
554.01	59016.61
554.17	59274.07
554.34	59547.91
554.51	59278.75
554.67	59430.88
554.84	59274.07
555.00	59189.81
555.17	59171.08
555.33	59442.59
555.50	59140.66
555.67	59412.16
555.83	59208.53
556.00	59426.20
556.16	59788.98
556.33	59751.54
556.50	59489.40
556.66	59568.97
556.83	59468.33
556.99	59622.81
557.16	59861.54
557.32	59868.56
557.49	60004.31
557.65	59683.66
557.82	59803.03
557.98	59732.81
558.15	59742.17
558.32	59859.20
558.48	59686.00
558.65	59812.39
558.81	59613.44
558.98	59964.52
559.14	59870.90
559.31	59894.31
559.47	59718.77
559.64	60236.03
559.80	59964.52
559.97	59992.61
560.13	59700.04
560.30	59978.57
560.46	60051.12
560.63	59962.18
560.79	60193.90
560.96	60083.89
561.12	60170.49
561.29	60069.85
561.45	60205.60
561.61	60055.81
561.78	60004.31
561.94	60236.03
562.11	60224.32
562.27	60236.03
562.44	60133.04
562.60	60264.11
562.77	60303.90
562.93	60137.72
563.10	60275.82
563.26	60149.43
563.42	60559.02
563.59	60126.02
563.75	60069.85
563.92	60268.79
564.08	60292.20
564.24	60654.98
564.41	60472.42
564.57	60336.67
564.74	60348.37
564.90	60322.63
565.07	60268.79
565.23	60341.35
565.39	60561.36
565.56	60633.92
565.72	60498.17
565.88	60577.75
566.05	60554.34
566.21	60350.71
566.38	60371.78
566.54	60636.26
566.70	60619.88
566.87	60755.63
567.03	60486.46
567.19	60645.62
567.36	60500.51
567.52	60683.07
567.68	60896.06
567.85	60477.10
568.01	60671.37
568.17	60516.89
568.34	60772.01
568.50	60470.08
568.66	60484.12
568.83	60603.49
568.99	60617.53
569.15	60734.56
569.32	60865.63
569.48	60750.94
569.64	60870.31
569.81	60626.90
569.97	60654.98
570.13	60781.37
570.30	60603.49
570.46	60835.20
570.62	60811.80
570.78	60800.10
570.95	60865.63
571.11	60764.99
571.27	60694.77
571.43	60748.60
571.60	61048.19
571.76	60783.71
571.92	60858.61
572.09	60999.04
572.25	61003.72
572.41	60884.36
572.57	60926.49
572.74	61073.94
572.90	60865.63
573.06	61076.28
573.22	60926.49
573.38	60874.99
573.55	60886.70
573.71	61078.62
573.87	60896.06
574.03	60853.93
574.20	61057.56
574.36	60900.74
574.52	61134.79
574.68	60970.96
574.84	61132.45
575.01	61050.53
575.17	60968.61
575.33	60856.27
575.49	61003.72
575.65	61174.58
575.82	61066.92
575.98	61190.97
576.14	61095.00
576.30	61158.20
576.46	60966.27
576.62	60837.54
576.79	61102.03
576.95	60935.85
577.11	61022.45
577.27	61034.15
577.43	61141.81
577.59	61183.94
577.75	60959.25
577.92	61052.87
578.08	61237.78
578.24	61186.28
578.40	61310.33
578.56	61368.85
578.72	61087.98
578.88	61106.71
579.04	61263.52
579.21	61085.64
579.37	61226.07
579.53	61389.91
579.69	60769.67
579.85	61190.97
580.01	61137.13
580.17	61155.86
580.33	61158.20
580.49	61254.16
580.65	61261.18
580.82	61043.51
580.98	60903.08
581.14	61050.53
581.30	61160.54
581.46	61071.60
581.62	61256.50
581.78	61155.86
581.94	61017.77
582.10	61099.68
582.26	61300.97
582.42	61043.51
582.58	61083.30
582.74	61212.03
582.90	61361.82
583.06	61144.16
583.22	61197.99
583.38	61176.92
583.54	61364.17
583.70	61291.61
583.86	61354.80
584.02	61013.08
584.18	61457.79
584.34	61205.01
584.50	61221.39
584.66	61181.60
584.82	61036.49
584.98	61415.66
585.14	61359.48
585.30	61197.99
585.46	61153.52
585.62	61317.35
585.78	61432.04
585.94	61006.06
586.10	61258.84
586.26	61270.54
586.42	61464.81
586.58	61291.61
586.74	61483.53
586.90	61343.10
587.06	61048.19
587.22	61382.89
587.38	61410.98
587.54	61694.18
587.70	61462.47
587.86	61296.29
588.02	61265.86
588.18	61403.95
588.34	61558.43
588.49	61207.35
