SpectraSuite Data File
++++++++++++++++++++++++++++++++++++
Date: Fri Oct 25 11:34:24 EDT 2013
User: price-jones
Dark Spectrum Present: No
Reference Spectrum Present: No
Number of Sampled Component Spectra: 1
Spectrometers: USB2+H05261
Integration Time (usec): 100000 (USB2+H05261)
Spectra Averaged: 1 (USB2+H05261)
Boxcar Smoothing: 0 (USB2+H05261)
Correct for Electrical Dark: No (USB2+H05261)
Strobe/Lamp Enabled: No (USB2+H05261)
Correct for Detector Non-linearity: No (USB2+H05261)
Correct for Stray Light: No (USB2+H05261)
Number of Pixels in Processed Spectrum: 2048
>>>>>Begin Processed Spectral Data<<<<<
365.73	210.65
365.92	210.65
366.12	210.65
366.32	203.63
366.52	149.79
366.72	203.63
366.91	166.18
367.11	126.39
367.31	131.07
367.51	191.92
367.70	191.92
367.90	163.84
368.10	147.45
368.30	201.29
368.49	145.11
368.69	220.01
368.89	180.22
369.09	201.29
369.28	252.78
369.48	194.26
369.68	215.33
369.87	194.26
370.07	222.35
370.27	220.01
370.47	339.38
370.66	428.32
370.86	472.79
371.06	517.26
371.25	566.41
371.45	505.56
371.65	526.62
371.84	458.74
372.04	531.30
372.24	538.32
372.44	507.90
372.63	559.39
372.83	627.26
373.03	587.47
373.22	613.22
373.42	613.22
373.62	561.73
373.81	634.29
374.01	702.16
374.21	634.29
374.40	622.58
374.60	699.82
374.79	608.54
374.99	571.09
375.19	627.26
375.38	636.63
375.58	678.76
375.78	671.73
375.97	727.91
376.17	671.73
376.37	641.31
376.56	648.33
376.76	702.16
376.95	683.44
377.15	709.18
377.35	692.80
377.54	718.54
377.74	695.14
377.93	662.37
378.13	664.71
378.33	755.99
378.52	636.63
378.72	653.01
378.91	713.86
379.11	641.31
379.31	638.97
379.50	704.50
379.70	763.01
379.89	671.73
380.09	720.88
380.28	711.52
380.48	711.52
380.68	636.63
380.87	718.54
381.07	718.54
381.26	767.70
381.46	737.27
381.65	751.31
381.85	709.18
382.04	741.95
382.24	856.64
382.43	807.48
382.63	746.63
382.83	767.70
383.02	753.65
383.22	763.01
383.41	772.38
383.61	802.80
383.80	763.01
384.00	938.55
384.19	779.40
384.39	781.74
384.58	788.76
384.78	755.99
384.97	830.89
385.17	833.23
385.36	793.44
385.56	741.95
385.75	863.66
385.95	851.96
386.14	814.51
386.34	816.85
386.53	807.48
386.72	819.19
386.92	828.55
387.11	858.98
387.31	833.23
387.50	875.36
387.70	903.45
387.89	856.64
388.09	873.02
388.28	819.19
388.48	870.68
388.67	861.32
388.86	943.24
389.06	915.15
389.25	917.49
389.45	924.51
389.64	987.71
389.84	929.19
390.03	910.47
390.22	894.08
390.42	873.02
390.61	910.47
390.81	950.26
391.00	903.45
391.19	983.02
391.39	950.26
391.58	952.60
391.78	933.87
391.97	985.37
392.16	976.00
392.36	999.41
392.55	1032.18
392.75	1057.92
392.94	959.62
393.13	1001.75
393.33	933.87
393.52	1055.58
393.71	1100.05
393.91	1160.91
394.10	1114.10
394.29	1184.31
394.49	1053.24
394.68	1069.62
394.88	1036.86
395.07	1097.71
395.26	1121.12
395.46	1109.41
395.65	1034.52
395.84	1177.29
396.04	1170.27
396.23	1146.86
396.42	1125.80
396.62	1156.22
396.81	1163.25
397.00	1165.59
397.19	1254.53
397.39	1146.86
397.58	1184.31
397.77	1153.88
397.97	1247.51
398.16	1282.61
398.35	1308.36
398.55	1205.38
398.74	1224.10
398.93	1301.34
399.12	1240.48
399.32	1184.31
399.51	1270.91
399.70	1256.87
399.90	1291.98
400.09	1345.81
400.28	1287.29
400.47	1273.25
400.67	1359.85
400.86	1350.49
401.05	1336.45
401.24	1355.17
401.44	1371.55
401.63	1526.03
401.82	1425.39
402.01	1327.08
402.21	1404.32
402.40	1397.30
402.59	1504.96
402.78	1547.09
402.97	1486.24
403.17	1533.05
403.36	1493.26
403.55	1500.28
403.74	1542.41
403.93	1586.88
404.13	1591.56
404.32	1458.15
404.51	1519.01
404.70	1535.39
404.89	1472.20
405.09	1664.12
405.28	1645.40
405.47	1565.82
405.66	1762.42
405.85	1710.93
406.05	1657.10
406.24	1717.95
406.43	1664.12
406.62	1713.27
406.81	1776.47
407.00	1694.55
407.20	1699.23
407.39	1661.78
407.58	1820.94
407.77	1865.41
407.96	1743.70
408.15	1849.02
408.34	1851.36
408.54	1802.21
408.73	1839.66
408.92	1886.47
409.11	1856.04
409.30	1849.02
409.49	1827.96
409.68	1935.62
409.87	2050.31
410.07	2026.90
410.26	1984.77
410.45	1949.67
410.64	2066.69
410.83	2026.90
411.02	2064.35
411.21	2125.21
411.40	2106.48
411.59	2127.55
411.78	2190.74
411.98	2221.17
412.17	2165.00
412.36	2197.76
412.55	2239.89
412.74	2349.90
412.93	2188.40
413.12	2270.32
413.31	2347.56
413.50	2312.45
413.69	2361.60
413.88	2464.58
414.07	2361.60
414.26	2441.18
414.45	2410.75
414.64	2525.44
414.83	2572.25
415.02	2438.84
415.22	2569.91
415.41	2572.25
415.60	2511.39
415.79	2651.83
415.98	2602.68
416.17	2668.21
416.36	2689.28
416.55	2665.87
416.74	2661.19
416.93	2679.91
417.12	2637.78
417.31	2710.34
417.50	2810.98
417.69	2850.77
417.88	2899.92
418.07	2827.37
418.26	2867.16
418.45	2895.24
418.64	2930.35
418.83	3068.44
419.02	2972.48
419.21	2902.26
419.39	2916.31
419.58	2920.99
419.77	2878.86
419.96	3112.91
420.15	3009.93
420.34	2944.39
420.53	2972.48
420.72	3075.46
420.91	3126.96
421.10	3141.00
421.29	3183.13
421.48	3122.27
421.67	3229.94
421.86	3251.00
422.05	3098.87
422.24	3047.38
422.43	3098.87
422.61	3227.60
422.80	3288.45
422.99	3325.90
423.18	3276.75
423.37	3323.56
423.56	3262.71
423.75	3295.47
423.94	3269.73
424.13	3014.61
424.32	3087.17
424.50	3248.66
424.69	3377.39
424.88	3382.07
425.07	3243.98
425.26	3173.77
425.45	3323.56
425.64	3328.24
425.83	3152.70
426.01	3290.79
426.20	3279.09
426.39	3307.18
426.58	3403.14
426.77	3316.54
426.96	3410.16
427.15	3433.57
427.33	3426.54
427.52	3377.39
427.71	3592.72
427.90	3489.74
428.09	3482.72
428.28	3531.87
428.46	3492.08
428.65	3410.16
428.84	3644.21
429.03	3669.96
429.22	3506.12
429.40	3616.13
429.59	3655.92
429.78	3508.46
429.97	3494.42
430.16	3676.98
430.34	3758.90
430.53	3744.86
430.72	3812.73
430.91	3878.27
431.10	3707.41
431.28	3784.65
431.47	3943.80
431.66	3796.35
431.85	3749.54
432.03	3925.08
432.22	3880.61
432.41	3927.42
432.60	3796.35
432.79	3831.46
432.97	4081.89
433.16	4002.32
433.35	3913.38
433.54	4030.40
433.72	4046.79
433.91	4072.53
434.10	4067.85
434.28	3932.10
434.47	4074.87
434.66	4203.60
434.85	4212.96
435.03	4201.26
435.22	4053.81
435.41	4325.31
435.59	4215.30
435.78	4400.21
435.97	4423.61
436.16	4219.99
436.34	4210.62
436.53	4177.86
436.72	4421.27
436.90	4124.02
437.09	4496.17
437.28	4142.75
437.46	4367.44
437.65	4468.08
437.84	4358.08
438.02	4353.40
438.21	4542.98
438.40	4449.36
438.58	4552.34
438.77	4652.98
438.96	4411.91
439.14	4542.98
439.33	4744.27
439.52	4669.37
439.70	4770.01
439.89	4706.82
440.08	4751.29
440.26	4814.48
440.45	4744.27
440.63	5011.09
440.82	4924.49
441.01	4870.65
441.19	4983.00
441.38	4997.04
441.57	5128.11
441.75	5149.18
441.94	5252.16
442.12	5078.96
442.31	5093.01
442.50	5210.03
442.68	5280.25
442.87	5320.04
443.05	5284.93
443.24	5350.46
443.43	5479.19
443.61	5411.32
443.80	5437.06
443.98	5308.34
444.17	5085.98
444.35	5430.04
444.54	5362.17
444.73	5334.08
444.91	5441.75
445.10	5511.96
445.28	5493.24
445.47	5401.96
445.65	5362.17
445.84	5460.47
446.02	5514.30
446.21	5359.83
446.39	5537.71
446.58	5593.88
446.77	5528.35
446.95	5455.79
447.14	5507.28
447.32	5551.75
447.51	5640.69
447.69	5432.38
447.88	5537.71
448.06	5537.71
448.25	5617.29
448.43	5462.81
448.62	5547.07
448.80	5507.28
448.99	5673.46
449.17	5811.55
449.36	5710.91
449.54	5727.29
449.73	5849.00
449.91	5870.06
450.10	5769.42
450.28	5926.24
450.46	5942.62
450.65	5731.97
450.83	6052.63
451.02	5905.17
451.20	5870.06
451.39	5942.62
451.57	5973.05
451.76	5874.74
451.94	5968.37
452.13	6129.86
452.31	5968.37
452.49	5820.91
452.68	6010.50
452.86	5888.79
453.05	6200.08
453.23	6228.17
453.42	6104.12
453.60	5961.34
453.78	6326.47
453.97	6148.59
454.15	6078.37
454.34	6139.23
454.52	6293.70
454.70	6186.04
454.89	6384.98
455.07	6356.90
455.26	6352.21
455.44	6335.83
455.62	6384.98
455.81	6527.75
455.99	6427.11
456.17	6450.52
456.36	6523.07
456.54	6424.77
456.73	6675.21
456.91	6843.73
457.09	6794.58
457.28	6785.21
457.46	6778.19
457.64	6848.41
457.83	6902.24
458.01	6729.04
458.19	6825.00
458.38	6752.45
458.56	6960.75
458.74	6944.37
458.93	6825.00
459.11	6832.02
459.29	6848.41
459.48	6892.88
459.66	6864.79
459.84	6993.52
460.03	7098.84
460.21	7222.89
460.39	7262.68
460.57	7386.73
460.76	7105.87
460.94	7183.10
461.12	7438.22
461.31	7222.89
461.49	7150.34
461.67	7077.78
461.85	7358.64
462.04	7290.77
462.22	7723.77
462.40	7583.34
462.59	7538.87
462.77	7445.24
462.95	7623.12
463.13	7569.29
463.32	7466.31
463.50	7639.51
463.68	7459.29
463.86	7609.08
464.05	7424.18
464.23	7447.58
464.41	7653.55
464.59	7527.16
464.78	7803.35
464.96	7588.02
465.14	7571.63
465.32	7749.51
465.50	7960.16
465.69	7906.33
465.87	7911.01
466.05	7793.98
466.23	7859.52
466.41	7948.46
466.60	8135.70
466.78	7838.45
466.96	7840.79
467.14	7939.10
467.32	7918.03
467.51	8154.43
467.69	7620.78
467.87	8056.12
468.05	7990.59
468.23	7740.15
468.41	7969.52
468.60	8009.31
468.78	8243.37
468.96	8053.78
469.14	8315.92
469.32	8336.99
469.50	8131.02
469.69	8372.10
469.87	8196.56
470.05	8369.76
470.23	8332.31
470.41	8379.12
470.59	8531.25
470.77	8444.65
470.95	8641.26
471.14	8634.24
471.32	8622.53
471.50	8758.28
471.68	8692.75
471.86	8706.79
472.04	8826.16
472.22	8863.61
472.40	8720.84
472.58	8952.55
472.77	8889.35
472.95	9018.08
473.13	9242.78
473.31	8933.82
473.49	8933.82
473.67	8975.95
473.85	9296.61
474.03	9348.10
474.21	9268.52
474.39	9467.47
474.57	9423.00
474.75	9446.40
474.93	9666.41
475.12	9476.83
475.30	9523.64
475.48	9750.67
475.66	9554.07
475.84	9591.52
476.02	9823.23
476.20	9841.95
476.38	10071.33
476.56	10078.35
476.74	10193.03
476.92	10143.88
477.10	10019.83
477.28	10178.99
477.46	10314.74
477.64	10207.08
477.82	10586.24
478.00	10558.16
478.18	10738.38
478.36	10693.91
478.54	10766.46
478.72	10836.68
478.90	10974.77
479.08	11164.36
479.26	11187.76
479.44	11293.08
479.62	11159.67
479.80	11356.28
479.98	11318.83
480.16	11609.06
480.34	11672.25
480.52	11793.96
480.70	11613.74
480.88	11562.25
481.06	11878.22
481.24	12060.78
481.41	12229.30
481.59	12226.96
481.77	12138.02
481.95	12248.02
482.13	12479.74
482.31	12365.05
482.49	12755.92
482.67	12629.53
482.85	13217.01
483.03	13149.13
483.21	13287.22
483.39	13167.85
483.57	13303.60
483.74	13195.94
483.92	13745.97
484.10	13483.83
484.28	13689.79
484.46	13928.53
484.64	13963.64
484.82	14017.47
485.00	14040.87
485.18	14445.79
485.35	14251.52
485.53	14487.92
485.71	14389.61
485.89	15220.50
486.07	14663.46
486.25	14595.58
486.43	14862.40
486.61	15206.46
486.78	15386.68
486.96	15386.68
487.14	15548.18
487.32	15398.38
487.50	15473.28
487.68	15712.02
487.85	16147.36
488.03	16013.95
488.21	16095.86
488.39	16119.27
488.57	16348.64
488.75	16573.33
488.92	16528.86
489.10	17018.04
489.28	17102.29
489.46	17036.76
489.64	16837.81
489.81	17378.48
489.99	17275.49
490.17	17614.87
490.35	17638.28
490.53	17785.73
490.70	18258.52
490.88	17743.60
491.06	18225.75
491.24	18143.83
491.41	18211.71
491.59	18555.77
491.77	18202.35
491.95	18658.75
492.13	18691.52
492.30	19096.43
492.48	19028.56
492.66	19007.49
492.84	19002.81
493.01	19428.79
493.19	19499.00
493.37	19360.91
493.54	19353.89
493.72	19878.17
493.90	20002.22
494.08	19910.94
494.25	20428.20
494.43	20301.81
494.61	20343.94
494.79	20414.15
494.96	20659.91
495.14	20697.36
495.32	20725.44
495.49	20779.28
495.67	20891.62
495.85	20861.19
496.02	21289.51
496.20	21357.39
496.38	21511.86
496.55	21343.35
496.73	22033.80
496.91	21776.34
497.09	21998.70
497.26	21956.57
497.44	21692.08
497.62	22101.68
497.79	22796.82
497.97	21977.63
498.14	22640.00
498.32	23005.13
498.50	22827.24
498.67	23133.86
498.85	22506.59
499.03	23154.92
499.20	22955.97
499.38	23122.15
499.56	23400.68
499.73	23269.61
499.91	23379.61
500.08	23704.95
500.26	23564.51
500.44	23569.19
500.61	23599.62
500.79	23772.82
500.97	23880.49
501.14	24325.19
501.32	24407.11
501.49	24166.03
501.67	24301.78
501.84	24526.47
502.02	24430.51
502.20	24573.28
502.37	24517.11
502.55	24697.33
502.72	25160.76
502.90	24758.19
503.07	24936.07
503.25	24957.13
503.43	25240.34
503.60	25441.62
503.78	25568.01
503.95	25296.51
504.13	25296.51
504.30	25755.26
504.48	25418.22
504.65	25797.38
504.83	25769.30
505.01	26040.80
505.18	25876.96
505.36	26251.45
505.53	25891.01
505.71	26696.15
505.88	26410.60
506.06	25778.66
506.23	26735.94
506.41	26494.86
506.58	26658.70
506.76	26876.37
506.93	27089.36
507.11	27405.33
507.28	26841.26
507.46	27304.69
507.63	26979.36
507.81	27573.85
507.98	27159.58
508.16	27129.15
508.33	27300.01
508.50	27522.36
508.68	27456.82
508.85	28081.75
509.03	27363.20
509.20	27550.45
509.38	28032.60
509.55	27887.48
509.73	28070.04
509.90	28435.17
510.08	28095.79
510.25	28301.76
510.42	28379.00
510.60	28308.78
510.77	28680.92
510.95	29310.53
511.12	28835.40
511.30	28479.64
511.47	28898.59
511.64	29078.82
511.82	29230.95
511.99	28720.71
512.17	29230.95
512.34	29167.76
512.51	29261.38
512.69	29745.87
512.86	29174.78
513.04	29565.65
513.21	29752.89
513.38	29685.01
513.56	30000.99
513.73	29935.45
513.90	30045.46
514.08	29839.49
514.25	30038.44
514.43	30118.01
514.60	30541.65
514.77	30242.06
514.95	30059.50
515.12	30352.07
515.29	30057.16
515.47	30710.17
515.64	30656.34
515.81	30408.24
515.99	30810.81
516.16	31012.10
516.33	31145.51
516.51	31304.67
516.68	30904.43
516.85	30981.67
517.03	31531.70
517.20	31372.54
517.37	31477.86
517.54	31264.88
517.72	31557.44
517.89	31599.57
518.06	31665.11
518.24	31770.43
518.41	31662.77
518.58	31899.16
518.75	31667.45
518.93	31740.00
519.10	32032.57
519.27	31974.06
519.45	32194.07
519.62	32215.13
519.79	32385.99
519.96	32032.57
520.14	32177.68
520.31	32556.85
520.48	32865.80
520.65	32575.58
520.83	32933.68
521.00	32994.53
521.17	32746.44
521.34	32685.58
521.52	33085.81
521.69	33048.36
521.86	33390.08
522.03	33214.54
522.20	33308.16
522.38	33596.05
522.55	33736.48
522.72	33565.62
522.89	33780.95
523.07	33825.42
523.24	34141.39
523.41	34029.05
523.58	33460.30
523.75	34328.64
523.92	33750.52
524.10	34129.69
524.27	33996.28
524.44	34319.28
524.61	33972.88
524.78	34223.31
524.96	34396.51
525.13	34398.85
525.30	34621.20
525.47	34639.93
525.64	34347.36
525.81	34778.02
525.98	34813.13
526.16	34660.99
526.33	34937.18
526.50	34869.30
526.67	35264.85
526.84	35445.07
527.01	35103.35
527.18	34782.70
527.36	35218.04
527.53	35489.54
527.70	35754.02
527.87	35576.14
528.04	35115.06
528.21	35433.37
528.38	35615.93
528.55	35761.05
528.72	35360.81
528.89	35793.81
529.07	35826.58
529.24	35786.79
529.41	36135.53
529.58	36041.91
529.75	35847.64
529.92	36074.68
530.09	36119.15
530.26	36215.11
530.43	35976.37
530.60	36140.21
530.77	36374.27
530.94	36245.54
531.11	36144.89
531.28	36364.90
531.46	36388.31
531.63	36636.41
531.80	36664.49
531.97	37020.25
532.14	36989.83
532.31	36816.63
532.48	36907.91
532.65	37368.99
532.82	36825.99
532.99	37050.68
533.16	37024.93
533.33	36861.10
533.50	37069.40
533.67	36694.92
533.84	37181.75
534.01	37186.43
534.18	37340.91
534.35	37528.15
534.52	37776.25
534.69	37762.20
534.86	38003.28
535.03	37298.78
535.20	37881.57
535.37	38007.96
535.54	38078.18
535.71	37855.82
535.88	38050.09
536.05	38139.03
536.22	38293.50
536.38	38220.95
536.55	38206.90
536.72	37823.06
536.89	38064.13
537.06	38005.62
537.23	38153.07
537.40	37827.74
537.57	38279.46
537.74	38141.37
537.91	38656.29
538.08	38761.61
538.25	38396.49
538.42	38251.38
538.59	38904.38
538.75	38904.38
538.92	38953.54
539.09	39086.95
539.26	39182.91
539.43	38686.71
539.60	38981.62
539.77	38742.89
539.94	38820.13
540.11	39040.14
540.28	38946.51
540.44	39129.08
540.61	38951.20
540.78	39140.78
540.95	39248.44
541.12	39510.58
541.29	38890.34
541.46	39393.56
541.62	39337.38
541.79	40065.29
541.96	39400.58
542.13	39143.12
542.30	39725.91
542.47	39388.88
542.63	39433.35
542.80	39763.36
542.97	40128.48
543.14	40271.26
543.31	40039.54
543.48	40172.96
543.64	40788.52
543.81	40414.03
543.98	40526.38
544.15	40421.05
544.32	40514.67
544.48	40751.07
544.65	40608.29
544.82	40481.91
544.99	40797.88
545.16	40687.87
545.32	40409.35
545.49	41198.11
545.66	40875.12
545.83	40989.80
546.00	40825.96
546.16	40662.13
546.33	40884.48
546.50	40612.98
546.67	41383.01
546.83	40549.78
547.00	40727.66
547.17	40655.11
547.34	41158.32
547.50	40900.86
547.67	41254.28
547.84	41298.75
548.00	41874.52
548.17	41684.94
548.34	41556.21
548.51	41911.97
548.67	41434.50
548.84	41757.50
549.01	41598.34
549.18	41645.15
549.34	41837.08
549.51	41886.23
549.68	41984.53
549.84	41596.00
550.01	41717.71
550.18	41603.02
550.34	41804.31
550.51	42057.09
550.68	41624.09
550.84	41488.34
551.01	42131.98
551.18	41759.84
551.34	41846.44
551.51	41855.80
551.68	41975.17
551.84	41940.06
552.01	42124.96
552.18	42038.36
552.34	41813.67
552.51	42366.04
552.68	42302.84
552.84	42600.09
553.01	42707.76
553.18	42487.74
553.34	42518.17
553.51	42391.78
553.67	42700.73
553.84	42265.39
554.01	42782.65
554.17	42717.12
554.34	43126.71
554.51	42754.57
554.67	43119.69
554.84	43257.78
555.00	42672.65
555.17	42632.86
555.33	42728.82
555.50	42946.49
555.67	43077.56
555.83	42670.31
556.00	43194.59
556.16	43208.63
556.33	42986.28
556.50	42663.28
556.66	43248.42
556.83	42965.21
556.99	43136.07
557.16	43379.49
557.32	43515.24
557.49	43639.29
557.65	43103.31
557.82	43477.79
557.98	43330.34
558.15	43220.33
558.32	43611.20
558.48	43269.48
558.65	43438.00
558.81	43421.62
558.98	43536.30
559.14	43796.10
559.31	43768.02
559.47	43302.25
559.64	43620.56
559.80	43625.25
559.97	43742.27
560.13	43405.23
560.30	43763.34
560.46	44353.15
560.63	43704.82
560.79	43819.51
560.96	44128.46
561.12	43952.92
561.29	43622.90
561.45	43938.88
561.61	43819.51
561.78	44105.06
561.94	44339.11
562.11	43849.94
562.27	44179.95
562.44	43896.75
562.60	44542.74
562.77	44140.16
562.93	44062.93
563.10	44456.14
563.26	44140.16
563.42	44301.66
563.59	43863.98
563.75	44037.18
563.92	44294.64
564.08	43941.22
564.24	44135.48
564.41	44725.30
564.57	44701.89
564.74	44830.62
564.90	43971.64
565.07	44095.69
565.23	44397.62
565.39	44594.23
565.56	44659.76
565.72	44364.85
565.88	44652.74
566.05	44430.39
566.21	44484.22
566.38	44018.46
566.54	44648.06
566.70	44484.22
566.87	44528.69
567.03	44402.30
567.19	44502.95
567.36	44762.75
567.52	44088.67
567.68	44760.40
567.85	44559.12
568.01	44985.10
568.17	44285.28
568.34	44502.95
568.50	44793.17
568.66	44594.23
568.83	44308.68
568.99	44708.91
569.15	44650.40
569.32	44713.59
569.48	44893.82
569.64	45095.10
569.81	44964.03
569.97	44884.45
570.13	45055.31
570.30	44638.70
570.46	44755.72
570.62	44865.73
570.78	44692.53
570.95	44678.49
571.11	44919.56
571.27	44935.95
571.43	44444.43
571.60	45041.27
571.76	44917.22
571.92	44907.86
572.09	44868.07
572.25	44870.41
572.41	44879.77
572.57	44994.46
572.74	45511.72
572.90	44755.72
573.06	45165.32
573.22	45113.83
573.38	44980.42
573.55	45244.90
573.71	44996.80
573.87	45127.87
574.03	44823.60
574.20	45212.13
574.36	45448.52
574.52	45406.39
574.68	45272.98
574.84	45752.79
575.01	45443.84
575.17	45488.31
575.33	45284.68
575.49	45050.63
575.65	45333.84
575.82	45275.32
575.98	45500.01
576.14	45654.49
576.30	45357.24
576.46	45291.71
576.62	45233.19
576.79	45397.03
576.95	45205.11
577.11	45303.41
577.27	45385.33
577.43	45394.69
577.59	45268.30
577.75	45457.88
577.92	45296.39
578.08	45528.10
578.24	45132.55
578.40	45467.25
578.56	45340.86
578.72	45366.60
578.88	45504.70
579.04	45399.37
579.21	45001.48
579.37	45514.06
579.53	45757.47
579.69	45228.51
579.85	45361.92
580.01	45354.90
580.17	45205.11
580.33	45909.61
580.49	45256.60
580.65	45366.60
580.82	45607.68
580.98	45413.41
581.14	45350.22
581.30	45483.63
581.46	45233.19
581.62	45509.38
581.78	45500.01
581.94	45830.03
582.10	45755.13
582.26	46050.04
582.42	45165.32
582.58	45715.34
582.74	45336.18
582.90	45684.92
583.06	45900.25
583.22	45492.99
583.38	45399.37
583.54	45500.01
583.70	45500.01
583.86	45549.17
584.02	45432.14
584.18	45830.03
584.34	45848.75
584.50	46057.06
584.66	45930.67
584.82	45628.74
584.98	45808.96
585.14	45851.09
585.30	45219.15
585.46	45483.63
585.62	45301.07
585.78	45595.98
585.94	45333.84
586.10	45776.20
586.26	45563.21
586.42	45446.18
586.58	45865.14
586.74	45647.47
586.90	45352.56
587.06	45883.86
587.22	45633.42
587.38	45511.72
587.54	46003.23
587.70	46380.06
587.86	45764.49
588.02	45593.64
588.18	45202.77
588.34	45542.14
588.49	45649.81
588.65	45853.44
588.81	45556.19
588.97	45815.99
589.13	45544.48
589.29	45801.94
589.45	45970.46
589.61	45790.24
589.77	45923.65
589.93	46164.73
590.08	46356.65
