SpectraSuite Data File
++++++++++++++++++++++++++++++++++++
Date: Fri Oct 25 11:26:30 EDT 2013
User: price-jones
Dark Spectrum Present: No
Reference Spectrum Present: No
Number of Sampled Component Spectra: 1
Spectrometers: USB2+H05261
Integration Time (usec): 100000 (USB2+H05261)
Spectra Averaged: 1 (USB2+H05261)
Boxcar Smoothing: 0 (USB2+H05261)
Correct for Electrical Dark: No (USB2+H05261)
Strobe/Lamp Enabled: No (USB2+H05261)
Correct for Detector Non-linearity: No (USB2+H05261)
Correct for Stray Light: No (USB2+H05261)
Number of Pixels in Processed Spectrum: 2048
>>>>>Begin Processed Spectral Data<<<<<
365.73	262.14
365.92	262.14
366.12	262.14
366.32	126.39
366.52	161.50
366.72	170.86
366.91	154.48
367.11	149.79
367.31	170.86
367.51	142.77
367.70	117.03
367.90	147.45
368.10	119.37
368.30	152.13
368.49	98.30
368.69	140.43
368.89	105.32
369.09	135.75
369.28	145.11
369.48	117.03
369.68	215.33
369.87	238.73
370.07	168.52
370.27	273.84
370.47	360.44
370.66	528.96
370.86	622.58
371.06	709.18
371.25	617.90
371.45	561.73
371.65	669.39
371.84	669.39
372.04	737.27
372.24	753.65
372.44	791.10
372.63	702.16
372.83	802.80
373.03	774.72
373.22	758.33
373.42	835.57
373.62	741.95
373.81	784.08
374.01	821.53
374.21	856.64
374.40	882.38
374.60	882.38
374.79	849.61
374.99	854.30
375.19	861.32
375.38	774.72
375.58	765.36
375.78	837.91
375.97	870.68
376.17	891.74
376.37	861.32
376.56	837.91
376.76	821.53
376.95	887.06
377.15	884.72
377.35	917.49
377.54	891.74
377.74	880.04
377.93	894.08
378.13	990.05
378.33	915.15
378.52	840.25
378.72	950.26
378.91	936.21
379.11	952.60
379.31	978.34
379.50	966.64
379.70	978.34
379.89	1001.75
380.09	954.94
380.28	1006.43
380.48	997.07
380.68	1022.81
380.87	1020.47
381.07	1043.88
381.26	1043.88
381.46	1032.18
381.65	1046.22
381.85	1069.62
382.04	1011.11
382.24	1053.24
382.43	1029.84
382.63	1067.28
382.83	1116.44
383.02	1097.71
383.22	1088.35
383.41	1032.18
383.61	1121.12
383.80	1090.69
384.00	1167.93
384.19	1055.58
384.39	1015.79
384.58	1128.14
384.78	1174.95
384.97	1198.35
385.17	1139.84
385.36	1172.61
385.56	1149.20
385.75	1193.67
385.95	1170.27
386.14	1167.93
386.34	1181.97
386.53	1235.80
386.72	1259.21
386.92	1289.64
387.11	1315.38
387.31	1270.91
387.50	1320.06
387.70	1303.68
387.89	1252.19
388.09	1331.76
388.28	1231.12
388.48	1366.87
388.67	1299.00
388.86	1320.06
389.06	1315.38
389.25	1320.06
389.45	1401.98
389.64	1341.13
389.84	1348.15
390.03	1430.07
390.22	1430.07
390.42	1387.94
390.61	1432.41
390.81	1397.30
391.00	1390.28
391.19	1474.54
391.39	1397.30
391.58	1390.28
391.78	1430.07
391.97	1401.98
392.16	1425.39
392.36	1624.33
392.55	1511.99
392.75	1605.61
392.94	1535.39
393.13	1493.26
393.33	1535.39
393.52	1586.88
393.71	1561.14
393.91	1605.61
394.10	1645.40
394.29	1713.27
394.49	1640.72
394.68	1621.99
394.88	1666.46
395.07	1708.59
395.26	1629.01
395.46	1598.59
395.65	1631.35
395.84	1722.63
396.04	1741.36
396.23	1764.76
396.42	1806.89
396.62	1764.76
396.81	1724.97
397.00	1764.76
397.19	1710.93
397.39	1722.63
397.58	1811.57
397.77	1825.62
397.97	1774.13
398.16	1792.85
398.35	1895.83
398.55	1874.77
398.74	1811.57
398.93	1989.46
399.12	1947.33
399.32	1886.47
399.51	1919.24
399.70	1968.39
399.90	1919.24
400.09	1942.64
400.28	2167.34
400.47	2031.58
400.67	2087.76
400.86	2083.08
401.05	2076.06
401.24	2031.58
401.44	2059.67
401.63	2099.46
401.82	2122.87
402.01	2146.27
402.21	2059.67
402.40	2244.57
402.59	2155.63
402.78	2106.48
402.97	2270.32
403.17	2204.78
403.36	2312.45
403.55	2167.34
403.74	2340.54
403.93	2338.20
404.13	2427.14
404.32	2340.54
404.51	2387.35
404.70	2319.47
404.89	2403.73
405.09	2511.39
405.28	2443.52
405.47	2544.16
405.66	2483.31
405.85	2389.69
406.05	2499.69
406.24	2469.27
406.43	2506.71
406.62	2668.21
406.81	2586.29
407.00	2616.72
407.20	2696.30
407.39	2663.53
407.58	2696.30
407.77	2717.36
407.96	2733.75
408.15	2705.66
408.34	2642.46
408.54	2658.85
408.73	2897.58
408.92	2768.85
409.11	2878.86
409.30	2890.56
409.49	2967.80
409.68	2848.43
409.87	2874.18
410.07	3075.46
410.26	2953.76
410.45	2920.99
410.64	2935.03
410.83	2981.84
411.02	3054.40
411.21	3070.78
411.40	3054.40
411.59	3260.37
411.78	3145.68
411.98	3080.14
412.17	3344.63
412.36	3307.18
412.55	3239.30
412.74	3442.93
412.93	3349.31
413.12	3358.67
413.31	3494.42
413.50	3396.12
413.69	3442.93
413.88	3611.45
414.07	3522.51
414.26	3597.40
414.45	3698.05
414.64	3618.47
414.83	3735.50
415.02	3730.81
415.22	3803.37
415.41	3953.16
415.60	3735.50
415.79	3822.09
415.98	4011.68
416.17	4037.42
416.36	3901.67
416.55	3906.35
416.74	4032.74
416.93	3957.85
417.12	3936.78
417.31	4170.83
417.50	4081.89
417.69	4156.79
417.88	4297.22
418.07	4212.96
418.26	4360.42
418.45	4285.52
418.64	4423.61
418.83	4388.50
419.02	4449.36
419.21	4383.82
419.39	4451.70
419.58	4465.74
419.77	4468.08
419.96	4617.88
420.15	4582.77
420.34	4594.47
420.53	4533.62
420.72	4760.65
420.91	4774.69
421.10	4723.20
421.29	4795.76
421.48	4655.33
421.67	4695.11
421.86	4669.37
422.05	4765.33
422.24	4819.16
422.43	4901.08
422.61	4781.71
422.80	4870.65
422.99	4837.89
423.18	4929.17
423.37	5093.01
423.56	4856.61
423.75	4884.70
423.94	4706.82
424.13	4648.30
424.32	4732.56
424.50	4997.04
424.69	5121.09
424.88	4858.95
425.07	4898.74
425.26	4802.78
425.45	4968.96
425.64	4952.57
425.83	4880.02
426.01	5170.24
426.20	5109.39
426.39	5069.60
426.58	5057.90
426.77	4947.89
426.96	5006.41
427.15	5069.60
427.33	5046.20
427.52	5062.58
427.71	5104.71
427.90	5174.92
428.09	5195.99
428.28	5231.10
428.46	5313.02
428.65	5479.19
428.84	5352.81
429.03	5467.49
429.22	5373.87
429.40	5343.44
429.59	5533.03
429.78	5263.86
429.97	5350.46
430.16	5640.69
430.34	5692.18
430.53	5654.73
430.72	5509.62
430.91	5500.26
431.10	5586.86
431.28	5633.67
431.47	5694.52
431.66	5746.02
431.85	5877.09
432.03	6092.41
432.22	6017.52
432.41	5853.68
432.60	6019.86
432.79	5928.58
432.97	5975.39
433.16	5923.90
433.35	6017.52
433.54	6141.57
433.72	6097.10
433.91	6125.18
434.10	6155.61
434.28	5963.68
434.47	6232.85
434.66	6202.42
434.85	6167.31
435.03	6230.51
435.22	6171.99
435.41	6427.11
435.59	6253.91
435.78	6478.60
435.97	6595.63
436.16	6380.30
436.34	6289.02
436.53	6457.54
436.72	6651.80
436.90	6403.71
437.09	6602.65
437.28	6452.86
437.46	6623.72
437.65	6686.91
437.84	6686.91
438.02	6644.78
438.21	6525.41
438.40	6616.69
438.58	6946.71
438.77	6995.86
438.96	6951.39
439.14	7124.59
439.33	7105.87
439.52	7222.89
439.70	7009.90
439.89	7129.27
440.08	7290.77
440.26	7375.03
440.45	7311.83
440.63	7363.33
440.82	7665.25
441.01	7461.63
441.19	7613.76
441.38	7742.49
441.57	7742.49
441.75	7709.72
441.94	7875.90
442.12	7808.03
442.31	8140.38
442.50	8004.63
442.68	7969.52
442.87	7939.10
443.05	7950.80
443.24	8229.32
443.43	8065.49
443.61	7882.92
443.80	8489.12
443.98	8084.21
444.17	7712.07
444.35	8163.79
444.54	8395.50
444.73	8458.70
444.91	8182.51
445.10	8325.29
445.28	8255.07
445.47	8311.24
445.65	8257.41
445.84	8547.64
446.02	8355.71
446.21	8362.73
446.39	8423.59
446.58	8465.72
446.77	8400.18
446.95	8262.09
447.14	8554.66
447.32	8407.20
447.51	8332.31
447.69	8390.82
447.88	8381.46
448.06	8308.90
448.25	8470.40
448.43	8503.17
448.62	8699.77
448.80	8475.08
448.99	8709.13
449.17	8596.79
449.36	8341.67
449.54	8786.37
449.73	8725.52
449.91	9114.05
450.10	8938.51
450.28	8957.23
450.46	8990.00
450.65	9170.22
450.83	8964.25
451.02	8982.98
451.20	9100.00
451.39	9020.42
451.57	9198.31
451.76	9053.19
451.94	9100.00
452.13	9172.56
452.31	9198.31
452.49	9034.47
452.68	9025.11
452.86	9200.65
453.05	9366.82
453.23	9233.41
453.42	9345.76
453.60	9287.25
453.78	9427.68
453.97	9479.17
454.15	9441.72
454.34	9432.36
454.52	9465.13
454.70	9673.43
454.89	9860.68
455.07	9657.05
455.26	9741.31
455.44	9781.10
455.62	9923.87
455.81	9928.55
455.99	9877.06
456.17	9984.73
456.36	9900.47
456.54	10073.67
456.73	10150.90
456.91	10296.02
457.09	10216.44
457.28	10415.38
457.46	10200.05
457.64	10382.62
457.83	10541.77
458.01	10272.61
458.19	10490.28
458.38	10333.47
458.56	10616.67
458.74	10574.54
458.93	10445.81
459.11	10672.84
459.29	10506.66
459.48	10401.34
459.66	10576.88
459.84	10757.10
460.03	10869.45
460.21	10988.82
460.39	10611.99
460.57	11005.20
460.76	10916.26
460.94	10927.96
461.12	11117.54
461.31	11061.37
461.49	11152.65
461.67	11311.81
461.85	11279.04
462.04	11276.70
462.22	11604.38
462.40	11433.52
462.59	11398.41
462.77	11389.05
462.95	11768.21
463.13	11531.82
463.32	11716.72
463.50	11618.42
463.68	11571.61
463.86	11817.36
464.05	11817.36
464.23	11609.06
464.41	11791.62
464.59	11625.44
464.78	12180.15
464.96	11873.54
465.14	11782.26
465.32	11978.86
465.50	12140.36
465.69	11988.22
465.87	11833.75
466.05	11815.02
466.23	12030.35
466.41	12257.39
466.60	12381.43
466.78	12114.61
466.96	12215.26
467.14	12196.53
467.32	12486.76
467.51	12343.99
467.69	12161.42
467.87	12374.41
468.05	12421.22
468.23	12266.75
468.41	12568.68
468.60	12507.82
468.78	12589.74
468.96	12318.24
469.14	12814.43
469.32	12800.39
469.50	12535.91
469.69	12688.04
469.87	13090.62
470.05	12966.57
470.23	13217.01
470.41	13114.02
470.59	13357.44
470.77	13165.51
470.95	13158.49
471.14	13535.32
471.32	12938.48
471.50	13188.92
471.68	13448.72
471.86	13528.30
472.04	13446.38
472.22	13834.91
472.40	13696.82
472.58	13586.81
472.77	13767.03
472.95	14190.67
473.13	14541.75
473.31	14068.96
473.49	13877.04
473.67	14057.26
473.85	14033.85
474.03	14420.04
474.21	14387.27
474.39	14572.18
474.57	14370.89
474.75	14773.46
474.93	14857.72
475.12	14796.87
475.30	14923.26
475.48	14867.08
475.66	15255.61
475.84	14817.93
476.02	15367.96
476.20	15370.30
476.38	15786.91
476.56	15983.52
476.74	15674.57
476.92	15669.89
477.10	15555.20
477.28	16056.08
477.46	16098.20
477.64	16168.42
477.82	16369.71
478.00	16711.42
478.18	16521.84
478.36	16786.32
478.54	16910.37
478.72	17092.93
478.90	17263.79
479.08	17376.14
479.26	17329.33
479.44	17392.52
479.62	17544.66
479.80	17727.22
479.98	17851.27
480.16	18363.84
480.34	18232.77
480.52	18335.76
480.70	18799.18
480.88	18375.55
481.06	18745.35
481.24	18714.92
481.41	18735.99
481.59	19108.13
481.77	19194.73
481.95	19496.66
482.13	19770.51
482.31	19702.63
482.49	20098.18
482.67	20058.39
482.85	19990.52
483.03	20390.75
483.21	20769.91
483.39	20503.09
483.57	20950.14
483.74	21041.42
483.92	21177.17
484.10	21245.04
484.28	21460.37
484.46	21671.02
484.64	22085.30
484.82	21886.35
485.00	22033.80
485.18	22403.61
485.35	22925.55
485.53	22614.26
485.71	22658.73
485.89	23414.72
486.07	23126.83
486.25	23005.13
486.43	23646.43
486.61	23557.49
486.78	24051.34
486.96	23828.99
487.14	24205.82
487.32	24664.57
487.50	24636.48
487.68	24659.88
487.85	24851.81
488.03	25303.53
488.21	25596.10
488.39	25556.31
488.57	25680.36
488.75	26075.91
488.92	26532.31
489.10	26398.90
489.28	26941.91
489.46	26780.41
489.64	26773.39
489.81	27161.92
489.99	27747.05
490.17	27578.53
490.35	28006.85
490.53	27798.54
490.70	28622.41
490.88	27906.21
491.06	28673.90
491.24	28723.05
491.41	29006.26
491.59	29134.99
491.77	28945.41
491.95	29252.02
492.13	29614.80
492.30	29771.61
492.48	29720.12
492.66	30036.09
492.84	29982.26
493.01	30604.84
493.19	30000.99
493.37	30836.56
493.54	30878.69
493.72	31566.81
493.90	31365.52
494.08	31257.85
494.25	31618.30
494.43	31620.64
494.61	32023.21
494.79	32247.90
494.96	32290.03
495.14	32570.90
495.32	32884.53
495.49	32826.01
495.67	33207.52
495.85	32985.17
496.02	33677.97
496.20	33881.60
496.38	33696.69
496.55	33937.77
496.73	34405.88
496.91	34199.91
497.09	34677.38
497.26	34536.94
497.44	34656.31
497.62	35416.99
497.79	35566.78
497.97	35164.21
498.14	35592.53
498.32	35751.68
498.50	35700.19
498.67	36615.34
498.85	36428.10
499.03	36313.41
499.20	36629.38
499.38	36652.79
499.56	36840.03
499.73	37071.75
499.91	37038.98
500.08	37411.12
500.26	37116.22
500.44	36849.39
500.61	37333.89
500.79	37462.61
500.97	37668.58
501.14	38089.88
501.32	38553.30
501.49	38192.86
501.67	38625.86
501.84	38782.68
502.02	38897.36
502.20	38808.42
502.37	38653.95
502.55	38813.10
502.72	39126.74
502.90	39536.33
503.07	39281.21
503.25	39339.72
503.43	39426.32
503.60	39784.43
503.78	39892.09
503.95	39681.44
504.13	40233.81
504.30	40367.22
504.48	40184.66
504.65	40704.26
504.83	40701.92
505.01	41242.58
505.18	40886.82
505.36	41181.73
505.53	40933.63
505.71	40652.76
505.88	41619.41
506.06	41387.69
506.23	41638.13
506.41	41453.23
506.58	41123.21
506.76	41937.72
506.93	42085.17
507.11	42003.25
507.28	42000.91
507.46	42211.56
507.63	42380.08
507.81	42986.28
507.98	42511.15
508.16	42742.86
508.33	42820.10
508.50	43297.57
508.68	43042.45
508.85	43693.12
509.03	43578.43
509.20	43669.72
509.38	43988.03
509.55	44362.51
509.73	44348.47
509.90	44198.68
510.08	44296.98
510.25	44233.78
510.42	44671.46
510.60	44444.43
510.77	45076.38
510.95	45207.45
511.12	45006.16
511.30	44795.51
511.47	45146.59
511.64	45198.09
511.82	45708.32
511.99	45378.31
512.17	45443.84
512.34	45759.81
512.51	45778.54
512.69	46237.28
512.86	45888.54
513.04	46674.96
513.21	46190.47
513.38	46410.48
513.56	46529.85
513.73	46426.87
513.90	46567.30
514.08	46590.70
514.25	46834.12
514.43	47159.45
514.60	46981.57
514.77	46831.78
514.95	47234.35
515.12	46979.23
515.29	47648.63
515.47	47665.01
515.64	48140.14
515.81	47847.57
515.99	47709.48
516.16	47906.08
516.33	47686.07
516.51	48502.92
516.68	48165.88
516.85	48186.95
517.03	48399.94
517.20	48273.55
517.37	48430.36
517.54	48383.55
517.72	48741.66
517.89	48886.77
518.06	48835.28
518.24	48856.34
518.41	49078.69
518.58	49097.42
518.75	48926.56
518.93	49179.34
519.10	49287.00
519.27	49226.15
519.45	49315.09
519.62	49336.15
519.79	49298.70
519.96	49640.42
520.14	49893.20
520.31	49680.21
520.48	49975.12
520.65	50078.10
520.83	50553.23
521.00	50284.07
521.17	50160.02
521.34	50342.58
521.52	50557.91
521.69	50630.47
521.86	50908.99
522.03	50665.58
522.20	50894.95
522.38	50901.97
522.55	50897.29
522.72	51061.13
522.89	51091.55
523.07	51182.84
523.24	51290.50
523.41	51428.59
523.58	51253.05
523.75	51779.67
523.92	51400.50
524.10	51676.69
524.27	51470.72
524.44	51592.43
524.61	51690.73
524.78	51842.87
524.96	52018.41
525.13	52182.24
525.30	52329.70
525.47	52193.95
525.64	52186.92
525.81	52385.87
525.98	52236.08
526.16	52399.91
526.33	52294.59
526.50	52619.92
526.67	52711.20
526.84	52659.71
527.01	52601.20
527.18	52631.63
527.36	52509.92
527.53	52790.78
527.70	53240.17
527.87	53090.37
528.04	52811.85
528.21	53329.11
528.38	53085.69
528.55	53404.00
528.72	53036.54
528.89	53113.78
529.07	53183.99
529.24	53191.01
529.41	53268.25
529.58	53666.14
529.75	53420.39
529.92	53631.04
530.09	53628.69
530.26	53820.62
530.43	53811.26
530.60	53565.50
530.77	53518.69
530.94	53963.39
531.11	53860.41
531.28	53822.96
531.46	53869.77
531.63	53886.15
531.80	53982.12
531.97	53921.26
532.14	54223.19
532.31	54220.85
532.48	54330.86
532.65	54349.58
532.82	54227.87
532.99	54639.81
533.16	54309.79
533.33	54679.60
533.50	54721.72
533.67	54789.60
533.84	54438.52
534.01	54562.57
534.18	54504.06
534.35	54904.29
534.52	54831.73
534.69	55014.29
534.86	54822.37
535.03	54773.22
535.20	54829.39
535.37	55154.72
535.54	55117.28
535.71	55250.69
535.88	55208.56
536.05	55236.64
536.22	55220.26
536.38	55561.98
536.55	55327.92
536.72	55208.56
536.89	55309.20
537.06	55334.95
537.23	55566.66
537.40	55353.67
537.57	55730.50
537.74	55686.03
537.91	56009.02
538.08	55723.47
538.25	55569.00
538.42	55655.60
538.59	56095.62
538.75	55606.45
538.92	55842.84
539.09	55884.97
539.26	55927.10
539.43	55955.19
539.60	56219.67
539.77	56112.00
539.94	56252.44
540.11	56016.04
540.28	56079.24
540.44	56151.79
540.61	56163.50
540.78	56058.17
540.95	56240.73
541.12	56184.56
541.29	56313.29
541.46	56315.63
541.62	56327.33
541.79	56479.47
541.96	56266.48
542.13	56474.79
542.30	56327.33
542.47	56666.71
542.63	56404.57
542.80	56573.09
542.97	56970.98
543.14	57125.46
543.31	56804.80
543.48	57027.15
543.64	57249.50
543.81	57088.01
543.98	57015.45
544.15	57258.87
544.32	57251.84
544.48	57457.81
544.65	57165.24
544.82	57200.35
544.99	56903.10
545.16	57080.98
545.32	57324.40
545.49	57490.58
545.66	57556.11
545.83	57382.91
546.00	57570.16
546.16	57340.78
546.33	57254.18
546.50	57043.54
546.67	57623.99
546.83	57261.21
547.00	57408.66
547.17	57659.10
547.34	57600.58
547.50	57851.02
547.67	57968.05
547.84	57766.76
548.00	57834.64
548.17	57902.51
548.34	58089.76
548.51	57968.05
548.67	58183.38
548.84	57654.42
549.01	57848.68
549.18	57928.26
549.34	57937.62
549.51	58174.02
549.68	58230.19
549.84	58204.44
550.01	58113.16
550.18	57867.40
550.34	58279.34
550.51	58106.14
550.68	58071.03
550.84	57972.73
551.01	58443.18
551.18	58204.44
551.34	58370.62
551.51	58398.71
551.68	58468.92
551.84	58429.13
552.01	58260.62
552.18	58487.65
552.34	58244.23
552.51	58649.14
552.68	58080.39
552.84	58614.04
553.01	58756.81
553.18	58440.84
553.34	58728.72
553.51	58702.98
553.67	58468.92
553.84	58901.92
554.01	58660.85
554.17	58740.42
554.34	58988.52
554.51	58827.02
554.67	58906.60
554.84	58922.99
555.00	58965.12
555.17	58969.80
555.33	58805.96
555.50	58817.66
555.67	58726.38
555.83	58796.60
556.00	59093.85
556.16	59199.17
556.33	59018.95
556.50	58831.71
556.66	59330.24
556.83	58852.77
556.99	59054.06
557.16	59182.79
557.32	59220.23
557.49	59522.16
557.65	59271.73
557.82	59290.45
557.98	59227.26
558.15	59110.23
558.32	59465.99
558.48	59016.61
558.65	59166.40
558.81	59402.80
558.98	59426.20
559.14	59358.33
559.31	59465.99
559.47	59400.46
559.64	59416.84
559.80	59583.02
559.97	59461.31
560.13	59533.87
560.30	59564.29
560.46	59622.81
560.63	59648.55
560.79	59639.19
560.96	59566.63
561.12	59561.95
561.29	59730.47
561.45	59784.30
561.61	59613.44
561.78	59601.74
561.94	59547.91
562.11	59721.11
562.27	59873.24
562.44	59781.96
562.60	59845.16
562.77	59788.98
562.93	59458.97
563.10	59994.95
563.26	59646.21
563.42	59765.58
563.59	59840.48
563.75	59882.61
563.92	59770.26
564.08	59889.63
564.24	60004.31
564.41	59910.69
564.57	59826.43
564.74	59891.97
564.90	59997.29
565.07	59884.95
565.23	59901.33
565.39	59943.46
565.56	60186.88
565.72	59992.61
565.88	59945.80
566.05	59784.30
566.21	59971.55
566.38	60107.30
566.54	59938.78
566.70	59938.78
566.87	60154.11
567.03	60004.31
567.19	60158.79
567.36	60135.38
567.52	60193.90
567.68	60339.01
567.85	60161.13
568.01	60172.83
568.17	60032.40
568.34	60292.20
568.50	60158.79
568.66	59994.95
568.83	60324.97
568.99	60072.19
569.15	60231.35
569.32	60226.66
569.48	60184.54
569.64	60416.25
569.81	60273.48
569.97	60287.52
570.13	60404.55
570.30	60285.18
570.46	60413.91
570.62	60254.75
570.78	60310.92
570.95	60385.82
571.11	60430.29
571.27	60287.52
571.43	60254.75
571.60	60327.31
571.76	60360.08
571.92	60266.45
572.09	60582.43
572.25	60439.65
572.41	60523.91
572.57	60523.91
572.74	60484.12
572.90	60303.90
573.06	60313.26
573.22	60381.14
573.38	60481.78
573.55	60385.82
573.71	60463.06
573.87	60626.90
574.03	60240.71
574.20	60584.77
574.36	60289.86
574.52	60507.53
574.68	60514.55
574.84	60669.03
575.01	60725.20
575.17	60350.71
575.33	60512.21
575.49	60537.96
575.65	60772.01
575.82	60697.11
575.98	60549.66
576.14	60692.43
576.30	60692.43
576.46	60690.09
576.62	60573.06
576.79	60563.70
576.95	60273.48
577.11	60601.15
577.27	60673.71
577.43	60683.07
577.59	60505.19
577.75	60559.02
577.92	60488.80
578.08	60701.79
578.24	60453.70
578.40	60917.12
578.56	60748.60
578.72	60540.30
578.88	60900.74
579.04	60842.23
579.21	60856.27
579.37	60757.97
579.53	60683.07
579.69	60608.17
579.85	60589.45
580.01	60662.00
580.17	60526.25
580.33	60788.39
580.49	61029.47
580.65	60640.94
580.82	60809.46
580.98	60645.62
581.14	60643.28
581.30	60835.20
581.46	60750.94
581.62	60762.65
581.78	60544.98
581.94	60741.58
582.10	60781.37
582.26	60636.26
582.42	60479.44
582.58	60678.39
582.74	60580.09
582.90	60692.43
583.06	60816.48
583.22	60556.68
583.38	60750.94
583.54	60767.33
583.70	60884.36
583.86	60865.63
584.02	60832.86
584.18	60856.27
584.34	60741.58
584.50	60701.79
584.66	60755.63
584.82	60872.65
584.98	61071.60
585.14	60935.85
585.30	60568.38
585.46	60928.83
585.62	60687.75
585.78	60975.64
585.94	60575.40
586.10	60952.23
586.26	60999.04
586.42	60935.85
586.58	60863.29
586.74	60795.42
586.90	60912.44
587.06	60914.78
587.22	60940.53
587.38	60952.23
587.54	60912.44
587.70	60992.02
587.86	60858.61
588.02	60938.19
588.18	61031.81
588.34	60896.06
588.49	60947.55
