SpectraSuite Data File
++++++++++++++++++++++++++++++++++++
Date: Fri Oct 25 10:43:30 EDT 2013
User: price-jones
Dark Spectrum Present: No
Reference Spectrum Present: No
Number of Sampled Component Spectra: 1
Spectrometers: USB2+H05261
Integration Time (usec): 100000 (USB2+H05261)
Spectra Averaged: 1 (USB2+H05261)
Boxcar Smoothing: 0 (USB2+H05261)
Correct for Electrical Dark: No (USB2+H05261)
Strobe/Lamp Enabled: No (USB2+H05261)
Correct for Detector Non-linearity: No (USB2+H05261)
Correct for Stray Light: No (USB2+H05261)
Number of Pixels in Processed Spectrum: 2048
>>>>>Begin Processed Spectral Data<<<<<
365.73	81.92
365.92	81.92
366.12	81.92
366.32	79.58
366.52	25.75
366.72	23.41
366.91	0.00
367.11	0.00
367.31	16.38
367.51	16.38
367.70	0.00
367.90	74.90
368.10	88.94
368.30	28.09
368.49	4.68
368.69	98.30
368.89	42.13
369.09	53.83
369.28	28.09
369.48	14.04
369.68	44.47
369.87	46.81
370.07	110.01
370.27	168.52
370.47	203.63
370.66	409.59
370.86	369.80
371.06	458.74
371.25	465.77
371.45	369.80
371.65	475.13
371.84	411.93
372.04	404.91
372.24	463.43
372.44	416.62
372.63	437.68
372.83	489.17
373.03	458.74
373.22	500.87
373.42	521.94
373.62	470.45
373.81	521.94
374.01	559.39
374.21	540.66
374.40	447.04
374.60	622.58
374.79	543.00
374.99	613.22
375.19	603.86
375.38	610.88
375.58	568.75
375.78	648.33
375.97	503.22
376.17	645.99
376.37	589.82
376.56	582.79
376.76	660.03
376.95	601.52
377.15	613.22
377.35	571.09
377.54	667.05
377.74	636.63
377.93	685.78
378.13	627.26
378.33	709.18
378.52	627.26
378.72	690.46
378.91	608.54
379.11	617.90
379.31	650.67
379.50	554.71
379.70	671.73
379.89	674.07
380.09	671.73
380.28	657.69
380.48	716.20
380.68	657.69
380.87	751.31
381.07	781.74
381.26	704.50
381.46	767.70
381.65	613.22
381.85	671.73
382.04	692.80
382.24	716.20
382.43	638.97
382.63	645.99
382.83	730.25
383.02	746.63
383.22	709.18
383.41	709.18
383.61	751.31
383.80	784.08
384.00	784.08
384.19	835.57
384.39	807.48
384.58	868.34
384.78	835.57
384.97	784.08
385.17	695.14
385.36	758.33
385.56	828.55
385.75	816.85
385.95	786.42
386.14	816.85
386.34	856.64
386.53	765.36
386.72	819.19
386.92	835.57
387.11	819.19
387.31	882.38
387.50	905.79
387.70	798.12
387.89	875.36
388.09	882.38
388.28	880.04
388.48	826.21
388.67	915.15
388.86	905.79
389.06	950.26
389.25	976.00
389.45	1064.94
389.64	917.49
389.84	1025.15
390.03	954.94
390.22	1036.86
390.42	1067.28
390.61	1025.15
390.81	999.41
391.00	1053.24
391.19	1078.99
391.39	1015.79
391.58	1043.88
391.78	973.66
391.97	1053.24
392.16	1048.56
392.36	1078.99
392.55	1041.54
392.75	1013.45
392.94	978.34
393.13	1025.15
393.33	1032.18
393.52	1076.65
393.71	1032.18
393.91	1060.26
394.10	1102.39
394.29	1226.44
394.49	1181.97
394.68	1172.61
394.88	1172.61
395.07	1254.53
395.26	1231.12
395.46	1273.25
395.65	1280.27
395.84	1214.74
396.04	1214.74
396.23	1200.69
396.42	1144.52
396.62	1184.31
396.81	1163.25
397.00	1212.40
397.19	1277.93
397.39	1247.51
397.58	1362.19
397.77	1359.85
397.97	1441.77
398.16	1469.86
398.35	1500.28
398.55	1411.34
398.74	1462.83
398.93	1409.00
399.12	1493.26
399.32	1533.05
399.51	1516.67
399.70	1493.26
399.90	1577.52
400.09	1596.25
400.28	1563.48
400.47	1507.30
400.67	1675.82
400.86	1561.14
401.05	1575.18
401.24	1596.25
401.44	1680.50
401.63	1724.97
401.82	1729.66
402.01	1755.40
402.21	1748.38
402.40	1764.76
402.59	1732.00
402.78	1762.42
402.97	1652.42
403.17	1790.51
403.36	1827.96
403.55	1755.40
403.74	1870.09
403.93	1832.64
404.13	1895.83
404.32	1837.32
404.51	1863.07
404.70	1930.94
404.89	2031.58
405.09	1998.82
405.28	1914.56
405.47	1940.30
405.66	1947.33
405.85	2015.20
406.05	1923.92
406.24	2029.24
406.43	2071.37
406.62	2106.48
406.81	2176.70
407.00	2036.27
407.20	1966.05
407.39	2057.33
407.58	2197.76
407.77	2202.44
407.96	2157.97
408.15	2195.42
408.34	2235.21
408.54	2244.57
408.73	2235.21
408.92	2190.74
409.11	2307.77
409.30	2258.62
409.49	2270.32
409.68	2228.19
409.87	2275.00
410.07	2228.19
410.26	2429.48
410.45	2363.94
410.64	2361.60
410.83	2469.27
411.02	2497.35
411.21	2466.92
411.40	2630.76
411.59	2483.31
411.78	2506.71
411.98	2478.63
412.17	2686.94
412.36	2684.59
412.55	2670.55
412.74	2691.62
412.93	2740.77
413.12	2651.83
413.31	2787.58
413.50	2771.19
413.69	2815.66
413.88	2897.58
414.07	2932.69
414.26	2885.88
414.45	3054.40
414.64	3061.42
414.83	3035.67
415.02	3030.99
415.22	2984.18
415.41	3122.27
415.60	3098.87
415.79	3150.36
415.98	3337.60
416.17	3187.81
416.36	3274.41
416.55	3253.34
416.74	3260.37
416.93	3194.83
417.12	3295.47
417.31	3365.69
417.50	3426.54
417.69	3358.67
417.88	3438.25
418.07	3424.20
418.26	3365.69
418.45	3531.87
418.64	3562.30
418.83	3449.95
419.02	3520.17
419.21	3545.91
419.39	3550.59
419.58	3592.72
419.77	3559.95
419.96	3609.11
420.15	3620.81
420.34	3641.87
420.53	3735.50
420.72	3913.38
420.91	3857.20
421.10	3908.69
421.29	3751.88
421.48	3583.36
421.67	3899.33
421.86	3815.07
422.05	3904.01
422.24	3861.88
422.43	3812.73
422.61	3913.38
422.80	3894.65
422.99	3836.14
423.18	3843.16
423.37	3866.56
423.56	3943.80
423.75	3904.01
423.94	3894.65
424.13	3496.76
424.32	3758.90
424.50	3983.59
424.69	4058.49
424.88	3878.27
425.07	3880.61
425.26	3922.74
425.45	3878.27
425.64	3915.72
425.83	3908.69
426.01	3915.72
426.20	4037.42
426.39	4128.70
426.58	3976.57
426.77	3887.63
426.96	3981.25
427.15	3974.23
427.33	4198.92
427.52	4173.18
427.71	4119.34
427.90	4222.33
428.09	4098.28
428.28	4196.58
428.46	4219.99
428.65	4086.58
428.84	4287.86
429.03	4243.39
429.22	4117.00
429.40	4189.56
429.59	4002.32
429.78	4037.42
429.97	3908.69
430.16	4124.02
430.34	4112.32
430.53	4121.68
430.72	4217.65
430.91	4180.20
431.10	4311.27
431.28	4472.76
431.47	4606.17
431.66	4533.62
431.85	4344.03
432.03	4592.13
432.22	4692.77
432.41	4676.39
432.60	4648.30
432.79	4732.56
432.97	4690.43
433.16	4758.31
433.35	4711.50
433.54	4603.83
433.72	4638.94
433.91	4795.76
434.10	4657.67
434.28	4765.33
434.47	4713.84
434.66	4929.17
434.85	4924.49
435.03	5135.14
435.22	4910.44
435.41	5259.18
435.59	5034.49
435.78	5100.03
435.97	5102.37
436.16	5153.86
436.34	5151.52
436.53	5069.60
436.72	5118.75
436.90	4922.15
437.09	5125.77
437.28	5114.07
437.46	5226.42
437.65	5139.82
437.84	5284.93
438.02	5104.71
438.21	5221.74
438.40	5114.07
438.58	5355.15
438.77	5277.91
438.96	5413.66
439.14	5530.69
439.33	5455.79
439.52	5502.60
439.70	5537.71
439.89	5631.33
440.08	5673.46
440.26	5771.76
440.45	5556.43
440.63	5832.62
440.82	6064.33
441.01	5944.96
441.19	5966.03
441.38	6031.56
441.57	5886.45
441.75	6307.74
441.94	6108.80
442.12	6331.15
442.31	6420.09
442.50	6335.83
442.68	6342.85
442.87	6197.74
443.05	6312.42
443.24	6567.54
443.43	6527.75
443.61	6438.81
443.80	6731.38
443.98	6361.58
444.17	6431.79
444.35	6544.14
444.54	6672.87
444.73	6401.37
444.91	6448.18
445.10	6328.81
445.28	6427.11
445.47	6354.55
445.65	6516.05
445.84	6375.62
446.02	6523.07
446.21	6532.44
446.39	6473.92
446.58	6551.16
446.77	6502.01
446.95	6569.88
447.14	6672.87
447.32	6825.00
447.51	6815.64
447.69	6583.93
447.88	6647.12
448.06	6441.15
448.25	6590.95
448.43	6768.83
448.62	6698.61
448.80	6628.40
448.99	6806.28
449.17	6984.16
449.36	6871.81
449.54	7042.67
449.73	7164.38
449.91	7012.24
450.10	7180.76
450.28	7150.34
450.46	7164.38
450.65	7129.27
450.83	7204.17
451.02	6930.33
451.20	7194.81
451.39	7363.33
451.57	7309.49
451.76	7241.62
451.94	7185.44
452.13	7157.36
452.31	7248.64
452.49	6918.62
452.68	7171.40
452.86	7110.55
453.05	7103.53
453.23	7407.80
453.42	7309.49
453.60	7302.47
453.78	7489.71
453.97	7276.73
454.15	7414.82
454.34	7286.09
454.52	7365.67
454.70	7487.37
454.89	7372.69
455.07	7602.06
455.26	7651.21
455.44	7707.38
455.62	7819.73
455.81	7826.75
455.99	7646.53
456.17	7777.60
456.36	7911.01
456.54	7826.75
456.73	7913.35
456.91	8037.40
457.09	8006.97
457.28	8191.88
457.46	8002.29
457.64	8194.22
457.83	8269.11
458.01	8002.29
458.19	8215.28
458.38	8051.44
458.56	8322.94
458.74	8196.56
458.93	8112.30
459.11	8283.16
459.29	8521.89
459.48	8362.73
459.66	8372.10
459.84	8418.91
460.03	8599.13
460.21	8498.49
460.39	8606.15
460.57	8533.59
460.76	8674.03
460.94	8449.33
461.12	8631.90
461.31	8704.45
461.49	8547.64
461.67	8554.66
461.85	8777.01
462.04	8718.50
462.22	9331.72
462.40	8620.19
462.59	8933.82
462.77	8931.48
462.95	9039.15
463.13	8842.54
463.32	8891.70
463.50	9027.45
463.68	8894.04
463.86	8957.23
464.05	8641.26
464.23	8809.78
464.41	9167.88
464.59	8926.80
464.78	9296.61
464.96	9160.86
465.14	8910.42
465.32	9186.60
465.50	9139.79
465.69	9254.48
465.87	9151.49
466.05	9139.79
466.23	9156.18
466.41	8952.55
466.60	9448.74
466.78	9221.71
466.96	9170.22
467.14	9287.25
467.32	9364.48
467.51	9348.10
467.69	9034.47
467.87	9469.81
468.05	9305.97
468.23	9320.01
468.41	9252.14
468.60	9153.84
468.78	9696.84
468.96	9406.61
469.14	9802.16
469.32	9785.78
469.50	9348.10
469.69	9706.20
469.87	9647.69
470.05	9685.14
470.23	9853.66
470.41	9713.22
470.59	9708.54
470.77	9884.08
470.95	9900.47
471.14	10101.75
471.32	9839.61
471.50	10197.71
471.68	10209.42
471.86	10230.48
472.04	10267.93
472.22	10808.59
472.40	10382.62
472.58	10382.62
472.77	10452.83
472.95	10609.65
473.13	11047.33
473.31	10581.56
473.49	10553.48
473.67	10644.76
473.85	10808.59
474.03	10942.00
474.21	10876.47
474.39	11026.26
474.57	11000.52
474.75	11178.40
474.93	10916.26
475.12	11204.14
475.30	11290.74
475.48	11400.75
475.66	11351.60
475.84	11356.28
476.02	11192.44
476.20	11337.56
476.38	11534.16
476.56	11789.28
476.74	11698.00
476.92	11775.24
477.10	11529.48
477.28	11995.25
477.46	12114.61
477.64	12180.15
477.82	12152.06
478.00	12629.53
478.18	12453.99
478.36	12666.98
478.54	12779.32
478.72	12578.04
478.90	12781.67
479.08	12999.34
479.26	13214.66
479.44	13186.58
479.62	13373.82
479.80	13277.86
479.98	13556.38
480.16	13444.04
480.34	13444.04
480.52	13844.27
480.70	13830.23
480.88	13348.08
481.06	13619.58
481.24	14085.34
481.41	14216.41
481.59	14176.62
481.77	14298.33
481.95	14448.13
482.13	14630.69
482.31	14506.64
482.49	14733.67
482.67	14937.30
482.85	15150.29
483.03	15066.03
483.21	15194.76
483.39	15396.04
483.57	15246.25
483.74	15253.27
483.92	15704.99
484.10	15337.53
484.28	15627.76
484.46	16142.67
484.64	16453.97
484.82	15990.54
485.00	16154.38
485.18	16243.32
485.35	16294.81
485.53	16212.89
485.71	16128.63
485.89	16346.30
486.07	16437.58
486.25	16416.52
486.43	16748.87
486.61	16901.01
486.78	16950.16
486.96	17303.58
487.14	17851.27
487.32	17525.93
487.50	17893.40
487.68	18122.77
487.85	18204.69
488.03	18111.07
488.21	18532.36
488.39	18672.79
488.57	18361.50
488.75	18864.72
488.92	18871.74
489.10	19379.64
489.28	19440.49
489.46	19672.20
489.64	19548.15
489.81	20093.50
489.99	20004.56
490.17	20196.48
490.35	20156.69
490.53	20140.31
490.70	20456.28
490.88	20475.01
491.06	20706.72
491.24	20439.90
491.41	20624.80
491.59	20435.22
491.77	20563.95
491.95	20891.62
492.13	21275.47
492.30	21404.20
492.48	21633.57
492.66	21425.26
492.84	21724.85
493.01	21968.27
493.19	21905.07
493.37	22132.11
493.54	22129.77
493.72	22305.31
493.90	22466.80
494.08	22902.14
494.25	23129.17
494.43	23269.61
494.61	23201.73
494.79	23372.59
494.96	23126.83
495.14	23477.91
495.32	23618.35
495.49	23796.23
495.67	23920.28
495.85	23676.86
496.02	24114.54
496.20	24376.68
496.38	24308.80
496.55	24634.14
496.73	24868.19
496.91	24737.12
497.09	24758.19
497.26	24999.26
497.44	24769.89
497.62	25142.03
497.79	25422.90
497.97	24893.94
498.14	25343.32
498.32	25528.22
498.50	25408.86
498.67	25996.33
498.85	25914.41
499.03	26029.10
499.20	25970.58
499.38	26050.16
499.56	26602.53
499.73	26408.26
499.91	26560.40
500.08	26565.08
500.26	26111.02
500.44	26398.90
500.61	26588.49
500.79	26693.81
500.97	26890.41
501.14	26939.57
501.32	27037.87
501.49	26934.88
501.67	26618.91
501.84	27264.90
502.02	27379.59
502.20	27307.03
502.37	27800.88
502.55	27810.25
502.72	27742.37
502.90	27662.79
503.07	27903.87
503.25	27651.09
503.43	27957.70
503.60	27906.21
503.78	28151.96
503.95	28018.55
504.13	28711.35
504.30	28617.73
504.48	28662.20
504.65	28783.91
504.83	28706.67
505.01	29450.96
505.18	29139.67
505.36	29221.59
505.53	29198.18
505.71	29481.39
505.88	29500.11
506.06	28982.85
506.23	29312.87
506.41	29745.87
506.58	29422.87
506.76	29734.17
506.93	29780.98
507.11	30043.12
507.28	30089.93
507.46	29912.05
507.63	29687.36
507.81	30078.22
507.98	29755.23
508.16	30000.99
508.33	30305.26
508.50	30778.04
508.68	30684.42
508.85	30813.15
509.03	30541.65
509.20	31077.63
509.38	31182.96
509.55	31187.64
509.73	31150.19
509.90	31379.56
510.08	31283.60
510.25	31140.83
510.42	31299.98
510.60	31679.15
510.77	31805.54
510.95	32074.70
511.12	31868.73
511.30	32006.83
511.47	32240.88
511.64	32311.10
511.82	32013.85
511.99	32032.57
512.17	32371.95
512.34	32229.18
512.51	32613.02
512.69	32395.35
512.86	32573.24
513.04	32774.52
513.21	32741.75
513.38	32591.96
513.56	32872.82
513.73	32545.15
513.90	32823.67
514.08	32903.25
514.25	32879.85
514.43	33069.43
514.60	33127.94
514.77	33275.40
514.95	33865.21
515.12	33514.13
515.29	33425.19
515.47	33535.20
515.64	33776.27
515.81	33661.58
515.99	33680.31
516.16	33860.53
516.33	33146.67
516.51	33647.54
516.68	33137.30
516.85	33233.27
517.03	33462.64
517.20	33427.53
517.37	34036.07
517.54	34302.89
517.72	34225.65
517.89	33694.35
518.06	33673.29
518.24	34251.40
518.41	34265.44
518.58	34286.51
518.75	34235.02
518.93	34352.04
519.10	34515.88
519.27	34981.65
519.45	34972.28
519.62	35218.04
519.79	34962.92
519.96	35248.47
520.14	35070.59
520.31	35215.70
520.48	35316.34
520.65	35388.90
520.83	35632.32
521.00	35349.11
521.17	35889.77
521.34	35892.12
521.52	35969.35
521.69	35950.63
521.86	36271.28
522.03	36180.00
522.20	36189.36
522.38	36210.43
522.55	36367.24
522.72	35959.99
522.89	36194.04
523.07	36322.77
523.24	36608.32
523.41	36870.46
523.58	36809.61
523.75	37326.86
523.92	36753.43
524.10	37350.27
524.27	37282.39
524.44	37329.20
524.61	37223.88
524.78	37305.80
524.96	36973.44
525.13	37319.84
525.30	37495.38
525.47	37607.73
525.64	37680.28
525.81	37649.86
525.98	37462.61
526.16	36954.72
526.33	37022.59
526.50	37303.46
526.67	36786.20
526.84	37106.85
527.01	37387.72
527.18	37174.73
527.36	37923.70
527.53	37961.15
527.70	38455.00
527.87	38270.10
528.04	38059.45
528.21	38274.78
528.38	38110.94
528.55	38497.13
528.72	38642.24
528.89	38340.32
529.07	38775.66
529.24	38518.20
529.41	38696.08
529.58	38557.99
529.75	38213.93
529.92	39072.90
530.09	38637.56
530.26	39281.21
530.43	38916.09
530.60	39210.99
530.77	39110.35
530.94	39405.26
531.11	38733.53
531.28	39468.45
531.46	39370.15
531.63	39487.18
531.80	39178.23
531.97	39346.75
532.14	39332.70
532.31	38941.83
532.48	39365.47
532.65	39255.46
532.82	39742.30
532.99	39405.26
533.16	39590.16
533.33	39688.46
533.50	39812.51
533.67	39828.90
533.84	39629.95
534.01	40292.32
534.18	39758.68
534.35	40069.97
534.52	39782.09
534.69	39847.62
534.86	40378.92
535.03	40378.92
535.20	40238.49
535.37	40825.96
535.54	41027.25
535.71	40407.01
535.88	40928.95
536.05	40395.31
536.22	40563.82
536.38	40451.48
536.55	40797.88
536.72	40818.94
536.89	40360.20
537.06	40259.55
537.23	40832.99
537.40	40774.47
537.57	40753.41
537.74	41106.83
537.91	40863.41
538.08	41022.57
538.25	40774.47
538.42	41371.31
538.59	41228.54
538.75	40601.27
538.92	41020.23
539.09	41586.64
539.26	41137.26
539.43	40917.25
539.60	41237.90
539.77	40950.01
539.94	41312.80
540.11	41401.74
540.28	41170.02
540.44	41713.03
540.61	41691.96
540.78	41352.58
540.95	41502.38
541.12	41439.18
541.29	41193.43
541.46	41661.54
541.62	41951.76
541.79	41883.89
541.96	41663.88
542.13	41731.75
542.30	41720.05
542.47	41876.86
542.63	41918.99
542.80	42167.09
542.97	42494.77
543.14	42600.09
543.31	42674.99
543.48	42443.27
543.64	42576.69
543.81	42541.58
543.98	42707.76
544.15	42377.74
544.32	42396.46
544.48	43091.60
544.65	42712.44
544.82	42539.24
544.99	42515.83
545.16	42319.23
545.32	42745.20
545.49	43306.93
545.66	43030.75
545.83	43168.84
546.00	43100.97
546.16	43007.34
546.33	42979.26
546.50	42822.44
546.67	43243.74
546.83	42714.78
547.00	42857.55
547.17	42859.89
547.34	42979.26
547.50	43117.35
547.67	43604.18
547.84	43089.26
548.00	43344.38
548.17	43255.44
548.34	43419.28
548.51	43814.83
548.67	43878.02
548.84	43510.56
549.01	43393.53
549.18	43335.02
549.34	43611.20
549.51	43466.09
549.68	43791.42
549.84	43658.01
550.01	44313.36
550.18	43566.73
550.34	43658.01
550.51	43934.20
550.68	43728.23
550.84	43438.00
551.01	43512.90
551.18	43683.76
551.34	43484.81
551.51	44102.71
551.68	44039.52
551.84	44163.57
552.01	43908.45
552.18	44032.50
552.34	43604.18
552.51	44072.29
552.68	44030.16
552.84	44158.89
553.01	44175.27
553.18	43981.01
553.34	44018.46
553.51	44238.47
553.67	44060.58
553.84	44650.40
554.01	44584.86
554.17	44781.47
554.34	44542.74
554.51	44238.47
554.67	44168.25
554.84	44418.69
555.00	44271.23
555.17	44140.16
555.33	44676.15
555.50	44634.02
555.67	44388.26
555.83	44708.91
556.00	44748.70
556.16	44823.60
556.33	44659.76
556.50	44465.50
556.66	44732.32
556.83	44456.14
556.99	44940.63
557.16	44725.30
557.32	44488.90
557.49	45104.46
557.65	44985.10
557.82	44701.89
557.98	44584.86
558.15	45113.83
558.32	45240.21
558.48	44744.02
558.65	44760.40
558.81	44823.60
558.98	44877.43
559.14	44399.96
559.31	44659.76
559.47	44732.32
559.64	44758.06
559.80	45074.04
559.97	44601.25
560.13	44655.08
560.30	45200.43
560.46	44919.56
560.63	45219.15
560.79	45102.12
560.96	45443.84
561.12	45170.00
561.29	44832.96
561.45	45048.29
561.61	45123.19
561.78	45200.43
561.94	45125.53
562.11	45036.59
562.27	44774.45
562.44	45577.25
562.60	45408.73
562.77	45186.38
562.93	45277.66
563.10	45275.32
563.26	44992.12
563.42	45607.68
563.59	44884.45
563.75	45593.64
563.92	45537.46
564.08	45478.95
564.24	45378.31
564.41	45619.38
564.57	45336.18
564.74	44898.50
564.90	45268.30
565.07	45539.80
565.23	45254.26
565.39	45024.89
565.56	45382.99
565.72	45294.05
565.88	45528.10
566.05	45113.83
566.21	45525.76
566.38	45532.78
566.54	45666.19
566.70	45909.61
566.87	45799.60
567.03	45439.16
567.19	45923.65
567.36	46267.71
567.52	45359.58
567.68	45333.84
567.85	45345.54
568.01	45418.10
568.17	45191.06
568.34	45701.30
568.50	45581.93
568.66	45584.27
568.83	46103.87
568.99	45427.46
569.15	45221.49
569.32	45663.85
569.48	45614.70
569.64	45933.01
569.81	45958.76
569.97	45743.43
570.13	45532.78
570.30	45839.39
570.46	44732.32
570.62	44886.79
570.78	45425.12
570.95	45036.59
571.11	45595.98
571.27	45153.62
571.43	45448.52
571.60	45727.05
571.76	45457.88
571.92	45567.89
572.09	46024.29
572.25	46131.96
572.41	45986.85
572.57	45837.05
572.74	46146.00
572.90	45876.84
573.06	45516.40
573.22	45572.57
573.38	45811.31
573.55	45755.13
573.71	45694.28
573.87	45930.67
574.03	45649.81
574.20	46127.28
574.36	45687.26
574.52	45574.91
574.68	45626.40
574.84	45705.98
575.01	46066.42
575.17	45869.82
575.33	45607.68
575.49	45476.61
575.65	45839.39
575.82	45771.52
575.98	45677.90
576.14	45970.46
576.30	45916.63
576.46	45532.78
576.62	45869.82
576.79	45874.50
576.95	45851.09
577.11	45713.00
577.27	45619.38
577.43	45778.54
577.59	45497.67
577.75	45399.37
577.92	45425.12
578.08	45469.59
578.24	45500.01
578.40	45968.12
578.56	45902.59
578.72	45504.70
578.88	46230.26
579.04	45858.12
579.21	45869.82
579.37	45504.70
579.53	45624.06
579.69	45600.66
579.85	45668.53
580.01	45521.08
580.17	45443.84
580.33	45860.46
580.49	46263.03
580.65	46028.98
580.82	45614.70
580.98	45453.20
581.14	45478.95
581.30	45708.32
581.46	45815.99
581.62	45752.79
581.78	45825.35
581.94	46073.45
582.10	45991.53
582.26	45914.29
582.42	45610.02
582.58	46370.69
582.74	45769.18
582.90	45907.27
583.06	46351.97
583.22	46328.56
583.38	46438.57
583.54	46288.77
583.70	45682.58
583.86	45546.82
584.02	45790.24
584.18	46059.40
584.34	45925.99
584.50	46017.27
584.66	45631.08
584.82	45989.19
584.98	46209.20
585.14	46330.90
585.30	45666.19
585.46	46012.59
585.62	45577.25
585.78	45710.66
585.94	45830.03
586.10	46202.18
586.26	45666.19
586.42	46316.86
586.58	45834.71
586.74	45801.94
586.90	45666.19
587.06	46059.40
587.22	45923.65
587.38	45888.54
587.54	46052.38
587.70	46300.48
587.86	46185.79
588.02	45743.43
588.18	45785.56
588.34	45956.42
588.49	45261.28
588.65	45317.45
588.81	45193.40
588.97	45813.65
589.13	45404.05
589.29	45504.70
589.45	45769.18
589.61	45581.93
589.77	46230.26
589.93	45914.29
