SpectraSuite Data File
++++++++++++++++++++++++++++++++++++
Date: Fri Oct 25 11:23:14 EDT 2013
User: price-jones
Dark Spectrum Present: No
Reference Spectrum Present: No
Number of Sampled Component Spectra: 1
Spectrometers: USB2+H05261
Integration Time (usec): 100000 (USB2+H05261)
Spectra Averaged: 1 (USB2+H05261)
Boxcar Smoothing: 0 (USB2+H05261)
Correct for Electrical Dark: No (USB2+H05261)
Strobe/Lamp Enabled: No (USB2+H05261)
Correct for Detector Non-linearity: No (USB2+H05261)
Correct for Stray Light: No (USB2+H05261)
Number of Pixels in Processed Spectrum: 2048
>>>>>Begin Processed Spectral Data<<<<<
365.73	234.05
365.92	234.05
366.12	234.05
366.32	140.43
366.52	177.88
366.72	166.18
366.91	128.73
367.11	128.73
367.31	74.90
367.51	128.73
367.70	180.22
367.90	79.58
368.10	110.01
368.30	102.98
368.49	110.01
368.69	138.09
368.89	128.73
369.09	72.56
369.28	159.16
369.48	173.20
369.68	187.24
369.87	149.79
370.07	149.79
370.27	259.80
370.47	322.99
370.66	550.03
370.86	545.34
371.06	683.44
371.25	695.14
371.45	603.86
371.65	697.48
371.84	589.82
372.04	676.41
372.24	730.25
372.44	718.54
372.63	674.07
372.83	751.31
373.03	741.95
373.22	676.41
373.42	667.05
373.62	758.33
373.81	781.74
374.01	816.85
374.21	816.85
374.40	802.80
374.60	868.34
374.79	807.48
374.99	788.76
375.19	791.10
375.38	798.12
375.58	851.96
375.78	882.38
375.97	770.04
376.17	940.90
376.37	791.10
376.56	795.78
376.76	898.77
376.95	868.34
377.15	898.77
377.35	905.79
377.54	851.96
377.74	849.61
377.93	877.70
378.13	950.26
378.33	887.06
378.52	863.66
378.72	940.90
378.91	910.47
379.11	997.07
379.31	990.05
379.50	1004.09
379.70	994.73
379.89	1015.79
380.09	1004.09
380.28	912.81
380.48	1018.13
380.68	1062.60
380.87	1011.11
381.07	966.64
381.26	987.71
381.46	1057.92
381.65	1043.88
381.85	976.00
382.04	1074.31
382.24	1046.22
382.43	924.51
382.63	1046.22
382.83	1125.80
383.02	1069.62
383.22	1107.07
383.41	1088.35
383.61	1086.01
383.80	1104.73
384.00	1170.27
384.19	1177.29
384.39	1036.86
384.58	1177.29
384.78	1095.37
384.97	1104.73
385.17	1081.33
385.36	1221.76
385.56	1188.99
385.75	1128.14
385.95	1160.91
386.14	1268.57
386.34	1214.74
386.53	1217.08
386.72	1259.21
386.92	1259.21
387.11	1261.55
387.31	1287.29
387.50	1282.61
387.70	1273.25
387.89	1317.72
388.09	1355.17
388.28	1256.87
388.48	1228.78
388.67	1299.00
388.86	1334.11
389.06	1317.72
389.25	1334.11
389.45	1306.02
389.64	1411.34
389.84	1355.17
390.03	1329.42
390.22	1420.71
390.42	1341.13
390.61	1413.68
390.81	1383.26
391.00	1341.13
391.19	1394.96
391.39	1427.73
391.58	1448.79
391.78	1331.76
391.97	1481.56
392.16	1476.88
392.36	1558.80
392.55	1556.46
392.75	1521.35
392.94	1483.90
393.13	1591.56
393.33	1603.27
393.52	1544.75
393.71	1614.97
393.91	1610.29
394.10	1575.18
394.29	1549.43
394.49	1652.42
394.68	1612.63
394.88	1769.44
395.07	1720.29
395.26	1570.50
395.46	1771.79
395.65	1673.48
395.84	1668.80
396.04	1797.53
396.23	1799.87
396.42	1792.85
396.62	1802.21
396.81	1729.66
397.00	1813.92
397.19	1820.94
397.39	1722.63
397.58	1715.61
397.77	1722.63
397.97	1785.83
398.16	1804.55
398.35	1900.52
398.55	1919.24
398.74	2008.18
398.93	1956.69
399.12	1968.39
399.32	1966.05
399.51	1856.04
399.70	2094.78
399.90	1928.60
400.09	2059.67
400.28	2033.93
400.47	1952.01
400.67	2036.27
400.86	2106.48
401.05	2057.33
401.24	2129.89
401.44	1994.14
401.63	2216.49
401.82	2179.04
402.01	2214.15
402.21	2179.04
402.40	2265.64
402.59	2176.70
402.78	2165.00
402.97	2218.83
403.17	2270.32
403.36	2232.87
403.55	2246.91
403.74	2420.11
403.93	2333.51
404.13	2392.03
404.32	2333.51
404.51	2455.22
404.70	2469.27
404.89	2366.28
405.09	2436.50
405.28	2399.05
405.47	2417.77
405.66	2541.82
405.85	2527.78
406.05	2462.24
406.24	2642.46
406.43	2459.90
406.62	2696.30
406.81	2663.53
407.00	2558.21
407.20	2583.95
407.39	2579.27
407.58	2661.19
407.77	2820.35
407.96	2834.39
408.15	2717.36
408.34	2829.71
408.54	2801.62
408.73	2822.69
408.92	2803.96
409.11	2902.26
409.30	3066.10
409.49	2942.05
409.68	2960.78
409.87	2949.08
410.07	3016.95
410.26	3068.44
410.45	3028.65
410.64	3108.23
410.83	3122.27
411.02	3103.55
411.21	3171.43
411.40	3143.34
411.59	3316.54
411.78	3258.03
411.98	3269.73
412.17	3314.20
412.36	3166.74
412.55	3398.46
412.74	3480.38
412.93	3506.12
413.12	3428.88
413.31	3529.53
413.50	3447.61
413.69	3513.14
413.88	3557.61
414.07	3515.48
414.26	3672.30
414.45	3693.37
414.64	3765.92
414.83	3758.90
415.02	3709.75
415.22	3908.69
415.41	3852.52
415.60	3932.10
415.79	3854.86
415.98	4025.72
416.17	3955.51
416.36	3988.27
416.55	4025.72
416.74	4142.75
416.93	4079.55
417.12	4114.66
417.31	4196.58
417.50	4156.79
417.69	4379.14
417.88	4402.55
418.07	4236.37
418.26	4409.57
418.45	4327.65
418.64	4505.53
418.83	4540.64
419.02	4456.38
419.21	4676.39
419.39	4573.41
419.58	4505.53
419.77	4514.89
419.96	4748.95
420.15	4652.98
420.34	4664.69
420.53	4472.76
420.72	4753.63
420.91	4772.35
421.10	4802.78
421.29	4973.64
421.48	4826.18
421.67	4828.53
421.86	4842.57
422.05	4793.42
422.24	4854.27
422.43	4983.00
422.61	5015.77
422.80	5177.26
422.99	4875.34
423.18	4999.38
423.37	4966.62
423.56	4865.97
423.75	4877.68
423.94	4795.76
424.13	4739.58
424.32	4830.87
424.50	4961.94
424.69	5071.94
424.88	5205.35
425.07	4868.31
425.26	4905.76
425.45	4947.89
425.64	4975.98
425.83	5057.90
426.01	5172.58
426.20	5163.22
426.39	5074.28
426.58	4994.70
426.77	5207.69
426.96	5130.45
427.15	5163.22
427.33	5240.46
427.52	5207.69
427.71	5242.80
427.90	5268.55
428.09	5383.23
428.28	5390.25
428.46	5418.34
428.65	5320.04
428.84	5556.43
429.03	5600.90
429.22	5343.44
429.40	5507.28
429.59	5561.11
429.78	5294.29
429.97	5315.36
430.16	5448.77
430.34	5547.07
430.53	5785.80
430.72	5598.56
430.91	5687.50
431.10	5687.50
431.28	5849.00
431.47	5734.31
431.66	6036.24
431.85	5926.24
432.03	5898.15
432.22	5956.66
432.41	5973.05
432.60	5849.00
432.79	5886.45
432.97	6225.82
433.16	6026.88
433.35	6209.44
433.54	6246.89
433.72	6078.37
433.91	6099.44
434.10	6265.61
434.28	6087.73
434.47	6071.35
434.66	6326.47
434.85	6223.48
435.03	6197.74
435.22	6356.90
435.41	6555.84
435.59	6607.33
435.78	6476.26
435.97	6462.22
436.16	6499.67
436.34	6675.21
436.53	6684.57
436.72	6633.08
436.90	6553.50
437.09	6677.55
437.28	6590.95
437.46	6677.55
437.65	6649.46
437.84	6817.98
438.02	6736.06
438.21	6883.52
438.40	6663.51
438.58	7056.72
438.77	7040.33
438.96	7098.84
439.14	7360.98
439.33	7229.91
439.52	7283.75
439.70	7255.66
439.89	7487.37
440.08	7272.04
440.26	7438.22
440.45	7234.60
440.63	7517.80
440.82	7688.66
441.01	7632.49
441.19	7735.47
441.38	7606.74
441.57	7798.66
441.75	7831.43
441.94	8131.02
442.12	8189.53
442.31	8025.70
442.50	8238.69
442.68	8133.36
442.87	8105.28
443.05	8271.45
443.24	8365.07
443.43	8341.67
443.61	8271.45
443.80	8329.97
443.98	8231.66
444.17	7873.56
444.35	8306.56
444.54	8329.97
444.73	8568.70
444.91	8306.56
445.10	8346.35
445.28	8313.58
445.47	8252.73
445.65	8564.02
445.84	8475.08
446.02	8610.83
446.21	8313.58
446.39	8290.18
446.58	8500.83
446.77	8732.54
446.95	8351.03
447.14	8596.79
447.32	8676.37
447.51	8510.19
447.69	8526.57
447.88	8767.65
448.06	8542.96
448.25	8535.93
448.43	8585.08
448.62	8695.09
448.80	8430.61
448.99	8777.01
449.17	8879.99
449.36	8704.45
449.54	8908.08
449.73	9130.43
449.91	9263.84
450.10	9039.15
450.28	9137.45
450.46	9001.70
450.65	9139.79
450.83	9238.09
451.02	8931.48
451.20	9289.59
451.39	9235.75
451.57	9277.88
451.76	9107.02
451.94	9235.75
452.13	9591.52
452.31	9530.66
452.49	9301.29
452.68	9451.08
452.86	9547.05
453.05	9385.55
453.23	9694.50
453.42	9530.66
453.60	9163.20
453.78	9708.54
453.97	9490.87
454.15	9462.79
454.34	9584.49
454.52	9762.37
454.70	9799.82
454.89	9703.86
455.07	9970.68
455.26	10169.63
455.44	10036.22
455.62	10108.77
455.81	10019.83
455.99	10106.43
456.17	10031.54
456.36	10223.46
456.54	10061.96
456.73	10457.51
456.91	10703.27
457.09	10595.61
457.28	10743.06
457.46	10384.96
457.64	10712.63
457.83	10635.39
458.01	10604.97
458.19	10857.75
458.38	10729.02
458.56	10808.59
458.74	10684.55
458.93	10712.63
459.11	10778.17
459.29	10916.26
459.48	10970.09
459.66	10986.47
459.84	10888.17
460.03	11192.44
460.21	11136.27
460.39	11073.07
460.57	11126.91
460.76	11075.42
460.94	11375.00
461.12	11342.24
461.31	11295.43
461.49	11281.38
461.67	11269.68
461.85	11548.20
462.04	11445.22
462.22	11545.86
462.40	11712.04
462.59	11590.33
462.77	11695.66
462.95	11765.87
463.13	11782.26
463.32	11754.17
463.50	11782.26
463.68	11948.43
463.86	11850.13
464.05	11719.06
464.23	11620.76
464.41	12063.12
464.59	11943.75
464.78	12301.86
464.96	12135.68
465.14	12105.25
465.32	12341.64
465.50	12168.45
465.69	12400.16
465.87	12070.14
466.05	12222.28
466.23	12222.28
466.41	12318.24
466.60	12678.68
466.78	12245.68
466.96	12313.56
467.14	12578.04
467.32	12498.46
467.51	12666.98
467.69	12332.28
467.87	12711.45
468.05	12690.38
468.23	12683.36
468.41	12648.26
468.60	12737.20
468.78	13104.66
468.96	12751.24
469.14	13025.08
469.32	13001.68
469.50	12720.81
469.69	13034.44
469.87	13231.05
470.05	13193.60
470.23	13422.97
470.41	13397.23
470.59	13446.38
470.77	13390.20
470.95	13231.05
471.14	13343.39
471.32	13097.64
471.50	13525.96
471.68	13685.11
471.86	13745.97
472.04	13958.96
472.22	14228.12
472.40	13776.39
472.58	14092.37
472.77	14202.37
472.95	14375.57
473.13	14642.39
473.31	14314.72
473.49	14312.38
473.67	14204.71
473.85	14185.99
474.03	14974.75
474.21	14754.74
474.39	14850.70
474.57	14850.70
474.75	15108.16
474.93	15131.56
475.12	14909.21
475.30	15307.10
475.48	15433.49
475.66	15527.11
475.84	15314.13
476.02	15452.22
476.20	15695.63
476.38	15730.74
476.56	16002.24
476.74	16486.73
476.92	15948.41
477.10	15962.45
477.28	16402.47
477.46	16301.83
477.64	16641.21
477.82	16622.48
478.00	17224.00
478.18	17099.95
478.36	16891.65
478.54	17401.88
478.72	17444.01
478.90	17565.72
479.08	17675.73
479.26	17806.80
479.44	17898.08
479.62	18040.85
479.80	18104.04
479.98	18253.84
480.16	18785.14
480.34	18614.28
480.52	18855.36
480.70	18478.53
480.88	18621.30
481.06	18766.42
481.24	19061.32
481.41	19321.12
481.59	19697.95
481.77	19765.82
481.95	19777.53
482.13	19690.93
482.31	19730.72
482.49	20500.75
482.67	20510.11
482.85	20556.93
483.03	20783.96
483.21	20898.64
483.39	21259.09
483.57	20751.19
483.74	21170.15
483.92	21834.86
484.10	21762.30
484.28	22045.51
484.46	22108.70
484.64	22412.97
484.82	22059.55
485.00	22457.44
485.18	22965.34
485.35	23304.71
485.53	23047.26
485.71	23084.70
485.89	23791.55
486.07	23847.72
486.25	23786.86
486.43	24147.31
486.61	24126.24
486.78	23920.28
486.96	24505.41
487.14	24781.59
487.32	24917.34
487.50	25315.23
487.68	25528.22
487.85	25413.54
488.03	25989.31
488.21	26078.25
488.39	25806.75
488.57	26419.97
488.75	26522.95
488.92	26700.83
489.10	27007.44
489.28	26965.31
489.46	27623.00
489.64	27353.84
489.81	27681.52
489.99	27770.46
490.17	27798.54
490.35	28306.44
490.53	28774.55
490.70	28477.30
490.88	28734.76
491.06	29221.59
491.24	29111.58
491.41	29450.96
491.59	29926.09
491.77	29603.10
491.95	29940.13
492.13	29914.39
492.30	30150.78
492.48	30347.39
492.66	30490.16
492.84	30806.13
493.01	31199.34
493.19	30796.77
493.37	31246.15
493.54	31316.37
493.72	31978.74
493.90	31934.27
494.08	32322.80
494.25	32283.01
494.43	32514.72
494.61	32606.00
494.79	33127.94
494.96	33219.22
495.14	33156.03
495.32	33453.28
495.49	33434.55
495.67	33373.70
495.85	33743.50
496.02	34052.45
496.20	33933.09
496.38	34368.43
496.55	34616.52
496.73	35211.02
496.91	34796.74
497.09	35454.44
497.26	35660.40
497.44	35470.82
497.62	35583.16
497.79	36236.17
497.97	35868.71
498.14	36135.53
498.32	36348.52
498.50	36500.65
498.67	36849.39
498.85	36498.31
499.03	37076.43
499.20	37078.77
499.38	37425.17
499.56	37495.38
499.73	37560.92
499.91	37914.34
500.08	38286.48
500.26	37607.73
500.44	38181.16
500.61	38426.92
500.79	38298.19
500.97	38515.86
501.14	39049.50
501.32	39037.80
501.49	39173.55
501.67	39215.68
501.84	39199.29
502.02	39168.87
502.20	39349.09
502.37	39679.10
502.55	39590.16
502.72	39784.43
502.90	39800.81
503.07	39828.90
503.25	40308.71
503.43	40182.32
503.60	40652.76
503.78	40177.64
503.95	40987.46
504.13	40947.67
504.30	41053.00
504.48	41249.60
504.65	41177.04
504.83	41834.74
505.01	41638.13
505.18	41963.46
505.36	42043.04
505.53	41319.82
505.71	42068.79
505.88	42050.06
506.06	41450.89
506.23	42354.33
506.41	42101.56
506.58	42274.76
506.76	42866.91
506.93	42763.93
507.11	43215.65
507.28	42899.68
507.46	42934.79
507.63	43107.99
507.81	43548.01
507.98	43189.91
508.16	43674.40
508.33	43580.78
508.50	43868.66
508.68	43849.94
508.85	44247.83
509.03	44282.94
509.20	44271.23
509.38	44282.94
509.55	44676.15
509.73	44931.26
509.90	44769.77
510.08	44903.18
510.25	44928.92
510.42	45427.46
510.60	45439.16
510.77	45734.07
510.95	45935.35
511.12	45240.21
511.30	45673.21
511.47	45579.59
511.64	46057.06
511.82	46340.27
511.99	45996.21
512.17	46082.81
512.34	46342.61
512.51	46864.55
512.69	47054.13
512.86	46639.86
513.04	47143.07
513.21	46988.60
513.38	47000.30
513.56	47660.33
513.73	47192.22
513.90	47323.29
514.08	47246.05
514.25	47512.88
514.43	47669.69
514.60	47849.91
514.77	47482.45
514.95	48076.94
515.12	47997.37
515.29	47601.82
515.47	48556.75
515.64	48580.16
515.81	48362.49
515.99	48624.63
516.16	48765.06
516.33	48502.92
516.51	48952.30
516.68	48956.99
516.85	48964.01
517.03	49177.00
517.20	49460.20
517.37	49193.38
517.54	49113.80
517.72	49385.30
517.89	49439.14
518.06	49724.68
518.24	49567.87
518.41	49811.28
518.58	49811.28
518.75	49263.60
518.93	50239.60
519.10	49773.83
519.27	50003.20
519.45	50087.46
519.62	50384.71
519.79	50471.31
519.96	50389.39
520.14	50578.98
520.31	50365.99
520.48	50681.96
520.65	50726.43
520.83	50866.86
521.00	51023.68
521.17	51023.68
521.34	50920.70
521.52	51213.26
521.69	51257.73
521.86	51374.76
522.03	51571.36
522.20	52020.75
522.38	51842.87
522.55	51477.74
522.72	51770.31
522.89	51899.04
523.07	52030.11
523.24	51723.50
523.41	51730.52
523.58	52079.26
523.75	52112.03
523.92	51845.21
524.10	52172.88
524.27	52275.87
524.44	52020.75
524.61	52282.89
524.78	52484.17
524.96	52598.86
525.13	52666.73
525.30	53043.56
525.47	52903.13
525.64	52758.02
525.81	52884.40
525.98	53174.63
526.16	52685.46
526.33	52811.85
526.50	53263.57
526.67	53305.70
526.84	53118.46
527.01	53298.68
527.18	53066.97
527.36	53703.59
527.53	53331.45
527.70	53490.60
527.87	53626.35
528.04	53413.37
528.21	53652.10
528.38	53532.73
528.55	53811.26
528.72	53734.02
528.89	53654.44
529.07	53556.14
529.24	53647.42
529.41	53961.05
529.58	53783.17
529.75	53874.45
529.92	54033.61
530.09	54138.93
530.26	54330.86
530.43	54260.64
530.60	54120.21
530.77	54197.44
530.94	54262.98
531.11	54232.55
531.28	54431.50
531.46	54372.99
531.63	54293.41
531.80	54457.24
531.97	54691.30
532.14	54941.74
532.31	54719.38
532.48	54883.22
532.65	54810.67
532.82	54864.50
532.99	55079.83
533.16	54852.80
533.33	55480.06
533.50	55049.40
533.67	55227.28
533.84	54878.54
534.01	55145.36
534.18	55276.43
534.35	55271.75
534.52	55304.52
534.69	55484.74
534.86	55756.24
535.03	55309.20
535.20	55473.04
535.37	55519.85
535.54	55840.50
535.71	55641.56
535.88	55870.93
536.05	55669.64
536.22	55927.10
536.38	55767.94
536.55	55828.80
536.72	55910.72
536.89	55763.26
537.06	55913.06
537.23	56046.47
537.40	55660.28
537.57	56112.00
537.74	56151.79
537.91	56259.46
538.08	56205.62
538.25	55992.64
538.42	56133.07
538.59	56521.60
538.75	56207.97
538.92	56140.09
539.09	56552.02
539.26	56430.32
539.43	56509.89
539.60	56271.16
539.77	56425.64
539.94	56818.84
540.11	56605.86
540.28	56863.32
540.44	56849.27
540.61	56701.82
540.78	56563.73
540.95	56498.19
541.12	56753.31
541.29	56776.72
541.46	56851.61
541.62	56732.25
541.79	57132.48
541.96	56444.36
542.13	56992.04
542.30	56896.08
542.47	57015.45
542.63	57279.93
542.80	57099.71
542.97	57361.85
543.14	57361.85
543.31	57628.67
543.48	57492.92
543.64	57504.62
543.81	57623.99
543.98	57717.61
544.15	57418.02
544.32	57701.23
544.48	57890.81
544.65	57581.86
544.82	57911.88
544.99	57539.73
545.16	57815.91
545.32	57778.46
545.49	57806.55
545.66	58054.65
545.83	57848.68
546.00	58129.54
546.16	57989.11
546.33	57888.47
546.50	57647.39
546.67	58082.73
546.83	57818.25
547.00	58220.83
547.17	57918.90
547.34	58089.76
547.50	58258.27
547.67	58288.70
547.84	58279.34
548.00	58284.02
548.17	58391.68
548.34	58454.88
548.51	58396.37
548.67	58485.31
548.84	58717.02
549.01	58286.36
549.18	58546.16
549.34	58351.90
549.51	58618.72
549.68	58534.46
549.84	58501.69
550.01	58763.83
550.18	58489.99
550.34	58728.72
550.51	58567.23
550.68	58724.04
550.84	58637.44
551.01	58876.18
551.18	58562.54
551.34	58733.40
551.51	59023.63
551.68	58864.47
551.84	58789.58
552.01	58651.48
552.18	59004.91
552.34	58583.61
552.51	58887.88
552.68	58789.58
552.84	59054.06
553.01	59248.32
553.18	59007.25
553.34	59203.85
553.51	58836.39
553.67	58944.05
553.84	59040.01
554.01	59140.66
554.17	59075.12
554.34	59178.10
554.51	59332.58
554.67	59171.08
554.84	59016.61
555.00	59091.51
555.17	59119.59
555.33	59346.62
555.50	59028.31
555.67	59047.04
555.83	59175.76
556.00	59250.66
556.16	59774.94
556.33	59583.02
556.50	59365.35
556.66	59529.19
556.83	59262.36
556.99	59760.90
557.16	59688.34
557.32	59718.77
557.49	59714.09
557.65	59639.19
557.82	59618.13
557.98	59646.21
558.15	59688.34
558.32	59901.33
558.48	59650.89
558.65	59784.30
558.81	59650.89
558.98	59494.08
559.14	59901.33
559.31	60018.36
559.47	59915.37
559.64	60123.68
559.80	60154.11
559.97	60034.74
560.13	59826.43
560.30	60196.24
560.46	60046.44
560.63	59997.29
560.79	60147.09
560.96	59866.22
561.12	60079.21
561.29	60182.19
561.45	60193.90
561.61	59976.23
561.78	60030.06
561.94	60217.30
562.11	59884.95
562.27	60102.62
562.44	60238.37
562.60	60334.33
562.77	60350.71
562.93	59966.87
563.10	60402.21
563.26	60161.13
563.42	60369.44
563.59	60111.98
563.75	60240.71
563.92	60327.31
564.08	60004.31
564.24	60610.51
564.41	60238.37
564.57	60329.65
564.74	60350.71
564.90	60514.55
565.07	60432.63
565.23	60472.42
565.39	60402.21
565.56	60247.73
565.72	60409.23
565.88	60420.93
566.05	60331.99
566.21	60516.89
566.38	60544.98
566.54	60465.40
566.70	60544.98
566.87	60706.47
567.03	60406.89
567.19	60762.65
567.36	60441.99
567.52	60388.16
567.68	60589.45
567.85	60697.11
568.01	60713.50
568.17	60528.59
568.34	60797.76
568.50	60764.99
568.66	60580.09
568.83	60743.92
568.99	60626.90
569.15	60584.77
569.32	60472.42
569.48	60556.68
569.64	60652.64
569.81	60692.43
569.97	60577.75
570.13	60772.01
570.30	60629.24
570.46	60760.31
570.62	60584.77
570.78	60622.22
570.95	60725.20
571.11	60662.00
571.27	60671.37
571.43	60734.56
571.60	60844.57
571.76	60800.10
571.92	60772.01
572.09	60882.02
572.25	60772.01
572.41	60898.40
572.57	60882.02
572.74	61186.28
572.90	60853.93
573.06	60877.33
573.22	60849.25
573.38	60743.92
573.55	60645.62
573.71	61097.34
573.87	61013.08
574.03	60917.12
574.20	60940.53
574.36	60830.52
574.52	61015.43
574.68	60917.12
574.84	60977.98
575.01	61193.31
575.17	60842.23
575.33	60954.57
575.49	60793.07
575.65	61015.43
575.82	61146.50
575.98	61022.45
576.14	60935.85
576.30	61221.39
576.46	61059.90
576.62	60879.67
576.79	60959.25
576.95	60896.06
577.11	61010.74
577.27	60959.25
577.43	61043.51
577.59	60914.78
577.75	61097.34
577.92	60982.66
578.08	60867.97
578.24	61041.17
578.40	61087.98
578.56	61080.96
578.72	61076.28
578.88	61394.59
579.04	61202.67
579.21	61141.81
579.37	61179.26
579.53	61172.24
579.69	60985.00
579.85	61268.20
580.01	61073.94
580.17	60959.25
580.33	61165.22
580.49	61247.14
580.65	61197.99
580.82	60996.70
580.98	61034.15
581.14	60811.80
581.30	60980.32
581.46	61251.82
581.62	61319.70
581.78	61029.47
581.94	61181.60
582.10	61312.67
582.26	61073.94
582.42	61057.56
582.58	61174.58
582.74	60989.68
582.90	61048.19
583.06	61176.92
583.22	60987.34
583.38	61125.43
583.54	61282.25
583.70	61034.15
583.86	61254.16
584.02	61059.90
584.18	61090.32
584.34	61207.35
584.50	61296.29
584.66	61041.17
584.82	61221.39
584.98	61343.10
585.14	61415.66
585.30	61258.84
585.46	61216.71
585.62	61331.40
585.78	61462.47
585.94	60858.61
586.10	61357.14
586.26	61340.76
586.42	61371.19
586.58	61279.91
586.74	61099.68
586.90	61207.35
587.06	60989.68
587.22	61387.57
587.38	61207.35
587.54	61563.11
587.70	61570.13
587.86	61284.59
588.02	61183.94
588.18	61474.17
588.34	61263.52
