SpectraSuite Data File
++++++++++++++++++++++++++++++++++++
Date: Fri Oct 25 11:22:44 EDT 2013
User: price-jones
Dark Spectrum Present: No
Reference Spectrum Present: No
Number of Sampled Component Spectra: 1
Spectrometers: USB2+H05261
Integration Time (usec): 100000 (USB2+H05261)
Spectra Averaged: 1 (USB2+H05261)
Boxcar Smoothing: 0 (USB2+H05261)
Correct for Electrical Dark: No (USB2+H05261)
Strobe/Lamp Enabled: No (USB2+H05261)
Correct for Detector Non-linearity: No (USB2+H05261)
Correct for Stray Light: No (USB2+H05261)
Number of Pixels in Processed Spectrum: 2048
>>>>>Begin Processed Spectral Data<<<<<
365.73	210.65
365.92	210.65
366.12	210.65
366.32	276.18
366.52	117.03
366.72	142.77
366.91	173.20
367.11	98.30
367.31	81.92
367.51	58.51
367.70	131.07
367.90	138.09
368.10	98.30
368.30	124.05
368.49	128.73
368.69	142.77
368.89	149.79
369.09	133.41
369.28	88.94
369.48	102.98
369.68	159.16
369.87	170.86
370.07	166.18
370.27	259.80
370.47	285.55
370.66	603.86
370.86	636.63
371.06	657.69
371.25	585.13
371.45	690.46
371.65	713.86
371.84	650.67
372.04	683.44
372.24	727.91
372.44	718.54
372.63	737.27
372.83	758.33
373.03	746.63
373.22	767.70
373.42	723.23
373.62	720.88
373.81	814.51
374.01	741.95
374.21	791.10
374.40	779.40
374.60	819.19
374.79	816.85
374.99	863.66
375.19	821.53
375.38	840.25
375.58	809.83
375.78	861.32
375.97	767.70
376.17	840.25
376.37	908.13
376.56	868.34
376.76	891.74
376.95	851.96
377.15	903.45
377.35	931.53
377.54	964.30
377.74	896.43
377.93	968.98
378.13	950.26
378.33	1027.50
378.52	884.72
378.72	933.87
378.91	964.30
379.11	905.79
379.31	924.51
379.50	1071.97
379.70	926.85
379.89	926.85
380.09	933.87
380.28	1032.18
380.48	1018.13
380.68	919.83
380.87	992.39
381.07	1039.20
381.26	1034.52
381.46	1100.05
381.65	1022.81
381.85	1055.58
382.04	1048.56
382.24	1163.25
382.43	1078.99
382.63	1032.18
382.83	1067.28
383.02	1114.10
383.22	1057.92
383.41	1034.52
383.61	1067.28
383.80	1149.20
384.00	1090.69
384.19	1210.06
384.39	1196.01
384.58	1146.86
384.78	1055.58
384.97	1123.46
385.17	1231.12
385.36	1125.80
385.56	1121.12
385.75	1165.59
385.95	1149.20
386.14	1158.57
386.34	1188.99
386.53	1193.67
386.72	1118.78
386.92	1247.51
387.11	1200.69
387.31	1249.85
387.50	1238.14
387.70	1273.25
387.89	1369.21
388.09	1095.37
388.28	1263.89
388.48	1303.68
388.67	1261.55
388.86	1289.64
389.06	1364.53
389.25	1322.40
389.45	1385.60
389.64	1413.68
389.84	1460.49
390.03	1376.24
390.22	1404.32
390.42	1416.02
390.61	1338.79
390.81	1394.96
391.00	1399.64
391.19	1401.98
391.39	1439.43
391.58	1462.83
391.78	1371.55
391.97	1455.81
392.16	1465.18
392.36	1558.80
392.55	1624.33
392.75	1462.83
392.94	1586.88
393.13	1507.30
393.33	1439.43
393.52	1554.12
393.71	1504.96
393.91	1530.71
394.10	1603.27
394.29	1549.43
394.49	1626.67
394.68	1668.80
394.88	1596.25
395.07	1645.40
395.26	1746.04
395.46	1598.59
395.65	1689.87
395.84	1717.95
396.04	1748.38
396.23	1764.76
396.42	1865.41
396.62	1790.51
396.81	1783.49
397.00	1760.08
397.19	1914.56
397.39	1802.21
397.58	1942.64
397.77	1832.64
397.97	1874.77
398.16	1877.11
398.35	1806.89
398.55	1949.67
398.74	1853.70
398.93	1966.05
399.12	1996.48
399.32	1842.00
399.51	1961.37
399.70	2047.97
399.90	1949.67
400.09	2092.44
400.28	2026.90
400.47	2078.40
400.67	2076.06
400.86	1980.09
401.05	2012.86
401.24	2148.61
401.44	2146.27
401.63	2125.21
401.82	2214.15
402.01	2073.71
402.21	2090.10
402.40	2237.55
402.59	2139.25
402.78	2125.21
402.97	2235.21
403.17	2228.19
403.36	2200.10
403.55	2300.75
403.74	2307.77
403.93	2317.13
404.13	2375.64
404.32	2380.32
404.51	2450.54
404.70	2319.47
404.89	2434.16
405.09	2443.52
405.28	2462.24
405.47	2497.35
405.66	2546.50
405.85	2558.21
406.05	2455.22
406.24	2450.54
406.43	2534.80
406.62	2668.21
406.81	2637.78
407.00	2626.08
407.20	2555.86
407.39	2703.32
407.58	2621.40
407.77	2693.96
407.96	2682.25
408.15	2757.15
408.34	2682.25
408.54	2750.13
408.73	2888.22
408.92	2888.22
409.11	2736.09
409.30	2970.14
409.49	2939.71
409.68	2960.78
409.87	2956.10
410.07	3005.25
410.26	3021.63
410.45	2984.18
410.64	3049.72
410.83	3089.51
411.02	3150.36
411.21	3138.66
411.40	3066.10
411.59	3241.64
411.78	3124.62
411.98	3197.17
412.17	3375.05
412.36	3169.09
412.55	3447.61
412.74	3433.57
412.93	3353.99
413.12	3349.31
413.31	3604.42
413.50	3499.10
413.69	3543.57
413.88	3660.60
414.07	3674.64
414.26	3651.24
414.45	3637.19
414.64	3716.77
414.83	3758.90
415.02	3740.18
415.22	3805.71
415.41	3925.08
415.60	3730.81
415.79	3786.99
415.98	3929.76
416.17	3920.40
416.36	4184.88
416.55	4039.76
416.74	4081.89
416.93	4086.58
417.12	4114.66
417.31	4259.78
417.50	4210.62
417.69	4329.99
417.88	4187.22
418.07	4182.54
418.26	4393.19
418.45	4351.06
418.64	4535.96
418.83	4444.68
419.02	4379.14
419.21	4559.36
419.39	4606.17
419.58	4465.74
419.77	4461.06
419.96	4547.66
420.15	4709.16
420.34	4613.20
420.53	4542.98
420.72	4634.26
420.91	4727.88
421.10	4809.80
421.29	5022.79
421.48	4610.86
421.67	4798.10
421.86	4671.71
422.05	4835.55
422.24	4809.80
422.43	4833.21
422.61	4987.68
422.80	5064.92
422.99	4889.38
423.18	4975.98
423.37	5071.94
423.56	4966.62
423.75	5022.79
423.94	4973.64
424.13	4566.39
424.32	4833.21
424.50	4961.94
424.69	5015.77
424.88	5074.28
425.07	4915.12
425.26	4828.53
425.45	5151.52
425.64	4884.70
425.83	5022.79
426.01	4947.89
426.20	5027.47
426.39	5081.30
426.58	5078.96
426.77	5020.45
426.96	5146.84
427.15	5088.32
427.33	5149.18
427.52	5263.86
427.71	5177.26
427.90	5373.87
428.09	5357.49
428.28	5413.66
428.46	5432.38
428.65	5537.71
428.84	5607.92
429.03	5469.83
429.22	5291.95
429.40	5537.71
429.59	5593.88
429.78	5383.23
429.97	5420.68
430.16	5514.30
430.34	5617.29
430.53	5586.86
430.72	5661.76
430.91	5607.92
431.10	5689.84
431.28	5755.38
431.47	5905.17
431.66	5755.38
431.85	5891.13
432.03	5872.40
432.22	6026.88
432.41	5926.24
432.60	5919.21
432.79	5940.28
432.97	6052.63
433.16	6190.72
433.35	6129.86
433.54	6153.27
433.72	6179.01
433.91	6104.12
434.10	6024.54
434.28	5959.00
434.47	6204.76
434.66	6406.05
434.85	6373.28
435.03	6417.75
435.22	6267.95
435.41	6352.21
435.59	6483.28
435.78	6478.60
435.97	6668.19
436.16	6459.88
436.34	6410.73
436.53	6614.35
436.72	6656.48
436.90	6394.34
437.09	6731.38
437.28	6441.15
437.46	6541.80
437.65	6710.32
437.84	6689.25
438.02	6949.05
438.21	6792.23
438.40	6726.70
438.58	7052.03
438.77	7005.22
438.96	6981.82
439.14	7012.24
439.33	7253.32
439.52	7084.80
439.70	7309.49
439.89	7281.41
440.08	7426.52
440.26	7431.20
440.45	7267.36
440.63	7463.97
440.82	7637.17
441.01	7576.31
441.19	7779.94
441.38	7779.94
441.57	7562.27
441.75	7941.44
441.94	7960.16
442.12	7964.84
442.31	7873.56
442.50	7929.74
442.68	7901.65
442.87	8231.66
443.05	7976.55
443.24	8205.92
443.43	8016.33
443.61	8128.68
443.80	8655.30
443.98	8135.70
444.17	7779.94
444.35	8238.69
444.54	8273.79
444.73	8341.67
444.91	8304.22
445.10	8374.44
445.28	8451.67
445.47	8372.10
445.65	8250.39
445.84	8702.11
446.02	8629.56
446.21	8119.32
446.39	8451.67
446.58	8524.23
446.77	8643.60
446.95	8266.77
447.14	8549.98
447.32	8652.96
447.51	8397.84
447.69	8578.06
447.88	8772.33
448.06	8662.32
448.25	8470.40
448.43	8692.75
448.62	8631.90
448.80	8428.27
448.99	8631.90
449.17	8596.79
449.36	8500.83
449.54	8805.10
449.73	8931.48
449.91	8945.53
450.10	8985.32
450.28	9135.11
450.46	9034.47
450.65	9170.22
450.83	9135.11
451.02	8994.68
451.20	9130.43
451.39	9184.26
451.57	9240.44
451.76	9181.92
451.94	9193.62
452.13	9261.50
452.31	9179.58
452.49	9163.20
452.68	9570.45
452.86	9392.57
453.05	9371.50
453.23	9652.37
453.42	9224.05
453.60	9404.27
453.78	9495.55
453.97	9631.30
454.15	9549.39
454.34	9507.26
454.52	9762.37
454.70	9778.76
454.89	9886.42
455.07	9738.97
455.26	9783.44
455.44	10052.60
455.62	10001.11
455.81	9820.89
455.99	9958.98
456.17	10150.90
456.36	10111.11
456.54	10230.48
456.73	10406.02
456.91	10569.86
457.09	10555.82
457.28	10754.76
457.46	10506.66
457.64	10619.01
457.83	10661.14
458.01	10523.05
458.19	10729.02
458.38	10539.43
458.56	10677.52
458.74	10724.33
458.93	10698.59
459.11	10853.06
459.29	10874.13
459.48	11059.03
459.66	10899.87
459.84	10932.64
460.03	11105.84
460.21	11054.35
460.39	11131.59
460.57	11140.95
460.76	11192.44
460.94	11166.70
461.12	11339.90
461.31	11089.46
461.49	11236.91
461.67	11176.06
461.85	11506.07
462.04	11335.21
462.22	11826.73
462.40	11669.91
462.59	11248.61
462.77	11433.52
462.95	11709.70
463.13	11616.08
463.32	11529.48
463.50	11651.19
463.68	11597.35
463.86	11983.54
464.05	11662.89
464.23	11660.55
464.41	11906.31
464.59	11861.84
464.78	12241.00
464.96	11981.20
465.14	11826.73
465.32	12035.03
465.50	11997.59
465.69	12163.76
465.87	12318.24
466.05	12203.55
466.23	12138.02
466.41	12290.15
466.60	12573.36
466.78	12533.57
466.96	12116.95
467.14	12313.56
467.32	12446.97
467.51	12608.47
467.69	12425.90
467.87	12636.55
468.05	12641.23
468.23	12688.04
468.41	12514.84
468.60	12678.68
468.78	12781.67
468.96	12496.12
469.14	13102.32
469.32	12868.27
469.50	12549.95
469.69	13327.01
469.87	13249.77
470.05	13224.03
470.23	13202.96
470.41	13249.77
470.59	13221.69
470.77	13214.66
470.95	13202.96
471.14	13675.75
471.32	13310.63
471.50	13617.24
471.68	13535.32
471.86	13832.57
472.04	13905.12
472.22	14291.31
472.40	13823.20
472.58	13987.04
472.77	14075.98
472.95	14204.71
473.13	14920.92
473.31	14052.58
473.49	14097.05
473.67	14382.59
473.85	14293.65
474.03	14658.78
474.21	14691.54
474.39	14991.13
474.57	14874.10
474.75	15016.88
474.93	14984.11
475.12	14878.79
475.30	15459.24
475.48	15154.97
475.66	15325.83
475.84	15213.48
476.02	15515.41
476.20	15419.45
476.38	15704.99
476.56	16173.10
476.74	16077.14
476.92	15892.24
477.10	15857.13
477.28	16367.37
477.46	16145.02
477.64	16060.76
477.82	16369.71
478.00	16926.75
478.18	16950.16
478.36	17238.05
478.54	17357.41
478.72	17500.19
478.90	17652.32
479.08	17757.64
479.26	17575.08
479.44	17886.37
479.62	17750.62
479.80	18143.83
479.98	18190.64
480.16	18436.40
480.34	18405.97
480.52	18637.69
480.70	18750.03
480.88	18415.34
481.06	18899.83
481.24	19080.05
481.41	19208.78
481.59	19236.86
481.77	19648.80
481.95	19524.75
482.13	19796.25
482.31	19791.57
482.49	20390.75
482.67	20493.73
482.85	20393.09
483.03	20617.78
483.21	20737.15
483.39	20959.50
483.57	21106.95
483.74	21331.64
483.92	21528.25
484.10	21446.33
484.28	21544.63
484.46	22195.30
484.64	22424.67
484.82	22118.06
485.00	22270.20
485.18	23005.13
485.35	23328.12
485.53	22827.24
485.71	23070.66
485.89	23510.68
486.07	23367.91
486.25	23590.26
486.43	23845.38
486.61	23693.24
486.78	24114.54
486.96	24116.88
487.14	24720.74
487.32	24828.40
487.50	25216.93
487.68	25188.85
487.85	25432.26
488.03	25720.15
488.21	26113.36
488.39	25837.17
488.57	26309.96
488.75	26518.27
488.92	26757.00
489.10	26881.05
489.28	26923.18
489.46	27410.01
489.64	27019.14
489.81	27889.82
489.99	27601.94
490.17	28072.39
490.35	28442.19
490.53	28451.55
490.70	28648.16
490.88	28479.64
491.06	28889.23
491.24	29294.14
491.41	28982.85
491.59	29586.71
491.77	29460.32
491.95	29738.85
492.13	29586.71
492.30	30155.46
492.48	30398.88
492.66	30443.35
492.84	30707.83
493.01	30614.21
493.19	30967.63
493.37	30874.01
493.54	31070.61
493.72	32121.51
493.90	31545.74
494.08	32278.33
494.25	32584.94
494.43	32116.83
494.61	32301.73
494.79	32606.00
494.96	32587.28
495.14	33078.79
495.32	33504.77
495.49	33146.67
495.67	33467.32
495.85	33450.94
496.02	33886.28
496.20	34211.61
496.38	33993.94
496.55	34356.72
496.73	34824.83
496.91	34536.94
497.09	34859.94
497.26	34937.18
497.44	35232.08
497.62	35470.82
497.79	36105.10
497.97	35784.45
498.14	36259.58
498.32	36769.82
498.50	36233.83
498.67	37008.55
498.85	36500.65
499.03	36863.44
499.20	36758.11
499.38	37153.66
499.56	37553.90
499.73	37368.99
499.91	37544.53
500.08	37886.25
500.26	37684.97
500.44	38014.98
500.61	37867.53
500.79	37703.69
500.97	38499.47
501.14	39140.78
501.32	38237.33
501.49	38682.03
501.67	38719.48
501.84	39096.31
502.02	39328.02
502.20	39494.20
502.37	39428.66
502.55	39658.04
502.72	39782.09
502.90	39667.40
503.07	39714.21
503.25	40322.75
503.43	39697.83
503.60	40168.27
503.78	40191.68
503.95	40367.22
504.13	40690.21
504.30	41064.70
504.48	40830.65
504.65	40835.33
504.83	41443.87
505.01	41790.27
505.18	41504.72
505.36	41666.22
505.53	41460.25
505.71	41865.16
505.88	42241.99
506.06	41986.87
506.23	42225.60
506.41	42129.64
506.58	42047.72
506.76	42548.60
506.93	42337.95
507.11	42684.35
507.28	42550.94
507.46	42885.64
507.63	43100.97
507.81	43124.37
507.98	43143.09
508.16	43555.03
508.33	43597.16
508.50	43922.49
508.68	43744.61
508.85	44016.11
509.03	43758.66
509.20	44147.18
509.38	44549.76
509.55	44299.32
509.73	44769.77
509.90	44718.28
510.08	44811.90
510.25	44715.93
510.42	44687.85
510.60	45347.88
510.77	45167.66
510.95	45478.95
511.12	45343.20
511.30	45272.98
511.47	45397.03
511.64	46281.75
511.82	46286.43
511.99	45804.28
512.17	46124.94
512.34	45773.86
512.51	46471.34
512.69	46452.61
512.86	46845.82
513.04	46810.71
513.21	46944.12
513.38	47014.34
513.56	47166.48
513.73	47077.54
513.90	47271.80
514.08	47147.75
514.25	47196.90
514.43	47845.23
514.60	47529.26
514.77	48086.31
514.95	48102.69
515.12	47971.62
515.29	47599.47
515.47	47913.11
515.64	48334.40
515.81	48107.37
515.99	48374.19
516.16	48898.47
516.33	48392.92
516.51	48582.50
516.68	48734.63
516.85	48575.48
517.03	49324.45
517.20	49378.28
517.37	48781.45
517.54	49132.53
517.72	49022.52
517.89	49275.30
518.06	49642.76
518.24	49507.01
518.41	49483.61
518.58	49645.10
518.75	49434.45
518.93	49701.28
519.10	49457.86
519.27	50059.38
519.45	50157.68
519.62	50103.85
519.79	50405.78
519.96	50209.17
520.14	50253.64
520.31	50539.19
520.48	50759.20
520.65	50660.90
520.83	50707.71
521.00	50806.01
521.17	50974.53
521.34	50981.55
521.52	50871.54
521.69	50883.25
521.86	51283.48
522.03	51253.05
522.20	51407.53
522.38	51449.66
522.55	51578.39
522.72	51894.36
522.89	51454.34
523.07	51732.86
523.24	51615.83
523.41	51826.48
523.58	51990.32
523.75	52287.57
523.92	51760.95
524.10	52268.84
524.27	52278.21
524.44	52011.38
524.61	52381.19
524.78	52425.66
524.96	52516.94
525.13	52512.26
525.30	52797.80
525.47	52603.54
525.64	52863.34
525.81	52729.93
525.98	52921.85
526.16	52694.82
526.33	52842.27
526.50	53308.04
526.67	52807.17
526.84	53102.07
527.01	53132.50
527.18	53275.27
527.36	53333.79
527.53	53317.40
527.70	53542.10
527.87	53560.82
528.04	53457.84
528.21	53565.50
528.38	53240.17
528.55	53750.40
528.72	53495.28
528.89	53696.57
529.07	53645.08
529.24	53635.72
529.41	53762.11
529.58	53832.32
529.75	53542.10
529.92	53874.45
530.09	54014.88
530.26	53984.46
530.43	54192.76
530.60	54073.40
530.77	54068.72
530.94	54363.62
531.11	54024.25
531.28	54312.13
531.46	54646.83
531.63	54700.66
531.80	54450.22
531.97	54536.82
532.14	54695.98
532.31	54267.66
532.48	55011.95
532.65	54738.11
532.82	54756.83
532.99	54660.87
533.16	54609.38
533.33	55002.59
533.50	55313.88
533.67	54883.22
533.84	55025.99
534.01	54878.54
534.18	54944.08
534.35	55613.47
534.52	55337.29
534.69	55395.80
534.86	55348.99
535.03	55299.84
535.20	55365.37
535.37	55650.92
535.54	55592.40
535.71	55238.98
535.88	55587.72
536.05	55463.67
536.22	55845.18
536.38	55735.18
536.55	55707.09
536.72	55725.81
536.89	55505.80
537.06	55854.54
537.23	55934.12
537.40	55629.85
537.57	55625.17
537.74	55824.12
537.91	56334.35
538.08	55875.61
538.25	56006.68
538.42	56116.68
538.59	56170.52
538.75	56191.58
538.92	56219.67
539.09	56439.68
539.26	56119.02
539.43	56327.33
539.60	56271.16
539.77	56299.25
539.94	56900.76
540.11	56502.87
540.28	56626.92
540.44	56512.23
540.61	56493.51
540.78	56502.87
540.95	56430.32
541.12	56442.02
541.29	56530.96
541.46	56608.20
541.62	56851.61
541.79	56809.48
541.96	56624.58
542.13	56652.67
542.30	56718.20
542.47	57130.14
542.63	57052.90
542.80	56811.82
542.97	57319.72
543.14	57158.22
543.31	57123.11
543.48	57567.82
543.64	57535.05
543.81	57188.65
543.98	57560.79
544.15	57427.38
544.32	57577.18
544.48	57829.96
544.65	57605.26
544.82	57446.11
544.99	57406.32
545.16	57614.63
545.32	57471.85
545.49	57736.34
545.66	57954.00
545.83	57925.92
546.00	57787.83
546.16	57675.48
546.33	57647.39
546.50	57560.79
546.67	57958.69
546.83	57687.18
547.00	57956.35
547.17	57904.85
547.34	57996.13
547.50	58082.73
547.67	58307.43
547.84	57986.77
548.00	58223.17
548.17	58316.79
548.34	58298.06
548.51	58663.19
548.67	58309.77
548.84	58443.18
549.01	58277.00
549.18	58272.32
549.34	58628.08
549.51	58349.56
549.68	58564.88
549.84	58644.46
550.01	58564.88
550.18	58506.37
550.34	58457.22
550.51	58798.94
550.68	58602.33
550.84	58576.59
551.01	58684.25
551.18	58501.69
551.34	58761.49
551.51	58838.73
551.68	58595.31
551.84	58569.57
552.01	58527.44
552.18	58756.81
552.34	58557.86
552.51	58855.11
552.68	58831.71
552.84	58604.67
553.01	59056.40
553.18	58801.28
553.34	59018.95
553.51	59096.19
553.67	59035.33
553.84	59185.13
554.01	59208.53
554.17	58920.65
554.34	58817.66
554.51	59215.55
554.67	59206.19
554.84	59189.81
555.00	59150.02
555.17	59164.06
555.33	59199.17
555.50	59117.25
555.67	59126.61
555.83	59168.74
556.00	59355.99
556.16	59526.84
556.33	59426.20
556.50	59360.67
556.66	59465.99
556.83	59201.51
556.99	59533.87
557.16	59629.83
557.32	59669.62
557.49	59781.96
557.65	59348.96
557.82	59643.87
557.98	59388.75
558.15	59494.08
558.32	59613.44
558.48	59372.37
558.65	59660.26
558.81	59781.96
558.98	59538.55
559.14	59739.83
559.31	59711.75
559.47	59898.99
559.64	59863.88
559.80	60013.68
559.97	59835.80
560.13	59686.00
560.30	59983.25
560.46	59735.15
560.63	59880.27
560.79	60126.02
560.96	59924.74
561.12	59887.29
561.29	60072.19
561.45	60009.00
561.61	60062.83
561.78	59781.96
561.94	60016.02
562.11	60018.36
562.27	60203.26
562.44	60285.18
562.60	60186.88
562.77	60196.24
562.93	59908.35
563.10	60165.81
563.26	59971.55
563.42	60285.18
563.59	60163.47
563.75	60121.34
563.92	60217.30
564.08	60172.83
564.24	60364.76
564.41	60191.56
564.57	60294.54
564.74	60268.79
564.90	60254.75
565.07	60395.18
565.23	60282.84
565.39	60434.97
565.56	60271.14
565.72	60182.19
565.88	60301.56
566.05	60320.29
566.21	60168.15
566.38	60336.67
566.54	60420.93
566.70	60346.03
566.87	60598.81
567.03	60320.29
567.19	60697.11
567.36	60441.99
567.52	60406.89
567.68	60601.15
567.85	60287.52
568.01	60715.84
568.17	60453.70
568.34	60598.81
568.50	60467.74
568.66	60463.06
568.83	60467.74
568.99	60516.89
569.15	60722.86
569.32	60437.31
569.48	60654.98
569.64	60563.70
569.81	60591.79
569.97	60617.53
570.13	60687.75
570.30	60488.80
570.46	60453.70
570.62	60587.11
570.78	60786.05
570.95	60437.31
571.11	60804.78
571.27	60802.44
571.43	60652.64
571.60	60912.44
571.76	60669.03
571.92	60636.26
572.09	60697.11
572.25	60608.17
572.41	60608.17
572.57	60896.06
572.74	60870.31
572.90	60776.69
573.06	60905.42
573.22	60755.63
573.38	60594.13
573.55	60760.31
573.71	60921.80
573.87	60697.11
574.03	60774.35
574.20	60793.07
574.36	60687.75
574.52	60690.09
574.68	61078.62
574.84	60977.98
575.01	60898.40
575.17	60669.03
575.33	60982.66
575.49	60638.60
575.65	60940.53
575.82	61003.72
575.98	61064.58
576.14	61020.11
576.30	60938.19
576.46	60811.80
576.62	60860.95
576.79	61057.56
576.95	60779.03
577.11	61052.87
577.27	60968.61
577.43	61003.72
577.59	60640.94
577.75	60879.67
577.92	60856.27
578.08	61085.64
578.24	60947.55
578.40	60987.34
578.56	61132.45
578.72	60891.38
578.88	61183.94
579.04	61034.15
579.21	61013.08
579.37	61158.20
579.53	61193.31
579.69	60741.58
579.85	60912.44
580.01	61261.18
580.17	60853.93
580.33	61329.06
580.49	61017.77
580.65	61190.97
580.82	60919.46
580.98	60816.48
581.14	60865.63
581.30	61116.07
581.46	61097.34
581.62	61097.34
581.78	61008.40
581.94	61151.18
582.10	61216.71
582.26	61020.11
582.42	61167.56
582.58	61059.90
582.74	61027.13
582.90	60910.10
583.06	61080.96
583.22	61073.94
583.38	61181.60
583.54	61043.51
583.70	61176.92
583.86	61230.75
584.02	60982.66
584.18	61139.47
584.34	61291.61
584.50	61034.15
584.66	60987.34
584.82	60816.48
584.98	61291.61
585.14	61176.92
585.30	61013.08
585.46	61212.03
585.62	61123.09
585.78	61071.60
585.94	61010.74
586.10	61378.21
586.26	61059.90
586.42	61176.92
586.58	61137.13
586.74	61176.92
586.90	61087.98
587.06	61038.83
587.22	61396.93
587.38	61186.28
587.54	61333.74
587.70	61542.05
587.86	61041.17
588.02	61197.99
588.18	61403.95
588.34	61197.99
588.49	61134.79
