SpectraSuite Data File
++++++++++++++++++++++++++++++++++++
Date: Fri Oct 25 10:47:06 EDT 2013
User: price-jones
Dark Spectrum Present: No
Reference Spectrum Present: No
Number of Sampled Component Spectra: 1
Spectrometers: USB2+H05261
Integration Time (usec): 100000 (USB2+H05261)
Spectra Averaged: 1 (USB2+H05261)
Boxcar Smoothing: 0 (USB2+H05261)
Correct for Electrical Dark: No (USB2+H05261)
Strobe/Lamp Enabled: No (USB2+H05261)
Correct for Detector Non-linearity: No (USB2+H05261)
Correct for Stray Light: No (USB2+H05261)
Number of Pixels in Processed Spectrum: 2048
>>>>>Begin Processed Spectral Data<<<<<
365.73	175.54
365.92	175.54
366.12	175.54
366.32	131.07
366.52	7.02
366.72	35.11
366.91	0.00
367.11	23.41
367.31	67.88
367.51	105.32
367.70	37.45
367.90	18.72
368.10	37.45
368.30	28.09
368.49	51.49
368.69	67.88
368.89	93.62
369.09	9.36
369.28	107.66
369.48	102.98
369.68	107.66
369.87	77.24
370.07	74.90
370.27	131.07
370.47	203.63
370.66	332.36
370.86	451.72
371.06	472.79
371.25	409.59
371.45	500.87
371.65	526.62
371.84	428.32
372.04	458.74
372.24	512.58
372.44	547.69
372.63	489.17
372.83	454.06
373.03	416.62
373.22	491.51
373.42	533.64
373.62	489.17
373.81	449.38
374.01	538.32
374.21	528.96
374.40	505.56
374.60	566.41
374.79	545.34
374.99	596.84
375.19	545.34
375.38	585.13
375.58	564.07
375.78	627.26
375.97	528.96
376.17	554.71
376.37	594.50
376.56	566.41
376.76	568.75
376.95	596.84
377.15	641.31
377.35	559.39
377.54	718.54
377.74	587.47
377.93	540.66
378.13	631.94
378.33	655.35
378.52	557.05
378.72	636.63
378.91	594.50
379.11	571.09
379.31	622.58
379.50	538.32
379.70	627.26
379.89	578.11
380.09	713.86
380.28	690.46
380.48	594.50
380.68	683.44
380.87	662.37
381.07	638.97
381.26	716.20
381.46	650.67
381.65	730.25
381.85	596.84
382.04	629.60
382.24	676.41
382.43	634.29
382.63	678.76
382.83	671.73
383.02	650.67
383.22	631.94
383.41	601.52
383.61	760.67
383.80	732.59
384.00	674.07
384.19	681.10
384.39	765.36
384.58	716.20
384.78	699.82
384.97	833.23
385.17	713.86
385.36	744.29
385.56	760.67
385.75	802.80
385.95	772.38
386.14	781.74
386.34	842.59
386.53	772.38
386.72	833.23
386.92	765.36
387.11	812.17
387.31	809.83
387.50	840.25
387.70	791.10
387.89	877.70
388.09	812.17
388.28	908.13
388.48	828.55
388.67	882.38
388.86	826.21
389.06	875.36
389.25	870.68
389.45	908.13
389.64	940.90
389.84	945.58
390.03	945.58
390.22	889.40
390.42	870.68
390.61	891.74
390.81	856.64
391.00	997.07
391.19	931.53
391.39	915.15
391.58	943.24
391.78	992.39
391.97	959.62
392.16	1001.75
392.36	1006.43
392.55	985.37
392.75	915.15
392.94	1022.81
393.13	1032.18
393.33	973.66
393.52	1034.52
393.71	1064.94
393.91	1025.15
394.10	1057.92
394.29	1114.10
394.49	1048.56
394.68	1018.13
394.88	1081.33
395.07	1149.20
395.26	1130.48
395.46	1064.94
395.65	1179.63
395.84	1165.59
396.04	1109.41
396.23	1153.88
396.42	1020.47
396.62	1203.04
396.81	1217.08
397.00	1231.12
397.19	1111.75
397.39	1254.53
397.58	1191.33
397.77	1252.19
397.97	1252.19
398.16	1284.95
398.35	1394.96
398.55	1270.91
398.74	1357.51
398.93	1355.17
399.12	1322.40
399.32	1376.24
399.51	1348.15
399.70	1376.24
399.90	1409.00
400.09	1364.53
400.28	1472.20
400.47	1437.09
400.67	1399.64
400.86	1462.83
401.05	1387.94
401.24	1460.49
401.44	1451.13
401.63	1516.67
401.82	1497.94
402.01	1472.20
402.21	1504.96
402.40	1542.41
402.59	1460.49
402.78	1547.09
402.97	1577.52
403.17	1605.61
403.36	1612.63
403.55	1647.74
403.74	1694.55
403.93	1659.44
404.13	1671.14
404.32	1598.59
404.51	1699.23
404.70	1727.32
404.89	1600.93
405.09	1806.89
405.28	1837.32
405.47	1682.85
405.66	1715.61
405.85	1858.39
406.05	1753.06
406.24	1778.81
406.43	1839.66
406.62	1902.86
406.81	1928.60
407.00	1809.23
407.20	1811.57
407.39	1851.36
407.58	1898.17
407.77	1891.15
407.96	1921.58
408.15	2050.31
408.34	1987.11
408.54	1933.28
408.73	1963.71
408.92	1980.09
409.11	2033.93
409.30	2033.93
409.49	2047.97
409.68	2078.40
409.87	2080.74
410.07	2080.74
410.26	2179.04
410.45	2120.53
410.64	2043.29
410.83	2200.10
411.02	2129.89
411.21	2413.09
411.40	2300.75
411.59	2270.32
411.78	2333.51
411.98	2289.04
412.17	2293.72
412.36	2366.28
412.55	2530.12
412.74	2455.22
412.93	2392.03
413.12	2450.54
413.31	2483.31
413.50	2555.86
413.69	2525.44
413.88	2684.59
414.07	2574.59
414.26	2588.63
414.45	2602.68
414.64	2693.96
414.83	2658.85
415.02	2710.34
415.22	2693.96
415.41	2724.38
415.60	2670.55
415.79	2668.21
415.98	2902.26
416.17	2881.20
416.36	2928.01
416.55	2888.22
416.74	2925.67
416.93	2906.95
417.12	2883.54
417.31	3014.61
417.50	2986.52
417.69	3136.32
417.88	3059.08
418.07	2911.63
418.26	3028.65
418.45	3098.87
418.64	3150.36
418.83	3251.00
419.02	3169.09
419.21	3166.74
419.39	3335.26
419.58	3236.96
419.77	3248.66
419.96	3251.00
420.15	3241.64
420.34	3302.50
420.53	3265.05
420.72	3192.49
420.91	3260.37
421.10	3487.40
421.29	3445.27
421.48	3414.84
421.67	3552.93
421.86	3499.10
422.05	3337.60
422.24	3337.60
422.43	3393.78
422.61	3370.37
422.80	3510.80
422.99	3595.06
423.18	3616.13
423.37	3557.61
423.56	3557.61
423.75	3506.12
423.94	3424.20
424.13	3346.97
424.32	3438.25
424.50	3616.13
424.69	3517.83
424.88	3655.92
425.07	3517.83
425.26	3459.31
425.45	3655.92
425.64	3524.85
425.83	3585.70
426.01	3529.53
426.20	3569.32
426.39	3674.64
426.58	3578.68
426.77	3604.42
426.96	3559.95
427.15	3595.06
427.33	3674.64
427.52	3653.58
427.71	3765.92
427.90	3674.64
428.09	3868.91
428.28	3707.41
428.46	3808.05
428.65	3751.88
428.84	3878.27
429.03	3915.72
429.22	3831.46
429.40	3812.73
429.59	3943.80
429.78	3648.90
429.97	3613.79
430.16	3726.13
430.34	3744.86
430.53	4011.68
430.72	3936.78
430.91	3871.25
431.10	4030.40
431.28	3999.98
431.47	4107.64
431.66	4128.70
431.85	4112.32
432.03	4114.66
432.22	4231.69
432.41	4152.11
432.60	4208.28
432.79	4126.36
432.97	4273.82
433.16	4334.67
433.35	4234.03
433.54	4276.16
433.72	4266.80
433.91	4187.22
434.10	4428.29
434.28	4297.22
434.47	4383.82
434.66	4276.16
434.85	4550.00
435.03	4519.57
435.22	4428.29
435.41	4720.86
435.59	4535.96
435.78	4498.51
435.97	4465.74
436.16	4652.98
436.34	4592.13
436.53	4573.41
436.72	4723.20
436.90	4629.58
437.09	4734.90
437.28	4608.51
437.46	4652.98
437.65	4617.88
437.84	4777.03
438.02	4713.84
438.21	4973.64
438.40	4697.46
438.58	4826.18
438.77	4819.16
438.96	4795.76
439.14	5130.45
439.33	5081.30
439.52	5219.39
439.70	4985.34
439.89	5034.49
440.08	5121.09
440.26	5245.14
440.45	5109.39
440.63	5329.40
440.82	5336.42
441.01	5275.57
441.19	5200.67
441.38	5392.59
441.57	5488.56
441.75	5689.84
441.94	5617.29
442.12	5469.83
442.31	5605.58
442.50	5584.52
442.68	5715.59
442.87	5694.52
443.05	5652.39
443.24	5769.42
443.43	5593.88
443.61	5870.06
443.80	5994.11
443.98	5764.74
444.17	5479.19
444.35	5846.66
444.54	5839.64
444.73	5797.51
444.91	5774.10
445.10	5902.83
445.28	5785.80
445.47	5865.38
445.65	5748.36
445.84	5809.21
446.02	5923.90
446.21	5879.43
446.39	5914.53
446.58	6033.90
446.77	5888.79
446.95	5921.56
447.14	6050.28
447.32	5980.07
447.51	5963.68
447.69	5858.36
447.88	6118.16
448.06	6003.47
448.25	5956.66
448.43	6083.05
448.62	5989.43
448.80	6101.78
448.99	6155.61
449.17	6251.57
449.36	6059.65
449.54	6200.08
449.73	6349.87
449.91	6384.98
450.10	6239.87
450.28	6361.58
450.46	6321.79
450.65	6403.71
450.83	6427.11
451.02	6544.14
451.20	6483.28
451.39	6621.38
451.57	6476.26
451.76	6354.55
451.94	6347.53
452.13	6612.01
452.31	6544.14
452.49	6572.22
452.68	6509.03
452.86	6518.39
453.05	6576.91
453.23	6698.61
453.42	6661.16
453.60	6609.67
453.78	6736.06
453.97	6775.85
454.15	6612.01
454.34	6544.14
454.52	6857.77
454.70	6841.39
454.89	6902.24
455.07	6864.79
455.26	6843.73
455.44	6998.20
455.62	6946.71
455.81	7016.93
455.99	7012.24
456.17	7052.03
456.36	7119.91
456.54	7110.55
456.73	6984.16
456.91	7143.32
457.09	7220.55
457.28	7414.82
457.46	7304.81
457.64	7293.11
457.83	7325.88
458.01	7131.61
458.19	7508.44
458.38	7328.22
458.56	7438.22
458.74	7524.82
458.93	7552.91
459.11	7421.84
459.29	7545.89
459.48	7356.30
459.66	7599.72
459.84	7370.35
460.03	7840.79
460.21	7588.02
460.39	7482.69
460.57	7592.70
460.76	7782.28
460.94	7733.13
461.12	7969.52
461.31	7744.83
461.49	7761.22
461.67	7702.70
461.85	7943.78
462.04	7782.28
462.22	8351.03
462.40	8081.87
462.59	8081.87
462.77	7843.14
462.95	8109.96
463.13	8072.51
463.32	7953.14
463.50	8021.02
463.68	8184.85
463.86	8161.45
464.05	7960.16
464.23	7990.59
464.41	8212.94
464.59	8042.08
464.78	8241.03
464.96	8278.47
465.14	8124.00
465.32	8252.73
465.50	8299.54
465.69	8290.18
465.87	8379.12
466.05	8463.38
466.23	8159.11
466.41	8379.12
466.60	8608.49
466.78	8320.60
466.96	8098.25
467.14	8362.73
467.32	8486.78
467.51	8674.03
467.69	8477.42
467.87	8514.87
468.05	8683.39
468.23	8486.78
468.41	8599.13
468.60	8648.28
468.78	8554.66
468.96	8695.09
469.14	8706.79
469.32	8966.59
469.50	8699.77
469.69	8870.63
469.87	8781.69
470.05	8982.98
470.23	8952.55
470.41	8990.00
470.59	9071.92
470.77	8769.99
470.95	9116.39
471.14	9039.15
471.32	9256.82
471.50	9394.91
471.68	9235.75
471.86	9305.97
472.04	9341.08
472.22	9453.42
472.40	9233.41
472.58	9420.66
472.77	9472.15
472.95	9575.13
473.13	9806.84
473.31	9610.24
473.49	9556.41
473.67	9563.43
473.85	9439.38
474.03	9853.66
474.21	9919.19
474.39	9968.34
474.57	10026.86
474.75	10108.77
474.93	10200.05
475.12	10015.15
475.30	10368.57
475.48	10291.34
475.66	10090.05
475.84	10366.23
476.02	10391.98
476.20	10272.61
476.38	10696.25
476.56	10799.23
476.74	10920.94
476.92	10679.86
477.10	10640.08
477.28	11077.76
477.46	10904.56
477.64	10904.56
477.82	11342.24
478.00	11566.93
478.18	11267.34
478.36	11702.68
478.54	11676.93
478.72	11681.61
478.90	11782.26
479.08	11950.78
479.26	11719.06
479.44	11948.43
479.62	12091.21
479.80	11976.52
479.98	12063.12
480.16	12524.21
480.34	12100.57
480.52	12613.15
480.70	12526.55
480.88	12430.59
481.06	12507.82
481.24	12620.17
481.41	12762.94
481.59	13099.98
481.77	13001.68
481.95	13128.06
482.13	13572.77
482.31	13376.16
482.49	13500.21
482.67	13572.77
482.85	13692.13
483.03	14064.28
483.21	14047.90
483.39	13975.34
483.57	14075.98
483.74	14106.41
483.92	14352.16
484.10	14216.41
484.28	14551.11
484.46	14946.66
484.64	14946.66
484.82	14714.95
485.00	15012.20
485.18	15002.83
485.35	15183.06
485.53	14930.28
485.71	15253.27
485.89	15400.72
486.07	15323.49
486.25	15262.63
486.43	15405.41
486.61	15976.50
486.78	16177.78
486.96	16079.48
487.14	16233.96
487.32	16074.80
487.50	16734.83
487.68	16554.61
487.85	17111.66
488.03	17090.59
488.21	16879.94
488.39	16968.88
488.57	17308.26
488.75	16964.20
488.92	17539.97
489.10	17788.07
489.28	17949.57
489.46	18129.79
489.64	17886.37
489.81	18354.48
489.99	18499.59
490.17	18553.43
490.35	18733.65
490.53	18403.63
490.70	18726.63
490.88	19033.24
491.06	19049.62
491.24	18979.40
491.41	18932.59
491.59	19276.65
491.77	19262.61
491.95	19676.88
492.13	19601.99
492.30	20168.40
492.48	20032.65
492.66	20102.86
492.84	19929.66
493.01	20376.70
493.19	20517.14
493.37	20332.23
493.54	20807.36
493.72	20910.35
493.90	20989.92
494.08	21205.25
494.25	21429.94
494.43	21132.70
494.61	21736.56
494.79	21642.93
494.96	21563.36
495.14	21668.68
495.32	21757.62
495.49	21846.56
495.67	22108.70
495.85	22417.65
496.02	22101.68
496.20	22139.13
496.38	22242.11
496.55	22478.50
496.73	22941.93
496.91	22995.76
497.09	22827.24
497.26	23187.69
497.44	22845.97
497.62	23178.33
497.79	23625.37
497.97	23112.79
498.14	23651.11
498.32	23777.50
498.50	23480.25
498.67	24180.07
498.85	23644.09
499.03	23995.17
499.20	24149.65
499.38	24126.24
499.56	24650.52
499.73	24601.37
499.91	24510.09
500.08	24748.82
500.26	24711.38
500.44	24407.11
500.61	24816.70
500.79	24760.53
500.97	24971.18
501.14	25298.85
501.32	25078.84
501.49	25200.55
501.67	25385.45
501.84	25486.09
502.02	25441.62
502.20	25893.35
502.37	25979.95
502.55	25675.68
502.72	26010.37
502.90	26054.84
503.07	26029.10
503.25	26029.10
503.43	26059.52
503.60	26403.58
503.78	26396.56
503.95	26459.76
504.13	26728.92
504.30	26583.80
504.48	26630.62
504.65	26932.54
504.83	26867.01
505.01	27412.35
505.18	26661.04
505.36	27314.05
505.53	27393.63
505.71	27484.91
505.88	27370.22
506.06	27300.01
506.23	27721.30
506.41	27473.21
506.58	27379.59
506.76	27700.24
506.93	27646.41
507.11	27906.21
507.28	27473.21
507.46	27934.29
507.63	28400.06
507.81	28287.71
507.98	27824.29
508.16	28121.54
508.33	28486.66
508.50	28582.62
508.68	28657.52
508.85	28493.68
509.03	28886.89
509.20	28556.88
509.38	28879.87
509.55	29207.55
509.73	29362.02
509.90	29039.03
510.08	28744.12
510.25	29425.22
510.42	29380.74
510.60	29617.14
510.77	29893.32
510.95	30008.01
511.12	29802.04
511.30	29825.45
511.47	29963.54
511.64	30050.14
511.82	29895.66
511.99	29921.41
512.17	30316.96
512.34	29874.60
512.51	30567.40
512.69	30719.53
512.86	30651.66
513.04	30829.54
513.21	30675.06
513.38	30462.07
513.56	30843.58
513.73	30569.74
513.90	30909.11
514.08	30698.47
514.25	31454.46
514.43	31122.10
514.60	31309.35
514.77	31056.57
514.95	31386.58
515.12	31510.63
515.29	31637.02
515.47	31206.36
515.64	31618.30
515.81	31562.12
515.99	31512.97
516.16	31711.92
516.33	31732.98
516.51	32201.09
516.68	31723.62
516.85	31508.29
517.03	31707.24
517.20	32027.89
517.37	31988.10
517.54	32165.98
517.72	32271.31
517.89	31906.18
518.06	32004.49
518.24	31962.36
518.41	31896.82
518.58	32154.28
518.75	32561.53
518.93	32921.98
519.10	32931.34
519.27	33221.56
519.45	32826.01
519.62	32936.02
519.79	32893.89
519.96	33570.30
520.14	33404.13
520.31	33113.90
520.48	33766.91
520.65	33457.96
520.83	33500.09
521.00	33804.36
521.17	33369.02
521.34	33940.11
521.52	33912.02
521.69	33860.53
521.86	33972.88
522.03	33970.54
522.20	34565.03
522.38	33916.70
522.55	34270.12
522.72	34127.35
522.89	34574.39
523.07	34497.16
523.24	34391.83
523.41	34536.94
523.58	34911.43
523.75	35250.81
523.92	34843.56
524.10	34834.19
524.27	34913.77
524.44	35145.48
524.61	35253.15
524.78	35339.75
524.96	35262.51
525.13	35391.24
525.30	35662.74
525.47	35683.81
525.64	35594.87
525.81	35454.44
525.98	35700.19
526.16	35477.84
526.33	35276.55
526.50	35475.50
526.67	35084.63
526.84	35461.46
527.01	35849.99
527.18	35798.49
527.36	35967.01
527.53	36025.53
527.70	36545.12
527.87	36212.77
528.04	35814.88
528.21	35871.05
528.38	36378.95
528.55	36620.02
528.72	36807.26
528.89	36685.56
529.07	36182.34
529.24	36037.23
529.41	36250.22
529.58	36591.94
529.75	36505.34
529.92	36613.00
530.09	36886.84
530.26	36996.85
530.43	37198.13
530.60	37085.79
530.77	36980.46
530.94	37233.24
531.11	37366.65
531.28	37067.06
531.46	37148.98
531.63	37490.70
531.80	37717.73
531.97	36807.26
532.14	37071.75
532.31	36631.72
532.48	37523.47
532.65	37841.78
532.82	37841.78
532.99	37642.84
533.16	37624.11
533.33	37944.76
533.50	38019.66
533.67	38089.88
533.84	37926.04
534.01	38054.77
534.18	37776.25
534.35	38122.65
534.52	38160.09
534.69	38115.62
534.86	38024.34
535.03	38157.75
535.20	38583.73
535.37	38808.42
535.54	38934.81
535.71	38447.98
535.88	38363.72
536.05	38583.73
536.22	38710.12
536.38	38298.19
536.55	39047.16
536.72	38696.08
536.89	38359.04
537.06	39061.20
537.23	39152.48
537.40	38534.58
537.57	38616.50
537.74	38792.04
537.91	39391.22
538.08	38967.58
538.25	38843.53
538.42	39086.95
538.59	39129.08
538.75	38810.76
538.92	39091.63
539.09	38799.06
539.26	39089.29
539.43	39098.65
539.60	39679.10
539.77	38995.67
539.94	39721.23
540.11	39367.81
540.28	39597.18
540.44	39889.75
540.61	39522.29
540.78	39421.64
540.95	39938.90
541.12	39367.81
541.29	39353.77
541.46	39566.76
541.62	39896.77
541.79	39660.38
541.96	39831.24
542.13	39601.86
542.30	40013.80
542.47	40446.80
542.63	40002.10
542.80	40116.78
542.97	40458.50
543.14	40671.49
543.31	40514.67
543.48	40638.72
543.64	41226.20
543.81	40870.43
543.98	40935.97
544.15	40924.27
544.32	40950.01
544.48	41163.00
544.65	41036.61
544.82	41055.34
544.99	40531.06
545.16	40765.11
545.32	40980.44
545.49	41092.79
545.66	41116.19
545.83	40928.95
546.00	41275.35
546.16	41184.07
546.33	41064.70
546.50	40540.42
546.67	40769.79
546.83	40872.78
547.00	41277.69
547.17	41111.51
547.34	41092.79
547.50	41352.58
547.67	41951.76
547.84	41184.07
548.00	41757.50
548.17	41549.19
548.34	41631.11
548.51	41748.14
548.67	41841.76
548.84	41902.61
549.01	42026.66
549.18	41661.54
549.34	41729.41
549.51	41998.57
549.68	41947.08
549.84	41783.24
550.01	42291.14
550.18	41806.65
550.34	42134.32
550.51	41834.74
550.68	41841.76
550.84	41673.24
551.01	41834.74
551.18	42031.34
551.34	42384.76
551.51	42464.34
551.68	42550.94
551.84	42110.92
552.01	42199.86
552.18	42162.41
552.34	42356.67
552.51	42436.25
552.68	42621.16
552.84	42518.17
553.01	42405.83
553.18	41993.89
553.34	42323.91
553.51	42562.64
553.67	42408.17
553.84	42955.85
554.01	43117.35
554.17	43100.97
554.34	43040.11
554.51	42782.65
554.67	42593.07
554.84	42705.41
555.00	42773.29
555.17	42546.26
555.33	42473.70
555.50	43131.39
555.67	42897.34
555.83	42738.18
556.00	42810.74
556.16	43257.78
556.33	42611.79
556.50	43129.05
556.66	43725.89
556.83	42822.44
556.99	43215.65
557.16	43028.41
557.32	43145.44
557.49	43477.79
557.65	43241.40
557.82	43313.95
557.98	43058.84
558.15	43042.45
558.32	43225.01
558.48	43164.16
558.65	43372.47
558.81	43269.48
558.98	42927.77
559.14	43580.78
559.31	43040.11
559.47	43606.52
559.64	44069.95
559.80	43779.72
559.97	43929.51
560.13	43643.97
560.30	43765.68
560.46	43239.06
560.63	43707.16
560.79	43723.55
560.96	43880.36
561.12	43552.69
561.29	43875.68
561.45	43964.62
561.61	44105.06
561.78	43856.96
561.94	43599.50
562.11	43950.58
562.27	43906.11
562.44	43999.73
562.60	43981.01
562.77	43873.34
562.93	43966.96
563.10	43962.28
563.26	43756.32
563.42	44112.08
563.59	43742.27
563.75	43784.40
563.92	44142.50
564.08	44320.38
564.24	44004.41
564.41	44140.16
564.57	43973.98
564.74	44135.48
564.90	44144.84
565.07	44163.57
565.23	43995.05
565.39	44069.95
565.56	44158.89
565.72	44091.01
565.88	43990.37
566.05	44172.93
566.21	43782.06
566.38	44329.75
566.54	43707.16
566.70	44315.70
566.87	44343.79
567.03	43959.94
567.19	44594.23
567.36	43950.58
567.52	44016.11
567.68	43983.35
567.85	44245.49
568.01	44446.77
568.17	44175.27
568.34	44168.25
568.50	44243.15
568.66	44552.10
568.83	44421.03
568.99	44013.77
569.15	44112.08
569.32	44189.31
569.48	44315.70
569.64	44491.24
569.81	44449.11
569.97	44898.50
570.13	43983.35
570.30	44018.46
570.46	43707.16
570.62	44304.00
570.78	43915.47
570.95	44458.48
571.11	44835.30
571.27	44381.24
571.43	44184.63
571.60	44697.21
571.76	44678.49
571.92	44261.87
572.09	44479.54
572.25	44165.91
572.41	44325.07
572.57	44685.51
572.74	45130.21
572.90	44509.97
573.06	44648.06
573.22	44470.18
573.38	44556.78
573.55	44460.82
573.71	44729.98
573.87	44435.07
574.03	44257.19
574.20	44491.24
574.36	44329.75
574.52	44968.71
574.68	44605.93
574.84	44432.73
575.01	44306.34
575.17	44406.98
575.33	44374.22
575.49	44823.60
575.65	44598.91
575.82	44779.13
575.98	44844.66
576.14	44971.05
576.30	44818.92
576.46	44652.74
576.62	44512.31
576.79	44442.09
576.95	44631.68
577.11	44552.10
577.27	44645.72
577.43	44591.89
577.59	44428.05
577.75	44877.43
577.92	44367.20
578.08	44486.56
578.24	44449.11
578.40	44828.28
578.56	44318.04
578.72	44538.05
578.88	44982.76
579.04	44800.19
579.21	44575.50
579.37	44453.79
579.53	44589.55
579.69	44624.65
579.85	44851.69
580.01	44346.13
580.17	44619.97
580.33	44645.72
580.49	44868.07
580.65	44521.67
580.82	45102.12
580.98	44449.11
581.14	44612.95
581.30	44816.58
581.46	44996.80
581.62	44732.32
581.78	44999.14
581.94	44804.88
582.10	44931.26
582.26	45134.89
582.42	44741.68
582.58	44788.49
582.74	44165.91
582.90	44727.64
583.06	45083.40
583.22	45015.52
583.38	44837.64
583.54	44748.70
583.70	44720.62
583.86	45092.76
584.02	44706.57
584.18	44631.68
584.34	44804.88
584.50	44734.66
584.66	45151.27
584.82	44428.05
584.98	44823.60
585.14	44825.94
585.30	44673.81
585.46	44907.86
585.62	44839.98
585.78	45153.62
585.94	44292.30
586.10	44832.96
586.26	44872.75
586.42	44739.34
586.58	45097.44
586.74	44879.77
586.90	44549.76
587.06	44940.63
587.22	44971.05
587.38	44652.74
587.54	45301.07
587.70	45221.49
587.86	45113.83
588.02	44931.26
588.18	45132.55
588.34	44978.07
588.49	44147.18
588.65	44825.94
588.81	44341.45
588.97	44687.85
589.13	44453.79
589.29	44252.51
589.45	44919.56
589.61	45081.06
589.77	45432.14
589.93	44722.96
590.08	45074.04
590.24	45488.31
