SpectraSuite Data File
++++++++++++++++++++++++++++++++++++
Date: Fri Oct 25 11:25:24 EDT 2013
User: price-jones
Dark Spectrum Present: No
Reference Spectrum Present: No
Number of Sampled Component Spectra: 1
Spectrometers: USB2+H05261
Integration Time (usec): 100000 (USB2+H05261)
Spectra Averaged: 1 (USB2+H05261)
Boxcar Smoothing: 0 (USB2+H05261)
Correct for Electrical Dark: No (USB2+H05261)
Strobe/Lamp Enabled: No (USB2+H05261)
Correct for Detector Non-linearity: No (USB2+H05261)
Correct for Stray Light: No (USB2+H05261)
Number of Pixels in Processed Spectrum: 2048
>>>>>Begin Processed Spectral Data<<<<<
365.73	212.99
365.92	212.99
366.12	212.99
366.32	142.77
366.52	142.77
366.72	152.13
366.91	138.09
367.11	135.75
367.31	163.84
367.51	177.88
367.70	86.60
367.90	81.92
368.10	135.75
368.30	154.48
368.49	138.09
368.69	135.75
368.89	138.09
369.09	156.82
369.28	180.22
369.48	147.45
369.68	170.86
369.87	224.69
370.07	147.45
370.27	231.71
370.47	341.72
370.66	662.37
370.86	704.50
371.06	660.03
371.25	636.63
371.45	585.13
371.65	638.97
371.84	692.80
372.04	695.14
372.24	723.23
372.44	664.71
372.63	671.73
372.83	798.12
373.03	786.42
373.22	781.74
373.42	676.41
373.62	702.16
373.81	774.72
374.01	798.12
374.21	863.66
374.40	819.19
374.60	816.85
374.79	835.57
374.99	821.53
375.19	856.64
375.38	851.96
375.58	835.57
375.78	905.79
375.97	821.53
376.17	898.77
376.37	910.47
376.56	919.83
376.76	851.96
376.95	819.19
377.15	966.64
377.35	891.74
377.54	922.17
377.74	938.55
377.93	861.32
378.13	983.02
378.33	854.30
378.52	882.38
378.72	894.08
378.91	901.11
379.11	877.70
379.31	922.17
379.50	976.00
379.70	985.37
379.89	1046.22
380.09	908.13
380.28	931.53
380.48	1048.56
380.68	973.66
380.87	1069.62
381.07	971.32
381.26	1022.81
381.46	1011.11
381.65	1081.33
381.85	1039.20
382.04	1043.88
382.24	1076.65
382.43	1071.97
382.63	1170.27
382.83	1022.81
383.02	966.64
383.22	1100.05
383.41	1191.33
383.61	1034.52
383.80	1130.48
384.00	1146.86
384.19	1109.41
384.39	1128.14
384.58	1123.46
384.78	1041.54
384.97	1118.78
385.17	1107.07
385.36	1165.59
385.56	1132.82
385.75	1053.24
385.95	1172.61
386.14	1289.64
386.34	1221.76
386.53	1184.31
386.72	1097.71
386.92	1210.06
387.11	1219.42
387.31	1160.91
387.50	1228.78
387.70	1343.47
387.89	1149.20
388.09	1219.42
388.28	1289.64
388.48	1231.12
388.67	1430.07
388.86	1383.26
389.06	1268.57
389.25	1296.66
389.45	1270.91
389.64	1406.66
389.84	1348.15
390.03	1444.11
390.22	1338.79
390.42	1399.64
390.61	1352.83
390.81	1434.75
391.00	1385.60
391.19	1362.19
391.39	1460.49
391.58	1409.00
391.78	1425.39
391.97	1474.54
392.16	1490.92
392.36	1430.07
392.55	1561.14
392.75	1502.62
392.94	1497.94
393.13	1493.26
393.33	1542.41
393.52	1577.52
393.71	1640.72
393.91	1572.84
394.10	1689.87
394.29	1591.56
394.49	1605.61
394.68	1535.39
394.88	1589.22
395.07	1603.27
395.26	1626.67
395.46	1633.69
395.65	1753.06
395.84	1729.66
396.04	1757.74
396.23	1710.93
396.42	1797.53
396.62	1898.17
396.81	1734.34
397.00	1732.00
397.19	1825.62
397.39	1750.72
397.58	1788.17
397.77	1823.28
397.97	1914.56
398.16	1727.32
398.35	1834.98
398.55	1926.26
398.74	1830.30
398.93	2057.33
399.12	1891.15
399.32	1844.34
399.51	1900.52
399.70	2026.90
399.90	1968.39
400.09	1909.88
400.28	2085.42
400.47	1902.86
400.67	2087.76
400.86	2017.54
401.05	2001.16
401.24	2132.23
401.44	2073.71
401.63	2026.90
401.82	2064.35
402.01	2179.04
402.21	2125.21
402.40	2204.78
402.59	2136.91
402.78	2111.16
402.97	2284.36
403.17	2335.85
403.36	2359.26
403.55	2197.76
403.74	2370.96
403.93	2424.80
404.13	2326.49
404.32	2333.51
404.51	2359.26
404.70	2377.98
404.89	2422.45
405.09	2427.14
405.28	2436.50
405.47	2471.61
405.66	2471.61
405.85	2642.46
406.05	2537.14
406.24	2436.50
406.43	2576.93
406.62	2719.70
406.81	2661.19
407.00	2572.25
407.20	2518.42
407.39	2562.89
407.58	2740.77
407.77	2787.58
407.96	2719.70
408.15	2801.62
408.34	2630.76
408.54	2773.53
408.73	2869.50
408.92	2787.58
409.11	2792.26
409.30	2883.54
409.49	2848.43
409.68	2946.73
409.87	2764.17
410.07	3002.91
410.26	2949.08
410.45	2946.73
410.64	3098.87
410.83	3049.72
411.02	2986.52
411.21	3157.38
411.40	3077.80
411.59	3194.83
411.78	3260.37
411.98	3133.98
412.17	3258.03
412.36	3173.77
412.55	3377.39
412.74	3517.83
412.93	3396.12
413.12	3351.65
413.31	3393.78
413.50	3485.06
413.69	3447.61
413.88	3616.13
414.07	3482.72
414.26	3634.85
414.45	3618.47
414.64	3590.38
414.83	3684.00
415.02	3721.45
415.22	3904.01
415.41	3882.95
415.60	3782.31
415.79	3911.04
415.98	3948.48
416.17	3889.97
416.36	3969.55
416.55	3976.57
416.74	4051.47
416.93	4007.00
417.12	4098.28
417.31	4208.28
417.50	4023.38
417.69	4177.86
417.88	4159.13
418.07	4100.62
418.26	4194.24
418.45	4437.66
418.64	4447.02
418.83	4395.53
419.02	4379.14
419.21	4379.14
419.39	4456.38
419.58	4416.59
419.77	4327.65
419.96	4468.08
420.15	4519.57
420.34	4477.44
420.53	4400.21
420.72	4634.26
420.91	4795.76
421.10	4723.20
421.29	4657.67
421.48	4573.41
421.67	4744.27
421.86	4683.41
422.05	4758.31
422.24	4826.18
422.43	4746.61
422.61	4840.23
422.80	4912.78
422.99	5022.79
423.18	4915.12
423.37	4880.02
423.56	4959.60
423.75	4922.15
423.94	4863.63
424.13	4648.30
424.32	4711.50
424.50	4819.16
424.69	4954.91
424.88	5025.13
425.07	4983.00
425.26	4903.42
425.45	5004.07
425.64	4926.83
425.83	4983.00
426.01	5184.29
426.20	4957.25
426.39	4947.89
426.58	4992.36
426.77	5015.77
426.96	5116.41
427.15	5163.22
427.33	5207.69
427.52	5132.79
427.71	5273.23
427.90	5408.98
428.09	5362.17
428.28	5200.67
428.46	5280.25
428.65	5369.19
428.84	5343.44
429.03	5437.06
429.22	5376.21
429.40	5345.78
429.59	5462.81
429.78	5142.16
429.97	5224.08
430.16	5495.58
430.34	5416.00
430.53	5645.37
430.72	5633.67
430.91	5673.46
431.10	5617.29
431.28	5617.29
431.47	5774.10
431.66	5741.33
431.85	5659.42
432.03	5844.32
432.22	5781.12
432.41	5870.06
432.60	5895.81
432.79	5954.32
432.97	5959.00
433.16	5984.75
433.35	5825.59
433.54	6019.86
433.72	5982.41
433.91	6059.65
434.10	6097.10
434.28	6146.25
434.47	6033.90
434.66	6059.65
434.85	6057.31
435.03	6354.55
435.22	6415.41
435.41	6455.20
435.59	6523.07
435.78	6399.02
435.97	6345.19
436.16	6305.40
436.34	6307.74
436.53	6403.71
436.72	6682.23
436.90	6469.24
437.09	6595.63
437.28	6324.13
437.46	6518.39
437.65	6539.46
437.84	6715.00
438.02	6630.74
438.21	6492.65
438.40	6478.60
438.58	6998.20
438.77	6979.48
438.96	6881.18
439.14	7042.67
439.33	6984.16
439.52	7131.61
439.70	7012.24
439.89	7286.09
440.08	7346.94
440.26	7433.54
440.45	7349.28
440.63	7250.98
440.82	7412.48
441.01	7419.50
441.19	7651.21
441.38	7520.14
441.57	7545.89
441.75	7660.57
441.94	7852.50
442.12	7892.29
442.31	7981.23
442.50	7861.86
442.68	7833.77
442.87	8070.17
443.05	8002.29
443.24	8077.19
443.43	8004.63
443.61	8252.73
443.80	8318.26
443.98	8002.29
444.17	7761.22
444.35	8250.39
444.54	8292.52
444.73	8124.00
444.91	8208.26
445.10	8304.22
445.28	8107.62
445.47	8189.53
445.65	8358.05
445.84	8528.91
446.02	8465.72
446.21	8292.52
446.39	8444.65
446.58	8617.85
446.77	8231.66
446.95	8191.88
447.14	8573.38
447.32	8468.06
447.51	8421.25
447.69	8425.93
447.88	8318.26
448.06	8308.90
448.25	8336.99
448.43	8538.27
448.62	8699.77
448.80	8418.91
448.99	8540.61
449.17	8451.67
449.36	8486.78
449.54	8592.11
449.73	8842.54
449.91	9123.41
450.10	8854.25
450.28	8929.14
450.46	8959.57
450.65	8952.55
450.83	8978.30
451.02	9011.06
451.20	8992.34
451.39	9235.75
451.57	9114.05
451.76	8978.30
451.94	9025.11
452.13	9149.15
452.31	9359.80
452.49	8802.75
452.68	9338.74
452.86	9289.59
453.05	9305.97
453.23	9549.39
453.42	9324.69
453.60	9334.06
453.78	9565.77
453.97	9308.31
454.15	9521.30
454.34	9298.95
454.52	9472.15
454.70	9771.74
454.89	9533.00
455.07	9804.50
455.26	9860.68
455.44	9802.16
455.62	9722.59
455.81	9802.16
455.99	9886.42
456.17	9989.41
456.36	10155.58
456.54	9989.41
456.73	10221.12
456.91	10370.91
457.09	10214.10
457.28	10214.10
457.46	10197.71
457.64	10469.22
457.83	10389.64
458.01	10370.91
458.19	10555.82
458.38	10391.98
458.56	10644.76
458.74	10710.29
458.93	10459.85
459.11	10635.39
459.29	10871.79
459.48	10719.65
459.66	10876.47
459.84	10637.73
460.03	10923.28
460.21	11012.22
460.39	10729.02
460.57	10775.83
460.76	10965.41
460.94	11225.21
461.12	11103.50
461.31	11042.65
461.49	11213.51
461.67	11124.57
461.85	11314.15
462.04	11194.78
462.22	11602.04
462.40	11438.20
462.59	11456.92
462.77	11466.28
462.95	11477.99
463.13	11431.18
463.32	11503.73
463.50	11779.92
463.68	11772.89
463.86	11803.32
464.05	11382.03
464.23	11459.26
464.41	11906.31
464.59	11644.17
464.78	11960.14
464.96	12060.78
465.14	11681.61
465.32	12100.57
465.50	11896.94
465.69	12053.76
465.87	12028.01
466.05	12163.76
466.23	11824.39
466.41	12147.38
466.60	12163.76
466.78	12201.21
466.96	12042.06
467.14	12315.90
467.32	12215.26
467.51	12432.93
467.69	12067.80
467.87	12631.87
468.05	12325.26
468.23	12444.63
468.41	12421.22
468.60	12578.04
468.78	12807.41
468.96	12512.50
469.14	12786.35
469.32	13139.77
469.50	12556.97
469.69	12898.69
469.87	12929.12
470.05	13104.66
470.23	13078.91
470.41	12985.29
470.59	13217.01
470.77	13179.56
470.95	13408.93
471.14	13507.23
471.32	13078.91
471.50	13376.16
471.68	13589.15
471.86	13540.00
472.04	13687.45
472.22	14064.28
472.40	13640.64
472.58	13668.73
472.77	13774.05
472.95	14066.62
473.13	14539.41
473.31	13771.71
473.49	14139.18
473.67	13944.91
473.85	13912.14
474.03	14771.12
474.21	14602.60
474.39	14628.35
474.57	14429.40
474.75	14642.39
474.93	14724.31
475.12	14775.80
475.30	14785.16
475.48	14904.53
475.66	15110.50
475.84	14860.06
476.02	15152.63
476.20	15250.93
476.38	15580.95
476.56	15765.85
476.74	15618.39
476.92	15812.66
477.10	15700.31
477.28	15960.11
477.46	16081.82
477.64	16163.74
477.82	16217.57
478.00	16570.99
478.18	16695.04
478.36	16774.62
478.54	17156.13
478.72	16933.78
478.90	16978.25
479.08	17366.78
479.26	17579.76
479.44	17394.86
479.62	17664.02
479.80	17860.63
479.98	17928.50
480.16	18314.69
480.34	18075.96
480.52	18525.34
480.70	18520.66
480.88	18125.11
481.06	18920.89
481.24	18735.99
481.41	18761.73
481.59	18967.70
481.77	19374.95
481.95	19449.85
482.13	19374.95
482.31	19396.02
482.49	19969.45
482.67	20173.08
482.85	20414.15
483.03	20418.83
483.21	20566.29
483.39	21050.78
483.57	20896.30
483.74	20886.94
483.92	21233.34
484.10	20950.14
484.28	21401.86
484.46	21862.94
484.64	22127.42
484.82	21692.08
485.00	21898.05
485.18	22499.57
485.35	22717.24
485.53	22558.08
485.71	23122.15
485.89	23138.54
486.07	23122.15
486.25	23260.24
486.43	23318.76
486.61	23393.65
486.78	24020.92
486.96	23981.13
487.14	24474.98
487.32	24400.08
487.50	24788.61
487.68	24669.25
487.85	25205.23
488.03	24992.24
488.21	25781.00
488.39	25748.23
488.57	25727.17
488.75	26132.08
488.92	26712.53
489.10	26462.10
489.28	26405.92
489.46	27000.42
489.64	26644.66
489.81	27527.04
489.99	27229.79
490.17	27508.32
490.35	27983.44
490.53	27983.44
490.70	28329.84
490.88	28158.99
491.06	28250.27
491.24	28297.08
491.41	28563.90
491.59	29057.75
491.77	29013.28
491.95	29766.93
492.13	29373.72
492.30	29450.96
492.48	29638.20
492.66	29905.02
492.84	30115.67
493.01	30401.22
493.19	30565.06
493.37	30988.69
493.54	31143.17
493.72	31613.62
493.90	30859.96
494.08	31323.39
494.25	31749.37
494.43	31625.32
494.61	32046.62
494.79	32048.96
494.96	32371.95
495.14	32613.02
495.32	32870.48
495.49	32856.44
495.67	32896.23
495.85	33219.22
496.02	33151.35
496.20	33661.58
496.38	33523.49
496.55	33853.51
496.73	34443.32
496.91	34511.20
497.09	34178.84
497.26	34490.13
497.44	34536.94
497.62	34632.91
497.79	35306.98
497.97	34911.43
498.14	35526.99
498.32	36009.14
498.50	36072.34
498.67	36594.28
498.85	35868.71
499.03	36484.27
499.20	35931.90
499.38	36194.04
499.56	36746.41
499.73	36526.40
499.91	37010.89
500.08	37436.87
500.26	37305.80
500.44	37532.83
500.61	37439.21
500.79	37266.01
500.97	38033.71
501.14	38038.39
501.32	38108.60
501.49	38134.35
501.67	38590.75
501.84	38817.78
502.02	38157.75
502.20	38925.45
502.37	38586.07
502.55	39182.91
502.72	38885.66
502.90	38857.57
503.07	39033.11
503.25	39517.60
503.43	39110.35
503.60	39997.41
503.78	39622.93
503.95	39957.63
504.13	40187.00
504.30	40411.69
504.48	40086.36
504.65	40605.95
504.83	40502.97
505.01	40500.63
505.18	40940.65
505.36	41518.76
505.53	40760.43
505.71	41060.02
505.88	41418.12
506.06	41434.50
506.23	41907.29
506.41	41551.53
506.58	41968.15
506.76	41804.31
506.93	42366.04
507.11	42059.43
507.28	42382.42
507.46	42309.86
507.63	42267.73
507.81	42948.83
507.98	42913.72
508.16	42986.28
508.33	42656.26
508.50	43122.03
508.68	43147.78
508.85	43634.61
509.03	43164.16
509.20	43409.92
509.38	44013.77
509.55	43995.05
509.73	44322.72
509.90	44161.23
510.08	44037.18
510.25	44128.46
510.42	44938.29
510.60	44505.29
510.77	44893.82
510.95	45254.26
511.12	44830.62
511.30	45214.47
511.47	45193.40
511.64	45139.57
511.82	45436.82
511.99	45181.70
512.17	46033.66
512.34	45415.76
512.51	45944.72
512.69	46162.39
512.86	46263.03
513.04	46117.92
513.21	46265.37
513.38	46593.04
513.56	46265.37
513.73	46480.70
513.90	46831.78
514.08	46681.98
514.25	46796.67
514.43	46719.43
514.60	47222.65
514.77	46581.34
514.95	47313.93
515.12	47325.63
515.29	47255.42
515.47	47480.11
515.64	47746.93
515.81	47643.94
515.99	47973.96
516.16	48259.51
516.33	48212.70
516.51	48430.36
516.68	47856.93
516.85	48428.02
517.03	48215.04
517.20	48399.94
517.37	48645.69
517.54	48601.22
517.72	48449.09
517.89	48734.63
518.06	48879.75
518.24	49188.70
518.41	48601.22
518.58	48959.33
518.75	48919.54
518.93	49354.88
519.10	49050.61
519.27	49427.43
519.45	49375.94
519.62	49544.46
519.79	49954.05
519.96	49818.30
520.14	49694.25
520.31	49624.04
520.48	50110.87
520.65	49914.26
520.83	50618.77
521.00	50410.46
521.17	50333.22
521.34	50679.62
521.52	50752.18
521.69	50670.26
521.86	50499.40
522.03	51009.64
522.20	50990.91
522.38	51236.67
522.55	51262.41
522.72	50946.44
522.89	50951.12
523.07	51367.74
523.24	51264.75
523.41	51463.70
523.58	50803.67
523.75	51444.98
523.92	51576.04
524.10	51770.31
524.27	51875.63
524.44	51550.30
524.61	51732.86
524.78	51459.02
524.96	52114.37
525.13	51910.74
525.30	52191.61
525.47	52168.20
525.64	52273.52
525.81	52411.62
525.98	52500.56
526.16	52243.10
526.33	52552.05
526.50	53200.38
526.67	52739.29
526.84	52772.06
527.01	52638.65
527.18	52645.67
527.36	52598.86
527.53	52767.38
527.70	52935.90
527.87	53228.46
528.04	53043.56
528.21	53022.50
528.38	53078.67
528.55	53366.55
528.72	52935.90
528.89	53324.43
529.07	52917.17
529.24	53368.90
529.41	53701.25
529.58	53167.61
529.75	53422.73
529.92	53240.17
530.09	53593.59
530.26	53701.25
530.43	53654.44
530.60	53572.52
530.77	53436.77
530.94	53900.20
531.11	53645.08
531.28	53904.88
531.46	54078.08
531.63	53942.33
531.80	54024.25
531.97	54024.25
532.14	54328.52
532.31	54314.47
532.48	54464.27
532.65	54326.17
532.82	54211.49
532.99	54270.00
533.16	54536.82
533.33	54419.80
533.50	54770.88
533.67	54497.03
533.84	54494.69
534.01	54646.83
534.18	54981.52
534.35	55049.40
534.52	54740.45
534.69	54780.24
534.86	55025.99
535.03	54724.07
535.20	54843.43
535.37	55030.68
535.54	55175.79
535.71	55121.96
535.88	55356.01
536.05	55173.45
536.22	55189.83
536.38	55161.75
536.55	55096.21
536.72	55543.25
536.89	55299.84
537.06	55201.53
537.23	55398.14
537.40	55253.03
537.57	55538.57
537.74	55604.11
537.91	55831.14
538.08	55491.76
538.25	55377.08
538.42	55608.79
538.59	55744.54
538.75	55758.58
538.92	55662.62
539.09	55819.44
539.26	55943.48
539.43	55739.86
539.60	55931.78
539.77	56114.34
539.94	56273.50
540.11	55920.08
540.28	56210.31
540.44	56261.80
540.61	56296.91
540.78	56334.35
540.95	56193.92
541.12	56271.16
541.29	56189.24
541.46	56287.54
541.62	56135.41
541.79	56329.67
541.96	56130.73
542.13	56343.72
542.30	56374.14
542.47	56678.41
542.63	56463.08
542.80	56537.98
542.97	56882.04
543.14	56914.81
543.31	56994.39
543.48	56886.72
543.64	57333.76
543.81	57132.48
543.98	57296.31
544.15	57113.75
544.32	57045.88
544.48	57343.12
544.65	57181.63
544.82	57291.63
544.99	57347.81
545.16	57301.00
545.32	57097.37
545.49	57282.27
545.66	57645.05
545.83	57258.87
546.00	57560.79
546.16	57530.37
546.33	57317.38
546.50	57167.58
546.67	57413.34
546.83	57219.08
547.00	57403.98
547.17	57448.45
547.34	57539.73
547.50	57736.34
547.67	57792.51
547.84	57645.05
548.00	57946.98
548.17	57822.93
548.34	57689.52
548.51	58134.23
548.67	57944.64
548.84	57778.46
549.01	57822.93
549.18	58096.78
549.34	58026.56
549.51	58031.24
549.68	58056.99
549.84	58279.34
550.01	58099.12
550.18	58131.89
550.34	58396.37
550.51	58216.14
550.68	58124.86
550.84	57881.45
551.01	58670.21
551.18	58298.06
551.34	58258.27
551.51	58120.18
551.68	58443.18
551.84	58609.35
552.01	58279.34
552.18	58351.90
552.34	58365.94
552.51	58445.52
552.68	58321.47
552.84	58614.04
553.01	58632.76
553.18	58604.67
553.34	58885.54
553.51	58731.06
553.67	58520.41
553.84	58787.24
554.01	58693.61
554.17	58686.59
554.34	58639.78
554.51	58838.73
554.67	58820.00
554.84	58740.42
555.00	58883.20
555.17	58969.80
555.33	58801.28
555.50	58653.82
555.67	58642.12
555.83	58820.00
556.00	58894.90
556.16	59241.30
556.33	58794.26
556.50	58976.82
556.66	59065.76
556.83	58915.96
556.99	59208.53
557.16	59419.18
557.32	59465.99
557.49	59414.50
557.65	59147.68
557.82	59175.76
557.98	59009.59
558.15	59215.55
558.32	59220.23
558.48	59194.49
558.65	59208.53
558.81	59327.90
558.98	59405.14
559.14	59353.65
559.31	59416.84
559.47	59409.82
559.64	59522.16
559.80	59395.77
559.97	59391.09
560.13	59454.29
560.30	59571.32
560.46	59566.63
560.63	59650.89
560.79	59550.25
560.96	59873.24
561.12	59756.22
561.29	59494.08
561.45	59662.60
561.61	59671.96
561.78	59807.71
561.94	59686.00
562.11	59484.72
562.27	59739.83
562.44	59875.58
562.60	59826.43
562.77	59931.76
562.93	59458.97
563.10	59784.30
563.26	59590.04
563.42	59891.97
563.59	59810.05
563.75	59786.64
563.92	60053.47
564.08	59779.62
564.24	59880.27
564.41	59898.99
564.57	59980.91
564.74	59908.35
564.90	60025.38
565.07	59936.44
565.23	59966.87
565.39	59929.42
565.56	60013.68
565.72	59950.48
565.88	59973.89
566.05	59934.10
566.21	59931.76
566.38	60224.32
566.54	60186.88
566.70	60032.40
566.87	60126.02
567.03	59966.87
567.19	60212.62
567.36	60044.10
567.52	60247.73
567.68	60430.29
567.85	60184.54
568.01	60196.24
568.17	60135.38
568.34	60238.37
568.50	60051.12
568.66	60229.01
568.83	60053.47
568.99	60142.41
569.15	60156.45
569.32	60294.54
569.48	60116.66
569.64	60317.95
569.81	60104.96
569.97	60210.28
570.13	60229.01
570.30	60219.64
570.46	60299.22
570.62	60296.88
570.78	60308.58
570.95	60266.45
571.11	60390.50
571.27	60287.52
571.43	60252.41
571.60	60472.42
571.76	60350.71
571.92	60498.17
572.09	60236.03
572.25	60411.57
572.41	60453.70
572.57	60357.74
572.74	60528.59
572.90	60331.99
573.06	60331.99
573.22	60416.25
573.38	60416.25
573.55	60458.38
573.71	60603.49
573.87	60608.17
574.03	60430.29
574.20	60392.84
574.36	60378.80
574.52	60589.45
574.68	60680.73
574.84	60568.38
575.01	60638.60
575.17	60542.64
575.33	60460.72
575.49	60353.05
575.65	60589.45
575.82	60657.32
575.98	60500.51
576.14	60748.60
576.30	60622.22
576.46	60500.51
576.62	60446.68
576.79	60444.33
576.95	60369.44
577.11	60523.91
577.27	60552.00
577.43	60631.58
577.59	60479.44
577.75	60544.98
577.92	60556.68
578.08	60441.99
578.24	60601.15
578.40	60755.63
578.56	60884.36
578.72	60680.73
578.88	60678.39
579.04	60692.43
579.21	60786.05
579.37	60811.80
579.53	60678.39
579.69	60500.51
579.85	60669.03
580.01	60542.64
580.17	60512.21
580.33	60647.96
580.49	60797.76
580.65	60736.90
580.82	60720.52
580.98	60652.64
581.14	60622.22
581.30	60662.00
581.46	60692.43
581.62	60699.45
581.78	60596.47
581.94	60793.07
582.10	60718.18
582.26	60678.39
582.42	60676.05
582.58	60900.74
582.74	60795.42
582.90	60774.35
583.06	60727.54
583.22	60521.57
583.38	60811.80
583.54	60725.20
583.70	60601.15
583.86	60865.63
584.02	60718.18
584.18	60917.12
584.34	60697.11
584.50	60779.03
584.66	60790.73
584.82	60692.43
584.98	60921.80
585.14	60774.35
585.30	60720.52
585.46	60919.46
585.62	60605.83
585.78	60928.83
585.94	60523.91
586.10	61015.43
586.26	60767.33
586.42	60732.22
586.58	60727.54
586.74	60779.03
586.90	60734.56
587.06	60790.73
587.22	60987.34
587.38	60968.61
587.54	60849.25
587.70	61092.66
587.86	60797.76
588.02	60917.12
588.18	60931.17
588.34	60975.64
588.49	60905.42
