SpectraSuite Data File
++++++++++++++++++++++++++++++++++++
Date: Fri Oct 25 11:26:37 EDT 2013
User: price-jones
Dark Spectrum Present: No
Reference Spectrum Present: No
Number of Sampled Component Spectra: 1
Spectrometers: USB2+H05261
Integration Time (usec): 100000 (USB2+H05261)
Spectra Averaged: 1 (USB2+H05261)
Boxcar Smoothing: 0 (USB2+H05261)
Correct for Electrical Dark: No (USB2+H05261)
Strobe/Lamp Enabled: No (USB2+H05261)
Correct for Detector Non-linearity: No (USB2+H05261)
Correct for Stray Light: No (USB2+H05261)
Number of Pixels in Processed Spectrum: 2048
>>>>>Begin Processed Spectral Data<<<<<
365.73	262.14
365.92	262.14
366.12	262.14
366.32	198.95
366.52	105.32
366.72	196.60
366.91	163.84
367.11	184.90
367.31	133.41
367.51	147.45
367.70	91.28
367.90	166.18
368.10	121.71
368.30	177.88
368.49	140.43
368.69	98.30
368.89	147.45
369.09	91.28
369.28	191.92
369.48	117.03
369.68	131.07
369.87	191.92
370.07	145.11
370.27	231.71
370.47	393.21
370.66	603.86
370.86	636.63
371.06	674.07
371.25	706.84
371.45	744.29
371.65	751.31
371.84	620.24
372.04	734.93
372.24	760.67
372.44	741.95
372.63	786.42
372.83	772.38
373.03	702.16
373.22	711.52
373.42	788.76
373.62	767.70
373.81	730.25
374.01	819.19
374.21	837.91
374.40	807.48
374.60	861.32
374.79	870.68
374.99	917.49
375.19	835.57
375.38	844.93
375.58	898.77
375.78	800.46
375.97	901.11
376.17	903.45
376.37	821.53
376.56	760.67
376.76	814.51
376.95	877.70
377.15	983.02
377.35	922.17
377.54	966.64
377.74	947.92
377.93	947.92
378.13	992.39
378.33	959.62
378.52	983.02
378.72	926.85
378.91	987.71
379.11	950.26
379.31	954.94
379.50	873.02
379.70	973.66
379.89	999.41
380.09	926.85
380.28	990.05
380.48	1004.09
380.68	966.64
380.87	1011.11
381.07	1022.81
381.26	1055.58
381.46	1046.22
381.65	976.00
381.85	1041.54
382.04	971.32
382.24	1121.12
382.43	1093.03
382.63	1048.56
382.83	1029.84
383.02	1100.05
383.22	1156.22
383.41	1172.61
383.61	1149.20
383.80	1193.67
384.00	1076.65
384.19	1076.65
384.39	1100.05
384.58	1198.35
384.78	1095.37
384.97	1132.82
385.17	1200.69
385.36	1238.14
385.56	1151.54
385.75	1172.61
385.95	1256.87
386.14	1287.29
386.34	1181.97
386.53	1282.61
386.72	1254.53
386.92	1299.00
387.11	1210.06
387.31	1249.85
387.50	1327.08
387.70	1240.48
387.89	1240.48
388.09	1322.40
388.28	1418.36
388.48	1291.98
388.67	1341.13
388.86	1423.05
389.06	1313.04
389.25	1385.60
389.45	1425.39
389.64	1352.83
389.84	1385.60
390.03	1385.60
390.22	1355.17
390.42	1366.87
390.61	1420.71
390.81	1383.26
391.00	1425.39
391.19	1462.83
391.39	1411.34
391.58	1409.00
391.78	1399.64
391.97	1455.81
392.16	1444.11
392.36	1483.90
392.55	1540.07
392.75	1542.41
392.94	1537.73
393.13	1554.12
393.33	1521.35
393.52	1603.27
393.71	1554.12
393.91	1582.20
394.10	1528.37
394.29	1645.40
394.49	1605.61
394.68	1652.42
394.88	1584.54
395.07	1678.16
395.26	1687.53
395.46	1678.16
395.65	1682.85
395.84	1652.42
396.04	1788.17
396.23	1692.21
396.42	1757.74
396.62	1748.38
396.81	1809.23
397.00	1790.51
397.19	1851.36
397.39	1797.53
397.58	1900.52
397.77	1825.62
397.97	1947.33
398.16	1804.55
398.35	1823.28
398.55	1834.98
398.74	1930.94
398.93	1942.64
399.12	2005.84
399.32	2033.93
399.51	1963.71
399.70	2031.58
399.90	2010.52
400.09	2097.12
400.28	1994.14
400.47	2017.54
400.67	2045.63
400.86	2069.03
401.05	2073.71
401.24	2214.15
401.44	2094.78
401.63	2073.71
401.82	2148.61
402.01	2101.80
402.21	2076.06
402.40	2162.66
402.59	2120.53
402.78	2326.49
402.97	2314.79
403.17	2319.47
403.36	2291.38
403.55	2181.38
403.74	2300.75
403.93	2368.62
404.13	2375.64
404.32	2345.22
404.51	2431.82
404.70	2385.01
404.89	2417.77
405.09	2455.22
405.28	2485.65
405.47	2516.08
405.66	2541.82
405.85	2551.18
406.05	2525.44
406.24	2616.72
406.43	2518.42
406.62	2574.59
406.81	2764.17
407.00	2586.29
407.20	2572.25
407.39	2647.15
407.58	2626.08
407.77	2759.49
407.96	2787.58
408.15	2801.62
408.34	2757.15
408.54	2796.94
408.73	2878.86
408.92	3040.36
409.11	2930.35
409.30	2956.10
409.49	2951.42
409.68	2935.03
409.87	2928.01
410.07	2897.58
410.26	3066.10
410.45	3035.67
410.64	3096.53
410.83	3087.17
411.02	3056.74
411.21	3255.69
411.40	3152.70
411.59	3148.02
411.78	3232.28
411.98	3206.53
412.17	3234.62
412.36	3316.54
412.55	3393.78
412.74	3478.04
412.93	3487.40
413.12	3391.44
413.31	3639.53
413.50	3513.14
413.69	3386.76
413.88	3611.45
414.07	3555.27
414.26	3761.24
414.45	3620.81
414.64	3735.50
414.83	3819.75
415.02	3667.62
415.22	3847.84
415.41	3719.11
415.60	3901.67
415.79	3854.86
415.98	4095.94
416.17	3915.72
416.36	3878.27
416.55	3852.52
416.74	4142.75
416.93	4161.47
417.12	4145.09
417.31	4046.79
417.50	4315.95
417.69	4297.22
417.88	4248.07
418.07	4280.84
418.26	4262.12
418.45	4397.87
418.64	4547.66
418.83	4442.34
419.02	4393.19
419.21	4587.45
419.39	4535.96
419.58	4411.91
419.77	4606.17
419.96	4660.01
420.15	4608.51
420.34	4500.85
420.53	4629.58
420.72	4655.33
420.91	4533.62
421.10	4718.52
421.29	4784.06
421.48	4772.35
421.67	4819.16
421.86	4762.99
422.05	4858.95
422.24	4748.95
422.43	4917.47
422.61	4802.78
422.80	4924.49
422.99	4910.44
423.18	4861.29
423.37	4858.95
423.56	5074.28
423.75	4915.12
423.94	4795.76
424.13	4643.62
424.32	4762.99
424.50	4994.70
424.69	5118.75
424.88	5294.29
425.07	5188.97
425.26	4823.84
425.45	5067.26
425.64	4884.70
425.83	5104.71
426.01	5071.94
426.20	4952.57
426.39	4975.98
426.58	5114.07
426.77	5188.97
426.96	5174.92
427.15	5224.08
427.33	5308.34
427.52	5043.85
427.71	5341.10
427.90	5273.23
428.09	5357.49
428.28	5486.22
428.46	5413.66
428.65	5355.15
428.84	5502.60
429.03	5390.25
429.22	5350.46
429.40	5584.52
429.59	5589.20
429.78	5343.44
429.97	5109.39
430.16	5479.19
430.34	5547.07
430.53	5579.84
430.72	5717.93
430.91	5715.59
431.10	5678.14
431.28	5818.57
431.47	5963.68
431.66	5959.00
431.85	5706.23
432.03	5933.26
432.22	5991.77
432.41	5947.30
432.60	5987.09
432.79	6047.94
432.97	6090.07
433.16	6090.07
433.35	6047.94
433.54	6059.65
433.72	6174.33
433.91	6092.41
434.10	6139.23
434.28	6099.44
434.47	6076.03
434.66	6314.77
434.85	6331.15
435.03	6328.81
435.22	6368.60
435.41	6443.49
435.59	6424.77
435.78	6464.56
435.97	6476.26
436.16	6476.26
436.34	6513.71
436.53	6485.62
436.72	6773.51
436.90	6492.65
437.09	6963.09
437.28	6719.68
437.46	6696.27
437.65	6576.91
437.84	6761.81
438.02	6843.73
438.21	7005.22
438.40	6796.92
438.58	7005.22
438.77	7199.49
438.96	6913.94
439.14	7059.06
439.33	7222.89
439.52	7159.70
439.70	7337.58
439.89	7478.01
440.08	7225.23
440.26	7304.81
440.45	7363.33
440.63	7407.80
440.82	7616.10
441.01	7529.50
441.19	7831.43
441.38	7758.88
441.57	7815.05
441.75	7969.52
441.94	7892.29
442.12	8088.89
442.31	7962.50
442.50	8037.40
442.68	7974.21
442.87	8098.25
443.05	8079.53
443.24	8414.23
443.43	8189.53
443.61	8152.09
443.80	8446.99
443.98	8081.87
444.17	7943.78
444.35	8383.80
444.54	8402.52
444.73	8313.58
444.91	8311.24
445.10	8336.99
445.28	8587.43
445.47	8503.17
445.65	8374.44
445.84	8627.21
446.02	8613.17
446.21	8416.57
446.39	8549.98
446.58	8585.08
446.77	8503.17
446.95	8531.25
447.14	8290.18
447.32	8645.94
447.51	8528.91
447.69	8498.49
447.88	8648.28
448.06	8531.25
448.25	8659.98
448.43	8702.11
448.62	8645.94
448.80	8800.41
448.99	8557.00
449.17	8753.60
449.36	8575.72
449.54	9097.66
449.73	8847.22
449.91	9071.92
450.10	8854.25
450.28	9057.87
450.46	8917.44
450.65	9046.17
450.83	9139.79
451.02	9053.19
451.20	9373.85
451.39	9181.92
451.57	9102.34
451.76	9018.08
451.94	9029.79
452.13	9221.71
452.31	9401.93
452.49	9193.62
452.68	9291.93
452.86	9528.32
453.05	9586.83
453.23	9717.90
453.42	9238.09
453.60	9275.54
453.78	9476.83
453.97	9565.77
454.15	9596.20
454.34	9533.00
454.52	9750.67
454.70	9722.59
454.89	9804.50
455.07	9863.02
455.26	9914.51
455.44	10026.86
455.62	9900.47
455.81	9975.36
455.99	9998.77
456.17	10003.45
456.36	10221.12
456.54	10279.63
456.73	10249.21
456.91	10366.23
457.09	10642.42
457.28	10733.70
457.46	10289.00
457.64	10523.05
457.83	10583.90
458.01	10342.83
458.19	10459.85
458.38	10501.98
458.56	10649.44
458.74	10792.21
458.93	10750.08
459.11	10813.28
459.29	10782.85
459.48	10892.85
459.66	10810.93
459.84	10951.37
460.03	11056.69
460.21	11103.50
460.39	10930.30
460.57	11005.20
460.76	11250.96
460.94	11377.34
461.12	11281.38
461.31	11470.97
461.49	11208.83
461.67	10995.84
461.85	11595.01
462.04	11428.84
462.22	11609.06
462.40	11630.12
462.59	11800.98
462.77	11658.21
462.95	11761.19
463.13	11667.57
463.32	11658.21
463.50	11742.47
463.68	11747.15
463.86	11756.51
464.05	11536.50
464.23	11620.76
464.41	12070.14
464.59	11662.89
464.78	12152.06
464.96	12018.65
465.14	11967.16
465.32	12149.72
465.50	12238.66
465.69	12205.89
465.87	12163.76
466.05	12163.76
466.23	12196.53
466.41	12149.72
466.60	12500.80
466.78	12304.20
466.96	12343.99
467.14	12362.71
467.32	12444.63
467.51	12531.23
467.69	12351.01
467.87	12566.34
468.05	12571.02
468.23	12482.08
468.41	12463.35
468.60	12659.96
468.78	12891.67
468.96	12643.57
469.14	12938.48
469.32	13240.41
469.50	12786.35
469.69	13188.92
469.87	12992.31
470.05	13252.11
470.23	13046.15
470.41	13116.36
470.59	13635.96
470.77	13504.89
470.95	13209.98
471.14	13605.53
471.32	13186.58
471.50	13928.53
471.68	13642.98
471.86	13926.19
472.04	13762.35
472.22	14012.79
472.40	13865.33
472.58	14120.45
472.77	13792.78
472.95	14195.35
473.13	14607.28
473.31	14111.09
473.49	14258.54
473.67	14022.15
473.85	14487.92
474.03	14817.93
474.21	14511.32
474.39	14853.04
474.57	14778.14
474.75	15042.62
474.93	15082.41
475.12	15051.99
475.30	15405.41
475.48	15374.98
475.66	15145.61
475.84	15353.91
476.02	15569.24
476.20	15496.69
476.38	15686.27
476.56	15971.82
476.74	15971.82
476.92	16137.99
477.10	15702.65
477.28	16079.48
477.46	16154.38
477.64	16425.88
477.82	16643.55
478.00	17085.91
478.18	16982.93
478.36	17205.28
478.54	17188.89
478.72	17205.28
478.90	17467.42
479.08	17359.75
479.26	17750.62
479.44	17987.02
479.62	17820.84
479.80	18118.09
479.98	18246.82
480.16	18656.41
480.34	18363.84
480.52	18698.54
480.70	18555.77
480.88	18279.58
481.06	18672.79
481.24	18855.36
481.41	19056.64
481.59	19138.56
481.77	19686.25
481.95	19484.96
482.13	19824.34
482.31	19807.95
482.49	20545.22
482.67	20208.19
482.85	20547.56
483.03	20898.64
483.21	21167.80
483.39	21053.12
483.57	20751.19
483.74	20968.86
483.92	21514.20
484.10	21530.59
484.28	21996.35
484.46	22092.32
484.64	22097.00
484.82	21895.71
485.00	22373.18
485.18	22757.03
485.35	22841.29
485.53	23098.75
485.71	23204.07
485.89	23859.42
486.07	23618.35
486.25	23681.54
486.43	23777.50
486.61	23894.53
486.78	24170.71
486.96	24233.91
487.14	24893.94
487.32	24599.03
487.50	25118.63
487.68	25139.69
487.85	25252.04
488.03	25207.57
488.21	26047.82
488.39	25626.53
488.57	26302.94
488.75	26665.72
488.92	26579.12
489.10	26838.92
489.28	26654.02
489.46	27267.24
489.64	26857.65
489.81	27707.26
489.99	28032.60
490.17	27791.52
490.35	28173.03
490.53	28252.61
490.70	28613.05
490.88	28374.31
491.06	28776.89
491.24	29090.52
491.41	29401.81
491.59	29275.42
491.77	29493.09
491.95	29621.82
492.13	30087.59
492.30	29883.96
492.48	30162.48
492.66	30555.69
492.84	30110.99
493.01	31037.84
493.19	30787.41
493.37	30946.56
493.54	31365.52
493.72	31695.53
493.90	31634.68
494.08	31875.76
494.25	32449.19
494.43	32077.04
494.61	32526.42
494.79	32233.86
494.96	32800.27
495.14	32865.80
495.32	32919.63
495.49	33312.84
495.67	33387.74
495.85	33811.38
496.02	33776.27
496.20	34139.05
496.38	34366.09
496.55	33958.83
496.73	35154.85
496.91	34616.52
497.09	34642.27
497.26	35292.94
497.44	35154.85
497.62	35065.91
497.79	35468.48
497.97	35517.63
498.14	36147.23
498.32	36016.16
498.50	36687.90
498.67	36210.43
498.85	36346.18
499.03	36538.10
499.20	36463.21
499.38	37010.89
499.56	37266.01
499.73	37673.26
499.91	37504.74
500.08	37326.86
500.26	37434.53
500.44	38143.71
500.61	37972.85
500.79	38014.98
500.97	38103.92
501.14	38780.34
501.32	38195.20
501.49	38672.67
501.67	39192.27
501.84	39241.42
502.02	39456.75
502.20	39271.85
502.37	39243.76
502.55	39587.82
502.72	39618.25
502.90	39896.77
503.07	39618.25
503.25	39985.71
503.43	39548.03
503.60	40278.28
503.78	40467.86
503.95	40144.87
504.13	40479.57
504.30	40868.09
504.48	40374.24
504.65	40730.00
504.83	41383.01
505.01	41603.02
505.18	41387.69
505.36	41935.38
505.53	41015.55
505.71	42241.99
505.88	41846.44
506.06	41748.14
506.23	42253.69
506.41	41710.69
506.58	42396.46
506.76	42588.39
506.93	42827.12
507.11	42344.97
507.28	42777.97
507.46	42564.98
507.63	43189.91
507.81	43295.23
507.98	43161.82
508.16	43466.09
508.33	43658.01
508.50	43887.39
508.68	43875.68
508.85	43557.37
509.03	43988.03
509.20	44584.86
509.38	44662.10
509.55	44502.95
509.73	44357.83
509.90	44554.44
510.08	44411.67
510.25	44416.35
510.42	44842.32
510.60	45748.11
510.77	45605.34
510.95	45851.09
511.12	45530.44
511.30	45544.48
511.47	45301.07
511.64	45319.79
511.82	46101.53
511.99	45956.42
512.17	46146.00
512.34	45722.37
512.51	46344.95
512.69	46518.15
512.86	46721.77
513.04	46803.69
513.21	46836.46
513.38	46976.89
513.56	47381.80
513.73	46576.66
513.90	47246.05
514.08	47110.30
514.25	47187.54
514.43	47543.30
514.60	47697.78
514.77	47491.81
514.95	48027.79
515.12	47955.24
515.29	47196.90
515.47	48184.61
515.64	48205.67
515.81	47915.45
515.99	48406.96
516.16	48624.63
516.33	48512.28
516.51	48680.80
516.68	48479.52
516.85	48713.57
517.03	48912.52
517.20	48975.71
517.37	49132.53
517.54	48807.19
517.72	49008.48
517.89	49177.00
518.06	49333.81
518.24	49055.29
518.41	49455.52
518.58	49563.18
518.75	49556.16
518.93	49474.24
519.10	49680.21
519.27	49949.37
519.45	49808.94
519.62	50087.46
519.79	50082.78
519.96	50302.79
520.14	50335.56
520.31	50000.86
520.48	50632.81
520.65	50494.72
520.83	50752.18
521.00	51100.92
521.17	50506.42
521.34	50543.87
521.52	51157.09
521.69	50988.57
521.86	51199.22
522.03	51215.60
522.20	51297.52
522.38	51674.35
522.55	51341.99
522.72	51531.57
522.89	51444.98
523.07	51674.35
523.24	51487.10
523.41	51835.84
523.58	51601.79
523.75	51711.80
523.92	51721.16
524.10	51760.95
524.27	51845.21
524.44	52116.71
524.61	52481.83
524.78	52102.67
524.96	52435.02
525.13	52273.52
525.30	52456.09
525.47	52662.05
525.64	52715.89
525.81	53076.33
525.98	52701.84
526.16	52781.42
526.33	52591.84
526.50	52975.69
526.67	52832.91
526.84	53242.51
527.01	53013.13
527.18	53081.01
527.36	52900.79
527.53	53160.59
527.70	53521.03
527.87	53462.52
528.04	53137.18
528.21	53656.78
528.38	53483.58
528.55	53642.74
528.72	53483.58
528.89	53677.85
529.07	53464.86
529.24	53624.01
529.41	54007.86
529.58	54007.86
529.75	53764.45
529.92	53790.19
530.09	53993.82
530.26	54003.18
530.43	54155.32
530.60	53848.71
530.77	54127.23
530.94	54302.77
531.11	53741.04
531.28	54351.92
531.46	54321.49
531.63	54440.86
531.80	54398.73
531.97	54459.58
532.14	54532.14
532.31	54588.31
532.48	54827.05
532.65	54887.90
532.82	54501.71
532.99	55051.74
533.16	54752.15
533.33	54834.07
533.50	54941.74
533.67	54824.71
533.84	54600.02
534.01	55058.76
534.18	55030.68
534.35	55224.94
534.52	55236.64
534.69	55564.32
534.86	55384.10
535.03	55246.00
535.20	55267.07
535.37	55407.50
535.54	55482.40
535.71	55341.97
535.88	55702.41
536.05	55522.19
536.22	55561.98
536.38	55730.50
536.55	55945.83
536.72	55552.62
536.89	55781.99
537.06	55707.09
537.23	55866.25
537.40	55711.77
537.57	56011.36
537.74	55753.90
537.91	56229.03
538.08	55927.10
538.25	55983.27
538.42	56222.01
538.59	56390.53
538.75	55833.48
538.92	56179.88
539.09	56222.01
539.26	56467.76
539.43	56163.50
539.60	56374.14
539.77	56547.34
539.94	56559.05
540.11	56402.23
540.28	56465.42
540.44	56507.55
540.61	56488.83
540.78	56364.78
540.95	56666.71
541.12	56458.40
541.29	56484.15
541.46	56655.01
541.62	56463.08
541.79	56708.84
541.96	56371.80
542.13	56713.52
542.30	56797.78
542.47	56980.34
542.63	56963.96
542.80	57190.99
542.97	57158.22
543.14	57333.76
543.31	57186.31
543.48	57427.38
543.64	57265.89
543.81	57460.15
543.98	57448.45
544.15	57336.10
544.32	57549.09
544.48	57652.08
544.65	57392.28
544.82	57574.84
544.99	57312.70
545.16	57766.76
545.32	57516.32
545.49	57764.42
545.66	57916.56
545.83	57689.52
546.00	57911.88
546.16	57881.45
546.33	57764.42
546.50	57556.11
546.67	57822.93
546.83	57563.14
547.00	57668.46
547.17	57860.38
547.34	57958.69
547.50	58260.62
547.67	58267.64
547.84	57956.35
548.00	58408.07
548.17	58375.30
548.34	58141.25
548.51	58351.90
548.67	58445.52
548.84	58244.23
549.01	58047.63
549.18	58131.89
549.34	58281.68
549.51	58379.98
549.68	58494.67
549.84	58429.13
550.01	58576.59
550.18	58394.03
550.34	58618.72
550.51	58656.17
550.68	58520.41
550.84	58035.92
551.01	58602.33
551.18	58391.68
551.34	58805.96
551.51	58550.84
551.68	58808.30
551.84	58845.75
552.01	58623.40
552.18	58714.68
552.34	58506.37
552.51	58574.25
552.68	58452.54
552.84	58805.96
553.01	58976.82
553.18	58838.73
553.34	58927.67
553.51	58791.92
553.67	58894.90
553.84	59194.49
554.01	59007.25
554.17	59189.81
554.34	59229.60
554.51	58965.12
554.67	59192.15
554.84	59178.10
555.00	59079.80
555.17	59018.95
555.33	59304.49
555.50	59133.63
555.67	59180.45
555.83	59234.28
556.00	59318.54
556.16	59580.68
556.33	59318.54
556.50	59288.11
556.66	59416.84
556.83	59241.30
556.99	59405.14
557.16	59491.74
557.32	59606.42
557.49	59568.97
557.65	59543.23
557.82	59440.24
557.98	59470.67
558.15	59480.03
558.32	59522.16
558.48	59643.87
558.65	59674.30
558.81	59379.39
558.98	59449.61
559.14	59419.18
559.31	59678.98
559.47	59796.01
559.64	59788.98
559.80	59936.44
559.97	59793.67
560.13	59664.94
560.30	59908.35
560.46	59758.56
560.63	59861.54
560.79	59990.27
560.96	59936.44
561.12	59756.22
561.29	59882.61
561.45	59915.37
561.61	59913.03
561.78	60009.00
561.94	59681.32
562.11	59945.80
562.27	59901.33
562.44	60116.66
562.60	60116.66
562.77	60065.17
562.93	59950.48
563.10	60102.62
563.26	59976.23
563.42	60406.89
563.59	60250.07
563.75	59873.24
563.92	60205.60
564.08	60130.70
564.24	60259.43
564.41	60126.02
564.57	60224.32
564.74	59936.44
564.90	60149.43
565.07	60177.51
565.23	60198.58
565.39	60189.22
565.56	60310.92
565.72	60004.31
565.88	60523.91
566.05	60346.03
566.21	60367.10
566.38	60252.41
566.54	60383.48
566.70	60500.51
566.87	60573.06
567.03	60252.41
567.19	60547.32
567.36	60467.74
567.52	60418.59
567.68	60556.68
567.85	60631.58
568.01	60587.11
568.17	60306.24
568.34	60566.04
568.50	60280.50
568.66	60500.51
568.83	60521.57
568.99	60299.22
569.15	60493.49
569.32	60608.17
569.48	60456.04
569.64	60566.04
569.81	60549.66
569.97	60535.62
570.13	60636.26
570.30	60451.36
570.46	60570.72
570.62	60694.77
570.78	60711.16
570.95	60645.62
571.11	60603.49
571.27	60329.65
571.43	60715.84
571.60	60835.20
571.76	60622.22
571.92	60729.88
572.09	60575.40
572.25	60434.97
572.41	60399.86
572.57	60556.68
572.74	60928.83
572.90	60544.98
573.06	60832.86
573.22	60678.39
573.38	60743.92
573.55	60575.40
573.71	60874.99
573.87	60884.36
574.03	60568.38
574.20	60814.14
574.36	60886.70
574.52	60711.16
574.68	60725.20
574.84	60966.27
575.01	60884.36
575.17	60853.93
575.33	60699.45
575.49	60786.05
575.65	60762.65
575.82	60832.86
575.98	60795.42
576.14	60999.04
576.30	60956.91
576.46	60781.37
576.62	60860.95
576.79	60683.07
576.95	60673.71
577.11	60882.02
577.27	60949.89
577.43	60795.42
577.59	60863.29
577.75	60921.80
577.92	60872.65
578.08	60757.97
578.24	60999.04
578.40	61020.11
578.56	61085.64
578.72	60863.29
578.88	60996.70
579.04	61130.11
579.21	60856.27
579.37	61212.03
579.53	61186.28
579.69	60729.88
579.85	60816.48
580.01	60814.14
580.17	60807.12
580.33	61048.19
580.49	61132.45
580.65	61139.47
580.82	60980.32
580.98	61083.30
581.14	61020.11
581.30	61111.39
581.46	60893.72
581.62	60980.32
581.78	61029.47
581.94	60954.57
582.10	60870.31
582.26	60982.66
582.42	60832.86
582.58	60985.00
582.74	60872.65
582.90	61006.06
583.06	61085.64
583.22	60755.63
583.38	60886.70
583.54	60910.10
583.70	61036.49
583.86	61183.94
584.02	61027.13
584.18	61062.24
584.34	60940.53
584.50	60947.55
584.66	61048.19
584.82	60968.61
584.98	61200.33
585.14	61183.94
585.30	60966.27
585.46	61345.44
585.62	61167.56
585.78	61219.05
585.94	60940.53
586.10	61137.13
586.26	61265.86
586.42	61043.51
586.58	61212.03
586.74	61289.27
586.90	61109.05
587.06	61338.42
587.22	61165.22
587.38	61045.85
587.54	61118.41
587.70	61284.59
587.86	61123.09
588.02	61006.06
588.18	61176.92
588.34	61048.19
588.49	61120.75
