SpectraSuite Data File
++++++++++++++++++++++++++++++++++++
Date: Fri Oct 25 11:33:15 EDT 2013
User: price-jones
Dark Spectrum Present: No
Reference Spectrum Present: No
Number of Sampled Component Spectra: 1
Spectrometers: USB2+H05261
Integration Time (usec): 100000 (USB2+H05261)
Spectra Averaged: 1 (USB2+H05261)
Boxcar Smoothing: 0 (USB2+H05261)
Correct for Electrical Dark: No (USB2+H05261)
Strobe/Lamp Enabled: No (USB2+H05261)
Correct for Detector Non-linearity: No (USB2+H05261)
Correct for Stray Light: No (USB2+H05261)
Number of Pixels in Processed Spectrum: 2048
>>>>>Begin Processed Spectral Data<<<<<
365.73	224.69
365.92	224.69
366.12	224.69
366.32	159.16
366.52	138.09
366.72	166.18
366.91	126.39
367.11	161.50
367.31	107.66
367.51	222.35
367.70	224.69
367.90	100.64
368.10	159.16
368.30	173.20
368.49	245.76
368.69	208.31
368.89	138.09
369.09	205.97
369.28	271.50
369.48	220.01
369.68	184.90
369.87	210.65
370.07	250.44
370.27	257.46
370.47	269.16
370.66	500.87
370.86	498.53
371.06	526.62
371.25	465.77
371.45	568.75
371.65	568.75
371.84	573.43
372.04	540.66
372.24	564.07
372.44	610.88
372.63	585.13
372.83	575.77
373.03	624.92
373.22	566.41
373.42	615.56
373.62	592.16
373.81	624.92
374.01	674.07
374.21	601.52
374.40	669.39
374.60	641.31
374.79	650.67
374.99	678.76
375.19	692.80
375.38	601.52
375.58	660.03
375.78	690.46
375.97	702.16
376.17	674.07
376.37	678.76
376.56	678.76
376.76	617.90
376.95	685.78
377.15	676.41
377.35	622.58
377.54	753.65
377.74	699.82
377.93	737.27
378.13	655.35
378.33	695.14
378.52	725.57
378.72	683.44
378.91	732.59
379.11	711.52
379.31	732.59
379.50	718.54
379.70	706.84
379.89	716.20
380.09	699.82
380.28	716.20
380.48	781.74
380.68	655.35
380.87	748.97
381.07	631.94
381.26	770.04
381.46	786.42
381.65	798.12
381.85	758.33
382.04	779.40
382.24	809.83
382.43	725.57
382.63	800.46
382.83	737.27
383.02	840.25
383.22	870.68
383.41	805.14
383.61	884.72
383.80	833.23
384.00	828.55
384.19	788.76
384.39	889.40
384.58	858.98
384.78	800.46
384.97	716.20
385.17	791.10
385.36	774.72
385.56	828.55
385.75	777.06
385.95	837.91
386.14	912.81
386.34	926.85
386.53	903.45
386.72	898.77
386.92	945.58
387.11	875.36
387.31	891.74
387.50	812.17
387.70	835.57
387.89	889.40
388.09	896.43
388.28	954.94
388.48	887.06
388.67	889.40
388.86	929.19
389.06	884.72
389.25	992.39
389.45	933.87
389.64	966.64
389.84	947.92
390.03	994.73
390.22	971.32
390.42	940.90
390.61	943.24
390.81	985.37
391.00	1083.67
391.19	1041.54
391.39	990.05
391.58	1062.60
391.78	994.73
391.97	1022.81
392.16	971.32
392.36	1013.45
392.55	1107.07
392.75	1027.50
392.94	1039.20
393.13	1053.24
393.33	980.68
393.52	1064.94
393.71	1088.35
393.91	1060.26
394.10	1121.12
394.29	1104.73
394.49	1086.01
394.68	1139.84
394.88	1151.54
395.07	1231.12
395.26	1130.48
395.46	1160.91
395.65	1198.35
395.84	1125.80
396.04	1294.32
396.23	1165.59
396.42	1191.33
396.62	1268.57
396.81	1210.06
397.00	1200.69
397.19	1231.12
397.39	1214.74
397.58	1188.99
397.77	1259.21
397.97	1277.93
398.16	1291.98
398.35	1296.66
398.55	1306.02
398.74	1268.57
398.93	1341.13
399.12	1291.98
399.32	1306.02
399.51	1242.82
399.70	1355.17
399.90	1287.29
400.09	1343.47
400.28	1430.07
400.47	1338.79
400.67	1394.96
400.86	1451.13
401.05	1406.66
401.24	1430.07
401.44	1411.34
401.63	1434.75
401.82	1549.43
402.01	1460.49
402.21	1434.75
402.40	1425.39
402.59	1474.54
402.78	1425.39
402.97	1561.14
403.17	1540.07
403.36	1483.90
403.55	1551.78
403.74	1549.43
403.93	1617.31
404.13	1579.86
404.32	1514.33
404.51	1593.90
404.70	1678.16
404.89	1682.85
405.09	1790.51
405.28	1633.69
405.47	1724.97
405.66	1706.25
405.85	1708.59
406.05	1739.02
406.24	1750.72
406.43	1643.06
406.62	1853.70
406.81	1823.28
407.00	1785.83
407.20	1727.32
407.39	1944.99
407.58	1785.83
407.77	1842.00
407.96	1804.55
408.15	1872.43
408.34	1811.57
408.54	1891.15
408.73	1865.41
408.92	1968.39
409.11	1970.73
409.30	1937.96
409.49	1973.07
409.68	1982.43
409.87	1991.80
410.07	1961.37
410.26	1987.11
410.45	1975.41
410.64	2099.46
410.83	2150.95
411.02	2204.78
411.21	2223.51
411.40	2122.87
411.59	2143.93
411.78	2244.57
411.98	2155.63
412.17	2230.53
412.36	2326.49
412.55	2396.71
412.74	2331.17
412.93	2394.37
413.12	2413.09
413.31	2471.61
413.50	2359.26
413.69	2473.95
413.88	2567.57
414.07	2562.89
414.26	2473.95
414.45	2504.37
414.64	2504.37
414.83	2487.99
415.02	2588.63
415.22	2745.45
415.41	2731.41
415.60	2703.32
415.79	2700.98
415.98	2724.38
416.17	2654.17
416.36	2686.94
416.55	2670.55
416.74	2801.62
416.93	2789.92
417.12	2832.05
417.31	2827.37
417.50	2871.84
417.69	2970.14
417.88	2867.16
418.07	3014.61
418.26	2902.26
418.45	3040.36
418.64	3115.25
418.83	3075.46
419.02	3122.27
419.21	3211.22
419.39	3145.68
419.58	3124.62
419.77	3014.61
419.96	3169.09
420.15	3206.53
420.34	3286.11
420.53	3302.50
420.72	3248.66
420.91	3344.63
421.10	3286.11
421.29	3302.50
421.48	3227.60
421.67	3260.37
421.86	3330.58
422.05	3417.18
422.24	3276.75
422.43	3433.57
422.61	3424.20
422.80	3461.65
422.99	3419.52
423.18	3353.99
423.37	3482.72
423.56	3241.64
423.75	3370.37
423.94	3353.99
424.13	3344.63
424.32	3368.03
424.50	3447.61
424.69	3461.65
424.88	3501.44
425.07	3510.80
425.26	3466.33
425.45	3424.20
425.64	3365.69
425.83	3452.29
426.01	3494.42
426.20	3524.85
426.39	3480.38
426.58	3449.95
426.77	3534.21
426.96	3520.17
427.15	3550.59
427.33	3566.98
427.52	3618.47
427.71	3557.61
427.90	3545.91
428.09	3637.19
428.28	3763.58
428.46	3770.60
428.65	3662.94
428.84	3662.94
429.03	3784.65
429.22	3651.24
429.40	3754.22
429.59	3927.42
429.78	3599.74
429.97	3581.02
430.16	3908.69
430.34	3927.42
430.53	3861.88
430.72	3875.93
430.91	3908.69
431.10	3889.97
431.28	3978.91
431.47	3976.57
431.66	4095.94
431.85	4023.38
432.03	4021.04
432.22	4196.58
432.41	4145.09
432.60	4053.81
432.79	4014.02
432.97	4212.96
433.16	4042.11
433.35	4126.36
433.54	4159.13
433.72	4266.80
433.91	4238.71
434.10	4278.50
434.28	4320.63
434.47	4273.82
434.66	4255.09
434.85	4252.75
435.03	4283.18
435.22	4411.91
435.41	4503.19
435.59	4437.66
435.78	4449.36
435.97	4545.32
436.16	4414.25
436.34	4470.42
436.53	4402.55
436.72	4517.23
436.90	4514.89
437.09	4493.83
437.28	4418.93
437.46	4631.92
437.65	4587.45
437.84	4697.46
438.02	4751.29
438.21	4657.67
438.40	4552.34
438.58	4894.06
438.77	4842.57
438.96	4709.16
439.14	4812.14
439.33	4823.84
439.52	4990.02
439.70	4947.89
439.89	5132.79
440.08	5095.35
440.26	5114.07
440.45	5039.17
440.63	5032.15
440.82	5249.82
441.01	5118.75
441.19	5247.48
441.38	5284.93
441.57	5366.85
441.75	5287.27
441.94	5479.19
442.12	5465.15
442.31	5502.60
442.50	5495.58
442.68	5453.45
442.87	5404.30
443.05	5488.56
443.24	5598.56
443.43	5617.29
443.61	5626.65
443.80	5874.74
443.98	5432.38
444.17	5413.66
444.35	5518.98
444.54	5699.20
444.73	5715.59
444.91	5540.05
445.10	5823.25
445.28	5743.67
445.47	5556.43
445.65	5781.12
445.84	5769.42
446.02	5668.78
446.21	5771.76
446.39	5593.88
446.58	5806.87
446.77	5755.38
446.95	5593.88
447.14	5816.23
447.32	5968.37
447.51	5706.23
447.69	5783.46
447.88	5881.77
448.06	5825.59
448.25	5738.99
448.43	5654.73
448.62	5753.04
448.80	5884.11
448.99	5989.43
449.17	5954.32
449.36	5942.62
449.54	6024.54
449.73	6099.44
449.91	6104.12
450.10	6111.14
450.28	6150.93
450.46	6162.63
450.65	6221.14
450.83	6111.14
451.02	6267.95
451.20	6251.57
451.39	6321.79
451.57	6195.40
451.76	6036.24
451.94	6230.51
452.13	6265.61
452.31	6300.72
452.49	6274.98
452.68	6354.55
452.86	6291.36
453.05	6345.19
453.23	6431.79
453.42	6480.94
453.60	6548.82
453.78	6614.35
453.97	6253.91
454.15	6509.03
454.34	6483.28
454.52	6551.16
454.70	6516.05
454.89	6502.01
455.07	6630.74
455.26	6642.44
455.44	6757.13
455.62	6705.63
455.81	6502.01
455.99	6787.55
456.17	6698.61
456.36	6991.18
456.54	6850.75
456.73	6834.36
456.91	6991.18
457.09	7073.10
457.28	7023.95
457.46	7185.44
457.64	7290.77
457.83	7108.21
458.01	6981.82
458.19	7307.15
458.38	7117.57
458.56	7206.51
458.74	7342.26
458.93	7215.87
459.11	7358.64
459.29	7136.29
459.48	7360.98
459.66	7187.79
459.84	7241.62
460.03	7377.37
460.21	7368.01
460.39	7190.13
460.57	7510.78
460.76	7522.48
460.94	7438.22
461.12	7478.01
461.31	7529.50
461.49	7417.16
461.67	7410.14
461.85	7775.26
462.04	7592.70
462.22	8191.88
462.40	7836.11
462.59	7791.64
462.77	7885.26
462.95	7836.11
463.13	7761.22
463.32	7749.51
463.50	7939.10
463.68	7857.18
463.86	7845.48
464.05	7744.83
464.23	7866.54
464.41	7908.67
464.59	7817.39
464.78	8257.41
464.96	8058.46
465.14	8128.68
465.32	8070.17
465.50	8203.58
465.69	8182.51
465.87	8276.13
466.05	8140.38
466.23	8266.77
466.41	8219.96
466.60	8266.77
466.78	8355.71
466.96	8021.02
467.14	8390.82
467.32	8430.61
467.51	8404.86
467.69	8344.01
467.87	8505.51
468.05	8468.06
468.23	8418.91
468.41	8454.02
468.60	8521.89
468.78	8526.57
468.96	8561.68
469.14	8475.08
469.32	8816.80
469.50	8545.30
469.69	8587.43
469.87	8896.38
470.05	8879.99
470.23	8952.55
470.41	8947.87
470.59	8826.16
470.77	8795.73
470.95	8851.91
471.14	9165.54
471.32	8840.20
471.50	9097.66
471.68	9041.49
471.86	9132.77
472.04	9357.46
472.22	9357.46
472.40	9121.07
472.58	9334.06
472.77	9357.46
472.95	9245.12
473.13	9820.89
473.31	9483.85
473.49	9467.47
473.67	9448.74
473.85	9565.77
474.03	9643.01
474.21	9818.55
474.39	9944.94
474.57	9846.63
474.75	10003.45
474.93	9949.62
475.12	9671.09
475.30	10040.90
475.48	9954.30
475.66	10052.60
475.84	10195.37
476.02	10289.00
476.20	10277.29
476.38	10349.85
476.56	10714.97
476.74	10590.92
476.92	10616.67
477.10	10719.65
477.28	10693.91
477.46	11129.25
477.64	10869.45
477.82	10995.84
478.00	11665.23
478.18	11140.95
478.36	11140.95
478.54	11470.97
478.72	11314.15
478.90	11730.76
479.08	11534.16
479.26	11613.74
479.44	11859.49
479.62	11681.61
479.80	11623.10
479.98	12133.34
480.16	12210.57
480.34	12112.27
480.52	12332.28
480.70	12334.62
480.88	12222.28
481.06	12395.48
481.24	12437.61
481.41	12573.36
481.59	12800.39
481.77	13057.85
481.95	12924.44
482.13	12940.82
482.31	13158.49
482.49	13483.83
482.67	13324.67
482.85	13444.04
483.03	13605.53
483.21	13748.31
483.39	13825.54
483.57	13860.65
483.74	13935.55
483.92	13975.34
484.10	14118.11
484.28	14272.59
484.46	14520.68
484.64	14670.48
484.82	14600.26
485.00	14731.33
485.18	14888.15
485.35	15150.29
485.53	15016.88
485.71	15344.55
485.89	15286.04
486.07	15386.68
486.25	15517.75
486.43	15726.06
486.61	15716.70
486.78	15850.11
486.96	16119.27
487.14	16498.44
487.32	16297.15
487.50	16283.11
487.68	16510.14
487.85	16800.37
488.03	16821.43
488.21	16868.24
488.39	16882.28
488.57	16966.54
488.75	17331.67
488.92	17390.18
489.10	17795.09
489.28	17741.26
489.46	17930.84
489.64	17893.40
489.81	18295.97
489.99	18235.11
490.17	18492.57
490.35	18434.06
490.53	18501.93
490.70	18499.59
490.88	18911.53
491.06	18721.95
491.24	18927.91
491.41	19499.00
491.59	19405.38
491.77	19218.14
491.95	19328.14
492.13	19709.65
492.30	19702.63
492.48	19843.06
492.66	19803.27
492.84	20025.62
493.01	20510.11
493.19	20109.88
493.37	20376.70
493.54	20645.87
493.72	20814.38
493.90	20662.25
494.08	20947.79
494.25	20929.07
494.43	21261.43
494.61	21172.49
494.79	21654.64
494.96	21420.58
495.14	21823.16
495.32	21710.81
495.49	21652.30
495.67	22101.68
495.85	22288.92
496.02	21855.92
496.20	22424.67
496.38	22375.52
496.55	22401.27
496.73	23075.34
496.91	22750.01
497.09	23157.26
497.26	22925.55
497.44	23337.48
497.62	23154.92
497.79	23616.01
497.97	23503.66
498.14	23772.82
498.32	23630.05
498.50	23894.53
498.67	24149.65
498.85	23623.03
499.03	24205.82
499.20	24245.61
499.38	24049.00
499.56	24498.39
499.73	24451.58
499.91	24936.07
500.08	25060.12
500.26	24851.81
500.44	24716.06
500.61	24954.79
500.79	24952.45
500.97	24924.36
501.14	25488.43
501.32	25598.44
501.49	25633.55
501.67	25535.24
501.84	25699.08
502.02	25708.44
502.20	25991.65
502.37	26422.31
502.55	25996.33
502.72	26223.36
502.90	26120.38
503.07	26129.74
503.25	26223.36
503.43	25956.54
503.60	26398.90
503.78	26574.44
503.95	26850.63
504.13	26675.09
504.30	26569.76
504.48	26806.16
504.65	26843.60
504.83	27019.14
505.01	27630.02
505.18	27133.83
505.36	27520.02
505.53	27718.96
505.71	27442.78
505.88	27449.80
506.06	27704.92
506.23	27824.29
506.41	27463.85
506.58	27913.23
506.76	27880.46
506.93	28215.16
507.11	27997.49
507.28	28402.40
507.46	28491.34
507.63	28084.09
507.81	28833.06
507.98	28542.83
508.16	29050.73
508.33	28587.30
508.50	29106.90
508.68	29036.69
508.85	29289.46
509.03	28765.18
509.20	29039.03
509.38	29252.02
509.55	29469.69
509.73	29584.37
509.90	29783.32
510.08	29497.77
510.25	29663.95
510.42	29645.23
510.60	30162.48
510.77	30120.35
510.95	29965.88
511.12	29926.09
511.30	29993.97
511.47	30265.47
511.64	30654.00
511.82	30838.90
511.99	30684.42
512.17	30459.73
512.34	30848.26
512.51	30574.42
512.69	30953.58
512.86	30895.07
513.04	31332.75
513.21	31096.36
513.38	31232.11
513.56	31370.20
513.73	31122.10
513.90	31344.45
514.08	31171.25
514.25	31597.23
514.43	31756.39
514.60	31920.23
514.77	31728.30
514.95	32231.52
515.12	31587.87
515.29	31747.03
515.47	32404.72
515.64	32514.72
515.81	31920.23
515.99	32465.57
516.16	32856.44
516.33	32496.00
516.51	32505.36
516.68	32802.61
516.85	32730.05
517.03	33046.02
517.20	33212.20
517.37	33003.89
517.54	33099.86
517.72	32615.37
517.89	33001.55
518.06	33429.87
518.24	33390.08
518.41	32968.79
518.58	33584.35
518.75	33156.03
518.93	33649.88
519.10	33661.58
519.27	33855.85
519.45	33687.33
519.62	34141.39
519.79	34195.23
519.96	33727.12
520.14	34394.17
520.31	33673.29
520.48	34323.96
520.65	34396.51
520.83	34534.60
521.00	34677.38
521.17	34462.05
521.34	34607.16
521.52	35035.48
521.69	35145.48
521.86	34286.51
522.03	35077.61
522.20	35208.68
522.38	35508.27
522.55	35264.85
522.72	35168.89
522.89	35079.95
523.07	35515.29
523.24	35316.34
523.41	35758.70
523.58	35358.47
523.75	35325.71
523.92	35924.88
524.10	35758.70
524.27	35920.20
524.44	35857.01
524.61	36067.66
524.78	35887.43
524.96	35725.94
525.13	36247.88
525.30	36215.11
525.47	36292.35
525.64	36245.54
525.81	36594.28
525.98	36411.71
526.16	36292.35
526.33	36552.15
526.50	36900.89
526.67	36561.51
526.84	36694.92
527.01	36842.37
527.18	36943.02
527.36	37104.51
527.53	37064.72
527.70	37507.08
527.87	37443.89
528.04	37083.45
528.21	37350.27
528.38	37156.00
528.55	37528.15
528.72	37326.86
528.89	37518.79
529.07	37305.80
529.24	37317.50
529.41	37617.09
529.58	37593.68
529.75	37432.19
529.92	37551.56
530.09	37448.57
530.26	37647.52
530.43	38394.15
530.60	37928.38
530.77	37682.62
530.94	38120.31
531.11	38272.44
531.28	38417.55
531.46	38515.86
531.63	38260.74
531.80	38581.39
531.97	38485.43
532.14	38857.57
532.31	38080.52
532.48	39070.56
532.65	38469.04
532.82	38829.49
532.99	38689.06
533.16	38419.89
533.33	38967.58
533.50	39330.36
533.67	38602.46
533.84	39115.03
534.01	39416.96
534.18	39232.06
534.35	39105.67
534.52	39330.36
534.69	39716.55
534.86	39466.11
535.03	39578.46
535.20	39721.23
535.37	39461.43
535.54	39742.30
535.71	39754.00
535.88	39449.73
536.05	39756.34
536.22	40123.80
536.38	39983.37
536.55	39974.01
536.72	39807.83
536.89	39964.65
537.06	40091.04
537.23	40598.93
537.40	39772.72
537.57	40175.30
537.74	40210.40
537.91	40378.92
538.08	40275.94
538.25	40381.26
538.42	40332.11
538.59	40842.35
538.75	40655.11
538.92	40594.25
539.09	40528.72
539.26	40884.48
539.43	40596.59
539.60	40935.97
539.77	40631.70
539.94	41354.93
540.11	41067.04
540.28	41397.06
540.44	40914.90
540.61	41003.85
540.78	40832.99
540.95	40832.99
541.12	40868.09
541.29	40818.94
541.46	41280.03
541.62	41333.86
541.79	41530.47
541.96	41155.98
542.13	41301.09
542.30	41436.84
542.47	41708.35
542.63	41588.98
542.80	41968.15
542.97	42188.16
543.14	42045.38
543.31	42223.26
543.48	41865.16
543.64	42415.19
543.81	42157.73
543.98	42384.76
544.15	42253.69
544.32	42941.81
544.48	42625.84
544.65	42384.76
544.82	42438.59
544.99	42567.32
545.16	43065.86
545.32	42756.91
545.49	42632.86
545.66	43246.08
545.83	42494.77
546.00	43232.04
546.16	42794.36
546.33	42658.60
546.50	42625.84
546.67	43250.76
546.83	42623.50
547.00	42920.74
547.17	42759.25
547.34	42831.80
547.50	43194.59
547.67	43182.88
547.84	43360.76
548.00	43452.05
548.17	43868.66
548.34	43353.74
548.51	44018.46
548.67	43510.56
548.84	43765.68
549.01	43196.93
549.18	43522.26
549.34	43445.02
549.51	43817.17
549.68	43901.43
549.84	43522.26
550.01	43686.10
550.18	43655.67
550.34	43711.84
550.51	43470.77
550.68	43786.74
550.84	43704.82
551.01	44273.57
551.18	43555.03
551.34	44018.46
551.51	44053.56
551.68	43791.42
551.84	44339.11
552.01	43838.23
552.18	44002.07
552.34	44247.83
552.51	44194.00
552.68	44304.00
552.84	44231.44
553.01	44582.52
553.18	44158.89
553.34	44755.72
553.51	44095.69
553.67	44423.37
553.84	44524.01
554.01	44889.13
554.17	44823.60
554.34	44732.32
554.51	44802.53
554.67	44921.90
554.84	44999.14
555.00	44641.04
555.17	44713.59
555.33	44931.26
555.50	45301.07
555.67	45216.81
555.83	44720.62
556.00	45116.17
556.16	45270.64
556.33	44547.42
556.50	45202.77
556.66	44795.51
556.83	45020.20
556.99	45099.78
557.16	45530.44
557.32	45567.89
557.49	45734.07
557.65	45001.48
557.82	45081.06
557.98	45289.37
558.15	45368.94
558.32	45429.80
558.48	45385.33
558.65	45394.69
558.81	46028.98
558.98	45759.81
559.14	45478.95
559.31	45059.99
559.47	46071.10
559.64	45834.71
559.80	45523.42
559.97	45570.23
560.13	45390.01
560.30	45469.59
560.46	45860.46
560.63	45839.39
560.79	46078.13
560.96	46387.08
561.12	46136.64
561.29	45965.78
561.45	45794.92
561.61	45968.12
561.78	45399.37
561.94	46171.75
562.11	46150.68
562.27	46181.11
562.44	45705.98
562.60	46103.87
562.77	46007.91
562.93	45965.78
563.10	46532.19
563.26	45914.29
563.42	46588.36
563.59	45968.12
563.75	45865.14
563.92	45968.12
564.08	46473.68
564.24	46586.02
564.41	46225.58
564.57	46183.45
564.74	46597.73
564.90	46473.68
565.07	46115.58
565.23	46057.06
565.39	46398.78
565.56	46749.86
565.72	46375.37
565.88	46033.66
566.05	46553.26
566.21	46328.56
566.38	46536.87
566.54	46607.09
566.70	46831.78
566.87	46270.05
567.03	46787.31
567.19	46450.27
567.36	46216.22
567.52	46782.63
567.68	47267.12
567.85	46862.21
568.01	46520.49
568.17	46653.90
568.34	47044.77
568.50	46960.51
568.66	46284.09
568.83	46745.18
568.99	46354.31
569.15	46799.01
569.32	46635.17
569.48	46389.42
569.64	46960.51
569.81	46796.67
569.97	47227.33
570.13	47173.50
570.30	46990.94
570.46	46541.55
570.62	47208.61
570.78	46838.80
570.95	47112.64
571.11	47058.81
571.27	47002.64
571.43	46733.48
571.60	47122.01
571.76	46876.25
571.92	46593.04
572.09	46944.12
572.25	46969.87
572.41	46962.85
572.57	47047.11
572.74	47295.21
572.90	46983.91
573.06	47119.66
573.22	47533.94
573.38	47533.94
573.55	47126.69
573.71	47344.36
573.87	46930.08
574.03	47288.18
574.20	47264.78
574.36	47304.57
574.52	47519.90
574.68	47489.47
574.84	47583.09
575.01	47208.61
575.17	47332.65
575.33	47496.49
575.49	47030.72
575.65	47222.65
575.82	47332.65
575.98	47679.05
576.14	47672.03
576.30	47676.71
576.46	47260.10
576.62	47381.80
576.79	47430.96
576.95	47004.98
577.11	46993.28
577.27	47201.58
577.43	47445.00
577.59	47405.21
577.75	47213.29
577.92	47072.85
578.08	47372.44
578.24	47278.82
578.40	47709.48
578.56	47423.93
578.72	47552.66
578.88	47456.70
579.04	47571.39
579.21	47206.26
579.37	47690.76
579.53	47578.41
579.69	47070.51
579.85	47454.36
580.01	47487.13
580.17	47569.05
580.33	47391.17
580.49	47695.44
580.65	47501.17
580.82	47625.22
580.98	47232.01
581.14	47194.56
581.30	47863.96
581.46	47510.53
581.62	47374.78
581.78	47510.53
581.94	47716.50
582.10	47526.92
582.26	47657.99
582.42	47421.59
582.58	47810.12
582.74	47601.82
582.90	47447.34
583.06	47435.64
583.22	47405.21
583.38	47863.96
583.54	47693.10
583.70	47601.82
583.86	47931.83
584.02	47730.54
584.18	47585.43
584.34	47557.35
584.50	47767.99
584.66	48053.54
584.82	47650.97
584.98	48093.33
585.14	48189.29
585.30	47306.91
585.46	47367.76
585.62	47555.00
585.78	47915.45
585.94	47110.30
586.10	47423.93
586.26	47311.59
586.42	47522.24
586.58	47999.71
586.74	47576.07
586.90	47503.51
587.06	47292.86
587.22	47463.72
587.38	47693.10
587.54	48495.90
587.70	48023.11
587.86	48156.52
588.02	47814.80
588.18	47751.61
588.34	47393.51
588.49	48299.30
588.65	47653.31
588.81	47552.66
588.97	48149.50
589.13	48296.95
589.29	47789.06
589.45	48123.75
589.61	47814.80
589.77	48023.11
589.93	47929.49
590.08	48203.33
