SpectraSuite Data File
++++++++++++++++++++++++++++++++++++
Date: Fri Oct 25 11:26:20 EDT 2013
User: price-jones
Dark Spectrum Present: No
Reference Spectrum Present: No
Number of Sampled Component Spectra: 1
Spectrometers: USB2+H05261
Integration Time (usec): 100000 (USB2+H05261)
Spectra Averaged: 1 (USB2+H05261)
Boxcar Smoothing: 0 (USB2+H05261)
Correct for Electrical Dark: No (USB2+H05261)
Strobe/Lamp Enabled: No (USB2+H05261)
Correct for Detector Non-linearity: No (USB2+H05261)
Correct for Stray Light: No (USB2+H05261)
Number of Pixels in Processed Spectrum: 2048
>>>>>Begin Processed Spectral Data<<<<<
365.73	220.01
365.92	220.01
366.12	220.01
366.32	147.45
366.52	110.01
366.72	117.03
366.91	91.28
367.11	117.03
367.31	100.64
367.51	117.03
367.70	163.84
367.90	149.79
368.10	102.98
368.30	152.13
368.49	121.71
368.69	166.18
368.89	11.70
369.09	168.52
369.28	154.48
369.48	189.58
369.68	173.20
369.87	234.05
370.07	135.75
370.27	248.10
370.47	362.78
370.66	585.13
370.86	662.37
371.06	699.82
371.25	739.61
371.45	634.29
371.65	734.93
371.84	716.20
372.04	676.41
372.24	695.14
372.44	683.44
372.63	734.93
372.83	805.14
373.03	709.18
373.22	753.65
373.42	753.65
373.62	800.46
373.81	788.76
374.01	763.01
374.21	889.40
374.40	816.85
374.60	926.85
374.79	784.08
374.99	922.17
375.19	793.44
375.38	798.12
375.58	877.70
375.78	802.80
375.97	868.34
376.17	947.92
376.37	833.23
376.56	861.32
376.76	880.04
376.95	866.00
377.15	866.00
377.35	866.00
377.54	844.93
377.74	929.19
377.93	922.17
378.13	968.98
378.33	915.15
378.52	985.37
378.72	1001.75
378.91	849.61
379.11	891.74
379.31	929.19
379.50	903.45
379.70	945.58
379.89	1008.77
380.09	957.28
380.28	940.90
380.48	990.05
380.68	992.39
380.87	1025.15
381.07	936.21
381.26	1050.90
381.46	1039.20
381.65	1097.71
381.85	980.68
382.04	1008.77
382.24	1083.67
382.43	1043.88
382.63	976.00
382.83	1109.41
383.02	990.05
383.22	1081.33
383.41	1170.27
383.61	1076.65
383.80	1095.37
384.00	1107.07
384.19	1100.05
384.39	1228.78
384.58	1210.06
384.78	1132.82
384.97	1132.82
385.17	1149.20
385.36	1132.82
385.56	1163.25
385.75	1177.29
385.95	1200.69
386.14	1240.48
386.34	1240.48
386.53	1212.40
386.72	1170.27
386.92	1320.06
387.11	1193.67
387.31	1338.79
387.50	1348.15
387.70	1203.04
387.89	1240.48
388.09	1242.82
388.28	1329.42
388.48	1275.59
388.67	1320.06
388.86	1343.47
389.06	1270.91
389.25	1299.00
389.45	1345.81
389.64	1277.93
389.84	1364.53
390.03	1350.49
390.22	1376.24
390.42	1355.17
390.61	1322.40
390.81	1341.13
391.00	1530.71
391.19	1439.43
391.39	1455.81
391.58	1481.56
391.78	1451.13
391.97	1481.56
392.16	1504.96
392.36	1488.58
392.55	1528.37
392.75	1472.20
392.94	1565.82
393.13	1486.24
393.33	1507.30
393.52	1607.95
393.71	1537.73
393.91	1516.67
394.10	1582.20
394.29	1582.20
394.49	1528.37
394.68	1664.12
394.88	1551.78
395.07	1703.91
395.26	1680.50
395.46	1746.04
395.65	1682.85
395.84	1769.44
396.04	1832.64
396.23	1687.53
396.42	1739.02
396.62	1682.85
396.81	1811.57
397.00	1778.81
397.19	1865.41
397.39	1853.70
397.58	1774.13
397.77	1788.17
397.97	1853.70
398.16	1881.79
398.35	1895.83
398.55	1856.04
398.74	1858.39
398.93	1935.62
399.12	1984.77
399.32	1863.07
399.51	1923.92
399.70	1977.75
399.90	1947.33
400.09	2064.35
400.28	2019.88
400.47	1966.05
400.67	2036.27
400.86	2104.14
401.05	2019.88
401.24	2083.08
401.44	2036.27
401.63	2146.27
401.82	2099.46
402.01	2073.71
402.21	2150.95
402.40	2267.98
402.59	2157.97
402.78	2197.76
402.97	2235.21
403.17	2237.55
403.36	2214.15
403.55	2260.96
403.74	2319.47
403.93	2380.32
404.13	2385.01
404.32	2403.73
404.51	2265.64
404.70	2413.09
404.89	2331.17
405.09	2427.14
405.28	2394.37
405.47	2471.61
405.66	2403.73
405.85	2525.44
406.05	2410.75
406.24	2668.21
406.43	2476.29
406.62	2595.65
406.81	2621.40
407.00	2628.42
407.20	2588.63
407.39	2565.23
407.58	2712.68
407.77	2712.68
407.96	2679.91
408.15	2731.41
408.34	2588.63
408.54	2745.45
408.73	2853.11
408.92	2782.90
409.11	2848.43
409.30	2841.41
409.49	2808.64
409.68	2857.79
409.87	2951.42
410.07	2904.60
410.26	2963.12
410.45	2920.99
410.64	3094.19
410.83	2909.29
411.02	3122.27
411.21	3103.55
411.40	3218.24
411.59	3152.70
411.78	3208.87
411.98	3227.60
412.17	3105.89
412.36	3265.05
412.55	3442.93
412.74	3475.70
412.93	3375.05
413.12	3325.90
413.31	3576.34
413.50	3375.05
413.69	3318.88
413.88	3499.10
414.07	3524.85
414.26	3473.36
414.45	3627.83
414.64	3585.70
414.83	3770.60
415.02	3721.45
415.22	3878.27
415.41	3779.97
415.60	3868.91
415.79	3962.53
415.98	3995.29
416.17	3805.71
416.36	3999.98
416.55	3899.33
416.74	4044.45
416.93	4065.51
417.12	4023.38
417.31	4133.39
417.50	4117.00
417.69	4329.99
417.88	4348.72
418.07	4266.80
418.26	4084.23
418.45	4390.84
418.64	4369.78
418.83	4369.78
419.02	4407.23
419.21	4416.59
419.39	4582.77
419.58	4421.27
419.77	4386.16
419.96	4528.94
420.15	4512.55
420.34	4582.77
420.53	4711.50
420.72	4709.16
420.91	4606.17
421.10	4498.51
421.29	4683.41
421.48	4571.07
421.67	4720.86
421.86	4683.41
422.05	4793.42
422.24	4837.89
422.43	4798.10
422.61	4802.78
422.80	4915.12
422.99	5025.13
423.18	4840.23
423.37	4884.70
423.56	4863.63
423.75	4964.28
423.94	4919.81
424.13	4695.11
424.32	4688.09
424.50	4973.64
424.69	5149.18
424.88	5011.09
425.07	4781.71
425.26	4861.29
425.45	4795.76
425.64	4926.83
425.83	4767.67
426.01	4973.64
426.20	4985.34
426.39	4964.28
426.58	4985.34
426.77	5011.09
426.96	5172.58
427.15	5177.26
427.33	5088.32
427.52	5118.75
427.71	5165.56
427.90	5132.79
428.09	5357.49
428.28	5231.10
428.46	5401.96
428.65	5233.44
428.84	5408.98
429.03	5439.40
429.22	5320.04
429.40	5420.68
429.59	5411.32
429.78	5128.11
429.97	5111.73
430.16	5526.00
430.34	5537.71
430.53	5474.51
430.72	5626.65
430.91	5474.51
431.10	5563.45
431.28	5640.69
431.47	5902.83
431.66	5851.34
431.85	5788.14
432.03	5884.11
432.22	5909.85
432.41	5886.45
432.60	5802.19
432.79	5940.28
432.97	5811.55
433.16	5991.77
433.35	5790.49
433.54	6022.20
433.72	6207.10
433.91	5933.26
434.10	6153.27
434.28	6059.65
434.47	6083.05
434.66	6305.40
434.85	6366.26
435.03	6396.68
435.22	6113.48
435.41	6324.13
435.59	6345.19
435.78	6389.66
435.97	6317.11
436.16	6377.96
436.34	6354.55
436.53	6377.96
436.72	6459.88
436.90	6377.96
437.09	6684.57
437.28	6279.66
437.46	6614.35
437.65	6541.80
437.84	6665.85
438.02	6590.95
438.21	6738.40
438.40	6413.07
438.58	6918.62
438.77	6949.05
438.96	6808.62
439.14	7021.61
439.33	7150.34
439.52	7131.61
439.70	7126.93
439.89	7307.15
440.08	7330.56
440.26	7276.73
440.45	7173.74
440.63	7562.27
440.82	7496.74
441.01	7552.91
441.19	7482.69
441.38	7534.18
441.57	7695.68
441.75	7779.94
441.94	7763.56
442.12	7786.96
442.31	8088.89
442.50	8030.38
442.68	7826.75
442.87	7861.86
443.05	8203.58
443.24	8039.74
443.43	8013.99
443.61	7969.52
443.80	8205.92
443.98	7978.89
444.17	7702.70
444.35	8070.17
444.54	8299.54
444.73	8107.62
444.91	8180.17
445.10	8276.13
445.28	8311.24
445.47	8102.93
445.65	8147.40
445.84	8430.61
446.02	8381.46
446.21	8318.26
446.39	8306.56
446.58	8641.26
446.77	8278.47
446.95	8245.71
447.14	8599.13
447.32	8217.62
447.51	8404.86
447.69	8250.39
447.88	8557.00
448.06	8444.65
448.25	8322.94
448.43	8648.28
448.62	8423.59
448.80	8308.90
448.99	8451.67
449.17	8533.59
449.36	8610.83
449.54	8971.27
449.73	8798.07
449.91	8716.16
450.10	8786.37
450.28	8992.34
450.46	8905.74
450.65	8997.02
450.83	8959.57
451.02	8872.97
451.20	9156.18
451.39	9062.55
451.57	9022.77
451.76	8973.61
451.94	9111.71
452.13	9121.07
452.31	9341.08
452.49	9027.45
452.68	9139.79
452.86	9135.11
453.05	9369.16
453.23	9458.10
453.42	9277.88
453.60	9207.67
453.78	9474.49
453.97	9315.33
454.15	9509.60
454.34	9135.11
454.52	9554.07
454.70	9741.31
454.89	9809.19
455.07	9720.24
455.26	9682.80
455.44	9874.72
455.62	9809.19
455.81	9816.21
455.99	9966.00
456.17	9977.70
456.36	9853.66
456.54	9984.73
456.73	10321.76
456.91	10284.31
457.09	10377.94
457.28	10422.41
457.46	10399.00
457.64	10532.41
457.83	10328.78
458.01	10399.00
458.19	10588.58
458.38	10410.70
458.56	10558.16
458.74	10504.32
458.93	10487.94
459.11	10665.82
459.29	10614.33
459.48	10574.54
459.66	10848.38
459.84	10736.04
460.03	10832.00
460.21	10895.19
460.39	11037.97
460.57	10916.26
460.76	11166.70
460.94	11066.05
461.12	11164.36
461.31	11002.86
461.49	11124.57
461.67	10963.07
461.85	11241.59
462.04	11227.55
462.22	11477.99
462.40	11536.50
462.59	11239.25
462.77	11501.39
462.95	11637.14
463.13	11417.13
463.32	11644.17
463.50	11695.66
463.68	11637.14
463.86	11754.17
464.05	11648.85
464.23	11674.59
464.41	11756.51
464.59	11515.44
464.78	12016.31
464.96	12039.72
465.14	11831.41
465.32	11887.58
465.50	11810.34
465.69	12116.95
465.87	12084.19
466.05	12037.38
466.23	12138.02
466.41	12208.23
466.60	12269.09
466.78	11995.25
466.96	11990.56
467.14	12168.45
467.32	12308.88
467.51	12341.64
467.69	12053.76
467.87	12500.80
468.05	12437.61
468.23	12184.83
468.41	12351.01
468.60	12648.26
468.78	12723.15
468.96	12585.06
469.14	12674.00
469.32	12833.16
469.50	12547.61
469.69	12915.08
469.87	12837.84
470.05	12908.05
470.23	12994.65
470.41	13123.38
470.59	13336.37
470.77	13202.96
470.95	13036.78
471.14	13380.84
471.32	13043.81
471.50	13500.21
471.68	13420.63
471.86	13542.34
472.04	13544.68
472.22	13912.14
472.40	13495.53
472.58	13748.31
472.77	13806.82
472.95	13956.61
473.13	14410.68
473.31	13980.02
473.49	14031.51
473.67	14059.60
473.85	14153.22
474.03	14431.74
474.21	14504.30
474.39	14665.80
474.57	14693.88
474.75	14839.00
474.93	15047.30
475.12	14768.78
475.30	15056.67
475.48	14953.68
475.66	15026.24
475.84	15260.29
476.02	15489.67
476.20	15241.57
476.38	15709.68
476.56	15976.50
476.74	15838.41
476.92	15871.17
477.10	15585.63
477.28	15847.77
477.46	15917.98
477.64	16093.52
477.82	16159.06
478.00	16688.02
478.18	16758.24
478.36	16819.09
478.54	16842.50
478.72	16966.54
478.90	17301.24
479.08	17331.67
479.26	17596.15
479.44	17432.31
479.62	17792.75
479.80	18120.43
479.98	17649.98
480.16	18483.21
480.34	18176.60
480.52	18544.06
480.70	18356.82
480.88	18143.83
481.06	18401.29
481.24	18796.84
481.41	18696.20
481.59	18986.43
481.77	19314.10
481.95	19697.95
482.13	19800.93
482.31	19700.29
482.49	20030.30
482.67	19974.13
482.85	20163.72
483.03	20343.94
483.21	20182.44
483.39	20856.51
483.57	20507.77
483.74	20828.43
483.92	21221.64
484.10	21142.06
484.28	21350.37
484.46	21788.05
484.64	22148.49
484.82	21666.34
485.00	21991.67
485.18	22375.52
485.35	22717.24
485.53	22490.21
485.71	22848.31
485.89	23070.66
486.07	23482.59
486.25	22958.31
486.43	23262.58
486.61	23463.87
486.78	23749.42
486.96	23850.06
487.14	24383.70
487.32	24231.57
487.50	24397.74
487.68	24758.19
487.85	24912.66
488.03	25235.66
488.21	25685.04
488.39	25638.23
488.57	25659.29
488.75	25713.13
488.92	26141.44
489.10	26321.66
489.28	26160.17
489.46	27033.19
489.64	26698.49
489.81	27370.22
489.99	27627.68
490.17	27543.42
490.35	28020.89
490.53	27625.34
490.70	28407.08
490.88	28016.21
491.06	28128.56
491.24	28692.63
491.41	28912.64
491.59	29289.46
491.77	28645.82
491.95	29347.98
492.13	29411.17
492.30	29769.27
492.48	29631.18
492.66	29844.17
492.84	29977.58
493.01	30595.48
493.19	30096.95
493.37	30672.72
493.54	31028.48
493.72	31379.56
493.90	31175.94
494.08	31732.98
494.25	31367.86
494.43	31367.86
494.61	32107.47
494.79	32367.27
494.96	31793.84
495.14	32423.44
495.32	32875.16
495.49	33102.20
495.67	32725.37
495.85	33535.20
496.02	33563.28
496.20	33476.68
496.38	33453.28
496.55	34059.48
496.73	34859.94
496.91	34071.18
497.09	34366.09
497.26	34572.05
497.44	34433.96
497.62	34794.40
497.79	35466.14
497.97	35047.18
498.14	35803.17
498.32	35761.05
498.50	36116.81
498.67	36280.64
498.85	36332.14
499.03	36327.45
499.20	36390.65
499.38	36870.46
499.56	36215.11
499.73	36414.05
499.91	37017.91
500.08	36957.06
500.26	37324.52
500.44	37479.00
500.61	37422.83
500.79	37455.59
500.97	37298.78
501.14	38213.93
501.32	38153.07
501.49	38066.47
501.67	37766.88
501.84	38679.69
502.02	38689.06
502.20	39028.43
502.37	38951.20
502.55	38639.90
502.72	39096.31
502.90	39414.62
503.07	39117.37
503.25	39112.69
503.43	39323.34
503.60	39875.71
503.78	39880.39
503.95	40147.21
504.13	39763.36
504.30	40226.79
504.48	39601.86
504.65	40226.79
504.83	40809.58
505.01	41319.82
505.18	40376.58
505.36	41457.91
505.53	41027.25
505.71	41315.14
505.88	41813.67
506.06	41132.57
506.23	41471.95
506.41	41900.27
506.58	41230.88
506.76	41476.63
506.93	42246.67
507.11	42377.74
507.28	42534.56
507.46	42429.23
507.63	42532.22
507.81	42822.44
507.98	42890.32
508.16	42642.22
508.33	43061.18
508.50	43000.32
508.68	43225.01
508.85	43594.82
509.03	43510.56
509.20	43480.13
509.38	43676.74
509.55	44046.54
509.73	44212.72
509.90	44020.80
510.08	44191.65
510.25	44392.94
510.42	44463.16
510.60	44114.42
510.77	44540.39
510.95	45134.89
511.12	44755.72
511.30	44533.37
511.47	45394.69
511.64	45214.47
511.82	45642.79
511.99	45310.43
512.17	45935.35
512.34	45422.78
512.51	45933.01
512.69	45883.86
512.86	46021.95
513.04	45853.44
513.21	46333.24
513.38	46382.40
513.56	46511.13
513.73	46461.97
513.90	46557.94
514.08	46747.52
514.25	47196.90
514.43	46637.51
514.60	46911.36
514.77	46972.21
514.95	47313.93
515.12	47208.61
515.29	47297.55
515.47	47702.46
515.64	47863.96
515.81	47819.49
515.99	47650.97
516.16	47922.47
516.33	48154.18
516.51	48126.10
516.68	48121.41
516.85	47969.28
517.03	48559.09
517.20	48619.95
517.37	48514.62
517.54	48655.06
517.72	48346.11
517.89	48765.06
518.06	48830.60
518.24	48692.50
518.41	48956.99
518.58	49111.46
518.75	48987.41
518.93	49109.12
519.10	49223.81
519.27	49366.58
519.45	49453.18
519.62	49359.56
519.79	49649.78
519.96	49336.15
520.14	49668.51
520.31	49937.67
520.48	50071.08
520.65	49900.22
520.83	50026.61
521.00	50375.35
521.17	49825.32
521.34	50602.38
521.52	50373.01
521.69	50679.62
521.86	50330.88
522.03	50827.07
522.20	50934.74
522.38	51210.92
522.55	50878.57
522.72	51091.55
522.89	50944.10
523.07	51206.24
523.24	51117.30
523.41	51346.67
523.58	51433.27
523.75	51566.68
523.92	51409.87
524.10	51540.94
524.27	51557.32
524.44	51674.35
524.61	51730.52
524.78	51929.47
524.96	51763.29
525.13	51987.98
525.30	52170.54
525.47	52027.77
525.64	51934.15
525.81	52388.21
525.98	52575.45
526.16	52303.95
526.33	52193.95
526.50	52622.26
526.67	52336.72
526.84	52498.22
527.01	52385.87
527.18	52409.28
527.36	52807.17
527.53	52638.65
527.70	53001.43
527.87	52954.62
528.04	52905.47
528.21	53052.92
528.38	53202.72
528.55	53343.15
528.72	53221.44
528.89	52832.91
529.07	53167.61
529.24	53099.73
529.41	53509.33
529.58	53275.27
529.75	53331.45
529.92	53514.01
530.09	53411.02
530.26	53904.88
530.43	53944.67
530.60	53516.35
530.77	53649.76
530.94	53762.11
531.11	53628.69
531.28	53605.29
531.46	53867.43
531.63	53886.15
531.80	53979.78
531.97	54047.65
532.14	54185.74
532.31	54171.70
532.48	54457.24
532.65	54302.77
532.82	54368.30
532.99	54405.75
533.16	54337.88
533.33	54532.14
533.50	54813.01
533.67	54560.23
533.84	54295.75
534.01	54791.94
534.18	54705.34
534.35	54829.39
534.52	54602.36
534.69	55018.97
534.86	54873.86
535.03	54768.54
535.20	55040.04
535.37	55077.49
535.54	55199.19
535.71	55025.99
535.88	55206.22
536.05	54958.12
536.22	55206.22
536.38	55409.84
536.55	55124.30
536.72	55262.39
536.89	55070.46
537.06	55178.13
537.23	55522.19
537.40	55334.95
537.57	55248.35
537.74	55854.54
537.91	55774.97
538.08	55639.22
538.25	55374.73
538.42	55641.56
538.59	55798.37
538.75	55613.47
538.92	55774.97
539.09	55971.57
539.26	55772.63
539.43	55908.38
539.60	56025.40
539.77	55683.69
539.94	56350.74
540.11	55826.46
540.28	56219.67
540.44	56266.48
540.61	55817.10
540.78	56051.15
540.95	56362.44
541.12	55985.61
541.29	56231.37
541.46	56521.60
541.62	56226.69
541.79	56467.76
541.96	56346.06
542.13	56378.82
542.30	56271.16
542.47	56247.75
542.63	56781.40
542.80	56502.87
542.97	56924.17
543.14	56970.98
543.31	56914.81
543.48	57027.15
543.64	57088.01
543.81	57013.11
543.98	57207.37
544.15	56921.83
544.32	57139.50
544.48	57408.66
544.65	57106.73
544.82	57207.37
544.99	56961.62
545.16	57240.14
545.32	57052.90
545.49	57394.62
545.66	57495.26
545.83	57495.26
546.00	57462.49
546.16	57315.04
546.33	57357.17
546.50	57059.92
546.67	57453.13
546.83	57125.46
547.00	57488.24
547.17	57497.60
547.34	57684.84
547.50	57829.96
547.67	57865.06
547.84	57900.17
548.00	57925.92
548.17	57883.79
548.34	58012.52
548.51	57827.62
548.67	57829.96
548.84	57848.68
549.01	57918.90
549.18	57902.51
549.34	57886.13
549.51	57972.73
549.68	58148.27
549.84	58010.18
550.01	58288.70
550.18	57961.03
550.34	58141.25
550.51	58342.53
550.68	58129.54
550.84	57949.32
551.01	58272.32
551.18	58145.93
551.34	58211.46
551.51	58405.73
551.68	58417.43
551.84	58213.80
552.01	58227.85
552.18	58382.32
552.34	58127.20
552.51	58379.98
552.68	58265.30
552.84	58401.05
553.01	58677.23
553.18	58515.73
553.34	58618.72
553.51	58417.43
553.67	58637.44
553.84	58698.30
554.01	58712.34
554.17	58702.98
554.34	58663.19
554.51	58852.77
554.67	58899.58
554.84	58721.70
555.00	58684.25
555.17	58672.55
555.33	58953.41
555.50	58614.04
555.67	58623.40
555.83	58976.82
556.00	58843.41
556.16	59222.58
556.33	59002.56
556.50	58885.54
556.66	59283.43
556.83	59061.08
556.99	59133.63
557.16	59107.89
557.32	59384.07
557.49	59386.41
557.65	58981.50
557.82	59290.45
557.98	58965.12
558.15	59037.67
558.32	59243.64
558.48	59058.74
558.65	59299.81
558.81	59231.94
558.98	59346.62
559.14	59543.23
559.31	59477.69
559.47	59395.77
559.64	59381.73
559.80	59543.23
559.97	59386.41
560.13	59395.77
560.30	59395.77
560.46	59512.80
560.63	59721.11
560.79	59868.56
560.96	59559.61
561.12	59606.42
561.29	59604.08
561.45	59728.13
561.61	59735.15
561.78	59531.53
561.94	59749.20
562.11	59634.51
562.27	59604.08
562.44	59854.52
562.60	59992.61
562.77	59496.42
562.93	59587.70
563.10	59849.84
563.26	59786.64
563.42	60055.81
563.59	59866.22
563.75	59849.84
563.92	59894.31
564.08	59625.15
564.24	59786.64
564.41	59945.80
564.57	59847.50
564.74	59798.35
564.90	59955.16
565.07	59978.57
565.23	59945.80
565.39	59917.71
565.56	60041.76
565.72	59737.49
565.88	59976.23
566.05	59749.20
566.21	59838.14
566.38	59971.55
566.54	59875.58
566.70	60051.12
566.87	60072.19
567.03	59950.48
567.19	60154.11
567.36	60186.88
567.52	60175.17
567.68	60100.28
567.85	60137.72
568.01	60179.85
568.17	60081.55
568.34	60322.63
568.50	60182.19
568.66	60081.55
568.83	60184.54
568.99	59997.29
569.15	60285.18
569.32	60250.07
569.48	60205.60
569.64	60229.01
569.81	60243.05
569.97	60018.36
570.13	60357.74
570.30	60126.02
570.46	60233.69
570.62	60130.70
570.78	60151.77
570.95	60144.75
571.11	60341.35
571.27	60135.38
571.43	60336.67
571.60	60470.08
571.76	60533.28
571.92	60477.10
572.09	60367.10
572.25	60308.58
572.41	60231.35
572.57	60161.13
572.74	60566.04
572.90	60381.14
573.06	60528.59
573.22	60434.97
573.38	60418.59
573.55	60491.15
573.71	60603.49
573.87	60584.77
574.03	60331.99
574.20	60505.19
574.36	60406.89
574.52	60273.48
574.68	60570.72
574.84	60561.36
575.01	60640.94
575.17	60481.78
575.33	60374.12
575.49	60406.89
575.65	60523.91
575.82	60526.25
575.98	60704.13
576.14	60748.60
576.30	60676.05
576.46	60364.76
576.62	60617.53
576.79	60640.94
576.95	60360.08
577.11	60449.02
577.27	60690.09
577.43	60528.59
577.59	60601.15
577.75	60708.82
577.92	60715.84
578.08	60683.07
578.24	60479.44
578.40	60615.19
578.56	60589.45
578.72	60741.58
578.88	60870.31
579.04	60528.59
579.21	60701.79
579.37	60804.78
579.53	60774.35
579.69	60486.46
579.85	60687.75
580.01	60591.79
580.17	60575.40
580.33	60647.96
580.49	60898.40
580.65	60734.56
580.82	60732.22
580.98	60645.62
581.14	60659.66
581.30	60795.42
581.46	60638.60
581.62	60671.37
581.78	60612.85
581.94	60797.76
582.10	60743.92
582.26	60612.85
582.42	60636.26
582.58	60734.56
582.74	60795.42
582.90	60573.06
583.06	60760.31
583.22	60376.46
583.38	60563.70
583.54	60769.67
583.70	60727.54
583.86	60877.33
584.02	60804.78
584.18	60767.33
584.34	60772.01
584.50	60708.82
584.66	60420.93
584.82	60729.88
584.98	60891.38
585.14	60638.60
585.30	60704.13
585.46	60870.31
585.62	60900.74
585.78	60764.99
585.94	60582.43
586.10	60884.36
586.26	60856.27
586.42	60860.95
586.58	60942.87
586.74	60802.44
586.90	60842.23
587.06	60694.77
587.22	60921.80
587.38	60673.71
587.54	60968.61
587.70	61029.47
587.86	60872.65
588.02	60865.63
588.18	60889.04
588.34	60919.46
588.49	60903.08
