SpectraSuite Data File
++++++++++++++++++++++++++++++++++++
Date: Fri Oct 25 10:44:40 EDT 2013
User: price-jones
Dark Spectrum Present: No
Reference Spectrum Present: No
Number of Sampled Component Spectra: 1
Spectrometers: USB2+H05261
Integration Time (usec): 100000 (USB2+H05261)
Spectra Averaged: 1 (USB2+H05261)
Boxcar Smoothing: 0 (USB2+H05261)
Correct for Electrical Dark: No (USB2+H05261)
Strobe/Lamp Enabled: No (USB2+H05261)
Correct for Detector Non-linearity: No (USB2+H05261)
Correct for Stray Light: No (USB2+H05261)
Number of Pixels in Processed Spectrum: 2048
>>>>>Begin Processed Spectral Data<<<<<
365.73	140.43
365.92	140.43
366.12	140.43
366.32	35.11
366.52	0.00
366.72	0.00
366.91	32.77
367.11	0.00
367.31	2.34
367.51	28.09
367.70	46.81
367.90	100.64
368.10	32.77
368.30	9.36
368.49	28.09
368.69	74.90
368.89	79.58
369.09	21.06
369.28	0.00
369.48	14.04
369.68	44.47
369.87	72.56
370.07	58.51
370.27	138.09
370.47	205.97
370.66	325.33
370.86	421.30
371.06	402.57
371.25	397.89
371.45	425.98
371.65	442.36
371.84	395.55
372.04	379.17
372.24	433.00
372.44	428.32
372.63	456.40
372.83	550.03
373.03	444.70
373.22	493.85
373.42	437.68
373.62	465.77
373.81	517.26
374.01	517.26
374.21	514.92
374.40	507.90
374.60	582.79
374.79	519.60
374.99	538.32
375.19	521.94
375.38	543.00
375.58	500.87
375.78	550.03
375.97	645.99
376.17	566.41
376.37	617.90
376.56	615.56
376.76	559.39
376.95	634.29
377.15	631.94
377.35	585.13
377.54	566.41
377.74	540.66
377.93	610.88
378.13	594.50
378.33	599.18
378.52	601.52
378.72	543.00
378.91	629.60
379.11	589.82
379.31	664.71
379.50	582.79
379.70	580.45
379.89	571.09
380.09	538.32
380.28	561.73
380.48	627.26
380.68	627.26
380.87	636.63
381.07	624.92
381.26	669.39
381.46	678.76
381.65	641.31
381.85	711.52
382.04	653.01
382.24	664.71
382.43	620.24
382.63	671.73
382.83	660.03
383.02	763.01
383.22	671.73
383.41	648.33
383.61	699.82
383.80	737.27
384.00	699.82
384.19	704.50
384.39	777.06
384.58	765.36
384.78	713.86
384.97	791.10
385.17	826.21
385.36	772.38
385.56	716.20
385.75	727.91
385.95	758.33
386.14	833.23
386.34	718.54
386.53	873.02
386.72	779.40
386.92	732.59
387.11	800.46
387.31	798.12
387.50	793.44
387.70	866.00
387.89	798.12
388.09	880.04
388.28	744.29
388.48	826.21
388.67	868.34
388.86	861.32
389.06	882.38
389.25	870.68
389.45	837.91
389.64	926.85
389.84	856.64
390.03	889.40
390.22	931.53
390.42	826.21
390.61	840.25
390.81	889.40
391.00	894.08
391.19	968.98
391.39	1013.45
391.58	945.58
391.78	976.00
391.97	973.66
392.16	887.06
392.36	924.51
392.55	964.30
392.75	966.64
392.94	940.90
393.13	884.72
393.33	924.51
393.52	929.19
393.71	1008.77
393.91	990.05
394.10	985.37
394.29	1057.92
394.49	1074.31
394.68	1046.22
394.88	1144.52
395.07	1011.11
395.26	1102.39
395.46	1060.26
395.65	1107.07
395.84	1149.20
396.04	1123.46
396.23	1025.15
396.42	1177.29
396.62	1116.44
396.81	1069.62
397.00	1093.03
397.19	1137.50
397.39	1174.95
397.58	1282.61
397.77	1233.46
397.97	1240.48
398.16	1203.04
398.35	1299.00
398.55	1306.02
398.74	1219.42
398.93	1355.17
399.12	1352.83
399.32	1273.25
399.51	1420.71
399.70	1434.75
399.90	1336.45
400.09	1434.75
400.28	1404.32
400.47	1362.19
400.67	1476.88
400.86	1441.77
401.05	1504.96
401.24	1568.16
401.44	1390.28
401.63	1479.22
401.82	1444.11
402.01	1427.73
402.21	1446.45
402.40	1530.71
402.59	1530.71
402.78	1554.12
402.97	1593.90
403.17	1593.90
403.36	1596.25
403.55	1593.90
403.74	1579.86
403.93	1610.29
404.13	1701.57
404.32	1666.46
404.51	1563.48
404.70	1783.49
404.89	1696.89
405.09	1736.68
405.28	1678.16
405.47	1673.48
405.66	1713.27
405.85	1710.93
406.05	1771.79
406.24	1802.21
406.43	1713.27
406.62	1767.10
406.81	1863.07
407.00	1799.87
407.20	1750.72
407.39	1893.49
407.58	2001.16
407.77	1994.14
407.96	2036.27
408.15	1912.22
408.34	1928.60
408.54	2092.44
408.73	1959.03
408.92	1998.82
409.11	2019.88
409.30	1980.09
409.49	1956.69
409.68	2097.12
409.87	1949.67
410.07	2008.18
410.26	2202.44
410.45	2111.16
410.64	2202.44
410.83	2150.95
411.02	2197.76
411.21	2251.60
411.40	2197.76
411.59	2385.01
411.78	2253.94
411.98	2282.02
412.17	2382.67
412.36	2298.41
412.55	2265.64
412.74	2438.84
412.93	2565.23
413.12	2303.09
413.31	2499.69
413.50	2368.62
413.69	2485.65
413.88	2560.55
414.07	2654.17
414.26	2750.13
414.45	2602.68
414.64	2698.64
414.83	2693.96
415.02	2661.19
415.22	2743.11
415.41	2703.32
415.60	2729.06
415.79	2757.15
415.98	2935.03
416.17	2785.24
416.36	2820.35
416.55	2829.71
416.74	2928.01
416.93	2862.48
417.12	2810.98
417.31	2956.10
417.50	2953.76
417.69	3063.76
417.88	3152.70
418.07	3038.02
418.26	3019.29
418.45	3103.55
418.64	3213.56
418.83	3155.04
419.02	3148.02
419.21	3185.47
419.39	3213.56
419.58	3105.89
419.77	3145.68
419.96	3199.51
420.15	3255.69
420.34	3363.35
420.53	3258.03
420.72	3342.28
420.91	3449.95
421.10	3421.86
421.29	3393.78
421.48	3335.26
421.67	3398.46
421.86	3445.27
422.05	3269.73
422.24	3377.39
422.43	3459.31
422.61	3489.74
422.80	3583.36
422.99	3496.76
423.18	3452.29
423.37	3702.73
423.56	3482.72
423.75	3456.97
423.94	3424.20
424.13	3386.76
424.32	3361.01
424.50	3421.86
424.69	3712.09
424.88	3522.51
425.07	3548.25
425.26	3576.34
425.45	3552.93
425.64	3536.55
425.83	3400.80
426.01	3478.04
426.20	3449.95
426.39	3485.06
426.58	3552.93
426.77	3592.72
426.96	3581.02
427.15	3658.26
427.33	3733.15
427.52	3566.98
427.71	3765.92
427.90	3805.71
428.09	3782.31
428.28	3875.93
428.46	3545.91
428.65	3728.47
428.84	3756.56
429.03	3871.25
429.22	3768.26
429.40	3737.84
429.59	3861.88
429.78	3613.79
429.97	3641.87
430.16	3693.37
430.34	3742.52
430.53	3838.48
430.72	3803.37
430.91	3763.58
431.10	3866.56
431.28	4007.00
431.47	4107.64
431.66	4124.02
431.85	3962.53
432.03	4105.30
432.22	4149.77
432.41	4294.88
432.60	4088.92
432.79	4264.46
432.97	4322.97
433.16	4308.93
433.35	4201.26
433.54	4299.56
433.72	4313.61
433.91	4236.37
434.10	4318.29
434.28	4301.90
434.47	4332.33
434.66	4568.73
434.85	4601.49
435.03	4592.13
435.22	4456.38
435.41	4641.28
435.59	4528.94
435.78	4554.68
435.97	4596.81
436.16	4671.71
436.34	4624.90
436.53	4629.58
436.72	4652.98
436.90	4465.74
437.09	4615.54
437.28	4578.09
437.46	4580.43
437.65	4662.35
437.84	4587.45
438.02	4739.58
438.21	4777.03
438.40	4767.67
438.58	4880.02
438.77	4917.47
438.96	4795.76
439.14	4959.60
439.33	5020.45
439.52	5013.43
439.70	5062.58
439.89	5343.44
440.08	5060.24
440.26	5217.05
440.45	5137.48
440.63	5214.71
440.82	5284.93
441.01	5268.55
441.19	5341.10
441.38	5462.81
441.57	5437.06
441.75	5423.02
441.94	5364.51
442.12	5528.35
442.31	5671.12
442.50	5668.78
442.68	5542.39
442.87	5652.39
443.05	5614.95
443.24	5933.26
443.43	5769.42
443.61	5692.18
443.80	5895.81
443.98	5668.78
444.17	5706.23
444.35	5727.29
444.54	5795.17
444.73	5888.79
444.91	5738.99
445.10	5898.15
445.28	5832.62
445.47	5811.55
445.65	5809.21
445.84	6052.63
446.02	5792.83
446.21	5792.83
446.39	5881.77
446.58	5970.71
446.77	5926.24
446.95	5809.21
447.14	5977.73
447.32	5984.75
447.51	5921.56
447.69	5996.45
447.88	5987.09
448.06	5930.92
448.25	5928.58
448.43	5959.00
448.62	6001.13
448.80	6057.31
448.99	6045.60
449.17	6059.65
449.36	5963.68
449.54	6162.63
449.73	6277.32
449.91	6356.90
450.10	6282.00
450.28	6539.46
450.46	6452.86
450.65	6551.16
450.83	6377.96
451.02	6300.72
451.20	6633.08
451.39	6590.95
451.57	6469.24
451.76	6487.96
451.94	6520.73
452.13	6565.20
452.31	6443.49
452.49	6380.30
452.68	6513.71
452.86	6462.22
453.05	6621.38
453.23	6595.63
453.42	6516.05
453.60	6595.63
453.78	6736.06
453.97	6565.20
454.15	6492.65
454.34	6516.05
454.52	6761.81
454.70	6736.06
454.89	6949.05
455.07	6799.26
455.26	6857.77
455.44	7061.40
455.62	6885.86
455.81	6600.31
455.99	6953.73
456.17	6942.03
456.36	7110.55
456.54	6874.15
456.73	7229.91
456.91	7274.38
457.09	7272.04
457.28	7332.90
457.46	7180.76
457.64	7297.79
457.83	7258.00
458.01	7365.67
458.19	7480.35
458.38	7426.52
458.56	7442.90
458.74	7360.98
458.93	7363.33
459.11	7632.49
459.29	7405.46
459.48	7545.89
459.66	7442.90
459.84	7489.71
460.03	7669.94
460.21	7688.66
460.39	7613.76
460.57	7414.82
460.76	7456.95
460.94	7740.15
461.12	7501.42
461.31	7899.31
461.49	7793.98
461.67	7831.43
461.85	7786.96
462.04	7967.18
462.22	7995.27
462.40	7922.71
462.59	7964.84
462.77	7974.21
462.95	7941.44
463.13	7995.27
463.32	8084.21
463.50	8095.91
463.68	8189.53
463.86	8159.11
464.05	7997.61
464.23	7932.08
464.41	8074.85
464.59	7826.75
464.78	8365.07
464.96	8161.45
465.14	8159.11
465.32	8308.90
465.50	8210.60
465.69	8290.18
465.87	8348.69
466.05	8273.79
466.23	8175.49
466.41	8416.57
466.60	8351.03
466.78	8351.03
466.96	8383.80
467.14	8444.65
467.32	8456.36
467.51	8545.30
467.69	8187.19
467.87	8498.49
468.05	8432.95
468.23	8512.53
468.41	8414.23
468.60	8585.08
468.78	8716.16
468.96	8662.32
469.14	8730.20
469.32	8849.57
469.50	8669.34
469.69	8718.50
469.87	8931.48
470.05	8959.57
470.23	8781.69
470.41	8823.82
470.59	8987.66
470.77	8924.46
470.95	8966.59
471.14	9135.11
471.32	8929.14
471.50	9399.59
471.68	9521.30
471.86	9280.22
472.04	9334.06
472.22	9343.42
472.40	9415.98
472.58	9427.68
472.77	9284.91
472.95	9561.09
473.13	9692.16
473.31	9310.65
473.49	9444.06
473.67	9467.47
473.85	9547.05
474.03	9909.83
474.21	9891.10
474.39	9980.04
474.57	9980.04
474.75	10120.48
474.93	10267.93
475.12	10068.98
475.30	9996.43
475.48	10129.84
475.66	10274.95
475.84	10291.34
476.02	10438.79
476.20	10314.74
476.38	10457.51
476.56	10551.14
476.74	10619.01
476.92	10899.87
477.10	10637.73
477.28	11002.86
477.46	10827.32
477.64	11260.32
477.82	11300.11
478.00	11552.88
478.18	11396.07
478.36	11236.91
478.54	11585.65
478.72	11639.48
478.90	11723.74
479.08	11808.00
479.26	11793.96
479.44	11976.52
479.62	11861.84
479.80	11889.92
479.98	12311.22
480.16	12339.30
480.34	12290.15
480.52	12465.69
480.70	12439.95
480.88	12428.24
481.06	12423.56
481.24	12571.02
481.41	12772.30
481.59	12828.48
481.77	12961.89
481.95	13060.19
482.13	13158.49
482.31	13111.68
482.49	13500.21
482.67	13647.66
482.85	13769.37
483.03	13572.77
483.21	13991.72
483.39	14068.96
483.57	13928.53
483.74	14120.45
483.92	14008.11
484.10	13944.91
484.28	14310.04
484.46	14656.43
484.64	14911.55
484.82	14595.58
485.00	14717.29
485.18	15087.09
485.35	15220.50
485.53	14789.85
485.71	14789.85
485.89	15171.35
486.07	15110.50
486.25	15222.84
486.43	15309.44
486.61	15807.98
486.78	15957.77
486.96	15754.15
487.14	16173.10
487.32	16219.91
487.50	16514.82
487.68	16561.63
487.85	16875.26
488.03	16989.95
488.21	16765.26
488.39	17104.64
488.57	16992.29
488.75	17383.16
488.92	17294.22
489.10	17717.86
489.28	17874.67
489.46	18015.10
489.64	18043.19
489.81	18340.44
489.99	18450.44
490.17	18417.68
490.35	18637.69
490.53	18684.50
490.70	18686.84
490.88	18532.36
491.06	18862.38
491.24	18747.69
491.41	18960.68
491.59	18974.72
491.77	19126.86
491.95	19199.41
492.13	19613.69
492.30	19812.63
492.48	19943.70
492.66	19810.29
492.84	19747.10
493.01	20278.40
493.19	20114.56
493.37	20381.38
493.54	20594.37
493.72	20877.58
493.90	20552.24
494.08	21095.25
494.25	21137.38
494.43	21191.21
494.61	21336.32
494.79	21462.71
494.96	21418.24
495.14	21607.83
495.32	21465.05
495.49	21617.19
495.67	21759.96
495.85	22043.17
496.02	22064.23
496.20	22331.05
496.38	21986.99
496.55	22658.73
496.73	23042.57
496.91	22499.57
497.09	22752.35
497.26	22881.08
497.44	22588.51
497.62	22883.42
497.79	23419.40
497.97	22948.95
498.14	23756.44
498.32	23398.34
498.50	23742.39
498.67	23836.02
498.85	24020.92
499.03	23812.61
499.20	24088.79
499.38	23953.04
499.56	24168.37
499.73	24189.44
499.91	24140.29
500.08	24606.05
500.26	24458.60
500.44	24606.05
500.61	24451.58
500.79	24561.58
500.97	24812.02
501.14	24826.06
501.32	25214.59
501.49	24863.51
501.67	24769.89
501.84	25156.08
502.02	25446.30
502.20	25348.00
502.37	25752.91
502.55	25504.82
502.72	25881.64
502.90	25523.54
503.07	26036.12
503.25	25830.15
503.43	25703.76
503.60	25755.26
503.78	25937.82
503.95	26005.69
504.13	26480.82
504.30	26593.17
504.48	26499.55
504.65	26969.99
504.83	26897.44
505.01	27082.34
505.18	26597.85
505.36	27278.94
505.53	26958.29
505.71	27222.77
505.88	26969.99
506.06	26747.64
506.23	27161.92
506.41	27229.79
506.58	27665.13
506.76	27625.34
506.93	27599.60
507.11	27402.99
507.28	27550.45
507.46	27459.16
507.63	27709.60
507.81	27690.88
507.98	27648.75
508.16	28409.42
508.33	27868.76
508.50	28147.28
508.68	28556.88
508.85	28828.38
509.03	28964.13
509.20	28914.98
509.38	29144.35
509.55	28964.13
509.73	28631.77
509.90	29165.42
510.08	29008.60
510.25	28980.51
510.42	29102.22
510.60	29223.93
510.77	29179.46
510.95	29596.07
511.12	29427.56
511.30	29682.67
511.47	29848.85
511.64	29890.98
511.82	30026.73
511.99	29523.52
512.17	30160.14
512.34	30010.35
512.51	30071.20
512.69	30775.70
512.86	30546.33
513.04	30644.63
513.21	30504.20
513.38	30366.11
513.56	30595.48
513.73	30012.69
513.90	31269.56
514.08	30684.42
514.25	30792.09
514.43	30855.28
514.60	30866.98
514.77	30614.21
514.95	31292.96
515.12	31297.64
515.29	31323.39
515.47	31697.88
515.64	31604.25
515.81	31126.78
515.99	31679.15
516.16	31585.53
516.33	31789.16
516.51	31608.93
516.68	31075.29
516.85	31456.80
517.03	31601.91
517.20	31442.76
517.37	32100.45
517.54	32163.64
517.72	32184.71
517.89	31772.77
518.06	31922.57
518.24	31950.65
518.41	31887.46
518.58	32168.32
518.75	32142.58
518.93	32011.51
519.10	32692.60
519.27	32748.78
519.45	32554.51
519.62	32664.52
519.79	32737.07
519.96	32655.15
520.14	33577.33
520.31	33003.89
520.48	33057.73
520.65	32891.55
520.83	33209.86
521.00	33362.00
521.17	33905.00
521.34	33312.84
521.52	33481.36
521.69	33614.77
521.86	33673.29
522.03	33537.54
522.20	34110.97
522.38	34066.50
522.55	33825.42
522.72	33809.04
522.89	34120.33
523.07	34380.13
523.24	34082.88
523.41	34494.82
523.58	34295.87
523.75	34939.52
523.92	34991.01
524.10	34618.86
524.27	34703.12
524.44	34796.74
524.61	34859.94
524.78	34455.03
524.96	35098.67
525.13	35164.21
525.30	34883.34
525.47	35431.03
525.64	35314.00
525.81	35255.49
525.98	34890.37
526.16	35110.38
526.33	34806.11
526.50	35243.79
526.67	35292.94
526.84	35302.30
527.01	35091.65
527.18	35730.62
527.36	35452.09
527.53	35697.85
527.70	36194.04
527.87	35704.87
528.04	35835.94
528.21	36271.28
528.38	36065.31
528.55	36306.39
528.72	36456.18
528.89	36154.26
529.07	36201.07
529.24	36149.57
529.41	36400.01
529.58	36545.12
529.75	36032.55
529.92	36900.89
530.09	36690.24
530.26	36535.76
530.43	36563.85
530.60	36804.92
530.77	36601.30
530.94	37097.49
531.11	36690.24
531.28	36994.51
531.46	36886.84
531.63	37048.34
531.80	37064.72
531.97	37041.32
532.14	36968.76
532.31	37146.64
532.48	37261.33
532.65	37322.18
532.82	37233.24
532.99	37495.38
533.16	36980.46
533.33	37591.34
533.50	38307.55
533.67	37446.23
533.84	37368.99
534.01	37919.02
534.18	37130.26
534.35	37778.59
534.52	37577.30
534.69	37670.92
534.86	38256.06
535.03	37614.75
535.20	38532.24
535.37	38258.40
535.54	38239.67
535.71	38309.89
535.88	38419.89
536.05	38113.28
536.22	38300.53
536.38	38417.55
536.55	38178.82
536.72	38469.04
536.89	38314.57
537.06	38569.69
537.23	38309.89
537.40	38473.73
537.57	38841.19
537.74	38691.40
537.91	39353.77
538.08	38904.38
538.25	38724.16
538.42	38735.87
538.59	39040.14
538.75	38682.03
538.92	39248.44
539.09	38951.20
539.26	38841.19
539.43	39056.52
539.60	38969.92
539.77	38747.57
539.94	38883.32
540.11	38785.02
540.28	39377.17
540.44	38939.49
540.61	39098.65
540.78	39297.59
540.95	39229.72
541.12	39255.46
541.29	39477.82
541.46	39122.05
541.62	39325.68
541.79	39791.45
541.96	39351.43
542.13	39175.89
542.30	39658.04
542.47	39536.33
542.63	40034.86
542.80	39978.69
542.97	40041.88
543.14	40687.87
543.31	40184.66
543.48	40552.12
543.64	40821.28
543.81	40451.48
543.98	40505.31
544.15	40734.68
544.32	40397.65
544.48	40573.19
544.65	40404.67
544.82	40701.92
544.99	40346.15
545.16	40268.92
545.32	40652.76
545.49	41268.33
545.66	40971.08
545.83	40708.94
546.00	41446.21
546.16	40634.04
546.33	40612.98
546.50	40343.81
546.67	41174.70
546.83	40612.98
547.00	40863.41
547.17	40627.02
547.34	41022.57
547.50	41289.39
547.67	41226.20
547.84	40945.33
548.00	41214.49
548.17	41801.97
548.34	41160.66
548.51	41137.26
548.67	41535.15
548.84	41338.54
549.01	41808.99
549.18	41181.73
549.34	41413.44
549.51	41727.07
549.68	41752.82
549.84	41214.49
550.01	41497.70
550.18	41853.46
550.34	41647.49
550.51	41841.76
550.68	41703.67
550.84	41268.33
551.01	41970.49
551.18	41497.70
551.34	41827.71
551.51	41785.58
551.68	41710.69
551.84	42330.93
552.01	41869.84
552.18	41886.23
552.34	41984.53
552.51	41933.04
552.68	41780.90
552.84	42740.52
553.01	42590.73
553.18	42057.09
553.34	42089.85
553.51	42087.51
553.67	41804.31
553.84	42281.78
554.01	42120.28
554.17	42700.73
554.34	42672.65
554.51	42244.33
554.67	42539.24
554.84	42108.58
555.00	42272.42
555.17	42593.07
555.33	42342.63
555.50	42326.25
555.67	42260.71
555.83	42471.36
556.00	42892.66
556.16	42873.93
556.33	42370.72
556.50	42803.72
556.66	42815.42
556.83	42485.40
556.99	42918.40
557.16	43021.39
557.32	42782.65
557.49	43028.41
557.65	42700.73
557.82	42787.33
557.98	42955.85
558.15	42747.54
558.32	43337.36
558.48	43346.72
558.65	42902.02
558.81	42667.97
558.98	42981.60
559.14	43210.97
559.31	43042.45
559.47	43068.20
559.64	43519.92
559.80	43679.08
559.97	43552.69
560.13	42925.42
560.30	43091.60
560.46	42742.86
560.63	43351.40
560.79	43332.68
560.96	43440.34
561.12	43477.79
561.29	43393.53
561.45	43070.54
561.61	43115.01
561.78	43358.42
561.94	43016.71
562.11	43337.36
562.27	43571.41
562.44	43253.10
562.60	43332.68
562.77	43686.10
562.93	43187.56
563.10	43763.34
563.26	43318.64
563.42	43669.72
563.59	43159.48
563.75	43187.56
563.92	43290.55
564.08	43353.74
564.24	43964.62
564.41	43772.70
564.57	43873.34
564.74	43583.12
564.90	43749.29
565.07	43606.52
565.23	43835.89
565.39	43517.58
565.56	43711.84
565.72	43526.94
565.88	43313.95
566.05	43606.52
566.21	43763.34
566.38	43461.41
566.54	43966.96
566.70	44062.93
566.87	43927.17
567.03	43658.01
567.19	44098.03
567.36	44198.68
567.52	43777.38
567.68	43805.47
567.85	43409.92
568.01	44128.46
568.17	43765.68
568.34	43655.67
568.50	44095.69
568.66	43824.19
568.83	43927.17
568.99	43510.56
569.15	43531.62
569.32	43426.30
569.48	43819.51
569.64	44100.37
569.81	44058.24
569.97	43852.28
570.13	43856.96
570.30	43931.86
570.46	43805.47
570.62	43786.74
570.78	43543.33
570.95	43662.69
571.11	44231.44
571.27	43718.87
571.43	43814.83
571.60	44083.99
571.76	43639.29
571.92	44355.49
572.09	43840.57
572.25	43948.24
572.41	44020.80
572.57	44130.80
572.74	44210.38
572.90	43917.81
573.06	44098.03
573.22	43739.93
573.38	44027.82
573.55	44065.27
573.71	44226.76
573.87	44034.84
574.03	44144.84
574.20	44051.22
574.36	43693.12
574.52	43999.73
574.68	44100.37
574.84	44189.31
575.01	44217.40
575.17	44203.36
575.33	43632.27
575.49	44102.71
575.65	44088.67
575.82	44477.20
575.98	44355.49
576.14	44357.83
576.30	44383.58
576.46	43889.73
576.62	43969.30
576.79	44215.06
576.95	43920.15
577.11	43992.71
577.27	44289.96
577.43	44217.40
577.59	44374.22
577.75	43782.06
577.92	43849.94
578.08	44044.20
578.24	44208.04
578.40	43985.69
578.56	44343.79
578.72	43880.36
578.88	44208.04
579.04	44231.44
579.21	44458.48
579.37	44289.96
579.53	44250.17
579.69	44123.78
579.85	44336.77
580.01	44498.26
580.17	44299.32
580.33	44315.70
580.49	44334.43
580.65	44294.64
580.82	44512.31
580.98	44552.10
581.14	44257.19
581.30	44467.84
581.46	44388.26
581.62	44486.56
581.78	44339.11
581.94	44208.04
582.10	44381.24
582.26	44519.33
582.42	44055.90
582.58	44006.75
582.74	44336.77
582.90	44385.92
583.06	44495.92
583.22	44718.28
583.38	45097.44
583.54	44507.63
583.70	44222.08
583.86	44137.82
584.02	44130.80
584.18	44470.18
584.34	44325.07
584.50	44168.25
584.66	43667.37
584.82	44299.32
584.98	44240.81
585.14	44610.61
585.30	44093.35
585.46	44086.33
585.62	44264.21
585.78	44580.18
585.94	44083.99
586.10	44350.81
586.26	44542.74
586.42	44762.75
586.58	44271.23
586.74	44493.58
586.90	44100.37
587.06	44257.19
587.22	44177.61
587.38	43861.64
587.54	44170.59
587.70	44432.73
587.86	44584.86
588.02	44430.39
588.18	44526.35
588.34	44210.38
588.49	44196.34
588.65	43501.20
588.81	44109.74
588.97	44486.56
589.13	44322.72
589.29	44296.98
589.45	44505.29
589.61	44566.14
589.77	44854.03
589.93	44699.55
590.08	44556.78
590.24	44318.04
590.40	44715.93
