SpectraSuite Data File
++++++++++++++++++++++++++++++++++++
Date: Fri Oct 25 10:48:04 EDT 2013
User: price-jones
Dark Spectrum Present: No
Reference Spectrum Present: No
Number of Sampled Component Spectra: 1
Spectrometers: USB2+H05261
Integration Time (usec): 100000 (USB2+H05261)
Spectra Averaged: 1 (USB2+H05261)
Boxcar Smoothing: 0 (USB2+H05261)
Correct for Electrical Dark: No (USB2+H05261)
Strobe/Lamp Enabled: No (USB2+H05261)
Correct for Detector Non-linearity: No (USB2+H05261)
Correct for Stray Light: No (USB2+H05261)
Number of Pixels in Processed Spectrum: 2048
>>>>>Begin Processed Spectral Data<<<<<
365.73	112.35
365.92	112.35
366.12	112.35
366.32	63.19
366.52	84.26
366.72	74.90
366.91	37.45
367.11	72.56
367.31	37.45
367.51	0.00
367.70	42.13
367.90	46.81
368.10	37.45
368.30	11.70
368.49	16.38
368.69	58.51
368.89	28.09
369.09	114.69
369.28	42.13
369.48	65.54
369.68	112.35
369.87	156.82
370.07	126.39
370.27	100.64
370.47	278.52
370.66	411.93
370.86	395.55
371.06	411.93
371.25	500.87
371.45	341.72
371.65	500.87
371.84	383.85
372.04	367.46
372.24	528.96
372.44	512.58
372.63	554.71
372.83	543.00
373.03	470.45
373.22	463.43
373.42	554.71
373.62	447.04
373.81	526.62
374.01	585.13
374.21	564.07
374.40	489.17
374.60	571.09
374.79	496.19
374.99	552.37
375.19	543.00
375.38	550.03
375.58	564.07
375.78	559.39
375.97	580.45
376.17	617.90
376.37	603.86
376.56	592.16
376.76	599.18
376.95	587.47
377.15	608.54
377.35	587.47
377.54	615.56
377.74	608.54
377.93	573.43
378.13	617.90
378.33	683.44
378.52	641.31
378.72	603.86
378.91	631.94
379.11	596.84
379.31	667.05
379.50	533.64
379.70	603.86
379.89	613.22
380.09	690.46
380.28	641.31
380.48	638.97
380.68	660.03
380.87	629.60
381.07	695.14
381.26	622.58
381.46	592.16
381.65	676.41
381.85	638.97
382.04	610.88
382.24	655.35
382.43	603.86
382.63	599.18
382.83	638.97
383.02	746.63
383.22	725.57
383.41	730.25
383.61	678.76
383.80	741.95
384.00	720.88
384.19	683.44
384.39	716.20
384.58	751.31
384.78	777.06
384.97	734.93
385.17	788.76
385.36	734.93
385.56	727.91
385.75	746.63
385.95	744.29
386.14	746.63
386.34	828.55
386.53	847.27
386.72	809.83
386.92	779.40
387.11	744.29
387.31	786.42
387.50	851.96
387.70	779.40
387.89	816.85
388.09	779.40
388.28	821.53
388.48	793.44
388.67	840.25
388.86	877.70
389.06	896.43
389.25	917.49
389.45	868.34
389.64	866.00
389.84	835.57
390.03	983.02
390.22	931.53
390.42	903.45
390.61	919.83
390.81	943.24
391.00	901.11
391.19	959.62
391.39	980.68
391.58	971.32
391.78	901.11
391.97	894.08
392.16	919.83
392.36	997.07
392.55	961.96
392.75	978.34
392.94	936.21
393.13	952.60
393.33	889.40
393.52	954.94
393.71	1050.90
393.91	1029.84
394.10	1050.90
394.29	978.34
394.49	1008.77
394.68	1018.13
394.88	1027.50
395.07	1048.56
395.26	1118.78
395.46	1081.33
395.65	1151.54
395.84	1095.37
396.04	1034.52
396.23	1067.28
396.42	1181.97
396.62	1123.46
396.81	1086.01
397.00	1135.16
397.19	1144.52
397.39	1174.95
397.58	1165.59
397.77	1299.00
397.97	1261.55
398.16	1217.08
398.35	1306.02
398.55	1116.44
398.74	1284.95
398.93	1364.53
399.12	1212.40
399.32	1247.51
399.51	1289.64
399.70	1350.49
399.90	1266.23
400.09	1406.66
400.28	1341.13
400.47	1359.85
400.67	1380.92
400.86	1390.28
401.05	1474.54
401.24	1469.86
401.44	1427.73
401.63	1352.83
401.82	1453.47
402.01	1401.98
402.21	1423.05
402.40	1418.36
402.59	1535.39
402.78	1460.49
402.97	1544.75
403.17	1533.05
403.36	1626.67
403.55	1495.60
403.74	1519.01
403.93	1542.41
404.13	1605.61
404.32	1633.69
404.51	1563.48
404.70	1664.12
404.89	1696.89
405.09	1717.95
405.28	1678.16
405.47	1694.55
405.66	1750.72
405.85	1713.27
406.05	1746.04
406.24	1734.34
406.43	1774.13
406.62	1902.86
406.81	1937.96
407.00	1727.32
407.20	1750.72
407.39	1837.32
407.58	1912.22
407.77	1809.23
407.96	2015.20
408.15	1881.79
408.34	1916.90
408.54	1898.17
408.73	1996.48
408.92	1863.07
409.11	1961.37
409.30	1959.03
409.49	1954.35
409.68	1996.48
409.87	1919.24
410.07	2062.01
410.26	1921.58
410.45	2078.40
410.64	2057.33
410.83	2118.18
411.02	2066.69
411.21	2214.15
411.40	2190.74
411.59	2279.68
411.78	2289.04
411.98	2207.13
412.17	2377.98
412.36	2291.38
412.55	2352.24
412.74	2321.81
412.93	2312.45
413.12	2289.04
413.31	2417.77
413.50	2420.11
413.69	2473.95
413.88	2495.01
414.07	2366.28
414.26	2464.58
414.45	2506.71
414.64	2668.21
414.83	2649.49
415.02	2628.42
415.22	2640.12
415.41	2752.47
415.60	2717.36
415.79	2665.87
415.98	2883.54
416.17	2729.06
416.36	2834.39
416.55	2736.09
416.74	2932.69
416.93	2925.67
417.12	2850.77
417.31	2911.63
417.50	2946.73
417.69	2892.90
417.88	2949.08
418.07	2951.42
418.26	3038.02
418.45	3052.06
418.64	3171.43
418.83	3068.44
419.02	3115.25
419.21	3208.87
419.39	3152.70
419.58	3026.31
419.77	3047.38
419.96	3124.62
420.15	3276.75
420.34	3068.44
420.53	3218.24
420.72	3325.90
420.91	3307.18
421.10	3323.56
421.29	3428.88
421.48	3222.92
421.67	3372.71
421.86	3328.24
422.05	3300.16
422.24	3246.32
422.43	3368.03
422.61	3389.10
422.80	3384.41
422.99	3463.99
423.18	3372.71
423.37	3454.63
423.56	3363.35
423.75	3403.14
423.94	3232.28
424.13	3325.90
424.32	3332.92
424.50	3555.27
424.69	3508.46
424.88	3480.38
425.07	3393.78
425.26	3365.69
425.45	3351.65
425.64	3531.87
425.83	3368.03
426.01	3550.59
426.20	3461.65
426.39	3520.17
426.58	3449.95
426.77	3461.65
426.96	3543.57
427.15	3447.61
427.33	3581.02
427.52	3588.04
427.71	3581.02
427.90	3606.77
428.09	3627.83
428.28	3669.96
428.46	3625.49
428.65	3684.00
428.84	3723.79
429.03	3794.01
429.22	3691.02
429.40	3765.92
429.59	3737.84
429.78	3669.96
429.97	3679.32
430.16	3761.24
430.34	3801.03
430.53	3808.05
430.72	3913.38
430.91	3796.35
431.10	3637.19
431.28	3899.33
431.47	3967.21
431.66	4231.69
431.85	3955.51
432.03	4067.85
432.22	4187.22
432.41	3857.20
432.60	4128.70
432.79	4135.73
432.97	4095.94
433.16	4194.24
433.35	4004.66
433.54	4166.15
433.72	4128.70
433.91	4072.53
434.10	4234.03
434.28	4215.30
434.47	4194.24
434.66	4369.78
434.85	4278.50
435.03	4442.34
435.22	4402.55
435.41	4472.76
435.59	4395.53
435.78	4358.08
435.97	4257.43
436.16	4435.32
436.34	4437.66
436.53	4493.83
436.72	4606.17
436.90	4451.70
437.09	4624.90
437.28	4531.28
437.46	4517.23
437.65	4496.17
437.84	4589.79
438.02	4557.02
438.21	4671.71
438.40	4566.39
438.58	4662.35
438.77	4849.59
438.96	4795.76
439.14	4788.74
439.33	4905.76
439.52	4947.89
439.70	4966.62
439.89	5029.81
440.08	4961.94
440.26	5095.35
440.45	5039.17
440.63	5151.52
440.82	5252.16
441.01	5174.92
441.19	5214.71
441.38	5322.38
441.57	5263.86
441.75	5387.91
441.94	5387.91
442.12	5420.68
442.31	5568.13
442.50	5465.15
442.68	5355.15
442.87	5504.94
443.05	5591.54
443.24	5631.33
443.43	5636.01
443.61	5556.43
443.80	5788.14
443.98	5537.71
444.17	5521.32
444.35	5638.35
444.54	5757.72
444.73	5645.37
444.91	5638.35
445.10	5645.37
445.28	5591.54
445.47	5504.94
445.65	5619.63
445.84	5657.07
446.02	5872.40
446.21	5647.71
446.39	5888.79
446.58	5853.68
446.77	5736.65
446.95	5678.14
447.14	5827.93
447.32	5961.34
447.51	5853.68
447.69	5640.69
447.88	5881.77
448.06	5834.96
448.25	5776.44
448.43	5804.53
448.62	5912.19
448.80	5813.89
448.99	5984.75
449.17	5994.11
449.36	6012.84
449.54	6085.39
449.73	6118.16
449.91	6237.53
450.10	6080.71
450.28	6258.59
450.46	6200.08
450.65	6221.14
450.83	6420.09
451.02	6396.68
451.20	6403.71
451.39	6361.58
451.57	6272.64
451.76	6312.42
451.94	6361.58
452.13	6333.49
452.31	6319.45
452.49	6359.24
452.68	6363.92
452.86	6375.62
453.05	6553.50
453.23	6490.31
453.42	6445.84
453.60	6438.81
453.78	6469.24
453.97	6485.62
454.15	6546.48
454.34	6525.41
454.52	6656.48
454.70	6665.85
454.89	6604.99
455.07	6562.86
455.26	6738.40
455.44	6738.40
455.62	6766.49
455.81	6871.81
455.99	6773.51
456.17	6820.32
456.36	6876.49
456.54	6946.71
456.73	6902.24
456.91	7225.23
457.09	7176.08
457.28	7265.02
457.46	7019.27
457.64	7220.55
457.83	7077.78
458.01	7035.65
458.19	7342.26
458.38	7211.19
458.56	7260.34
458.74	7375.03
458.93	7178.42
459.11	7213.53
459.29	7300.13
459.48	7255.66
459.66	7241.62
459.84	7405.46
460.03	7293.11
460.21	7403.11
460.39	7485.03
460.57	7398.43
460.76	7534.18
460.94	7403.11
461.12	7370.35
461.31	7573.97
461.49	7559.93
461.67	7611.42
461.85	7777.60
462.04	7669.94
462.22	8203.58
462.40	7922.71
462.59	7660.57
462.77	7758.88
462.95	7791.64
463.13	7845.48
463.32	7749.51
463.50	7861.86
463.68	8009.31
463.86	7936.76
464.05	7824.41
464.23	7779.94
464.41	8042.08
464.59	7833.77
464.78	8072.51
464.96	8013.99
465.14	7920.37
465.32	8161.45
465.50	8341.67
465.69	8280.82
465.87	8102.93
466.05	8121.66
466.23	8018.68
466.41	8264.43
466.60	8271.45
466.78	8025.70
466.96	8219.96
467.14	8245.71
467.32	8210.60
467.51	8259.75
467.69	8079.53
467.87	8234.00
468.05	8374.44
468.23	8217.62
468.41	8374.44
468.60	8404.86
468.78	8580.40
468.96	8367.42
469.14	8578.06
469.32	8683.39
469.50	8428.27
469.69	8613.17
469.87	8786.37
470.05	8901.06
470.23	8795.73
470.41	8711.47
470.59	8638.92
470.77	8823.82
470.95	8959.57
471.14	9174.90
471.32	8812.12
471.50	9156.18
471.68	9104.68
471.86	9195.96
472.04	9064.89
472.22	9397.25
472.40	9104.68
472.58	9083.62
472.77	9320.01
472.95	9647.69
473.13	9603.22
473.31	9291.93
473.49	9397.25
473.67	9486.19
473.85	9544.70
474.03	9605.56
474.21	9813.87
474.39	9703.86
474.57	9701.52
474.75	9858.34
474.93	9951.96
475.12	9776.42
475.30	9940.26
475.48	9809.19
475.66	9881.74
475.84	9839.61
476.02	10115.80
476.20	10242.18
476.38	10588.58
476.56	10630.71
476.74	10593.26
476.92	10296.02
477.10	10305.38
477.28	10523.05
477.46	10595.61
477.64	10841.36
477.82	10925.62
478.00	11108.18
478.18	10939.66
478.36	11346.92
478.54	11260.32
478.72	11220.53
478.90	11295.43
479.08	11377.34
479.26	11866.52
479.44	11826.73
479.62	11644.17
479.80	11829.07
479.98	11943.75
480.16	12196.53
480.34	12231.64
480.52	12372.07
480.70	12208.23
480.88	12107.59
481.06	12250.36
481.24	12297.17
481.41	12681.02
481.59	12697.41
481.77	12821.45
481.95	12613.15
482.13	12971.25
482.31	12975.93
482.49	13116.36
482.67	13217.01
482.85	13240.41
483.03	13263.82
483.21	13678.09
483.39	13741.29
483.57	13521.27
483.74	13968.32
483.92	13975.34
484.10	13830.23
484.28	14024.49
484.46	14342.80
484.64	14801.55
484.82	14326.42
485.00	14420.04
485.18	14911.55
485.35	14719.63
485.53	14874.10
485.71	14846.02
485.89	15253.27
486.07	14878.79
486.25	15279.02
486.43	15328.17
486.61	15396.04
486.78	15779.89
486.96	15927.35
487.14	16292.47
487.32	16004.58
487.50	16205.87
487.68	16259.70
487.85	16624.83
488.03	16489.07
488.21	16570.99
488.39	16648.23
488.57	16788.66
488.75	17062.51
488.92	17261.45
489.10	17493.16
489.28	17504.87
489.46	17575.08
489.64	17514.23
489.81	17755.30
489.99	17930.84
490.17	18038.51
490.35	18579.17
490.53	18415.34
490.70	18302.99
490.88	18085.32
491.06	19040.26
491.24	18750.03
491.41	18644.71
491.59	18616.62
491.77	18998.13
491.95	19187.71
492.13	19105.79
492.30	19417.08
492.48	19726.04
492.66	19655.82
492.84	19447.51
493.01	20032.65
493.19	19805.61
493.37	20107.54
493.54	20222.23
493.72	20585.01
493.90	20142.65
494.08	20615.44
494.25	20638.84
494.43	21109.29
494.61	20861.19
494.79	20938.43
494.96	20863.54
495.14	21064.82
495.32	21511.86
495.49	21420.58
495.67	21525.91
495.85	21750.60
496.02	21860.60
496.20	21752.94
496.38	22274.88
496.55	22176.58
496.73	22401.27
496.91	22207.00
497.09	22214.02
497.26	22609.58
497.44	22359.14
497.62	22841.29
497.79	22946.61
497.97	22991.08
498.14	23068.32
498.32	23321.10
498.50	23147.90
498.67	23473.23
498.85	23744.73
499.03	23716.65
499.20	23445.15
499.38	23831.33
499.56	23704.95
499.73	24269.01
499.91	24088.79
500.08	24046.66
500.26	24088.79
500.44	24561.58
500.61	24173.05
500.79	24383.70
500.97	24474.98
501.14	24957.13
501.32	24891.60
501.49	24673.93
501.67	24856.49
501.84	25198.21
502.02	25029.69
502.20	25223.95
502.37	25413.54
502.55	25378.43
502.72	25352.68
502.90	25312.89
503.07	25238.00
503.25	25497.80
503.43	25640.57
503.60	25448.64
503.78	25663.97
503.95	25832.49
504.13	25937.82
504.30	25944.84
504.48	26174.21
504.65	26333.37
504.83	26871.69
505.01	26108.68
505.18	26256.13
505.36	26654.02
505.53	26719.56
505.71	26962.97
505.88	26888.07
506.06	26693.81
506.23	26904.46
506.41	26916.16
506.58	27072.98
506.76	27180.64
506.93	27428.74
507.11	27475.55
507.28	27929.61
507.46	27503.64
507.63	27786.84
507.81	27538.74
507.98	27426.40
508.16	27725.99
508.33	27744.71
508.50	27894.50
508.68	28147.28
508.85	28217.50
509.03	28329.84
509.20	28217.50
509.38	28519.43
509.55	28800.29
509.73	28765.18
509.90	28863.49
510.08	28793.27
510.25	28643.48
510.42	28814.34
510.60	29043.71
510.77	29223.93
510.95	29319.89
511.12	29230.95
511.30	29165.42
511.47	29809.06
511.64	29851.19
511.82	29900.34
511.99	29340.96
512.17	29582.03
512.34	29460.32
512.51	29715.44
512.69	30178.87
512.86	29809.06
513.04	30256.11
513.21	30319.30
513.38	30349.73
513.56	30003.33
513.73	29848.85
513.90	30679.74
514.08	30181.21
514.25	30508.88
514.43	30565.06
514.60	30649.32
514.77	30850.60
514.95	30642.29
515.12	30761.66
515.29	30588.46
515.47	31239.13
515.64	31585.53
515.81	31316.37
515.99	31166.57
516.16	31622.98
516.33	31089.34
516.51	31538.72
516.68	31070.61
516.85	31175.94
517.03	30864.64
517.20	31337.43
517.37	31428.71
517.54	31648.72
517.72	31814.90
517.89	31660.43
518.06	31618.30
518.24	31861.71
518.41	31597.23
518.58	31723.62
518.75	32046.62
518.93	32290.03
519.10	32510.04
519.27	32245.56
519.45	32217.47
519.62	32535.79
519.79	32414.08
519.96	32943.04
520.14	33022.62
520.31	32694.94
520.48	32561.53
520.65	32519.40
520.83	33010.92
521.00	33266.03
521.17	33053.05
521.34	32898.57
521.52	33277.74
521.69	33474.34
521.86	33558.60
522.03	33661.58
522.20	33366.68
522.38	33565.62
522.55	33331.57
522.72	33369.02
522.89	33450.94
523.07	34010.32
523.24	33586.69
523.41	33764.57
523.58	34033.73
523.75	34536.94
523.92	34302.89
524.10	34506.52
524.27	34433.96
524.44	34471.41
524.61	34433.96
524.78	34583.76
524.96	34550.99
525.13	34637.59
525.30	35220.38
525.47	35154.85
525.64	34520.56
525.81	34995.69
525.98	34691.42
526.16	35012.07
526.33	35159.53
526.50	35445.07
526.67	35084.63
526.84	35058.88
527.01	34742.91
527.18	34838.87
527.36	35196.98
527.53	35426.35
527.70	35697.85
527.87	35716.58
528.04	35585.50
528.21	35599.55
528.38	35805.52
528.55	35798.49
528.72	36161.28
528.89	36343.84
529.07	35864.03
529.24	35480.18
529.41	36210.43
529.58	35480.18
529.75	36306.39
529.92	36116.81
530.09	36095.74
530.26	36329.80
530.43	36112.13
530.60	36458.52
530.77	36191.70
530.94	36608.32
531.11	36765.14
531.28	36671.51
531.46	36650.45
531.63	36793.22
531.80	36381.29
531.97	36627.04
532.14	36823.65
532.31	36395.33
532.48	36928.97
532.65	37589.00
532.82	37158.34
532.99	37401.76
533.16	36910.25
533.33	37345.59
533.50	37727.10
533.67	37677.94
533.84	36746.41
534.01	37191.11
534.18	37177.07
534.35	37467.30
534.52	37464.96
534.69	37516.45
534.86	37710.71
535.03	37624.11
535.20	37809.01
535.37	37656.88
535.54	38424.57
535.71	37895.61
535.88	38078.18
536.05	38017.32
536.22	38150.73
536.38	37764.54
536.55	38314.57
536.72	38295.85
536.89	37883.91
537.06	38160.09
537.23	38342.66
537.40	38129.67
537.57	38473.73
537.74	37888.59
537.91	38820.13
538.08	38546.28
538.25	38340.32
538.42	38136.69
538.59	38822.47
538.75	38740.55
538.92	38520.54
539.09	38749.91
539.26	38569.69
539.43	38756.93
539.60	38813.10
539.77	38787.36
539.94	39054.18
540.11	39330.36
540.28	38873.96
540.44	38522.88
540.61	38597.77
540.78	38677.35
540.95	38660.97
541.12	38960.56
541.29	38759.27
541.46	39000.35
541.62	39428.66
541.79	39587.82
541.96	39283.55
542.13	39051.84
542.30	39529.31
542.47	39414.62
542.63	39302.28
542.80	40201.04
542.97	40086.36
543.14	40266.58
543.31	40133.17
543.48	39976.35
543.64	39929.54
543.81	40374.24
543.98	40151.89
544.15	39922.52
544.32	40060.61
544.48	40692.55
544.65	40259.55
544.82	40392.97
544.99	39784.43
545.16	39943.58
545.32	40163.59
545.49	40783.83
545.66	40680.85
545.83	40364.88
546.00	40954.69
546.16	40652.76
546.33	40800.22
546.50	40292.32
546.67	40451.48
546.83	40495.95
547.00	40486.59
547.17	40722.98
547.34	40374.24
547.50	40713.62
547.67	41118.53
547.84	41092.79
548.00	40971.08
548.17	41013.21
548.34	40793.20
548.51	41319.82
548.67	41017.89
548.84	41193.43
549.01	40608.29
549.18	41345.56
549.34	41184.07
549.51	41411.10
549.68	41258.96
549.84	41581.96
550.01	41750.48
550.18	41476.63
550.34	41738.77
550.51	40992.14
550.68	41216.83
550.84	41048.32
551.01	41202.79
551.18	41661.54
551.34	41841.76
551.51	41844.10
551.68	41804.31
551.84	41879.21
552.01	41921.34
552.18	41645.15
552.34	41464.93
552.51	41958.78
552.68	41904.95
552.84	42225.60
553.01	42218.58
553.18	42052.41
553.34	41961.12
553.51	41464.93
553.67	41879.21
553.84	42361.36
554.01	42223.26
554.17	42548.60
554.34	42663.28
554.51	42412.85
554.67	42209.22
554.84	42302.84
555.00	42274.76
555.17	42103.90
555.33	42314.55
555.50	42319.23
555.67	42211.56
555.83	42447.96
556.00	42731.16
556.16	43306.93
556.33	42572.00
556.50	42256.03
556.66	42817.76
556.83	42515.83
556.99	42843.51
557.16	42864.57
557.32	43063.52
557.49	42387.10
557.65	42408.17
557.82	42635.20
557.98	42775.63
558.15	42632.86
558.32	43178.20
558.48	43131.39
558.65	42560.30
558.81	42824.78
558.98	43119.69
559.14	43196.93
559.31	42796.70
559.47	43309.27
559.64	42990.96
559.80	43398.21
559.97	42974.58
560.13	42904.36
560.30	42693.71
560.46	43288.21
560.63	43210.97
560.79	43669.72
560.96	43433.32
561.12	43264.80
561.29	43079.90
561.45	43091.60
561.61	42859.89
561.78	43082.24
561.94	42965.21
562.11	43159.48
562.27	43180.54
562.44	43517.58
562.60	43332.68
562.77	43814.83
562.93	43356.08
563.10	43585.46
563.26	43178.20
563.42	43639.29
563.59	43564.39
563.75	43325.66
563.92	44126.12
564.08	43751.63
564.24	43557.37
564.41	43587.80
564.57	43871.00
564.74	43896.75
564.90	43835.89
565.07	43538.65
565.23	43328.00
565.39	43824.19
565.56	43540.99
565.72	43454.39
565.88	43716.53
566.05	43440.34
566.21	43496.52
566.38	43152.46
566.54	43910.79
566.70	43533.96
566.87	44507.63
567.03	43828.87
567.19	44041.86
567.36	43613.54
567.52	43267.14
567.68	43716.53
567.85	43758.66
568.01	43737.59
568.17	43931.86
568.34	43859.30
568.50	43875.68
568.66	43711.84
568.83	43573.75
568.99	43868.66
569.15	43721.21
569.32	43484.81
569.48	43737.59
569.64	44107.40
569.81	44086.33
569.97	43817.17
570.13	44027.82
570.30	43246.08
570.46	43821.85
570.62	44179.95
570.78	43964.62
570.95	43442.68
571.11	44308.68
571.27	44032.50
571.43	43674.40
571.60	44055.90
571.76	43990.37
571.92	44112.08
572.09	43686.10
572.25	43807.81
572.41	43803.13
572.57	44236.12
572.74	44280.60
572.90	44158.89
573.06	43842.92
573.22	44282.94
573.38	43861.64
573.55	43966.96
573.71	44151.87
573.87	44123.78
574.03	43683.76
574.20	44114.42
574.36	44030.16
574.52	43901.43
574.68	43882.70
574.84	44102.71
575.01	44481.88
575.17	43908.45
575.33	43852.28
575.49	44175.27
575.65	44123.78
575.82	44568.48
575.98	44044.20
576.14	44135.48
576.30	44191.65
576.46	44018.46
576.62	43896.75
576.79	43910.79
576.95	43894.41
577.11	43962.28
577.27	44355.49
577.43	43938.88
577.59	44425.71
577.75	44165.91
577.92	43742.27
578.08	44273.57
578.24	43805.47
578.40	44353.15
578.56	43908.45
578.72	44222.08
578.88	44383.58
579.04	44416.35
579.21	43873.34
579.37	44041.86
579.53	44102.71
579.69	43768.02
579.85	44388.26
580.01	44456.14
580.17	44175.27
580.33	44163.57
580.49	44376.56
580.65	44453.79
580.82	44184.63
580.98	44514.65
581.14	43854.62
581.30	44243.15
581.46	44364.85
581.62	44041.86
581.78	44341.45
581.94	44725.30
582.10	44315.70
582.26	44575.50
582.42	44161.23
582.58	44285.28
582.74	43739.93
582.90	44130.80
583.06	44285.28
583.22	44383.58
583.38	44460.82
583.54	44425.71
583.70	43966.96
583.86	44210.38
584.02	43924.83
584.18	44369.54
584.34	43793.76
584.50	44634.02
584.66	44273.57
584.82	44259.53
584.98	44484.22
585.14	44575.50
585.30	44444.43
585.46	44280.60
585.62	44030.16
585.78	44072.29
585.94	43896.75
586.10	44065.27
586.26	44254.85
586.42	44254.85
586.58	44421.03
586.74	44444.43
586.90	44582.52
587.06	44065.27
587.22	44339.11
587.38	44088.67
587.54	44748.70
587.70	44367.20
587.86	44257.19
588.02	44243.15
588.18	44577.84
588.34	44313.36
588.49	44184.63
588.65	44163.57
588.81	44395.28
588.97	44449.11
589.13	44542.74
589.29	44257.19
589.45	44619.97
589.61	44657.42
589.77	44364.85
589.93	44795.51
590.08	44938.29
590.24	44732.32
590.40	44552.10
