SpectraSuite Data File
++++++++++++++++++++++++++++++++++++
Date: Fri Oct 25 10:44:33 EDT 2013
User: price-jones
Dark Spectrum Present: No
Reference Spectrum Present: No
Number of Sampled Component Spectra: 1
Spectrometers: USB2+H05261
Integration Time (usec): 100000 (USB2+H05261)
Spectra Averaged: 1 (USB2+H05261)
Boxcar Smoothing: 0 (USB2+H05261)
Correct for Electrical Dark: No (USB2+H05261)
Strobe/Lamp Enabled: No (USB2+H05261)
Correct for Detector Non-linearity: No (USB2+H05261)
Correct for Stray Light: No (USB2+H05261)
Number of Pixels in Processed Spectrum: 2048
>>>>>Begin Processed Spectral Data<<<<<
365.73	110.01
365.92	110.01
366.12	110.01
366.32	53.83
366.52	0.00
366.72	86.60
366.91	25.75
367.11	16.38
367.31	0.00
367.51	0.00
367.70	107.66
367.90	46.81
368.10	4.68
368.30	0.00
368.49	67.88
368.69	14.04
368.89	0.00
369.09	21.06
369.28	25.75
369.48	77.24
369.68	23.41
369.87	93.62
370.07	72.56
370.27	168.52
370.47	182.56
370.66	344.06
370.86	411.93
371.06	433.00
371.25	528.96
371.45	381.51
371.65	503.22
371.84	489.17
372.04	493.85
372.24	447.04
372.44	463.43
372.63	451.72
372.83	475.13
373.03	456.40
373.22	566.41
373.42	519.60
373.62	500.87
373.81	519.60
374.01	535.98
374.21	559.39
374.40	507.90
374.60	587.47
374.79	477.47
374.99	599.18
375.19	538.32
375.38	601.52
375.58	655.35
375.78	613.22
375.97	571.09
376.17	561.73
376.37	554.71
376.56	566.41
376.76	589.82
376.95	547.69
377.15	653.01
377.35	547.69
377.54	578.11
377.74	552.37
377.93	578.11
378.13	596.84
378.33	643.65
378.52	643.65
378.72	620.24
378.91	622.58
379.11	610.88
379.31	554.71
379.50	617.90
379.70	636.63
379.89	660.03
380.09	645.99
380.28	608.54
380.48	683.44
380.68	603.86
380.87	610.88
381.07	587.47
381.26	643.65
381.46	709.18
381.65	688.12
381.85	681.10
382.04	540.66
382.24	662.37
382.43	657.69
382.63	739.61
382.83	617.90
383.02	638.97
383.22	748.97
383.41	711.52
383.61	755.99
383.80	765.36
384.00	744.29
384.19	732.59
384.39	706.84
384.58	793.44
384.78	802.80
384.97	681.10
385.17	683.44
385.36	730.25
385.56	748.97
385.75	779.40
385.95	770.04
386.14	823.87
386.34	709.18
386.53	770.04
386.72	791.10
386.92	830.89
387.11	755.99
387.31	835.57
387.50	800.46
387.70	821.53
387.89	835.57
388.09	788.76
388.28	807.48
388.48	837.91
388.67	896.43
388.86	898.77
389.06	877.70
389.25	856.64
389.45	952.60
389.64	875.36
389.84	898.77
390.03	964.30
390.22	901.11
390.42	901.11
390.61	861.32
390.81	1050.90
391.00	936.21
391.19	957.28
391.39	1029.84
391.58	1008.77
391.78	992.39
391.97	1004.09
392.16	905.79
392.36	990.05
392.55	952.60
392.75	842.59
392.94	926.85
393.13	905.79
393.33	919.83
393.52	1081.33
393.71	1050.90
393.91	1034.52
394.10	1013.45
394.29	959.62
394.49	1116.44
394.68	1149.20
394.88	1057.92
395.07	1093.03
395.26	1100.05
395.46	1121.12
395.65	1132.82
395.84	1151.54
396.04	1170.27
396.23	1064.94
396.42	1109.41
396.62	1214.74
396.81	1177.29
397.00	1090.69
397.19	1252.19
397.39	1210.06
397.58	1233.46
397.77	1289.64
397.97	1324.74
398.16	1343.47
398.35	1336.45
398.55	1249.85
398.74	1313.04
398.93	1385.60
399.12	1313.04
399.32	1284.95
399.51	1273.25
399.70	1394.96
399.90	1366.87
400.09	1327.08
400.28	1324.74
400.47	1437.09
400.67	1483.90
400.86	1441.77
401.05	1497.94
401.24	1500.28
401.44	1493.26
401.63	1535.39
401.82	1481.56
402.01	1603.27
402.21	1579.86
402.40	1579.86
402.59	1497.94
402.78	1600.93
402.97	1593.90
403.17	1624.33
403.36	1584.54
403.55	1568.16
403.74	1645.40
403.93	1678.16
404.13	1788.17
404.32	1661.78
404.51	1767.10
404.70	1619.65
404.89	1811.57
405.09	1846.68
405.28	1778.81
405.47	1739.02
405.66	1839.66
405.85	1846.68
406.05	1767.10
406.24	1923.92
406.43	1842.00
406.62	1961.37
406.81	1884.13
407.00	1820.94
407.20	1858.39
407.39	1860.73
407.58	1928.60
407.77	1884.13
407.96	1977.75
408.15	1994.14
408.34	1987.11
408.54	1994.14
408.73	2043.29
408.92	2132.23
409.11	2059.67
409.30	2050.31
409.49	2111.16
409.68	2001.16
409.87	2076.06
410.07	2078.40
410.26	2094.78
410.45	2157.97
410.64	2179.04
410.83	2307.77
411.02	2253.94
411.21	2394.37
411.40	2373.30
411.59	2260.96
411.78	2319.47
411.98	2300.75
412.17	2415.43
412.36	2424.80
412.55	2408.41
412.74	2487.99
412.93	2413.09
413.12	2553.52
413.31	2555.86
413.50	2583.95
413.69	2640.12
413.88	2663.53
414.07	2626.08
414.26	2600.34
414.45	2738.43
414.64	2813.32
414.83	2649.49
415.02	2736.09
415.22	2773.53
415.41	2864.82
415.60	2897.58
415.79	2892.90
415.98	2876.52
416.17	2864.82
416.36	2850.77
416.55	2981.84
416.74	2911.63
416.93	2925.67
417.12	2981.84
417.31	3054.40
417.50	2965.46
417.69	3122.27
417.88	3096.53
418.07	3234.62
418.26	3042.70
418.45	3213.56
418.64	3290.79
418.83	3241.64
419.02	3304.84
419.21	3391.44
419.39	3190.15
419.58	3197.17
419.77	3286.11
419.96	3358.67
420.15	3428.88
420.34	3351.65
420.53	3375.05
420.72	3482.72
420.91	3524.85
421.10	3524.85
421.29	3480.38
421.48	3524.85
421.67	3658.26
421.86	3517.83
422.05	3400.80
422.24	3527.19
422.43	3548.25
422.61	3555.27
422.80	3494.42
422.99	3466.33
423.18	3634.85
423.37	3634.85
423.56	3653.58
423.75	3543.57
423.94	3564.64
424.13	3456.97
424.32	3574.00
424.50	3588.04
424.69	3660.60
424.88	3726.13
425.07	3489.74
425.26	3634.85
425.45	3646.55
425.64	3660.60
425.83	3632.51
426.01	3744.86
426.20	3709.75
426.39	3669.96
426.58	3609.11
426.77	3562.30
426.96	3705.07
427.15	3627.83
427.33	3705.07
427.52	3810.39
427.71	3833.80
427.90	3829.12
428.09	3894.65
428.28	3714.43
428.46	3817.41
428.65	3709.75
428.84	3978.91
429.03	4114.66
429.22	3775.28
429.40	3920.40
429.59	3777.62
429.78	3803.37
429.97	3686.34
430.16	3812.73
430.34	3831.46
430.53	4028.06
430.72	3873.59
430.91	3878.27
431.10	3878.27
431.28	4072.53
431.47	4182.54
431.66	4222.33
431.85	4070.19
432.03	4276.16
432.22	4416.59
432.41	4257.43
432.60	4283.18
432.79	4285.52
432.97	4437.66
433.16	4344.03
433.35	4182.54
433.54	4367.44
433.72	4362.76
433.91	4367.44
434.10	4318.29
434.28	4376.80
434.47	4416.59
434.66	4554.68
434.85	4456.38
435.03	4535.96
435.22	4526.60
435.41	4730.22
435.59	4669.37
435.78	4837.89
435.97	4627.24
436.16	4638.94
436.34	4507.87
436.53	4627.24
436.72	4643.62
436.90	4484.47
437.09	4767.67
437.28	4645.96
437.46	4634.26
437.65	4685.75
437.84	4837.89
438.02	4875.34
438.21	4816.82
438.40	4657.67
438.58	4997.04
438.77	4992.36
438.96	4868.31
439.14	5177.26
439.33	5240.46
439.52	5167.90
439.70	5004.07
439.89	5135.14
440.08	5252.16
440.26	5249.82
440.45	5263.86
440.63	5298.97
440.82	5294.29
441.01	5518.98
441.19	5324.72
441.38	5563.45
441.57	5664.10
441.75	5738.99
441.94	5806.87
442.12	5767.08
442.31	5797.51
442.50	5736.65
442.68	5687.50
442.87	5851.34
443.05	5856.02
443.24	6001.13
443.43	5746.02
443.61	5954.32
443.80	6040.92
443.98	5706.23
444.17	5694.52
444.35	6094.76
444.54	6015.18
444.73	6071.35
444.91	5963.68
445.10	6024.54
445.28	5902.83
445.47	6026.88
445.65	5811.55
445.84	6005.81
446.02	6047.94
446.21	5884.11
446.39	5973.05
446.58	6101.78
446.77	6090.07
446.95	6008.16
447.14	6188.38
447.32	6127.52
447.51	5973.05
447.69	6134.54
447.88	6169.65
448.06	6125.18
448.25	6207.10
448.43	6143.91
448.62	6164.97
448.80	6066.67
448.99	6345.19
449.17	6366.26
449.36	6300.72
449.54	6516.05
449.73	6520.73
449.91	6434.13
450.10	6509.03
450.28	6363.92
450.46	6551.16
450.65	6663.51
450.83	6544.14
451.02	6665.85
451.20	6658.82
451.39	6427.11
451.57	6609.67
451.76	6787.55
451.94	6551.16
452.13	6672.87
452.31	6651.80
452.49	6553.50
452.68	6604.99
452.86	6689.25
453.05	6628.40
453.23	6771.17
453.42	6780.53
453.60	6651.80
453.78	6897.56
453.97	6722.02
454.15	6707.98
454.34	6789.89
454.52	7119.91
454.70	6888.20
454.89	7178.42
455.07	6925.65
455.26	6970.12
455.44	7103.53
455.62	7049.69
455.81	7094.16
455.99	7115.23
456.17	7286.09
456.36	7248.64
456.54	7136.29
456.73	7339.92
456.91	7421.84
457.09	7211.19
457.28	7588.02
457.46	7304.81
457.64	7377.37
457.83	7234.60
458.01	7316.51
458.19	7569.29
458.38	7461.63
458.56	7770.58
458.74	7548.23
458.93	7611.42
459.11	7672.28
459.29	7653.55
459.48	7461.63
459.66	7709.72
459.84	7761.22
460.03	7801.01
460.21	7880.58
460.39	7789.30
460.57	7819.73
460.76	7943.78
460.94	7997.61
461.12	7754.19
461.31	7976.55
461.49	7957.82
461.67	7878.24
461.85	8180.17
462.04	8011.65
462.22	8086.55
462.40	8147.40
462.59	7983.57
462.77	8191.88
462.95	8102.93
463.13	8177.83
463.32	8025.70
463.50	8175.49
463.68	8177.83
463.86	8248.05
464.05	8107.62
464.23	8168.47
464.41	8442.31
464.59	8269.11
464.78	8678.71
464.96	8203.58
465.14	8241.03
465.32	8430.61
465.50	8379.12
465.69	8489.12
465.87	8449.33
466.05	8533.59
466.23	8367.42
466.41	8592.11
466.60	8765.31
466.78	8533.59
466.96	8573.38
467.14	8592.11
467.32	8748.92
467.51	8830.84
467.69	8512.53
467.87	8692.75
468.05	8830.84
468.23	8856.59
468.41	8746.58
468.60	8603.81
468.78	8982.98
468.96	8784.03
469.14	8889.35
469.32	8894.04
469.50	8903.40
469.69	8947.87
469.87	8973.61
470.05	9022.77
470.23	9109.36
470.41	9205.33
470.59	9011.06
470.77	9181.92
470.95	9132.77
471.14	9296.61
471.32	9451.08
471.50	9364.48
471.68	9549.39
471.86	9502.58
472.04	9664.07
472.22	9720.24
472.40	9392.57
472.58	9664.07
472.77	9549.39
472.95	9755.35
473.13	10106.43
473.31	9860.68
473.49	9692.16
473.67	9745.99
473.85	9928.55
474.03	9956.64
474.21	10054.94
474.39	10150.90
474.57	10153.24
474.75	10310.06
474.93	10312.40
475.12	10300.70
475.30	10689.23
475.48	10319.42
475.66	10291.34
475.84	10506.66
476.02	10630.71
476.20	10672.84
476.38	10644.76
476.56	11119.89
476.74	11021.58
476.92	10796.89
477.10	10967.75
477.28	11110.52
477.46	11096.48
477.64	11211.17
477.82	11412.45
478.00	11800.98
478.18	11407.77
478.36	11482.67
478.54	11611.40
478.72	11779.92
478.90	12006.95
479.08	11812.68
479.26	12191.85
479.44	12088.87
479.62	12285.47
479.80	12170.79
479.98	12369.73
480.16	12493.78
480.34	12601.44
480.52	12776.98
480.70	12802.73
480.88	12505.48
481.06	12961.89
481.24	12929.12
481.41	13008.70
481.59	13371.48
481.77	13245.09
481.95	13296.58
482.13	13589.15
482.31	13479.15
482.49	13877.04
482.67	13748.31
482.85	13867.67
483.03	14443.45
483.21	14150.88
483.39	14466.85
483.57	14125.13
483.74	14148.54
483.92	14567.49
484.10	14396.64
484.28	14712.61
484.46	14967.73
484.64	14920.92
484.82	15147.95
485.00	15037.94
485.18	15349.23
485.35	15449.88
485.53	15026.24
485.71	15517.75
485.89	15405.41
486.07	15475.62
486.25	15742.44
486.43	15800.96
486.61	15988.20
486.78	15917.98
486.96	16271.40
487.14	16578.01
487.32	16486.73
487.50	16690.36
487.68	17043.78
487.85	17144.42
488.03	17315.28
488.21	17277.83
488.39	17315.28
488.57	17523.59
488.75	17387.84
488.92	17745.94
489.10	17994.04
489.28	18480.87
489.46	18148.51
489.64	18305.33
489.81	18525.34
489.99	18808.54
490.17	18810.89
490.35	19243.88
490.53	19124.52
490.70	19297.72
490.88	18930.25
491.06	19389.00
491.24	18909.19
491.41	19452.19
491.59	19386.66
491.77	19419.42
491.95	19906.26
492.13	19772.85
492.30	19978.81
492.48	19974.13
492.66	20383.73
492.84	20306.49
493.01	20386.07
493.19	20744.17
493.37	20788.64
493.54	20704.38
493.72	21366.75
493.90	20877.58
494.08	21338.66
494.25	21638.25
494.43	21481.44
494.61	21942.52
494.79	21895.71
494.96	21514.20
495.14	21940.18
495.32	22246.79
495.49	21898.05
495.67	22471.48
495.85	22260.84
496.02	22419.99
496.20	22618.94
496.38	22838.95
496.55	22867.03
496.73	23283.65
496.91	23002.78
497.09	23192.37
497.26	23770.48
497.44	23590.26
497.62	23887.51
497.79	23812.61
497.97	23522.38
498.14	24088.79
498.32	24006.87
498.50	24084.11
498.67	24051.34
498.85	24226.89
499.03	24678.61
499.20	24341.57
499.38	24563.92
499.56	24238.59
499.73	24540.52
499.91	24830.74
500.08	25046.07
500.26	24886.92
500.44	24669.25
500.61	24830.74
500.79	25027.35
500.97	25116.29
501.14	25525.88
501.32	25427.58
501.49	25458.01
501.67	25490.77
501.84	25703.76
502.02	25490.77
502.20	26047.82
502.37	26033.78
502.55	26022.08
502.72	26389.54
502.90	26363.79
503.07	26087.61
503.25	26576.78
503.43	26539.33
503.60	26366.13
503.78	26567.42
503.95	26726.58
504.13	26665.72
504.30	27377.25
504.48	26967.65
504.65	26731.26
504.83	27234.47
505.01	27520.02
505.18	27625.34
505.36	27807.90
505.53	27494.27
505.71	27875.78
505.88	27866.42
506.06	27424.06
506.23	27679.18
506.41	27459.16
506.58	27894.50
506.76	28114.52
506.93	28313.46
507.11	28561.56
507.28	28371.97
507.46	27873.44
507.63	28187.07
507.81	28390.70
507.98	28545.17
508.16	28479.64
508.33	28627.09
508.50	28776.89
508.68	28952.43
508.85	28900.94
509.03	29385.43
509.20	29404.15
509.38	29467.34
509.55	29219.25
509.73	29572.67
509.90	29509.47
510.08	29118.60
510.25	29642.88
510.42	29427.56
510.60	29846.51
510.77	29855.87
510.95	30377.81
511.12	30181.21
511.30	30476.12
511.47	30433.99
511.64	30541.65
511.82	30202.27
511.99	30586.12
512.17	30639.95
512.34	30331.00
512.51	30979.33
512.69	30848.26
512.86	30579.10
513.04	30698.47
513.21	30742.94
513.38	30941.88
513.56	31187.64
513.73	31072.95
513.90	31557.44
514.08	31290.62
514.25	30986.35
514.43	31222.75
514.60	31648.72
514.77	31452.12
514.95	31531.70
515.12	31388.92
515.29	31981.08
515.47	32037.25
515.64	32130.87
515.81	31646.38
515.99	32226.84
516.16	31833.63
516.33	31845.33
516.51	31995.12
516.68	31557.44
516.85	31861.71
517.03	31845.33
517.20	32439.82
517.37	32940.70
517.54	32788.56
517.72	32196.41
517.89	32369.61
518.06	32641.11
518.24	32425.78
518.41	32238.54
518.58	32591.96
518.75	32769.84
518.93	32966.45
519.10	32903.25
519.27	33022.62
519.45	33200.50
519.62	33354.97
519.79	33188.80
519.96	33251.99
520.14	33633.50
520.31	33502.43
520.48	33532.86
520.65	33638.18
520.83	33631.16
521.00	33883.94
521.17	34033.73
521.34	34326.30
521.52	34169.48
521.69	34164.80
521.86	34366.09
522.03	34230.33
522.20	34490.13
522.38	34593.12
522.55	34775.68
522.72	34895.05
522.89	34962.92
523.07	34586.10
523.24	34611.84
523.41	34653.97
523.58	34941.86
523.75	35321.02
523.92	35274.21
524.10	35653.38
524.27	35323.36
524.44	35697.85
524.61	35545.72
524.78	35747.00
524.96	35552.74
525.13	35693.17
525.30	35608.91
525.47	35840.62
525.64	35601.89
525.81	35508.27
525.98	35622.95
526.16	35768.07
526.33	35573.80
526.50	35868.71
526.67	35730.62
526.84	35800.83
527.01	35545.72
527.18	36210.43
527.36	36299.37
527.53	36336.82
527.70	36737.05
527.87	36109.78
528.04	36133.19
528.21	36528.74
528.38	36383.63
528.55	36802.58
528.72	36718.32
528.89	36912.59
529.07	36786.20
529.24	36554.49
529.41	36641.09
529.58	36854.08
529.75	37174.73
529.92	36886.84
530.09	37289.42
530.26	37717.73
530.43	37207.50
530.60	36755.77
530.77	37076.43
530.94	37916.68
531.11	37439.21
531.28	37387.72
531.46	38127.33
531.63	37443.89
531.80	37853.48
531.97	37647.52
532.14	37326.86
532.31	37383.04
532.48	37610.07
532.65	37783.27
532.82	37614.75
532.99	38057.11
533.16	37764.54
533.33	38141.37
533.50	38188.18
533.67	38218.61
533.84	37766.88
534.01	38265.42
534.18	38171.80
534.35	38557.99
534.52	38192.86
534.69	38644.59
534.86	38426.92
535.03	38880.98
535.20	38403.51
535.37	38843.53
535.54	39346.75
535.71	38780.34
535.88	38892.68
536.05	38951.20
536.22	39222.70
536.38	39225.04
536.55	38775.66
536.72	38946.51
536.89	38625.86
537.06	38979.28
537.23	38897.36
537.40	38998.01
537.57	38953.54
537.74	39414.62
537.91	39297.59
538.08	39136.10
538.25	39047.16
538.42	39274.19
538.59	39545.69
538.75	39253.12
538.92	39321.00
539.09	39812.51
539.26	39501.22
539.43	39255.46
539.60	39313.98
539.77	39758.68
539.94	39686.12
540.11	39377.17
540.28	39545.69
540.44	39077.58
540.61	39959.97
540.78	39718.89
540.95	39758.68
541.12	39690.80
541.29	39817.19
541.46	39728.25
541.62	40179.98
541.79	40505.31
541.96	39835.92
542.13	39920.18
542.30	40250.19
542.47	40266.58
542.63	40189.34
542.80	40439.78
542.97	40659.79
543.14	41167.68
543.31	40781.49
543.48	40732.34
543.64	41153.64
543.81	41017.89
543.98	40914.90
544.15	40671.49
544.32	40903.20
544.48	41179.39
544.65	40804.90
544.82	40648.08
544.99	41191.09
545.16	40996.82
545.32	41036.61
545.49	41347.90
545.66	41427.48
545.83	41691.96
546.00	41682.60
546.16	41249.60
546.33	41209.81
546.50	40711.28
546.67	41455.57
546.83	41359.61
547.00	40914.90
547.17	41411.10
547.34	41333.86
547.50	41951.76
547.67	41427.48
547.84	41755.16
548.00	42171.77
548.17	42300.50
548.34	41979.85
548.51	41907.29
548.67	41970.49
548.84	41717.71
549.01	41993.89
549.18	42092.19
549.34	41668.56
549.51	42293.48
549.68	42319.23
549.84	42330.93
550.01	42010.28
550.18	42120.28
550.34	42047.72
550.51	42387.10
550.68	41886.23
550.84	41928.36
551.01	42323.91
551.18	41804.31
551.34	42089.85
551.51	42256.03
551.68	42394.12
551.84	42234.97
552.01	42347.31
552.18	42616.47
552.34	42316.89
552.51	42756.91
552.68	42946.49
552.84	42674.99
553.01	42890.32
553.18	42607.11
553.34	42466.68
553.51	42162.41
553.67	42801.38
553.84	42705.41
554.01	42724.14
554.17	43016.71
554.34	43129.05
554.51	43042.45
554.67	43117.35
554.84	42831.80
555.00	42820.10
555.17	43147.78
555.33	43196.93
555.50	43255.44
555.67	43143.09
555.83	43058.84
556.00	43276.51
556.16	43522.26
556.33	43161.82
556.50	43016.71
556.66	43030.75
556.83	43358.42
556.99	43311.61
557.16	43353.74
557.32	43367.79
557.49	43477.79
557.65	43297.57
557.82	43098.62
557.98	43526.94
558.15	43555.03
558.32	43941.22
558.48	43430.98
558.65	43119.69
558.81	43625.25
558.98	43026.07
559.14	43491.83
559.31	43606.52
559.47	43234.38
559.64	43669.72
559.80	43873.34
559.97	43880.36
560.13	43147.78
560.30	43402.89
560.46	44219.74
560.63	44013.77
560.79	43915.47
560.96	44147.18
561.12	43800.79
561.29	43945.90
561.45	43990.37
561.61	43613.54
561.78	43578.43
561.94	43959.94
562.11	44198.68
562.27	43917.81
562.44	43496.52
562.60	44240.81
562.77	44105.06
562.93	43894.41
563.10	44055.90
563.26	43627.59
563.42	44315.70
563.59	43927.17
563.75	44212.72
563.92	43934.20
564.08	44201.02
564.24	44348.47
564.41	43938.88
564.57	43929.51
564.74	44201.02
564.90	43955.26
565.07	43882.70
565.23	44467.84
565.39	44004.41
565.56	44350.81
565.72	44217.40
565.88	44158.89
566.05	44219.74
566.21	43973.98
566.38	43847.60
566.54	44222.08
566.70	44266.55
566.87	44634.02
567.03	44273.57
567.19	44612.95
567.36	44311.02
567.52	44528.69
567.68	44514.65
567.85	44020.80
568.01	44425.71
568.17	44376.56
568.34	44301.66
568.50	44596.57
568.66	44353.15
568.83	44460.82
568.99	44175.27
569.15	44252.51
569.32	43978.67
569.48	44095.69
569.64	44421.03
569.81	44425.71
569.97	44348.47
570.13	44088.67
570.30	44460.82
570.46	44203.36
570.62	44107.40
570.78	44509.97
570.95	44472.52
571.11	44512.31
571.27	44135.48
571.43	44381.24
571.60	44435.07
571.76	44327.41
571.92	44149.53
572.09	44282.94
572.25	44385.92
572.41	44439.75
572.57	44409.32
572.74	45151.27
572.90	44397.62
573.06	44662.10
573.22	44788.49
573.38	44844.66
573.55	44348.47
573.71	44882.11
573.87	44502.95
574.03	44575.50
574.20	44568.48
574.36	44634.02
574.52	44509.97
574.68	44636.36
574.84	44856.37
575.01	44626.99
575.17	44842.32
575.33	44329.75
575.49	44327.41
575.65	44421.03
575.82	44664.44
575.98	44886.79
576.14	44449.11
576.30	44575.50
576.46	44521.67
576.62	44423.37
576.79	44406.98
576.95	44397.62
577.11	44589.55
577.27	45029.57
577.43	45024.89
577.59	44343.79
577.75	44016.11
577.92	44414.01
578.08	44245.49
578.24	44680.83
578.40	44329.75
578.56	44453.79
578.72	44315.70
578.88	45174.68
579.04	45017.86
579.21	44992.12
579.37	44790.83
579.53	44856.37
579.69	44285.28
579.85	44921.90
580.01	45329.16
580.17	44421.03
580.33	45233.19
580.49	45062.33
580.65	44697.21
580.82	45031.91
580.98	44409.32
581.14	44818.92
581.30	44751.04
581.46	44589.55
581.62	44781.47
581.78	45125.53
581.94	44790.83
582.10	44664.44
582.26	44680.83
582.42	44549.76
582.58	44549.76
582.74	44542.74
582.90	45167.66
583.06	44662.10
583.22	44856.37
583.38	45132.55
583.54	44933.60
583.70	45155.96
583.86	44626.99
584.02	44580.18
584.18	44638.70
584.34	44851.69
584.50	44500.61
584.66	44491.24
584.82	44711.25
584.98	45172.34
585.14	44933.60
585.30	44952.33
585.46	44547.42
585.62	44460.82
585.78	44484.22
585.94	44364.85
586.10	44715.93
586.26	44474.86
586.42	44758.06
586.58	44858.71
586.74	45254.26
586.90	44947.65
587.06	44549.76
587.22	44729.98
587.38	44238.47
587.54	44573.16
587.70	44769.77
587.86	44856.37
588.02	44645.72
588.18	44893.82
588.34	44931.26
588.49	44556.78
588.65	44619.97
588.81	44268.89
588.97	45038.93
589.13	44818.92
589.29	44320.38
589.45	44552.10
589.61	45038.93
589.77	45109.14
589.93	44744.02
590.08	44961.69
590.24	45006.16
