SpectraSuite Data File
++++++++++++++++++++++++++++++++++++
Date: Fri Oct 25 11:26:24 EDT 2013
User: price-jones
Dark Spectrum Present: No
Reference Spectrum Present: No
Number of Sampled Component Spectra: 1
Spectrometers: USB2+H05261
Integration Time (usec): 100000 (USB2+H05261)
Spectra Averaged: 1 (USB2+H05261)
Boxcar Smoothing: 0 (USB2+H05261)
Correct for Electrical Dark: No (USB2+H05261)
Strobe/Lamp Enabled: No (USB2+H05261)
Correct for Detector Non-linearity: No (USB2+H05261)
Correct for Stray Light: No (USB2+H05261)
Number of Pixels in Processed Spectrum: 2048
>>>>>Begin Processed Spectral Data<<<<<
365.73	273.84
365.92	273.84
366.12	273.84
366.32	140.43
366.52	142.77
366.72	156.82
366.91	121.71
367.11	117.03
367.31	156.82
367.51	166.18
367.70	187.24
367.90	114.69
368.10	124.05
368.30	100.64
368.49	180.22
368.69	198.95
368.89	194.26
369.09	229.37
369.28	222.35
369.48	189.58
369.68	95.96
369.87	217.67
370.07	173.20
370.27	269.16
370.47	299.59
370.66	601.52
370.86	603.86
371.06	681.10
371.25	650.67
371.45	741.95
371.65	704.50
371.84	617.90
372.04	716.20
372.24	582.79
372.44	777.06
372.63	781.74
372.83	795.78
373.03	730.25
373.22	765.36
373.42	751.31
373.62	744.29
373.81	861.32
374.01	849.61
374.21	739.61
374.40	772.38
374.60	784.08
374.79	809.83
374.99	903.45
375.19	833.23
375.38	866.00
375.58	908.13
375.78	896.43
375.97	866.00
376.17	884.72
376.37	889.40
376.56	919.83
376.76	915.15
376.95	866.00
377.15	854.30
377.35	884.72
377.54	889.40
377.74	912.81
377.93	968.98
378.13	873.02
378.33	945.58
378.52	1060.26
378.72	959.62
378.91	915.15
379.11	896.43
379.31	1001.75
379.50	985.37
379.70	908.13
379.89	971.32
380.09	882.38
380.28	992.39
380.48	976.00
380.68	938.55
380.87	973.66
381.07	1137.50
381.26	1001.75
381.46	1013.45
381.65	1071.97
381.85	1013.45
382.04	1039.20
382.24	1050.90
382.43	1076.65
382.63	1048.56
382.83	1132.82
383.02	1146.86
383.22	1090.69
383.41	1109.41
383.61	1057.92
383.80	1198.35
384.00	1095.37
384.19	1107.07
384.39	1081.33
384.58	1142.18
384.78	1177.29
384.97	1107.07
385.17	1219.42
385.36	1177.29
385.56	1299.00
385.75	1221.76
385.95	1111.75
386.14	1261.55
386.34	1188.99
386.53	1203.04
386.72	1193.67
386.92	1294.32
387.11	1266.23
387.31	1291.98
387.50	1291.98
387.70	1203.04
387.89	1277.93
388.09	1174.95
388.28	1306.02
388.48	1277.93
388.67	1315.38
388.86	1270.91
389.06	1387.94
389.25	1338.79
389.45	1397.30
389.64	1277.93
389.84	1390.28
390.03	1338.79
390.22	1383.26
390.42	1240.48
390.61	1284.95
390.81	1526.03
391.00	1514.33
391.19	1418.36
391.39	1420.71
391.58	1444.11
391.78	1516.67
391.97	1519.01
392.16	1511.99
392.36	1561.14
392.55	1444.11
392.75	1486.24
392.94	1521.35
393.13	1514.33
393.33	1479.22
393.52	1551.78
393.71	1575.18
393.91	1593.90
394.10	1432.41
394.29	1614.97
394.49	1596.25
394.68	1633.69
394.88	1568.16
395.07	1603.27
395.26	1678.16
395.46	1650.08
395.65	1783.49
395.84	1729.66
396.04	1834.98
396.23	1685.19
396.42	1811.57
396.62	1802.21
396.81	1724.97
397.00	1743.70
397.19	1741.36
397.39	1823.28
397.58	1792.85
397.77	1750.72
397.97	1891.15
398.16	1851.36
398.35	1834.98
398.55	1785.83
398.74	1909.88
398.93	1914.56
399.12	1930.94
399.32	1966.05
399.51	1968.39
399.70	2085.42
399.90	2054.99
400.09	1987.11
400.28	2015.20
400.47	2197.76
400.67	2115.84
400.86	2101.80
401.05	2015.20
401.24	2078.40
401.44	2090.10
401.63	2188.40
401.82	2134.57
402.01	2087.76
402.21	2054.99
402.40	2136.91
402.59	2165.00
402.78	2120.53
402.97	2134.57
403.17	2155.63
403.36	2333.51
403.55	2370.96
403.74	2438.84
403.93	2314.79
404.13	2291.38
404.32	2431.82
404.51	2366.28
404.70	2459.90
404.89	2392.03
405.09	2452.88
405.28	2438.84
405.47	2452.88
405.66	2565.23
405.85	2546.50
406.05	2466.92
406.24	2499.69
406.43	2565.23
406.62	2555.86
406.81	2677.57
407.00	2602.68
407.20	2506.71
407.39	2593.31
407.58	2642.46
407.77	2799.28
407.96	2785.24
408.15	2586.29
408.34	2677.57
408.54	2759.49
408.73	2813.32
408.92	2698.64
409.11	2883.54
409.30	2888.22
409.49	2885.88
409.68	2923.33
409.87	2864.82
410.07	2946.73
410.26	2937.37
410.45	2923.33
410.64	3119.93
410.83	3103.55
411.02	3045.04
411.21	3124.62
411.40	3136.32
411.59	3297.81
411.78	3246.32
411.98	3192.49
412.17	3272.07
412.36	3356.33
412.55	3281.43
412.74	3426.54
412.93	3421.86
413.12	3300.16
413.31	3595.06
413.50	3368.03
413.69	3428.88
413.88	3688.68
414.07	3548.25
414.26	3595.06
414.45	3665.28
414.64	3548.25
414.83	3693.37
415.02	3854.86
415.22	3791.67
415.41	3747.20
415.60	3887.63
415.79	3889.97
415.98	4025.72
416.17	4016.36
416.36	3955.51
416.55	4002.32
416.74	3932.10
416.93	4107.64
417.12	4112.32
417.31	4086.58
417.50	4105.30
417.69	4119.34
417.88	4208.28
418.07	4285.52
418.26	4278.50
418.45	4280.84
418.64	4465.74
418.83	4423.61
419.02	4388.50
419.21	4423.61
419.39	4620.22
419.58	4454.04
419.77	4428.29
419.96	4526.60
420.15	4571.07
420.34	4589.79
420.53	4629.58
420.72	4704.48
420.91	4580.43
421.10	4720.86
421.29	4814.48
421.48	4802.78
421.67	4711.50
421.86	4638.94
422.05	4739.58
422.24	4667.03
422.43	4882.36
422.61	4809.80
422.80	4798.10
422.99	4816.82
423.18	4910.44
423.37	4952.57
423.56	4959.60
423.75	4819.16
423.94	5001.72
424.13	4641.28
424.32	4695.11
424.50	4910.44
424.69	5114.07
424.88	5078.96
425.07	5006.41
425.26	4992.36
425.45	5027.47
425.64	4910.44
425.83	5046.20
426.01	5057.90
426.20	5228.76
426.39	5221.74
426.58	5029.81
426.77	5018.11
426.96	5107.05
427.15	5137.48
427.33	5088.32
427.52	5167.90
427.71	5331.74
427.90	5160.88
428.09	5387.91
428.28	5263.86
428.46	5212.37
428.65	5322.38
428.84	5507.28
429.03	5469.83
429.22	5277.91
429.40	5399.62
429.59	5357.49
429.78	5156.20
429.97	5308.34
430.16	5451.11
430.34	5619.63
430.53	5423.02
430.72	5636.01
430.91	5547.07
431.10	5638.35
431.28	5621.97
431.47	5837.30
431.66	5802.19
431.85	5841.98
432.03	5846.66
432.22	5968.37
432.41	5813.89
432.60	5881.77
432.79	6003.47
432.97	5837.30
433.16	5860.70
433.35	5959.00
433.54	6176.67
433.72	6026.88
433.91	5949.64
434.10	6073.69
434.28	6052.63
434.47	6167.31
434.66	6321.79
434.85	6284.34
435.03	6237.53
435.22	6284.34
435.41	6476.26
435.59	6420.09
435.78	6572.22
435.97	6555.84
436.16	6413.07
436.34	6305.40
436.53	6356.90
436.72	6640.10
436.90	6291.36
437.09	6679.89
437.28	6326.47
437.46	6614.35
437.65	6619.04
437.84	6843.73
438.02	6670.53
438.21	6717.34
438.40	6839.05
438.58	6930.33
438.77	7059.06
438.96	7098.84
439.14	7098.84
439.33	7122.25
439.52	7094.16
439.70	7274.38
439.89	7454.61
440.08	7332.90
440.26	7265.02
440.45	7208.85
440.63	7447.58
440.82	7440.56
441.01	7470.99
441.19	7590.36
441.38	7854.84
441.57	7698.02
441.75	7723.77
441.94	7838.45
442.12	7751.85
442.31	7840.79
442.50	8081.87
442.68	7852.50
442.87	8028.04
443.05	8032.72
443.24	8140.38
443.43	8060.80
443.61	8273.79
443.80	8290.18
443.98	8051.44
444.17	7801.01
444.35	7957.82
444.54	8285.50
444.73	8313.58
444.91	8255.07
445.10	8355.71
445.28	8264.43
445.47	8351.03
445.65	8498.49
445.84	8388.48
446.02	8557.00
446.21	8425.93
446.39	8341.67
446.58	8035.06
446.77	8374.44
446.95	8215.28
447.14	8461.04
447.32	8444.65
447.51	8271.45
447.69	8334.65
447.88	8512.53
448.06	8276.13
448.25	8449.33
448.43	8512.53
448.62	8542.96
448.80	8463.38
448.99	8699.77
449.17	8641.26
449.36	8634.24
449.54	8772.33
449.73	8861.27
449.91	9090.64
450.10	8959.57
450.28	8980.64
450.46	9266.18
450.65	8837.86
450.83	8992.34
451.02	8826.16
451.20	9179.58
451.39	9001.70
451.57	8964.25
451.76	9083.62
451.94	9142.13
452.13	9238.09
452.31	9301.29
452.49	9186.60
452.68	9338.74
452.86	9345.76
453.05	9432.36
453.23	9607.90
453.42	9186.60
453.60	9231.07
453.78	9497.89
453.97	9483.85
454.15	9432.36
454.34	9425.34
454.52	9533.00
454.70	9706.20
454.89	9743.65
455.07	9750.67
455.26	9853.66
455.44	9877.06
455.62	9914.51
455.81	10019.83
455.99	9998.77
456.17	10164.95
456.36	10181.33
456.54	10167.29
456.73	9968.34
456.91	10420.06
457.09	10450.49
457.28	10494.96
457.46	10202.40
457.64	10693.91
457.83	10328.78
458.01	10274.95
458.19	10581.56
458.38	10637.73
458.56	10740.72
458.74	10548.79
458.93	10572.20
459.11	10621.35
459.29	10766.46
459.48	10684.55
459.66	10635.39
459.84	10981.79
460.03	10815.62
460.21	10897.53
460.39	10897.53
460.57	10810.93
460.76	11096.48
460.94	11049.67
461.12	11042.65
461.31	11213.51
461.49	11077.76
461.67	10932.64
461.85	11466.28
462.04	11166.70
462.22	11964.82
462.40	11517.78
462.59	11510.75
462.77	11459.26
462.95	11356.28
463.13	11424.15
463.32	11477.99
463.50	11829.07
463.68	11632.46
463.86	11850.13
464.05	11887.58
464.23	11662.89
464.41	11868.86
464.59	11634.80
464.78	11941.41
464.96	12056.10
465.14	11810.34
465.32	12002.27
465.50	12114.61
465.69	11992.90
465.87	12210.57
466.05	12030.35
466.23	12121.63
466.41	12187.17
466.60	12376.75
466.78	11976.52
466.96	12245.68
467.14	12353.35
467.32	12182.49
467.51	12463.35
467.69	11985.88
467.87	12446.97
468.05	12428.24
468.23	12446.97
468.41	12585.06
468.60	12638.89
468.78	12819.11
468.96	12400.16
469.14	12837.84
469.32	13167.85
469.50	12652.94
469.69	12879.97
469.87	12945.50
470.05	12950.18
470.23	12947.84
470.41	13107.00
470.59	13233.39
470.77	13160.83
470.95	13074.23
471.14	13209.98
471.32	12978.27
471.50	13551.70
471.68	13544.68
471.86	13661.71
472.04	13741.29
472.22	14043.21
472.40	13556.38
472.58	13748.31
472.77	13893.42
472.95	14141.52
473.13	14611.96
473.31	14052.58
473.49	13961.30
473.67	14033.85
473.85	14228.12
474.03	14923.26
474.21	14363.87
474.39	14703.25
474.57	14548.77
474.75	14726.65
474.93	14853.04
475.12	14796.87
475.30	15126.88
475.48	14771.12
475.66	15190.08
475.84	14977.09
476.02	15417.11
476.20	15227.53
476.38	15894.58
476.56	15887.56
476.74	15946.07
476.92	15953.09
477.10	15981.18
477.28	16004.58
477.46	16173.10
477.64	16350.98
477.82	16369.71
478.00	16517.16
478.18	16755.90
478.36	17032.08
478.54	17104.64
478.72	17268.47
478.90	17209.96
479.08	17413.59
479.26	17703.81
479.44	17696.79
479.62	17781.05
479.80	17757.64
479.98	18293.63
480.16	18380.23
480.34	18127.45
480.52	18295.97
480.70	18600.24
480.88	18478.53
481.06	18738.33
481.24	18579.17
481.41	19124.52
481.59	19278.99
481.77	19377.30
481.95	19630.07
482.13	19922.64
482.31	19559.86
482.49	20168.40
482.67	19936.68
482.85	20079.46
483.03	20449.26
483.21	20414.15
483.39	21064.82
483.57	20833.11
483.74	20900.98
483.92	21010.99
484.10	20755.87
484.28	21245.04
484.46	21427.60
484.64	21837.20
484.82	21785.71
485.00	22532.34
485.18	22609.58
485.35	22845.97
485.53	22918.53
485.71	23014.49
485.89	23545.79
486.07	23227.48
486.25	23414.72
486.43	23751.76
486.61	23637.07
486.78	24149.65
486.96	24376.68
487.14	24423.49
487.32	24372.00
487.50	24643.50
487.68	25081.18
487.85	25364.39
488.03	25097.56
488.21	25364.39
488.39	25659.29
488.57	25975.27
488.75	25905.05
488.92	26326.35
489.10	26466.78
489.28	26583.80
489.46	27014.46
489.64	27208.73
489.81	27428.74
489.99	27489.59
490.17	27508.32
490.35	27953.02
490.53	27997.49
490.70	28203.46
490.88	27772.80
491.06	28629.43
491.24	28655.18
491.41	29120.95
491.59	29170.10
491.77	29308.19
491.95	29631.18
492.13	29577.35
492.30	29909.71
492.48	29741.19
492.66	29916.73
492.84	29902.68
493.01	30508.88
493.19	30192.91
493.37	30801.45
493.54	31283.60
493.72	31426.37
493.90	31187.64
494.08	31498.93
494.25	31660.43
494.43	31985.76
494.61	32215.13
494.79	32210.45
494.96	32390.67
495.14	32835.38
495.32	32964.10
495.49	32851.76
495.67	32961.76
495.85	33399.44
496.02	33567.96
496.20	34015.01
496.38	33603.07
496.55	34010.32
496.73	34944.20
496.91	34363.75
497.09	34581.42
497.26	34965.26
497.44	34815.47
497.62	34696.10
497.79	35709.55
497.97	35510.61
498.14	35562.10
498.32	35728.28
498.50	35798.49
498.67	36451.50
498.85	36009.14
499.03	36411.71
499.20	36608.32
499.38	36495.97
499.56	36730.03
499.73	37053.02
499.91	37223.88
500.08	37366.65
500.26	37345.59
500.44	37614.75
500.61	37359.63
500.79	37944.76
500.97	37949.45
501.14	38682.03
501.32	38209.25
501.49	38192.86
501.67	38363.72
501.84	38579.05
502.02	38679.69
502.20	38895.02
502.37	38712.46
502.55	38988.64
502.72	38993.32
502.90	39164.18
503.07	39491.86
503.25	39456.75
503.43	39646.33
503.60	40201.04
503.78	40151.89
503.95	40561.48
504.13	40268.92
504.30	40259.55
504.48	40432.75
504.65	40306.37
504.83	40512.33
505.01	40821.28
505.18	40896.18
505.36	41139.60
505.53	41041.29
505.71	41397.06
505.88	41549.19
506.06	41394.71
506.23	41427.48
506.41	41666.22
506.58	41368.97
506.76	41771.54
506.93	42080.49
507.11	41748.14
507.28	42445.62
507.46	42424.55
507.63	43012.02
507.81	42974.58
507.98	42361.36
508.16	42972.24
508.33	43416.94
508.50	43358.42
508.68	43290.55
508.85	43374.81
509.03	43550.35
509.20	43896.75
509.38	43842.92
509.55	43887.39
509.73	44088.67
509.90	44304.00
510.08	44392.94
510.25	44177.61
510.42	44912.54
510.60	44828.28
510.77	45127.87
510.95	44694.87
511.12	44847.00
511.30	44996.80
511.47	45216.81
511.64	45427.46
511.82	45668.53
511.99	45624.06
512.17	45907.27
512.34	45436.82
512.51	45956.42
512.69	45982.16
512.86	46171.75
513.04	46157.70
513.21	46234.94
513.38	46419.84
513.56	47079.88
513.73	46445.59
513.90	46735.82
514.08	46539.21
514.25	47065.83
514.43	47042.43
514.60	47405.21
514.77	47522.24
514.95	47318.61
515.12	47430.96
515.29	47557.35
515.47	47812.46
515.64	48313.34
515.81	47559.69
515.99	47847.57
516.16	48140.14
516.33	48135.46
516.51	48549.73
516.68	48074.60
516.85	48044.18
517.03	48797.83
517.20	48765.06
517.37	48325.04
517.54	48549.73
517.72	48566.12
517.89	48907.83
518.06	49265.94
518.24	49160.61
518.41	49181.68
518.58	49310.41
518.75	49195.72
518.93	49450.84
519.10	48903.15
519.27	49521.05
519.45	49846.39
519.62	49745.75
519.79	49645.10
519.96	49722.34
520.14	49972.78
520.31	49654.47
520.48	50298.11
520.65	50061.72
520.83	49914.26
521.00	50387.05
521.17	50588.34
521.34	50749.84
521.52	50380.03
521.69	50721.75
521.86	50939.42
522.03	50981.55
522.20	51061.13
522.38	51210.92
522.55	51346.67
522.72	51040.06
522.89	50658.56
523.07	51391.14
523.24	51217.94
523.41	51583.07
523.58	51253.05
523.75	51585.41
523.92	51702.43
524.10	51650.94
524.27	52046.49
524.44	51774.99
524.61	51901.38
524.78	51952.87
524.96	51866.27
525.13	52222.03
525.30	52306.29
525.47	52399.91
525.64	52105.01
525.81	52154.16
525.98	52411.62
526.16	52596.52
526.33	52360.12
526.50	52388.21
526.67	52725.25
526.84	52662.05
527.01	52734.61
527.18	52655.03
527.36	52662.05
527.53	52994.41
527.70	52994.41
527.87	53221.44
528.04	53268.25
528.21	53144.20
528.38	53141.86
528.55	53492.94
528.72	53036.54
528.89	53223.78
529.07	53193.36
529.24	53226.12
529.41	53600.61
529.58	53368.90
529.75	53497.62
529.92	53741.04
530.09	53808.92
530.26	53963.39
530.43	53989.14
530.60	53734.02
530.77	53530.39
530.94	53949.35
531.11	54026.59
531.28	54113.19
531.46	53900.20
531.63	54188.08
531.80	54129.57
531.97	54075.74
532.14	54419.80
532.31	54321.49
532.48	54349.58
532.65	54653.85
532.82	54204.47
532.99	54192.76
533.16	54344.90
533.33	54693.64
533.50	54651.51
533.67	54457.24
533.84	54553.21
534.01	54695.98
534.18	54801.30
534.35	55168.77
534.52	54897.27
534.69	54906.63
534.86	54843.43
535.03	54831.73
535.20	54820.03
535.37	54990.89
535.54	55222.60
535.71	55126.64
535.88	55318.56
536.05	55264.73
536.22	55540.91
536.38	55365.37
536.55	55409.84
536.72	55437.93
536.89	55444.95
537.06	55330.26
537.23	55491.76
537.40	55578.36
537.57	55831.14
537.74	55559.64
537.91	55927.10
538.08	55611.13
538.25	55711.77
538.42	55632.19
538.59	55955.19
538.75	55786.67
538.92	56044.13
539.09	55807.73
539.26	56048.81
539.43	56240.73
539.60	56123.71
539.77	56037.11
539.94	56151.79
540.11	56109.66
540.28	56020.72
540.44	56006.68
540.61	56229.03
540.78	56165.84
540.95	56217.33
541.12	56308.61
541.29	56308.61
541.46	56350.74
541.62	56491.17
541.79	56507.55
541.96	56280.52
542.13	56329.67
542.30	56666.71
542.47	56757.99
542.63	56692.46
542.80	56860.97
542.97	56828.21
543.14	57050.56
543.31	57127.80
543.48	57256.53
543.64	57371.21
543.81	57265.89
543.98	57242.48
544.15	57006.09
544.32	57340.78
544.48	57293.97
544.65	57228.44
544.82	56952.26
544.99	57085.67
545.16	57347.81
545.32	57317.38
545.49	57698.89
545.66	57963.37
545.83	57418.02
546.00	57609.95
546.16	57574.84
546.33	57642.71
546.50	57212.06
546.67	57684.84
546.83	57263.55
547.00	57715.27
547.17	57551.43
547.34	57453.13
547.50	57801.87
547.67	58134.23
547.84	58040.60
548.00	58033.58
548.17	57815.91
548.34	57848.68
548.51	57970.39
548.67	58042.95
548.84	58110.82
549.01	57762.08
549.18	57984.43
549.34	58003.16
549.51	58241.89
549.68	58265.30
549.84	57946.98
550.01	58358.92
550.18	58103.80
550.34	58230.19
550.51	58321.47
550.68	58241.89
550.84	58075.71
551.01	58658.51
551.18	58281.68
551.34	58342.53
551.51	58342.53
551.68	58630.42
551.84	58482.97
552.01	58419.77
552.18	58387.00
552.34	58340.19
552.51	58646.80
552.68	58375.30
552.84	58667.87
553.01	58557.86
553.18	58438.50
553.34	58674.89
553.51	58590.63
553.67	58749.79
553.84	58789.58
554.01	58623.40
554.17	58915.96
554.34	58637.44
554.51	58852.77
554.67	58820.00
554.84	58901.92
555.00	58642.12
555.17	58925.33
555.33	58827.02
555.50	58817.66
555.67	58808.30
555.83	58974.48
556.00	58969.80
556.16	59157.04
556.33	59269.39
556.50	59021.29
556.66	59098.53
556.83	58880.86
556.99	59213.21
557.16	59508.12
557.32	59353.65
557.49	59487.06
557.65	59255.34
557.82	59199.17
557.98	59276.41
558.15	59409.82
558.32	58913.62
558.48	59285.77
558.65	59253.00
558.81	59391.09
558.98	59444.93
559.14	59465.99
559.31	59714.09
559.47	59604.08
559.64	59512.80
559.80	59552.59
559.97	59440.24
560.13	59676.64
560.30	59487.06
560.46	59625.15
560.63	59550.25
560.79	59585.36
560.96	59866.22
561.12	59498.76
561.29	59695.36
561.45	59760.90
561.61	59737.49
561.78	59793.67
561.94	59632.17
562.11	59688.34
562.27	59765.58
562.44	59756.22
562.60	59945.80
562.77	59910.69
562.93	59693.02
563.10	60034.74
563.26	59845.16
563.42	60102.62
563.59	60111.98
563.75	59920.05
563.92	59863.88
564.08	59812.39
564.24	60037.08
564.41	60048.78
564.57	60027.72
564.74	59866.22
564.90	59980.91
565.07	59962.18
565.23	59821.75
565.39	59868.56
565.56	60116.66
565.72	59796.01
565.88	59966.87
566.05	59952.82
566.21	60083.89
566.38	59952.82
566.54	60086.23
566.70	60334.33
566.87	60303.90
567.03	59992.61
567.19	60292.20
567.36	60111.98
567.52	60275.82
567.68	60449.02
567.85	60196.24
568.01	60364.76
568.17	60191.56
568.34	60329.65
568.50	60095.60
568.66	60111.98
568.83	60275.82
568.99	60238.37
569.15	60324.97
569.32	60264.11
569.48	60266.45
569.64	60418.59
569.81	60198.58
569.97	60247.73
570.13	60231.35
570.30	60261.77
570.46	60488.80
570.62	60437.31
570.78	60278.16
570.95	60402.21
571.11	60580.09
571.27	60385.82
571.43	60336.67
571.60	60425.61
571.76	60432.63
571.92	60456.04
572.09	60383.48
572.25	60257.09
572.41	60647.96
572.57	60402.21
572.74	60533.28
572.90	60528.59
573.06	60423.27
573.22	60495.83
573.38	60559.02
573.55	60566.04
573.71	60507.53
573.87	60591.79
574.03	60320.29
574.20	60619.88
574.36	60594.13
574.52	60554.34
574.68	60486.46
574.84	60561.36
575.01	60367.10
575.17	60584.77
575.33	60493.49
575.49	60441.99
575.65	60797.76
575.82	60786.05
575.98	60720.52
576.14	60931.17
576.30	60762.65
576.46	60456.04
576.62	60727.54
576.79	60669.03
576.95	60570.72
577.11	60449.02
577.27	60732.22
577.43	60725.20
577.59	60552.00
577.75	60498.17
577.92	60654.98
578.08	60718.18
578.24	60818.82
578.40	60790.73
578.56	60830.52
578.72	60647.96
578.88	60907.76
579.04	60896.06
579.21	60769.67
579.37	60872.65
579.53	60809.46
579.69	60584.77
579.85	60692.43
580.01	60603.49
580.17	60640.94
580.33	60956.91
580.49	60692.43
580.65	60858.61
580.82	60762.65
580.98	60678.39
581.14	60573.06
581.30	60769.67
581.46	60755.63
581.62	60816.48
581.78	60797.76
581.94	60814.14
582.10	60589.45
582.26	60683.07
582.42	60924.14
582.58	60622.22
582.74	60570.72
582.90	60823.50
583.06	60865.63
583.22	60505.19
583.38	61031.81
583.54	60910.10
583.70	60940.53
583.86	60818.82
584.02	60664.35
584.18	60807.12
584.34	61003.72
584.50	60842.23
584.66	60739.24
584.82	60671.37
584.98	61008.40
585.14	60837.54
585.30	60659.66
585.46	61020.11
585.62	60837.54
585.78	61001.38
585.94	60680.73
586.10	60879.67
586.26	60980.32
586.42	60867.97
586.58	60940.53
586.74	60919.46
586.90	60889.04
587.06	60954.57
587.22	61006.06
587.38	60935.85
587.54	60931.17
587.70	61221.39
587.86	60823.50
588.02	61024.79
588.18	60884.36
588.34	61038.83
588.49	60968.61
