SpectraSuite Data File
++++++++++++++++++++++++++++++++++++
Date: Fri Oct 25 11:25:44 EDT 2013
User: price-jones
Dark Spectrum Present: No
Reference Spectrum Present: No
Number of Sampled Component Spectra: 1
Spectrometers: USB2+H05261
Integration Time (usec): 100000 (USB2+H05261)
Spectra Averaged: 1 (USB2+H05261)
Boxcar Smoothing: 0 (USB2+H05261)
Correct for Electrical Dark: No (USB2+H05261)
Strobe/Lamp Enabled: No (USB2+H05261)
Correct for Detector Non-linearity: No (USB2+H05261)
Correct for Stray Light: No (USB2+H05261)
Number of Pixels in Processed Spectrum: 2048
>>>>>Begin Processed Spectral Data<<<<<
365.73	212.99
365.92	212.99
366.12	212.99
366.32	224.69
366.52	110.01
366.72	112.35
366.91	142.77
367.11	98.30
367.31	100.64
367.51	91.28
367.70	114.69
367.90	107.66
368.10	215.33
368.30	135.75
368.49	95.96
368.69	161.50
368.89	93.62
369.09	93.62
369.28	140.43
369.48	135.75
369.68	203.63
369.87	217.67
370.07	152.13
370.27	264.48
370.47	376.83
370.66	585.13
370.86	674.07
371.06	617.90
371.25	716.20
371.45	636.63
371.65	711.52
371.84	709.18
372.04	671.73
372.24	795.78
372.44	671.73
372.63	737.27
372.83	767.70
373.03	784.08
373.22	713.86
373.42	788.76
373.62	788.76
373.81	741.95
374.01	847.27
374.21	779.40
374.40	849.61
374.60	737.27
374.79	880.04
374.99	821.53
375.19	802.80
375.38	922.17
375.58	870.68
375.78	933.87
375.97	880.04
376.17	816.85
376.37	875.36
376.56	926.85
376.76	823.87
376.95	854.30
377.15	812.17
377.35	863.66
377.54	816.85
377.74	889.40
377.93	919.83
378.13	964.30
378.33	903.45
378.52	891.74
378.72	891.74
378.91	964.30
379.11	887.06
379.31	894.08
379.50	966.64
379.70	952.60
379.89	1034.52
380.09	1018.13
380.28	978.34
380.48	994.73
380.68	1036.86
380.87	912.81
381.07	1057.92
381.26	987.71
381.46	1109.41
381.65	1081.33
381.85	1027.50
382.04	1074.31
382.24	1006.43
382.43	1095.37
382.63	1057.92
382.83	1057.92
383.02	1090.69
383.22	1111.75
383.41	1078.99
383.61	1097.71
383.80	1165.59
384.00	1217.08
384.19	1146.86
384.39	1188.99
384.58	1158.57
384.78	1109.41
384.97	1109.41
385.17	1188.99
385.36	1071.97
385.56	1090.69
385.75	1104.73
385.95	1174.95
386.14	1163.25
386.34	1235.80
386.53	1188.99
386.72	1156.22
386.92	1256.87
387.11	1252.19
387.31	1238.14
387.50	1207.72
387.70	1151.54
387.89	1254.53
388.09	1331.76
388.28	1289.64
388.48	1259.21
388.67	1256.87
388.86	1303.68
389.06	1324.74
389.25	1324.74
389.45	1273.25
389.64	1378.58
389.84	1397.30
390.03	1362.19
390.22	1362.19
390.42	1322.40
390.61	1359.85
390.81	1423.05
391.00	1357.51
391.19	1479.22
391.39	1378.58
391.58	1432.41
391.78	1476.88
391.97	1504.96
392.16	1446.45
392.36	1460.49
392.55	1502.62
392.75	1549.43
392.94	1561.14
393.13	1591.56
393.33	1533.05
393.52	1542.41
393.71	1563.48
393.91	1619.65
394.10	1558.80
394.29	1577.52
394.49	1551.78
394.68	1572.84
394.88	1549.43
395.07	1694.55
395.26	1715.61
395.46	1636.03
395.65	1736.68
395.84	1645.40
396.04	1802.21
396.23	1771.79
396.42	1668.80
396.62	1720.29
396.81	1736.68
397.00	1802.21
397.19	1865.41
397.39	1755.40
397.58	1729.66
397.77	1877.11
397.97	1865.41
398.16	1865.41
398.35	1954.35
398.55	1867.75
398.74	1867.75
398.93	1933.28
399.12	1898.17
399.32	1888.81
399.51	1926.26
399.70	1970.73
399.90	1923.92
400.09	2010.52
400.28	2085.42
400.47	1954.35
400.67	2193.08
400.86	2087.76
401.05	1991.80
401.24	2029.24
401.44	2050.31
401.63	2125.21
401.82	2094.78
402.01	2155.63
402.21	2155.63
402.40	2230.53
402.59	2291.38
402.78	2183.72
402.97	2317.13
403.17	2246.91
403.36	2300.75
403.55	2204.78
403.74	2368.62
403.93	2368.62
404.13	2324.15
404.32	2387.35
404.51	2413.09
404.70	2394.37
404.89	2380.32
405.09	2537.14
405.28	2525.44
405.47	2518.42
405.66	2462.24
405.85	2466.92
406.05	2459.90
406.24	2502.03
406.43	2576.93
406.62	2670.55
406.81	2686.94
407.00	2672.89
407.20	2597.99
407.39	2644.81
407.58	2670.55
407.77	2712.68
407.96	2827.37
408.15	2864.82
408.34	2799.28
408.54	2808.64
408.73	2890.56
408.92	2829.71
409.11	2775.88
409.30	2974.82
409.49	2946.73
409.68	2834.39
409.87	2963.12
410.07	3061.42
410.26	3038.02
410.45	2935.03
410.64	2958.44
410.83	3119.93
411.02	3117.59
411.21	3178.45
411.40	3068.44
411.59	3096.53
411.78	3115.25
411.98	3213.56
412.17	3234.62
412.36	3183.13
412.55	3508.46
412.74	3370.37
412.93	3393.78
413.12	3351.65
413.31	3592.72
413.50	3492.08
413.69	3524.85
413.88	3557.61
414.07	3571.66
414.26	3613.79
414.45	3644.21
414.64	3688.68
414.83	3831.46
415.02	3812.73
415.22	3777.62
415.41	3955.51
415.60	3915.72
415.79	3911.04
415.98	3915.72
416.17	4065.51
416.36	3873.59
416.55	3831.46
416.74	4009.34
416.93	4084.23
417.12	4168.49
417.31	4133.39
417.50	4236.37
417.69	4243.39
417.88	4224.67
418.07	4210.62
418.26	4341.69
418.45	4332.33
418.64	4414.25
418.83	4390.84
419.02	4461.06
419.21	4599.15
419.39	4517.23
419.58	4444.68
419.77	4461.06
419.96	4564.04
420.15	4486.81
420.34	4636.60
420.53	4582.77
420.72	4561.70
420.91	4582.77
421.10	4702.14
421.29	4755.97
421.48	4573.41
421.67	4697.46
421.86	4650.64
422.05	4802.78
422.24	4744.27
422.43	4830.87
422.61	4809.80
422.80	4889.38
422.99	4943.21
423.18	5025.13
423.37	5184.29
423.56	4968.96
423.75	4947.89
423.94	4887.04
424.13	4512.55
424.32	4650.64
424.50	4926.83
424.69	5116.41
424.88	4987.68
425.07	4896.40
425.26	4971.30
425.45	4894.06
425.64	5069.60
425.83	5001.72
426.01	5071.94
426.20	5011.09
426.39	5083.64
426.58	4957.25
426.77	5046.20
426.96	5076.62
427.15	5041.51
427.33	5210.03
427.52	5093.01
427.71	5334.08
427.90	5296.63
428.09	5451.11
428.28	5376.21
428.46	5439.40
428.65	5259.18
428.84	5313.02
429.03	5570.48
429.22	5378.55
429.40	5507.28
429.59	5528.35
429.78	5357.49
429.97	5238.12
430.16	5483.88
430.34	5757.72
430.53	5619.63
430.72	5692.18
430.91	5621.97
431.10	5518.98
431.28	5795.17
431.47	5767.08
431.66	5930.92
431.85	5776.44
432.03	5799.85
432.22	5870.06
432.41	5783.46
432.60	5940.28
432.79	5921.56
432.97	5881.77
433.16	6108.80
433.35	5900.49
433.54	5947.30
433.72	6230.51
433.91	6115.82
434.10	6148.59
434.28	6052.63
434.47	6342.85
434.66	6078.37
434.85	6200.08
435.03	6307.74
435.22	6284.34
435.41	6471.58
435.59	6326.47
435.78	6497.33
435.97	6396.68
436.16	6427.11
436.34	6410.73
436.53	6537.12
436.72	6595.63
436.90	6384.98
437.09	6513.71
437.28	6466.90
437.46	6539.46
437.65	6640.10
437.84	6754.79
438.02	6778.19
438.21	6712.66
438.40	6574.56
438.58	6825.00
438.77	7037.99
438.96	6878.83
439.14	7049.69
439.33	7183.10
439.52	7199.49
439.70	7262.68
439.89	7356.30
440.08	7325.88
440.26	7267.36
440.45	7461.63
440.63	7489.71
440.82	7536.52
441.01	7648.87
441.19	7573.97
441.38	7634.83
441.57	7644.19
441.75	7761.22
441.94	7793.98
442.12	7808.03
442.31	7953.14
442.50	7962.50
442.68	8013.99
442.87	7969.52
443.05	8070.17
443.24	8042.08
443.43	8280.82
443.61	8205.92
443.80	8372.10
443.98	8011.65
444.17	7911.01
444.35	8255.07
444.54	8322.94
444.73	8226.98
444.91	8107.62
445.10	8297.20
445.28	8257.41
445.47	8372.10
445.65	8367.42
445.84	8437.63
446.02	8365.07
446.21	8369.76
446.39	8624.87
446.58	8524.23
446.77	8564.02
446.95	8205.92
447.14	8463.38
447.32	8489.12
447.51	8449.33
447.69	8470.40
447.88	8493.80
448.06	8524.23
448.25	8582.74
448.43	8528.91
448.62	8690.41
448.80	8585.08
448.99	8547.64
449.17	8657.64
449.36	8535.93
449.54	9011.06
449.73	8760.63
449.91	8802.75
450.10	8945.53
450.28	9032.13
450.46	9104.68
450.65	8985.32
450.83	8994.68
451.02	9078.94
451.20	9092.98
451.39	9165.54
451.57	9039.15
451.76	8936.17
451.94	9394.91
452.13	9107.02
452.31	9235.75
452.49	9177.24
452.68	9284.91
452.86	9486.19
453.05	9425.34
453.23	9420.66
453.42	9380.87
453.60	9460.45
453.78	9497.89
453.97	9249.80
454.15	9617.26
454.34	9591.52
454.52	9364.48
454.70	9797.48
454.89	9673.43
455.07	9769.40
455.26	9872.38
455.44	9872.38
455.62	9776.42
455.81	10047.92
455.99	10045.58
456.17	10094.73
456.36	9958.98
456.54	10181.33
456.73	10167.29
456.91	10303.04
457.09	10581.56
457.28	10619.01
457.46	10424.75
457.64	10494.96
457.83	10593.26
458.01	10319.42
458.19	10775.83
458.38	10619.01
458.56	10588.58
458.74	10565.18
458.93	10773.49
459.11	10626.03
459.29	10490.28
459.48	10806.25
459.66	10684.55
459.84	10843.70
460.03	10850.72
460.21	10731.36
460.39	10869.45
460.57	10829.66
460.76	10974.77
460.94	11115.20
461.12	11115.20
461.31	11255.64
461.49	11066.05
461.67	11066.05
461.85	11447.56
462.04	11300.11
462.22	11730.76
462.40	11461.60
462.59	11403.09
462.77	11433.52
462.95	11660.55
463.13	11772.89
463.32	11428.84
463.50	11585.65
463.68	11707.36
463.86	11686.29
464.05	11667.57
464.23	11796.30
464.41	12058.44
464.59	11480.33
464.78	12063.12
464.96	11992.90
465.14	11786.94
465.32	11880.56
465.50	12194.19
465.69	12278.45
465.87	12081.85
466.05	12028.01
466.23	12217.60
466.41	12116.95
466.60	12561.66
466.78	12093.55
466.96	12208.23
467.14	12217.60
467.32	12102.91
467.51	12423.56
467.69	12236.32
467.87	12339.30
468.05	12676.34
468.23	12582.72
468.41	12542.93
468.60	12334.62
468.78	12580.38
468.96	12575.70
469.14	12816.77
469.32	12987.63
469.50	12641.23
469.69	13027.42
469.87	12943.16
470.05	13109.34
470.23	13006.36
470.41	13041.46
470.59	13399.57
470.77	13163.17
470.95	13186.58
471.14	13268.50
471.32	13303.60
471.50	13481.49
471.68	13572.77
471.86	13582.13
472.04	13666.39
472.22	13888.74
472.40	13797.46
472.58	13729.58
472.77	13722.56
472.95	14118.11
473.13	14478.55
473.31	14047.90
473.49	13834.91
473.67	14073.64
473.85	14253.86
474.03	14331.10
474.21	14455.15
474.39	14654.09
474.57	14607.28
474.75	14970.07
474.93	15122.20
475.12	14698.56
475.30	15054.33
475.48	15115.18
475.66	15124.54
475.84	14986.45
476.02	15241.57
476.20	15377.32
476.38	15737.76
476.56	15925.00
476.74	15843.09
476.92	15772.87
477.10	15571.58
477.28	15910.96
477.46	15917.98
477.64	16229.27
477.82	16615.46
478.00	16765.26
478.18	16882.28
478.36	16776.96
478.54	17149.11
478.72	17097.61
478.90	17106.98
479.08	17200.60
479.26	17628.92
479.44	17680.41
479.62	17689.77
479.80	17984.68
479.98	18075.96
480.16	18803.86
480.34	18305.33
480.52	18642.37
480.70	18462.15
480.88	18347.46
481.06	18686.84
481.24	18679.82
481.41	19225.16
481.59	19049.62
481.77	19674.54
481.95	19463.90
482.13	19824.34
482.31	19700.29
482.49	20365.00
482.67	20217.55
482.85	20357.98
483.03	20524.16
483.21	20563.95
483.39	20819.07
483.57	21006.31
483.74	21242.70
483.92	21195.89
484.10	20978.22
484.28	21668.68
484.46	21827.84
484.64	22443.40
484.82	21825.50
485.00	22104.02
485.18	22656.39
485.35	23033.21
485.53	22735.96
485.71	23154.92
485.89	23288.33
486.07	23337.48
486.25	23257.90
486.43	23400.68
486.61	24140.29
486.78	24004.53
486.96	24063.05
487.14	24531.15
487.32	24414.13
487.50	24835.42
487.68	25174.80
487.85	25127.99
488.03	25507.16
488.21	25638.23
488.39	25551.63
488.57	26047.82
488.75	26113.36
488.92	26256.13
489.10	26698.49
489.28	26693.81
489.46	27131.49
489.64	27019.14
489.81	27091.70
489.99	27653.43
490.17	27847.69
490.35	28271.33
490.53	28086.43
490.70	28343.89
490.88	28360.27
491.06	28783.91
491.24	29010.94
491.41	28701.99
491.59	29277.76
491.77	29233.29
491.95	29329.25
492.13	29865.24
492.30	29610.12
492.48	29905.02
492.66	29979.92
492.84	30213.98
493.01	30644.63
493.19	30450.37
493.37	30841.24
493.54	31098.70
493.72	31332.75
493.90	31157.21
494.08	31538.72
494.25	31885.12
494.43	31899.16
494.61	32119.17
494.79	32683.24
494.96	32519.40
495.14	32727.71
495.32	32973.47
495.49	33111.56
495.67	33139.65
495.85	33792.65
496.02	33823.08
496.20	33965.85
496.38	34054.79
496.55	34525.24
496.73	34731.21
496.91	34513.54
497.09	34625.89
497.26	34934.84
497.44	35009.73
497.62	34976.97
497.79	36060.63
497.97	35211.02
498.14	36093.40
498.32	35985.74
498.50	36058.29
498.67	36451.50
498.85	36210.43
499.03	36465.55
499.20	36685.56
499.38	36781.52
499.56	37036.64
499.73	37359.63
499.91	37219.20
500.08	37687.31
500.26	36940.68
500.44	37385.38
500.61	37708.37
500.79	37579.64
500.97	38277.12
501.14	38583.73
501.32	38649.27
501.49	38827.15
501.67	38635.22
501.84	38983.96
502.02	39028.43
502.20	38969.92
502.37	39332.70
502.55	39201.63
502.72	39817.19
502.90	39608.89
503.07	39587.82
503.25	39461.43
503.43	39515.26
503.60	39824.22
503.78	40144.87
503.95	40046.57
504.13	40194.02
504.30	40584.89
504.48	40308.71
504.65	40357.86
504.83	40971.08
505.01	41256.62
505.18	41235.56
505.36	41460.25
505.53	40844.69
505.71	41361.95
505.88	41628.77
506.06	41493.02
506.23	41937.72
506.41	41556.21
506.58	42010.28
506.76	42012.62
506.93	42394.12
507.11	42157.73
507.28	42770.95
507.46	42768.61
507.63	42944.15
507.81	42932.45
507.98	43131.39
508.16	43023.73
508.33	43077.56
508.50	43585.46
508.68	43454.39
508.85	44165.91
509.03	43470.77
509.20	44088.67
509.38	44238.47
509.55	44470.18
509.73	44926.58
509.90	44137.82
510.08	44257.19
510.25	44753.38
510.42	44500.61
510.60	44907.86
510.77	44907.86
510.95	45357.24
511.12	45052.97
511.30	45010.84
511.47	45392.35
511.64	45130.21
511.82	45558.53
511.99	45544.48
512.17	45921.31
512.34	45897.91
512.51	46073.45
512.69	46508.79
512.86	46080.47
513.04	46766.24
513.21	46930.08
513.38	46614.11
513.56	47016.68
513.73	46314.52
513.90	46735.82
514.08	46883.27
514.25	46930.08
514.43	47386.49
514.60	47253.08
514.77	47100.94
514.95	47248.39
515.12	47491.81
515.29	47246.05
515.47	47929.49
515.64	48013.75
515.81	47643.94
515.99	48346.11
516.16	48044.18
516.33	47945.87
516.51	48299.30
516.68	48107.37
516.85	48758.04
517.03	48933.58
517.20	48538.03
517.37	48463.13
517.54	48376.53
517.72	48741.66
517.89	48776.76
518.06	49265.94
518.24	49151.25
518.41	49102.10
518.58	49380.62
518.75	49188.70
518.93	49336.15
519.10	49464.88
519.27	49621.70
519.45	49729.36
519.62	49567.87
519.79	49925.97
519.96	49867.45
520.14	50433.86
520.31	49888.52
520.48	50164.70
520.65	50279.39
520.83	50478.33
521.00	50431.52
521.17	50464.29
521.34	50749.84
521.52	50658.56
521.69	50660.90
521.86	50911.33
522.03	51042.40
522.20	51306.88
522.38	51669.67
522.55	51154.75
522.72	51327.95
522.89	51262.41
523.07	51531.57
523.24	51264.75
523.41	51774.99
523.58	51449.66
523.75	51849.89
523.92	51613.49
524.10	52027.77
524.27	52088.62
524.44	51885.00
524.61	52128.41
524.78	52306.29
524.96	52055.85
525.13	52090.96
525.30	52343.74
525.47	52142.45
525.64	52348.42
525.81	52453.75
525.98	52388.21
526.16	52680.78
526.33	52367.15
526.50	52818.87
526.67	52886.74
526.84	52914.83
527.01	52823.55
527.18	52858.66
527.36	52739.29
527.53	53141.86
527.70	53235.48
527.87	53387.62
528.04	52961.64
528.21	53294.00
528.38	53165.27
528.55	53595.93
528.72	53263.57
528.89	53357.19
529.07	53228.46
529.24	53167.61
529.41	53586.57
529.58	53542.10
529.75	53415.71
529.92	53310.38
530.09	53888.49
530.26	53921.26
530.43	53998.50
530.60	53771.47
530.77	53764.45
530.94	53928.28
531.11	54131.91
531.28	54197.44
531.46	54164.68
531.63	54164.68
531.80	54007.86
531.97	54286.39
532.14	54588.31
532.31	54302.77
532.48	54295.75
532.65	54525.12
532.82	54452.56
532.99	54415.11
533.16	54391.71
533.33	54405.75
533.50	55063.44
533.67	54815.35
533.84	54766.20
534.01	54796.62
534.18	54906.63
534.35	55093.87
534.52	55114.94
534.69	55063.44
534.86	55243.66
535.03	54887.90
535.20	54955.78
535.37	55348.99
535.54	55217.92
535.71	55044.72
535.88	55407.50
536.05	55351.33
536.22	55447.29
536.38	55561.98
536.55	55447.29
536.72	55468.36
536.89	55669.64
537.06	55622.83
537.23	55711.77
537.40	55409.84
537.57	55604.11
537.74	55732.84
537.91	55828.80
538.08	56093.28
538.25	55613.47
538.42	55856.88
538.59	56030.08
538.75	55789.01
538.92	55760.92
539.09	55980.93
539.26	56184.56
539.43	55945.83
539.60	56107.32
539.77	56156.47
539.94	56250.09
540.11	56243.07
540.28	56236.05
540.44	56388.19
540.61	56378.82
540.78	56383.51
540.95	56376.48
541.12	56425.64
541.29	56435.00
541.46	56385.85
541.62	56449.04
541.79	56624.58
541.96	56198.60
542.13	56449.04
542.30	56486.49
542.47	56753.31
542.63	56692.46
542.80	56907.79
542.97	57141.84
543.14	57158.22
543.31	56945.23
543.48	57212.06
543.64	57429.72
543.81	57378.23
543.98	57258.87
544.15	57176.95
544.32	57308.02
544.48	57567.82
544.65	57319.72
544.82	57528.03
544.99	57092.69
545.16	57413.34
545.32	57315.04
545.49	57413.34
545.66	57757.40
545.83	57528.03
546.00	57684.84
546.16	57715.27
546.33	57389.94
546.50	57242.48
546.67	57865.06
546.83	57366.53
547.00	57478.88
547.17	57485.90
547.34	57738.68
547.50	57982.09
547.67	58052.31
547.84	57851.02
548.00	57944.64
548.17	58000.82
548.34	57982.09
548.51	58120.18
548.67	58096.78
548.84	58136.57
549.01	57949.32
549.18	58012.52
549.34	58082.73
549.51	58206.78
549.68	58342.53
549.84	58218.49
550.01	58401.05
550.18	58232.53
550.34	58401.05
550.51	58379.98
550.68	58379.98
550.84	58265.30
551.01	58309.77
551.18	58424.45
551.34	58365.94
551.51	58443.18
551.68	58473.60
551.84	58518.07
552.01	58401.05
552.18	58656.17
552.34	58564.88
552.51	58417.43
552.68	58480.63
552.84	58461.90
553.01	59028.31
553.18	58628.08
553.34	58864.47
553.51	58679.57
553.67	58852.77
553.84	58714.68
554.01	59014.27
554.17	58873.84
554.34	58852.77
554.51	58843.41
554.67	58848.09
554.84	59124.27
555.00	58960.44
555.17	58845.75
555.33	58941.71
555.50	58843.41
555.67	58803.62
555.83	58820.00
556.00	59114.91
556.16	59423.86
556.33	59203.85
556.50	59063.42
556.66	59217.89
556.83	58829.37
556.99	59398.12
557.16	59571.32
557.32	59505.78
557.49	59622.81
557.65	59288.11
557.82	59152.36
557.98	59264.70
558.15	59332.58
558.32	59529.19
558.48	59398.12
558.65	59409.82
558.81	59531.53
558.98	59482.37
559.14	59606.42
559.31	59561.95
559.47	59519.82
559.64	59580.68
559.80	59538.55
559.97	59625.15
560.13	59437.90
560.30	59648.55
560.46	59601.74
560.63	59632.17
560.79	59784.30
560.96	59777.28
561.12	59716.43
561.29	59690.68
561.45	59835.80
561.61	59910.69
561.78	59793.67
561.94	59611.10
562.11	59969.21
562.27	59854.52
562.44	59744.51
562.60	59922.40
562.77	59877.93
562.93	59636.85
563.10	60009.00
563.26	59796.01
563.42	60217.30
563.59	60044.10
563.75	60032.40
563.92	59969.21
564.08	59826.43
564.24	60121.34
564.41	60214.96
564.57	60142.41
564.74	59910.69
564.90	59994.95
565.07	60140.07
565.23	60130.70
565.39	60154.11
565.56	59992.61
565.72	60217.30
565.88	60282.84
566.05	60020.70
566.21	60048.78
566.38	60207.94
566.54	60184.54
566.70	60294.54
566.87	60207.94
567.03	60104.96
567.19	60346.03
567.36	60247.73
567.52	60240.71
567.68	60327.31
567.85	60212.62
568.01	60224.32
568.17	60140.07
568.34	60449.02
568.50	60346.03
568.66	60303.90
568.83	60451.36
568.99	60048.78
569.15	60374.12
569.32	60313.26
569.48	60383.48
569.64	60467.74
569.81	60196.24
569.97	60261.77
570.13	60477.10
570.30	60303.90
570.46	60439.65
570.62	60427.95
570.78	60425.61
570.95	60523.91
571.11	60631.58
571.27	60348.37
571.43	60378.80
571.60	60582.43
571.76	60350.71
571.92	60458.38
572.09	60605.83
572.25	60720.52
572.41	60383.48
572.57	60552.00
572.74	60647.96
572.90	60324.97
573.06	60643.28
573.22	60589.45
573.38	60631.58
573.55	60343.69
573.71	60804.78
573.87	60573.06
574.03	60472.42
574.20	60713.50
574.36	60619.88
574.52	60764.99
574.68	60729.88
574.84	60722.86
575.01	60669.03
575.17	60619.88
575.33	60800.10
575.49	60647.96
575.65	60654.98
575.82	60790.73
575.98	60542.64
576.14	61034.15
576.30	60549.66
576.46	60690.09
576.62	60549.66
576.79	60631.58
576.95	60617.53
577.11	60741.58
577.27	60772.01
577.43	60687.75
577.59	60594.13
577.75	60795.42
577.92	60619.88
578.08	60638.60
578.24	60835.20
578.40	60783.71
578.56	60949.89
578.72	60720.52
578.88	60893.72
579.04	60903.08
579.21	60720.52
579.37	60865.63
579.53	60947.55
579.69	60788.39
579.85	60549.66
580.01	60947.55
580.17	60676.05
580.33	60842.23
580.49	60816.48
580.65	60889.04
580.82	60786.05
580.98	60671.37
581.14	60802.44
581.30	60657.32
581.46	60903.08
581.62	60905.42
581.78	60699.45
581.94	60793.07
582.10	61020.11
582.26	60926.49
582.42	60699.45
582.58	61069.26
582.74	60863.29
582.90	60856.27
583.06	60945.21
583.22	60757.97
583.38	60851.59
583.54	60846.91
583.70	61013.08
583.86	61017.77
584.02	60891.38
584.18	60809.46
584.34	60935.85
584.50	60814.14
584.66	60879.67
584.82	60914.78
584.98	61111.39
585.14	60870.31
585.30	60837.54
585.46	60963.93
585.62	60711.16
585.78	61137.13
585.94	60788.39
586.10	61097.34
586.26	61024.79
586.42	60877.33
586.58	61055.21
586.74	61113.73
586.90	60938.19
587.06	60942.87
587.22	61097.34
587.38	60652.64
587.54	61113.73
587.70	61279.91
587.86	61003.72
588.02	61059.90
588.18	61073.94
588.34	61001.38
588.49	60905.42
