SpectraSuite Data File
++++++++++++++++++++++++++++++++++++
Date: Fri Oct 25 11:25:02 EDT 2013
User: price-jones
Dark Spectrum Present: No
Reference Spectrum Present: No
Number of Sampled Component Spectra: 1
Spectrometers: USB2+H05261
Integration Time (usec): 100000 (USB2+H05261)
Spectra Averaged: 1 (USB2+H05261)
Boxcar Smoothing: 0 (USB2+H05261)
Correct for Electrical Dark: No (USB2+H05261)
Strobe/Lamp Enabled: No (USB2+H05261)
Correct for Detector Non-linearity: No (USB2+H05261)
Correct for Stray Light: No (USB2+H05261)
Number of Pixels in Processed Spectrum: 2048
>>>>>Begin Processed Spectral Data<<<<<
365.73	212.99
365.92	212.99
366.12	212.99
366.32	208.31
366.52	112.35
366.72	238.73
366.91	110.01
367.11	161.50
367.31	128.73
367.51	105.32
367.70	79.58
367.90	196.60
368.10	149.79
368.30	156.82
368.49	95.96
368.69	170.86
368.89	135.75
369.09	166.18
369.28	210.65
369.48	163.84
369.68	149.79
369.87	203.63
370.07	182.56
370.27	191.92
370.47	407.25
370.66	617.90
370.86	645.99
371.06	704.50
371.25	718.54
371.45	685.78
371.65	695.14
371.84	692.80
372.04	692.80
372.24	688.12
372.44	699.82
372.63	737.27
372.83	676.41
373.03	772.38
373.22	683.44
373.42	800.46
373.62	725.57
373.81	840.25
374.01	777.06
374.21	837.91
374.40	826.21
374.60	814.51
374.79	763.01
374.99	805.14
375.19	821.53
375.38	828.55
375.58	856.64
375.78	786.42
375.97	814.51
376.17	912.81
376.37	898.77
376.56	903.45
376.76	898.77
376.95	898.77
377.15	837.91
377.35	889.40
377.54	884.72
377.74	896.43
377.93	917.49
378.13	971.32
378.33	943.24
378.52	968.98
378.72	889.40
378.91	1020.47
379.11	884.72
379.31	854.30
379.50	917.49
379.70	959.62
379.89	1020.47
380.09	1029.84
380.28	938.55
380.48	957.28
380.68	950.26
380.87	997.07
381.07	1055.58
381.26	1048.56
381.46	940.90
381.65	1020.47
381.85	1018.13
382.04	1039.20
382.24	971.32
382.43	1034.52
382.63	1046.22
382.83	1064.94
383.02	1064.94
383.22	1076.65
383.41	1041.54
383.61	1158.57
383.80	1123.46
384.00	1093.03
384.19	1139.84
384.39	1102.39
384.58	1137.50
384.78	1163.25
384.97	1219.42
385.17	1198.35
385.36	1088.35
385.56	1132.82
385.75	1121.12
385.95	1118.78
386.14	1200.69
386.34	1125.80
386.53	1203.04
386.72	1212.40
386.92	1294.32
387.11	1198.35
387.31	1221.76
387.50	1200.69
387.70	1214.74
387.89	1341.13
388.09	1210.06
388.28	1256.87
388.48	1233.46
388.67	1357.51
388.86	1238.14
389.06	1334.11
389.25	1322.40
389.45	1313.04
389.64	1273.25
389.84	1383.26
390.03	1392.62
390.22	1385.60
390.42	1366.87
390.61	1371.55
390.81	1399.64
391.00	1366.87
391.19	1380.92
391.39	1432.41
391.58	1474.54
391.78	1465.18
391.97	1467.52
392.16	1441.77
392.36	1521.35
392.55	1504.96
392.75	1465.18
392.94	1497.94
393.13	1481.56
393.33	1493.26
393.52	1528.37
393.71	1547.09
393.91	1556.46
394.10	1612.63
394.29	1614.97
394.49	1614.97
394.68	1687.53
394.88	1556.46
395.07	1717.95
395.26	1647.74
395.46	1640.72
395.65	1682.85
395.84	1689.87
396.04	1764.76
396.23	1629.01
396.42	1717.95
396.62	1788.17
396.81	1757.74
397.00	1703.91
397.19	1804.55
397.39	1809.23
397.58	1849.02
397.77	1830.30
397.97	1839.66
398.16	1825.62
398.35	1947.33
398.55	1813.92
398.74	1914.56
398.93	1872.43
399.12	1926.26
399.32	1926.26
399.51	2026.90
399.70	2001.16
399.90	1975.41
400.09	1987.11
400.28	2012.86
400.47	2024.56
400.67	2099.46
400.86	2118.18
401.05	1963.71
401.24	2069.03
401.44	2169.68
401.63	2120.53
401.82	2181.38
402.01	2165.00
402.21	2132.23
402.40	2115.84
402.59	2209.47
402.78	2218.83
402.97	2127.55
403.17	2244.57
403.36	2317.13
403.55	2237.55
403.74	2429.48
403.93	2267.98
404.13	2340.54
404.32	2413.09
404.51	2368.62
404.70	2359.26
404.89	2415.43
405.09	2452.88
405.28	2361.60
405.47	2502.03
405.66	2413.09
405.85	2516.08
406.05	2436.50
406.24	2541.82
406.43	2534.80
406.62	2593.31
406.81	2686.94
407.00	2595.65
407.20	2644.81
407.39	2630.76
407.58	2705.66
407.77	2768.85
407.96	2715.02
408.15	2843.75
408.34	2778.22
408.54	2864.82
408.73	2848.43
408.92	2890.56
409.11	2773.53
409.30	2930.35
409.49	2839.07
409.68	2881.20
409.87	2864.82
410.07	3026.31
410.26	2984.18
410.45	3005.25
410.64	2958.44
410.83	3075.46
411.02	3080.14
411.21	3126.96
411.40	3049.72
411.59	3222.92
411.78	3143.34
411.98	3206.53
412.17	3227.60
412.36	3330.58
412.55	3407.82
412.74	3361.01
412.93	3531.87
413.12	3426.54
413.31	3569.32
413.50	3480.38
413.69	3391.44
413.88	3641.87
414.07	3574.00
414.26	3634.85
414.45	3698.05
414.64	3543.57
414.83	3805.71
415.02	3761.24
415.22	3789.33
415.41	3906.35
415.60	4002.32
415.79	3904.01
415.98	3831.46
416.17	3995.29
416.36	3801.03
416.55	4025.72
416.74	4131.05
416.93	4091.26
417.12	4149.77
417.31	4133.39
417.50	4189.56
417.69	4245.73
417.88	4315.95
418.07	4250.41
418.26	4383.82
418.45	4297.22
418.64	4620.22
418.83	4418.93
419.02	4447.02
419.21	4533.62
419.39	4514.89
419.58	4503.19
419.77	4503.19
419.96	4580.43
420.15	4657.67
420.34	4571.07
420.53	4531.28
420.72	4650.64
420.91	4727.88
421.10	4711.50
421.29	4730.22
421.48	4704.48
421.67	4865.97
421.86	4828.53
422.05	4812.14
422.24	4795.76
422.43	4816.82
422.61	4947.89
422.80	4830.87
422.99	4936.19
423.18	4830.87
423.37	4880.02
423.56	4975.98
423.75	4910.44
423.94	4826.18
424.13	4578.09
424.32	4706.82
424.50	5053.22
424.69	5043.85
424.88	5018.11
425.07	4940.87
425.26	4905.76
425.45	5050.88
425.64	4952.57
425.83	5149.18
426.01	5137.48
426.20	5069.60
426.39	5142.16
426.58	4994.70
426.77	5195.99
426.96	5142.16
427.15	5174.92
427.33	5313.02
427.52	5139.82
427.71	5132.79
427.90	5153.86
428.09	5139.82
428.28	5334.08
428.46	5357.49
428.65	5369.19
428.84	5582.18
429.03	5469.83
429.22	5228.76
429.40	5458.13
429.59	5605.58
429.78	5242.80
429.97	5252.16
430.16	5598.56
430.34	5586.86
430.53	5605.58
430.72	5680.48
430.91	5753.04
431.10	5607.92
431.28	5764.74
431.47	5834.96
431.66	5809.21
431.85	5898.15
432.03	5872.40
432.22	6022.20
432.41	6092.41
432.60	6043.26
432.79	5970.71
432.97	6038.58
433.16	6029.22
433.35	5905.17
433.54	6090.07
433.72	6200.08
433.91	6129.86
434.10	6190.72
434.28	6106.46
434.47	6169.65
434.66	6160.29
434.85	6249.23
435.03	6380.30
435.22	6160.29
435.41	6193.06
435.59	6497.33
435.78	6509.03
435.97	6427.11
436.16	6410.73
436.34	6434.13
436.53	6324.13
436.72	6843.73
436.90	6377.96
437.09	6717.34
437.28	6314.77
437.46	6745.42
437.65	6633.08
437.84	6890.54
438.02	6576.91
438.21	6672.87
438.40	6806.28
438.58	7002.88
438.77	7166.72
438.96	7040.33
439.14	7157.36
439.33	7159.70
439.52	7133.95
439.70	7059.06
439.89	7239.28
440.08	7311.83
440.26	7384.39
440.45	7382.05
440.63	7433.54
440.82	7779.94
441.01	7506.10
441.19	7639.51
441.38	7815.05
441.57	7609.08
441.75	8025.70
441.94	7857.18
442.12	7847.82
442.31	8107.62
442.50	8191.88
442.68	7967.18
442.87	7948.46
443.05	8035.06
443.24	8215.28
443.43	8025.70
443.61	8124.00
443.80	8283.16
443.98	8091.23
444.17	7770.58
444.35	8205.92
444.54	8479.76
444.73	8299.54
444.91	8245.71
445.10	8367.42
445.28	8313.58
445.47	8283.16
445.65	8386.14
445.84	8348.69
446.02	8421.25
446.21	8409.54
446.39	8243.37
446.58	8568.70
446.77	8439.97
446.95	8285.50
447.14	8191.88
447.32	8446.99
447.51	8411.89
447.69	8456.36
447.88	8554.66
448.06	8528.91
448.25	8566.36
448.43	8617.85
448.62	8519.55
448.80	8526.57
448.99	8674.03
449.17	8681.05
449.36	8699.77
449.54	8840.20
449.73	8861.27
449.91	9001.70
450.10	8954.89
450.28	9158.52
450.46	9160.86
450.65	8950.21
450.83	9130.43
451.02	8982.98
451.20	9373.85
451.39	9217.03
451.57	9163.20
451.76	9139.79
451.94	9048.51
452.13	9275.54
452.31	9217.03
452.49	9022.77
452.68	9312.99
452.86	9418.32
453.05	9308.31
453.23	9411.29
453.42	9228.73
453.60	9303.63
453.78	9430.02
453.97	9334.06
454.15	9369.16
454.34	9521.30
454.52	9650.03
454.70	9645.35
454.89	9673.43
455.07	9586.83
455.26	9792.80
455.44	10120.48
455.62	9708.54
455.81	9785.78
455.99	9963.66
456.17	9895.78
456.36	9998.77
456.54	10157.92
456.73	10354.53
456.91	10473.90
457.09	10499.64
457.28	10534.75
457.46	10209.42
457.64	10707.95
457.83	10509.01
458.01	10448.15
458.19	10672.84
458.38	10602.63
458.56	10714.97
458.74	10520.71
458.93	10663.48
459.11	10736.04
459.29	10895.19
459.48	10824.98
459.66	10707.95
459.84	10988.82
460.03	10991.16
460.21	11019.24
460.39	10909.24
460.57	11035.63
460.76	11040.31
460.94	11232.23
461.12	11150.31
461.31	11180.74
461.49	11138.61
461.67	11091.80
461.85	11290.74
462.04	11246.27
462.22	11810.34
462.40	11552.88
462.59	11536.50
462.77	11335.21
462.95	11550.54
463.13	11700.34
463.32	11651.19
463.50	11824.39
463.68	11719.06
463.86	11808.00
464.05	11707.36
464.23	11475.65
464.41	11861.84
464.59	11604.38
464.78	12203.55
464.96	11908.65
465.14	11740.13
465.32	12215.26
465.50	12100.57
465.69	12173.13
465.87	12018.65
466.05	11939.07
466.23	12126.32
466.41	12025.67
466.60	12205.89
466.78	12217.60
466.96	12105.25
467.14	12154.40
467.32	12407.18
467.51	12519.53
467.69	12269.09
467.87	12517.18
468.05	12404.84
468.23	12318.24
468.41	12458.67
468.60	12638.89
468.78	12791.03
468.96	12507.82
469.14	12578.04
469.32	12959.55
469.50	12762.94
469.69	12912.74
469.87	13008.70
470.05	13006.36
470.23	12992.31
470.41	13165.51
470.59	13334.03
470.77	13221.69
470.95	13387.86
471.14	13530.64
471.32	13083.59
471.50	13418.29
471.68	13380.84
471.86	13469.78
472.04	13703.84
472.22	13947.25
472.40	13722.56
472.58	13930.87
472.77	14115.77
472.95	14068.96
473.13	14672.82
473.31	14157.90
473.49	14127.47
473.67	13944.91
473.85	14551.11
474.03	14682.18
474.21	14614.30
474.39	14710.27
474.57	14712.61
474.75	14618.99
474.93	15066.03
475.12	15140.93
475.30	15033.26
475.48	14979.43
475.66	15257.95
475.84	15161.99
476.02	15400.72
476.20	15405.41
476.38	15665.21
476.56	15726.06
476.74	15903.94
476.92	15875.85
477.10	15967.13
477.28	16308.85
477.46	16013.95
477.64	16355.66
477.82	16458.65
478.00	17177.19
478.18	16655.25
478.36	16898.67
478.54	17282.52
478.72	17153.79
478.90	17261.45
479.08	17514.23
479.26	17570.40
479.44	17678.07
479.62	17525.93
479.80	17860.63
479.98	18136.81
480.16	18583.85
480.34	18108.72
480.52	18902.17
480.70	18368.52
480.88	18490.23
481.06	18614.28
481.24	18623.64
481.41	19136.22
481.59	19339.85
481.77	19594.96
481.95	19545.81
482.13	19513.05
482.31	19587.94
482.49	20222.23
482.67	20292.44
482.85	20353.30
483.03	20786.30
483.21	20446.92
483.39	21235.68
483.57	21081.21
483.74	20856.51
483.92	21425.26
484.10	20992.26
484.28	21729.53
484.46	21886.35
484.64	22188.28
484.82	22150.83
485.00	22452.76
485.18	22885.76
485.35	22855.33
485.53	22778.09
485.71	22794.48
485.89	23442.81
486.07	23246.20
486.25	23398.34
486.43	23704.95
486.61	23878.15
486.78	23618.35
486.96	24201.14
487.14	24339.23
487.32	24477.32
487.50	24491.37
487.68	25184.16
487.85	24753.51
488.03	25057.78
488.21	25628.87
488.39	25694.40
488.57	25965.90
488.75	26160.17
488.92	26448.05
489.10	26551.04
489.28	26572.10
489.46	27080.00
489.64	26946.59
489.81	27835.99
489.99	27431.08
490.17	27557.47
490.35	27838.33
490.53	28088.77
490.70	28182.39
490.88	28386.02
491.06	28971.15
491.24	28790.93
491.41	29099.88
491.59	29460.32
491.77	28863.49
491.95	29453.30
492.13	29750.55
492.30	30127.38
492.48	30047.80
492.66	30363.77
492.84	30293.55
493.01	30132.06
493.19	30698.47
493.37	30852.94
493.54	31211.04
493.72	31655.75
493.90	31250.83
494.08	31456.80
494.25	32107.47
494.43	32084.06
494.61	32128.53
494.79	32470.25
494.96	32594.30
495.14	33039.00
495.32	33415.83
495.49	33244.97
495.67	33509.45
495.85	33399.44
496.02	33509.45
496.20	34085.22
496.38	33993.94
496.55	34022.03
496.73	34831.85
496.91	34567.37
497.09	34719.51
497.26	34827.17
497.44	34691.42
497.62	35016.75
497.79	35864.03
497.97	35622.95
498.14	36053.61
498.32	36194.04
498.50	35812.54
498.67	36023.19
498.85	36306.39
499.03	36587.25
499.20	36423.42
499.38	36861.10
499.56	36935.99
499.73	36933.65
499.91	37460.27
500.08	37556.24
500.26	37373.67
500.44	37729.44
500.61	37956.47
500.79	37624.11
500.97	37862.85
501.14	38440.96
501.32	38438.62
501.49	38246.69
501.67	38705.44
501.84	38857.57
502.02	38918.43
502.20	38948.85
502.37	39091.63
502.55	39264.83
502.72	39365.47
502.90	39318.66
503.07	39213.34
503.25	39807.83
503.43	39814.85
503.60	40086.36
503.78	40306.37
503.95	40107.42
504.13	40348.50
504.30	40868.09
504.48	40507.65
504.65	40629.36
504.83	40786.18
505.01	41467.27
505.18	41354.93
505.36	41703.67
505.53	41544.51
505.71	41591.32
505.88	41867.50
506.06	41209.81
506.23	42211.56
506.41	41738.77
506.58	42185.82
506.76	42246.67
506.93	42391.78
507.11	42171.77
507.28	43063.52
507.46	42679.67
507.63	42349.65
507.81	43299.91
507.98	42848.19
508.16	42883.30
508.33	43538.65
508.50	43519.92
508.68	43592.48
508.85	43838.23
509.03	43906.11
509.20	44121.44
509.38	44002.07
509.55	44570.82
509.73	44315.70
509.90	44762.75
510.08	44694.87
510.25	44456.14
510.42	44643.38
510.60	45146.59
510.77	44863.39
510.95	44898.50
511.12	44935.95
511.30	45275.32
511.47	45298.73
511.64	45188.72
511.82	45815.99
511.99	45715.34
512.17	45827.69
512.34	45633.42
512.51	46419.84
512.69	46527.51
512.86	45883.86
513.04	47051.79
513.21	46806.03
513.38	46719.43
513.56	46962.85
513.73	46621.13
513.90	46745.18
514.08	46845.82
514.25	47278.82
514.43	47487.13
514.60	47856.93
514.77	47562.03
514.95	47585.43
515.12	47332.65
515.29	47187.54
515.47	47695.44
515.64	48004.39
515.81	47934.17
515.99	48388.24
516.16	48402.28
516.33	48477.18
516.51	48758.04
516.68	48498.24
516.85	48659.74
517.03	48645.69
517.20	48758.04
517.37	48978.05
517.54	48846.98
517.72	48905.49
517.89	49109.12
518.06	49474.24
518.24	49322.11
518.41	49275.30
518.58	49628.72
518.75	49207.42
518.93	49385.30
519.10	49558.50
519.27	49736.38
519.45	49478.92
519.62	50052.36
519.79	50042.99
519.96	50293.43
520.14	49951.71
520.31	49869.79
520.48	50263.00
520.65	50361.31
520.83	50546.21
521.00	50422.16
521.17	50574.30
521.34	50768.56
521.52	50958.14
521.69	50511.10
521.86	50827.07
522.03	51033.04
522.20	51058.79
522.38	51278.80
522.55	51334.97
522.72	51409.87
522.89	51075.17
523.07	51444.98
523.24	51601.79
523.41	51253.05
523.58	51529.23
523.75	51707.12
523.92	51636.90
524.10	52076.92
524.27	52023.09
524.44	51899.04
524.61	51721.16
524.78	52065.22
524.96	52385.87
525.13	52402.25
525.30	52346.08
525.47	52589.50
525.64	52128.41
525.81	52622.26
525.98	52643.33
526.16	52842.27
526.33	52643.33
526.50	52725.25
526.67	52823.55
526.84	52704.18
527.01	52861.00
527.18	52846.96
527.36	53015.47
527.53	52933.56
527.70	52907.81
527.87	53366.55
528.04	53244.85
528.21	53427.41
528.38	53221.44
528.55	53621.67
528.72	53141.86
528.89	53420.39
529.07	53310.38
529.24	53132.50
529.41	53734.02
529.58	53748.06
529.75	53528.05
529.92	53696.57
530.09	53626.35
530.26	53837.00
530.43	54064.03
530.60	53635.72
530.77	53741.04
530.94	53848.71
531.11	53961.05
531.28	53914.24
531.46	54457.24
531.63	53977.43
531.80	54192.76
531.97	54328.52
532.14	54412.77
532.31	54576.61
532.48	54532.14
532.65	54644.49
532.82	54342.56
532.99	54695.98
533.16	54691.30
533.33	54726.41
533.50	54927.69
533.67	54600.02
533.84	54656.19
534.01	54658.53
534.18	54918.33
534.35	55131.32
534.52	54885.56
534.69	55283.45
534.86	55164.09
535.03	55037.70
535.20	54915.99
535.37	55238.98
535.54	55501.12
535.71	55229.62
535.88	55632.19
536.05	55440.27
536.22	55458.99
536.38	55664.96
536.55	55683.69
536.72	55561.98
536.89	55304.52
537.06	55398.14
537.23	55894.33
537.40	55615.81
537.57	55590.06
537.74	55819.44
537.91	55910.72
538.08	55943.48
538.25	55618.15
538.42	55992.64
538.59	56083.92
538.75	55840.50
538.92	56051.15
539.09	56170.52
539.26	55913.06
539.43	56189.24
539.60	56217.33
539.77	56388.19
539.94	56395.21
540.11	56416.27
540.28	56282.86
540.44	56051.15
540.61	56299.25
540.78	56224.35
540.95	56573.09
541.12	56437.34
541.29	56399.89
541.46	56278.18
541.62	56605.86
541.79	56559.05
541.96	56147.11
542.13	56369.46
542.30	56786.08
542.47	56769.69
542.63	56933.53
542.80	56807.14
542.97	57102.05
543.14	57326.74
543.31	56968.64
543.48	57411.00
543.64	57403.98
543.81	57226.10
543.98	57415.68
544.15	57153.54
544.32	57471.85
544.48	57623.99
544.65	57336.10
544.82	57352.49
544.99	57190.99
545.16	57556.11
545.32	57460.15
545.49	57614.63
545.66	57691.86
545.83	57293.97
546.00	57556.11
546.16	57621.65
546.33	57544.41
546.50	57581.86
546.67	57888.47
546.83	57406.32
547.00	57745.70
547.17	57623.99
547.34	57977.41
547.50	57989.11
547.67	58106.14
547.84	57888.47
548.00	58131.89
548.17	58089.76
548.34	58176.36
548.51	57930.60
548.67	58066.35
548.84	58108.48
549.01	58042.95
549.18	58300.40
549.34	58169.33
549.51	58387.00
549.68	58461.90
549.84	58298.06
550.01	58403.39
550.18	58164.65
550.34	58424.45
550.51	58405.73
550.68	58143.59
550.84	58049.97
551.01	58592.97
551.18	58309.77
551.34	58464.24
551.51	58590.63
551.68	58478.28
551.84	58349.56
552.01	58492.33
552.18	58660.85
552.34	58401.05
552.51	58520.41
552.68	58398.71
552.84	58684.25
553.01	58773.19
553.18	58810.64
553.34	58880.86
553.51	58777.87
553.67	58712.34
553.84	59084.48
554.01	58810.64
554.17	59044.69
554.34	58953.41
554.51	58768.51
554.67	58986.18
554.84	58969.80
555.00	59117.25
555.17	59051.72
555.33	59100.87
555.50	58869.15
555.67	58946.39
555.83	58983.84
556.00	59157.04
556.16	59475.35
556.33	59327.90
556.50	59285.77
556.66	59346.62
556.83	59044.69
556.99	59501.10
557.16	59489.40
557.32	59545.57
557.49	59627.49
557.65	59323.22
557.82	59435.56
557.98	59245.98
558.15	59351.30
558.32	59491.74
558.48	59161.72
558.65	59524.50
558.81	59295.13
558.98	59674.30
559.14	59519.82
559.31	59484.72
559.47	59491.74
559.64	59590.04
559.80	59800.69
559.97	59601.74
560.13	59568.97
560.30	59557.27
560.46	59700.04
560.63	59690.68
560.79	59756.22
560.96	59910.69
561.12	59784.30
561.29	59784.30
561.45	59629.83
561.61	59880.27
561.78	59821.75
561.94	59683.66
562.11	59725.79
562.27	59828.77
562.44	59964.52
562.60	60126.02
562.77	59751.54
562.93	59901.33
563.10	60023.04
563.26	59826.43
563.42	60037.08
563.59	59803.03
563.75	60144.75
563.92	60123.68
564.08	59835.80
564.24	60130.70
564.41	60177.51
564.57	60074.53
564.74	60196.24
564.90	60121.34
565.07	60172.83
565.23	60142.41
565.39	60177.51
565.56	60095.60
565.72	60346.03
565.88	60147.09
566.05	60123.68
566.21	60177.51
566.38	60233.69
566.54	60280.50
566.70	60327.31
566.87	60266.45
567.03	60027.72
567.19	60416.25
567.36	60395.18
567.52	60074.53
567.68	60484.12
567.85	60177.51
568.01	60280.50
568.17	60093.25
568.34	60285.18
568.50	60161.13
568.66	60184.54
568.83	60378.80
568.99	60364.76
569.15	60268.79
569.32	60214.96
569.48	60329.65
569.64	60470.08
569.81	60343.69
569.97	60456.04
570.13	60458.38
570.30	60420.93
570.46	60467.74
570.62	60575.40
570.78	60481.78
570.95	60603.49
571.11	60687.75
571.27	60505.19
571.43	60397.52
571.60	60584.77
571.76	60608.17
571.92	60640.94
572.09	60603.49
572.25	60636.26
572.41	60238.37
572.57	60470.08
572.74	60701.79
572.90	60458.38
573.06	60598.81
573.22	60622.22
573.38	60505.19
573.55	60608.17
573.71	60842.23
573.87	60519.23
574.03	60336.67
574.20	60570.72
574.36	60589.45
574.52	60790.73
574.68	60610.51
574.84	60767.33
575.01	60643.28
575.17	60734.56
575.33	60486.46
575.49	60488.80
575.65	60465.40
575.82	60729.88
575.98	60664.35
576.14	60889.04
576.30	60783.71
576.46	60662.00
576.62	60690.09
576.79	60624.56
576.95	60727.54
577.11	60734.56
577.27	60853.93
577.43	60985.00
577.59	60690.09
577.75	60757.97
577.92	60654.98
578.08	60856.27
578.24	60865.63
578.40	60921.80
578.56	60975.64
578.72	60900.74
578.88	60963.93
579.04	60842.23
579.21	60860.95
579.37	61024.79
579.53	61034.15
579.69	60729.88
579.85	60804.78
580.01	60839.89
580.17	60622.22
580.33	61095.00
580.49	61059.90
580.65	60952.23
580.82	60638.60
580.98	60839.89
581.14	60867.97
581.30	60856.27
581.46	60903.08
581.62	60846.91
581.78	60722.86
581.94	60886.70
582.10	60891.38
582.26	60893.72
582.42	60818.82
582.58	60804.78
582.74	60952.23
582.90	61059.90
583.06	61132.45
583.22	60772.01
583.38	60800.10
583.54	60954.57
583.70	61031.81
583.86	60767.33
584.02	60884.36
584.18	61254.16
584.34	61027.13
584.50	60867.97
584.66	60921.80
584.82	60685.41
584.98	61031.81
585.14	60917.12
585.30	60931.17
585.46	60966.27
585.62	61106.71
585.78	61212.03
585.94	60605.83
586.10	60928.83
586.26	61066.92
586.42	61024.79
586.58	61193.31
586.74	61024.79
586.90	60882.02
587.06	60905.42
587.22	61190.97
587.38	60989.68
587.54	60760.31
587.70	61343.10
587.86	61003.72
588.02	60987.34
588.18	61158.20
588.34	60886.70
588.49	61190.97
