SpectraSuite Data File
++++++++++++++++++++++++++++++++++++
Date: Fri Oct 25 10:47:33 EDT 2013
User: price-jones
Dark Spectrum Present: No
Reference Spectrum Present: No
Number of Sampled Component Spectra: 1
Spectrometers: USB2+H05261
Integration Time (usec): 100000 (USB2+H05261)
Spectra Averaged: 1 (USB2+H05261)
Boxcar Smoothing: 0 (USB2+H05261)
Correct for Electrical Dark: No (USB2+H05261)
Strobe/Lamp Enabled: No (USB2+H05261)
Correct for Detector Non-linearity: No (USB2+H05261)
Correct for Stray Light: No (USB2+H05261)
Number of Pixels in Processed Spectrum: 2048
>>>>>Begin Processed Spectral Data<<<<<
365.73	98.30
365.92	98.30
366.12	98.30
366.32	42.13
366.52	67.88
366.72	46.81
366.91	49.15
367.11	0.00
367.31	21.06
367.51	14.04
367.70	35.11
367.90	60.85
368.10	0.00
368.30	39.79
368.49	0.00
368.69	58.51
368.89	63.19
369.09	84.26
369.28	18.72
369.48	42.13
369.68	81.92
369.87	77.24
370.07	102.98
370.27	147.45
370.47	208.31
370.66	318.31
370.86	395.55
371.06	404.91
371.25	411.93
371.45	341.72
371.65	479.81
371.84	479.81
372.04	444.70
372.24	456.40
372.44	463.43
372.63	468.11
372.83	510.24
373.03	493.85
373.22	547.69
373.42	507.90
373.62	505.56
373.81	477.47
374.01	575.77
374.21	594.50
374.40	472.79
374.60	550.03
374.79	491.51
374.99	535.98
375.19	571.09
375.38	545.34
375.58	521.94
375.78	554.71
375.97	601.52
376.17	594.50
376.37	608.54
376.56	566.41
376.76	538.32
376.95	681.10
377.15	589.82
377.35	603.86
377.54	615.56
377.74	596.84
377.93	608.54
378.13	601.52
378.33	589.82
378.52	524.28
378.72	678.76
378.91	730.25
379.11	547.69
379.31	631.94
379.50	650.67
379.70	660.03
379.89	695.14
380.09	678.76
380.28	662.37
380.48	599.18
380.68	657.69
380.87	624.92
381.07	685.78
381.26	650.67
381.46	711.52
381.65	681.10
381.85	699.82
382.04	683.44
382.24	718.54
382.43	620.24
382.63	655.35
382.83	734.93
383.02	753.65
383.22	763.01
383.41	636.63
383.61	678.76
383.80	718.54
384.00	753.65
384.19	795.78
384.39	737.27
384.58	699.82
384.78	760.67
384.97	709.18
385.17	664.71
385.36	706.84
385.56	709.18
385.75	770.04
385.95	772.38
386.14	840.25
386.34	777.06
386.53	713.86
386.72	809.83
386.92	896.43
387.11	882.38
387.31	901.11
387.50	875.36
387.70	807.48
387.89	734.93
388.09	868.34
388.28	741.95
388.48	823.87
388.67	842.59
388.86	868.34
389.06	847.27
389.25	821.53
389.45	938.55
389.64	807.48
389.84	910.47
390.03	891.74
390.22	814.51
390.42	807.48
390.61	868.34
390.81	950.26
391.00	954.94
391.19	933.87
391.39	884.72
391.58	980.68
391.78	901.11
391.97	940.90
392.16	999.41
392.36	947.92
392.55	954.94
392.75	966.64
392.94	908.13
393.13	985.37
393.33	952.60
393.52	894.08
393.71	1046.22
393.91	966.64
394.10	957.28
394.29	1076.65
394.49	1057.92
394.68	983.02
394.88	1121.12
395.07	1177.29
395.26	1093.03
395.46	1062.60
395.65	1151.54
395.84	1064.94
396.04	1151.54
396.23	1055.58
396.42	1064.94
396.62	1090.69
396.81	1114.10
397.00	1029.84
397.19	1179.63
397.39	1142.18
397.58	1132.82
397.77	1280.27
397.97	1221.76
398.16	1252.19
398.35	1291.98
398.55	1191.33
398.74	1371.55
398.93	1301.34
399.12	1313.04
399.32	1142.18
399.51	1210.06
399.70	1306.02
399.90	1376.24
400.09	1418.36
400.28	1371.55
400.47	1413.68
400.67	1430.07
400.86	1401.98
401.05	1411.34
401.24	1385.60
401.44	1458.15
401.63	1425.39
401.82	1392.62
402.01	1413.68
402.21	1453.47
402.40	1472.20
402.59	1486.24
402.78	1441.77
402.97	1460.49
403.17	1558.80
403.36	1591.56
403.55	1547.09
403.74	1551.78
403.93	1551.78
404.13	1638.38
404.32	1614.97
404.51	1504.96
404.70	1678.16
404.89	1687.53
405.09	1694.55
405.28	1657.10
405.47	1607.95
405.66	1657.10
405.85	1652.42
406.05	1755.40
406.24	1701.57
406.43	1650.08
406.62	1809.23
406.81	1860.73
407.00	1792.85
407.20	1746.04
407.39	1830.30
407.58	1741.36
407.77	1811.57
407.96	1816.26
408.15	1930.94
408.34	1891.15
408.54	1900.52
408.73	1870.09
408.92	1968.39
409.11	1902.86
409.30	2026.90
409.49	1956.69
409.68	1944.99
409.87	2017.54
410.07	2017.54
410.26	2064.35
410.45	2083.08
410.64	1982.43
410.83	2001.16
411.02	2071.37
411.21	2195.42
411.40	2221.17
411.59	2293.72
411.78	2153.29
411.98	2190.74
412.17	2214.15
412.36	2260.96
412.55	2258.62
412.74	2256.28
412.93	2375.64
413.12	2368.62
413.31	2354.58
413.50	2401.39
413.69	2352.24
413.88	2434.16
414.07	2422.45
414.26	2490.33
414.45	2567.57
414.64	2520.76
414.83	2553.52
415.02	2609.70
415.22	2672.89
415.41	2712.68
415.60	2637.78
415.79	2661.19
415.98	2818.00
416.17	2771.19
416.36	2764.17
416.55	2745.45
416.74	2827.37
416.93	2799.28
417.12	2764.17
417.31	2808.64
417.50	2906.95
417.69	2970.14
417.88	3002.91
418.07	2986.52
418.26	3007.59
418.45	3000.57
418.64	3054.40
418.83	3112.91
419.02	2988.86
419.21	3056.74
419.39	3052.06
419.58	3059.08
419.77	3068.44
419.96	3108.23
420.15	3133.98
420.34	3091.85
420.53	3213.56
420.72	3150.36
420.91	3236.96
421.10	3286.11
421.29	3382.07
421.48	3243.98
421.67	3372.71
421.86	3332.92
422.05	3375.05
422.24	3283.77
422.43	3358.67
422.61	3405.48
422.80	3513.14
422.99	3386.76
423.18	3227.60
423.37	3473.36
423.56	3337.60
423.75	3543.57
423.94	3421.86
424.13	3178.45
424.32	3262.71
424.50	3438.25
424.69	3370.37
424.88	3522.51
425.07	3379.73
425.26	3494.42
425.45	3403.14
425.64	3485.06
425.83	3503.78
426.01	3574.00
426.20	3482.72
426.39	3459.31
426.58	3513.14
426.77	3370.37
426.96	3548.25
427.15	3609.11
427.33	3454.63
427.52	3503.78
427.71	3632.51
427.90	3637.19
428.09	3639.53
428.28	3634.85
428.46	3714.43
428.65	3590.38
428.84	3641.87
429.03	3796.35
429.22	3611.45
429.40	3611.45
429.59	3786.99
429.78	3655.92
429.97	3524.85
430.16	3676.98
430.34	3712.09
430.53	3815.07
430.72	3707.41
430.91	3932.10
431.10	3918.06
431.28	3880.61
431.47	4042.11
431.66	3899.33
431.85	3775.28
432.03	4044.45
432.22	4170.83
432.41	4152.11
432.60	4124.02
432.79	4133.39
432.97	4170.83
433.16	4238.71
433.35	4081.89
433.54	3983.59
433.72	4248.07
433.91	4194.24
434.10	4201.26
434.28	4128.70
434.47	4280.84
434.66	4339.35
434.85	4418.93
435.03	4236.37
435.22	4252.75
435.41	4393.19
435.59	4329.99
435.78	4355.74
435.97	4423.61
436.16	4547.66
436.34	4440.00
436.53	4524.26
436.72	4458.72
436.90	4454.04
437.09	4465.74
437.28	4627.24
437.46	4519.57
437.65	4627.24
437.84	4472.76
438.02	4465.74
438.21	4685.75
438.40	4479.79
438.58	4718.52
438.77	4765.33
438.96	4800.44
439.14	4877.68
439.33	4983.00
439.52	4741.93
439.70	4943.21
439.89	4968.96
440.08	4978.32
440.26	5046.20
440.45	4975.98
440.63	5053.22
440.82	5334.08
441.01	5048.54
441.19	5217.05
441.38	5240.46
441.57	5291.95
441.75	5245.14
441.94	5364.51
442.12	5537.71
442.31	5526.00
442.50	5486.22
442.68	5458.13
442.87	5462.81
443.05	5572.82
443.24	5671.12
443.43	5636.01
443.61	5755.38
443.80	5664.10
443.98	5329.40
444.17	5352.81
444.35	5666.44
444.54	5633.67
444.73	5654.73
444.91	5593.88
445.10	5694.52
445.28	5650.05
445.47	5537.71
445.65	5692.18
445.84	5809.21
446.02	5764.74
446.21	5760.06
446.39	5818.57
446.58	5755.38
446.77	5687.50
446.95	5664.10
447.14	5701.54
447.32	5905.17
447.51	5675.80
447.69	5804.53
447.88	5633.67
448.06	5804.53
448.25	5881.77
448.43	5844.32
448.62	5790.49
448.80	5771.76
448.99	5856.02
449.17	5926.24
449.36	5977.73
449.54	6050.28
449.73	6104.12
449.91	6073.69
450.10	6361.58
450.28	6366.26
450.46	6282.00
450.65	6242.21
450.83	6256.25
451.02	6141.57
451.20	6324.13
451.39	6298.38
451.57	6186.04
451.76	6164.97
451.94	6087.73
452.13	6406.05
452.31	6188.38
452.49	6193.06
452.68	6354.55
452.86	6207.10
453.05	6487.96
453.23	6445.84
453.42	6324.13
453.60	6417.75
453.78	6401.37
453.97	6342.85
454.15	6321.79
454.34	6487.96
454.52	6609.67
454.70	6494.99
454.89	6768.83
455.07	6548.82
455.26	6408.39
455.44	6724.36
455.62	6820.32
455.81	6738.40
455.99	6918.62
456.17	6799.26
456.36	6796.92
456.54	7023.95
456.73	6906.92
456.91	7112.89
457.09	7260.34
457.28	7274.38
457.46	6970.12
457.64	7178.42
457.83	6986.50
458.01	7112.89
458.19	7206.51
458.38	7040.33
458.56	7382.05
458.74	7246.30
458.93	7080.12
459.11	7302.47
459.29	7349.28
459.48	7386.73
459.66	7351.62
459.84	7356.30
460.03	7295.45
460.21	7281.41
460.39	7368.01
460.57	7496.74
460.76	7445.24
460.94	7592.70
461.12	7606.74
461.31	7557.59
461.49	7473.33
461.67	7578.65
461.85	7719.09
462.04	7702.70
462.22	8044.42
462.40	7913.35
462.59	7602.06
462.77	7878.24
462.95	7985.91
463.13	7749.51
463.32	7908.67
463.50	7812.71
463.68	7836.11
463.86	7744.83
464.05	7868.88
464.23	7817.39
464.41	7981.23
464.59	7740.15
464.78	8166.13
464.96	7999.95
465.14	7889.95
465.32	8109.96
465.50	8182.51
465.69	7990.59
465.87	8116.98
466.05	8252.73
466.23	8114.64
466.41	8365.07
466.60	8273.79
466.78	8039.74
466.96	7936.76
467.14	8091.23
467.32	8336.99
467.51	8435.29
467.69	8135.70
467.87	8161.45
468.05	8383.80
468.23	8210.60
468.41	8299.54
468.60	8461.04
468.78	8379.12
468.96	8348.69
469.14	8393.16
469.32	8678.71
469.50	8454.02
469.69	8603.81
469.87	8711.47
470.05	8769.99
470.23	8762.97
470.41	8559.34
470.59	8912.76
470.77	8648.28
470.95	8917.44
471.14	8823.82
471.32	8816.80
471.50	9043.83
471.68	8952.55
471.86	8896.38
472.04	9015.74
472.22	9373.85
472.40	9085.96
472.58	9146.81
472.77	9331.72
472.95	9528.32
473.13	9591.52
473.31	9233.41
473.49	9263.84
473.67	9401.93
473.85	9336.40
474.03	9418.32
474.21	9633.64
474.39	9872.38
474.57	9970.68
474.75	9687.48
474.93	9937.91
475.12	9935.57
475.30	9895.78
475.48	9738.97
475.66	10033.88
475.84	9968.34
476.02	10066.64
476.20	10244.52
476.38	10356.87
476.56	10590.92
476.74	10235.16
476.92	10225.80
477.10	10520.71
477.28	10462.19
477.46	10487.94
477.64	10794.55
477.82	11129.25
478.00	11311.81
478.18	10881.15
478.36	11115.20
478.54	11009.88
478.72	11211.17
478.90	11365.64
479.08	11641.82
479.26	11391.39
479.44	11667.57
479.62	11667.57
479.80	11772.89
479.98	11782.26
480.16	12241.00
480.34	12116.95
480.52	12241.00
480.70	12250.36
480.88	12046.74
481.06	12346.33
481.24	12255.04
481.41	12528.89
481.59	12634.21
481.77	12835.50
481.95	12521.87
482.13	13036.78
482.31	12952.52
482.49	13212.32
482.67	13123.38
482.85	13275.52
483.03	13247.43
483.21	13469.78
483.39	13771.71
483.57	13530.64
483.74	13980.02
483.92	13961.30
484.10	13699.16
484.28	14118.11
484.46	14139.18
484.64	14487.92
484.82	14090.02
485.00	14176.62
485.18	14602.60
485.35	14785.16
485.53	14523.02
485.71	14771.12
485.89	15007.52
486.07	14736.01
486.25	14979.43
486.43	15138.58
486.61	15264.97
486.78	15569.24
486.96	15782.23
487.14	15782.23
487.32	15800.96
487.50	16107.57
487.68	15971.82
487.85	16418.86
488.03	16575.67
488.21	16517.16
488.39	16327.58
488.57	16980.59
488.75	16959.52
488.92	17195.92
489.10	17209.96
489.28	17130.38
489.46	17715.51
489.64	17385.50
489.81	17806.80
489.99	18120.43
490.17	18106.38
490.35	18108.72
490.53	18342.78
490.70	18314.69
490.88	18279.58
491.06	18651.73
491.24	18497.25
491.41	18796.84
491.59	18874.08
491.77	18726.63
491.95	18934.93
492.13	19208.78
492.30	19379.64
492.48	19442.83
492.66	19447.51
492.84	19438.15
493.01	19730.72
493.19	19796.25
493.37	20072.43
493.54	20074.77
493.72	20559.27
493.90	20379.04
494.08	20430.54
494.25	20397.77
494.43	20788.64
494.61	20575.65
494.79	20884.60
494.96	21132.70
495.14	21242.70
495.32	21046.10
495.49	21113.97
495.67	21507.18
495.85	21467.39
496.02	21886.35
496.20	21689.74
496.38	21766.98
496.55	22008.06
496.73	22457.44
496.91	22204.66
497.09	22314.67
497.26	22539.36
497.44	22368.50
497.62	22707.88
497.79	22991.08
497.97	22799.16
498.14	22941.93
498.32	23166.62
498.50	23117.47
498.67	23084.70
498.85	23302.37
499.03	23674.52
499.20	23557.49
499.38	23700.26
499.56	23634.73
499.73	23765.80
499.91	23543.45
500.08	23871.12
500.26	23583.24
500.44	23974.11
500.61	23941.34
500.79	23978.79
500.97	24009.22
501.14	24603.71
501.32	24865.85
501.49	24709.04
501.67	24680.95
501.84	24680.95
502.02	24933.73
502.20	24999.26
502.37	24802.66
502.55	25043.73
502.72	25263.74
502.90	25287.15
503.07	25479.07
503.25	25579.71
503.43	25221.61
503.60	25589.08
503.78	25582.06
503.95	25827.81
504.13	25619.50
504.30	25633.55
504.48	26284.22
504.65	25912.07
504.83	26366.13
505.01	26429.33
505.18	26279.54
505.36	26532.31
505.53	26506.57
505.71	26876.37
505.88	26623.59
506.06	26607.21
506.23	26810.84
506.41	26602.53
506.58	26745.30
506.76	27407.67
506.93	27332.78
507.11	27398.31
507.28	27480.23
507.46	27433.42
507.63	27494.27
507.81	27901.53
507.98	27297.67
508.16	27763.43
508.33	28067.70
508.50	27894.50
508.68	27845.35
508.85	28367.29
509.03	28121.54
509.20	27946.00
509.38	28950.09
509.55	28332.18
509.73	28500.70
509.90	28514.75
510.08	28128.56
510.25	28657.52
510.42	28879.87
510.60	29202.86
510.77	29118.60
510.95	29034.35
511.12	29287.12
511.30	29394.79
511.47	29401.81
511.64	28938.38
511.82	29914.39
511.99	29163.08
512.17	29654.59
512.34	29834.81
512.51	29624.16
512.69	29890.98
512.86	29701.40
513.04	30122.69
513.21	30059.50
513.38	30171.85
513.56	29832.47
513.73	29748.21
513.90	30403.56
514.08	30436.33
514.25	30658.68
514.43	30249.08
514.60	30426.96
514.77	30665.70
514.95	30672.72
515.12	30555.69
515.29	30668.04
515.47	30646.97
515.64	31065.93
515.81	31047.21
515.99	30878.69
516.16	31281.26
516.33	31063.59
516.51	31466.16
516.68	31206.36
516.85	30953.58
517.03	31686.17
517.20	31274.24
517.37	31564.46
517.54	31557.44
517.72	31583.19
517.89	31606.59
518.06	31302.32
518.24	31814.90
518.41	31601.91
518.58	31522.34
518.75	31817.24
518.93	32107.47
519.10	31995.12
519.27	32367.27
519.45	32236.20
519.62	32374.29
519.79	32411.74
519.96	32243.22
520.14	32917.29
520.31	32477.27
520.48	32601.32
520.65	32566.21
520.83	32961.76
521.00	32964.10
521.17	32811.97
521.34	33256.67
521.52	32992.19
521.69	32954.74
521.86	33486.04
522.03	33338.59
522.20	33516.47
522.38	33799.68
522.55	33369.02
522.72	33888.62
522.89	33319.87
523.07	33530.51
523.24	33638.18
523.41	33916.70
523.58	33553.92
523.75	33867.55
523.92	33886.28
524.10	34094.58
524.27	34113.31
524.44	34010.32
524.61	34497.16
524.78	34464.39
524.96	34508.86
525.13	34443.32
525.30	34885.68
525.47	34698.44
525.64	34721.85
525.81	34574.39
525.98	34532.26
526.16	34700.78
526.33	34529.92
526.50	35295.28
526.67	34822.49
526.84	34899.73
527.01	35007.39
527.18	34824.83
527.36	35257.83
527.53	35332.73
527.70	35576.14
527.87	35627.63
528.04	35379.54
528.21	35292.94
528.38	35398.26
528.55	35770.41
528.72	35845.30
528.89	35878.07
529.07	35768.07
529.24	35983.40
529.41	35903.82
529.58	35629.98
529.75	35730.62
529.92	35875.73
530.09	35714.23
530.26	35999.78
530.43	36011.48
530.60	35775.09
530.77	36095.74
530.94	36538.10
531.11	36643.43
531.28	36418.74
531.46	36528.74
531.63	36580.23
531.80	36252.56
531.97	36278.30
532.14	36659.81
532.31	36608.32
532.48	36383.63
532.65	36821.31
532.82	36926.63
532.99	36940.68
533.16	36737.05
533.33	36952.38
533.50	37268.35
533.67	37305.80
533.84	36727.69
534.01	37202.82
534.18	37064.72
534.35	37481.34
534.52	36947.70
534.69	37408.78
534.86	37191.11
535.03	37067.06
535.20	37385.38
535.37	37600.71
535.54	37816.04
535.71	38007.96
535.88	37338.57
536.05	37872.21
536.22	37806.67
536.38	38309.89
536.55	37855.82
536.72	38005.62
536.89	38005.62
537.06	38103.92
537.23	38253.72
537.40	37902.64
537.57	38169.46
537.74	38216.27
537.91	38632.88
538.08	38333.29
538.25	38087.54
538.42	38174.14
538.59	38445.64
538.75	37921.36
538.92	38349.68
539.09	38354.36
539.26	38691.40
539.43	38937.15
539.60	38843.53
539.77	38230.31
539.94	38799.06
540.11	38604.80
540.28	38698.42
540.44	38600.12
540.61	38532.24
540.78	38932.47
540.95	38438.62
541.12	38527.56
541.29	39215.68
541.46	38422.23
541.62	38967.58
541.79	39161.84
541.96	38841.19
542.13	39119.71
542.30	39665.06
542.47	39419.30
542.63	38979.28
542.80	39578.46
542.97	39793.79
543.14	40037.20
543.31	40016.14
543.48	39964.65
543.64	40137.85
543.81	39945.92
543.98	40250.19
544.15	40149.55
544.32	40037.20
544.48	40376.58
544.65	40297.00
544.82	40500.63
544.99	39388.88
545.16	40065.29
545.32	40299.34
545.49	40191.68
545.66	40383.60
545.83	40261.90
546.00	40636.38
546.16	40175.30
546.33	40528.72
546.50	39997.41
546.67	40430.41
546.83	40212.74
547.00	40502.97
547.17	40320.41
547.34	40863.41
547.50	40641.06
547.67	41373.65
547.84	40886.82
548.00	40809.58
548.17	40982.78
548.34	41013.21
548.51	41038.95
548.67	40856.39
548.84	40900.86
549.01	40631.70
549.18	40950.01
549.34	41200.45
549.51	41532.81
549.68	41214.49
549.84	41296.41
550.01	41649.83
550.18	40891.50
550.34	41399.40
550.51	41158.32
550.68	41027.25
550.84	40863.41
551.01	41460.25
551.18	41254.28
551.34	41394.71
551.51	41652.17
551.68	41406.42
551.84	41455.57
552.01	41333.86
552.18	41801.97
552.34	41383.01
552.51	41584.30
552.68	41296.41
552.84	41464.93
553.01	42143.69
553.18	41944.74
553.34	41780.90
553.51	41315.14
553.67	41965.81
553.84	42127.30
554.01	41921.34
554.17	42038.36
554.34	42506.47
554.51	42134.32
554.67	42323.91
554.84	41949.42
555.00	41918.99
555.17	41654.51
555.33	42529.87
555.50	41879.21
555.67	42260.71
555.83	42330.93
556.00	42316.89
556.16	42080.49
556.33	42649.24
556.50	42333.27
556.66	42637.54
556.83	42134.32
556.99	42511.15
557.16	42614.13
557.32	42529.87
557.49	42792.01
557.65	42597.75
557.82	42363.70
557.98	42487.74
558.15	42604.77
558.32	42770.95
558.48	42679.67
558.65	42621.16
558.81	42190.50
558.98	42827.12
559.14	42557.96
559.31	42927.77
559.47	42728.82
559.64	43264.80
559.80	43220.33
559.97	43103.31
560.13	42660.94
560.30	42539.24
560.46	42993.30
560.63	43037.77
560.79	42972.24
560.96	43248.42
561.12	42864.57
561.29	42951.17
561.45	43232.04
561.61	42988.62
561.78	43288.21
561.94	43009.68
562.11	43445.02
562.27	43227.35
562.44	43229.69
562.60	43138.41
562.77	43360.76
562.93	43236.72
563.10	43276.51
563.26	42595.41
563.42	43236.72
563.59	43316.29
563.75	43051.81
563.92	43695.46
564.08	43019.05
564.24	43283.53
564.41	43459.07
564.57	43264.80
564.74	43393.53
564.90	43601.84
565.07	43646.31
565.23	43103.31
565.39	43599.50
565.56	43693.12
565.72	43262.46
565.88	43463.75
566.05	43215.65
566.21	43545.67
566.38	43622.90
566.54	43316.29
566.70	43639.29
566.87	43948.24
567.03	43807.81
567.19	43943.56
567.36	43875.68
567.52	43246.08
567.68	43892.07
567.85	43672.06
568.01	43859.30
568.17	43276.51
568.34	43552.69
568.50	44020.80
568.66	43349.06
568.83	43931.86
568.99	43288.21
569.15	43573.75
569.32	43744.61
569.48	43625.25
569.64	43707.16
569.81	43669.72
569.97	43721.21
570.13	43393.53
570.30	43405.23
570.46	43576.09
570.62	43517.58
570.78	43714.19
570.95	43625.25
571.11	43885.04
571.27	43349.06
571.43	43817.17
571.60	43641.63
571.76	43828.87
571.92	43599.50
572.09	43732.91
572.25	43484.81
572.41	43777.38
572.57	43915.47
572.74	43899.09
572.90	43828.87
573.06	44051.22
573.22	43992.71
573.38	43683.76
573.55	43285.87
573.71	44224.42
573.87	43632.27
574.03	43377.15
574.20	43519.92
574.36	43564.39
574.52	44081.65
574.68	43927.17
574.84	43777.38
575.01	44156.55
575.17	43749.29
575.33	43789.08
575.49	43805.47
575.65	43746.95
575.82	44027.82
575.98	43686.10
576.14	44168.25
576.30	44053.56
576.46	43964.62
576.62	43587.80
576.79	44088.67
576.95	43402.89
577.11	44046.54
577.27	44039.52
577.43	44624.65
577.59	43959.94
577.75	44201.02
577.92	43746.95
578.08	43723.55
578.24	43882.70
578.40	43969.30
578.56	44348.47
578.72	43803.13
578.88	44252.51
579.04	44156.55
579.21	44149.53
579.37	43992.71
579.53	43622.90
579.69	44105.06
579.85	44121.44
580.01	43990.37
580.17	44212.72
580.33	43964.62
580.49	44449.11
580.65	43908.45
580.82	44137.82
580.98	43716.53
581.14	44142.50
581.30	43922.49
581.46	43894.41
581.62	44388.26
581.78	44083.99
581.94	44032.50
582.10	44091.01
582.26	44631.68
582.42	44325.07
582.58	44182.29
582.74	43962.28
582.90	44233.78
583.06	44376.56
583.22	44151.87
583.38	44079.31
583.54	43531.62
583.70	44100.37
583.86	44144.84
584.02	44016.11
584.18	44184.63
584.34	43936.54
584.50	44451.45
584.66	44198.68
584.82	43690.78
584.98	44439.75
585.14	44395.28
585.30	44238.47
585.46	44229.10
585.62	44196.34
585.78	43833.55
585.94	43859.30
586.10	44053.56
586.26	44219.74
586.42	44247.83
586.58	43796.10
586.74	44266.55
586.90	44435.07
587.06	44313.36
587.22	44194.00
587.38	44112.08
587.54	44079.31
587.70	44383.58
587.86	44421.03
588.02	44612.95
588.18	44493.58
588.34	43739.93
588.49	43934.20
588.65	44095.69
588.81	43580.78
588.97	44208.04
589.13	44182.29
589.29	43847.60
589.45	44278.25
589.61	44247.83
589.77	44650.40
589.93	44505.29
590.08	44643.38
590.24	44493.58
590.40	44582.52
