SpectraSuite Data File
++++++++++++++++++++++++++++++++++++
Date: Fri Oct 25 11:24:04 EDT 2013
User: price-jones
Dark Spectrum Present: No
Reference Spectrum Present: No
Number of Sampled Component Spectra: 1
Spectrometers: USB2+H05261
Integration Time (usec): 100000 (USB2+H05261)
Spectra Averaged: 1 (USB2+H05261)
Boxcar Smoothing: 0 (USB2+H05261)
Correct for Electrical Dark: No (USB2+H05261)
Strobe/Lamp Enabled: No (USB2+H05261)
Correct for Detector Non-linearity: No (USB2+H05261)
Correct for Stray Light: No (USB2+H05261)
Number of Pixels in Processed Spectrum: 2048
>>>>>Begin Processed Spectral Data<<<<<
365.73	287.89
365.92	287.89
366.12	287.89
366.32	112.35
366.52	131.07
366.72	205.97
366.91	119.37
367.11	243.42
367.31	180.22
367.51	161.50
367.70	98.30
367.90	117.03
368.10	170.86
368.30	194.26
368.49	102.98
368.69	119.37
368.89	117.03
369.09	95.96
369.28	168.52
369.48	159.16
369.68	140.43
369.87	142.77
370.07	203.63
370.27	229.37
370.47	402.57
370.66	559.39
370.86	667.05
371.06	631.94
371.25	580.45
371.45	660.03
371.65	690.46
371.84	578.11
372.04	692.80
372.24	720.88
372.44	734.93
372.63	751.31
372.83	809.83
373.03	739.61
373.22	741.95
373.42	741.95
373.62	744.29
373.81	814.51
374.01	777.06
374.21	870.68
374.40	819.19
374.60	844.93
374.79	781.74
374.99	844.93
375.19	826.21
375.38	837.91
375.58	851.96
375.78	837.91
375.97	856.64
376.17	882.38
376.37	976.00
376.56	856.64
376.76	926.85
376.95	823.87
377.15	858.98
377.35	849.61
377.54	908.13
377.74	866.00
377.93	891.74
378.13	903.45
378.33	938.55
378.52	894.08
378.72	954.94
378.91	819.19
379.11	912.81
379.31	1025.15
379.50	931.53
379.70	938.55
379.89	980.68
380.09	912.81
380.28	926.85
380.48	910.47
380.68	952.60
380.87	1025.15
381.07	987.71
381.26	1055.58
381.46	1039.20
381.65	1062.60
381.85	1046.22
382.04	1036.86
382.24	1086.01
382.43	1029.84
382.63	1078.99
382.83	1001.75
383.02	952.60
383.22	1151.54
383.41	1156.22
383.61	1149.20
383.80	1153.88
384.00	1130.48
384.19	1181.97
384.39	1170.27
384.58	1130.48
384.78	1158.57
384.97	1193.67
385.17	1123.46
385.36	1137.50
385.56	1151.54
385.75	1156.22
385.95	1153.88
386.14	1226.44
386.34	1193.67
386.53	1205.38
386.72	1235.80
386.92	1266.23
387.11	1282.61
387.31	1184.31
387.50	1231.12
387.70	1233.46
387.89	1263.89
388.09	1203.04
388.28	1376.24
388.48	1245.16
388.67	1334.11
388.86	1301.34
389.06	1287.29
389.25	1282.61
389.45	1359.85
389.64	1406.66
389.84	1320.06
390.03	1451.13
390.22	1362.19
390.42	1383.26
390.61	1397.30
390.81	1390.28
391.00	1432.41
391.19	1359.85
391.39	1533.05
391.58	1490.92
391.78	1483.90
391.97	1469.86
392.16	1490.92
392.36	1570.50
392.55	1434.75
392.75	1476.88
392.94	1467.52
393.13	1458.15
393.33	1434.75
393.52	1476.88
393.71	1600.93
393.91	1556.46
394.10	1514.33
394.29	1612.63
394.49	1682.85
394.68	1685.19
394.88	1586.88
395.07	1708.59
395.26	1636.03
395.46	1769.44
395.65	1715.61
395.84	1750.72
396.04	1757.74
396.23	1832.64
396.42	1724.97
396.62	1806.89
396.81	1783.49
397.00	1849.02
397.19	1736.68
397.39	1734.34
397.58	1860.73
397.77	1816.26
397.97	1844.34
398.16	1942.64
398.35	1893.49
398.55	1839.66
398.74	1809.23
398.93	1863.07
399.12	1877.11
399.32	1844.34
399.51	1867.75
399.70	2064.35
399.90	2017.54
400.09	1937.96
400.28	2026.90
400.47	2066.69
400.67	2115.84
400.86	2071.37
401.05	2160.31
401.24	1975.41
401.44	2094.78
401.63	2225.85
401.82	2064.35
402.01	2087.76
402.21	2232.87
402.40	2195.42
402.59	2183.72
402.78	2291.38
402.97	2291.38
403.17	2139.25
403.36	2256.28
403.55	2249.25
403.74	2420.11
403.93	2389.69
404.13	2415.43
404.32	2420.11
404.51	2380.32
404.70	2464.58
404.89	2356.92
405.09	2509.05
405.28	2480.97
405.47	2457.56
405.66	2539.48
405.85	2495.01
406.05	2567.57
406.24	2455.22
406.43	2511.39
406.62	2605.02
406.81	2719.70
407.00	2555.86
407.20	2565.23
407.39	2576.93
407.58	2710.34
407.77	2733.75
407.96	2839.07
408.15	2754.81
408.34	2686.94
408.54	2729.06
408.73	2836.73
408.92	2878.86
409.11	2846.09
409.30	2841.41
409.49	2871.84
409.68	2878.86
409.87	2956.10
410.07	2993.55
410.26	3075.46
410.45	2906.95
410.64	3019.29
410.83	2951.42
411.02	3047.38
411.21	3105.89
411.40	3103.55
411.59	3110.57
411.78	3150.36
411.98	3183.13
412.17	3234.62
412.36	3363.35
412.55	3255.69
412.74	3459.31
412.93	3431.23
413.12	3389.10
413.31	3571.66
413.50	3440.59
413.69	3335.26
413.88	3557.61
414.07	3616.13
414.26	3702.73
414.45	3588.04
414.64	3630.17
414.83	3805.71
415.02	3796.35
415.22	3803.37
415.41	3943.80
415.60	3885.29
415.79	3932.10
415.98	4002.32
416.17	4039.76
416.36	3992.95
416.55	3871.25
416.74	4152.11
416.93	4114.66
417.12	4154.45
417.31	4229.35
417.50	4084.23
417.69	4273.82
417.88	4437.66
418.07	4250.41
418.26	4215.30
418.45	4503.19
418.64	4423.61
418.83	4489.15
419.02	4374.46
419.21	4472.76
419.39	4503.19
419.58	4578.09
419.77	4521.92
419.96	4622.56
420.15	4615.54
420.34	4730.22
420.53	4617.88
420.72	4638.94
420.91	4615.54
421.10	4793.42
421.29	4812.14
421.48	4788.74
421.67	4812.14
421.86	4732.56
422.05	5027.47
422.24	4791.08
422.43	4814.48
422.61	4987.68
422.80	4964.28
422.99	4983.00
423.18	5064.92
423.37	5071.94
423.56	4992.36
423.75	4952.57
423.94	4788.74
424.13	4571.07
424.32	4723.20
424.50	4971.30
424.69	5210.03
424.88	5088.32
425.07	4910.44
425.26	4973.64
425.45	4865.97
425.64	5022.79
425.83	5177.26
426.01	5195.99
426.20	5097.69
426.39	5139.82
426.58	5193.65
426.77	4952.57
426.96	5055.56
427.15	5114.07
427.33	5214.71
427.52	5144.50
427.71	5282.59
427.90	5249.82
428.09	5458.13
428.28	5359.83
428.46	5308.34
428.65	5364.51
428.84	5504.94
429.03	5490.90
429.22	5420.68
429.40	5596.22
429.59	5624.31
429.78	5263.86
429.97	5256.84
430.16	5411.32
430.34	5579.84
430.53	5657.07
430.72	5509.62
430.91	5715.59
431.10	5806.87
431.28	5846.66
431.47	5832.62
431.66	5811.55
431.85	5746.02
432.03	6017.52
432.22	5989.43
432.41	5928.58
432.60	5975.39
432.79	6010.50
432.97	6099.44
433.16	6120.50
433.35	5956.66
433.54	6059.65
433.72	6045.60
433.91	6120.50
434.10	6073.69
434.28	6209.44
434.47	6272.64
434.66	6317.11
434.85	6235.19
435.03	6291.36
435.22	6171.99
435.41	6494.99
435.59	6581.59
435.78	6457.54
435.97	6569.88
436.16	6572.22
436.34	6434.13
436.53	6516.05
436.72	6794.58
436.90	6436.47
437.09	6850.75
437.28	6600.31
437.46	6752.45
437.65	6560.52
437.84	6834.36
438.02	6719.68
438.21	6782.87
438.40	6902.24
438.58	6963.09
438.77	7070.76
438.96	6935.01
439.14	7300.13
439.33	7279.07
439.52	7288.43
439.70	7225.23
439.89	7501.42
440.08	7499.08
440.26	7208.85
440.45	7382.05
440.63	7480.35
440.82	7793.98
441.01	7691.00
441.19	7576.31
441.38	7868.88
441.57	7831.43
441.75	7761.22
441.94	8100.59
442.12	8011.65
442.31	7962.50
442.50	8086.55
442.68	8004.63
442.87	8011.65
443.05	8105.28
443.24	8084.21
443.43	8276.13
443.61	8245.71
443.80	8589.77
443.98	8292.52
444.17	7922.71
444.35	8278.47
444.54	8318.26
444.73	8234.00
444.91	8603.81
445.10	8557.00
445.28	8430.61
445.47	8430.61
445.65	8311.24
445.84	8503.17
446.02	8318.26
446.21	8468.06
446.39	8318.26
446.58	8641.26
446.77	8526.57
446.95	8423.59
447.14	8564.02
447.32	8454.02
447.51	8533.59
447.69	8582.74
447.88	8505.51
448.06	8533.59
448.25	8620.19
448.43	8723.18
448.62	8458.70
448.80	8505.51
448.99	8704.45
449.17	8823.82
449.36	8870.63
449.54	8833.18
449.73	8997.02
449.91	9020.42
450.10	8940.85
450.28	9135.11
450.46	9338.74
450.65	9214.69
450.83	9020.42
451.02	9146.81
451.20	9273.20
451.39	9291.93
451.57	9062.55
451.76	9114.05
451.94	9291.93
452.13	9448.74
452.31	9357.46
452.49	9172.56
452.68	9434.70
452.86	9495.55
453.05	9280.22
453.23	9659.39
453.42	9404.27
453.60	9268.52
453.78	9460.45
453.97	9706.20
454.15	9598.54
454.34	9432.36
454.52	9701.52
454.70	9783.44
454.89	9919.19
455.07	9708.54
455.26	9949.62
455.44	9900.47
455.62	10097.07
455.81	10008.13
455.99	9966.00
456.17	10174.31
456.36	10059.62
456.54	10150.90
456.73	10162.61
456.91	10317.08
457.09	10413.04
457.28	10588.58
457.46	10401.34
457.64	10614.33
457.83	10670.50
458.01	10525.39
458.19	10707.95
458.38	10352.19
458.56	10785.19
458.74	10806.25
458.93	10576.88
459.11	10864.77
459.29	10939.66
459.48	10696.25
459.66	10600.29
459.84	11016.90
460.03	11318.83
460.21	11084.78
460.39	11117.54
460.57	11087.12
460.76	11218.19
460.94	11360.96
461.12	11276.70
461.31	11169.04
461.49	11185.42
461.67	11108.18
461.85	11641.82
462.04	11370.32
462.22	11583.31
462.40	11566.93
462.59	11573.95
462.77	11438.20
462.95	11836.09
463.13	11585.65
463.32	11653.53
463.50	11815.02
463.68	11803.32
463.86	11889.92
464.05	11550.54
464.23	11714.38
464.41	11847.79
464.59	11688.64
464.78	12163.76
464.96	11882.90
465.14	11925.03
465.32	12290.15
465.50	12325.26
465.69	12329.94
465.87	12140.36
466.05	12348.67
466.23	11997.59
466.41	12308.88
466.60	12451.65
466.78	12203.55
466.96	12203.55
467.14	12308.88
467.32	12601.44
467.51	12711.45
467.69	12411.86
467.87	12453.99
468.05	12847.20
468.23	12505.48
468.41	12379.09
468.60	12760.60
468.78	12755.92
468.96	12823.80
469.14	12826.14
469.32	13095.30
469.50	12795.71
469.69	13074.23
469.87	13121.04
470.05	13170.19
470.23	13139.77
470.41	13137.43
470.59	13418.29
470.77	13261.48
470.95	13518.93
471.14	13502.55
471.32	13334.03
471.50	13500.21
471.68	13514.25
471.86	13668.73
472.04	13659.37
472.22	14066.62
472.40	13575.11
472.58	13951.93
472.77	14017.47
472.95	14398.98
473.13	14780.48
473.31	13987.04
473.49	14317.06
473.67	14286.63
473.85	14537.07
474.03	14654.09
474.21	14626.01
474.39	14597.92
474.57	14626.01
474.75	15009.86
474.93	14820.27
475.12	15054.33
475.30	15365.62
475.48	15012.20
475.66	15192.42
475.84	15199.44
476.02	15648.82
476.20	15482.64
476.38	15845.43
476.56	16161.40
476.74	16063.10
476.92	16121.61
477.10	16053.73
477.28	16168.42
477.46	16245.66
477.64	16643.55
477.82	16512.48
478.00	16959.52
478.18	16610.78
478.36	16975.91
478.54	17303.58
478.72	17284.86
478.90	17235.70
479.08	17528.27
479.26	17778.71
479.44	17755.30
479.62	17799.77
479.80	17951.91
479.98	18197.67
480.16	18925.57
480.34	18363.84
480.52	18621.30
480.70	18691.52
480.88	18593.22
481.06	18860.04
481.24	19080.05
481.41	19267.29
481.59	19515.39
481.77	19655.82
481.95	19999.88
482.13	19716.67
482.31	19779.87
482.49	20627.14
482.67	20456.28
482.85	20561.61
483.03	21039.08
483.21	21081.21
483.39	21273.13
483.57	20704.38
483.74	21336.32
483.92	21497.82
484.10	21418.24
484.28	22001.04
484.46	22471.48
484.64	22504.25
484.82	21942.52
485.00	22539.36
485.18	22906.82
485.35	23007.47
485.53	22998.10
485.71	23073.00
485.89	23534.09
486.07	23374.93
486.25	23454.51
486.43	23693.24
486.61	24287.74
486.78	24105.18
486.96	24514.77
487.14	24652.86
487.32	24814.36
487.50	25230.98
487.68	24858.83
487.85	25216.93
488.03	25591.42
488.21	26174.21
488.39	25975.27
488.57	26221.02
488.75	26375.50
488.92	26827.22
489.10	26941.91
489.28	27122.13
489.46	27152.55
489.64	27723.65
489.81	27749.39
489.99	28130.90
490.17	28208.14
490.35	28297.08
490.53	28477.30
490.70	28837.74
490.88	28287.71
491.06	28858.81
491.24	28446.87
491.41	29015.62
491.59	29369.04
491.77	29446.28
491.95	29968.22
492.13	30181.21
492.30	29935.45
492.48	30279.51
492.66	30150.78
492.84	30466.75
493.01	30728.89
493.19	30742.94
493.37	31276.58
493.54	31122.10
493.72	31697.88
493.90	32046.62
494.08	31901.50
494.25	32079.38
494.43	31969.38
494.61	32507.70
494.79	33067.09
494.96	32491.32
495.14	32767.50
495.32	33415.83
495.49	33333.91
495.67	33212.20
495.85	33256.67
496.02	34036.07
496.20	34436.30
496.38	34373.11
496.55	34476.09
496.73	35147.82
496.91	34913.77
497.09	35101.01
497.26	35229.74
497.44	35068.25
497.62	35278.89
497.79	35915.52
497.97	35976.37
498.14	36098.08
498.32	36570.87
498.50	36369.58
498.67	36704.28
498.85	37186.43
499.03	36617.68
499.20	36982.80
499.38	37640.50
499.56	37139.62
499.73	37226.22
499.91	37581.98
500.08	38225.63
500.26	37736.46
500.44	37785.61
500.61	38075.84
500.79	38220.95
500.97	38499.47
501.14	39065.88
501.32	38878.64
501.49	38801.40
501.67	39218.02
501.84	39187.59
502.02	38986.30
502.20	39206.31
502.37	39395.90
502.55	39629.95
502.72	39264.83
502.90	39688.46
503.07	39716.55
503.25	40215.08
503.43	39889.75
503.60	40182.32
503.78	40442.12
503.95	40603.61
504.13	40601.27
504.30	40505.31
504.48	40954.69
504.65	41074.06
504.83	41186.41
505.01	41879.21
505.18	41305.77
505.36	41652.17
505.53	41490.68
505.71	41991.55
505.88	42057.09
506.06	41860.48
506.23	42300.50
506.41	41893.25
506.58	42712.44
506.76	42696.05
506.93	42897.34
507.11	42906.70
507.28	42850.53
507.46	42920.74
507.63	43449.70
507.81	43749.29
507.98	43182.88
508.16	43517.58
508.33	43571.41
508.50	43849.94
508.68	43959.94
508.85	44346.13
509.03	44123.78
509.20	44304.00
509.38	44463.16
509.55	44727.64
509.73	44804.88
509.90	44678.49
510.08	44800.19
510.25	44795.51
510.42	44526.35
510.60	45270.64
510.77	45406.39
510.95	45507.04
511.12	45696.62
511.30	45184.04
511.47	45874.50
511.64	45942.38
511.82	46199.83
511.99	46160.05
512.17	46380.06
512.34	46410.48
512.51	46611.77
512.69	46632.83
512.86	46775.61
513.04	46990.94
513.21	46742.84
513.38	47098.60
513.56	47309.25
513.73	46651.56
513.90	47496.49
514.08	47353.72
514.25	47440.32
514.43	47716.50
514.60	47199.24
514.77	47845.23
514.95	47786.72
515.12	47861.61
515.29	47856.93
515.47	48002.05
515.64	48430.36
515.81	47709.48
515.99	48521.65
516.16	48329.72
516.33	48734.63
516.51	49088.06
516.68	48430.36
516.85	48671.44
517.03	48903.15
517.20	49144.23
517.37	48994.43
517.54	49272.96
517.72	49074.01
517.89	49132.53
518.06	49354.88
518.24	49511.69
518.41	49626.38
518.58	49298.70
518.75	49481.27
518.93	50050.02
519.10	49656.81
519.27	49932.99
519.45	49989.16
519.62	49834.69
519.79	50131.93
519.96	50195.13
520.14	50307.47
520.31	50473.65
520.48	50483.01
520.65	50801.33
520.83	50635.15
521.00	50787.28
521.17	50880.91
521.34	50590.68
521.52	51070.49
521.69	51189.86
521.86	51124.32
522.03	51463.70
522.20	51358.38
522.38	51615.83
522.55	51278.80
522.72	51543.28
522.89	51615.83
523.07	51990.32
523.24	51742.22
523.41	52074.58
523.58	51583.07
523.75	52126.07
523.92	51812.44
524.10	52112.03
524.27	52161.18
524.44	52182.24
524.61	52640.99
524.78	52367.15
524.96	52430.34
525.13	52095.64
525.30	52669.08
525.47	52839.93
525.64	52718.23
525.81	52708.86
525.98	52849.30
526.16	53013.13
526.33	52945.26
526.50	53439.11
526.67	52963.98
526.84	52926.53
527.01	53085.69
527.18	53216.76
527.36	53132.50
527.53	53216.76
527.70	53530.39
527.87	53401.66
528.04	53151.23
528.21	53705.93
528.38	53640.40
528.55	53766.79
528.72	53624.01
528.89	53645.08
529.07	53343.15
529.24	53558.48
529.41	53890.83
529.58	54054.67
529.75	53904.88
529.92	53712.95
530.09	54148.29
530.26	54010.20
530.43	54284.04
530.60	53897.86
530.77	53986.80
530.94	54157.66
531.11	54031.27
531.28	54459.58
531.46	54328.52
531.63	54581.29
531.80	54148.29
531.97	54440.86
532.14	54658.53
532.31	54461.93
532.48	54600.02
532.65	54960.46
532.82	54829.39
532.99	55007.27
533.16	54567.25
533.33	55004.93
533.50	54981.52
533.67	54768.54
533.84	54836.41
534.01	55098.55
534.18	55037.70
534.35	55348.99
534.52	55334.95
534.69	55587.72
534.86	55433.25
535.03	55061.10
535.20	55583.04
535.37	55737.52
535.54	55777.31
535.71	55524.53
535.88	55437.93
536.05	55803.05
536.22	55880.29
536.38	55716.45
536.55	55604.11
536.72	55877.95
536.89	55721.13
537.06	55924.76
537.23	55997.32
537.40	55899.01
537.57	55728.16
537.74	55973.91
537.91	56140.09
538.08	55964.55
538.25	56039.45
538.42	55924.76
538.59	56423.29
538.75	56037.11
538.92	55934.12
539.09	56420.95
539.26	56430.32
539.43	56374.14
539.60	56446.70
539.77	56512.23
539.94	56488.83
540.11	56633.94
540.28	56666.71
540.44	56647.99
540.61	56542.66
540.78	56594.15
540.95	56746.29
541.12	56521.60
541.29	56694.80
541.46	56762.67
541.62	56928.85
541.79	56889.06
541.96	56657.35
542.13	56851.61
542.30	56905.44
542.47	56828.21
542.63	57137.16
542.80	57052.90
542.97	57188.65
543.14	57439.09
543.31	57134.82
543.48	57305.68
543.64	57638.03
543.81	57525.69
543.98	57443.77
544.15	57544.41
544.32	57633.35
544.48	57762.08
544.65	57600.58
544.82	57579.52
544.99	57453.13
545.16	57602.92
545.32	57471.85
545.49	57771.44
545.66	57729.31
545.83	57750.38
546.00	57869.75
546.16	57801.87
546.33	57731.65
546.50	57813.57
546.67	57989.11
546.83	57509.30
547.00	57925.92
547.17	57818.25
547.34	57822.93
547.50	58164.65
547.67	58262.96
547.84	58136.57
548.00	58447.86
548.17	58368.28
548.34	58314.45
548.51	58337.85
548.67	58363.60
548.84	58157.63
549.01	58429.13
549.18	58417.43
549.34	58576.59
549.51	58349.56
549.68	58419.77
549.84	58450.20
550.01	58710.00
550.18	58499.35
550.34	58527.44
550.51	58693.61
550.68	58473.60
550.84	58543.82
551.01	58775.53
551.18	58695.95
551.34	58801.28
551.51	58740.42
551.68	58747.45
551.84	58705.32
552.01	58841.07
552.18	58855.11
552.34	58658.51
552.51	59049.38
552.68	58901.92
552.84	58646.80
553.01	59302.15
553.18	58976.82
553.34	58906.60
553.51	58944.05
553.67	59058.74
553.84	59049.38
554.01	59040.01
554.17	59316.20
554.34	59187.47
554.51	59042.35
554.67	59112.57
554.84	59313.86
555.00	59056.40
555.17	58955.75
555.33	59180.45
555.50	59192.15
555.67	59044.69
555.83	59065.76
556.00	59318.54
556.16	59517.48
556.33	59463.65
556.50	59311.52
556.66	59311.52
556.83	59281.09
556.99	59395.77
557.16	59578.34
557.32	59707.07
557.49	59568.97
557.65	59543.23
557.82	59515.14
557.98	59531.53
558.15	59681.32
558.32	59554.93
558.48	59402.80
558.65	59423.86
558.81	59597.06
558.98	59753.88
559.14	59583.02
559.31	59599.40
559.47	59840.48
559.64	60013.68
559.80	59615.79
559.97	60102.62
560.13	59580.68
560.30	60004.31
560.46	59896.65
560.63	59884.95
560.79	60104.96
560.96	60016.02
561.12	59821.75
561.29	60023.04
561.45	60055.81
561.61	60027.72
561.78	59990.27
561.94	59952.82
562.11	59936.44
562.27	60060.49
562.44	59863.88
562.60	60254.75
562.77	60133.04
562.93	59971.55
563.10	59906.01
563.26	60048.78
563.42	60273.48
563.59	60268.79
563.75	60200.92
563.92	60252.41
564.08	60037.08
564.24	60289.86
564.41	60023.04
564.57	60231.35
564.74	60217.30
564.90	60413.91
565.07	60154.11
565.23	60179.85
565.39	60107.30
565.56	60317.95
565.72	60292.20
565.88	60498.17
566.05	60116.66
566.21	60168.15
566.38	60453.70
566.54	60310.92
566.70	60521.57
566.87	60472.42
567.03	60299.22
567.19	60444.33
567.36	60666.69
567.52	60453.70
567.68	60694.77
567.85	60507.53
568.01	60617.53
568.17	60331.99
568.34	60552.00
568.50	60549.66
568.66	60420.93
568.83	60451.36
568.99	60357.74
569.15	60453.70
569.32	60669.03
569.48	60427.95
569.64	60678.39
569.81	60636.26
569.97	60390.50
570.13	60860.95
570.30	60465.40
570.46	60673.71
570.62	60563.70
570.78	60711.16
570.95	60470.08
571.11	60910.10
571.27	60395.18
571.43	60617.53
571.60	60837.54
571.76	60666.69
571.92	60811.80
572.09	60725.20
572.25	60690.09
572.41	60865.63
572.57	60818.82
572.74	60905.42
572.90	60832.86
573.06	60683.07
573.22	60790.73
573.38	60676.05
573.55	60638.60
573.71	61073.94
573.87	60858.61
574.03	60713.50
574.20	60893.72
574.36	60654.98
574.52	60825.84
574.68	60804.78
574.84	60832.86
575.01	60956.91
575.17	60795.42
575.33	60741.58
575.49	60947.55
575.65	60846.91
575.82	60907.76
575.98	60793.07
576.14	61106.71
576.30	61010.74
576.46	60598.81
576.62	60846.91
576.79	60886.70
576.95	60596.47
577.11	60961.59
577.27	60893.72
577.43	60898.40
577.59	60973.30
577.75	60928.83
577.92	60816.48
578.08	60823.50
578.24	60963.93
578.40	61113.73
578.56	61050.53
578.72	61029.47
578.88	61034.15
579.04	61247.14
579.21	60891.38
579.37	61109.05
579.53	60994.36
579.69	60956.91
579.85	60839.89
580.01	60924.14
580.17	60865.63
580.33	61120.75
580.49	61195.65
580.65	60963.93
580.82	60975.64
580.98	61010.74
581.14	60994.36
581.30	60977.98
581.46	60949.89
581.62	61059.90
581.78	60963.93
581.94	61212.03
582.10	61097.34
582.26	61043.51
582.42	61036.49
582.58	60968.61
582.74	60949.89
582.90	61031.81
583.06	61064.58
583.22	60863.29
583.38	61076.28
583.54	61137.13
583.70	61038.83
583.86	61010.74
584.02	60942.87
584.18	61158.20
584.34	61059.90
584.50	61043.51
584.66	61261.18
584.82	60846.91
584.98	61116.07
585.14	61200.33
585.30	60952.23
585.46	61240.12
585.62	61223.73
585.78	61296.29
585.94	60914.78
586.10	61013.08
586.26	61048.19
586.42	61148.84
586.58	61130.11
586.74	61256.50
586.90	61048.19
587.06	60800.10
587.22	61336.08
587.38	61373.53
587.54	61179.26
587.70	61343.10
587.86	61141.81
588.02	61347.78
588.18	61324.38
588.34	60891.38
588.49	61038.83
