SpectraSuite Data File
++++++++++++++++++++++++++++++++++++
Date: Fri Oct 25 11:24:05 EDT 2013
User: price-jones
Dark Spectrum Present: No
Reference Spectrum Present: No
Number of Sampled Component Spectra: 1
Spectrometers: USB2+H05261
Integration Time (usec): 100000 (USB2+H05261)
Spectra Averaged: 1 (USB2+H05261)
Boxcar Smoothing: 0 (USB2+H05261)
Correct for Electrical Dark: No (USB2+H05261)
Strobe/Lamp Enabled: No (USB2+H05261)
Correct for Detector Non-linearity: No (USB2+H05261)
Correct for Stray Light: No (USB2+H05261)
Number of Pixels in Processed Spectrum: 2048
>>>>>Begin Processed Spectral Data<<<<<
365.73	262.14
365.92	262.14
366.12	262.14
366.32	173.20
366.52	124.05
366.72	170.86
366.91	112.35
367.11	58.51
367.31	152.13
367.51	163.84
367.70	121.71
367.90	156.82
368.10	98.30
368.30	135.75
368.49	189.58
368.69	100.64
368.89	182.56
369.09	100.64
369.28	119.37
369.48	215.33
369.68	212.99
369.87	175.54
370.07	159.16
370.27	212.99
370.47	337.04
370.66	615.56
370.86	676.41
371.06	713.86
371.25	669.39
371.45	704.50
371.65	716.20
371.84	664.71
372.04	826.21
372.24	610.88
372.44	683.44
372.63	739.61
372.83	800.46
373.03	788.76
373.22	725.57
373.42	798.12
373.62	837.91
373.81	821.53
374.01	751.31
374.21	828.55
374.40	816.85
374.60	809.83
374.79	819.19
374.99	814.51
375.19	805.14
375.38	828.55
375.58	858.98
375.78	959.62
375.97	849.61
376.17	947.92
376.37	905.79
376.56	901.11
376.76	933.87
376.95	873.02
377.15	919.83
377.35	903.45
377.54	968.98
377.74	912.81
377.93	889.40
378.13	952.60
378.33	929.19
378.52	919.83
378.72	910.47
378.91	875.36
379.11	931.53
379.31	917.49
379.50	990.05
379.70	990.05
379.89	1055.58
380.09	1022.81
380.28	945.58
380.48	1041.54
380.68	947.92
380.87	987.71
381.07	1011.11
381.26	940.90
381.46	1050.90
381.65	1097.71
381.85	1095.37
382.04	1086.01
382.24	1043.88
382.43	1116.44
382.63	1036.86
382.83	1125.80
383.02	1193.67
383.22	1109.41
383.41	1069.62
383.61	1186.65
383.80	1167.93
384.00	1111.75
384.19	1100.05
384.39	1177.29
384.58	1146.86
384.78	1156.22
384.97	1144.52
385.17	1125.80
385.36	1144.52
385.56	1107.07
385.75	1163.25
385.95	1203.04
386.14	1097.71
386.34	1191.33
386.53	1231.12
386.72	1174.95
386.92	1270.91
387.11	1242.82
387.31	1263.89
387.50	1172.61
387.70	1217.08
387.89	1228.78
388.09	1226.44
388.28	1373.89
388.48	1235.80
388.67	1254.53
388.86	1263.89
389.06	1299.00
389.25	1289.64
389.45	1369.21
389.64	1345.81
389.84	1432.41
390.03	1404.32
390.22	1355.17
390.42	1366.87
390.61	1322.40
390.81	1341.13
391.00	1329.42
391.19	1465.18
391.39	1427.73
391.58	1458.15
391.78	1458.15
391.97	1509.65
392.16	1437.09
392.36	1633.69
392.55	1568.16
392.75	1619.65
392.94	1479.22
393.13	1462.83
393.33	1589.22
393.52	1561.14
393.71	1558.80
393.91	1537.73
394.10	1654.76
394.29	1678.16
394.49	1591.56
394.68	1591.56
394.88	1701.57
395.07	1624.33
395.26	1692.21
395.46	1689.87
395.65	1689.87
395.84	1802.21
396.04	1764.76
396.23	1771.79
396.42	1753.06
396.62	1839.66
396.81	1928.60
397.00	1781.15
397.19	1921.58
397.39	1755.40
397.58	1863.07
397.77	1778.81
397.97	1954.35
398.16	1865.41
398.35	1902.86
398.55	1839.66
398.74	1956.69
398.93	1947.33
399.12	1856.04
399.32	1926.26
399.51	2029.24
399.70	2005.84
399.90	2001.16
400.09	1984.77
400.28	1994.14
400.47	2040.95
400.67	2078.40
400.86	2108.82
401.05	2047.97
401.24	1996.48
401.44	2139.25
401.63	2125.21
401.82	2148.61
402.01	2115.84
402.21	2150.95
402.40	2298.41
402.59	2085.42
402.78	2207.13
402.97	2235.21
403.17	2401.39
403.36	2249.25
403.55	2235.21
403.74	2312.45
403.93	2235.21
404.13	2282.02
404.32	2382.67
404.51	2424.80
404.70	2480.97
404.89	2317.13
405.09	2415.43
405.28	2513.74
405.47	2544.16
405.66	2450.54
405.85	2548.84
406.05	2588.63
406.24	2548.84
406.43	2565.23
406.62	2668.21
406.81	2588.63
407.00	2654.17
407.20	2700.98
407.39	2607.36
407.58	2712.68
407.77	2715.02
407.96	2789.92
408.15	2860.13
408.34	2712.68
408.54	2803.96
408.73	2836.73
408.92	2750.13
409.11	2939.71
409.30	2848.43
409.49	2862.48
409.68	2839.07
409.87	2993.55
410.07	3002.91
410.26	2991.20
410.45	2946.73
410.64	3070.78
410.83	3063.76
411.02	3082.49
411.21	3211.22
411.40	3155.04
411.59	3314.20
411.78	3194.83
411.98	3321.22
412.17	3314.20
412.36	3368.03
412.55	3389.10
412.74	3435.91
412.93	3342.28
413.12	3396.12
413.31	3513.14
413.50	3466.33
413.69	3613.79
413.88	3693.37
414.07	3602.08
414.26	3538.89
414.45	3747.20
414.64	3700.39
414.83	3801.03
415.02	3779.97
415.22	3831.46
415.41	3691.02
415.60	3810.39
415.79	3833.80
415.98	4053.81
416.17	3964.87
416.36	3943.80
416.55	3922.74
416.74	4161.47
416.93	4102.96
417.12	4152.11
417.31	4184.88
417.50	4224.67
417.69	4198.92
417.88	4397.87
418.07	4283.18
418.26	4264.46
418.45	4362.76
418.64	4404.89
418.83	4430.63
419.02	4517.23
419.21	4505.53
419.39	4369.78
419.58	4437.66
419.77	4432.97
419.96	4554.68
420.15	4678.73
420.34	4732.56
420.53	4596.81
420.72	4641.28
420.91	4643.62
421.10	4723.20
421.29	4868.31
421.48	4683.41
421.67	4887.04
421.86	4898.74
422.05	4884.70
422.24	4734.90
422.43	4814.48
422.61	4795.76
422.80	4924.49
422.99	4964.28
423.18	4901.08
423.37	5043.85
423.56	5053.22
423.75	4931.51
423.94	4793.42
424.13	4652.98
424.32	4678.73
424.50	5018.11
424.69	5039.17
424.88	5025.13
425.07	4975.98
425.26	4957.25
425.45	4997.04
425.64	4971.30
425.83	5123.43
426.01	5188.97
426.20	4945.55
426.39	5111.73
426.58	5146.84
426.77	5181.95
426.96	5097.69
427.15	5139.82
427.33	5296.63
427.52	5184.29
427.71	5270.89
427.90	5221.74
428.09	5331.74
428.28	5289.61
428.46	5434.72
428.65	5355.15
428.84	5500.26
429.03	5455.79
429.22	5448.77
429.40	5453.45
429.59	5638.35
429.78	5280.25
429.97	5427.70
430.16	5593.88
430.34	5741.33
430.53	5654.73
430.72	5593.88
430.91	5755.38
431.10	5661.76
431.28	5755.38
431.47	5863.04
431.66	5790.49
431.85	5846.66
432.03	5905.17
432.22	5998.79
432.41	6078.37
432.60	5991.77
432.79	6097.10
432.97	6094.76
433.16	6005.81
433.35	6069.01
433.54	6136.88
433.72	6209.44
433.91	6157.95
434.10	6197.74
434.28	6228.17
434.47	6207.10
434.66	6188.38
434.85	6108.80
435.03	6324.13
435.22	6282.00
435.41	6452.86
435.59	6469.24
435.78	6441.15
435.97	6562.86
436.16	6469.24
436.34	6487.96
436.53	6459.88
436.72	6825.00
436.90	6441.15
437.09	6832.02
437.28	6565.20
437.46	6640.10
437.65	6719.68
437.84	6839.05
438.02	6719.68
438.21	6825.00
438.40	6803.94
438.58	7019.27
438.77	7026.29
438.96	7157.36
439.14	7215.87
439.33	7236.94
439.52	7288.43
439.70	7302.47
439.89	7267.36
440.08	7466.31
440.26	7524.82
440.45	7382.05
440.63	7559.93
440.82	7672.28
441.01	7527.16
441.19	7751.85
441.38	7681.64
441.57	7815.05
441.75	7812.71
441.94	7950.80
442.12	8074.85
442.31	8145.06
442.50	8208.26
442.68	7882.92
442.87	8259.75
443.05	8156.77
443.24	8301.88
443.43	8149.75
443.61	8168.47
443.80	8723.18
443.98	8098.25
444.17	7765.90
444.35	8215.28
444.54	8280.82
444.73	8400.18
444.91	8280.82
445.10	8444.65
445.28	8458.70
445.47	8231.66
445.65	8297.20
445.84	8456.36
446.02	8379.12
446.21	8547.64
446.39	8358.05
446.58	8648.28
446.77	8620.19
446.95	8367.42
447.14	8444.65
447.32	8566.36
447.51	8514.87
447.69	8519.55
447.88	8528.91
448.06	8589.77
448.25	8657.64
448.43	8681.05
448.62	8620.19
448.80	8613.17
448.99	8645.94
449.17	8807.44
449.36	8547.64
449.54	8800.41
449.73	8823.82
449.91	9107.02
450.10	9139.79
450.28	9287.25
450.46	9149.15
450.65	9179.58
450.83	8964.25
451.02	9081.28
451.20	8990.00
451.39	9146.81
451.57	9172.56
451.76	9032.13
451.94	9025.11
452.13	9228.73
452.31	9334.06
452.49	9273.20
452.68	9497.89
452.86	9366.82
453.05	9495.55
453.23	9373.85
453.42	9270.86
453.60	9472.15
453.78	9420.66
453.97	9359.80
454.15	9549.39
454.34	9633.64
454.52	9762.37
454.70	9738.97
454.89	9966.00
455.07	9717.90
455.26	9806.84
455.44	10134.52
455.62	9966.00
455.81	10064.30
455.99	10136.86
456.17	9905.15
456.36	10162.61
456.54	10225.80
456.73	10265.59
456.91	10558.16
457.09	10469.22
457.28	10576.88
457.46	10368.57
457.64	10597.95
457.83	10560.50
458.01	10532.41
458.19	10846.04
458.38	10677.52
458.56	10817.96
458.74	10820.30
458.93	10876.47
459.11	10867.11
459.29	10981.79
459.48	10967.75
459.66	10834.34
459.84	10881.15
460.03	11094.14
460.21	11232.23
460.39	11075.42
460.57	11000.52
460.76	11262.66
460.94	11192.44
461.12	11293.08
461.31	11253.30
461.49	11243.93
461.67	11253.30
461.85	11667.57
462.04	11447.56
462.22	11475.65
462.40	11829.07
462.59	11360.96
462.77	11513.10
462.95	11587.99
463.13	11885.24
463.32	11838.43
463.50	12095.89
463.68	11861.84
463.86	11782.26
464.05	11618.42
464.23	11672.25
464.41	11953.12
464.59	11735.45
464.78	12116.95
464.96	12046.74
465.14	11735.45
465.32	12250.36
465.50	12266.75
465.69	12273.77
465.87	12365.05
466.05	12187.17
466.23	12468.03
466.41	12552.29
466.60	12601.44
466.78	12411.86
466.96	12341.64
467.14	12482.08
467.32	12620.17
467.51	12631.87
467.69	12250.36
467.87	12327.60
468.05	12779.32
468.23	12519.53
468.41	12657.62
468.60	12875.29
468.78	12774.64
468.96	12718.47
469.14	12996.99
469.32	13193.60
469.50	12786.35
469.69	13282.54
469.87	13055.51
470.05	13043.81
470.23	13322.33
470.41	13289.56
470.59	13500.21
470.77	13282.54
470.95	13724.90
471.14	13511.91
471.32	13432.33
471.50	13645.32
471.68	13668.73
471.86	13776.39
472.04	13909.80
472.22	14029.17
472.40	13785.76
472.58	14026.83
472.77	14160.24
472.95	14361.53
473.13	14834.32
473.31	14178.97
473.49	14333.44
473.67	14162.58
473.85	14272.59
474.03	14698.56
474.21	14867.08
474.39	14848.36
474.57	14696.22
474.75	14846.02
474.93	14869.42
475.12	14841.34
475.30	15178.37
475.48	15295.40
475.66	15293.06
475.84	15435.83
476.02	15405.41
476.20	15410.09
476.38	15892.24
476.56	16285.45
476.74	15999.90
476.92	15992.88
477.10	16030.33
477.28	16596.74
477.46	16367.37
477.64	16521.84
477.82	16603.76
478.00	17036.76
478.18	17193.58
478.36	17308.26
478.54	17308.26
478.72	17202.94
478.90	17633.60
479.08	17837.22
479.26	17949.57
479.44	17820.84
479.62	18192.98
479.80	18263.20
479.98	18527.68
480.16	18794.50
480.34	18504.28
480.52	18937.27
480.70	18712.58
480.88	18480.87
481.06	18972.38
481.24	19318.78
481.41	19180.69
481.59	19765.82
481.77	19850.08
481.95	19758.80
482.13	20086.48
482.31	20025.62
482.49	20182.44
482.67	20166.06
482.85	20526.50
483.03	20655.23
483.21	20580.33
483.39	21214.62
483.57	20950.14
483.74	21022.69
483.92	21799.75
484.10	21364.41
484.28	22075.93
484.46	21947.20
484.64	22424.67
484.82	22244.45
485.00	22361.48
485.18	22913.84
485.35	23051.94
485.53	23164.28
485.71	23482.59
485.89	24027.94
486.07	23466.21
486.25	23667.50
486.43	23786.86
486.61	23873.46
486.78	24130.92
486.96	24182.42
487.14	24844.79
487.32	24746.48
487.50	25125.65
487.68	25324.60
487.85	25369.07
488.03	25689.72
488.21	26043.14
488.39	25813.77
488.57	25916.75
488.75	26354.43
488.92	26927.86
489.10	26789.77
489.28	26998.08
489.46	27314.05
489.64	27845.35
489.81	27892.16
489.99	28250.27
490.17	27618.32
490.35	28233.88
490.53	28320.48
490.70	28547.51
490.88	28252.61
491.06	29006.26
491.24	29235.63
491.41	29191.16
491.59	29563.31
491.77	29434.58
491.95	29795.02
492.13	30148.44
492.30	30441.01
492.48	30237.38
492.66	30438.67
492.84	30628.25
493.01	30794.43
493.19	30881.03
493.37	31035.50
493.54	31796.18
493.72	31695.53
493.90	31761.07
494.08	31742.35
494.25	32264.28
494.43	32364.93
494.61	32151.94
494.79	32624.73
494.96	32643.45
495.14	33322.21
495.32	33464.98
495.49	33436.89
495.67	33415.83
495.85	33902.66
496.02	34335.66
496.20	33993.94
496.38	34167.14
496.55	34022.03
496.73	35103.35
496.91	34897.39
497.09	34660.99
497.26	35096.33
497.44	35234.42
497.62	35302.30
497.79	36172.98
497.97	36058.29
498.14	36526.40
498.32	36753.43
498.50	36624.70
498.67	37038.98
498.85	36631.72
499.03	36891.52
499.20	37038.98
499.38	37450.91
499.56	37544.53
499.73	37593.68
499.91	37476.66
500.08	37621.77
500.26	37518.79
500.44	38026.68
500.61	38080.52
500.79	37909.66
500.97	38471.39
501.14	38457.34
501.32	38803.74
501.49	39084.61
501.67	39157.16
501.84	39065.88
502.02	39489.52
502.20	39632.29
502.37	39466.11
502.55	39562.08
502.72	39885.07
502.90	40046.57
503.07	39435.69
503.25	40215.08
503.43	39746.98
503.60	40552.12
503.78	40439.78
503.95	40463.18
504.13	40788.52
504.30	41069.38
504.48	40989.80
504.65	40898.52
504.83	41261.30
505.01	41471.95
505.18	41467.27
505.36	41989.21
505.53	41687.28
505.71	42328.59
505.88	42036.02
506.06	41727.07
506.23	42295.82
506.41	42155.39
506.58	42614.13
506.76	43086.92
506.93	42838.83
507.11	42543.92
507.28	42852.87
507.46	42904.36
507.63	42862.23
507.81	43491.83
507.98	43510.56
508.16	43810.15
508.33	43756.32
508.50	43737.59
508.68	43842.92
508.85	44423.37
509.03	44179.95
509.20	44360.17
509.38	44446.77
509.55	44634.02
509.73	44933.60
509.90	44935.95
510.08	44568.48
510.25	44856.37
510.42	45240.21
510.60	45453.20
510.77	45815.99
510.95	45780.88
511.12	45490.65
511.30	45378.31
511.47	45942.38
511.64	45815.99
511.82	45998.55
511.99	45790.24
512.17	46265.37
512.34	46164.73
512.51	46562.62
512.69	46628.15
512.86	46529.85
513.04	46972.21
513.21	47019.02
513.38	46878.59
513.56	47388.83
513.73	47098.60
513.90	47646.29
514.08	47491.81
514.25	47739.91
514.43	47437.98
514.60	47821.83
514.77	47445.00
514.95	47945.87
515.12	47966.94
515.29	48114.39
515.47	48086.31
515.64	48830.60
515.81	48336.74
515.99	48406.96
516.16	48823.58
516.33	48692.50
516.51	49148.91
516.68	48603.56
516.85	48739.32
517.03	49092.74
517.20	49158.27
517.37	49198.06
517.54	49233.17
517.72	49172.31
517.89	49254.23
518.06	49844.05
518.24	49537.44
518.41	49511.69
518.58	49689.57
518.75	49680.21
518.93	49720.00
519.10	49942.35
519.27	49909.58
519.45	50108.53
519.62	50340.24
519.79	49984.48
519.96	49968.10
520.14	50527.48
520.31	50501.74
520.48	50621.11
520.65	50583.66
520.83	50710.05
521.00	51220.28
521.17	51056.45
521.34	50651.53
521.52	50976.87
521.69	51056.45
521.86	50993.25
522.03	51452.00
522.20	51494.13
522.38	51367.74
522.55	51735.20
522.72	51447.32
522.89	51861.59
523.07	51856.91
523.24	51826.48
523.41	51952.87
523.58	51922.44
523.75	52123.73
523.92	51877.97
524.10	52381.19
524.27	52556.73
524.44	52341.40
524.61	52264.16
524.78	52355.44
524.96	52416.30
525.13	52839.93
525.30	52638.65
525.47	52755.68
525.64	52563.75
525.81	52844.62
525.98	53022.50
526.16	52720.57
526.33	52856.32
526.50	53195.70
526.67	53057.60
526.84	53359.53
527.01	53254.21
527.18	53179.31
527.36	53495.28
527.53	53394.64
527.70	53572.52
527.87	53476.56
528.04	53279.96
528.21	53467.20
528.38	53579.54
528.55	53794.87
528.72	53708.27
528.89	53710.61
529.07	53628.69
529.24	53404.00
529.41	54218.51
529.58	54064.03
529.75	54057.01
529.92	54155.32
530.09	53874.45
530.26	54059.35
530.43	54618.74
530.60	54239.57
530.77	54323.83
530.94	54216.17
531.11	54354.26
531.28	54482.99
531.46	54347.24
531.63	54363.62
531.80	54534.48
531.97	54660.87
532.14	54536.82
532.31	54623.42
532.48	54979.18
532.65	54784.92
532.82	54438.52
532.99	54883.22
533.16	54724.07
533.33	54855.14
533.50	55159.41
533.67	55089.19
533.84	54651.51
534.01	54981.52
534.18	55224.94
534.35	55248.35
534.52	55262.39
534.69	55274.09
534.86	55735.18
535.03	55655.60
535.20	55360.69
535.37	55501.12
535.54	55391.12
535.71	55627.51
535.88	55664.96
536.05	55625.17
536.22	56004.34
536.38	55704.75
536.55	55533.89
536.72	55840.50
536.89	55742.20
537.06	55849.86
537.23	56158.81
537.40	55962.21
537.57	55807.73
537.74	55870.93
537.91	56299.25
538.08	56065.19
538.25	55798.37
538.42	56289.88
538.59	56193.92
538.75	56147.11
538.92	56313.29
539.09	56493.51
539.26	56301.59
539.43	56301.59
539.60	56376.48
539.77	56575.43
539.94	56676.07
540.11	56523.94
540.28	56549.68
540.44	56617.56
540.61	56650.33
540.78	56549.68
540.95	56795.44
541.12	56748.63
541.29	56673.73
541.46	56821.19
541.62	56765.01
541.79	57071.62
541.96	56739.27
542.13	56875.02
542.30	56638.62
542.47	57146.52
542.63	56961.62
542.80	57027.15
542.97	57284.61
543.14	57387.60
543.31	57200.35
543.48	57495.26
543.64	57659.10
543.81	57513.98
543.98	57565.48
544.15	57476.54
544.32	57661.44
544.48	57766.76
544.65	57364.19
544.82	57567.82
544.99	57485.90
545.16	57698.89
545.32	57443.77
545.49	57853.36
545.66	57991.45
545.83	57773.78
546.00	57733.99
546.16	57745.70
546.33	57811.23
546.50	57542.07
546.67	58183.38
546.83	57687.18
547.00	57954.00
547.17	57888.47
547.34	57883.79
547.50	58047.63
547.67	58316.79
547.84	58209.12
548.00	58204.44
548.17	58581.27
548.34	58389.34
548.51	58375.30
548.67	58471.26
548.84	58602.33
549.01	58365.94
549.18	58309.77
549.34	58389.34
549.51	58473.60
549.68	58482.97
549.84	58412.75
550.01	58838.73
550.18	58497.01
550.34	58555.52
550.51	58705.32
550.68	58492.33
550.84	58429.13
551.01	58747.45
551.18	58667.87
551.34	58803.62
551.51	58932.35
551.68	58866.81
551.84	58752.13
552.01	58665.53
552.18	58754.47
552.34	58958.09
552.51	59023.63
552.68	58756.81
552.84	59040.01
553.01	59145.34
553.18	59152.36
553.34	58894.90
553.51	58843.41
553.67	59217.89
553.84	59194.49
554.01	59414.50
554.17	59182.79
554.34	59171.08
554.51	59119.59
554.67	59306.83
554.84	59157.04
555.00	59260.02
555.17	59253.00
555.33	59084.48
555.50	59061.08
555.67	59327.90
555.83	59166.40
556.00	59208.53
556.16	59709.41
556.33	59496.42
556.50	59379.39
556.66	59524.50
556.83	59220.23
556.99	59653.23
557.16	59671.96
557.32	59728.13
557.49	59751.54
557.65	59611.10
557.82	59812.39
557.98	59470.67
558.15	59702.38
558.32	59655.57
558.48	59285.77
558.65	59716.43
558.81	59798.35
558.98	59669.62
559.14	59791.33
559.31	59908.35
559.47	60149.43
559.64	59924.74
559.80	59901.33
559.97	59948.14
560.13	59784.30
560.30	60001.97
560.46	60025.38
560.63	59997.29
560.79	59791.33
560.96	60081.55
561.12	59929.42
561.29	59941.12
561.45	60144.75
561.61	60060.49
561.78	60081.55
561.94	59774.94
562.11	59906.01
562.27	60196.24
562.44	60261.77
562.60	60243.05
562.77	60285.18
562.93	60137.72
563.10	60149.43
563.26	60172.83
563.42	60392.84
563.59	60165.81
563.75	60252.41
563.92	60207.94
564.08	60317.95
564.24	60339.01
564.41	60198.58
564.57	60449.02
564.74	60245.39
564.90	60521.57
565.07	60219.64
565.23	60418.59
565.39	60336.67
565.56	60481.78
565.72	60360.08
565.88	60261.77
566.05	60493.49
566.21	60336.67
566.38	60289.86
566.54	60491.15
566.70	60514.55
566.87	60580.09
567.03	60463.06
567.19	60659.66
567.36	60601.15
567.52	60505.19
567.68	60636.26
567.85	60474.76
568.01	60706.47
568.17	60561.36
568.34	60610.51
568.50	60650.30
568.66	60383.48
568.83	60610.51
568.99	60622.22
569.15	60624.56
569.32	60519.23
569.48	60584.77
569.64	60666.69
569.81	60528.59
569.97	60598.81
570.13	60762.65
570.30	60336.67
570.46	60669.03
570.62	60662.00
570.78	60446.68
570.95	60666.69
571.11	60807.12
571.27	60594.13
571.43	60835.20
571.60	60907.76
571.76	60786.05
571.92	60933.51
572.09	60837.54
572.25	60697.11
572.41	60533.28
572.57	60659.66
572.74	61066.92
572.90	60961.59
573.06	60781.37
573.22	60849.25
573.38	60764.99
573.55	60760.31
573.71	61010.74
573.87	60865.63
574.03	60743.92
574.20	60844.57
574.36	60774.35
574.52	61109.05
574.68	61151.18
574.84	61034.15
575.01	60968.61
575.17	60982.66
575.33	60835.20
575.49	60926.49
575.65	61132.45
575.82	61008.40
575.98	60935.85
576.14	60973.30
576.30	60856.27
576.46	61050.53
576.62	60935.85
576.79	61043.51
576.95	60800.10
577.11	61022.45
577.27	61092.66
577.43	61188.63
577.59	60942.87
577.75	60762.65
577.92	60786.05
578.08	60882.02
578.24	61087.98
578.40	61188.63
578.56	61055.21
578.72	60807.12
578.88	61186.28
579.04	61153.52
579.21	61024.79
579.37	61055.21
579.53	61293.95
579.69	60877.33
579.85	61041.17
580.01	61127.77
580.17	60942.87
580.33	61078.62
580.49	61251.82
580.65	60996.70
580.82	60942.87
580.98	60989.68
581.14	60949.89
581.30	61181.60
581.46	61174.58
581.62	60980.32
581.78	61120.75
581.94	61247.14
582.10	61087.98
582.26	61083.30
582.42	61237.78
582.58	61120.75
582.74	61123.09
582.90	61048.19
583.06	61130.11
583.22	61158.20
583.38	60966.27
583.54	61174.58
583.70	61380.55
583.86	61256.50
584.02	61022.45
584.18	61104.37
584.34	61148.84
584.50	61080.96
584.66	60968.61
584.82	60900.74
584.98	61389.91
585.14	61106.71
585.30	60968.61
585.46	61153.52
585.62	61066.92
585.78	61216.71
585.94	60945.21
586.10	61282.25
586.26	61188.63
586.42	61338.42
586.58	61162.88
586.74	61312.67
586.90	61095.00
587.06	60982.66
587.22	61219.05
587.38	61282.25
587.54	61254.16
587.70	61432.04
587.86	61331.40
588.02	61240.12
588.18	61261.18
588.34	61113.73
588.49	61141.81
