SpectraSuite Data File
++++++++++++++++++++++++++++++++++++
Date: Fri Oct 25 11:26:22 EDT 2013
User: price-jones
Dark Spectrum Present: No
Reference Spectrum Present: No
Number of Sampled Component Spectra: 1
Spectrometers: USB2+H05261
Integration Time (usec): 100000 (USB2+H05261)
Spectra Averaged: 1 (USB2+H05261)
Boxcar Smoothing: 0 (USB2+H05261)
Correct for Electrical Dark: No (USB2+H05261)
Strobe/Lamp Enabled: No (USB2+H05261)
Correct for Detector Non-linearity: No (USB2+H05261)
Correct for Stray Light: No (USB2+H05261)
Number of Pixels in Processed Spectrum: 2048
>>>>>Begin Processed Spectral Data<<<<<
365.73	205.97
365.92	205.97
366.12	205.97
366.32	168.52
366.52	124.05
366.72	133.41
366.91	86.60
367.11	105.32
367.31	168.52
367.51	91.28
367.70	147.45
367.90	152.13
368.10	58.51
368.30	163.84
368.49	107.66
368.69	208.31
368.89	114.69
369.09	161.50
369.28	107.66
369.48	163.84
369.68	224.69
369.87	229.37
370.07	187.24
370.27	276.18
370.47	311.29
370.66	629.60
370.86	674.07
371.06	674.07
371.25	664.71
371.45	683.44
371.65	723.23
371.84	699.82
372.04	765.36
372.24	688.12
372.44	748.97
372.63	751.31
372.83	779.40
373.03	732.59
373.22	685.78
373.42	744.29
373.62	784.08
373.81	802.80
374.01	791.10
374.21	821.53
374.40	774.72
374.60	847.27
374.79	774.72
374.99	830.89
375.19	826.21
375.38	772.38
375.58	777.06
375.78	830.89
375.97	828.55
376.17	805.14
376.37	875.36
376.56	847.27
376.76	866.00
376.95	858.98
377.15	980.68
377.35	903.45
377.54	854.30
377.74	903.45
377.93	875.36
378.13	882.38
378.33	961.96
378.52	947.92
378.72	964.30
378.91	1013.45
379.11	931.53
379.31	866.00
379.50	966.64
379.70	994.73
379.89	1015.79
380.09	922.17
380.28	997.07
380.48	961.96
380.68	1069.62
380.87	933.87
381.07	924.51
381.26	1027.50
381.46	1055.58
381.65	983.02
381.85	1015.79
382.04	1043.88
382.24	1064.94
382.43	1025.15
382.63	1156.22
382.83	1125.80
383.02	1102.39
383.22	1114.10
383.41	1055.58
383.61	1060.26
383.80	1188.99
384.00	1135.16
384.19	1102.39
384.39	1142.18
384.58	1135.16
384.78	1149.20
384.97	1123.46
385.17	1100.05
385.36	1111.75
385.56	1111.75
385.75	1163.25
385.95	1184.31
386.14	1205.38
386.34	1153.88
386.53	1144.52
386.72	1242.82
386.92	1238.14
387.11	1235.80
387.31	1270.91
387.50	1219.42
387.70	1275.59
387.89	1294.32
388.09	1313.04
388.28	1378.58
388.48	1301.34
388.67	1270.91
388.86	1294.32
389.06	1411.34
389.25	1291.98
389.45	1364.53
389.64	1336.45
389.84	1413.68
390.03	1371.55
390.22	1320.06
390.42	1430.07
390.61	1406.66
390.81	1409.00
391.00	1401.98
391.19	1401.98
391.39	1514.33
391.58	1469.86
391.78	1362.19
391.97	1448.79
392.16	1387.94
392.36	1614.97
392.55	1521.35
392.75	1544.75
392.94	1568.16
393.13	1514.33
393.33	1488.58
393.52	1561.14
393.71	1629.01
393.91	1521.35
394.10	1530.71
394.29	1530.71
394.49	1619.65
394.68	1607.95
394.88	1596.25
395.07	1582.20
395.26	1713.27
395.46	1689.87
395.65	1699.23
395.84	1736.68
396.04	1813.92
396.23	1804.55
396.42	1729.66
396.62	1809.23
396.81	1724.97
397.00	1727.32
397.19	1769.44
397.39	1888.81
397.58	1816.26
397.77	1879.45
397.97	1802.21
398.16	1818.60
398.35	1877.11
398.55	1792.85
398.74	1865.41
398.93	1952.01
399.12	1919.24
399.32	1865.41
399.51	1980.09
399.70	1961.37
399.90	2017.54
400.09	1963.71
400.28	2104.14
400.47	1949.67
400.67	2073.71
400.86	2076.06
401.05	2085.42
401.24	2066.69
401.44	2129.89
401.63	2267.98
401.82	2237.55
402.01	2167.34
402.21	2099.46
402.40	2090.10
402.59	2221.17
402.78	2157.97
402.97	2314.79
403.17	2183.72
403.36	2225.85
403.55	2417.77
403.74	2277.34
403.93	2340.54
404.13	2279.68
404.32	2359.26
404.51	2399.05
404.70	2427.14
404.89	2324.15
405.09	2471.61
405.28	2399.05
405.47	2450.54
405.66	2459.90
405.85	2544.16
406.05	2497.35
406.24	2555.86
406.43	2569.91
406.62	2567.57
406.81	2693.96
407.00	2628.42
407.20	2579.27
407.39	2560.55
407.58	2712.68
407.77	2569.91
407.96	2789.92
408.15	2654.17
408.34	2736.09
408.54	2820.35
408.73	2764.17
408.92	2839.07
409.11	2810.98
409.30	2848.43
409.49	2846.09
409.68	2885.88
409.87	2981.84
410.07	3012.27
410.26	2986.52
410.45	2935.03
410.64	2881.20
410.83	2972.48
411.02	3087.17
411.21	3068.44
411.40	3068.44
411.59	3105.89
411.78	3129.30
411.98	3211.22
412.17	3234.62
412.36	3265.05
412.55	3311.86
412.74	3386.76
412.93	3316.54
413.12	3248.66
413.31	3471.01
413.50	3410.16
413.69	3445.27
413.88	3382.07
414.07	3604.42
414.26	3562.30
414.45	3688.68
414.64	3569.32
414.83	3658.26
415.02	3815.07
415.22	3873.59
415.41	3875.93
415.60	3850.18
415.79	3950.82
415.98	4046.79
416.17	4023.38
416.36	4112.32
416.55	4044.45
416.74	4067.85
416.93	4037.42
417.12	4079.55
417.31	4084.23
417.50	4194.24
417.69	4365.10
417.88	4245.73
418.07	4203.60
418.26	4149.77
418.45	4334.67
418.64	4423.61
418.83	4393.19
419.02	4386.16
419.21	4327.65
419.39	4428.29
419.58	4456.38
419.77	4484.47
419.96	4573.41
420.15	4472.76
420.34	4510.21
420.53	4542.98
420.72	4716.18
420.91	4774.69
421.10	4615.54
421.29	4741.93
421.48	4662.35
421.67	4847.25
421.86	4748.95
422.05	4739.58
422.24	4695.11
422.43	4760.65
422.61	4868.31
422.80	4891.72
422.99	4873.00
423.18	4912.78
423.37	4971.30
423.56	4973.64
423.75	4912.78
423.94	4718.52
424.13	4517.23
424.32	4720.86
424.50	4915.12
424.69	5025.13
424.88	5015.77
425.07	4786.40
425.26	4884.70
425.45	4905.76
425.64	4784.06
425.83	4971.30
426.01	5118.75
426.20	5093.01
426.39	5064.92
426.58	5039.17
426.77	5034.49
426.96	5048.54
427.15	5029.81
427.33	5025.13
427.52	5149.18
427.71	5277.91
427.90	5184.29
428.09	5385.57
428.28	5254.50
428.46	5294.29
428.65	5420.68
428.84	5434.72
429.03	5376.21
429.22	5364.51
429.40	5460.47
429.59	5439.40
429.78	5135.14
429.97	5109.39
430.16	5526.00
430.34	5582.18
430.53	5486.22
430.72	5411.32
430.91	5500.26
431.10	5755.38
431.28	5774.10
431.47	5827.93
431.66	5893.47
431.85	5886.45
432.03	5888.79
432.22	5975.39
432.41	5966.03
432.60	5886.45
432.79	5982.41
432.97	6073.69
433.16	6047.94
433.35	5837.30
433.54	6005.81
433.72	6104.12
433.91	6085.39
434.10	6111.14
434.28	5954.32
434.47	6059.65
434.66	6097.10
434.85	6122.84
435.03	6354.55
435.22	6221.14
435.41	6448.18
435.59	6312.42
435.78	6359.24
435.97	6314.77
436.16	6214.12
436.34	6338.17
436.53	6406.05
436.72	6640.10
436.90	6471.58
437.09	6581.59
437.28	6429.45
437.46	6579.25
437.65	6567.54
437.84	6668.19
438.02	6640.10
438.21	6719.68
438.40	6604.99
438.58	6923.30
438.77	6923.30
438.96	6902.24
439.14	7052.03
439.33	7185.44
439.52	7262.68
439.70	7176.08
439.89	7279.07
440.08	7190.13
440.26	7325.88
440.45	7229.91
440.63	7482.69
440.82	7389.07
441.01	7466.31
441.19	7588.02
441.38	7545.89
441.57	7585.68
441.75	7793.98
441.94	7779.94
442.12	7854.84
442.31	7978.89
442.50	7999.95
442.68	7836.11
442.87	7873.56
443.05	8037.40
443.24	8217.62
443.43	8086.55
443.61	8056.12
443.80	8351.03
443.98	7756.54
444.17	7733.13
444.35	8243.37
444.54	8512.53
444.73	8224.64
444.91	8105.28
445.10	8421.25
445.28	8325.29
445.47	8184.85
445.65	8252.73
445.84	8365.07
446.02	8386.14
446.21	8393.16
446.39	8315.92
446.58	8231.66
446.77	8428.27
446.95	8224.64
447.14	8393.16
447.32	8470.40
447.51	8341.67
447.69	8402.52
447.88	8446.99
448.06	8332.31
448.25	8571.04
448.43	8430.61
448.62	8458.70
448.80	8503.17
448.99	8669.34
449.17	8854.25
449.36	8709.13
449.54	8753.60
449.73	8631.90
449.91	8971.27
450.10	8734.88
450.28	8945.53
450.46	8982.98
450.65	8879.99
450.83	9092.98
451.02	8683.39
451.20	8997.02
451.39	9034.47
451.57	9146.81
451.76	8912.76
451.94	9085.96
452.13	9146.81
452.31	9048.51
452.49	9165.54
452.68	9217.03
452.86	9121.07
453.05	9160.86
453.23	9437.04
453.42	9469.81
453.60	9245.12
453.78	9467.47
453.97	9387.89
454.15	9614.92
454.34	9392.57
454.52	9561.09
454.70	9444.06
454.89	9841.95
455.07	9598.54
455.26	9523.64
455.44	9692.16
455.62	10064.30
455.81	9628.96
455.99	9837.27
456.17	9977.70
456.36	10040.90
456.54	10061.96
456.73	10111.11
456.91	10204.74
457.09	10473.90
457.28	10368.57
457.46	10190.69
457.64	10455.17
457.83	10373.25
458.01	10368.57
458.19	10647.10
458.38	10537.09
458.56	10740.72
458.74	10497.30
458.93	10501.98
459.11	10501.98
459.29	10869.45
459.48	10534.75
459.66	10796.89
459.84	10623.69
460.03	11000.52
460.21	10813.28
460.39	10747.74
460.57	10939.66
460.76	11026.26
460.94	11035.63
461.12	11084.78
461.31	11108.18
461.49	10930.30
461.67	10932.64
461.85	11400.75
462.04	11283.72
462.22	11700.34
462.40	11590.33
462.59	11576.29
462.77	11531.82
462.95	11723.74
463.13	11405.43
463.32	11791.62
463.50	11552.88
463.68	11611.40
463.86	11712.04
464.05	11580.97
464.23	11356.28
464.41	11812.68
464.59	11522.46
464.78	12056.10
464.96	11913.33
465.14	11850.13
465.32	12086.53
465.50	11953.12
465.69	12198.87
465.87	12161.42
466.05	11999.93
466.23	12123.98
466.41	12131.00
466.60	12362.71
466.78	12140.36
466.96	12037.38
467.14	12135.68
467.32	12327.60
467.51	12484.42
467.69	11962.48
467.87	12276.11
468.05	12702.09
468.23	12456.33
468.41	12238.66
468.60	12739.54
468.78	12744.22
468.96	12400.16
469.14	12498.46
469.32	12664.64
469.50	12573.36
469.69	12910.40
469.87	13118.70
470.05	12898.69
470.23	12924.44
470.41	13097.64
470.59	13050.83
470.77	13125.72
470.95	13188.92
471.14	13282.54
471.32	12989.97
471.50	13209.98
471.68	13296.58
471.86	13607.87
472.04	13591.49
472.22	13893.42
472.40	13619.58
472.58	13846.61
472.77	14146.20
472.95	13802.14
473.13	14455.15
473.31	13846.61
473.49	13956.61
473.67	14216.41
473.85	14185.99
474.03	14637.71
474.21	14476.21
474.39	14398.98
474.57	14637.71
474.75	14768.78
474.93	15269.66
475.12	14707.93
475.30	15077.73
475.48	14834.32
475.66	15213.48
475.84	14963.04
476.02	15218.16
476.20	15447.54
476.38	15454.56
476.56	15756.49
476.74	16100.55
476.92	15786.91
477.10	15784.57
477.28	16147.36
477.46	16020.97
477.64	16294.81
477.82	16294.81
478.00	16683.34
478.18	16730.15
478.36	16734.83
478.54	17090.59
478.72	16985.27
478.90	17137.40
479.08	17345.71
479.26	17200.60
479.44	17418.27
479.62	17528.27
479.80	18141.49
479.98	18064.25
480.16	18310.01
480.34	18396.61
480.52	18310.01
480.70	18719.60
480.88	18408.31
481.06	18579.17
481.24	18670.45
481.41	18899.83
481.59	19147.92
481.77	18820.25
481.95	19384.32
482.13	19990.52
482.31	19597.31
482.49	19960.09
482.67	19903.92
482.85	20030.30
483.03	20269.04
483.21	20514.80
483.39	20783.96
483.57	20905.66
483.74	21212.28
483.92	21074.18
484.10	20908.01
484.28	21586.76
484.46	21715.49
484.64	21893.37
484.82	21788.05
485.00	22111.04
485.18	22698.52
485.35	22787.46
485.53	22485.53
485.71	22963.00
485.89	23201.73
486.07	23070.66
486.25	23314.08
486.43	23042.57
486.61	23386.63
486.78	24049.00
486.96	23894.53
487.14	24252.63
487.32	24254.97
487.50	24575.62
487.68	24533.50
487.85	24802.66
488.03	25280.13
488.21	25502.48
488.39	25696.74
488.57	25837.17
488.75	25905.05
488.92	25961.22
489.10	26335.71
489.28	26513.59
489.46	26766.37
489.64	26661.04
489.81	27267.24
489.99	27498.95
490.17	27875.78
490.35	28077.07
490.53	28041.96
490.70	27749.39
490.88	28173.03
491.06	28615.39
491.24	28280.69
491.41	28947.75
491.59	29130.31
491.77	29308.19
491.95	29385.43
492.13	29661.61
492.30	29736.51
492.48	29813.74
492.66	30017.37
492.84	30050.14
493.01	30408.24
493.19	30331.00
493.37	30593.14
493.54	30796.77
493.72	31646.38
493.90	31222.75
494.08	31515.31
494.25	31747.03
494.43	31861.71
494.61	31934.27
494.79	32332.16
494.96	32484.30
495.14	32517.06
495.32	32954.74
495.49	32577.92
495.67	33502.43
495.85	33244.97
496.02	33043.68
496.20	33722.44
496.38	33706.05
496.55	33682.65
496.73	34719.51
496.91	34569.71
497.09	34263.10
497.26	34726.53
497.44	34394.17
497.62	35070.59
497.79	35117.40
497.97	35196.98
498.14	35690.83
498.32	35777.43
498.50	36046.59
498.67	36788.54
498.85	36140.21
499.03	36222.13
499.20	36360.22
499.38	36252.56
499.56	36807.26
499.73	37106.85
499.91	37116.22
500.08	37043.66
500.26	36708.96
500.44	37041.32
500.61	37378.36
500.79	37518.79
500.97	37387.72
501.14	38433.94
501.32	38227.97
501.49	38263.08
501.67	38560.33
501.84	38660.97
502.02	38452.66
502.20	38677.35
502.37	38749.91
502.55	38866.94
502.72	39117.37
502.90	39129.08
503.07	39391.22
503.25	39665.06
503.43	39370.15
503.60	39913.16
503.78	39723.57
503.95	39772.72
504.13	40023.16
504.30	40573.19
504.48	39969.33
504.65	40545.10
504.83	40685.53
505.01	40802.56
505.18	40608.29
505.36	41343.22
505.53	40933.63
505.71	41385.35
505.88	41415.78
506.06	40753.41
506.23	41544.51
506.41	41724.73
506.58	41935.38
506.76	41982.19
506.93	41965.81
507.11	42096.88
507.28	42057.09
507.46	42174.11
507.63	42373.06
507.81	42801.38
507.98	42579.03
508.16	43267.14
508.33	43112.67
508.50	42927.77
508.68	43363.11
508.85	43615.88
509.03	43714.19
509.20	43246.08
509.38	43957.60
509.55	44163.57
509.73	43866.32
509.90	44306.34
510.08	43971.64
510.25	44318.04
510.42	44397.62
510.60	44825.94
510.77	45366.60
510.95	44842.32
511.12	45003.82
511.30	45085.74
511.47	45247.24
511.64	45074.04
511.82	45640.45
511.99	45364.26
512.17	45567.89
512.34	45588.95
512.51	45738.75
512.69	45642.79
512.86	45947.06
513.04	46356.65
513.21	45890.88
513.38	46178.77
513.56	46887.95
513.73	46550.91
513.90	46916.04
514.08	46150.68
514.25	47114.98
514.43	46674.96
514.60	47098.60
514.77	47140.73
514.95	47421.59
515.12	47285.84
515.29	47292.86
515.47	47583.09
515.64	47997.37
515.81	47688.42
515.99	47786.72
516.16	48046.52
516.33	48184.61
516.51	48058.22
516.68	48357.81
516.85	48055.88
517.03	48165.88
517.20	48605.91
517.37	48467.81
517.54	48711.23
517.72	48964.01
517.89	48865.70
518.06	48816.55
518.24	49001.46
518.41	48736.98
518.58	49102.10
518.75	48989.75
518.93	49118.48
519.10	49153.59
519.27	49441.48
519.45	49256.57
519.62	49577.23
519.79	49422.75
519.96	49727.02
520.14	49977.46
520.31	49923.63
520.48	49727.02
520.65	49729.36
520.83	50143.64
521.00	50295.77
521.17	50195.13
521.34	50328.54
521.52	50586.00
521.69	50447.91
521.86	50333.22
522.03	50337.90
522.20	51138.36
522.38	51341.99
522.55	51241.35
522.72	50838.78
522.89	50855.16
523.07	50981.55
523.24	50986.23
523.41	51379.44
523.58	51269.43
523.75	52006.70
523.92	51339.65
524.10	51615.83
524.27	51976.28
524.44	51796.06
524.61	51704.77
524.78	51473.06
524.96	51812.44
525.13	52020.75
525.30	52109.69
525.47	52460.77
525.64	52327.36
525.81	52530.98
525.98	52306.29
526.16	52549.71
526.33	52334.38
526.50	52652.69
526.67	52460.77
526.84	52748.65
527.01	52612.90
527.18	52413.96
527.36	52603.54
527.53	53050.58
527.70	53116.12
527.87	52779.08
528.04	52971.00
528.21	53081.01
528.38	53120.80
528.55	53247.19
528.72	53207.40
528.89	53219.10
529.07	52982.71
529.24	53097.39
529.41	53574.86
529.58	53708.27
529.75	53432.09
529.92	53638.06
530.09	53551.46
530.26	53925.94
530.43	53633.38
530.60	53413.37
530.77	53904.88
530.94	53886.15
531.11	53930.62
531.28	54064.03
531.46	53881.47
531.63	53998.50
531.80	54167.02
531.97	53982.12
532.14	54387.03
532.31	54326.17
532.48	54286.39
532.65	54171.70
532.82	54286.39
532.99	54541.50
533.16	54546.18
533.33	54574.27
533.50	54593.00
533.67	54536.82
533.84	54487.67
534.01	54658.53
534.18	54803.64
534.35	55241.32
534.52	54990.89
534.69	54866.84
534.86	55089.19
535.03	55047.06
535.20	54876.20
535.37	54915.99
535.54	55260.05
535.71	54698.32
535.88	55313.88
536.05	55126.64
536.22	55346.65
536.38	55370.05
536.55	55503.46
536.72	55456.65
536.89	55121.96
537.06	55257.71
537.23	55248.35
537.40	55480.06
537.57	55278.77
537.74	55421.55
537.91	55863.91
538.08	55758.58
538.25	55461.33
538.42	55943.48
538.59	55957.53
538.75	55814.76
538.92	55669.64
539.09	55973.91
539.26	56072.21
539.43	55854.54
539.60	56149.45
539.77	56004.34
539.94	56177.54
540.11	56191.58
540.28	56142.43
540.44	56205.62
540.61	56364.78
540.78	56357.76
540.95	55983.27
541.12	56207.97
541.29	56217.33
541.46	56619.90
541.62	56458.40
541.79	56694.80
541.96	56083.92
542.13	56362.44
542.30	56200.94
542.47	56502.87
542.63	56683.09
542.80	56523.94
542.97	56699.48
543.14	56999.07
543.31	56877.36
543.48	56961.62
543.64	57455.47
543.81	57069.28
543.98	57263.55
544.15	57137.16
544.32	57310.36
544.48	57317.38
544.65	57251.84
544.82	57387.60
544.99	57221.42
545.16	57179.29
545.32	57153.54
545.49	57389.94
545.66	57614.63
545.83	57607.61
546.00	57549.09
546.16	57219.08
546.33	57282.27
546.50	57247.16
546.67	57516.32
546.83	57322.06
547.00	57389.94
547.17	57462.49
547.34	57661.44
547.50	57460.15
547.67	57829.96
547.84	57694.21
548.00	57743.36
548.17	57729.31
548.34	57923.58
548.51	57860.38
548.67	58101.46
548.84	58047.63
549.01	57771.44
549.18	57968.05
549.34	58087.42
549.51	58213.80
549.68	58092.10
549.84	58061.67
550.01	58230.19
550.18	57918.90
550.34	58255.93
550.51	58164.65
550.68	58099.12
550.84	58159.97
551.01	58328.49
551.18	58396.37
551.34	58368.28
551.51	58464.24
551.68	58384.66
551.84	58312.11
552.01	58248.91
552.18	58330.83
552.34	58260.62
552.51	58450.20
552.68	58319.13
552.84	58403.39
553.01	58880.86
553.18	58756.81
553.34	58717.02
553.51	58607.01
553.67	58649.14
553.84	58679.57
554.01	58822.34
554.17	58585.95
554.34	58738.08
554.51	58784.90
554.67	58972.14
554.84	58784.90
555.00	58667.87
555.17	58733.40
555.33	58972.14
555.50	58656.17
555.67	58794.26
555.83	58660.85
556.00	59007.25
556.16	59128.95
556.33	58904.26
556.50	59058.74
556.66	59253.00
556.83	58983.84
556.99	59260.02
557.16	59264.70
557.32	59269.39
557.49	59676.64
557.65	59044.69
557.82	59121.93
557.98	59096.19
558.15	59245.98
558.32	59355.99
558.48	59140.66
558.65	59215.55
558.81	59463.65
558.98	59435.56
559.14	59444.93
559.31	59407.48
559.47	59550.25
559.64	59470.67
559.80	59568.97
559.97	59505.78
560.13	59224.92
560.30	59222.58
560.46	59590.04
560.63	59503.44
560.79	59370.03
560.96	59730.47
561.12	59536.21
561.29	59601.74
561.45	59650.89
561.61	59842.82
561.78	59938.78
561.94	59512.80
562.11	59568.97
562.27	59828.77
562.44	59803.03
562.60	59934.10
562.77	59934.10
562.93	59568.97
563.10	59948.14
563.26	59803.03
563.42	59718.77
563.59	59962.18
563.75	59695.36
563.92	59917.71
564.08	59835.80
564.24	59938.78
564.41	59999.63
564.57	60025.38
564.74	59936.44
564.90	59732.81
565.07	59969.21
565.23	59898.99
565.39	59653.23
565.56	59915.37
565.72	59917.71
565.88	60004.31
566.05	59969.21
566.21	60004.31
566.38	59924.74
566.54	60193.90
566.70	60119.00
566.87	60102.62
567.03	59887.29
567.19	60149.43
567.36	60156.45
567.52	60147.09
567.68	60432.63
567.85	60027.72
568.01	60130.70
568.17	59910.69
568.34	60067.51
568.50	60067.51
568.66	60179.85
568.83	60310.92
568.99	60182.19
569.15	60364.76
569.32	60177.51
569.48	60147.09
569.64	60430.29
569.81	60259.43
569.97	60018.36
570.13	60441.99
570.30	60023.04
570.46	60247.73
570.62	60287.52
570.78	60329.65
570.95	60266.45
571.11	60404.55
571.27	60252.41
571.43	60355.39
571.60	60704.13
571.76	60287.52
571.92	60346.03
572.09	60486.46
572.25	60423.27
572.41	60432.63
572.57	60413.91
572.74	60757.97
572.90	60598.81
573.06	60449.02
573.22	60416.25
573.38	60444.33
573.55	60404.55
573.71	60622.22
573.87	60659.66
574.03	60292.20
574.20	60451.36
574.36	60388.16
574.52	60451.36
574.68	60601.15
574.84	60692.43
575.01	60617.53
575.17	60631.58
575.33	60339.01
575.49	60678.39
575.65	60589.45
575.82	60477.10
575.98	60657.32
576.14	60736.90
576.30	60676.05
576.46	60526.25
576.62	60453.70
576.79	60512.21
576.95	60528.59
577.11	60769.67
577.27	60418.59
577.43	60741.58
577.59	60409.23
577.75	60582.43
577.92	60587.11
578.08	60610.51
578.24	60601.15
578.40	60715.84
578.56	60701.79
578.72	60526.25
578.88	60856.27
579.04	60734.56
579.21	60701.79
579.37	60790.73
579.53	60886.70
579.69	60711.16
579.85	60458.38
580.01	60631.58
580.17	60432.63
580.33	60701.79
580.49	60713.50
580.65	60676.05
580.82	60654.98
580.98	60566.04
581.14	60722.86
581.30	60809.46
581.46	60678.39
581.62	60729.88
581.78	60683.07
581.94	60692.43
582.10	60587.11
582.26	60643.28
582.42	60582.43
582.58	60743.92
582.74	60554.34
582.90	60818.82
583.06	60774.35
583.22	60617.53
583.38	60736.90
583.54	60874.99
583.70	60818.82
583.86	60647.96
584.02	60601.15
584.18	60973.30
584.34	60816.48
584.50	60818.82
584.66	60725.20
584.82	60631.58
584.98	60921.80
585.14	60804.78
585.30	60692.43
585.46	60750.94
585.62	60673.71
585.78	60928.83
585.94	60584.77
586.10	60823.50
586.26	60889.04
586.42	60755.63
586.58	60963.93
586.74	60762.65
586.90	61069.26
587.06	60720.52
587.22	60926.49
587.38	60797.76
587.54	60928.83
587.70	61186.28
587.86	61043.51
588.02	60889.04
588.18	60975.64
588.34	60865.63
588.49	60757.97
