SpectraSuite Data File
++++++++++++++++++++++++++++++++++++
Date: Fri Oct 25 11:22:30 EDT 2013
User: price-jones
Dark Spectrum Present: No
Reference Spectrum Present: No
Number of Sampled Component Spectra: 1
Spectrometers: USB2+H05261
Integration Time (usec): 100000 (USB2+H05261)
Spectra Averaged: 1 (USB2+H05261)
Boxcar Smoothing: 0 (USB2+H05261)
Correct for Electrical Dark: No (USB2+H05261)
Strobe/Lamp Enabled: No (USB2+H05261)
Correct for Detector Non-linearity: No (USB2+H05261)
Correct for Stray Light: No (USB2+H05261)
Number of Pixels in Processed Spectrum: 2048
>>>>>Begin Processed Spectral Data<<<<<
365.73	215.33
365.92	215.33
366.12	215.33
366.32	173.20
366.52	126.39
366.72	126.39
366.91	203.63
367.11	117.03
367.31	168.52
367.51	117.03
367.70	121.71
367.90	135.75
368.10	86.60
368.30	145.11
368.49	135.75
368.69	189.58
368.89	168.52
369.09	117.03
369.28	194.26
369.48	110.01
369.68	138.09
369.87	196.60
370.07	189.58
370.27	222.35
370.47	388.53
370.66	559.39
370.86	599.18
371.06	706.84
371.25	704.50
371.45	655.35
371.65	716.20
371.84	622.58
372.04	643.65
372.24	676.41
372.44	704.50
372.63	734.93
372.83	779.40
373.03	748.97
373.22	739.61
373.42	765.36
373.62	716.20
373.81	725.57
374.01	812.17
374.21	882.38
374.40	781.74
374.60	833.23
374.79	786.42
374.99	791.10
375.19	844.93
375.38	856.64
375.58	851.96
375.78	866.00
375.97	830.89
376.17	997.07
376.37	877.70
376.56	889.40
376.76	819.19
376.95	877.70
377.15	952.60
377.35	898.77
377.54	894.08
377.74	840.25
377.93	870.68
378.13	901.11
378.33	1025.15
378.52	961.96
378.72	926.85
378.91	915.15
379.11	915.15
379.31	919.83
379.50	990.05
379.70	994.73
379.89	1097.71
380.09	889.40
380.28	947.92
380.48	968.98
380.68	1048.56
380.87	898.77
381.07	987.71
381.26	1076.65
381.46	1062.60
381.65	1083.67
381.85	973.66
382.04	1027.50
382.24	1032.18
382.43	1071.97
382.63	1097.71
382.83	994.73
383.02	1062.60
383.22	1057.92
383.41	1116.44
383.61	1055.58
383.80	1128.14
384.00	1067.28
384.19	1186.65
384.39	1071.97
384.58	1144.52
384.78	1142.18
384.97	1203.04
385.17	1149.20
385.36	1184.31
385.56	1125.80
385.75	1153.88
385.95	1254.53
386.14	1256.87
386.34	1203.04
386.53	1158.57
386.72	1280.27
386.92	1252.19
387.11	1198.35
387.31	1294.32
387.50	1217.08
387.70	1242.82
387.89	1287.29
388.09	1329.42
388.28	1357.51
388.48	1228.78
388.67	1284.95
388.86	1320.06
389.06	1364.53
389.25	1320.06
389.45	1362.19
389.64	1371.55
389.84	1373.89
390.03	1390.28
390.22	1371.55
390.42	1294.32
390.61	1394.96
390.81	1315.38
391.00	1453.47
391.19	1502.62
391.39	1369.21
391.58	1444.11
391.78	1437.09
391.97	1460.49
392.16	1530.71
392.36	1446.45
392.55	1535.39
392.75	1568.16
392.94	1423.05
393.13	1533.05
393.33	1497.94
393.52	1600.93
393.71	1533.05
393.91	1490.92
394.10	1575.18
394.29	1732.00
394.49	1638.38
394.68	1603.27
394.88	1666.46
395.07	1612.63
395.26	1633.69
395.46	1593.90
395.65	1757.74
395.84	1806.89
396.04	1834.98
396.23	1774.13
396.42	1748.38
396.62	1851.36
396.81	1809.23
397.00	1846.68
397.19	1865.41
397.39	1757.74
397.58	1839.66
397.77	1863.07
397.97	1837.32
398.16	1832.64
398.35	1933.28
398.55	1954.35
398.74	1886.47
398.93	2001.16
399.12	2015.20
399.32	1933.28
399.51	1914.56
399.70	2050.31
399.90	1970.73
400.09	1998.82
400.28	2054.99
400.47	2083.08
400.67	2108.82
400.86	2176.70
401.05	2106.48
401.24	2099.46
401.44	2141.59
401.63	2127.55
401.82	2200.10
402.01	2181.38
402.21	2263.30
402.40	2244.57
402.59	2307.77
402.78	2207.13
402.97	2169.68
403.17	2277.34
403.36	2228.19
403.55	2289.04
403.74	2406.07
403.93	2303.09
404.13	2436.50
404.32	2363.94
404.51	2359.26
404.70	2459.90
404.89	2392.03
405.09	2511.39
405.28	2534.80
405.47	2408.41
405.66	2530.12
405.85	2605.02
406.05	2455.22
406.24	2581.61
406.43	2574.59
406.62	2588.63
406.81	2628.42
407.00	2672.89
407.20	2661.19
407.39	2647.15
407.58	2679.91
407.77	2689.28
407.96	2806.30
408.15	2775.88
408.34	2752.47
408.54	2820.35
408.73	2782.90
408.92	2843.75
409.11	2970.14
409.30	2869.50
409.49	2857.79
409.68	2920.99
409.87	3061.42
410.07	2958.44
410.26	3105.89
410.45	2956.10
410.64	2925.67
410.83	3143.34
411.02	3194.83
411.21	3236.96
411.40	3206.53
411.59	3236.96
411.78	3178.45
411.98	3117.59
412.17	3318.88
412.36	3325.90
412.55	3459.31
412.74	3328.24
412.93	3473.36
413.12	3391.44
413.31	3492.08
413.50	3506.12
413.69	3522.51
413.88	3634.85
414.07	3637.19
414.26	3616.13
414.45	3712.09
414.64	3637.19
414.83	3700.39
415.02	3978.91
415.22	3894.65
415.41	3864.22
415.60	3885.29
415.79	3911.04
415.98	4124.02
416.17	4023.38
416.36	4079.55
416.55	4065.51
416.74	4011.68
416.93	4262.12
417.12	4159.13
417.31	4224.67
417.50	4189.56
417.69	4227.01
417.88	4264.46
418.07	4252.75
418.26	4500.85
418.45	4430.63
418.64	4482.13
418.83	4554.68
419.02	4566.39
419.21	4582.77
419.39	4599.15
419.58	4606.17
419.77	4463.40
419.96	4503.19
420.15	4615.54
420.34	4706.82
420.53	4753.63
420.72	4662.35
420.91	4674.05
421.10	4844.91
421.29	4772.35
421.48	4610.86
421.67	4793.42
421.86	4826.18
422.05	4922.15
422.24	4842.57
422.43	4936.19
422.61	4943.21
422.80	5076.62
422.99	4938.53
423.18	5015.77
423.37	5057.90
423.56	5060.24
423.75	4990.02
423.94	4828.53
424.13	4652.98
424.32	4868.31
424.50	4964.28
424.69	5207.69
424.88	5090.67
425.07	5041.51
425.26	5036.83
425.45	5130.45
425.64	4936.19
425.83	5097.69
426.01	5156.20
426.20	5163.22
426.39	5121.09
426.58	5205.35
426.77	5039.17
426.96	5233.44
427.15	4968.96
427.33	5252.16
427.52	5149.18
427.71	5317.70
427.90	5313.02
428.09	5439.40
428.28	5439.40
428.46	5455.79
428.65	5357.49
428.84	5472.17
429.03	5579.84
429.22	5483.88
429.40	5528.35
429.59	5448.77
429.78	5338.76
429.97	5294.29
430.16	5446.43
430.34	5703.89
430.53	5790.49
430.72	5834.96
430.91	5682.82
431.10	5626.65
431.28	5827.93
431.47	5895.81
431.66	5797.51
431.85	5788.14
432.03	6003.47
432.22	6111.14
432.41	5935.60
432.60	6197.74
432.79	5991.77
432.97	6073.69
433.16	6174.33
433.35	6080.71
433.54	6214.12
433.72	6296.04
433.91	6193.06
434.10	6246.89
434.28	6125.18
434.47	6293.70
434.66	6429.45
434.85	6328.81
435.03	6387.32
435.22	6422.43
435.41	6626.06
435.59	6429.45
435.78	6373.28
435.97	6504.35
436.16	6649.46
436.34	6527.75
436.53	6642.44
436.72	6750.10
436.90	6420.09
437.09	6422.43
437.28	6572.22
437.46	6572.22
437.65	6719.68
437.84	6780.53
438.02	6670.53
438.21	6951.39
438.40	6626.06
438.58	7033.31
438.77	7157.36
438.96	7105.87
439.14	7258.00
439.33	7265.02
439.52	7382.05
439.70	7300.13
439.89	7447.58
440.08	7368.01
440.26	7482.69
440.45	7276.73
440.63	7597.38
440.82	7693.34
441.01	7616.10
441.19	7744.83
441.38	7644.19
441.57	7784.62
441.75	7946.12
441.94	7934.42
442.12	7964.84
442.31	8102.93
442.50	8280.82
442.68	8135.70
442.87	8156.77
443.05	8313.58
443.24	8360.39
443.43	8131.02
443.61	8336.99
443.80	8346.35
443.98	8159.11
444.17	7843.14
444.35	8360.39
444.54	8535.93
444.73	8369.76
444.91	8360.39
445.10	8510.19
445.28	8238.69
445.47	8215.28
445.65	8449.33
445.84	8404.86
446.02	8613.17
446.21	8435.29
446.39	8517.21
446.58	8709.13
446.77	8704.45
446.95	8388.48
447.14	8568.70
447.32	8777.01
447.51	8454.02
447.69	8695.09
447.88	8477.42
448.06	8578.06
448.25	8641.26
448.43	8758.28
448.62	8608.49
448.80	8608.49
448.99	8573.38
449.17	8725.52
449.36	8599.13
449.54	8648.28
449.73	8971.27
449.91	9123.41
450.10	9074.26
450.28	9348.10
450.46	9048.51
450.65	9139.79
450.83	9011.06
451.02	8961.91
451.20	9179.58
451.39	9256.82
451.57	9301.29
451.76	9224.05
451.94	9181.92
452.13	9511.94
452.31	9364.48
452.49	9170.22
452.68	9427.68
452.86	9570.45
453.05	9799.82
453.23	9544.70
453.42	9411.29
453.60	9350.44
453.78	9483.85
453.97	9551.73
454.15	9647.69
454.34	9596.20
454.52	9874.72
454.70	9781.10
454.89	9689.82
455.07	9991.75
455.26	9881.74
455.44	10022.17
455.62	10017.49
455.81	10244.52
455.99	10319.42
456.17	10188.35
456.36	10202.40
456.54	10321.76
456.73	10457.51
456.91	10714.97
457.09	10452.83
457.28	10661.14
457.46	10237.50
457.64	10637.73
457.83	10459.85
458.01	10569.86
458.19	10857.75
458.38	10656.46
458.56	10827.32
458.74	10965.41
458.93	10757.10
459.11	10754.76
459.29	10853.06
459.48	10721.99
459.66	10677.52
459.84	11084.78
460.03	11140.95
460.21	11094.14
460.39	11290.74
460.57	11026.26
460.76	11445.22
460.94	11180.74
461.12	11435.86
461.31	11183.08
461.49	11449.90
461.67	11389.05
461.85	11499.05
462.04	11405.43
462.22	11740.13
462.40	11609.06
462.59	11456.92
462.77	11470.97
462.95	11688.64
463.13	11983.54
463.32	11562.25
463.50	11698.00
463.68	12074.82
463.86	11899.28
464.05	11805.66
464.23	11751.83
464.41	11934.39
464.59	11833.75
464.78	12262.07
464.96	12154.40
465.14	12004.61
465.32	12285.47
465.50	12318.24
465.69	12409.52
465.87	12423.56
466.05	12241.00
466.23	12238.66
466.41	12318.24
466.60	12741.88
466.78	12411.86
466.96	12493.78
467.14	12390.80
467.32	12603.78
467.51	12552.29
467.69	12320.58
467.87	12627.19
468.05	12638.89
468.23	12671.66
468.41	12648.26
468.60	12786.35
468.78	12933.80
468.96	12737.20
469.14	12734.85
469.32	12987.63
469.50	12868.27
469.69	13008.70
469.87	13259.13
470.05	13448.72
470.23	13453.40
470.41	13558.72
470.59	13205.30
470.77	13378.50
470.95	13291.90
471.14	13654.69
471.32	13441.70
471.50	13708.52
471.68	13731.92
471.86	14078.32
472.04	13858.31
472.22	14092.37
472.40	13774.05
472.58	14068.96
472.77	14251.52
472.95	14434.08
473.13	14656.43
473.31	14352.16
473.49	14150.88
473.67	14487.92
473.85	14518.34
474.03	14679.84
474.21	14876.44
474.39	15007.52
474.57	14700.90
474.75	15070.71
474.93	15124.54
475.12	15246.25
475.30	15218.16
475.48	15382.00
475.66	15531.80
475.84	15267.31
476.02	15625.42
476.20	15641.80
476.38	15838.41
476.56	16311.19
476.74	16098.20
476.92	15719.04
477.10	15899.26
477.28	16648.23
477.46	16430.56
477.64	16507.80
477.82	16704.40
478.00	17181.87
478.18	16847.18
478.36	17071.87
478.54	17483.80
478.72	17383.16
478.90	17582.10
479.08	17776.37
479.26	17919.14
479.44	18001.06
479.62	17958.93
479.80	18237.45
479.98	18401.29
480.16	18656.41
480.34	18541.72
480.52	18686.84
480.70	19005.15
480.88	18714.92
481.06	18869.40
481.24	19061.32
481.41	19288.35
481.59	19826.68
481.77	19859.45
481.95	19861.79
482.13	20170.74
482.31	20013.92
482.49	20395.43
482.67	20463.30
482.85	20809.70
483.03	21137.38
483.21	20933.75
483.39	21336.32
483.57	21172.49
483.74	21528.25
483.92	21584.42
484.10	21759.96
484.28	22031.46
484.46	22277.22
484.64	22707.88
484.82	22125.08
485.00	22658.73
485.18	23007.47
485.35	23250.88
485.53	23314.08
485.71	23271.95
485.89	23803.25
486.07	23749.42
486.25	23957.72
486.43	23812.61
486.61	24070.07
486.78	24187.10
486.96	24690.31
487.14	24926.71
487.32	25034.37
487.50	25296.51
487.68	25448.64
487.85	25502.48
488.03	25624.18
488.21	25916.75
488.39	26242.09
488.57	26312.30
488.75	26394.22
488.92	26782.75
489.10	27325.75
489.28	27037.87
489.46	27115.11
489.64	27054.25
489.81	28037.28
489.99	27910.89
490.17	28388.36
490.35	28357.93
490.53	28666.88
490.70	28982.85
490.88	28505.38
491.06	29053.07
491.24	29411.17
491.41	29516.50
491.59	29666.29
491.77	29537.56
491.95	30015.03
492.13	30279.51
492.30	30333.34
492.48	30398.88
492.66	30473.78
492.84	31033.16
493.01	31126.78
493.19	31171.25
493.37	31524.68
493.54	31494.25
493.72	31662.77
493.90	32051.30
494.08	32275.99
494.25	32451.53
494.43	32404.72
494.61	32975.81
494.79	33048.36
494.96	33074.11
495.14	33263.69
495.32	33483.70
495.49	33654.56
495.67	33610.09
495.85	33905.00
496.02	34263.10
496.20	34419.92
496.38	34480.77
496.55	34265.44
496.73	34998.03
496.91	34911.43
497.09	35463.80
497.26	35395.92
497.44	35248.47
497.62	35639.34
497.79	36378.95
497.97	35676.79
498.14	36079.36
498.32	36772.16
498.50	36364.90
498.67	37053.02
498.85	36877.48
499.03	36793.22
499.20	37322.18
499.38	37165.37
499.56	37301.12
499.73	38085.20
499.91	37869.87
500.08	37888.59
500.26	37771.57
500.44	38234.99
500.61	38078.18
500.79	38192.86
500.97	38548.62
501.14	39213.34
501.32	38799.06
501.49	38770.97
501.67	38923.11
501.84	39423.98
502.02	39306.96
502.20	39599.52
502.37	39508.24
502.55	39295.25
502.72	39997.41
502.90	40002.10
503.07	39831.24
503.25	40793.20
503.43	40306.37
503.60	40767.45
503.78	40732.34
503.95	40989.80
504.13	40715.96
504.30	40832.99
504.48	40636.38
504.65	41043.63
504.83	41979.85
505.01	42354.33
505.18	41640.47
505.36	42429.23
505.53	41701.32
505.71	41904.95
505.88	42328.59
506.06	42389.44
506.23	42323.91
506.41	42124.96
506.58	42567.32
506.76	42923.08
506.93	43079.90
507.11	43037.77
507.28	42923.08
507.46	43129.05
507.63	43494.18
507.81	43789.08
507.98	43206.29
508.16	43512.90
508.33	43761.00
508.50	44053.56
508.68	43999.73
508.85	44470.18
509.03	44484.22
509.20	44821.26
509.38	44531.03
509.55	44332.09
509.73	44945.31
509.90	45521.08
510.08	44861.05
510.25	45078.72
510.42	45139.57
510.60	45345.54
510.77	45741.09
510.95	45958.76
511.12	45872.16
511.30	45382.99
511.47	46124.94
511.64	46019.61
511.82	46330.90
511.99	46389.42
512.17	46740.50
512.34	46461.97
512.51	46883.27
512.69	46887.95
512.86	46749.86
513.04	47248.39
513.21	46953.49
513.38	47276.48
513.56	47482.45
513.73	47323.29
513.90	47480.11
514.08	47505.85
514.25	47828.85
514.43	48215.04
514.60	47955.24
514.77	47725.86
514.95	48390.58
515.12	48027.79
515.29	48051.20
515.47	48554.41
515.64	48739.32
515.81	48523.99
515.99	48729.95
516.16	49031.88
516.33	49153.59
516.51	49214.44
516.68	48947.62
516.85	48596.54
517.03	48994.43
517.20	49710.64
517.37	49069.33
517.54	49602.97
517.72	49389.98
517.89	49675.53
518.06	49947.03
518.24	49696.59
518.41	49951.71
518.58	49460.20
518.75	49804.26
518.93	50417.48
519.10	49670.85
519.27	50323.86
519.45	50197.47
519.62	50499.40
519.79	50286.41
519.96	50342.58
520.14	50693.66
520.31	50705.37
520.48	50745.15
520.65	50590.68
520.83	51014.32
521.00	50766.22
521.17	51154.75
521.34	50953.46
521.52	51416.89
521.69	51388.80
521.86	51629.88
522.03	51632.22
522.20	51929.47
522.38	51882.66
522.55	51934.15
522.72	51739.88
522.89	51835.84
523.07	52465.45
523.24	52002.02
523.41	52257.14
523.58	51971.60
523.75	52280.55
523.92	52357.78
524.10	52348.42
524.27	52437.36
524.44	52444.38
524.61	52713.55
524.78	52484.17
524.96	52374.17
525.13	52664.39
525.30	52783.76
525.47	53010.79
525.64	52875.04
525.81	53181.65
525.98	53092.71
526.16	52718.23
526.33	52989.73
526.50	53542.10
526.67	53045.90
526.84	53188.67
527.01	53495.28
527.18	53387.62
527.36	53282.30
527.53	53490.60
527.70	53893.18
527.87	53551.46
528.04	53701.25
528.21	53773.81
528.38	53588.91
528.55	53982.12
528.72	53904.88
528.89	53766.79
529.07	53666.14
529.24	53778.49
529.41	54099.14
529.58	54049.99
529.75	53930.62
529.92	54103.82
530.09	54241.92
530.26	54192.76
530.43	54314.47
530.60	54110.85
530.77	54019.56
530.94	54681.94
531.11	54375.33
531.28	54281.70
531.46	54621.08
531.63	54698.32
531.80	54588.31
531.97	54635.13
532.14	54965.14
532.31	54850.45
532.48	55192.17
532.65	54862.16
532.82	55002.59
532.99	55302.18
533.16	55016.63
533.33	55201.53
533.50	55269.41
533.67	55330.26
533.84	55229.62
534.01	55351.33
534.18	55236.64
534.35	55730.50
534.52	55337.29
534.69	55796.03
534.86	55627.51
535.03	55503.46
535.20	55606.45
535.37	55451.97
535.54	55868.59
535.71	55770.28
535.88	55863.91
536.05	55842.84
536.22	56179.88
536.38	55774.97
536.55	55971.57
536.72	55943.48
536.89	55798.37
537.06	56058.17
537.23	55868.59
537.40	55789.01
537.57	56154.13
537.74	56151.79
537.91	56371.80
538.08	56231.37
538.25	56193.92
538.42	56432.66
538.59	56430.32
538.75	56168.18
538.92	56383.51
539.09	56547.34
539.26	56580.11
539.43	56629.26
539.60	56500.53
539.77	56451.38
539.94	56647.99
540.11	56734.59
540.28	56839.91
540.44	56877.36
540.61	56750.97
540.78	56760.33
540.95	56816.50
541.12	56823.53
541.29	56935.87
541.46	56814.16
541.62	57088.01
541.79	56851.61
541.96	56856.29
542.13	56905.44
542.30	56868.00
542.47	57301.00
542.63	57207.37
542.80	57268.23
542.97	57485.90
543.14	57413.34
543.31	57392.28
543.48	57492.92
543.64	57797.19
543.81	57588.88
543.98	57642.71
544.15	57516.32
544.32	57684.84
544.48	58042.95
544.65	57722.29
544.82	57851.02
544.99	57558.45
545.16	57804.21
545.32	57567.82
545.49	58049.97
545.66	58003.16
545.83	57869.75
546.00	58007.84
546.16	57916.56
546.33	57954.00
546.50	57773.78
546.67	58234.87
546.83	57785.49
547.00	58227.85
547.17	58054.65
547.34	58117.84
547.50	58218.49
547.67	58497.01
547.84	58344.87
548.00	58590.63
548.17	58262.96
548.34	58440.84
548.51	58742.77
548.67	58447.86
548.84	58466.58
549.01	58239.55
549.18	58653.82
549.34	58590.63
549.51	58642.12
549.68	58798.94
549.84	58693.61
550.01	58754.47
550.18	58602.33
550.34	58700.64
550.51	58738.08
550.68	58585.95
550.84	58827.02
551.01	59124.27
551.18	58782.55
551.34	58859.79
551.51	58651.48
551.68	58918.31
551.84	58930.01
552.01	58824.68
552.18	59051.72
552.34	58969.80
552.51	59072.78
552.68	58904.26
552.84	58695.95
553.01	59185.13
553.18	59185.13
553.34	59299.81
553.51	59049.38
553.67	59372.37
553.84	59105.55
554.01	59220.23
554.17	59402.80
554.34	59206.19
554.51	59412.16
554.67	59304.49
554.84	59327.90
555.00	59269.39
555.17	59276.41
555.33	59327.90
555.50	59320.88
555.67	59250.66
555.83	59341.94
556.00	59561.95
556.16	59627.49
556.33	59688.34
556.50	59714.09
556.66	59618.13
556.83	59531.53
556.99	59760.90
557.16	59861.54
557.32	59674.30
557.49	59887.29
557.65	59629.83
557.82	59613.44
557.98	59758.56
558.15	59512.80
558.32	59615.79
558.48	59599.40
558.65	59632.17
558.81	59594.72
558.98	59852.18
559.14	59845.16
559.31	60121.34
559.47	59756.22
559.64	59971.55
559.80	60184.54
559.97	60039.42
560.13	59861.54
560.30	60172.83
560.46	60060.49
560.63	60039.42
560.79	60226.66
560.96	60200.92
561.12	60334.33
561.29	60252.41
561.45	60198.58
561.61	60133.04
561.78	60097.94
561.94	60217.30
562.11	60058.15
562.27	60090.91
562.44	60090.91
562.60	60324.97
562.77	60383.48
562.93	60226.66
563.10	60362.42
563.26	60378.80
563.42	60320.29
563.59	60205.60
563.75	60147.09
563.92	60369.44
564.08	60210.28
564.24	60734.56
564.41	60463.06
564.57	60563.70
564.74	60292.20
564.90	60453.70
565.07	60261.77
565.23	60327.31
565.39	60423.27
565.56	60395.18
565.72	60350.71
565.88	60449.02
566.05	60533.28
566.21	60425.61
566.38	60547.32
566.54	60608.17
566.70	60793.07
566.87	60601.15
567.03	60399.86
567.19	60711.16
567.36	60657.32
567.52	60519.23
567.68	60823.50
567.85	60767.33
568.01	60647.96
568.17	60706.47
568.34	60846.91
568.50	60615.19
568.66	60718.18
568.83	60601.15
568.99	60631.58
569.15	60741.58
569.32	60767.33
569.48	60814.14
569.64	60802.44
569.81	60727.54
569.97	60809.46
570.13	60678.39
570.30	60725.20
570.46	60860.95
570.62	60987.34
570.78	60858.61
570.95	60823.50
571.11	60849.25
571.27	60844.57
571.43	60898.40
571.60	60849.25
571.76	60760.31
571.92	60949.89
572.09	60917.12
572.25	61006.06
572.41	60795.42
572.57	60825.84
572.74	60879.67
572.90	60999.04
573.06	60977.98
573.22	60896.06
573.38	60884.36
573.55	61064.58
573.71	60968.61
573.87	60977.98
574.03	60837.54
574.20	61055.21
574.36	61034.15
574.52	60966.27
574.68	61017.77
574.84	61111.39
575.01	61193.31
575.17	60996.70
575.33	61071.60
575.49	60945.21
575.65	61052.87
575.82	61165.22
575.98	61130.11
576.14	61305.65
576.30	61137.13
576.46	61085.64
576.62	60999.04
576.79	61106.71
576.95	60980.32
577.11	61109.05
577.27	61003.72
577.43	61155.86
577.59	60999.04
577.75	61113.73
577.92	60921.80
578.08	61006.06
578.24	61038.83
578.40	61172.24
578.56	61200.33
578.72	61214.37
578.88	61357.14
579.04	61172.24
579.21	61127.77
579.37	61151.18
579.53	61343.10
579.69	61127.77
579.85	61148.84
580.01	61190.97
580.17	61008.40
580.33	61085.64
580.49	61340.76
580.65	61069.26
580.82	60938.19
580.98	61029.47
581.14	61141.81
581.30	61289.27
581.46	61183.94
581.62	61249.48
581.78	61272.88
581.94	61160.54
582.10	61188.63
582.26	61205.01
582.42	61237.78
582.58	61427.36
582.74	61221.39
582.90	61141.81
583.06	61230.75
583.22	61179.26
583.38	61446.08
583.54	61499.92
583.70	61307.99
583.86	61375.87
584.02	61298.63
584.18	61153.52
584.34	61228.41
584.50	61375.87
584.66	61139.47
584.82	61029.47
584.98	61364.17
585.14	61509.28
585.30	61258.84
585.46	61371.19
585.62	61350.12
585.78	61471.83
585.94	61205.01
586.10	61188.63
586.26	61310.33
586.42	61415.66
586.58	61277.57
586.74	61226.07
586.90	61375.87
587.06	61137.13
587.22	61614.60
587.38	61272.88
587.54	61584.18
587.70	61434.38
587.86	61368.85
588.02	61460.13
588.18	61415.66
588.34	61165.22
