SpectraSuite Data File
++++++++++++++++++++++++++++++++++++
Date: Fri Oct 25 11:22:47 EDT 2013
User: price-jones
Dark Spectrum Present: No
Reference Spectrum Present: No
Number of Sampled Component Spectra: 1
Spectrometers: USB2+H05261
Integration Time (usec): 100000 (USB2+H05261)
Spectra Averaged: 1 (USB2+H05261)
Boxcar Smoothing: 0 (USB2+H05261)
Correct for Electrical Dark: No (USB2+H05261)
Strobe/Lamp Enabled: No (USB2+H05261)
Correct for Detector Non-linearity: No (USB2+H05261)
Correct for Stray Light: No (USB2+H05261)
Number of Pixels in Processed Spectrum: 2048
>>>>>Begin Processed Spectral Data<<<<<
365.73	224.69
365.92	224.69
366.12	224.69
366.32	147.45
366.52	205.97
366.72	191.92
366.91	173.20
367.11	177.88
367.31	105.32
367.51	98.30
367.70	107.66
367.90	100.64
368.10	159.16
368.30	79.58
368.49	124.05
368.69	121.71
368.89	161.50
369.09	187.24
369.28	114.69
369.48	72.56
369.68	152.13
369.87	131.07
370.07	212.99
370.27	196.60
370.47	315.97
370.66	603.86
370.86	547.69
371.06	617.90
371.25	725.57
371.45	629.60
371.65	718.54
371.84	671.73
372.04	638.97
372.24	671.73
372.44	716.20
372.63	777.06
372.83	725.57
373.03	697.48
373.22	763.01
373.42	744.29
373.62	793.44
373.81	760.67
374.01	812.17
374.21	760.67
374.40	851.96
374.60	807.48
374.79	753.65
374.99	880.04
375.19	830.89
375.38	901.11
375.58	840.25
375.78	844.93
375.97	940.90
376.17	847.27
376.37	894.08
376.56	861.32
376.76	870.68
376.95	905.79
377.15	952.60
377.35	896.43
377.54	849.61
377.74	952.60
377.93	856.64
378.13	938.55
378.33	961.96
378.52	856.64
378.72	844.93
378.91	950.26
379.11	870.68
379.31	1001.75
379.50	861.32
379.70	992.39
379.89	994.73
380.09	1006.43
380.28	868.34
380.48	1004.09
380.68	983.02
380.87	957.28
381.07	947.92
381.26	1008.77
381.46	1001.75
381.65	1034.52
381.85	1167.93
382.04	1008.77
382.24	1107.07
382.43	1041.54
382.63	1057.92
382.83	1036.86
383.02	1062.60
383.22	1064.94
383.41	1041.54
383.61	1095.37
383.80	1151.54
384.00	1081.33
384.19	1050.90
384.39	1153.88
384.58	1158.57
384.78	1158.57
384.97	1118.78
385.17	1294.32
385.36	1207.72
385.56	1160.91
385.75	1146.86
385.95	1219.42
386.14	1226.44
386.34	1198.35
386.53	1174.95
386.72	1247.51
386.92	1338.79
387.11	1240.48
387.31	1263.89
387.50	1254.53
387.70	1254.53
387.89	1217.08
388.09	1301.34
388.28	1280.27
388.48	1235.80
388.67	1214.74
388.86	1289.64
389.06	1404.32
389.25	1376.24
389.45	1280.27
389.64	1338.79
389.84	1427.73
390.03	1383.26
390.22	1317.72
390.42	1385.60
390.61	1329.42
390.81	1348.15
391.00	1385.60
391.19	1390.28
391.39	1338.79
391.58	1458.15
391.78	1369.21
391.97	1439.43
392.16	1444.11
392.36	1523.69
392.55	1551.78
392.75	1486.24
392.94	1589.22
393.13	1584.54
393.33	1540.07
393.52	1519.01
393.71	1593.90
393.91	1561.14
394.10	1657.10
394.29	1659.44
394.49	1629.01
394.68	1647.74
394.88	1657.10
395.07	1678.16
395.26	1565.82
395.46	1675.82
395.65	1750.72
395.84	1715.61
396.04	1666.46
396.23	1788.17
396.42	1668.80
396.62	1778.81
396.81	1797.53
397.00	1715.61
397.19	1820.94
397.39	1753.06
397.58	1795.19
397.77	1870.09
397.97	1832.64
398.16	1860.73
398.35	1921.58
398.55	1860.73
398.74	1802.21
398.93	1975.41
399.12	1877.11
399.32	1914.56
399.51	1879.45
399.70	1975.41
399.90	1989.46
400.09	2003.50
400.28	1998.82
400.47	1994.14
400.67	2214.15
400.86	2153.29
401.05	2099.46
401.24	2106.48
401.44	2017.54
401.63	2155.63
401.82	2167.34
402.01	2165.00
402.21	2167.34
402.40	2218.83
402.59	2209.47
402.78	2200.10
402.97	2253.94
403.17	2319.47
403.36	2331.17
403.55	2324.15
403.74	2335.85
403.93	2436.50
404.13	2342.88
404.32	2324.15
404.51	2401.39
404.70	2389.69
404.89	2319.47
405.09	2495.01
405.28	2509.05
405.47	2476.29
405.66	2537.14
405.85	2705.66
406.05	2525.44
406.24	2569.91
406.43	2520.76
406.62	2555.86
406.81	2745.45
407.00	2565.23
407.20	2609.70
407.39	2693.96
407.58	2724.38
407.77	2787.58
407.96	2722.04
408.15	2803.96
408.34	2656.51
408.54	2761.83
408.73	2775.88
408.92	2970.14
409.11	2998.23
409.30	2855.45
409.49	3002.91
409.68	2977.16
409.87	2932.69
410.07	2993.55
410.26	3000.57
410.45	3016.95
410.64	2981.84
410.83	3119.93
411.02	2979.50
411.21	3117.59
411.40	3133.98
411.59	3187.81
411.78	3173.77
411.98	3248.66
412.17	3251.00
412.36	3316.54
412.55	3375.05
412.74	3468.67
412.93	3428.88
413.12	3478.04
413.31	3534.21
413.50	3499.10
413.69	3529.53
413.88	3590.38
414.07	3786.99
414.26	3604.42
414.45	3695.71
414.64	3691.02
414.83	3660.60
415.02	3929.76
415.22	3911.04
415.41	3911.04
415.60	3896.99
415.79	3936.78
415.98	3878.27
416.17	3997.64
416.36	3999.98
416.55	4032.74
416.74	4079.55
416.93	4009.34
417.12	4079.55
417.31	4133.39
417.50	4388.50
417.69	4334.67
417.88	4304.25
418.07	4238.71
418.26	4393.19
418.45	4252.75
418.64	4432.97
418.83	4353.40
419.02	4432.97
419.21	4461.06
419.39	4554.68
419.58	4660.01
419.77	4496.17
419.96	4667.03
420.15	4594.47
420.34	4568.73
420.53	4655.33
420.72	4695.11
420.91	4772.35
421.10	4622.56
421.29	4947.89
421.48	4704.48
421.67	4681.07
421.86	4980.66
422.05	4741.93
422.24	4762.99
422.43	4922.15
422.61	4950.23
422.80	5011.09
422.99	4980.66
423.18	4882.36
423.37	5100.03
423.56	4978.32
423.75	4943.21
423.94	4868.31
424.13	4606.17
424.32	4779.37
424.50	5165.56
424.69	5132.79
424.88	5167.90
425.07	5107.05
425.26	5027.47
425.45	5076.62
425.64	4873.00
425.83	5118.75
426.01	5256.84
426.20	5114.07
426.39	5048.54
426.58	5006.41
426.77	5114.07
426.96	5219.39
427.15	5198.33
427.33	5160.88
427.52	5298.97
427.71	5401.96
427.90	5207.69
428.09	5434.72
428.28	5329.40
428.46	5526.00
428.65	5280.25
428.84	5509.62
429.03	5490.90
429.22	5352.81
429.40	5444.09
429.59	5394.93
429.78	5135.14
429.97	5266.21
430.16	5556.43
430.34	5640.69
430.53	5792.83
430.72	5762.40
430.91	5729.63
431.10	5650.05
431.28	5774.10
431.47	5795.17
431.66	6099.44
431.85	5708.57
432.03	5825.59
432.22	6071.35
432.41	6090.07
432.60	5905.17
432.79	6052.63
432.97	6106.46
433.16	5881.77
433.35	6108.80
433.54	6094.76
433.72	6239.87
433.91	6101.78
434.10	6263.27
434.28	6214.12
434.47	6139.23
434.66	6200.08
434.85	6338.17
435.03	6380.30
435.22	6328.81
435.41	6668.19
435.59	6216.46
435.78	6462.22
435.97	6560.52
436.16	6574.56
436.34	6473.92
436.53	6534.78
436.72	6789.89
436.90	6586.27
437.09	6729.04
437.28	6448.18
437.46	6752.45
437.65	6724.36
437.84	6834.36
438.02	6801.60
438.21	6841.39
438.40	6668.19
438.58	7037.99
438.77	7094.16
438.96	7012.24
439.14	7180.76
439.33	7250.98
439.52	7279.07
439.70	7389.07
439.89	7311.83
440.08	7400.77
440.26	7494.40
440.45	7384.39
440.63	7499.08
440.82	7475.67
441.01	7470.99
441.19	7688.66
441.38	7740.15
441.57	7618.44
441.75	7864.20
441.94	7810.37
442.12	8114.64
442.31	8105.28
442.50	8201.24
442.68	8152.09
442.87	8135.70
443.05	8149.75
443.24	8161.45
443.43	8243.37
443.61	8044.42
443.80	8358.05
443.98	8023.36
444.17	7672.28
444.35	8245.71
444.54	8285.50
444.73	8484.44
444.91	8285.50
445.10	8442.31
445.28	8470.40
445.47	8414.23
445.65	8341.67
445.84	8587.43
446.02	8638.92
446.21	8535.93
446.39	8390.82
446.58	8592.11
446.77	8723.18
446.95	8498.49
447.14	8465.72
447.32	8662.32
447.51	8631.90
447.69	8510.19
447.88	8496.14
448.06	8748.92
448.25	8638.92
448.43	8491.46
448.62	8755.94
448.80	8753.60
448.99	8795.73
449.17	8884.67
449.36	8697.43
449.54	8924.46
449.73	8901.06
449.91	9100.00
450.10	9008.72
450.28	9142.13
450.46	9139.79
450.65	9205.33
450.83	9025.11
451.02	9123.41
451.20	9207.67
451.39	9210.01
451.57	9202.99
451.76	9102.34
451.94	9329.38
452.13	9160.86
452.31	9343.42
452.49	9151.49
452.68	9327.03
452.86	9439.38
453.05	9369.16
453.23	9474.49
453.42	9528.32
453.60	9341.08
453.78	9600.88
453.97	9593.86
454.15	9610.24
454.34	9563.43
454.52	9802.16
454.70	9797.48
454.89	9577.47
455.07	9762.37
455.26	9884.08
455.44	10008.13
455.62	9930.89
455.81	9935.57
455.99	9987.07
456.17	9989.41
456.36	10211.76
456.54	10249.21
456.73	10246.87
456.91	10448.15
457.09	10427.09
457.28	10574.54
457.46	10239.84
457.64	10487.94
457.83	10668.16
458.01	10363.89
458.19	10707.95
458.38	10551.14
458.56	10679.86
458.74	10759.44
458.93	10689.23
459.11	10834.34
459.29	10782.85
459.48	11023.92
459.66	10869.45
459.84	11101.16
460.03	11136.27
460.21	10787.53
460.39	11208.83
460.57	10956.05
460.76	11052.01
460.94	11138.61
461.12	11208.83
461.31	11414.79
461.49	11173.72
461.67	11346.92
461.85	11550.54
462.04	11442.88
462.22	12039.72
462.40	11761.19
462.59	11578.63
462.77	11398.41
462.95	11695.66
463.13	11756.51
463.32	11709.70
463.50	11730.76
463.68	11702.68
463.86	11698.00
464.05	11831.41
464.23	11721.40
464.41	12025.67
464.59	11810.34
464.78	12264.41
464.96	12044.40
465.14	11885.24
465.32	12056.10
465.50	12140.36
465.69	12273.77
465.87	12086.53
466.05	12086.53
466.23	12114.61
466.41	12395.48
466.60	12308.88
466.78	12336.96
466.96	12315.90
467.14	12381.43
467.32	12517.18
467.51	12449.31
467.69	12255.04
467.87	12456.33
468.05	12575.70
468.23	12372.07
468.41	12498.46
468.60	12568.68
468.78	12713.79
468.96	12695.07
469.14	12774.64
469.32	13195.94
469.50	12863.58
469.69	13083.59
469.87	13181.90
470.05	13109.34
470.23	13050.83
470.41	13137.43
470.59	13205.30
470.77	13415.95
470.95	13460.42
471.14	13544.68
471.32	13364.46
471.50	13687.45
471.68	13729.58
471.86	13788.10
472.04	13774.05
472.22	13914.48
472.40	13635.96
472.58	13837.25
472.77	14031.51
472.95	14349.82
473.13	14710.27
473.31	14071.30
473.49	14286.63
473.67	14312.38
473.85	14305.35
474.03	14682.18
474.21	14633.03
474.39	15005.17
474.57	14764.10
474.75	15059.01
474.93	15157.31
475.12	15183.06
475.30	15248.59
475.48	14981.77
475.66	15192.42
475.84	15220.50
476.02	15239.23
476.20	15501.37
476.38	15580.95
476.56	16116.93
476.74	16128.63
476.92	16018.63
477.10	15896.92
477.28	15929.69
477.46	16222.25
477.64	16358.00
477.82	16699.72
478.00	17289.54
478.18	16781.64
478.36	17053.14
478.54	17188.89
478.72	17121.02
478.90	17481.46
479.08	17544.66
479.26	17570.40
479.44	17710.83
479.62	17914.46
479.80	18286.61
479.98	17980.00
480.16	18628.32
480.34	18314.69
480.52	18677.48
480.70	18665.77
480.88	18452.78
481.06	18792.16
481.24	18995.79
481.41	19246.23
481.59	19489.64
481.77	19836.04
481.95	19875.83
482.13	19950.73
482.31	19960.09
482.49	20346.28
482.67	20198.82
482.85	20397.77
483.03	20538.20
483.21	20683.31
483.39	21165.46
483.57	20767.57
483.74	21207.59
483.92	21378.45
484.10	21341.00
484.28	21666.34
484.46	22061.89
484.64	22235.09
484.82	21858.26
485.00	22494.89
485.18	23033.21
485.35	22789.80
485.53	22979.38
485.71	23197.05
485.89	23852.40
486.07	23639.41
486.25	23608.98
486.43	23721.33
486.61	23885.17
486.78	24332.21
486.96	24390.72
487.14	24360.30
487.32	24741.80
487.50	24903.30
487.68	25277.79
487.85	25394.81
488.03	25923.77
488.21	25633.55
488.39	26087.61
488.57	25933.14
488.75	26485.50
488.92	26326.35
489.10	26897.44
489.28	27328.10
489.46	26874.03
489.64	27381.93
489.81	27725.99
489.99	28123.88
490.17	27786.84
490.35	28184.73
490.53	28046.64
490.70	28547.51
490.88	28526.45
491.06	28765.18
491.24	29132.65
491.41	29134.99
491.59	29301.17
491.77	29476.71
491.95	29715.44
492.13	29776.30
492.30	30113.33
492.48	30010.35
492.66	30583.78
492.84	30185.89
493.01	30637.61
493.19	30806.13
493.37	31028.48
493.54	31536.38
493.72	31985.76
493.90	31889.80
494.08	31814.90
494.25	32364.93
494.43	31962.36
494.61	32367.27
494.79	32425.78
494.96	33116.24
495.14	32931.34
495.32	33329.23
495.49	33277.74
495.67	33303.48
495.85	33586.69
496.02	33773.93
496.20	33970.54
496.38	34141.39
496.55	34256.08
496.73	35419.33
496.91	34885.68
497.09	35065.91
497.26	35290.60
497.44	34988.67
497.62	35377.20
497.79	35681.47
497.97	35807.86
498.14	36320.43
498.32	36503.00
498.50	36591.94
498.67	36821.31
498.85	36992.17
499.03	37097.49
499.20	36804.92
499.38	36655.13
499.56	37460.27
499.73	37130.26
499.91	37486.02
500.08	38099.24
500.26	37989.24
500.44	37834.76
500.61	38073.49
500.79	38239.67
500.97	38550.96
501.14	38824.81
501.32	38899.70
501.49	38684.37
501.67	39232.06
501.84	39112.69
502.02	39367.81
502.20	39484.84
502.37	39056.52
502.55	39543.35
502.72	39800.81
502.90	39754.00
503.07	39934.22
503.25	40065.29
503.43	40055.93
503.60	40498.29
503.78	40758.09
503.95	40837.67
504.13	40706.60
504.30	40727.66
504.48	40825.96
504.65	40737.02
504.83	41429.82
505.01	41542.17
505.18	41551.53
505.36	41750.48
505.53	41385.35
505.71	41811.33
505.88	41921.34
506.06	41694.30
506.23	42312.20
506.41	42143.69
506.58	42218.58
506.76	42209.22
506.93	42710.10
507.11	42309.86
507.28	42387.10
507.46	42754.57
507.63	43290.55
507.81	43531.62
507.98	42834.14
508.16	43372.47
508.33	43482.47
508.50	43966.96
508.68	44168.25
508.85	44058.24
509.03	43749.29
509.20	44395.28
509.38	44727.64
509.55	44304.00
509.73	44769.77
509.90	44971.05
510.08	44666.78
510.25	44877.43
510.42	45052.97
510.60	45113.83
510.77	45446.18
510.95	45937.69
511.12	45502.35
511.30	45249.58
511.47	45406.39
511.64	45492.99
511.82	46246.65
511.99	45474.27
512.17	45820.67
512.34	45979.82
512.51	46782.63
512.69	46717.09
512.86	46672.62
513.04	46967.53
513.21	46689.01
513.38	47203.92
513.56	46808.37
513.73	47065.83
513.90	47246.05
514.08	46967.53
514.25	47585.43
514.43	47861.61
514.60	47810.12
514.77	47562.03
514.95	47990.34
515.12	48128.44
515.29	47934.17
515.47	47842.89
515.64	48074.60
515.81	48158.86
515.99	48381.21
516.16	48650.38
516.33	48708.89
516.51	48727.61
516.68	49109.12
516.85	48680.80
517.03	48713.57
517.20	49270.62
517.37	49251.89
517.54	48783.79
517.72	48959.33
517.89	49242.53
518.06	49160.61
518.24	49226.15
518.41	49542.12
518.58	49598.29
518.75	49420.41
518.93	49483.61
519.10	49773.83
519.27	49727.02
519.45	49907.24
519.62	50246.62
519.79	50377.69
519.96	50370.67
520.14	50284.07
520.31	50361.31
520.48	50475.99
520.65	50277.05
520.83	50768.56
521.00	50918.35
521.17	50705.37
521.34	50714.73
521.52	51086.87
521.69	51061.13
521.86	51126.66
522.03	51316.25
522.20	51374.76
522.38	51522.21
522.55	51686.05
522.72	51398.16
522.89	51819.46
523.07	51985.64
523.24	51721.16
523.41	52006.70
523.58	51704.77
523.75	52247.78
523.92	51995.00
524.10	52268.84
524.27	52060.54
524.44	52275.87
524.61	52161.18
524.78	52383.53
524.96	52432.68
525.13	52439.70
525.30	52479.49
525.47	52708.86
525.64	52633.97
525.81	52825.89
525.98	53036.54
526.16	52980.37
526.33	52753.33
526.50	53069.31
526.67	52882.06
526.84	53144.20
527.01	52851.64
527.18	53139.52
527.36	53207.40
527.53	53441.45
527.70	53696.57
527.87	53464.86
528.04	53305.70
528.21	53642.74
528.38	53556.14
528.55	53881.47
528.72	53324.43
528.89	53544.44
529.07	53303.36
529.24	53322.08
529.41	53944.67
529.58	53853.39
529.75	54110.85
529.92	53925.94
530.09	54305.11
530.26	54248.94
530.43	54127.23
530.60	54019.56
530.77	54164.68
530.94	54267.66
531.11	54267.66
531.28	54497.03
531.46	54307.45
531.63	54429.16
531.80	54670.23
531.97	54419.80
532.14	54684.28
532.31	54628.10
532.48	54663.21
532.65	54827.05
532.82	54691.30
532.99	54653.85
533.16	55049.40
533.33	55061.10
533.50	55246.00
533.67	55061.10
533.84	54609.38
534.01	55133.66
534.18	55002.59
534.35	55447.29
534.52	55213.24
534.69	55400.48
534.86	55299.84
535.03	55337.29
535.20	55458.99
535.37	55718.79
535.54	55297.50
535.71	55320.90
535.88	55503.46
536.05	55473.04
536.22	55831.14
536.38	55742.20
536.55	55859.23
536.72	55798.37
536.89	55716.45
537.06	55796.03
537.23	55882.63
537.40	55739.86
537.57	55842.84
537.74	56058.17
537.91	56023.06
538.08	56002.00
538.25	56081.58
538.42	55875.61
538.59	56533.30
538.75	55994.98
538.92	56250.09
539.09	56236.05
539.26	56151.79
539.43	56303.93
539.60	56315.63
539.77	56151.79
539.94	56605.86
540.11	56598.83
540.28	56622.24
540.44	56743.95
540.61	56554.36
540.78	56465.42
540.95	56615.22
541.12	56750.97
541.29	56596.49
541.46	56886.72
541.62	56706.50
541.79	56832.89
541.96	56556.70
542.13	56704.16
542.30	56767.35
542.47	56994.39
542.63	56949.92
542.80	56996.73
542.97	57289.29
543.14	57282.27
543.31	57275.25
543.48	57270.57
543.64	57453.13
543.81	57474.20
543.98	57448.45
544.15	57350.15
544.32	57649.74
544.48	57750.38
544.65	57385.25
544.82	57446.11
544.99	57359.51
545.16	57656.76
545.32	57654.42
545.49	57701.23
545.66	57989.11
545.83	57963.37
546.00	57888.47
546.16	57710.59
546.33	57797.19
546.50	57682.50
546.67	57684.84
546.83	57783.15
547.00	57876.77
547.17	58031.24
547.34	57979.75
547.50	58092.10
547.67	58300.40
547.84	58192.74
548.00	58150.61
548.17	58396.37
548.34	58206.78
548.51	58485.31
548.67	58272.32
548.84	58473.60
549.01	58197.42
549.18	58225.51
549.34	58562.54
549.51	58475.94
549.68	58735.74
549.84	58426.79
550.01	58574.25
550.18	58344.87
550.34	58660.85
550.51	58635.10
550.68	58731.06
550.84	58232.53
551.01	58688.93
551.18	58611.70
551.34	58686.59
551.51	58805.96
551.68	58782.55
551.84	58770.85
552.01	58506.37
552.18	58876.18
552.34	58522.76
552.51	59107.89
552.68	58969.80
552.84	58906.60
553.01	58986.18
553.18	58777.87
553.34	59203.85
553.51	58843.41
553.67	59079.80
553.84	58962.78
554.01	59063.42
554.17	59325.56
554.34	59217.89
554.51	59210.87
554.67	59276.41
554.84	59107.89
555.00	58960.44
555.17	58995.54
555.33	58993.20
555.50	59121.93
555.67	59234.28
555.83	59082.14
556.00	59194.49
556.16	59306.83
556.33	59444.93
556.50	59484.72
556.66	59433.22
556.83	59355.99
556.99	59578.34
557.16	59545.57
557.32	59697.70
557.49	59842.82
557.65	59700.04
557.82	59355.99
557.98	59405.14
558.15	59426.20
558.32	59709.41
558.48	59636.85
558.65	59519.82
558.81	59767.92
558.98	59803.03
559.14	59587.70
559.31	59842.82
559.47	59983.25
559.64	59870.90
559.80	59793.67
559.97	60027.72
560.13	59625.15
560.30	59887.29
560.46	60020.70
560.63	59969.21
560.79	59849.84
560.96	60046.44
561.12	59831.11
561.29	59849.84
561.45	59959.84
561.61	60037.08
561.78	60039.42
561.94	60079.21
562.11	59957.50
562.27	59875.58
562.44	59978.57
562.60	60109.64
562.77	60252.41
562.93	59880.27
563.10	60055.81
563.26	59992.61
563.42	60257.09
563.59	60130.70
563.75	60020.70
563.92	60046.44
564.08	60083.89
564.24	60346.03
564.41	60449.02
564.57	60456.04
564.74	60111.98
564.90	60268.79
565.07	60191.56
565.23	60280.50
565.39	60072.19
565.56	60357.74
565.72	60327.31
565.88	60392.84
566.05	60186.88
566.21	60294.54
566.38	60420.93
566.54	60404.55
566.70	60465.40
566.87	60348.37
567.03	60217.30
567.19	60566.04
567.36	60479.44
567.52	60537.96
567.68	60638.60
567.85	60521.57
568.01	60537.96
568.17	60495.83
568.34	60629.24
568.50	60657.32
568.66	60404.55
568.83	60654.98
568.99	60502.85
569.15	60533.28
569.32	60535.62
569.48	60446.68
569.64	60711.16
569.81	60615.19
569.97	60399.86
570.13	60624.56
570.30	60542.64
570.46	60498.17
570.62	60355.39
570.78	60725.20
570.95	60580.09
571.11	60860.95
571.27	60687.75
571.43	60741.58
571.60	60928.83
571.76	60425.61
571.92	60994.36
572.09	60650.30
572.25	60636.26
572.41	60781.37
572.57	60629.24
572.74	61029.47
572.90	60830.52
573.06	60818.82
573.22	60842.23
573.38	60676.05
573.55	60748.60
573.71	61031.81
573.87	60823.50
574.03	60629.24
574.20	60680.73
574.36	60821.16
574.52	60975.64
574.68	60874.99
574.84	60884.36
575.01	60928.83
575.17	60926.49
575.33	60867.97
575.49	60776.69
575.65	61003.72
575.82	61010.74
575.98	60884.36
576.14	61118.41
576.30	60982.66
576.46	60846.91
576.62	60968.61
576.79	60837.54
576.95	61001.38
577.11	61001.38
577.27	61069.26
577.43	60996.70
577.59	60917.12
577.75	60673.71
577.92	60704.13
578.08	61062.24
578.24	61174.58
578.40	61125.43
578.56	60977.98
578.72	60898.40
578.88	61307.99
579.04	61160.54
579.21	60994.36
579.37	61172.24
579.53	61134.79
579.69	60858.61
579.85	60956.91
580.01	61013.08
580.17	60945.21
580.33	61265.86
580.49	61116.07
580.65	60980.32
580.82	60851.59
580.98	60828.18
581.14	61134.79
581.30	61029.47
581.46	60900.74
581.62	61113.73
581.78	61125.43
581.94	61125.43
582.10	61073.94
582.26	60963.93
582.42	61076.28
582.58	60877.33
582.74	61017.77
582.90	61071.60
583.06	61249.48
583.22	61048.19
583.38	61015.43
583.54	61104.37
583.70	60954.57
583.86	61109.05
584.02	60999.04
584.18	61457.79
584.34	61118.41
584.50	61050.53
584.66	61190.97
584.82	60856.27
584.98	61326.72
585.14	61127.77
585.30	61038.83
585.46	61029.47
585.62	61015.43
585.78	61261.18
585.94	60963.93
586.10	61090.32
586.26	61181.60
586.42	61197.99
586.58	61270.54
586.74	61200.33
586.90	61104.37
587.06	60879.67
587.22	61326.72
587.38	61216.71
587.54	61298.63
587.70	61352.46
587.86	61265.86
588.02	61165.22
588.18	61300.97
588.34	61209.69
588.49	61268.20
