SpectraSuite Data File
++++++++++++++++++++++++++++++++++++
Date: Fri Oct 25 11:26:21 EDT 2013
User: price-jones
Dark Spectrum Present: No
Reference Spectrum Present: No
Number of Sampled Component Spectra: 1
Spectrometers: USB2+H05261
Integration Time (usec): 100000 (USB2+H05261)
Spectra Averaged: 1 (USB2+H05261)
Boxcar Smoothing: 0 (USB2+H05261)
Correct for Electrical Dark: No (USB2+H05261)
Strobe/Lamp Enabled: No (USB2+H05261)
Correct for Detector Non-linearity: No (USB2+H05261)
Correct for Stray Light: No (USB2+H05261)
Number of Pixels in Processed Spectrum: 2048
>>>>>Begin Processed Spectral Data<<<<<
365.73	229.37
365.92	229.37
366.12	229.37
366.32	201.29
366.52	135.75
366.72	187.24
366.91	53.83
367.11	201.29
367.31	138.09
367.51	112.35
367.70	198.95
367.90	173.20
368.10	131.07
368.30	205.97
368.49	201.29
368.69	205.97
368.89	234.05
369.09	196.60
369.28	201.29
369.48	152.13
369.68	170.86
369.87	217.67
370.07	184.90
370.27	168.52
370.47	297.25
370.66	622.58
370.86	617.90
371.06	669.39
371.25	678.76
371.45	578.11
371.65	723.23
371.84	657.69
372.04	730.25
372.24	617.90
372.44	697.48
372.63	744.29
372.83	809.83
373.03	716.20
373.22	720.88
373.42	849.61
373.62	779.40
373.81	802.80
374.01	842.59
374.21	844.93
374.40	798.12
374.60	835.57
374.79	826.21
374.99	847.27
375.19	891.74
375.38	800.46
375.58	861.32
375.78	816.85
375.97	861.32
376.17	905.79
376.37	889.40
376.56	915.15
376.76	903.45
376.95	868.34
377.15	952.60
377.35	912.81
377.54	943.24
377.74	870.68
377.93	889.40
378.13	973.66
378.33	943.24
378.52	856.64
378.72	952.60
378.91	954.94
379.11	959.62
379.31	933.87
379.50	929.19
379.70	1046.22
379.89	936.21
380.09	919.83
380.28	947.92
380.48	940.90
380.68	978.34
380.87	1001.75
381.07	1076.65
381.26	1001.75
381.46	994.73
381.65	1046.22
381.85	1076.65
382.04	1142.18
382.24	1102.39
382.43	1029.84
382.63	1022.81
382.83	1170.27
383.02	1139.84
383.22	1095.37
383.41	1179.63
383.61	1048.56
383.80	1259.21
384.00	1160.91
384.19	1188.99
384.39	1139.84
384.58	1128.14
384.78	1163.25
384.97	1196.01
385.17	1139.84
385.36	1156.22
385.56	1144.52
385.75	1165.59
385.95	1172.61
386.14	1167.93
386.34	1137.50
386.53	1186.65
386.72	1210.06
386.92	1259.21
387.11	1139.84
387.31	1263.89
387.50	1212.40
387.70	1224.10
387.89	1261.55
388.09	1219.42
388.28	1153.88
388.48	1277.93
388.67	1366.87
388.86	1327.08
389.06	1357.51
389.25	1378.58
389.45	1303.68
389.64	1282.61
389.84	1266.23
390.03	1331.76
390.22	1434.75
390.42	1336.45
390.61	1404.32
390.81	1338.79
391.00	1366.87
391.19	1376.24
391.39	1416.02
391.58	1469.86
391.78	1486.24
391.97	1469.86
392.16	1488.58
392.36	1511.99
392.55	1465.18
392.75	1521.35
392.94	1474.54
393.13	1526.03
393.33	1416.02
393.52	1579.86
393.71	1610.29
393.91	1586.88
394.10	1603.27
394.29	1619.65
394.49	1610.29
394.68	1675.82
394.88	1678.16
395.07	1603.27
395.26	1533.05
395.46	1607.95
395.65	1710.93
395.84	1717.95
396.04	1741.36
396.23	1713.27
396.42	1722.63
396.62	1713.27
396.81	1781.15
397.00	1776.47
397.19	1755.40
397.39	1757.74
397.58	1783.49
397.77	1802.21
397.97	1928.60
398.16	1952.01
398.35	1905.20
398.55	1823.28
398.74	1970.73
398.93	1954.35
399.12	1914.56
399.32	1994.14
399.51	1973.07
399.70	1970.73
399.90	2017.54
400.09	2001.16
400.28	1987.11
400.47	1959.03
400.67	2106.48
400.86	1982.43
401.05	2054.99
401.24	2087.76
401.44	2092.44
401.63	2087.76
401.82	2136.91
402.01	2129.89
402.21	2209.47
402.40	2174.36
402.59	2263.30
402.78	2230.53
402.97	2120.53
403.17	2293.72
403.36	2207.13
403.55	2244.57
403.74	2307.77
403.93	2422.45
404.13	2401.39
404.32	2317.13
404.51	2450.54
404.70	2464.58
404.89	2310.11
405.09	2502.03
405.28	2429.48
405.47	2363.94
405.66	2473.95
405.85	2541.82
406.05	2462.24
406.24	2513.74
406.43	2663.53
406.62	2560.55
406.81	2647.15
407.00	2476.29
407.20	2511.39
407.39	2630.76
407.58	2705.66
407.77	2607.36
407.96	2832.05
408.15	2780.56
408.34	2693.96
408.54	2808.64
408.73	2810.98
408.92	2810.98
409.11	2703.32
409.30	2916.31
409.49	2979.50
409.68	2731.41
409.87	2892.90
410.07	2937.37
410.26	3028.65
410.45	2850.77
410.64	3035.67
410.83	3150.36
411.02	3038.02
411.21	3180.79
411.40	3194.83
411.59	3213.56
411.78	3194.83
411.98	3148.02
412.17	3243.98
412.36	3229.94
412.55	3400.80
412.74	3398.46
412.93	3391.44
413.12	3328.24
413.31	3503.78
413.50	3396.12
413.69	3536.55
413.88	3646.55
414.07	3620.81
414.26	3562.30
414.45	3569.32
414.64	3655.92
414.83	3756.56
415.02	3742.52
415.22	3908.69
415.41	3700.39
415.60	3751.88
415.79	3906.35
415.98	3740.18
416.17	4037.42
416.36	3803.37
416.55	3981.25
416.74	4039.76
416.93	3941.46
417.12	4086.58
417.31	4173.18
417.50	4046.79
417.69	4241.05
417.88	4313.61
418.07	4196.58
418.26	4287.86
418.45	4264.46
418.64	4379.14
418.83	4442.34
419.02	4430.63
419.21	4489.15
419.39	4472.76
419.58	4381.48
419.77	4573.41
419.96	4521.92
420.15	4601.49
420.34	4521.92
420.53	4566.39
420.72	4755.97
420.91	4835.55
421.10	4840.23
421.29	4690.43
421.48	4688.09
421.67	4652.98
421.86	4688.09
422.05	4880.02
422.24	4826.18
422.43	4875.34
422.61	4807.46
422.80	4901.08
422.99	4887.04
423.18	4940.87
423.37	5001.72
423.56	4971.30
423.75	4816.82
423.94	4847.25
424.13	4603.83
424.32	4643.62
424.50	4788.74
424.69	5067.26
424.88	4975.98
425.07	4915.12
425.26	4896.40
425.45	4980.66
425.64	4940.87
425.83	4863.63
426.01	4943.21
426.20	4983.00
426.39	5167.90
426.58	5039.17
426.77	4798.10
426.96	5064.92
427.15	4947.89
427.33	5289.61
427.52	5296.63
427.71	5315.36
427.90	5231.10
428.09	5090.67
428.28	5385.57
428.46	5315.36
428.65	5366.85
428.84	5563.45
429.03	5526.00
429.22	5331.74
429.40	5364.51
429.59	5481.53
429.78	5261.52
429.97	5245.14
430.16	5479.19
430.34	5518.98
430.53	5610.26
430.72	5689.84
430.91	5610.26
431.10	5664.10
431.28	5500.26
431.47	5636.01
431.66	5797.51
431.85	5664.10
432.03	5886.45
432.22	6179.01
432.41	5963.68
432.60	5806.87
432.79	5966.03
432.97	6010.50
433.16	5914.53
433.35	5877.09
433.54	6040.92
433.72	6265.61
433.91	6054.97
434.10	6064.33
434.28	6031.56
434.47	6083.05
434.66	6174.33
434.85	6317.11
435.03	6279.66
435.22	6256.25
435.41	6406.05
435.59	6354.55
435.78	6434.13
435.97	6609.67
436.16	6368.60
436.34	6448.18
436.53	6370.94
436.72	6565.20
436.90	6462.22
437.09	6417.75
437.28	6513.71
437.46	6448.18
437.65	6654.14
437.84	6778.19
438.02	6679.89
438.21	6705.63
438.40	6600.31
438.58	6902.24
438.77	6913.94
438.96	7007.56
439.14	7105.87
439.33	6927.99
439.52	7297.79
439.70	7208.85
439.89	7206.51
440.08	7325.88
440.26	7281.41
440.45	7384.39
440.63	7662.91
440.82	7583.34
441.01	7351.62
441.19	7522.48
441.38	7761.22
441.57	7695.68
441.75	7810.37
441.94	8028.04
442.12	8032.72
442.31	7976.55
442.50	8037.40
442.68	8028.04
442.87	8154.43
443.05	8196.56
443.24	8072.51
443.43	8182.51
443.61	8060.80
443.80	8458.70
443.98	8081.87
444.17	7885.26
444.35	8184.85
444.54	8334.65
444.73	8322.94
444.91	8285.50
445.10	8411.89
445.28	8320.60
445.47	8189.53
445.65	8187.19
445.84	8212.94
446.02	8479.76
446.21	8470.40
446.39	8470.40
446.58	8400.18
446.77	8400.18
446.95	8339.33
447.14	8585.08
447.32	8571.04
447.51	8477.42
447.69	8308.90
447.88	8374.44
448.06	8439.97
448.25	8367.42
448.43	8540.61
448.62	8601.47
448.80	8454.02
448.99	8578.06
449.17	8669.34
449.36	8624.87
449.54	8748.92
449.73	8964.25
449.91	8823.82
450.10	8985.32
450.28	9217.03
450.46	9097.66
450.65	8868.29
450.83	9149.15
451.02	9020.42
451.20	9273.20
451.39	9191.28
451.57	9132.77
451.76	9102.34
451.94	9013.40
452.13	9343.42
452.31	9387.89
452.49	9109.36
452.68	9195.96
452.86	9149.15
453.05	9425.34
453.23	9483.85
453.42	9322.35
453.60	9301.29
453.78	9427.68
453.97	9434.70
454.15	9444.06
454.34	9504.92
454.52	9671.09
454.70	9633.64
454.89	9652.37
455.07	9848.97
455.26	9783.44
455.44	9806.84
455.62	9949.62
455.81	9926.21
455.99	9877.06
456.17	9825.57
456.36	10118.14
456.54	10038.56
456.73	10178.99
456.91	10438.79
457.09	10473.90
457.28	10572.20
457.46	10366.23
457.64	10321.76
457.83	10415.38
458.01	10328.78
458.19	10689.23
458.38	10520.71
458.56	10560.50
458.74	10778.17
458.93	10771.15
459.11	10630.71
459.29	10792.21
459.48	10654.12
459.66	10614.33
459.84	10778.17
460.03	11066.05
460.21	11070.73
460.39	10925.62
460.57	10869.45
460.76	11007.54
460.94	11318.83
461.12	10932.64
461.31	11314.15
461.49	11007.54
461.67	11019.24
461.85	11440.54
462.04	11351.60
462.22	11555.22
462.40	11550.54
462.59	11400.75
462.77	11248.61
462.95	11625.44
463.13	11421.81
463.32	11620.76
463.50	11709.70
463.68	11627.78
463.86	11812.68
464.05	11461.60
464.23	11637.14
464.41	11812.68
464.59	11597.35
464.78	12343.99
464.96	12145.04
465.14	11789.28
465.32	11967.16
465.50	12255.04
465.69	12119.29
465.87	11974.18
466.05	11960.14
466.23	12060.78
466.41	12168.45
466.60	12142.70
466.78	11957.80
466.96	12175.47
467.14	12163.76
467.32	12400.16
467.51	12468.03
467.69	12114.61
467.87	12093.55
468.05	12638.89
468.23	12442.29
468.41	12547.61
468.60	12812.09
468.78	12800.39
468.96	12432.93
469.14	12690.38
469.32	12697.41
469.50	12510.16
469.69	13104.66
469.87	13111.68
470.05	13111.68
470.23	13422.97
470.41	12849.54
470.59	13177.22
470.77	13111.68
470.95	13114.02
471.14	13348.08
471.32	13231.05
471.50	13383.18
471.68	13511.91
471.86	13591.49
472.04	13687.45
472.22	14111.09
472.40	13479.15
472.58	13757.67
472.77	13790.44
472.95	14232.80
473.13	14436.42
473.31	13954.27
473.49	14232.80
473.67	14132.15
473.85	13914.48
474.03	14408.34
474.21	14611.96
474.39	14939.64
474.57	14347.48
474.75	14588.56
474.93	15096.46
475.12	14738.35
475.30	15264.97
475.48	14806.23
475.66	14988.79
475.84	14967.73
476.02	15311.78
476.20	15344.55
476.38	15552.86
476.56	15896.92
476.74	15836.06
476.92	15417.11
477.10	15578.61
477.28	16067.78
477.46	15800.96
477.64	16105.23
477.82	16390.77
478.00	16685.68
478.18	16535.88
478.36	16924.41
478.54	17149.11
478.72	16987.61
478.90	17317.62
479.08	17666.36
479.26	17689.77
479.44	17703.81
479.62	17877.01
479.80	17884.03
479.98	18033.83
480.16	18586.19
480.34	18237.45
480.52	18677.48
480.70	18520.66
480.88	18394.27
481.06	18349.80
481.24	18628.32
481.41	18951.32
481.59	19112.81
481.77	19360.91
481.95	19627.73
482.13	19454.53
482.31	19400.70
482.49	19903.92
482.67	19955.41
482.85	20222.23
483.03	20587.35
483.21	20704.38
483.39	20695.02
483.57	20589.69
483.74	21090.57
483.92	21315.26
484.10	21046.10
484.28	21577.40
484.46	22111.04
484.64	22246.79
484.82	21970.61
485.00	22211.68
485.18	22537.02
485.35	22869.37
485.53	22654.05
485.71	22939.59
485.89	23608.98
486.07	23133.86
486.25	23374.93
486.43	23580.90
486.61	23562.17
486.78	23962.40
486.96	24058.37
487.14	24346.25
487.32	24552.22
487.50	24439.87
487.68	24893.94
487.85	25207.57
488.03	25432.26
488.21	25645.25
488.39	25776.32
488.57	25851.22
488.75	26209.32
488.92	26300.60
489.10	26544.02
489.28	26675.09
489.46	26778.07
489.64	26993.40
489.81	27274.26
489.99	27541.08
490.17	27463.85
490.35	28102.81
490.53	28264.31
490.70	28320.48
490.88	28086.43
491.06	28613.05
491.24	28912.64
491.41	28961.79
491.59	29132.65
491.77	29149.03
491.95	29212.23
492.13	29905.02
492.30	29642.88
492.48	29710.76
492.66	29865.24
492.84	30059.50
493.01	30401.22
493.19	30593.14
493.37	31182.96
493.54	30953.58
493.72	31044.87
493.90	31400.63
494.08	31667.45
494.25	31454.46
494.43	32105.13
494.61	31702.56
494.79	32275.99
494.96	32706.65
495.14	32275.99
495.32	32940.70
495.49	33319.87
495.67	33184.12
495.85	33294.12
496.02	33591.37
496.20	33813.72
496.38	33621.80
496.55	34153.10
496.73	34625.89
496.91	34235.02
497.09	34852.92
497.26	34902.07
497.44	34616.52
497.62	34958.24
497.79	35681.47
497.97	35257.83
498.14	35941.27
498.32	35910.84
498.50	36020.84
498.67	36392.99
498.85	36456.18
499.03	36016.16
499.20	36524.06
499.38	36605.98
499.56	36943.02
499.73	36439.80
499.91	37113.87
500.08	37694.33
500.26	37200.47
500.44	37322.18
500.61	37188.77
500.79	37830.08
500.97	38022.00
501.14	37949.45
501.32	38047.75
501.49	38508.83
501.67	38429.26
501.84	38721.82
502.02	38494.79
502.20	38775.66
502.37	39117.37
502.55	38906.73
502.72	39112.69
502.90	39367.81
503.07	39480.16
503.25	39398.24
503.43	39641.65
503.60	40205.72
503.78	39803.15
503.95	40018.48
504.13	40598.93
504.30	40706.60
504.48	40521.69
504.65	40421.05
504.83	40903.20
505.01	40687.87
505.18	40795.54
505.36	41340.88
505.53	41092.79
505.71	41287.05
505.88	41418.12
506.06	41347.90
506.23	41823.03
506.41	41478.97
506.58	41769.20
506.76	41586.64
506.93	42110.92
507.11	42253.69
507.28	42108.58
507.46	42443.27
507.63	42740.52
507.81	42873.93
507.98	42777.97
508.16	43084.58
508.33	42972.24
508.50	43234.38
508.68	43459.07
508.85	43917.81
509.03	43391.19
509.20	44044.20
509.38	43983.35
509.55	44238.47
509.73	44406.98
509.90	44271.23
510.08	44582.52
510.25	44568.48
510.42	44617.63
510.60	44575.50
510.77	44715.93
510.95	45090.42
511.12	45275.32
511.30	45202.77
511.47	45148.93
511.64	45443.84
511.82	45595.98
511.99	45574.91
512.17	45338.52
512.34	46024.29
512.51	46169.41
512.69	46078.13
512.86	46059.40
513.04	46433.89
513.21	46309.84
513.38	46508.79
513.56	46579.00
513.73	46431.55
513.90	46864.55
514.08	46382.40
514.25	46857.52
514.43	47482.45
514.60	47147.75
514.77	47264.78
514.95	47409.89
515.12	47281.16
515.29	47292.86
515.47	47585.43
515.64	47934.17
515.81	47746.93
515.99	47538.62
516.16	48079.28
516.33	47999.71
516.51	48584.84
516.68	48481.86
516.85	48025.45
517.03	48697.19
517.20	48851.66
517.37	48327.38
517.54	48739.32
517.72	48776.76
517.89	48713.57
518.06	48959.33
518.24	48755.70
518.41	48774.42
518.58	49289.34
518.75	48851.66
518.93	49375.94
519.10	49343.17
519.27	49705.96
519.45	49577.23
519.62	49434.45
519.79	49825.32
519.96	50073.42
520.14	49923.63
520.31	50188.11
520.48	49918.95
520.65	50351.94
520.83	50450.25
521.00	50342.58
521.17	50326.20
521.34	50391.73
521.52	50543.87
521.69	50354.29
521.86	50590.68
522.03	50911.33
522.20	50995.59
522.38	51143.05
522.55	51112.62
522.72	51180.49
522.89	51206.24
523.07	51489.45
523.24	51470.72
523.41	51545.62
523.58	50824.73
523.75	51805.42
523.92	51372.42
524.10	51999.68
524.27	52023.09
524.44	51877.97
524.61	52112.03
524.78	51959.89
524.96	51990.32
525.13	52257.14
525.30	52413.96
525.47	52355.44
525.64	52142.45
525.81	52442.04
525.98	52514.60
526.16	52460.77
526.33	52575.45
526.50	52886.74
526.67	52750.99
526.84	52769.72
527.01	52381.19
527.18	52589.50
527.36	52683.12
527.53	52830.57
527.70	53130.16
527.87	53057.60
528.04	52968.66
528.21	53275.27
528.38	53254.21
528.55	53350.17
528.72	53364.21
528.89	53343.15
529.07	53272.93
529.24	53134.84
529.41	53591.25
529.58	53490.60
529.75	53432.09
529.92	53340.81
530.09	53715.29
530.26	53757.42
530.43	53762.11
530.60	53551.46
530.77	53729.34
530.94	54054.67
531.11	53614.65
531.28	53923.60
531.46	54028.93
531.63	54026.59
531.80	54220.85
531.97	54136.59
532.14	54288.73
532.31	54497.03
532.48	54457.24
532.65	54438.52
532.82	54621.08
532.99	54480.65
533.16	54452.56
533.33	54571.93
533.50	54644.49
533.67	54700.66
533.84	54401.07
534.01	54925.35
534.18	54700.66
534.35	55051.74
534.52	54759.17
534.69	54934.71
534.86	55166.43
535.03	54728.75
535.20	55075.15
535.37	55175.79
535.54	55224.94
535.71	55023.65
535.88	55278.77
536.05	55442.61
536.22	55604.11
536.38	55515.17
536.55	55384.10
536.72	55409.84
536.89	55028.34
537.06	55430.91
537.23	55592.40
537.40	55351.33
537.57	55348.99
537.74	55484.74
537.91	55821.78
538.08	55934.12
538.25	55510.49
538.42	55742.20
538.59	55922.42
538.75	55725.81
538.92	56002.00
539.09	55660.28
539.26	55906.04
539.43	55941.14
539.60	56140.09
539.77	56259.46
539.94	56383.51
540.11	56229.03
540.28	56184.56
540.44	56236.05
540.61	56287.54
540.78	56310.95
540.95	56425.64
541.12	56154.13
541.29	56418.61
541.46	56486.49
541.62	56556.70
541.79	56619.90
541.96	56126.05
542.13	56559.05
542.30	56542.66
542.47	56729.90
542.63	56678.41
542.80	56839.91
542.97	56800.12
543.14	57176.95
543.31	57226.10
543.48	56966.30
543.64	57169.93
543.81	57118.43
543.98	57226.10
544.15	57111.41
544.32	57345.47
544.48	57420.36
544.65	57003.75
544.82	57228.44
544.99	57183.97
545.16	57497.60
545.32	57165.24
545.49	57598.24
545.66	57483.56
545.83	57394.62
546.00	57715.27
546.16	57368.87
546.33	57474.20
546.50	57148.86
546.67	57443.77
546.83	57331.42
547.00	57649.74
547.17	57471.85
547.34	57689.52
547.50	57668.46
547.67	57956.35
547.84	57780.81
548.00	57946.98
548.17	58162.31
548.34	57872.09
548.51	57935.28
548.67	58012.52
548.84	57930.60
549.01	57813.57
549.18	57855.70
549.34	57939.96
549.51	58326.15
549.68	58045.29
549.84	58190.40
550.01	58227.85
550.18	58220.83
550.34	58295.72
550.51	58391.68
550.68	58401.05
550.84	57993.79
551.01	58534.46
551.18	58351.90
551.34	58375.30
551.51	58543.82
551.68	58379.98
551.84	58436.16
552.01	58419.77
552.18	58553.18
552.34	58202.10
552.51	58452.54
552.68	58480.63
552.84	58721.70
553.01	58768.51
553.18	58607.01
553.34	58639.78
553.51	58672.55
553.67	58688.93
553.84	58855.11
554.01	58684.25
554.17	58812.98
554.34	58974.48
554.51	58742.77
554.67	58995.54
554.84	58623.40
555.00	58576.59
555.17	58841.07
555.33	59058.74
555.50	58829.37
555.67	58845.75
555.83	58768.51
556.00	58979.16
556.16	59215.55
556.33	59096.19
556.50	59196.83
556.66	59098.53
556.83	58979.16
556.99	59339.60
557.16	59430.88
557.32	59269.39
557.49	59531.53
557.65	59086.82
557.82	59126.61
557.98	59231.94
558.15	59262.36
558.32	59550.25
558.48	59264.70
558.65	59274.07
558.81	59576.00
558.98	59489.40
559.14	59519.82
559.31	59538.55
559.47	59622.81
559.64	59515.14
559.80	59585.36
559.97	59690.68
560.13	59426.20
560.30	59370.03
560.46	59599.40
560.63	59681.32
560.79	59625.15
560.96	59824.09
561.12	59571.32
561.29	59763.24
561.45	59671.96
561.61	59557.27
561.78	59669.62
561.94	59508.12
562.11	59746.86
562.27	59718.77
562.44	59739.83
562.60	59805.37
562.77	59854.52
562.93	59662.60
563.10	60046.44
563.26	59653.23
563.42	60074.53
563.59	59922.40
563.75	59702.38
563.92	59955.16
564.08	59777.28
564.24	60130.70
564.41	60133.04
564.57	59938.78
564.74	59884.95
564.90	59936.44
565.07	59969.21
565.23	60009.00
565.39	59821.75
565.56	60250.07
565.72	59807.71
565.88	60013.68
566.05	60030.06
566.21	59915.37
566.38	60266.45
566.54	60083.89
566.70	60123.68
566.87	60294.54
567.03	59845.16
567.19	60392.84
567.36	60268.79
567.52	60133.04
567.68	60413.91
567.85	60172.83
568.01	60336.67
568.17	60062.83
568.34	60331.99
568.50	60285.18
568.66	60285.18
568.83	60268.79
568.99	60140.07
569.15	60343.69
569.32	60306.24
569.48	60006.65
569.64	60463.06
569.81	60317.95
569.97	60271.14
570.13	60282.84
570.30	60147.09
570.46	60376.46
570.62	60334.33
570.78	60362.42
570.95	60238.37
571.11	60425.61
571.27	60233.69
571.43	60275.82
571.60	60544.98
571.76	60287.52
571.92	60395.18
572.09	60523.91
572.25	60444.33
572.41	60404.55
572.57	60610.51
572.74	60781.37
572.90	60306.24
573.06	60404.55
573.22	60374.12
573.38	60521.57
573.55	60704.13
573.71	60605.83
573.87	60638.60
574.03	60339.01
574.20	60715.84
574.36	60439.65
574.52	60573.06
574.68	60818.82
574.84	60793.07
575.01	60645.62
575.17	60711.16
575.33	60453.70
575.49	60500.51
575.65	60673.71
575.82	60734.56
575.98	60659.66
576.14	60772.01
576.30	60776.69
576.46	60669.03
576.62	60626.90
576.79	60376.46
576.95	60477.10
577.11	60814.14
577.27	60514.55
577.43	60636.26
577.59	60575.40
577.75	60725.20
577.92	60530.93
578.08	60755.63
578.24	60727.54
578.40	60891.38
578.56	60750.94
578.72	60540.30
578.88	60753.29
579.04	60910.10
579.21	60664.35
579.37	60741.58
579.53	60882.02
579.69	60568.38
579.85	60697.11
580.01	60750.94
580.17	60549.66
580.33	60692.43
580.49	60891.38
580.65	60701.79
580.82	60891.38
580.98	60793.07
581.14	60711.16
581.30	60570.72
581.46	60659.66
581.62	60938.19
581.78	60858.61
581.94	60804.78
582.10	60896.06
582.26	60690.09
582.42	60662.00
582.58	60839.89
582.74	60619.88
582.90	60720.52
583.06	60781.37
583.22	60701.79
583.38	60680.73
583.54	60797.76
583.70	60678.39
583.86	60942.87
584.02	60596.47
584.18	60928.83
584.34	60662.00
584.50	60685.41
584.66	60893.72
584.82	60556.68
584.98	61020.11
585.14	60790.73
585.30	60879.67
585.46	60889.04
585.62	60860.95
585.78	61059.90
585.94	60753.29
586.10	60811.80
586.26	60954.57
586.42	60877.33
586.58	60896.06
586.74	60816.48
586.90	60889.04
587.06	60764.99
587.22	61034.15
587.38	61020.11
587.54	61029.47
587.70	61109.05
587.86	61057.56
588.02	60760.31
588.18	61010.74
588.34	60900.74
588.49	60896.06
