SpectraSuite Data File
++++++++++++++++++++++++++++++++++++
Date: Fri Oct 25 11:23:05 EDT 2013
User: price-jones
Dark Spectrum Present: No
Reference Spectrum Present: No
Number of Sampled Component Spectra: 1
Spectrometers: USB2+H05261
Integration Time (usec): 100000 (USB2+H05261)
Spectra Averaged: 1 (USB2+H05261)
Boxcar Smoothing: 0 (USB2+H05261)
Correct for Electrical Dark: No (USB2+H05261)
Strobe/Lamp Enabled: No (USB2+H05261)
Correct for Detector Non-linearity: No (USB2+H05261)
Correct for Stray Light: No (USB2+H05261)
Number of Pixels in Processed Spectrum: 2048
>>>>>Begin Processed Spectral Data<<<<<
365.73	196.60
365.92	196.60
366.12	196.60
366.32	145.11
366.52	147.45
366.72	107.66
366.91	126.39
367.11	131.07
367.31	156.82
367.51	142.77
367.70	84.26
367.90	170.86
368.10	112.35
368.30	112.35
368.49	135.75
368.69	86.60
368.89	114.69
369.09	114.69
369.28	154.48
369.48	145.11
369.68	175.54
369.87	173.20
370.07	145.11
370.27	325.33
370.47	344.06
370.66	610.88
370.86	629.60
371.06	638.97
371.25	683.44
371.45	676.41
371.65	657.69
371.84	674.07
372.04	643.65
372.24	723.23
372.44	624.92
372.63	765.36
372.83	755.99
373.03	809.83
373.22	725.57
373.42	774.72
373.62	723.23
373.81	746.63
374.01	812.17
374.21	812.17
374.40	800.46
374.60	837.91
374.79	812.17
374.99	791.10
375.19	844.93
375.38	770.04
375.58	788.76
375.78	837.91
375.97	856.64
376.17	945.58
376.37	933.87
376.56	908.13
376.76	894.08
376.95	856.64
377.15	917.49
377.35	917.49
377.54	947.92
377.74	917.49
377.93	917.49
378.13	966.64
378.33	971.32
378.52	947.92
378.72	929.19
378.91	875.36
379.11	1025.15
379.31	912.81
379.50	1001.75
379.70	931.53
379.89	933.87
380.09	952.60
380.28	947.92
380.48	1029.84
380.68	976.00
380.87	1020.47
381.07	1048.56
381.26	973.66
381.46	1064.94
381.65	1069.62
381.85	1057.92
382.04	1064.94
382.24	1088.35
382.43	1053.24
382.63	980.68
382.83	990.05
383.02	1104.73
383.22	1074.31
383.41	1069.62
383.61	1083.67
383.80	1203.04
384.00	1001.75
384.19	1039.20
384.39	1193.67
384.58	1114.10
384.78	1149.20
384.97	1121.12
385.17	1128.14
385.36	1170.27
385.56	1259.21
385.75	1095.37
385.95	1193.67
386.14	1240.48
386.34	1188.99
386.53	1156.22
386.72	1167.93
386.92	1142.18
387.11	1217.08
387.31	1245.16
387.50	1249.85
387.70	1263.89
387.89	1170.27
388.09	1188.99
388.28	1315.38
388.48	1299.00
388.67	1397.30
388.86	1418.36
389.06	1341.13
389.25	1350.49
389.45	1373.89
389.64	1320.06
389.84	1472.20
390.03	1329.42
390.22	1373.89
390.42	1341.13
390.61	1313.04
390.81	1308.36
391.00	1479.22
391.19	1425.39
391.39	1453.47
391.58	1465.18
391.78	1430.07
391.97	1411.34
392.16	1416.02
392.36	1540.07
392.55	1528.37
392.75	1605.61
392.94	1516.67
393.13	1511.99
393.33	1504.96
393.52	1448.79
393.71	1584.54
393.91	1680.50
394.10	1682.85
394.29	1598.59
394.49	1624.33
394.68	1699.23
394.88	1598.59
395.07	1715.61
395.26	1617.31
395.46	1640.72
395.65	1760.08
395.84	1802.21
396.04	1722.63
396.23	1788.17
396.42	1781.15
396.62	1729.66
396.81	1764.76
397.00	1750.72
397.19	1783.49
397.39	1778.81
397.58	1797.53
397.77	1837.32
397.97	1837.32
398.16	1872.43
398.35	1846.68
398.55	1827.96
398.74	1944.99
398.93	1968.39
399.12	1949.67
399.32	1944.99
399.51	1947.33
399.70	1914.56
399.90	1912.22
400.09	1977.75
400.28	2019.88
400.47	2094.78
400.67	2134.57
400.86	2090.10
401.05	2249.25
401.24	2186.06
401.44	2153.29
401.63	2179.04
401.82	2106.48
402.01	2108.82
402.21	2204.78
402.40	2204.78
402.59	2296.07
402.78	2062.01
402.97	2176.70
403.17	2267.98
403.36	2282.02
403.55	2324.15
403.74	2450.54
403.93	2333.51
404.13	2303.09
404.32	2438.84
404.51	2410.75
404.70	2537.14
404.89	2389.69
405.09	2523.10
405.28	2452.88
405.47	2495.01
405.66	2525.44
405.85	2572.25
406.05	2626.08
406.24	2574.59
406.43	2473.95
406.62	2672.89
406.81	2719.70
407.00	2551.18
407.20	2569.91
407.39	2600.34
407.58	2700.98
407.77	2679.91
407.96	2806.30
408.15	2759.49
408.34	2806.30
408.54	2806.30
408.73	2806.30
408.92	2853.11
409.11	2899.92
409.30	2991.20
409.49	2857.79
409.68	2939.71
409.87	2932.69
410.07	2993.55
410.26	2974.82
410.45	3052.06
410.64	3143.34
410.83	3185.47
411.02	3152.70
411.21	3194.83
411.40	3052.06
411.59	3251.00
411.78	3194.83
411.98	3246.32
412.17	3339.94
412.36	3363.35
412.55	3262.71
412.74	3353.99
412.93	3391.44
413.12	3358.67
413.31	3550.59
413.50	3578.68
413.69	3478.04
413.88	3686.34
414.07	3655.92
414.26	3716.77
414.45	3660.60
414.64	3735.50
414.83	3857.20
415.02	3775.28
415.22	3929.76
415.41	3948.48
415.60	3981.25
415.79	3911.04
415.98	4004.66
416.17	3971.89
416.36	4049.13
416.55	3927.42
416.74	4088.92
416.93	4184.88
417.12	4271.48
417.31	4332.33
417.50	4196.58
417.69	4292.54
417.88	4243.39
418.07	4276.16
418.26	4372.12
418.45	4358.08
418.64	4547.66
418.83	4435.32
419.02	4407.23
419.21	4454.04
419.39	4489.15
419.58	4505.53
419.77	4526.60
419.96	4528.94
420.15	4575.75
420.34	4643.62
420.53	4664.69
420.72	4765.33
420.91	4781.71
421.10	4692.77
421.29	4856.61
421.48	4732.56
421.67	4833.21
421.86	4791.08
422.05	4954.91
422.24	4952.57
422.43	4840.23
422.61	4889.38
422.80	5034.49
422.99	4837.89
423.18	4959.60
423.37	5006.41
423.56	5064.92
423.75	4945.55
423.94	4873.00
424.13	4610.86
424.32	4753.63
424.50	4980.66
424.69	5163.22
424.88	5259.18
425.07	5057.90
425.26	4966.62
425.45	5132.79
425.64	5034.49
425.83	4966.62
426.01	5067.26
426.20	4966.62
426.39	5093.01
426.58	5022.79
426.77	5013.43
426.96	5071.94
427.15	5172.58
427.33	5228.76
427.52	5097.69
427.71	5313.02
427.90	5238.12
428.09	5355.15
428.28	5352.81
428.46	5437.06
428.65	5430.04
428.84	5460.47
429.03	5603.24
429.22	5493.24
429.40	5502.60
429.59	5575.16
429.78	5277.91
429.97	5355.15
430.16	5614.95
430.34	5614.95
430.53	5654.73
430.72	5717.93
430.91	5727.29
431.10	5778.78
431.28	5788.14
431.47	5935.60
431.66	5856.02
431.85	5753.04
432.03	6066.67
432.22	6057.31
432.41	6043.26
432.60	5998.79
432.79	5970.71
432.97	6040.92
433.16	6160.29
433.35	6057.31
433.54	6157.95
433.72	6225.82
433.91	6258.59
434.10	6169.65
434.28	6289.02
434.47	6108.80
434.66	6303.06
434.85	6384.98
435.03	6455.20
435.22	6370.94
435.41	6459.88
435.59	6509.03
435.78	6392.00
435.97	6483.28
436.16	6307.74
436.34	6464.56
436.53	6450.52
436.72	6780.53
436.90	6347.53
437.09	6834.36
437.28	6609.67
437.46	6593.29
437.65	6644.78
437.84	6787.55
438.02	6867.13
438.21	6834.36
438.40	6768.83
438.58	7117.57
438.77	7007.56
438.96	6988.84
439.14	7115.23
439.33	7267.36
439.52	7365.67
439.70	7243.96
439.89	7602.06
440.08	7531.84
440.26	7365.67
440.45	7440.56
440.63	7365.67
440.82	7623.12
441.01	7534.18
441.19	7646.53
441.38	7662.91
441.57	7847.82
441.75	8032.72
441.94	8269.11
442.12	8049.10
442.31	8088.89
442.50	8217.62
442.68	8252.73
442.87	8009.31
443.05	8084.21
443.24	8332.31
443.43	8285.50
443.61	8049.10
443.80	8505.51
443.98	8149.75
444.17	8004.63
444.35	8299.54
444.54	8580.40
444.73	8446.99
444.91	8344.01
445.10	8449.33
445.28	8428.27
445.47	8264.43
445.65	8564.02
445.84	8528.91
446.02	8491.46
446.21	8526.57
446.39	8636.58
446.58	8634.24
446.77	8425.93
446.95	8346.35
447.14	8688.07
447.32	8547.64
447.51	8528.91
447.69	8468.06
447.88	8571.04
448.06	8704.45
448.25	8718.50
448.43	8765.31
448.62	8690.41
448.80	8561.68
448.99	8727.86
449.17	8709.13
449.36	8762.97
449.54	9177.24
449.73	8973.61
449.91	9069.58
450.10	9139.79
450.28	9025.11
450.46	9137.45
450.65	9013.40
450.83	9242.78
451.02	9163.20
451.20	9217.03
451.39	9387.89
451.57	9088.30
451.76	9259.16
451.94	9341.08
452.13	9202.99
452.31	9535.34
452.49	9294.27
452.68	9493.21
452.86	9596.20
453.05	9628.96
453.23	9584.49
453.42	9399.59
453.60	9355.12
453.78	9701.52
453.97	9729.61
454.15	9664.07
454.34	9472.15
454.52	9834.93
454.70	9680.46
454.89	9806.84
455.07	9788.12
455.26	9844.29
455.44	10029.20
455.62	9977.70
455.81	10015.15
455.99	10101.75
456.17	10139.20
456.36	10401.34
456.54	10307.72
456.73	10434.11
456.91	10672.84
457.09	10511.35
457.28	10647.10
457.46	10527.73
457.64	10616.67
457.83	10611.99
458.01	10387.30
458.19	10944.34
458.38	10691.57
458.56	10977.11
458.74	10799.23
458.93	11089.46
459.11	10839.02
459.29	10984.13
459.48	10792.21
459.66	10972.43
459.84	11236.91
460.03	11047.33
460.21	10956.05
460.39	11136.27
460.57	11201.80
460.76	11201.80
460.94	11236.91
461.12	11218.19
461.31	11283.72
461.49	11435.86
461.67	11286.06
461.85	11417.13
462.04	11255.64
462.22	11632.46
462.40	11674.59
462.59	11889.92
462.77	11655.87
462.95	11730.76
463.13	11840.77
463.32	11861.84
463.50	11880.56
463.68	11974.18
463.86	12131.00
464.05	11686.29
464.23	11845.45
464.41	12060.78
464.59	11665.23
464.78	12231.64
464.96	12159.08
465.14	11964.82
465.32	12294.83
465.50	12128.66
465.69	12449.31
465.87	12098.23
466.05	12182.49
466.23	12292.49
466.41	12369.73
466.60	12571.02
466.78	12332.28
466.96	12376.75
467.14	12461.01
467.32	12512.50
467.51	12774.64
467.69	12269.09
467.87	12556.97
468.05	12713.79
468.23	12409.52
468.41	12699.75
468.60	12753.58
468.78	12760.60
468.96	12795.71
469.14	12791.03
469.32	13212.32
469.50	12739.54
469.69	13144.45
469.87	13469.78
470.05	13242.75
470.23	13217.01
470.41	13469.78
470.59	13584.47
470.77	13357.44
470.95	13348.08
471.14	13668.73
471.32	13493.19
471.50	13652.34
471.68	13752.99
471.86	13481.49
472.04	14038.53
472.22	14185.99
472.40	13870.01
472.58	13870.01
472.77	14209.39
472.95	14270.25
473.13	14504.30
473.31	14232.80
473.49	14291.31
473.67	14218.75
473.85	14403.66
474.03	14487.92
474.21	14710.27
474.39	15136.24
474.57	14913.89
474.75	14871.76
474.93	15197.10
475.12	15140.93
475.30	15267.31
475.48	15279.02
475.66	15398.38
475.84	14953.68
476.02	15517.75
476.20	15637.12
476.38	15772.87
476.56	16025.65
476.74	16137.99
476.92	16191.83
477.10	16056.08
477.28	16432.90
477.46	16526.52
477.64	16547.59
477.82	16716.11
478.00	16891.65
478.18	17074.21
478.36	17132.72
478.54	17291.88
478.72	17294.22
478.90	17769.35
479.08	17860.63
479.26	17778.71
479.44	17916.80
479.62	17834.88
479.80	18204.69
479.98	18494.91
480.16	18537.04
480.34	18714.92
480.52	18883.44
480.70	18740.67
480.88	18551.09
481.06	18967.70
481.24	18890.46
481.41	19220.48
481.59	19646.46
481.77	19917.96
481.95	19730.72
482.13	19880.51
482.31	20093.50
482.49	20435.22
482.67	20620.12
482.85	20355.64
483.03	20702.04
483.21	20900.98
483.39	21085.89
483.57	20978.22
483.74	21380.79
483.92	21692.08
484.10	21291.85
484.28	21986.99
484.46	22188.28
484.64	22417.65
484.82	22068.91
485.00	22377.86
485.18	22768.73
485.35	23211.09
485.53	23222.80
485.71	23269.61
485.89	23709.63
486.07	23557.49
486.25	23974.11
486.43	23763.46
486.61	24189.44
486.78	24257.31
486.96	24706.70
487.14	24938.41
487.32	24996.92
487.50	25191.19
487.68	25027.35
487.85	25649.93
488.03	25734.19
488.21	25977.61
488.39	25996.33
488.57	26080.59
488.75	26703.17
488.92	26775.73
489.10	26766.37
489.28	27182.98
489.46	27681.52
489.64	27246.18
489.81	27948.34
489.99	27857.06
490.17	27929.61
490.35	28449.21
490.53	27990.47
490.70	28563.90
490.88	28474.96
491.06	29010.94
491.24	28900.94
491.41	29153.71
491.59	29605.44
491.77	29394.79
491.95	29757.57
492.13	30312.28
492.30	30628.25
492.48	30457.39
492.66	30679.74
492.84	30588.46
493.01	30778.04
493.19	30932.52
493.37	31503.61
493.54	31211.04
493.72	31807.88
493.90	31840.65
494.08	31683.83
494.25	32404.72
494.43	32177.68
494.61	32615.37
494.79	32940.70
494.96	32781.54
495.14	32788.56
495.32	33542.22
495.49	33464.98
495.67	33532.86
495.85	34085.22
496.02	34000.96
496.20	34466.73
496.38	34803.77
496.55	34787.38
496.73	34920.79
496.91	34637.59
497.09	35477.84
497.26	35189.95
497.44	35526.99
497.62	35627.63
497.79	36758.11
497.97	36121.49
498.14	35732.96
498.32	36364.90
498.50	36491.29
498.67	37378.36
498.85	37071.75
499.03	36989.83
499.20	36650.45
499.38	37078.77
499.56	37661.56
499.73	37366.65
499.91	37205.16
500.08	38382.45
500.26	37589.00
500.44	37907.32
500.61	38263.08
500.79	38298.19
500.97	38550.96
501.14	38768.63
501.32	38953.54
501.49	39129.08
501.67	38986.30
501.84	39084.61
502.02	39335.04
502.20	39622.93
502.37	39749.32
502.55	39831.24
502.72	39791.45
502.90	39910.82
503.07	40074.65
503.25	40165.93
503.43	40203.38
503.60	40538.08
503.78	40556.80
503.95	40554.46
504.13	40624.68
504.30	40706.60
504.48	40959.38
504.65	41034.27
504.83	41450.89
505.01	41883.89
505.18	41787.92
505.36	42052.41
505.53	41422.80
505.71	42050.06
505.88	42110.92
506.06	42146.03
506.23	42497.11
506.41	42553.28
506.58	42600.09
506.76	42782.65
506.93	42717.12
507.11	42995.64
507.28	43335.02
507.46	43136.07
507.63	43070.54
507.81	43714.19
507.98	43533.96
508.16	43777.38
508.33	43920.15
508.50	44086.33
508.68	43744.61
508.85	44203.36
509.03	44142.50
509.20	44708.91
509.38	44854.03
509.55	44729.98
509.73	45071.70
509.90	45380.65
510.08	44933.60
510.25	44692.53
510.42	44947.65
510.60	45336.18
510.77	45677.90
510.95	45848.75
511.12	45638.11
511.30	45272.98
511.47	45776.20
511.64	45954.08
511.82	45703.64
511.99	46136.64
512.17	46061.74
512.34	46218.56
512.51	46576.66
512.69	46501.76
512.86	46782.63
513.04	46784.97
513.21	47173.50
513.38	47339.68
513.56	46939.44
513.73	47096.26
513.90	47157.11
514.08	47318.61
514.25	48102.69
514.43	47718.84
514.60	47934.17
514.77	47452.02
514.95	48098.01
515.12	47945.87
515.29	48210.35
515.47	48203.33
515.64	48814.21
515.81	48598.88
515.99	48545.05
516.16	48870.39
516.33	48711.23
516.51	49219.13
516.68	48610.59
516.85	48830.60
517.03	49432.11
517.20	49340.83
517.37	49022.52
517.54	49481.27
517.72	49228.49
517.89	49382.96
518.06	49696.59
518.24	49558.50
518.41	49584.25
518.58	49977.46
518.75	49523.40
518.93	49961.08
519.10	50017.25
519.27	50518.12
519.45	49954.05
519.62	50576.64
519.79	50209.17
519.96	50312.16
520.14	50518.12
520.31	50714.73
520.48	51030.70
520.65	50660.90
520.83	51152.41
521.00	51243.69
521.17	50782.60
521.34	50878.57
521.52	51002.61
521.69	51332.63
521.86	51552.64
522.03	51459.02
522.20	51936.49
522.38	51800.74
522.55	51728.18
522.72	51700.09
522.89	51756.27
523.07	51877.97
523.24	51812.44
523.41	52339.06
523.58	52341.40
523.75	52353.10
523.92	52367.15
524.10	52477.15
524.27	52512.26
524.44	52645.67
524.61	52451.41
524.78	52313.31
524.96	52453.75
525.13	52701.84
525.30	52811.85
525.47	52959.30
525.64	52694.82
525.81	53303.36
525.98	52996.75
526.16	52846.96
526.33	53041.22
526.50	53378.26
526.67	53247.19
526.84	53258.89
527.01	53029.52
527.18	53471.88
527.36	53404.00
527.53	53659.12
527.70	53441.45
527.87	53815.94
528.04	53310.38
528.21	53628.69
528.38	53591.25
528.55	53675.51
528.72	53862.75
528.89	53776.15
529.07	53879.13
529.24	53668.48
529.41	54026.59
529.58	53815.94
529.75	54042.97
529.92	54108.50
530.09	54270.00
530.26	54358.94
530.43	54251.28
530.60	53900.20
530.77	54293.41
530.94	54501.71
531.11	54272.34
531.28	54557.89
531.46	54651.51
531.63	54618.74
531.80	54777.90
531.97	54719.38
532.14	54859.82
532.31	54532.14
532.48	54885.56
532.65	55011.95
532.82	54686.62
532.99	54997.91
533.16	55025.99
533.33	55185.15
533.50	55150.04
533.67	55276.43
533.84	55004.93
534.01	55018.97
534.18	54988.55
534.35	55578.36
534.52	55187.49
534.69	55503.46
534.86	55550.27
535.03	55393.46
535.20	55646.24
535.37	55737.52
535.54	55552.62
535.71	55721.13
535.88	55927.10
536.05	55870.93
536.22	55784.33
536.38	55889.65
536.55	55840.50
536.72	55681.34
536.89	56100.30
537.06	55796.03
537.23	56163.50
537.40	55866.25
537.57	56121.37
537.74	56116.68
537.91	56217.33
538.08	56161.15
538.25	56097.96
538.42	56177.54
538.59	56404.57
538.75	56154.13
538.92	56371.80
539.09	56605.86
539.26	56339.04
539.43	56418.61
539.60	56666.71
539.77	56582.45
539.94	56446.70
540.11	56509.89
540.28	56767.35
540.44	56942.89
540.61	56528.62
540.78	56779.06
540.95	56594.15
541.12	56582.45
541.29	56699.48
541.46	56949.92
541.62	56790.76
541.79	56961.62
541.96	56947.57
542.13	56919.49
542.30	57144.18
542.47	57205.03
542.63	57476.54
542.80	57310.36
542.97	57118.43
543.14	57551.43
543.31	57572.50
543.48	57434.41
543.64	57780.81
543.81	57628.67
543.98	57509.30
544.15	57677.82
544.32	57549.09
544.48	57937.62
544.65	57748.04
544.82	57654.42
544.99	57645.05
545.16	57595.90
545.32	57645.05
545.49	58042.95
545.66	58005.50
545.83	57904.85
546.00	57935.28
546.16	58078.05
546.33	57743.36
546.50	57642.71
546.67	58197.42
546.83	57825.28
547.00	57935.28
547.17	57865.06
547.34	58075.71
547.50	58110.82
547.67	58438.50
547.84	58328.49
548.00	58391.68
548.17	58808.30
548.34	58501.69
548.51	58436.16
548.67	58232.53
548.84	58520.41
549.01	58265.30
549.18	58131.89
549.34	58464.24
549.51	58719.36
549.68	58621.06
549.84	58394.03
550.01	58714.68
550.18	58424.45
550.34	58499.35
550.51	58770.85
550.68	58794.26
550.84	58557.86
551.01	58967.46
551.18	59016.61
551.34	58953.41
551.51	58763.83
551.68	58876.18
551.84	58749.79
552.01	58913.62
552.18	59058.74
552.34	58784.90
552.51	58904.26
552.68	58803.62
552.84	58887.88
553.01	59168.74
553.18	59173.42
553.34	59278.75
553.51	59047.04
553.67	59189.81
553.84	59175.76
554.01	59194.49
554.17	59215.55
554.34	59299.81
554.51	59330.24
554.67	59217.89
554.84	59021.29
555.00	59257.68
555.17	59143.00
555.33	59217.89
555.50	59215.55
555.67	59330.24
555.83	59395.77
556.00	59330.24
556.16	59599.40
556.33	59505.78
556.50	59440.24
556.66	59398.12
556.83	59503.44
556.99	59552.59
557.16	59810.05
557.32	59835.80
557.49	59973.89
557.65	59571.32
557.82	59742.17
557.98	59700.04
558.15	59568.97
558.32	59910.69
558.48	59667.28
558.65	59643.87
558.81	59585.36
558.98	59854.52
559.14	59889.63
559.31	59669.62
559.47	59854.52
559.64	60001.97
559.80	59934.10
559.97	59880.27
560.13	59819.41
560.30	59873.24
560.46	59992.61
560.63	59971.55
560.79	60065.17
560.96	60095.60
561.12	60074.53
561.29	60083.89
561.45	60203.26
561.61	59873.24
561.78	60079.21
561.94	60046.44
562.11	59866.22
562.27	60226.66
562.44	60121.34
562.60	60399.86
562.77	60198.58
562.93	60076.87
563.10	60186.88
563.26	59976.23
563.42	60552.00
563.59	60210.28
563.75	60252.41
563.92	60219.64
564.08	60161.13
564.24	60537.96
564.41	60360.08
564.57	60317.95
564.74	60224.32
564.90	60467.74
565.07	60245.39
565.23	60458.38
565.39	60390.50
565.56	60645.62
565.72	60416.25
565.88	60528.59
566.05	60444.33
566.21	60467.74
566.38	60200.92
566.54	60636.26
566.70	60542.64
566.87	60495.83
567.03	60451.36
567.19	60680.73
567.36	60481.78
567.52	60467.74
567.68	60790.73
567.85	60512.21
568.01	60458.38
568.17	60456.04
568.34	60547.32
568.50	60814.14
568.66	60530.93
568.83	60647.96
568.99	60526.25
569.15	60477.10
569.32	60608.17
569.48	60575.40
569.64	60573.06
569.81	60694.77
569.97	60566.04
570.13	60783.71
570.30	60577.75
570.46	60636.26
570.62	60966.27
570.78	60851.59
570.95	60650.30
571.11	60945.21
571.27	60760.31
571.43	60683.07
571.60	61080.96
571.76	60804.78
571.92	60917.12
572.09	60846.91
572.25	60587.11
572.41	60753.29
572.57	60793.07
572.74	61041.17
572.90	60945.21
573.06	61106.71
573.22	60863.29
573.38	60966.27
573.55	60722.86
573.71	61092.66
573.87	61034.15
574.03	60741.58
574.20	61183.94
574.36	60905.42
574.52	60814.14
574.68	60996.70
574.84	60917.12
575.01	61083.30
575.17	60935.85
575.33	60961.59
575.49	60851.59
575.65	61174.58
575.82	61008.40
575.98	61055.21
576.14	61195.65
576.30	61200.33
576.46	60823.50
576.62	60851.59
576.79	61013.08
576.95	61125.43
577.11	61062.24
577.27	61155.86
577.43	61169.90
577.59	60952.23
577.75	61073.94
577.92	60762.65
578.08	60893.72
578.24	61123.09
578.40	61176.92
578.56	61244.80
578.72	61045.85
578.88	61111.39
579.04	61123.09
579.21	60961.59
579.37	61043.51
579.53	61251.82
579.69	60809.46
579.85	61104.37
580.01	61277.57
580.17	61343.10
580.33	61109.05
580.49	61422.68
580.65	61286.93
580.82	60968.61
580.98	61001.38
581.14	61123.09
581.30	61394.59
581.46	60966.27
581.62	61176.92
581.78	61237.78
581.94	61268.20
582.10	61010.74
582.26	61123.09
582.42	61066.92
582.58	61319.70
582.74	61167.56
582.90	61029.47
583.06	61249.48
583.22	61017.77
583.38	61139.47
583.54	61392.25
583.70	61265.86
583.86	61434.38
584.02	61153.52
584.18	61366.51
584.34	61319.70
584.50	61078.62
584.66	61254.16
584.82	61193.31
584.98	61443.74
585.14	61268.20
585.30	61102.03
585.46	61134.79
585.62	61296.29
585.78	61556.09
585.94	61034.15
586.10	61057.56
586.26	61296.29
586.42	61336.08
586.58	61462.47
586.74	61303.31
586.90	61169.90
587.06	61202.67
587.22	61315.01
587.38	61502.26
587.54	61504.60
587.70	61638.01
587.86	61279.91
588.02	61289.27
588.18	61413.32
588.34	61263.52
588.49	61399.27
