SpectraSuite Data File
++++++++++++++++++++++++++++++++++++
Date: Fri Oct 25 11:23:11 EDT 2013
User: price-jones
Dark Spectrum Present: No
Reference Spectrum Present: No
Number of Sampled Component Spectra: 1
Spectrometers: USB2+H05261
Integration Time (usec): 100000 (USB2+H05261)
Spectra Averaged: 1 (USB2+H05261)
Boxcar Smoothing: 0 (USB2+H05261)
Correct for Electrical Dark: No (USB2+H05261)
Strobe/Lamp Enabled: No (USB2+H05261)
Correct for Detector Non-linearity: No (USB2+H05261)
Correct for Stray Light: No (USB2+H05261)
Number of Pixels in Processed Spectrum: 2048
>>>>>Begin Processed Spectral Data<<<<<
365.73	238.73
365.92	238.73
366.12	238.73
366.32	142.77
366.52	105.32
366.72	142.77
366.91	145.11
367.11	86.60
367.31	154.48
367.51	177.88
367.70	126.39
367.90	72.56
368.10	74.90
368.30	114.69
368.49	145.11
368.69	142.77
368.89	212.99
369.09	114.69
369.28	168.52
369.48	100.64
369.68	147.45
369.87	133.41
370.07	135.75
370.27	198.95
370.47	304.27
370.66	491.51
370.86	594.50
371.06	648.33
371.25	713.86
371.45	695.14
371.65	704.50
371.84	671.73
372.04	629.60
372.24	697.48
372.44	685.78
372.63	699.82
372.83	732.59
373.03	741.95
373.22	681.10
373.42	737.27
373.62	730.25
373.81	767.70
374.01	821.53
374.21	772.38
374.40	774.72
374.60	821.53
374.79	774.72
374.99	875.36
375.19	947.92
375.38	807.48
375.58	821.53
375.78	896.43
375.97	802.80
376.17	866.00
376.37	924.51
376.56	875.36
376.76	882.38
376.95	863.66
377.15	926.85
377.35	861.32
377.54	863.66
377.74	833.23
377.93	894.08
378.13	858.98
378.33	983.02
378.52	952.60
378.72	929.19
378.91	990.05
379.11	933.87
379.31	933.87
379.50	922.17
379.70	938.55
379.89	959.62
380.09	954.94
380.28	987.71
380.48	1032.18
380.68	987.71
380.87	985.37
381.07	978.34
381.26	990.05
381.46	1107.07
381.65	1069.62
381.85	1027.50
382.04	1020.47
382.24	1142.18
382.43	957.28
382.63	1046.22
382.83	1064.94
383.02	1137.50
383.22	1170.27
383.41	1029.84
383.61	1146.86
383.80	1153.88
384.00	1128.14
384.19	1083.67
384.39	1132.82
384.58	1226.44
384.78	1123.46
384.97	1069.62
385.17	1121.12
385.36	1238.14
385.56	1224.10
385.75	1217.08
385.95	1139.84
386.14	1247.51
386.34	1280.27
386.53	1249.85
386.72	1233.46
386.92	1359.85
387.11	1284.95
387.31	1289.64
387.50	1160.91
387.70	1287.29
387.89	1291.98
388.09	1245.16
388.28	1242.82
388.48	1282.61
388.67	1341.13
388.86	1196.01
389.06	1301.34
389.25	1369.21
389.45	1418.36
389.64	1376.24
389.84	1355.17
390.03	1420.71
390.22	1385.60
390.42	1383.26
390.61	1423.05
390.81	1458.15
391.00	1385.60
391.19	1430.07
391.39	1371.55
391.58	1497.94
391.78	1509.65
391.97	1474.54
392.16	1514.33
392.36	1495.60
392.55	1427.73
392.75	1558.80
392.94	1605.61
393.13	1591.56
393.33	1547.09
393.52	1537.73
393.71	1483.90
393.91	1556.46
394.10	1530.71
394.29	1675.82
394.49	1446.45
394.68	1692.21
394.88	1678.16
395.07	1607.95
395.26	1689.87
395.46	1593.90
395.65	1713.27
395.84	1736.68
396.04	1781.15
396.23	1778.81
396.42	1809.23
396.62	1743.70
396.81	1802.21
397.00	1853.70
397.19	1825.62
397.39	1806.89
397.58	1741.36
397.77	1837.32
397.97	1832.64
398.16	1900.52
398.35	1966.05
398.55	1830.30
398.74	1947.33
398.93	1984.77
399.12	1959.03
399.32	1902.86
399.51	2036.27
399.70	2008.18
399.90	1966.05
400.09	2066.69
400.28	2031.58
400.47	2010.52
400.67	2120.53
400.86	2076.06
401.05	2071.37
401.24	2050.31
401.44	2165.00
401.63	2087.76
401.82	2232.87
402.01	2183.72
402.21	2235.21
402.40	2260.96
402.59	2207.13
402.78	2207.13
402.97	2291.38
403.17	2272.66
403.36	2246.91
403.55	2228.19
403.74	2370.96
403.93	2438.84
404.13	2354.58
404.32	2366.28
404.51	2356.92
404.70	2455.22
404.89	2415.43
405.09	2541.82
405.28	2485.65
405.47	2518.42
405.66	2532.46
405.85	2600.34
406.05	2502.03
406.24	2633.10
406.43	2565.23
406.62	2628.42
406.81	2640.12
407.00	2537.14
407.20	2633.10
407.39	2644.81
407.58	2829.71
407.77	2710.34
407.96	2808.64
408.15	2890.56
408.34	2719.70
408.54	2820.35
408.73	2829.71
408.92	2780.56
409.11	2925.67
409.30	2892.90
409.49	2895.24
409.68	2972.48
409.87	2979.50
410.07	2981.84
410.26	2974.82
410.45	3026.31
410.64	3136.32
410.83	3101.21
411.02	3087.17
411.21	3307.18
411.40	3157.38
411.59	3382.07
411.78	3136.32
411.98	3269.73
412.17	3314.20
412.36	3370.37
412.55	3337.60
412.74	3564.64
412.93	3419.52
413.12	3290.79
413.31	3613.79
413.50	3463.99
413.69	3496.76
413.88	3714.43
414.07	3571.66
414.26	3681.66
414.45	3693.37
414.64	3754.22
414.83	3826.78
415.02	3712.09
415.22	3885.29
415.41	3740.18
415.60	3852.52
415.79	3838.48
415.98	4028.06
416.17	4180.20
416.36	4044.45
416.55	4091.26
416.74	4107.64
416.93	4086.58
417.12	4060.83
417.31	4332.33
417.50	4180.20
417.69	4191.90
417.88	4355.74
418.07	4344.03
418.26	4348.72
418.45	4456.38
418.64	4575.75
418.83	4500.85
419.02	4456.38
419.21	4524.26
419.39	4592.13
419.58	4407.23
419.77	4514.89
419.96	4545.32
420.15	4552.34
420.34	4688.09
420.53	4664.69
420.72	4711.50
420.91	4655.33
421.10	4730.22
421.29	4786.40
421.48	4608.51
421.67	4762.99
421.86	4849.59
422.05	4861.29
422.24	4966.62
422.43	4919.81
422.61	4971.30
422.80	4968.96
422.99	4898.74
423.18	5121.09
423.37	5128.11
423.56	4961.94
423.75	5039.17
423.94	4812.14
424.13	4753.63
424.32	4973.64
424.50	5125.77
424.69	5238.12
424.88	5174.92
425.07	5095.35
425.26	5156.20
425.45	4971.30
425.64	4945.55
425.83	4957.25
426.01	5100.03
426.20	5132.79
426.39	5088.32
426.58	5064.92
426.77	4929.17
426.96	5233.44
427.15	5277.91
427.33	5090.67
427.52	5135.14
427.71	5378.55
427.90	5254.50
428.09	5348.12
428.28	5472.17
428.46	5416.00
428.65	5373.87
428.84	5514.30
429.03	5715.59
429.22	5420.68
429.40	5472.17
429.59	5680.48
429.78	5315.36
429.97	5298.97
430.16	5577.50
430.34	5673.46
430.53	5563.45
430.72	5853.68
430.91	5778.78
431.10	5664.10
431.28	5767.08
431.47	5825.59
431.66	5977.73
431.85	6012.84
432.03	5984.75
432.22	5994.11
432.41	6249.23
432.60	5991.77
432.79	6099.44
432.97	6108.80
433.16	6183.70
433.35	6017.52
433.54	6162.63
433.72	6272.64
433.91	6141.57
434.10	6216.46
434.28	6310.08
434.47	6284.34
434.66	6270.30
434.85	6263.27
435.03	6434.13
435.22	6450.52
435.41	6572.22
435.59	6370.94
435.78	6539.46
435.97	6415.41
436.16	6562.86
436.34	6621.38
436.53	6553.50
436.72	6665.85
436.90	6581.59
437.09	6651.80
437.28	6530.09
437.46	6775.85
437.65	6614.35
437.84	6939.69
438.02	6752.45
438.21	6794.58
438.40	6747.76
438.58	6986.50
438.77	7115.23
438.96	7073.10
439.14	7318.86
439.33	7110.55
439.52	7206.51
439.70	7187.79
439.89	7480.35
440.08	7489.71
440.26	7456.95
440.45	7513.12
440.63	7573.97
440.82	7531.84
441.01	7620.78
441.19	7557.59
441.38	7751.85
441.57	7920.37
441.75	7817.39
441.94	8102.93
442.12	8091.23
442.31	8224.64
442.50	8180.17
442.68	7962.50
442.87	8332.31
443.05	8241.03
443.24	8355.71
443.43	8170.81
443.61	8175.49
443.80	8652.96
443.98	8241.03
444.17	8006.97
444.35	8271.45
444.54	8446.99
444.73	8390.82
444.91	8409.54
445.10	8547.64
445.28	8283.16
445.47	8358.05
445.65	8388.48
445.84	8627.21
446.02	8596.79
446.21	8526.57
446.39	8454.02
446.58	8442.31
446.77	8500.83
446.95	8362.73
447.14	8741.90
447.32	8451.67
447.51	8571.04
447.69	8482.10
447.88	8650.62
448.06	8688.07
448.25	8802.75
448.43	8561.68
448.62	8737.22
448.80	8622.53
448.99	8657.64
449.17	8961.91
449.36	8706.79
449.54	8973.61
449.73	9221.71
449.91	8968.93
450.10	9006.38
450.28	9301.29
450.46	9158.52
450.65	9151.49
450.83	9268.52
451.02	9022.77
451.20	9270.86
451.39	9245.12
451.57	9153.84
451.76	9195.96
451.94	9343.42
452.13	9561.09
452.31	9453.42
452.49	9315.33
452.68	9465.13
452.86	9345.76
453.05	9441.72
453.23	9549.39
453.42	9329.38
453.60	9568.11
453.78	9734.29
453.97	9666.41
454.15	9631.30
454.34	9355.12
454.52	9645.35
454.70	9692.16
454.89	9881.74
455.07	10017.49
455.26	9982.38
455.44	10012.81
455.62	9937.91
455.81	9933.23
455.99	10384.96
456.17	10176.65
456.36	10176.65
456.54	10466.88
456.73	10527.73
456.91	10633.05
457.09	10520.71
457.28	10754.76
457.46	10464.54
457.64	10621.35
457.83	10729.02
458.01	10630.71
458.19	10815.62
458.38	10480.92
458.56	10726.68
458.74	10832.00
458.93	10810.93
459.11	10965.41
459.29	10874.13
459.48	11012.22
459.66	10932.64
459.84	11021.58
460.03	11332.87
460.21	11183.08
460.39	11082.44
460.57	11286.06
460.76	11129.25
460.94	11026.26
461.12	11206.48
461.31	11393.73
461.49	11136.27
461.67	11386.71
461.85	11440.54
462.04	11328.19
462.22	11805.66
462.40	11857.15
462.59	11747.15
462.77	11393.73
462.95	11716.72
463.13	11969.50
463.32	11847.79
463.50	11796.30
463.68	11981.20
463.86	11894.60
464.05	11606.72
464.23	11873.54
464.41	12219.94
464.59	11913.33
464.78	12049.08
464.96	12187.17
465.14	12159.08
465.32	12180.15
465.50	12248.02
465.69	12472.71
465.87	12175.47
466.05	12266.75
466.23	12341.64
466.41	12482.08
466.60	12510.16
466.78	12383.77
466.96	12203.55
467.14	12250.36
467.32	12524.21
467.51	12751.24
467.69	12280.79
467.87	12594.42
468.05	12552.29
468.23	12610.81
468.41	12456.33
468.60	12746.56
468.78	13006.36
468.96	12666.98
469.14	12982.95
469.32	12891.67
469.50	12791.03
469.69	12830.82
469.87	12957.21
470.05	13179.56
470.23	13261.48
470.41	13411.27
470.59	13371.48
470.77	13205.30
470.95	13474.46
471.14	13668.73
471.32	13193.60
471.50	13511.91
471.68	13731.92
471.86	14143.86
472.04	13977.68
472.22	14200.03
472.40	13734.26
472.58	13998.74
472.77	14143.86
472.95	14277.27
473.13	14829.63
473.31	14415.36
473.49	14368.55
473.67	14417.70
473.85	14443.45
474.03	14710.27
474.21	14576.86
474.39	15023.90
474.57	15016.88
474.75	14731.33
474.93	15379.66
475.12	15384.34
475.30	15269.66
475.48	15321.15
475.66	15407.75
475.84	15122.20
476.02	15611.37
476.20	15407.75
476.38	15782.23
476.56	16077.14
476.74	16163.74
476.92	15721.38
477.10	15807.98
477.28	16496.10
477.46	16334.60
477.64	16437.58
477.82	16538.23
478.00	16971.22
478.18	16919.73
478.36	17298.90
478.54	17528.27
478.72	17167.83
478.90	17750.62
479.08	17891.06
479.26	18312.35
479.44	18038.51
479.62	18026.81
479.80	18078.30
479.98	18111.07
480.16	18801.52
480.34	18525.34
480.52	18822.59
480.70	19105.79
480.88	18518.32
481.06	19194.73
481.24	18918.55
481.41	19264.95
481.59	19580.92
481.77	19489.64
481.95	19609.01
482.13	19800.93
482.31	19981.15
482.49	20645.87
482.67	20079.46
482.85	20912.69
483.03	20720.76
483.21	20671.61
483.39	21294.19
483.57	21144.40
483.74	21556.33
483.92	21507.18
484.10	21128.02
484.28	21584.42
484.46	22113.38
484.64	23105.77
484.82	22384.88
485.00	22581.49
485.18	23061.30
485.35	23386.63
485.53	23293.01
485.71	23398.34
485.89	23800.91
486.07	23321.10
486.25	23726.01
486.43	24254.97
486.61	23821.97
486.78	24159.01
486.96	24460.94
487.14	25001.60
487.32	24996.92
487.50	24971.18
487.68	25305.87
487.85	25656.95
488.03	26054.84
488.21	26401.24
488.39	25898.03
488.57	26637.64
488.75	26466.78
488.92	26920.84
489.10	27035.53
489.28	26953.61
489.46	27433.42
489.64	27358.52
489.81	27946.00
489.99	27936.63
490.17	28407.08
490.35	28341.55
490.53	28411.76
490.70	28697.31
490.88	28807.31
491.06	29120.95
491.24	29284.78
491.41	29266.06
491.59	29528.20
491.77	29457.98
491.95	30118.01
492.13	29991.62
492.30	30433.99
492.48	30401.22
492.66	30593.14
492.84	31049.55
493.01	31079.97
493.19	31225.09
493.37	31613.62
493.54	31835.97
493.72	32060.66
493.90	31943.63
494.08	32247.90
494.25	32201.09
494.43	32306.41
494.61	32921.98
494.79	32624.73
494.96	32573.24
495.14	33434.55
495.32	33366.68
495.49	33350.29
495.67	34106.29
495.85	33909.68
496.02	33905.00
496.20	34190.55
496.38	34415.24
496.55	34323.96
496.73	35433.37
496.91	35328.05
497.09	35030.80
497.26	35704.87
497.44	35189.95
497.62	35454.44
497.79	36187.02
497.97	36418.74
498.14	36390.65
498.32	36582.57
498.50	36694.92
498.67	37120.90
498.85	36715.98
499.03	36947.70
499.20	36795.56
499.38	37177.07
499.56	37116.22
499.73	37677.94
499.91	38019.66
500.08	38064.13
500.26	37560.92
500.44	38307.55
500.61	38387.13
500.79	38190.52
500.97	38363.72
501.14	38637.56
501.32	38913.75
501.49	38976.94
501.67	39271.85
501.84	39302.28
502.02	39040.14
502.20	39524.63
502.37	39847.62
502.55	39716.55
502.72	39957.63
502.90	39821.87
503.07	39936.56
503.25	40346.15
503.43	40580.21
503.60	40779.15
503.78	40769.79
503.95	40570.85
504.13	40725.32
504.30	41354.93
504.48	40914.90
504.65	41193.43
504.83	41633.45
505.01	41942.40
505.18	41528.13
505.36	42087.51
505.53	41731.75
505.71	41745.80
505.88	42302.84
506.06	41827.71
506.23	42719.46
506.41	42462.00
506.58	42553.28
506.76	42335.61
506.93	43117.35
507.11	42562.64
507.28	43487.15
507.46	42845.85
507.63	43533.96
507.81	43903.77
507.98	43075.22
508.16	43775.04
508.33	44058.24
508.50	44027.82
508.68	43873.34
508.85	44210.38
509.03	44421.03
509.20	44325.07
509.38	44973.39
509.55	44882.11
509.73	45045.95
509.90	44917.22
510.08	45165.32
510.25	45165.32
510.42	45048.29
510.60	45249.58
510.77	45490.65
510.95	45773.86
511.12	45893.22
511.30	45368.94
511.47	45773.86
511.64	45827.69
511.82	46506.44
511.99	46319.20
512.17	46459.63
512.34	46223.24
512.51	46827.10
512.69	46810.71
512.86	46799.01
513.04	47332.65
513.21	47316.27
513.38	47227.33
513.56	47236.69
513.73	47870.98
513.90	47517.56
514.08	47468.40
514.25	47779.70
514.43	47880.34
514.60	47821.83
514.77	48088.65
514.95	47711.82
515.12	47985.66
515.29	48179.93
515.47	48500.58
515.64	48399.94
515.81	48575.48
515.99	48488.88
516.16	49045.93
516.33	48659.74
516.51	49031.88
516.68	49085.72
516.85	49109.12
517.03	49179.34
517.20	49588.93
517.37	49389.98
517.54	49207.42
517.72	49518.71
517.89	49385.30
518.06	49481.27
518.24	49448.50
518.41	49918.95
518.58	49883.84
518.75	49832.35
518.93	49834.69
519.10	50010.23
519.27	50078.10
519.45	50298.11
519.62	50602.38
519.79	50143.64
519.96	50586.00
520.14	50848.14
520.31	50232.58
520.48	50927.72
520.65	50635.15
520.83	51164.11
521.00	51016.66
521.17	51000.27
521.34	51330.29
521.52	51243.69
521.69	51267.09
521.86	51360.72
522.03	51578.39
522.20	51875.63
522.38	51569.02
522.55	51700.09
522.72	51819.46
522.89	51756.27
523.07	51859.25
523.24	52069.90
523.41	52259.48
523.58	51896.70
523.75	52346.08
523.92	51983.30
524.10	52481.83
524.27	52355.44
524.44	52521.62
524.61	52397.57
524.78	52554.39
524.96	52521.62
525.13	52612.90
525.30	52598.86
525.47	53010.79
525.64	52830.57
525.81	52795.46
525.98	53153.57
526.16	52748.65
526.33	52849.30
526.50	53326.77
526.67	53258.89
526.84	53333.79
527.01	53420.39
527.18	52912.49
527.36	53495.28
527.53	53642.74
527.70	53635.72
527.87	53521.03
528.04	53469.54
528.21	53502.31
528.38	53722.32
528.55	53942.33
528.72	53724.66
528.89	53991.48
529.07	53787.85
529.24	53649.76
529.41	54143.61
529.58	54003.18
529.75	54103.82
529.92	54176.38
530.09	54071.06
530.26	54295.75
530.43	54426.82
530.60	54218.51
530.77	54251.28
530.94	54588.31
531.11	54490.01
531.28	54302.77
531.46	54639.81
531.63	54850.45
531.80	54431.50
531.97	55044.72
532.14	54827.05
532.31	54890.24
532.48	54986.21
532.65	55246.00
532.82	54815.35
532.99	55025.99
533.16	54817.69
533.33	55105.57
533.50	55056.42
533.67	55161.75
533.84	55238.98
534.01	55215.58
534.18	55370.05
534.35	55786.67
534.52	55379.42
534.69	55601.77
534.86	55758.58
535.03	55508.14
535.20	55360.69
535.37	55524.53
535.54	55756.24
535.71	55538.57
535.88	55683.69
536.05	55779.65
536.22	55660.28
536.38	55877.95
536.55	55697.73
536.72	56170.52
536.89	55880.29
537.06	56048.81
537.23	56339.04
537.40	55889.65
537.57	55882.63
537.74	55973.91
537.91	56336.69
538.08	56002.00
538.25	55999.66
538.42	56175.20
538.59	56610.54
538.75	56182.22
538.92	56332.01
539.09	56500.53
539.26	56655.01
539.43	56507.55
539.60	56348.40
539.77	56420.95
539.94	56636.28
540.11	56619.90
540.28	56774.37
540.44	56701.82
540.61	56767.35
540.78	56690.12
540.95	56945.23
541.12	56559.05
541.29	56549.68
541.46	56952.26
541.62	56722.88
541.79	56800.12
541.96	56910.13
542.13	56842.25
542.30	56917.15
542.47	57130.14
542.63	57153.54
542.80	57345.47
542.97	57525.69
543.14	57586.54
543.31	57237.80
543.48	57399.30
543.64	57689.52
543.81	57553.77
543.98	57455.47
544.15	57715.27
544.32	57743.36
544.48	57902.51
544.65	57663.78
544.82	57677.82
544.99	57776.12
545.16	57741.02
545.32	57832.30
545.49	57979.75
545.66	58152.95
545.83	58206.78
546.00	58075.71
546.16	58007.84
546.33	57918.90
546.50	58115.50
546.67	57869.75
546.83	57780.81
547.00	58127.20
547.17	58021.88
547.34	57989.11
547.50	58368.28
547.67	58482.97
547.84	58492.33
548.00	58468.92
548.17	58595.31
548.34	58443.18
548.51	58457.22
548.67	58440.84
548.84	58372.96
549.01	58384.66
549.18	58667.87
549.34	58520.41
549.51	58574.25
549.68	58831.71
549.84	58651.48
550.01	58684.25
550.18	58492.33
550.34	58777.87
550.51	58927.67
550.68	58714.68
550.84	58557.86
551.01	58812.98
551.18	58906.60
551.34	58955.75
551.51	58838.73
551.68	58850.43
551.84	58993.20
552.01	58862.13
552.18	58988.52
552.34	58808.30
552.51	58915.96
552.68	58841.07
552.84	58899.58
553.01	59227.26
553.18	59210.87
553.34	59309.18
553.51	59100.87
553.67	59161.72
553.84	59299.81
554.01	59229.60
554.17	59260.02
554.34	59393.43
554.51	59243.64
554.67	59229.60
554.84	59458.97
555.00	59253.00
555.17	59318.54
555.33	59178.10
555.50	59393.43
555.67	59105.55
555.83	59171.08
556.00	59501.10
556.16	59536.21
556.33	59576.00
556.50	59463.65
556.66	59746.86
556.83	59327.90
556.99	59629.83
557.16	59882.61
557.32	59896.65
557.49	59901.33
557.65	59653.23
557.82	59613.44
557.98	59601.74
558.15	59749.20
558.32	59704.73
558.48	59568.97
558.65	59735.15
558.81	59725.79
558.98	60009.00
559.14	59971.55
559.31	60030.06
559.47	60011.34
559.64	60116.66
559.80	60090.91
559.97	59849.84
560.13	59915.37
560.30	59999.63
560.46	59877.93
560.63	59992.61
560.79	59868.56
560.96	60065.17
561.12	60341.35
561.29	60229.01
561.45	60020.70
561.61	60184.54
561.78	60067.51
561.94	60214.96
562.11	60261.77
562.27	60137.72
562.44	60207.94
562.60	60381.14
562.77	60282.84
562.93	59861.54
563.10	60212.62
563.26	60069.85
563.42	60392.84
563.59	60346.03
563.75	60271.14
563.92	60378.80
564.08	60296.88
564.24	60467.74
564.41	60434.97
564.57	60362.42
564.74	60182.19
564.90	60388.16
565.07	60498.17
565.23	60353.05
565.39	60385.82
565.56	60514.55
565.72	60243.05
565.88	60313.26
566.05	60303.90
566.21	60516.89
566.38	60439.65
566.54	60640.94
566.70	60725.20
566.87	60673.71
567.03	60383.48
567.19	60664.35
567.36	60610.51
567.52	60563.70
567.68	60706.47
567.85	60423.27
568.01	60687.75
568.17	60575.40
568.34	60530.93
568.50	60535.62
568.66	60603.49
568.83	60760.31
568.99	60678.39
569.15	60772.01
569.32	60774.35
569.48	60633.92
569.64	60781.37
569.81	60722.86
569.97	60502.85
570.13	60549.66
570.30	60441.99
570.46	60818.82
570.62	60823.50
570.78	60800.10
570.95	60601.15
571.11	60842.23
571.27	60795.42
571.43	60753.29
571.60	60828.18
571.76	60781.37
571.92	60889.04
572.09	60914.78
572.25	60893.72
572.41	60921.80
572.57	61008.40
572.74	61165.22
572.90	60921.80
573.06	60811.80
573.22	60837.54
573.38	60954.57
573.55	60764.99
573.71	61130.11
573.87	60874.99
574.03	60638.60
574.20	61087.98
574.36	60928.83
574.52	60891.38
574.68	60835.20
574.84	61043.51
575.01	60989.68
575.17	61052.87
575.33	60959.25
575.49	61022.45
575.65	61001.38
575.82	61059.90
575.98	61045.85
576.14	61226.07
576.30	61368.85
576.46	61022.45
576.62	60802.44
576.79	60917.12
576.95	61017.77
577.11	61099.68
577.27	61087.98
577.43	61169.90
577.59	61066.92
577.75	60912.44
577.92	60935.85
578.08	60931.17
578.24	61095.00
578.40	61137.13
578.56	61174.58
578.72	61256.50
578.88	61296.29
579.04	61441.40
579.21	61109.05
579.37	61305.65
579.53	61153.52
579.69	61048.19
579.85	61165.22
580.01	61062.24
580.17	60928.83
580.33	61179.26
580.49	61261.18
580.65	61158.20
580.82	61221.39
580.98	61240.12
581.14	61064.58
581.30	61317.35
581.46	61167.56
581.62	61359.48
581.78	61275.22
581.94	61223.73
582.10	61148.84
582.26	61120.75
582.42	61233.10
582.58	61158.20
582.74	61256.50
582.90	61085.64
583.06	61249.48
583.22	61106.71
583.38	61186.28
583.54	61270.54
583.70	61350.12
583.86	61237.78
584.02	60985.00
584.18	61368.85
584.34	61022.45
584.50	61300.97
584.66	61226.07
584.82	61144.16
584.98	61434.38
585.14	61174.58
585.30	61282.25
585.46	61403.95
585.62	61289.27
585.78	61387.57
585.94	61130.11
586.10	61373.53
586.26	61209.69
586.42	61518.64
586.58	61322.04
586.74	61446.08
586.90	61230.75
587.06	61071.60
587.22	61322.04
587.38	61371.19
587.54	61317.35
587.70	61546.73
587.86	61080.96
588.02	61385.23
588.18	61385.23
588.34	61209.69
588.49	61352.46
