SpectraSuite Data File
++++++++++++++++++++++++++++++++++++
Date: Fri Oct 25 10:48:04 EDT 2013
User: price-jones
Dark Spectrum Present: No
Reference Spectrum Present: No
Number of Sampled Component Spectra: 1
Spectrometers: USB2+H05261
Integration Time (usec): 100000 (USB2+H05261)
Spectra Averaged: 1 (USB2+H05261)
Boxcar Smoothing: 0 (USB2+H05261)
Correct for Electrical Dark: No (USB2+H05261)
Strobe/Lamp Enabled: No (USB2+H05261)
Correct for Detector Non-linearity: No (USB2+H05261)
Correct for Stray Light: No (USB2+H05261)
Number of Pixels in Processed Spectrum: 2048
>>>>>Begin Processed Spectral Data<<<<<
365.73	102.98
365.92	102.98
366.12	102.98
366.32	98.30
366.52	7.02
366.72	107.66
366.91	0.00
367.11	35.11
367.31	0.00
367.51	58.51
367.70	11.70
367.90	23.41
368.10	60.85
368.30	100.64
368.49	39.79
368.69	110.01
368.89	0.00
369.09	39.79
369.28	110.01
369.48	60.85
369.68	135.75
369.87	56.17
370.07	39.79
370.27	154.48
370.47	175.54
370.66	315.97
370.86	477.47
371.06	416.62
371.25	475.13
371.45	463.43
371.65	500.87
371.84	437.68
372.04	503.22
372.24	484.49
372.44	475.13
372.63	517.26
372.83	421.30
373.03	468.11
373.22	505.56
373.42	566.41
373.62	545.34
373.81	620.24
374.01	557.05
374.21	557.05
374.40	622.58
374.60	528.96
374.79	540.66
374.99	545.34
375.19	514.92
375.38	545.34
375.58	594.50
375.78	596.84
375.97	547.69
376.17	645.99
376.37	545.34
376.56	575.77
376.76	608.54
376.95	620.24
377.15	636.63
377.35	587.47
377.54	587.47
377.74	603.86
377.93	559.39
378.13	613.22
378.33	571.09
378.52	528.96
378.72	638.97
378.91	543.00
379.11	592.16
379.31	641.31
379.50	587.47
379.70	655.35
379.89	608.54
380.09	624.92
380.28	578.11
380.48	617.90
380.68	645.99
380.87	622.58
381.07	620.24
381.26	638.97
381.46	622.58
381.65	620.24
381.85	669.39
382.04	657.69
382.24	648.33
382.43	709.18
382.63	674.07
382.83	704.50
383.02	671.73
383.22	704.50
383.41	711.52
383.61	685.78
383.80	819.19
384.00	758.33
384.19	784.08
384.39	692.80
384.58	725.57
384.78	772.38
384.97	748.97
385.17	725.57
385.36	732.59
385.56	706.84
385.75	730.25
385.95	763.01
386.14	690.46
386.34	765.36
386.53	777.06
386.72	737.27
386.92	753.65
387.11	737.27
387.31	805.14
387.50	748.97
387.70	781.74
387.89	821.53
388.09	716.20
388.28	755.99
388.48	877.70
388.67	851.96
388.86	851.96
389.06	875.36
389.25	926.85
389.45	929.19
389.64	933.87
389.84	826.21
390.03	908.13
390.22	903.45
390.42	947.92
390.61	936.21
390.81	987.71
391.00	943.24
391.19	959.62
391.39	938.55
391.58	936.21
391.78	938.55
391.97	947.92
392.16	985.37
392.36	1020.47
392.55	999.41
392.75	987.71
392.94	929.19
393.13	976.00
393.33	999.41
393.52	950.26
393.71	1076.65
393.91	947.92
394.10	1083.67
394.29	1088.35
394.49	1043.88
394.68	1060.26
394.88	1041.54
395.07	1060.26
395.26	1048.56
395.46	1083.67
395.65	1165.59
395.84	1071.97
396.04	1160.91
396.23	1184.31
396.42	1165.59
396.62	1001.75
396.81	1109.41
397.00	1102.39
397.19	1196.01
397.39	1240.48
397.58	1221.76
397.77	1217.08
397.97	1196.01
398.16	1296.66
398.35	1254.53
398.55	1231.12
398.74	1259.21
398.93	1366.87
399.12	1266.23
399.32	1289.64
399.51	1308.36
399.70	1369.21
399.90	1282.61
400.09	1336.45
400.28	1434.75
400.47	1371.55
400.67	1439.43
400.86	1357.51
401.05	1434.75
401.24	1465.18
401.44	1425.39
401.63	1453.47
401.82	1394.96
402.01	1439.43
402.21	1526.03
402.40	1460.49
402.59	1462.83
402.78	1472.20
402.97	1605.61
403.17	1549.43
403.36	1497.94
403.55	1526.03
403.74	1549.43
403.93	1626.67
404.13	1598.59
404.32	1521.35
404.51	1659.44
404.70	1645.40
404.89	1610.29
405.09	1727.32
405.28	1636.03
405.47	1706.25
405.66	1708.59
405.85	1675.82
406.05	1785.83
406.24	1598.59
406.43	1842.00
406.62	1823.28
406.81	1860.73
407.00	1802.21
407.20	1809.23
407.39	1732.00
407.58	1783.49
407.77	1881.79
407.96	1842.00
408.15	1874.77
408.34	1987.11
408.54	2078.40
408.73	2019.88
408.92	1937.96
409.11	1991.80
409.30	2083.08
409.49	1975.41
409.68	1963.71
409.87	1973.07
410.07	1954.35
410.26	2033.93
410.45	2139.25
410.64	2111.16
410.83	2108.82
411.02	2165.00
411.21	2307.77
411.40	2225.85
411.59	2286.70
411.78	2314.79
411.98	2230.53
412.17	2326.49
412.36	2303.09
412.55	2307.77
412.74	2373.30
412.93	2310.11
413.12	2340.54
413.31	2363.94
413.50	2569.91
413.69	2487.99
413.88	2452.88
414.07	2520.76
414.26	2663.53
414.45	2595.65
414.64	2574.59
414.83	2661.19
415.02	2684.59
415.22	2623.74
415.41	2663.53
415.60	2740.77
415.79	2813.32
415.98	2841.41
416.17	2740.77
416.36	2712.68
416.55	2878.86
416.74	2853.11
416.93	2841.41
417.12	2967.80
417.31	2930.35
417.50	2946.73
417.69	3042.70
417.88	2998.23
418.07	3096.53
418.26	3117.59
418.45	3026.31
418.64	3185.47
418.83	3066.10
419.02	3171.43
419.21	3150.36
419.39	3077.80
419.58	3192.49
419.77	3141.00
419.96	3236.96
420.15	3314.20
420.34	3215.90
420.53	3323.56
420.72	3288.45
420.91	3396.12
421.10	3236.96
421.29	3337.60
421.48	3248.66
421.67	3300.16
421.86	3328.24
422.05	3286.11
422.24	3346.97
422.43	3468.67
422.61	3492.08
422.80	3339.94
422.99	3297.81
423.18	3281.43
423.37	3489.74
423.56	3454.63
423.75	3454.63
423.94	3339.94
424.13	3309.52
424.32	3318.88
424.50	3555.27
424.69	3508.46
424.88	3550.59
425.07	3407.82
425.26	3407.82
425.45	3503.78
425.64	3501.44
425.83	3456.97
426.01	3609.11
426.20	3442.93
426.39	3442.93
426.58	3679.32
426.77	3581.02
426.96	3613.79
427.15	3508.46
427.33	3616.13
427.52	3566.98
427.71	3566.98
427.90	3569.32
428.09	3644.21
428.28	3566.98
428.46	3655.92
428.65	3749.54
428.84	3735.50
429.03	3737.84
429.22	3695.71
429.40	3684.00
429.59	3707.41
429.78	3471.01
429.97	3588.04
430.16	3712.09
430.34	3735.50
430.53	3740.18
430.72	3882.95
430.91	3770.60
431.10	3831.46
431.28	3882.95
431.47	3824.44
431.66	4236.37
431.85	3896.99
432.03	4060.83
432.22	4168.49
432.41	3999.98
432.60	4098.28
432.79	4056.15
432.97	4105.30
433.16	4161.47
433.35	4163.81
433.54	4292.54
433.72	4210.62
433.91	4210.62
434.10	4341.69
434.28	4210.62
434.47	4278.50
434.66	4332.33
434.85	4283.18
435.03	4465.74
435.22	4280.84
435.41	4472.76
435.59	4425.95
435.78	4311.27
435.97	4517.23
436.16	4517.23
436.34	4386.16
436.53	4425.95
436.72	4622.56
436.90	4390.84
437.09	4500.85
437.28	4477.44
437.46	4622.56
437.65	4451.70
437.84	4660.01
438.02	4524.26
438.21	4564.04
438.40	4521.92
438.58	4652.98
438.77	4732.56
438.96	4875.34
439.14	4873.00
439.33	4898.74
439.52	4980.66
439.70	4912.78
439.89	5008.75
440.08	5139.82
440.26	5036.83
440.45	4875.34
440.63	5095.35
440.82	5242.80
441.01	5097.69
441.19	5284.93
441.38	5277.91
441.57	5397.28
441.75	5284.93
441.94	5568.13
442.12	5392.59
442.31	5549.41
442.50	5526.00
442.68	5540.05
442.87	5504.94
443.05	5504.94
443.24	5589.20
443.43	5621.97
443.61	5701.54
443.80	5839.64
443.98	5387.91
444.17	5453.45
444.35	5664.10
444.54	5795.17
444.73	5863.04
444.91	5640.69
445.10	5783.46
445.28	5685.16
445.47	5657.07
445.65	5776.44
445.84	5729.63
446.02	5699.20
446.21	5748.36
446.39	5687.50
446.58	5832.62
446.77	5813.89
446.95	5710.91
447.14	5856.02
447.32	5994.11
447.51	5776.44
447.69	5631.33
447.88	5884.11
448.06	5898.15
448.25	5984.75
448.43	5860.70
448.62	5872.40
448.80	5989.43
448.99	6071.35
449.17	6132.20
449.36	6069.01
449.54	6069.01
449.73	6164.97
449.91	6118.16
450.10	6328.81
450.28	6284.34
450.46	6293.70
450.65	6331.15
450.83	6139.23
451.02	6139.23
451.20	6345.19
451.39	6366.26
451.57	6150.93
451.76	6293.70
451.94	6326.47
452.13	6300.72
452.31	6307.74
452.49	6368.60
452.68	6434.13
452.86	6452.86
453.05	6516.05
453.23	6466.90
453.42	6260.93
453.60	6274.98
453.78	6532.44
453.97	6616.69
454.15	6600.31
454.34	6459.88
454.52	6752.45
454.70	6689.25
454.89	6590.95
455.07	6750.10
455.26	6710.32
455.44	7019.27
455.62	6822.66
455.81	6612.01
455.99	6825.00
456.17	6855.43
456.36	6848.41
456.54	7190.13
456.73	6942.03
456.91	6977.14
457.09	7000.54
457.28	7222.89
457.46	7138.63
457.64	7171.40
457.83	7232.26
458.01	7061.40
458.19	7290.77
458.38	7410.14
458.56	7353.96
458.74	7323.54
458.93	7262.68
459.11	7236.94
459.29	7290.77
459.48	7222.89
459.66	7400.77
459.84	7564.61
460.03	7286.09
460.21	7396.09
460.39	7335.24
460.57	7536.52
460.76	7503.76
460.94	7597.38
461.12	7456.95
461.31	7623.12
461.49	7573.97
461.67	7662.91
461.85	7765.90
462.04	7524.82
462.22	8093.57
462.40	7978.89
462.59	7918.03
462.77	7871.22
462.95	7826.75
463.13	7735.47
463.32	7969.52
463.50	7960.16
463.68	8002.29
463.86	7950.80
464.05	7925.05
464.23	7871.22
464.41	8166.13
464.59	7817.39
464.78	8098.25
464.96	8119.32
465.14	7861.86
465.32	8081.87
465.50	8116.98
465.69	8339.33
465.87	8231.66
466.05	8173.15
466.23	8276.13
466.41	8210.60
466.60	8376.78
466.78	8084.21
466.96	8215.28
467.14	8367.42
467.32	8198.90
467.51	8381.46
467.69	8147.40
467.87	8318.26
468.05	8423.59
468.23	8290.18
468.41	8475.08
468.60	8421.25
468.78	8477.42
468.96	8397.84
469.14	8524.23
469.32	8678.71
469.50	8388.48
469.69	8833.18
469.87	8325.29
470.05	8884.67
470.23	8706.79
470.41	8877.65
470.59	8863.61
470.77	8840.20
470.95	8828.50
471.14	8917.44
471.32	8879.99
471.50	9184.26
471.68	8894.04
471.86	9085.96
472.04	9137.45
472.22	9518.96
472.40	9067.24
472.58	9371.50
472.77	9280.22
472.95	9540.02
473.13	9692.16
473.31	9366.82
473.49	9357.46
473.67	9392.57
473.85	9481.51
474.03	9982.38
474.21	9397.25
474.39	9619.60
474.57	9734.29
474.75	9865.36
474.93	9848.97
475.12	9804.50
475.30	10195.37
475.48	10171.97
475.66	10043.24
475.84	10087.71
476.02	10043.24
476.20	10293.68
476.38	10251.55
476.56	10609.65
476.74	10586.24
476.92	10567.52
477.10	10518.37
477.28	11035.63
477.46	10913.92
477.64	10846.04
477.82	11000.52
478.00	11070.73
478.18	10970.09
478.36	11133.93
478.54	11414.79
478.72	11367.98
478.90	11279.04
479.08	11559.91
479.26	11793.96
479.44	11791.62
479.62	11810.34
479.80	11655.87
479.98	11985.88
480.16	12091.21
480.34	12133.34
480.52	12339.30
480.70	12196.53
480.88	12283.13
481.06	12393.14
481.24	12432.93
481.41	12421.22
481.59	12919.76
481.77	12659.96
481.95	12872.95
482.13	13022.74
482.31	12774.64
482.49	13174.88
482.67	13406.59
482.85	13380.84
483.03	13760.01
483.21	13610.22
483.39	14134.50
483.57	13605.53
483.74	13935.55
483.92	13928.53
484.10	13710.86
484.28	14057.26
484.46	14548.77
484.64	14651.75
484.82	14436.42
485.00	14370.89
485.18	14857.72
485.35	14904.53
485.53	14820.27
485.71	14717.29
485.89	15049.64
486.07	15030.92
486.25	14930.28
486.43	15232.21
486.61	15257.95
486.78	15653.50
486.96	15702.65
487.14	15747.12
487.32	16023.31
487.50	16196.51
487.68	16334.60
487.85	16341.62
488.03	16849.52
488.21	16732.49
488.39	16528.86
488.57	16861.22
488.75	16893.99
488.92	17284.86
489.10	17420.61
489.28	17427.63
489.46	17584.44
489.64	17392.52
489.81	17855.95
489.99	18017.44
490.17	18384.91
490.35	18396.61
490.53	18209.37
490.70	18473.85
490.88	18452.78
491.06	18590.88
491.24	18525.34
491.41	18621.30
491.59	18773.44
491.77	18668.11
491.95	19117.50
492.13	19482.62
492.30	19398.36
492.48	19524.75
492.66	19784.55
492.84	19447.51
493.01	20060.73
493.19	19798.59
493.37	20215.21
493.54	20285.42
493.72	20273.72
493.90	20325.21
494.08	20643.52
494.25	20823.75
494.43	21008.65
494.61	21221.64
494.79	21214.62
494.96	21085.89
495.14	20996.95
495.32	21228.66
495.49	21532.93
495.67	21673.36
495.85	21682.72
496.02	21731.87
496.20	22176.58
496.38	21928.48
496.55	22171.89
496.73	22530.00
496.91	22270.20
497.09	22366.16
497.26	22537.02
497.44	22796.82
497.62	23030.87
497.79	23103.43
497.97	22689.15
498.14	23527.06
498.32	23110.45
498.50	23257.90
498.67	23316.42
498.85	23410.04
499.03	23836.02
499.20	23784.52
499.38	23625.37
499.56	23847.72
499.73	24011.56
499.91	23903.89
500.08	24091.13
500.26	23964.75
500.44	24102.84
500.61	24313.48
500.79	24315.83
500.97	24437.53
501.14	25174.80
501.32	24882.24
501.49	24872.87
501.67	24753.51
501.84	24971.18
502.02	24889.26
502.20	25312.89
502.37	25317.57
502.55	25345.66
502.72	25544.61
502.90	25673.34
503.07	25184.16
503.25	25544.61
503.43	25560.99
503.60	25809.09
503.78	26050.16
503.95	25902.71
504.13	25839.51
504.30	26279.54
504.48	26178.89
504.65	26490.18
504.83	26424.65
505.01	26546.36
505.18	26539.33
505.36	27012.12
505.53	26717.22
505.71	26670.40
505.88	27248.52
506.06	26658.70
506.23	27037.87
506.41	26637.64
506.58	27140.85
506.76	27400.65
506.93	27271.92
507.11	27307.03
507.28	27564.49
507.46	27353.84
507.63	27208.73
507.81	27711.94
507.98	27419.38
508.16	27934.29
508.33	27590.24
508.50	28229.20
508.68	28011.53
508.85	28526.45
509.03	28325.16
509.20	28460.91
509.38	28643.48
509.55	28807.31
509.73	28416.44
509.90	28910.30
510.08	28718.37
510.25	28809.65
510.42	29064.77
510.60	29116.26
510.77	29193.50
510.95	29202.86
511.12	29041.37
511.30	29788.00
511.47	29624.16
511.64	29472.03
511.82	29420.53
511.99	29502.45
512.17	29404.15
512.34	29649.91
512.51	29745.87
512.69	30164.82
512.86	30132.06
513.04	30176.53
513.21	30012.69
513.38	29851.19
513.56	30136.74
513.73	30441.01
513.90	30541.65
514.08	30232.70
514.25	30368.45
514.43	30855.28
514.60	30511.22
514.77	30394.20
514.95	30988.69
515.12	30813.15
515.29	30646.97
515.47	31147.85
515.64	31131.47
515.81	31278.92
515.99	31309.35
516.16	31412.33
516.33	31398.29
516.51	31428.71
516.68	31108.06
516.85	31412.33
517.03	31035.50
517.20	31206.36
517.37	31807.88
517.54	31756.39
517.72	31711.92
517.89	31770.43
518.06	32074.70
518.24	31906.18
518.41	31777.45
518.58	32149.60
518.75	32168.32
518.93	32133.21
519.10	32650.47
519.27	32348.54
519.45	32350.88
519.62	32638.77
519.79	32428.12
519.96	32889.21
520.14	32814.31
520.31	32659.84
520.48	32954.74
520.65	33401.79
520.83	33116.24
521.00	32802.61
521.17	32823.67
521.34	33275.40
521.52	33406.47
521.69	33425.19
521.86	33633.50
522.03	33345.61
522.20	33420.51
522.38	33947.13
522.55	33834.78
522.72	33640.52
522.89	33652.22
523.07	33895.64
523.24	33680.31
523.41	34302.89
523.58	33677.97
523.75	34092.24
523.92	34281.83
524.10	34527.58
524.27	34745.25
524.44	34274.80
524.61	34499.50
524.78	34752.27
524.96	34862.28
525.13	35194.64
525.30	34967.60
525.47	34897.39
525.64	34452.69
525.81	34888.03
525.98	34962.92
526.16	34930.16
526.33	34836.53
526.50	35660.40
526.67	34871.64
526.84	35084.63
527.01	35068.25
527.18	34902.07
527.36	35629.98
527.53	35592.53
527.70	35950.63
527.87	35688.49
528.04	35386.56
528.21	36018.50
528.38	35679.13
528.55	35817.22
528.72	35887.43
528.89	36208.09
529.07	36140.21
529.24	35328.05
529.41	36226.81
529.58	36020.84
529.75	36226.81
529.92	36760.45
530.09	36149.57
530.26	36638.75
530.43	36238.51
530.60	36580.23
530.77	36617.68
530.94	37235.58
531.11	36453.84
531.28	36505.34
531.46	36861.10
531.63	36797.90
531.80	36868.12
531.97	36531.08
532.14	36760.45
532.31	36711.30
532.48	36978.12
532.65	37668.58
532.82	36741.73
532.99	37200.47
533.16	37118.56
533.33	37418.14
533.50	37633.47
533.67	37287.07
533.84	37106.85
534.01	37537.51
534.18	37181.75
534.35	37975.19
534.52	37317.50
534.69	37153.66
534.86	37682.62
535.03	37666.24
535.20	37684.97
535.37	37874.55
535.54	38005.62
535.71	38251.38
535.88	38197.54
536.05	38148.39
536.22	38665.65
536.38	38300.53
536.55	38185.84
536.72	38075.84
536.89	37827.74
537.06	38576.71
537.23	38667.99
537.40	38103.92
537.57	38309.89
537.74	38377.76
537.91	39007.37
538.08	38883.32
538.25	38433.94
538.42	38403.51
538.59	39047.16
538.75	38244.35
538.92	38873.96
539.09	38803.74
539.26	39054.18
539.43	38604.80
539.60	39150.14
539.77	38813.10
539.94	39061.20
540.11	38878.64
540.28	39108.01
540.44	38799.06
540.61	39344.41
540.78	39030.77
540.95	38925.45
541.12	39187.59
541.29	39274.19
541.46	39140.78
541.62	39447.39
541.79	39571.44
541.96	39243.76
542.13	39299.94
542.30	39688.46
542.47	39646.33
542.63	39435.69
542.80	40037.20
542.97	40046.57
543.14	40084.01
543.31	39962.31
543.48	39882.73
543.64	40378.92
543.81	40268.92
543.98	40140.19
544.15	40154.23
544.32	40093.38
544.48	40233.81
544.65	40079.33
544.82	40439.78
544.99	40392.97
545.16	39988.05
545.32	40453.82
545.49	40708.94
545.66	41146.62
545.83	40863.41
546.00	40383.60
546.16	40669.15
546.33	40479.57
546.50	40357.86
546.67	41001.50
546.83	40261.90
547.00	40671.49
547.17	40587.23
547.34	40758.09
547.50	40910.22
547.67	40896.18
547.84	40912.56
548.00	41048.32
548.17	41502.38
548.34	41476.63
548.51	41249.60
548.67	41493.02
548.84	41689.62
549.01	41336.20
549.18	41441.53
549.34	41425.14
549.51	41357.27
549.68	41289.39
549.84	41624.09
550.01	41310.46
550.18	41551.53
550.34	41207.47
550.51	41401.74
550.68	41523.44
550.84	41109.17
551.01	41713.03
551.18	41450.89
551.34	41804.31
551.51	41984.53
551.68	41820.69
551.84	42316.89
552.01	41624.09
552.18	41642.81
552.34	41799.63
552.51	42234.97
552.68	41984.53
552.84	42431.57
553.01	41961.12
553.18	42045.38
553.34	41989.21
553.51	42047.72
553.67	42398.80
553.84	42204.54
554.01	42246.67
554.17	42071.13
554.34	42738.18
554.51	42464.34
554.67	42464.34
554.84	42146.03
555.00	42033.68
555.17	42541.58
555.33	42511.15
555.50	42429.23
555.67	42546.26
555.83	42518.17
556.00	42344.97
556.16	42782.65
556.33	42595.41
556.50	42567.32
556.66	42796.70
556.83	42459.66
556.99	42932.45
557.16	42897.34
557.32	42887.98
557.49	43253.10
557.65	42305.18
557.82	42902.02
557.98	42787.33
558.15	42433.91
558.32	43019.05
558.48	43194.59
558.65	42532.22
558.81	42719.46
558.98	42979.26
559.14	42801.38
559.31	42892.66
559.47	43007.34
559.64	43239.06
559.80	43381.83
559.97	42806.06
560.13	42719.46
560.30	42916.06
560.46	43037.77
560.63	42883.30
560.79	42836.48
560.96	43775.04
561.12	43075.22
561.29	43000.32
561.45	43276.51
561.61	43407.58
561.78	43316.29
561.94	43229.69
562.11	43290.55
562.27	43068.20
562.44	42773.29
562.60	43636.95
562.77	44060.58
562.93	43660.35
563.10	44044.20
563.26	43320.98
563.42	43550.35
563.59	43220.33
563.75	43363.11
563.92	43229.69
564.08	42997.98
564.24	43667.37
564.41	44016.11
564.57	43679.08
564.74	43365.45
564.90	44079.31
565.07	43838.23
565.23	43543.33
565.39	43498.86
565.56	43920.15
565.72	43686.10
565.88	43665.03
566.05	43196.93
566.21	43725.89
566.38	43674.40
566.54	44053.56
566.70	43697.80
566.87	44030.16
567.03	43538.65
567.19	44072.29
567.36	43990.37
567.52	43782.06
567.68	43503.54
567.85	43564.39
568.01	44119.10
568.17	43819.51
568.34	44149.53
568.50	43899.09
568.66	43899.09
568.83	43973.98
568.99	43601.84
569.15	43952.92
569.32	44048.88
569.48	43253.10
569.64	44470.18
569.81	44128.46
569.97	43938.88
570.13	43821.85
570.30	43796.10
570.46	43435.66
570.62	43847.60
570.78	43627.59
570.95	43826.53
571.11	44259.53
571.27	44123.78
571.43	43892.07
571.60	44058.24
571.76	43749.29
571.92	43936.54
572.09	43805.47
572.25	43793.76
572.41	44226.76
572.57	44123.78
572.74	44229.10
572.90	44034.84
573.06	43871.00
573.22	44210.38
573.38	43817.17
573.55	43742.27
573.71	43842.92
573.87	43936.54
574.03	44069.95
574.20	43978.67
574.36	43550.35
574.52	44577.84
574.68	44208.04
574.84	44177.61
575.01	44278.25
575.17	44091.01
575.33	44519.33
575.49	43695.46
575.65	44596.57
575.82	44020.80
575.98	44425.71
576.14	44170.59
576.30	44252.51
576.46	43983.35
576.62	44208.04
576.79	44142.50
576.95	43840.57
577.11	44254.85
577.27	44479.54
577.43	43917.81
577.59	44376.56
577.75	44341.45
577.92	44065.27
578.08	44079.31
578.24	44055.90
578.40	43878.02
578.56	44282.94
578.72	43863.98
578.88	44435.07
579.04	44114.42
579.21	44397.62
579.37	43964.62
579.53	44224.42
579.69	43880.36
579.85	44795.51
580.01	44519.33
580.17	44191.65
580.33	44416.35
580.49	44369.54
580.65	44617.63
580.82	44177.61
580.98	44257.19
581.14	44205.70
581.30	44425.71
581.46	44212.72
581.62	44423.37
581.78	44456.14
581.94	44514.65
582.10	44278.25
582.26	44271.23
582.42	44205.70
582.58	44512.31
582.74	44266.55
582.90	44477.20
583.06	44402.30
583.22	44528.69
583.38	44753.38
583.54	44156.55
583.70	44243.15
583.86	44495.92
584.02	43765.68
584.18	44327.41
584.34	44378.90
584.50	44460.82
584.66	44755.72
584.82	44041.86
584.98	44612.95
585.14	44217.40
585.30	44531.03
585.46	44210.38
585.62	44147.18
585.78	44589.55
585.94	43948.24
586.10	43955.26
586.26	43831.21
586.42	44531.03
586.58	44612.95
586.74	44381.24
586.90	44088.67
587.06	44093.35
587.22	44538.05
587.38	43686.10
587.54	44437.41
587.70	44641.04
587.86	44753.38
588.02	44418.69
588.18	44336.77
588.34	44257.19
588.49	44526.35
588.65	43990.37
588.81	44488.90
588.97	44238.47
589.13	44371.88
589.29	44329.75
589.45	44486.56
589.61	44561.46
589.77	45055.31
589.93	44722.96
590.08	44765.09
590.24	44847.00
