SpectraSuite Data File
++++++++++++++++++++++++++++++++++++
Date: Fri Oct 25 10:47:56 EDT 2013
User: price-jones
Dark Spectrum Present: No
Reference Spectrum Present: No
Number of Sampled Component Spectra: 1
Spectrometers: USB2+H05261
Integration Time (usec): 100000 (USB2+H05261)
Spectra Averaged: 1 (USB2+H05261)
Boxcar Smoothing: 0 (USB2+H05261)
Correct for Electrical Dark: No (USB2+H05261)
Strobe/Lamp Enabled: No (USB2+H05261)
Correct for Detector Non-linearity: No (USB2+H05261)
Correct for Stray Light: No (USB2+H05261)
Number of Pixels in Processed Spectrum: 2048
>>>>>Begin Processed Spectral Data<<<<<
365.73	168.52
365.92	168.52
366.12	168.52
366.32	58.51
366.52	23.41
366.72	93.62
366.91	56.17
367.11	91.28
367.31	44.47
367.51	110.01
367.70	117.03
367.90	46.81
368.10	67.88
368.30	23.41
368.49	2.34
368.69	86.60
368.89	114.69
369.09	23.41
369.28	25.75
369.48	37.45
369.68	138.09
369.87	95.96
370.07	105.32
370.27	177.88
370.47	147.45
370.66	454.06
370.86	437.68
371.06	491.51
371.25	503.22
371.45	454.06
371.65	465.77
371.84	491.51
372.04	472.79
372.24	425.98
372.44	423.64
372.63	540.66
372.83	475.13
373.03	468.11
373.22	463.43
373.42	493.85
373.62	503.22
373.81	524.28
374.01	559.39
374.21	615.56
374.40	486.83
374.60	568.75
374.79	678.76
374.99	519.60
375.19	573.43
375.38	592.16
375.58	594.50
375.78	606.20
375.97	585.13
376.17	676.41
376.37	655.35
376.56	613.22
376.76	528.96
376.95	535.98
377.15	631.94
377.35	669.39
377.54	592.16
377.74	566.41
377.93	608.54
378.13	594.50
378.33	676.41
378.52	638.97
378.72	727.91
378.91	631.94
379.11	631.94
379.31	561.73
379.50	512.58
379.70	610.88
379.89	580.45
380.09	650.67
380.28	629.60
380.48	669.39
380.68	648.33
380.87	664.71
381.07	697.48
381.26	758.33
381.46	641.31
381.65	704.50
381.85	704.50
382.04	732.59
382.24	662.37
382.43	692.80
382.63	732.59
382.83	615.56
383.02	671.73
383.22	697.48
383.41	676.41
383.61	786.42
383.80	814.51
384.00	784.08
384.19	763.01
384.39	809.83
384.58	798.12
384.78	755.99
384.97	720.88
385.17	777.06
385.36	739.61
385.56	730.25
385.75	727.91
385.95	772.38
386.14	840.25
386.34	781.74
386.53	795.78
386.72	683.44
386.92	847.27
387.11	877.70
387.31	786.42
387.50	758.33
387.70	835.57
387.89	833.23
388.09	875.36
388.28	830.89
388.48	849.61
388.67	863.66
388.86	910.47
389.06	908.13
389.25	887.06
389.45	837.91
389.64	847.27
389.84	950.26
390.03	912.81
390.22	802.80
390.42	894.08
390.61	884.72
390.81	800.46
391.00	973.66
391.19	1001.75
391.39	943.24
391.58	976.00
391.78	950.26
391.97	1015.79
392.16	952.60
392.36	1027.50
392.55	950.26
392.75	994.73
392.94	1034.52
393.13	903.45
393.33	926.85
393.52	992.39
393.71	1053.24
393.91	968.98
394.10	1123.46
394.29	1055.58
394.49	1008.77
394.68	1086.01
394.88	1076.65
395.07	1100.05
395.26	1121.12
395.46	1121.12
395.65	1121.12
395.84	1104.73
396.04	1165.59
396.23	1184.31
396.42	1193.67
396.62	1093.03
396.81	1107.07
397.00	1081.33
397.19	1184.31
397.39	1114.10
397.58	1200.69
397.77	1205.38
397.97	1294.32
398.16	1219.42
398.35	1385.60
398.55	1352.83
398.74	1259.21
398.93	1284.95
399.12	1366.87
399.32	1331.76
399.51	1373.89
399.70	1343.47
399.90	1378.58
400.09	1359.85
400.28	1437.09
400.47	1345.81
400.67	1427.73
400.86	1488.58
401.05	1427.73
401.24	1544.75
401.44	1521.35
401.63	1521.35
401.82	1500.28
402.01	1500.28
402.21	1542.41
402.40	1511.99
402.59	1469.86
402.78	1507.30
402.97	1516.67
403.17	1600.93
403.36	1636.03
403.55	1582.20
403.74	1577.52
403.93	1586.88
404.13	1633.69
404.32	1603.27
404.51	1631.35
404.70	1692.21
404.89	1678.16
405.09	1722.63
405.28	1717.95
405.47	1818.60
405.66	1760.08
405.85	1813.92
406.05	1809.23
406.24	1724.97
406.43	1856.04
406.62	1921.58
406.81	1907.54
407.00	1919.24
407.20	1694.55
407.39	1886.47
407.58	1891.15
407.77	1832.64
407.96	1954.35
408.15	1977.75
408.34	1944.99
408.54	1984.77
408.73	1921.58
408.92	1959.03
409.11	2080.74
409.30	2083.08
409.49	1970.73
409.68	2040.95
409.87	2179.04
410.07	1973.07
410.26	2054.99
410.45	2134.57
410.64	2115.84
410.83	2118.18
411.02	2111.16
411.21	2237.55
411.40	2223.51
411.59	2143.93
411.78	2359.26
411.98	2277.34
412.17	2321.81
412.36	2270.32
412.55	2457.56
412.74	2462.24
412.93	2401.39
413.12	2469.27
413.31	2509.05
413.50	2420.11
413.69	2583.95
413.88	2630.76
414.07	2562.89
414.26	2609.70
414.45	2626.08
414.64	2705.66
414.83	2609.70
415.02	2724.38
415.22	2750.13
415.41	2766.51
415.60	2874.18
415.79	2780.56
415.98	2925.67
416.17	2757.15
416.36	2977.16
416.55	2796.94
416.74	2818.00
416.93	2867.16
417.12	2911.63
417.31	2885.88
417.50	2932.69
417.69	3054.40
417.88	3091.85
418.07	2902.26
418.26	3059.08
418.45	3239.30
418.64	3138.66
418.83	3110.57
419.02	3141.00
419.21	3222.92
419.39	3122.27
419.58	3192.49
419.77	3206.53
419.96	3229.94
420.15	3262.71
420.34	3234.62
420.53	3267.39
420.72	3307.18
420.91	3438.25
421.10	3349.31
421.29	3370.37
421.48	3391.44
421.67	3389.10
421.86	3276.75
422.05	3480.38
422.24	3379.73
422.43	3440.59
422.61	3492.08
422.80	3496.76
422.99	3571.66
423.18	3552.93
423.37	3618.47
423.56	3508.46
423.75	3552.93
423.94	3398.46
424.13	3218.24
424.32	3386.76
424.50	3557.61
424.69	3707.41
424.88	3541.23
425.07	3550.59
425.26	3435.91
425.45	3529.53
425.64	3702.73
425.83	3562.30
426.01	3606.77
426.20	3552.93
426.39	3588.04
426.58	3585.70
426.77	3679.32
426.96	3611.45
427.15	3623.15
427.33	3695.71
427.52	3744.86
427.71	3786.99
427.90	3794.01
428.09	3822.09
428.28	3674.64
428.46	3744.86
428.65	3796.35
428.84	3824.44
429.03	4074.87
429.22	3768.26
429.40	3730.81
429.59	3861.88
429.78	3850.18
429.97	3644.21
430.16	3667.62
430.34	3707.41
430.53	3920.40
430.72	3768.26
430.91	3976.57
431.10	3815.07
431.28	3911.04
431.47	4077.21
431.66	4114.66
431.85	4074.87
432.03	4109.98
432.22	4035.08
432.41	4264.46
432.60	4278.50
432.79	4109.98
432.97	4299.56
433.16	4180.20
433.35	4173.18
433.54	4304.25
433.72	4344.03
433.91	4252.75
434.10	4353.40
434.28	4287.86
434.47	4491.49
434.66	4449.36
434.85	4479.79
435.03	4358.08
435.22	4423.61
435.41	4683.41
435.59	4479.79
435.78	4601.49
435.97	4603.83
436.16	4573.41
436.34	4568.73
436.53	4599.15
436.72	4875.34
436.90	4491.49
437.09	4606.17
437.28	4524.26
437.46	4617.88
437.65	4777.03
437.84	4840.23
438.02	4683.41
438.21	4603.83
438.40	4770.01
438.58	4746.61
438.77	4856.61
438.96	4788.74
439.14	4842.57
439.33	5085.98
439.52	5048.54
439.70	4945.55
439.89	5039.17
440.08	5186.63
440.26	5177.26
440.45	5123.43
440.63	5277.91
440.82	5282.59
441.01	5228.76
441.19	5448.77
441.38	5408.98
441.57	5378.55
441.75	5614.95
441.94	5729.63
442.12	5746.02
442.31	5713.25
442.50	5708.57
442.68	5703.89
442.87	5554.09
443.05	5640.69
443.24	5746.02
443.43	5671.12
443.61	5865.38
443.80	5968.37
443.98	5671.12
444.17	5551.75
444.35	5827.93
444.54	5898.15
444.73	5830.27
444.91	5645.37
445.10	5863.04
445.28	5844.32
445.47	5675.80
445.65	5877.09
445.84	5771.76
446.02	5837.30
446.21	5926.24
446.39	5867.72
446.58	5949.64
446.77	6043.26
446.95	5907.51
447.14	6015.18
447.32	6083.05
447.51	6040.92
447.69	5839.64
447.88	5989.43
448.06	6026.88
448.25	5970.71
448.43	5951.98
448.62	5907.51
448.80	5923.90
448.99	6136.88
449.17	6188.38
449.36	5977.73
449.54	6246.89
449.73	6120.50
449.91	6293.70
450.10	6441.15
450.28	6621.38
450.46	6274.98
450.65	6347.53
450.83	6492.65
451.02	6455.20
451.20	6534.78
451.39	6469.24
451.57	6476.26
451.76	6310.08
451.94	6642.44
452.13	6586.27
452.31	6525.41
452.49	6286.68
452.68	6492.65
452.86	6546.48
453.05	6541.80
453.23	6768.83
453.42	6555.84
453.60	6530.09
453.78	6796.92
453.97	6604.99
454.15	6670.53
454.34	6750.10
454.52	6693.93
454.70	6766.49
454.89	6684.57
455.07	6719.68
455.26	6785.21
455.44	7045.01
455.62	6836.70
455.81	6869.47
455.99	6918.62
456.17	7131.61
456.36	7117.57
456.54	6984.16
456.73	7227.57
456.91	7194.81
457.09	7082.46
457.28	7379.71
457.46	7190.13
457.64	7236.94
457.83	7351.62
458.01	7035.65
458.19	7520.14
458.38	7269.70
458.56	7447.58
458.74	7283.75
458.93	7424.18
459.11	7377.37
459.29	7447.58
459.48	7428.86
459.66	7618.44
459.84	7662.91
460.03	7592.70
460.21	7548.23
460.39	7761.22
460.57	7559.93
460.76	7660.57
460.94	7838.45
461.12	7817.39
461.31	7595.04
461.49	7983.57
461.67	7882.92
461.85	7906.33
462.04	7747.17
462.22	8255.07
462.40	8046.76
462.59	7857.18
462.77	7927.39
462.95	8128.68
463.13	7971.86
463.32	8124.00
463.50	8140.38
463.68	8088.89
463.86	8114.64
464.05	8070.17
464.23	7983.57
464.41	8353.37
464.59	8002.29
464.78	8245.71
464.96	8219.96
465.14	8086.55
465.32	8294.86
465.50	8339.33
465.69	8498.49
465.87	8238.69
466.05	8318.26
466.23	8514.87
466.41	8308.90
466.60	8540.61
466.78	8336.99
466.96	8248.05
467.14	8353.37
467.32	8404.86
467.51	8608.49
467.69	8439.97
467.87	8531.25
468.05	8484.44
468.23	8652.96
468.41	8463.38
468.60	8540.61
468.78	8629.56
468.96	8699.77
469.14	8695.09
469.32	8961.91
469.50	8671.68
469.69	8823.82
469.87	8912.76
470.05	8931.48
470.23	9006.38
470.41	8999.36
470.59	9102.34
470.77	9069.58
470.95	9020.42
471.14	9385.55
471.32	8982.98
471.50	9397.25
471.68	9533.00
471.86	9303.63
472.04	9322.35
472.22	9528.32
472.40	9184.26
472.58	9451.08
472.77	9371.50
472.95	9401.93
473.13	9837.27
473.31	9664.07
473.49	9572.79
473.67	9530.66
473.85	9720.24
474.03	9877.06
474.21	10001.11
474.39	10029.20
474.57	10040.90
474.75	10223.46
474.93	10164.95
475.12	10094.73
475.30	10167.29
475.48	10169.63
475.66	10200.05
475.84	10012.81
476.02	10361.55
476.20	10424.75
476.38	10607.31
476.56	10459.85
476.74	10764.12
476.92	10712.63
477.10	10693.91
477.28	10918.60
477.46	10848.38
477.64	11323.51
477.82	11318.83
478.00	11473.31
478.18	11349.26
478.36	11353.94
478.54	11421.81
478.72	11372.66
478.90	11793.96
479.08	11866.52
479.26	11864.18
479.44	11824.39
479.62	12243.34
479.80	12028.01
479.98	12114.61
480.16	12503.14
480.34	12336.96
480.52	12549.95
480.70	12566.34
480.88	12198.87
481.06	12374.41
481.24	12758.26
481.41	12702.09
481.59	12987.63
481.77	12931.46
481.95	12931.46
482.13	13043.81
482.31	13090.62
482.49	13668.73
482.67	13397.23
482.85	13614.90
483.03	13659.37
483.21	13830.23
483.39	14115.77
483.57	14092.37
483.74	13982.36
483.92	14363.87
484.10	14370.89
484.28	14520.68
484.46	14665.80
484.64	14932.62
484.82	14883.47
485.00	14984.11
485.18	15023.90
485.35	15185.40
485.53	14977.09
485.71	15007.52
485.89	15356.25
486.07	15204.12
486.25	15580.95
486.43	15405.41
486.61	15599.67
486.78	15840.75
486.96	15819.68
487.14	16049.05
487.32	15906.28
487.50	16781.64
487.68	16791.00
487.85	16837.81
488.03	16919.73
488.21	17202.94
488.39	16924.41
488.57	17188.89
488.75	17219.32
488.92	17603.17
489.10	17919.14
489.28	17874.67
489.46	17675.73
489.64	17923.82
489.81	18448.10
489.99	18389.59
490.17	18654.07
490.35	18820.25
490.53	18485.55
490.70	18625.98
490.88	18640.03
491.06	19140.90
491.24	18902.17
491.41	18867.06
491.59	19253.25
491.77	19412.40
491.95	19548.15
492.13	19440.49
492.30	19854.76
492.48	19716.67
492.66	19742.42
492.84	19646.46
493.01	20102.86
493.19	20112.22
493.37	20596.71
493.54	20772.25
493.72	20821.41
493.90	20706.72
494.08	21223.98
494.25	21092.91
494.43	21153.76
494.61	21020.35
494.79	21490.80
494.96	21369.09
495.14	21565.70
495.32	21832.52
495.49	21972.95
495.67	21479.10
495.85	21970.61
496.02	22284.24
496.20	22298.28
496.38	22260.84
496.55	22427.01
496.73	22815.54
496.91	22923.21
497.09	22841.29
497.26	23075.34
497.44	22986.40
497.62	23262.58
497.79	23309.40
497.97	23281.31
498.14	23639.41
498.32	23906.23
498.50	23513.02
498.67	23704.95
498.85	24004.53
499.03	24189.44
499.20	24240.93
499.38	24322.85
499.56	24353.27
499.73	24496.05
499.91	24580.31
500.08	24652.86
500.26	24526.47
500.44	24500.73
500.61	24533.50
500.79	24907.98
500.97	24814.36
501.14	25420.56
501.32	25214.59
501.49	24966.49
501.67	24975.86
501.84	25537.59
502.02	25301.19
502.20	25589.08
502.37	25348.00
502.55	25898.03
502.72	25851.22
502.90	25940.16
503.07	25734.19
503.25	26190.59
503.43	26031.44
503.60	26302.94
503.78	26569.76
503.95	26111.02
504.13	26618.91
504.30	26293.58
504.48	26295.92
504.65	26742.96
504.83	27075.32
505.01	27208.73
505.18	26888.07
505.36	27274.26
505.53	27138.51
505.71	27531.72
505.88	27555.13
506.06	27131.49
506.23	27442.78
506.41	27470.87
506.58	27482.57
506.76	27756.41
506.93	27611.30
507.11	27803.22
507.28	27814.93
507.46	27885.14
507.63	27821.95
507.81	28395.38
507.98	28140.26
508.16	27807.90
508.33	28428.15
508.50	28659.86
508.68	28308.78
508.85	28863.49
509.03	28744.12
509.20	28811.99
509.38	29425.22
509.55	28811.99
509.73	29034.35
509.90	28828.38
510.08	28409.42
510.25	29109.24
510.42	29544.58
510.60	29486.07
510.77	29624.16
510.95	30082.91
511.12	29366.70
511.30	29839.49
511.47	30239.72
511.64	29982.26
511.82	30160.14
511.99	30108.65
512.17	29773.95
512.34	30015.03
512.51	30485.48
512.69	30396.54
512.86	30485.48
513.04	31087.00
513.21	30600.16
513.38	30579.10
513.56	30551.01
513.73	30738.26
513.90	31456.80
514.08	30881.03
514.25	30946.56
514.43	31035.50
514.60	30859.96
514.77	31087.00
514.95	31182.96
515.12	31344.45
515.29	31152.53
515.47	31845.33
515.64	31374.88
515.81	31798.52
515.99	31615.96
516.16	31789.16
516.33	31735.32
516.51	31852.35
516.68	31529.36
516.85	31527.02
517.03	31805.54
517.20	32109.81
517.37	32233.86
517.54	32020.87
517.72	32456.21
517.89	31850.01
518.06	32130.87
518.24	32467.91
518.41	32224.50
518.58	32322.80
518.75	32566.21
518.93	32751.12
519.10	32737.07
519.27	32638.77
519.45	32606.00
519.62	32821.33
519.79	33132.62
519.96	33378.38
520.14	33418.17
520.31	32854.10
520.48	33446.26
520.65	33537.54
520.83	33867.55
521.00	33652.22
521.17	33261.35
521.34	33507.11
521.52	33792.65
521.69	33883.94
521.86	34199.91
522.03	34178.84
522.20	34099.26
522.38	34188.21
522.55	34611.84
522.72	34328.64
522.89	34422.26
523.07	34483.11
523.24	34197.57
523.41	34698.44
523.58	34092.24
523.75	35072.93
523.92	34663.33
524.10	35185.27
524.27	34747.59
524.44	35297.62
524.61	35124.42
524.78	35084.63
524.96	35402.94
525.13	35515.29
525.30	35545.72
525.47	36037.23
525.64	35775.09
525.81	35665.08
525.98	35936.59
526.16	34883.34
526.33	34974.63
526.50	35494.22
526.67	35587.85
526.84	35360.81
527.01	35239.11
527.18	35629.98
527.36	35821.90
527.53	36208.09
527.70	36222.13
527.87	36299.37
528.04	35924.88
528.21	36299.37
528.38	36180.00
528.55	36589.59
528.72	36376.61
528.89	36636.41
529.07	36732.37
529.24	36388.31
529.41	36591.94
529.58	36561.51
529.75	36517.04
529.92	37104.51
530.09	36877.48
530.26	36751.09
530.43	36840.03
530.60	36540.44
530.77	37127.92
530.94	37319.84
531.11	36811.95
531.28	37202.82
531.46	37383.04
531.63	37645.18
531.80	37436.87
531.97	36825.99
532.14	37322.18
532.31	37233.24
532.48	37340.91
532.65	37682.62
532.82	37504.74
532.99	37757.52
533.16	37294.10
533.33	38057.11
533.50	37872.21
533.67	37830.08
533.84	38171.80
534.01	37750.50
534.18	37912.00
534.35	38045.41
534.52	37619.43
534.69	37598.37
534.86	38529.90
535.03	37525.81
535.20	38639.90
535.37	38801.40
535.54	38618.84
535.71	38274.78
535.88	38775.66
536.05	38316.91
536.22	38597.77
536.38	38483.09
536.55	38546.28
536.72	38499.47
536.89	38557.99
537.06	38260.74
537.23	38508.83
537.40	38553.30
537.57	38740.55
537.74	38686.71
537.91	39091.63
538.08	39194.61
538.25	38810.76
538.42	39072.90
538.59	39339.72
538.75	38625.86
538.92	39023.75
539.09	39262.49
539.26	39098.65
539.43	39377.17
539.60	39377.17
539.77	38897.36
539.94	39271.85
540.11	39814.85
540.28	39267.17
540.44	39152.48
540.61	39358.45
540.78	39739.96
540.95	39636.97
541.12	39089.29
541.29	39943.58
541.46	39505.90
541.62	39826.56
541.79	39819.53
541.96	39318.66
542.13	40093.38
542.30	40126.14
542.47	40238.49
542.63	40123.80
542.80	40407.01
542.97	40229.13
543.14	40807.24
543.31	40807.24
543.48	40641.06
543.64	41373.65
543.81	40910.22
543.98	40732.34
544.15	40722.98
544.32	40896.18
544.48	40957.03
544.65	40800.22
544.82	41151.30
544.99	40495.95
545.16	40849.37
545.32	40807.24
545.49	41265.99
545.66	40966.40
545.83	40737.02
546.00	41378.33
546.16	40814.26
546.33	41287.05
546.50	41024.91
546.67	41113.85
546.83	40601.27
547.00	40954.69
547.17	40921.93
547.34	41088.10
547.50	41331.52
547.67	41691.96
547.84	41600.68
548.00	41663.88
548.17	41677.92
548.34	41443.87
548.51	41680.26
548.67	41886.23
548.84	42181.13
549.01	41614.72
549.18	41710.69
549.34	41600.68
549.51	41621.75
549.68	42178.79
549.84	42286.46
550.01	42223.26
550.18	41567.91
550.34	42108.58
550.51	42157.73
550.68	41383.01
550.84	41432.16
551.01	41654.51
551.18	42078.15
551.34	41649.83
551.51	42436.25
551.68	41970.49
551.84	42403.49
552.01	42141.35
552.18	42471.36
552.34	42052.41
552.51	42148.37
552.68	42581.37
552.84	42527.53
553.01	42955.85
553.18	42487.74
553.34	42632.86
553.51	42295.82
553.67	42539.24
553.84	42674.99
554.01	42689.03
554.17	42775.63
554.34	43093.94
554.51	42951.17
554.67	42918.40
554.84	42532.22
555.00	42731.16
555.17	42630.52
555.33	42981.60
555.50	42796.70
555.67	42700.73
555.83	42787.33
556.00	43239.06
556.16	43466.09
556.33	42958.19
556.50	43517.58
556.66	43246.08
556.83	43044.79
556.99	43105.65
557.16	43461.41
557.32	42988.62
557.49	43505.88
557.65	42838.83
557.82	43248.42
557.98	42824.78
558.15	43096.28
558.32	43330.34
558.48	43117.35
558.65	43344.38
558.81	43372.47
558.98	43337.36
559.14	43257.78
559.31	43201.61
559.47	43470.77
559.64	43868.66
559.80	44023.14
559.97	44002.07
560.13	43440.34
560.30	43290.55
560.46	43428.64
560.63	43409.92
560.79	43786.74
560.96	43370.13
561.12	43810.15
561.29	43372.47
561.45	43842.92
561.61	43739.93
561.78	43653.33
561.94	43210.97
562.11	43852.28
562.27	43332.68
562.44	43578.43
562.60	43941.22
562.77	44126.12
562.93	43793.76
563.10	44105.06
563.26	43519.92
563.42	43983.35
563.59	43693.12
563.75	43868.66
563.92	44161.23
564.08	43842.92
564.24	43856.96
564.41	44175.27
564.57	43466.09
564.74	44030.16
564.90	43934.20
565.07	44016.11
565.23	43695.46
565.39	44072.29
565.56	44371.88
565.72	43976.33
565.88	44161.23
566.05	43880.36
566.21	43840.57
566.38	43835.89
566.54	43784.40
566.70	44500.61
566.87	44573.16
567.03	44158.89
567.19	44411.67
567.36	44301.66
567.52	43854.62
567.68	44423.37
567.85	44158.89
568.01	44261.87
568.17	44053.56
568.34	43871.00
568.50	44135.48
568.66	43873.34
568.83	44350.81
568.99	43721.21
569.15	44236.12
569.32	44346.13
569.48	44133.14
569.64	44622.31
569.81	44563.80
569.97	44311.02
570.13	44339.11
570.30	44287.62
570.46	43934.20
570.62	44158.89
570.78	43922.49
570.95	44428.05
571.11	44488.90
571.27	44425.71
571.43	44739.34
571.60	44486.56
571.76	44236.12
571.92	44254.85
572.09	44423.37
572.25	44463.16
572.41	44320.38
572.57	44289.96
572.74	44900.84
572.90	44755.72
573.06	44589.55
573.22	44842.32
573.38	44685.51
573.55	44411.67
573.71	44605.93
573.87	44477.20
574.03	44205.70
574.20	44238.47
574.36	44666.78
574.52	44594.23
574.68	44617.63
574.84	44737.00
575.01	44706.57
575.17	44507.63
575.33	44388.26
575.49	44198.68
575.65	44704.23
575.82	44514.65
575.98	44720.62
576.14	44516.99
576.30	44540.39
576.46	44067.61
576.62	44481.88
576.79	44706.57
576.95	44182.29
577.11	44509.97
577.27	44392.94
577.43	45003.82
577.59	44318.04
577.75	44664.44
577.92	43875.68
578.08	44289.96
578.24	44289.96
578.40	44795.51
578.56	44605.93
578.72	44741.68
578.88	44629.34
579.04	44975.73
579.21	44612.95
579.37	44519.33
579.53	44486.56
579.69	44444.43
579.85	44713.59
580.01	44715.93
580.17	44406.98
580.33	44137.82
580.49	44720.62
580.65	44601.25
580.82	44907.86
580.98	44666.78
581.14	44540.39
581.30	44851.69
581.46	45202.77
581.62	44832.96
581.78	44933.60
581.94	44884.45
582.10	45155.96
582.26	44957.01
582.42	44713.59
582.58	44964.03
582.74	44334.43
582.90	44626.99
583.06	44879.77
583.22	44889.13
583.38	44807.22
583.54	44992.12
583.70	44531.03
583.86	44844.66
584.02	44509.97
584.18	44622.31
584.34	45031.91
584.50	44847.00
584.66	44596.57
584.82	44886.79
584.98	44966.37
585.14	44985.10
585.30	44938.29
585.46	44570.82
585.62	44533.37
585.78	44886.79
585.94	44650.40
586.10	44531.03
586.26	44758.06
586.42	44772.11
586.58	44910.20
586.74	44847.00
586.90	44608.27
587.06	44502.95
587.22	45179.36
587.38	44566.14
587.54	44875.09
587.70	44912.54
587.86	44603.59
588.02	44552.10
588.18	44971.05
588.34	45092.76
588.49	44741.68
588.65	44486.56
588.81	44818.92
588.97	44662.10
589.13	44392.94
589.29	44722.96
589.45	44893.82
589.61	44905.52
589.77	44924.24
589.93	44851.69
590.08	44762.75
590.24	45155.96
