SpectraSuite Data File
++++++++++++++++++++++++++++++++++++
Date: Fri Oct 25 11:23:46 EDT 2013
User: price-jones
Dark Spectrum Present: No
Reference Spectrum Present: No
Number of Sampled Component Spectra: 1
Spectrometers: USB2+H05261
Integration Time (usec): 100000 (USB2+H05261)
Spectra Averaged: 1 (USB2+H05261)
Boxcar Smoothing: 0 (USB2+H05261)
Correct for Electrical Dark: No (USB2+H05261)
Strobe/Lamp Enabled: No (USB2+H05261)
Correct for Detector Non-linearity: No (USB2+H05261)
Correct for Stray Light: No (USB2+H05261)
Number of Pixels in Processed Spectrum: 2048
>>>>>Begin Processed Spectral Data<<<<<
365.73	187.24
365.92	187.24
366.12	187.24
366.32	67.88
366.52	128.73
366.72	135.75
366.91	119.37
367.11	77.24
367.31	133.41
367.51	161.50
367.70	77.24
367.90	131.07
368.10	166.18
368.30	117.03
368.49	145.11
368.69	201.29
368.89	74.90
369.09	112.35
369.28	138.09
369.48	180.22
369.68	220.01
369.87	201.29
370.07	180.22
370.27	290.23
370.47	330.02
370.66	622.58
370.86	624.92
371.06	695.14
371.25	669.39
371.45	573.43
371.65	702.16
371.84	636.63
372.04	648.33
372.24	748.97
372.44	716.20
372.63	760.67
372.83	819.19
373.03	727.91
373.22	763.01
373.42	692.80
373.62	823.87
373.81	770.04
374.01	755.99
374.21	896.43
374.40	718.54
374.60	821.53
374.79	851.96
374.99	851.96
375.19	858.98
375.38	798.12
375.58	847.27
375.78	779.40
375.97	933.87
376.17	882.38
376.37	847.27
376.56	922.17
376.76	910.47
376.95	891.74
377.15	929.19
377.35	910.47
377.54	891.74
377.74	863.66
377.93	877.70
378.13	922.17
378.33	887.06
378.52	896.43
378.72	968.98
378.91	987.71
379.11	947.92
379.31	976.00
379.50	1011.11
379.70	1034.52
379.89	1069.62
380.09	1006.43
380.28	1109.41
380.48	931.53
380.68	903.45
380.87	1015.79
381.07	915.15
381.26	1032.18
381.46	933.87
381.65	1116.44
381.85	1039.20
382.04	1027.50
382.24	1069.62
382.43	1018.13
382.63	1032.18
382.83	1039.20
383.02	1062.60
383.22	1130.48
383.41	1097.71
383.61	1153.88
383.80	1090.69
384.00	1139.84
384.19	1104.73
384.39	1086.01
384.58	1135.16
384.78	1151.54
384.97	1249.85
385.17	1172.61
385.36	1212.40
385.56	1109.41
385.75	1165.59
385.95	1233.46
386.14	1181.97
386.34	1224.10
386.53	1224.10
386.72	1177.29
386.92	1277.93
387.11	1320.06
387.31	1205.38
387.50	1277.93
387.70	1174.95
387.89	1387.94
388.09	1308.36
388.28	1310.70
388.48	1306.02
388.67	1343.47
388.86	1308.36
389.06	1315.38
389.25	1369.21
389.45	1399.64
389.64	1301.34
389.84	1348.15
390.03	1364.53
390.22	1387.94
390.42	1315.38
390.61	1345.81
390.81	1425.39
391.00	1406.66
391.19	1439.43
391.39	1441.77
391.58	1430.07
391.78	1511.99
391.97	1596.25
392.16	1455.81
392.36	1640.72
392.55	1568.16
392.75	1486.24
392.94	1404.32
393.13	1516.67
393.33	1645.40
393.52	1540.07
393.71	1577.52
393.91	1528.37
394.10	1633.69
394.29	1572.84
394.49	1563.48
394.68	1650.08
394.88	1657.10
395.07	1788.17
395.26	1612.63
395.46	1727.32
395.65	1710.93
395.84	1853.70
396.04	1870.09
396.23	1724.97
396.42	1753.06
396.62	1739.02
396.81	1809.23
397.00	1830.30
397.19	1743.70
397.39	1811.57
397.58	1856.04
397.77	1851.36
397.97	1846.68
398.16	1806.89
398.35	1881.79
398.55	1839.66
398.74	1966.05
398.93	1959.03
399.12	2047.97
399.32	1935.62
399.51	1987.11
399.70	1994.14
399.90	1886.47
400.09	1970.73
400.28	2036.27
400.47	2008.18
400.67	2106.48
400.86	2050.31
401.05	2134.57
401.24	2001.16
401.44	2129.89
401.63	2195.42
401.82	2181.38
402.01	2111.16
402.21	2202.44
402.40	2361.60
402.59	2237.55
402.78	2209.47
402.97	2324.15
403.17	2190.74
403.36	2282.02
403.55	2267.98
403.74	2394.37
403.93	2331.17
404.13	2298.41
404.32	2359.26
404.51	2352.24
404.70	2441.18
404.89	2377.98
405.09	2370.96
405.28	2399.05
405.47	2464.58
405.66	2469.27
405.85	2541.82
406.05	2609.70
406.24	2511.39
406.43	2548.84
406.62	2574.59
406.81	2743.11
407.00	2630.76
407.20	2605.02
407.39	2698.64
407.58	2672.89
407.77	2684.59
407.96	2675.23
408.15	2775.88
408.34	2684.59
408.54	2778.22
408.73	2757.15
408.92	2899.92
409.11	2822.69
409.30	2846.09
409.49	2951.42
409.68	3059.08
409.87	2963.12
410.07	3016.95
410.26	3042.70
410.45	2939.71
410.64	2937.37
410.83	3091.85
411.02	3190.15
411.21	3141.00
411.40	3101.21
411.59	3318.88
411.78	3033.33
411.98	3152.70
412.17	3239.30
412.36	3220.58
412.55	3424.20
412.74	3370.37
412.93	3353.99
413.12	3358.67
413.31	3599.74
413.50	3382.07
413.69	3515.48
413.88	3545.91
414.07	3588.04
414.26	3730.81
414.45	3662.94
414.64	3578.68
414.83	3784.65
415.02	3564.64
415.22	3744.86
415.41	3904.01
415.60	4025.72
415.79	3861.88
415.98	3946.14
416.17	4056.15
416.36	3927.42
416.55	3983.59
416.74	4053.81
416.93	4149.77
417.12	4145.09
417.31	4264.46
417.50	4166.15
417.69	4194.24
417.88	4224.67
418.07	4252.75
418.26	4430.63
418.45	4372.12
418.64	4461.06
418.83	4620.22
419.02	4517.23
419.21	4491.49
419.39	4517.23
419.58	4418.93
419.77	4458.72
419.96	4496.17
420.15	4540.64
420.34	4599.15
420.53	4645.96
420.72	4596.81
420.91	4793.42
421.10	4791.08
421.29	4891.72
421.48	4648.30
421.67	4671.71
421.86	4683.41
422.05	4840.23
422.24	4774.69
422.43	4802.78
422.61	4821.50
422.80	4975.98
422.99	4940.87
423.18	4896.40
423.37	4997.04
423.56	4816.82
423.75	4842.57
423.94	4924.49
424.13	4559.36
424.32	4770.01
424.50	4873.00
424.69	5114.07
424.88	5181.95
425.07	4856.61
425.26	4947.89
425.45	5069.60
425.64	4847.25
425.83	4940.87
426.01	5029.81
426.20	5125.77
426.39	5095.35
426.58	4933.85
426.77	4933.85
426.96	5261.52
427.15	5130.45
427.33	5081.30
427.52	5174.92
427.71	5280.25
427.90	5334.08
428.09	5500.26
428.28	5437.06
428.46	5441.75
428.65	5224.08
428.84	5556.43
429.03	5521.32
429.22	5418.34
429.40	5523.66
429.59	5619.63
429.78	5338.76
429.97	5289.61
430.16	5437.06
430.34	5661.76
430.53	5755.38
430.72	5647.71
430.91	5551.75
431.10	5757.72
431.28	5722.61
431.47	5825.59
431.66	5795.17
431.85	5741.33
432.03	6008.16
432.22	6059.65
432.41	6038.58
432.60	6106.46
432.79	5954.32
432.97	5996.45
433.16	6148.59
433.35	5973.05
433.54	5998.79
433.72	6218.80
433.91	6230.51
434.10	6211.78
434.28	6167.31
434.47	6230.51
434.66	6214.12
434.85	6455.20
435.03	6394.34
435.22	6164.97
435.41	6520.73
435.59	6370.94
435.78	6487.96
435.97	6476.26
436.16	6553.50
436.34	6483.28
436.53	6621.38
436.72	6485.62
436.90	6384.98
437.09	6572.22
437.28	6492.65
437.46	6710.32
437.65	6792.23
437.84	6665.85
438.02	6661.16
438.21	6810.96
438.40	6679.89
438.58	6911.60
438.77	7045.01
438.96	6935.01
439.14	7101.19
439.33	7054.37
439.52	7211.19
439.70	7194.81
439.89	7454.61
440.08	7510.78
440.26	7520.14
440.45	7581.00
440.63	7351.62
440.82	7676.96
441.01	7536.52
441.19	7700.36
441.38	7686.32
441.57	7859.52
441.75	7831.43
441.94	8070.17
442.12	7779.94
442.31	8102.93
442.50	7927.39
442.68	7833.77
442.87	8212.94
443.05	8203.58
443.24	8334.65
443.43	8344.01
443.61	8379.12
443.80	8545.30
443.98	8086.55
444.17	7749.51
444.35	8138.04
444.54	8142.72
444.73	8170.81
444.91	8198.90
445.10	8351.03
445.28	8315.92
445.47	8334.65
445.65	8472.74
445.84	8601.47
446.02	8561.68
446.21	8451.67
446.39	8519.55
446.58	8557.00
446.77	8402.52
446.95	8404.86
447.14	8446.99
447.32	8697.43
447.51	8507.85
447.69	8519.55
447.88	8559.34
448.06	8521.89
448.25	8454.02
448.43	8542.96
448.62	8641.26
448.80	8613.17
448.99	8545.30
449.17	8683.39
449.36	8596.79
449.54	8849.57
449.73	8872.97
449.91	9139.79
450.10	9020.42
450.28	9179.58
450.46	9111.71
450.65	8896.38
450.83	9259.16
451.02	9153.84
451.20	9057.87
451.39	8980.64
451.57	9280.22
451.76	9165.54
451.94	9362.14
452.13	9308.31
452.31	9348.10
452.49	9275.54
452.68	9455.76
452.86	9284.91
453.05	9467.47
453.23	9577.47
453.42	9238.09
453.60	9502.58
453.78	9493.21
453.97	9432.36
454.15	9584.49
454.34	9614.92
454.52	9769.40
454.70	9750.67
454.89	9708.54
455.07	9858.34
455.26	9926.21
455.44	9930.89
455.62	9848.97
455.81	9872.38
455.99	10108.77
456.17	9816.21
456.36	9949.62
456.54	10284.31
456.73	10438.79
456.91	10497.30
457.09	10328.78
457.28	10651.78
457.46	10331.12
457.64	10509.01
457.83	10649.44
458.01	10583.90
458.19	10703.27
458.38	10471.56
458.56	10665.82
458.74	10677.52
458.93	10721.99
459.11	10834.34
459.29	10649.44
459.48	10764.12
459.66	10857.75
459.84	10904.56
460.03	11351.60
460.21	11091.80
460.39	10953.71
460.57	10892.85
460.76	11126.91
460.94	11304.79
461.12	11138.61
461.31	11119.89
461.49	11206.48
461.67	11042.65
461.85	11590.33
462.04	11400.75
462.22	11499.05
462.40	11665.23
462.59	11609.06
462.77	11719.06
462.95	11651.19
463.13	11791.62
463.32	11857.15
463.50	11880.56
463.68	11772.89
463.86	11634.80
464.05	11489.69
464.23	11838.43
464.41	12119.29
464.59	11744.81
464.78	12180.15
464.96	12203.55
465.14	11885.24
465.32	12222.28
465.50	12030.35
465.69	12311.22
465.87	12238.66
466.05	12341.64
466.23	12294.83
466.41	12271.43
466.60	12285.47
466.78	12175.47
466.96	12163.76
467.14	12334.62
467.32	12493.78
467.51	12695.07
467.69	12226.96
467.87	12341.64
468.05	12575.70
468.23	12383.77
468.41	12564.00
468.60	12856.56
468.78	12704.43
468.96	12425.90
469.14	13053.17
469.32	13029.76
469.50	12482.08
469.69	12910.40
469.87	13277.86
470.05	13076.57
470.23	13252.11
470.41	13104.66
470.59	13254.45
470.77	13397.23
470.95	13341.05
471.14	13638.30
471.32	13298.92
471.50	13626.60
471.68	13741.29
471.86	13467.44
472.04	13729.58
472.22	14033.85
472.40	13694.47
472.58	13848.95
472.77	14223.44
472.95	14230.46
473.13	14855.38
473.31	14054.92
473.49	14120.45
473.67	13944.91
473.85	14476.21
474.03	14813.25
474.21	14406.00
474.39	14789.85
474.57	14953.68
474.75	15211.14
474.93	15419.45
475.12	15194.76
475.30	15211.14
475.48	15337.53
475.66	15520.09
475.84	15356.25
476.02	15609.03
476.20	15398.38
476.38	15665.21
476.56	16259.70
476.74	16123.95
476.92	15665.21
477.10	15803.30
477.28	16248.00
477.46	16322.90
477.64	16634.19
477.82	16627.17
478.00	16779.30
478.18	16861.22
478.36	17025.06
478.54	17509.55
478.72	17280.18
478.90	17226.34
479.08	17664.02
479.26	17769.35
479.44	17724.88
479.62	17790.41
479.80	18026.81
479.98	18157.88
480.16	18569.81
480.34	18663.43
480.52	18717.26
480.70	18857.70
480.88	18412.99
481.06	18960.68
481.24	19185.37
481.41	19117.50
481.59	19173.67
481.77	19421.77
481.95	19812.63
482.13	19838.38
482.31	19896.89
482.49	20325.21
482.67	20266.70
482.85	20526.50
483.03	20695.02
483.21	20748.85
483.39	20975.88
483.57	20999.29
483.74	21010.99
483.92	21542.29
484.10	21687.40
484.28	21832.52
484.46	22387.22
484.64	22569.79
484.82	22019.76
485.00	22499.57
485.18	22902.14
485.35	23585.58
485.53	22967.68
485.71	23339.82
485.89	23587.92
486.07	23363.23
486.25	23597.28
486.43	23777.50
486.61	23613.66
486.78	24269.01
486.96	24720.74
487.14	24816.70
487.32	24758.19
487.50	25032.03
487.68	24985.22
487.85	25500.14
488.03	25680.36
488.21	26033.78
488.39	25954.20
488.57	26127.40
488.75	26277.19
488.92	26897.44
489.10	26890.41
489.28	26574.44
489.46	27325.75
489.64	27075.32
489.81	27892.16
489.99	28112.17
490.17	28006.85
490.35	28383.68
490.53	28170.69
490.70	28428.15
490.88	28320.48
491.06	28882.21
491.24	29296.49
491.41	28872.85
491.59	29312.87
491.77	29240.31
491.95	30038.44
492.13	30010.35
492.30	30096.95
492.48	29991.62
492.66	30185.89
492.84	30363.77
493.01	30639.95
493.19	30895.07
493.37	31178.28
493.54	31065.93
493.72	31541.06
493.90	31484.89
494.08	31700.22
494.25	32058.32
494.43	32032.57
494.61	32664.52
494.79	32886.87
494.96	32451.53
495.14	33123.26
495.32	33551.58
495.49	33455.62
495.67	33462.64
495.85	33654.56
496.02	34000.96
496.20	33776.27
496.38	34204.59
496.55	34567.37
496.73	35292.94
496.91	34740.57
497.09	35180.59
497.26	35189.95
497.44	34906.75
497.62	35564.44
497.79	36126.17
497.97	35852.33
498.14	36404.69
498.32	36341.50
498.50	36369.58
498.67	36512.36
498.85	36952.38
499.03	36481.93
499.20	36950.04
499.38	36835.35
499.56	37099.83
499.73	37287.07
499.91	37509.43
500.08	37652.20
500.26	37879.23
500.44	37750.50
500.61	38242.01
500.79	37766.88
500.97	38029.02
501.14	38939.49
501.32	38478.41
501.49	38436.28
501.67	38719.48
501.84	39400.58
502.02	38981.62
502.20	39147.80
502.37	39452.07
502.55	39328.02
502.72	40046.57
502.90	39648.68
503.07	40016.14
503.25	39604.20
503.43	39910.82
503.60	40179.98
503.78	40458.50
503.95	40542.76
504.13	40699.58
504.30	41038.95
504.48	40914.90
504.65	40982.78
504.83	41390.03
505.01	41305.77
505.18	41432.16
505.36	41968.15
505.53	41549.19
505.71	41736.43
505.88	41869.84
506.06	41656.85
506.23	42122.62
506.41	42148.37
506.58	42410.51
506.76	42237.31
506.93	42749.88
507.11	42784.99
507.28	42717.12
507.46	42740.52
507.63	42895.00
507.81	43110.33
507.98	43124.37
508.16	43370.13
508.33	43817.17
508.50	43725.89
508.68	43646.31
508.85	43922.49
509.03	43728.23
509.20	44208.04
509.38	44472.52
509.55	44556.78
509.73	44664.44
509.90	44814.24
510.08	44769.77
510.25	44591.89
510.42	44800.19
510.60	44973.39
510.77	45223.83
510.95	45764.49
511.12	45464.91
511.30	45521.08
511.47	45610.02
511.64	45322.13
511.82	45951.74
511.99	46141.32
512.17	46689.01
512.34	46272.39
512.51	46213.88
512.69	46777.95
512.86	46412.82
513.04	47157.11
513.21	46857.52
513.38	47056.47
513.56	47093.92
513.73	46789.65
513.90	47114.98
514.08	46969.87
514.25	47550.32
514.43	47421.59
514.60	47262.44
514.77	47337.33
514.95	47732.89
515.12	47971.62
515.29	47934.17
515.47	47868.64
515.64	48285.25
515.81	48369.51
515.99	48093.33
516.16	48729.95
516.33	48409.30
516.51	48446.75
516.68	48907.83
516.85	48985.07
517.03	49303.38
517.20	49338.49
517.37	49310.41
517.54	49074.01
517.72	49001.46
517.89	49401.69
518.06	49537.44
518.24	49549.14
518.41	49308.07
518.58	49399.35
518.75	49422.75
518.93	50115.55
519.10	49645.10
519.27	49937.67
519.45	50115.55
519.62	49993.84
519.79	49982.14
519.96	50012.57
520.14	50288.75
520.31	50085.12
520.48	50719.41
520.65	50274.71
520.83	50614.08
521.00	50705.37
521.17	50698.34
521.34	50899.63
521.52	50724.09
521.69	50923.04
521.86	51124.32
522.03	51257.73
522.20	51529.23
522.38	51442.63
522.55	51608.81
522.72	51477.74
522.89	51683.71
523.07	51618.17
523.24	51613.49
523.41	51995.00
523.58	51395.82
523.75	51622.86
523.92	51728.18
524.10	52144.80
524.27	52395.23
524.44	52196.29
524.61	52420.98
524.78	51964.57
524.96	52678.44
525.13	52495.88
525.30	52905.47
525.47	52818.87
525.64	52669.08
525.81	52598.86
525.98	52676.10
526.16	52772.06
526.33	52788.44
526.50	53310.38
526.67	52896.11
526.84	52889.09
527.01	53139.52
527.18	53050.58
527.36	53490.60
527.53	53165.27
527.70	53413.37
527.87	53378.26
528.04	53148.88
528.21	53600.61
528.38	53443.79
528.55	54038.29
528.72	53401.66
528.89	53492.94
529.07	53649.76
529.24	53511.67
529.41	53736.36
529.58	53799.55
529.75	53808.92
529.92	53738.70
530.09	54024.25
530.26	54337.88
530.43	54199.79
530.60	54073.40
530.77	54450.22
530.94	54103.82
531.11	54054.67
531.28	53996.16
531.46	54354.26
531.63	54309.79
531.80	54110.85
531.97	54796.62
532.14	54576.61
532.31	54700.66
532.48	54841.09
532.65	54700.66
532.82	54726.41
532.99	54845.77
533.16	54859.82
533.33	55072.81
533.50	54990.89
533.67	55161.75
533.84	55037.70
534.01	55091.53
534.18	55222.60
534.35	55451.97
534.52	55374.73
534.69	55351.33
534.86	55372.39
535.03	55227.28
535.20	55182.81
535.37	55824.12
535.54	55407.50
535.71	55201.53
535.88	55430.91
536.05	55583.04
536.22	55517.51
536.38	55730.50
536.55	55669.64
536.72	55674.32
536.89	55660.28
537.06	55826.46
537.23	55859.23
537.40	55641.56
537.57	55880.29
537.74	55941.14
537.91	56210.31
538.08	56037.11
538.25	55845.18
538.42	56090.94
538.59	55994.98
538.75	55896.67
538.92	56296.91
539.09	56521.60
539.26	56392.87
539.43	56264.14
539.60	56320.31
539.77	56470.11
539.94	56514.58
540.11	56470.11
540.28	56460.74
540.44	56718.20
540.61	56552.02
540.78	56287.54
540.95	56617.56
541.12	56596.49
541.29	56395.21
541.46	56743.95
541.62	56472.45
541.79	56594.15
541.96	56285.20
542.13	56589.47
542.30	56830.55
542.47	56945.23
542.63	57160.56
542.80	57097.37
542.97	57162.90
543.14	57298.65
543.31	57165.24
543.48	57336.10
543.64	57640.37
543.81	57450.79
543.98	57729.31
544.15	57413.34
544.32	57537.39
544.48	57729.31
544.65	57579.52
544.82	57790.17
544.99	57378.23
545.16	57645.05
545.32	57525.69
545.49	57640.37
545.66	57813.57
545.83	57853.36
546.00	57804.21
546.16	57909.53
546.33	57773.78
546.50	57469.51
546.67	57963.37
546.83	57577.18
547.00	58010.18
547.17	57867.40
547.34	58052.31
547.50	58148.27
547.67	58155.29
547.84	58143.59
548.00	58365.94
548.17	58356.58
548.34	58220.83
548.51	58305.09
548.67	58344.87
548.84	58192.74
549.01	58106.14
549.18	58155.29
549.34	58199.76
549.51	58269.98
549.68	58646.80
549.84	58487.65
550.01	58555.52
550.18	58342.53
550.34	58653.82
550.51	58681.91
550.68	58578.93
550.84	58347.21
551.01	58541.48
551.18	58628.08
551.34	58548.50
551.51	58644.46
551.68	58754.47
551.84	58752.13
552.01	58433.81
552.18	58688.93
552.34	58475.94
552.51	58883.20
552.68	58637.44
552.84	58801.28
553.01	59051.72
553.18	59023.63
553.34	58944.05
553.51	58897.24
553.67	59133.63
553.84	59084.48
554.01	59023.63
554.17	59243.64
554.34	59175.76
554.51	59217.89
554.67	59079.80
554.84	59023.63
555.00	58965.12
555.17	59014.27
555.33	59161.72
555.50	59164.06
555.67	59180.45
555.83	59346.62
556.00	59185.13
556.16	59363.01
556.33	59456.63
556.50	59494.08
556.66	59578.34
556.83	59297.47
556.99	59526.84
557.16	59540.89
557.32	59377.05
557.49	59746.86
557.65	59501.10
557.82	59662.60
557.98	59400.46
558.15	59688.34
558.32	59671.96
558.48	59653.23
558.65	59552.59
558.81	59655.57
558.98	59608.76
559.14	59784.30
559.31	59643.87
559.47	59803.03
559.64	59882.61
559.80	59903.67
559.97	59643.87
560.13	59683.66
560.30	60020.70
560.46	59812.39
560.63	59929.42
560.79	59746.86
560.96	59976.23
561.12	60032.40
561.29	59873.24
561.45	59821.75
561.61	59840.48
561.78	59894.31
561.94	59884.95
562.11	59826.43
562.27	59957.50
562.44	60023.04
562.60	60065.17
562.77	60013.68
562.93	59859.20
563.10	60151.77
563.26	59906.01
563.42	60287.52
563.59	60119.00
563.75	59952.82
563.92	60168.15
564.08	60149.43
564.24	60341.35
564.41	60055.81
564.57	60282.84
564.74	60144.75
564.90	60196.24
565.07	60126.02
565.23	60378.80
565.39	60317.95
565.56	60282.84
565.72	60374.12
565.88	60203.26
566.05	60191.56
566.21	60149.43
566.38	60346.03
566.54	60406.89
566.70	60341.35
566.87	60353.05
567.03	60233.69
567.19	60552.00
567.36	60458.38
567.52	60451.36
567.68	60697.11
567.85	60266.45
568.01	60615.19
568.17	60608.17
568.34	60200.92
568.50	60580.09
568.66	60395.18
568.83	60603.49
568.99	60537.96
569.15	60505.19
569.32	60601.15
569.48	60484.12
569.64	60699.45
569.81	60701.79
569.97	60521.57
570.13	60519.23
570.30	60334.33
570.46	60596.47
570.62	60624.56
570.78	60388.16
570.95	60605.83
571.11	60669.03
571.27	60685.41
571.43	60589.45
571.60	60867.97
571.76	60882.02
571.92	60708.82
572.09	60640.94
572.25	60619.88
572.41	60650.30
572.57	60757.97
572.74	60886.70
572.90	60802.44
573.06	60893.72
573.22	60573.06
573.38	60860.95
573.55	60844.57
573.71	60931.17
573.87	60711.16
574.03	60402.21
574.20	60835.20
574.36	60640.94
574.52	60626.90
574.68	60877.33
574.84	61132.45
575.01	60917.12
575.17	60856.27
575.33	60825.84
575.49	60666.69
575.65	60779.03
575.82	60949.89
575.98	61010.74
576.14	61244.80
576.30	60865.63
576.46	60863.29
576.62	60722.86
576.79	60926.49
576.95	60711.16
577.11	60874.99
577.27	61071.60
577.43	60853.93
577.59	60767.33
577.75	60842.23
577.92	60736.90
578.08	60830.52
578.24	60947.55
578.40	61116.07
578.56	61087.98
578.72	60977.98
578.88	60938.19
579.04	61078.62
579.21	61045.85
579.37	61027.13
579.53	61167.56
579.69	60790.73
579.85	60975.64
580.01	60917.12
580.17	60783.71
580.33	61055.21
580.49	61111.39
580.65	61066.92
580.82	61141.81
580.98	60970.96
581.14	60924.14
581.30	61099.68
581.46	60940.53
581.62	60996.70
581.78	60938.19
581.94	61076.28
582.10	61106.71
582.26	61109.05
582.42	60921.80
582.58	60970.96
582.74	61013.08
582.90	61027.13
583.06	61055.21
583.22	60853.93
583.38	60889.04
583.54	61085.64
583.70	61174.58
583.86	61183.94
584.02	61118.41
584.18	61221.39
584.34	61183.94
584.50	61020.11
584.66	61083.30
584.82	60912.44
584.98	61265.86
585.14	60996.70
585.30	61146.50
585.46	61127.77
585.62	61247.14
585.78	61209.69
585.94	61134.79
586.10	60928.83
586.26	61207.35
586.42	61001.38
586.58	60989.68
586.74	61151.18
586.90	61120.75
587.06	61022.45
587.22	61240.12
587.38	61057.56
587.54	61256.50
587.70	61387.57
587.86	61116.07
588.02	61062.24
588.18	61310.33
588.34	61071.60
588.49	60992.02
