SpectraSuite Data File
++++++++++++++++++++++++++++++++++++
Date: Fri Oct 25 11:33:16 EDT 2013
User: price-jones
Dark Spectrum Present: No
Reference Spectrum Present: No
Number of Sampled Component Spectra: 1
Spectrometers: USB2+H05261
Integration Time (usec): 100000 (USB2+H05261)
Spectra Averaged: 1 (USB2+H05261)
Boxcar Smoothing: 0 (USB2+H05261)
Correct for Electrical Dark: No (USB2+H05261)
Strobe/Lamp Enabled: No (USB2+H05261)
Correct for Detector Non-linearity: No (USB2+H05261)
Correct for Stray Light: No (USB2+H05261)
Number of Pixels in Processed Spectrum: 2048
>>>>>Begin Processed Spectral Data<<<<<
365.73	243.42
365.92	243.42
366.12	243.42
366.32	175.54
366.52	145.11
366.72	208.31
366.91	170.86
367.11	177.88
367.31	163.84
367.51	133.41
367.70	198.95
367.90	131.07
368.10	131.07
368.30	212.99
368.49	117.03
368.69	154.48
368.89	194.26
369.09	149.79
369.28	180.22
369.48	175.54
369.68	184.90
369.87	245.76
370.07	229.37
370.27	177.88
370.47	400.23
370.66	489.17
370.86	505.56
371.06	524.28
371.25	540.66
371.45	543.00
371.65	543.00
371.84	486.83
372.04	580.45
372.24	592.16
372.44	521.94
372.63	587.47
372.83	636.63
373.03	617.90
373.22	599.18
373.42	655.35
373.62	568.75
373.81	610.88
374.01	554.71
374.21	674.07
374.40	650.67
374.60	655.35
374.79	676.41
374.99	622.58
375.19	638.97
375.38	636.63
375.58	676.41
375.78	739.61
375.97	627.26
376.17	641.31
376.37	692.80
376.56	706.84
376.76	692.80
376.95	645.99
377.15	683.44
377.35	657.69
377.54	641.31
377.74	643.65
377.93	669.39
378.13	744.29
378.33	798.12
378.52	617.90
378.72	751.31
378.91	727.91
379.11	744.29
379.31	786.42
379.50	744.29
379.70	688.12
379.89	760.67
380.09	706.84
380.28	781.74
380.48	739.61
380.68	709.18
380.87	699.82
381.07	713.86
381.26	760.67
381.46	823.87
381.65	720.88
381.85	770.04
382.04	744.29
382.24	849.61
382.43	732.59
382.63	807.48
382.83	758.33
383.02	842.59
383.22	781.74
383.41	800.46
383.61	767.70
383.80	802.80
384.00	826.21
384.19	765.36
384.39	807.48
384.58	819.19
384.78	844.93
384.97	809.83
385.17	830.89
385.36	819.19
385.56	861.32
385.75	856.64
385.95	826.21
386.14	802.80
386.34	793.44
386.53	929.19
386.72	922.17
386.92	903.45
387.11	819.19
387.31	882.38
387.50	875.36
387.70	866.00
387.89	875.36
388.09	898.77
388.28	908.13
388.48	884.72
388.67	966.64
388.86	922.17
389.06	1008.77
389.25	924.51
389.45	954.94
389.64	961.96
389.84	1013.45
390.03	926.85
390.22	917.49
390.42	964.30
390.61	968.98
390.81	952.60
391.00	1039.20
391.19	1011.11
391.39	1006.43
391.58	978.34
391.78	1050.90
391.97	1057.92
392.16	1008.77
392.36	1062.60
392.55	1090.69
392.75	1039.20
392.94	1018.13
393.13	1036.86
393.33	1100.05
393.52	1118.78
393.71	1212.40
393.91	1076.65
394.10	1064.94
394.29	1078.99
394.49	1104.73
394.68	1142.18
394.88	1118.78
395.07	1109.41
395.26	1123.46
395.46	1170.27
395.65	1214.74
395.84	1188.99
396.04	1256.87
396.23	1137.50
396.42	1163.25
396.62	1165.59
396.81	1235.80
397.00	1242.82
397.19	1228.78
397.39	1226.44
397.58	1172.61
397.77	1254.53
397.97	1256.87
398.16	1252.19
398.35	1263.89
398.55	1238.14
398.74	1299.00
398.93	1327.08
399.12	1406.66
399.32	1233.46
399.51	1341.13
399.70	1268.57
399.90	1446.45
400.09	1348.15
400.28	1430.07
400.47	1427.73
400.67	1392.62
400.86	1383.26
401.05	1437.09
401.24	1352.83
401.44	1479.22
401.63	1369.21
401.82	1423.05
402.01	1500.28
402.21	1437.09
402.40	1495.60
402.59	1462.83
402.78	1563.48
402.97	1500.28
403.17	1586.88
403.36	1519.01
403.55	1558.80
403.74	1586.88
403.93	1565.82
404.13	1643.06
404.32	1619.65
404.51	1640.72
404.70	1624.33
404.89	1577.52
405.09	1664.12
405.28	1696.89
405.47	1732.00
405.66	1769.44
405.85	1760.08
406.05	1774.13
406.24	1802.21
406.43	1837.32
406.62	1790.51
406.81	1788.17
407.00	1760.08
407.20	1795.19
407.39	1715.61
407.58	1884.13
407.77	1865.41
407.96	1952.01
408.15	1935.62
408.34	1863.07
408.54	2003.50
408.73	1863.07
408.92	1872.43
409.11	1970.73
409.30	1877.11
409.49	1973.07
409.68	1858.39
409.87	2054.99
410.07	2106.48
410.26	2125.21
410.45	2141.59
410.64	2108.82
410.83	2143.93
411.02	2132.23
411.21	2073.71
411.40	2036.27
411.59	2310.11
411.78	2174.36
411.98	2146.27
412.17	2270.32
412.36	2106.48
412.55	2265.64
412.74	2342.88
412.93	2335.85
413.12	2258.62
413.31	2487.99
413.50	2422.45
413.69	2427.14
413.88	2476.29
414.07	2541.82
414.26	2471.61
414.45	2368.62
414.64	2520.76
414.83	2679.91
415.02	2626.08
415.22	2700.98
415.41	2633.10
415.60	2782.90
415.79	2663.53
415.98	2623.74
416.17	2832.05
416.36	2729.06
416.55	2782.90
416.74	2855.45
416.93	2803.96
417.12	2841.41
417.31	2878.86
417.50	2883.54
417.69	2923.33
417.88	3159.72
418.07	3052.06
418.26	3063.76
418.45	2993.55
418.64	3087.17
418.83	3164.40
419.02	3133.98
419.21	3023.97
419.39	3108.23
419.58	3073.12
419.77	3232.28
419.96	3157.38
420.15	3236.96
420.34	3173.77
420.53	3150.36
420.72	3211.22
420.91	3309.52
421.10	3227.60
421.29	3342.28
421.48	3318.88
421.67	3370.37
421.86	3386.76
422.05	3328.24
422.24	3302.50
422.43	3328.24
422.61	3410.16
422.80	3403.14
422.99	3389.10
423.18	3452.29
423.37	3592.72
423.56	3501.44
423.75	3379.73
423.94	3363.35
424.13	3098.87
424.32	3384.41
424.50	3501.44
424.69	3459.31
424.88	3487.40
425.07	3316.54
425.26	3368.03
425.45	3403.14
425.64	3426.54
425.83	3473.36
426.01	3529.53
426.20	3421.86
426.39	3571.66
426.58	3534.21
426.77	3529.53
426.96	3545.91
427.15	3569.32
427.33	3756.56
427.52	3597.40
427.71	3648.90
427.90	3604.42
428.09	3681.66
428.28	3627.83
428.46	3719.11
428.65	3754.22
428.84	3831.46
429.03	3826.78
429.22	3700.39
429.40	3866.56
429.59	3665.28
429.78	3702.73
429.97	3620.81
430.16	3822.09
430.34	3852.52
430.53	4009.34
430.72	3894.65
430.91	3829.12
431.10	3894.65
431.28	3852.52
431.47	4077.21
431.66	4032.74
431.85	4021.04
432.03	3985.93
432.22	4046.79
432.41	4124.02
432.60	4175.52
432.79	4135.73
432.97	3978.91
433.16	4299.56
433.35	4159.13
433.54	4227.01
433.72	4077.21
433.91	4205.94
434.10	4315.95
434.28	4208.28
434.47	4173.18
434.66	4332.33
434.85	4395.53
435.03	4463.40
435.22	4367.44
435.41	4655.33
435.59	4407.23
435.78	4386.16
435.97	4236.37
436.16	4358.08
436.34	4367.44
436.53	4608.51
436.72	4580.43
436.90	4456.38
437.09	4575.75
437.28	4404.89
437.46	4400.21
437.65	4545.32
437.84	4594.47
438.02	4564.04
438.21	4739.58
438.40	4662.35
438.58	4854.27
438.77	4851.93
438.96	4734.90
439.14	4968.96
439.33	4887.04
439.52	4830.87
439.70	5020.45
439.89	4936.19
440.08	5137.48
440.26	5039.17
440.45	5067.26
440.63	5041.51
440.82	5200.67
441.01	5125.77
441.19	5249.82
441.38	5287.27
441.57	5303.65
441.75	5378.55
441.94	5458.13
442.12	5547.07
442.31	5418.34
442.50	5432.38
442.68	5418.34
442.87	5568.13
443.05	5423.02
443.24	5621.97
443.43	5621.97
443.61	5694.52
443.80	5771.76
443.98	5481.53
444.17	5355.15
444.35	5659.42
444.54	5799.85
444.73	5727.29
444.91	5776.44
445.10	5640.69
445.28	5720.27
445.47	5771.76
445.65	5666.44
445.84	5689.84
446.02	5790.49
446.21	5617.29
446.39	5830.27
446.58	5891.13
446.77	5954.32
446.95	5706.23
447.14	5837.30
447.32	5919.21
447.51	5834.96
447.69	6008.16
447.88	5643.03
448.06	5963.68
448.25	5841.98
448.43	5888.79
448.62	5916.87
448.80	5881.77
448.99	5914.53
449.17	5827.93
449.36	5767.08
449.54	6036.24
449.73	6193.06
449.91	5998.79
450.10	6043.26
450.28	6164.97
450.46	6291.36
450.65	6218.80
450.83	6169.65
451.02	6155.61
451.20	6363.92
451.39	6324.13
451.57	6279.66
451.76	6104.12
451.94	6279.66
452.13	6291.36
452.31	6349.87
452.49	6225.82
452.68	6331.15
452.86	6441.15
453.05	6408.39
453.23	6516.05
453.42	6380.30
453.60	6361.58
453.78	6693.93
453.97	6377.96
454.15	6455.20
454.34	6431.79
454.52	6633.08
454.70	6574.56
454.89	6612.01
455.07	6771.17
455.26	6593.29
455.44	6785.21
455.62	6686.91
455.81	6834.36
455.99	6867.13
456.17	6787.55
456.36	6726.70
456.54	6965.43
456.73	7087.14
456.91	7082.46
457.09	7087.14
457.28	7110.55
457.46	7094.16
457.64	7110.55
457.83	7073.10
458.01	7138.63
458.19	7328.22
458.38	7148.00
458.56	7290.77
458.74	7391.41
458.93	7449.93
459.11	7384.39
459.29	7105.87
459.48	7328.22
459.66	7335.24
459.84	7522.48
460.03	7517.80
460.21	7389.07
460.39	7307.15
460.57	7475.67
460.76	7667.60
460.94	7510.78
461.12	7456.95
461.31	7428.86
461.49	7604.40
461.67	7435.88
461.85	7824.41
462.04	7604.40
462.22	7999.95
462.40	7845.48
462.59	7974.21
462.77	7995.27
462.95	7747.17
463.13	7714.41
463.32	8053.78
463.50	7754.19
463.68	8044.42
463.86	8149.75
464.05	7793.98
464.23	7899.31
464.41	8156.77
464.59	7885.26
464.78	8170.81
464.96	8257.41
465.14	8030.38
465.32	8152.09
465.50	8248.05
465.69	8107.62
465.87	8053.78
466.05	8241.03
466.23	8053.78
466.41	8280.82
466.60	8245.71
466.78	8229.32
466.96	8358.05
467.14	8470.40
467.32	8372.10
467.51	8638.92
467.69	8271.45
467.87	8376.78
468.05	8601.47
468.23	8344.01
468.41	8280.82
468.60	8575.72
468.78	8596.79
468.96	8327.63
469.14	8699.77
469.32	8734.88
469.50	8545.30
469.69	8872.97
469.87	8912.76
470.05	8613.17
470.23	8819.14
470.41	8943.19
470.59	9001.70
470.77	9020.42
470.95	8985.32
471.14	9217.03
471.32	8762.97
471.50	9104.68
471.68	9111.71
471.86	9212.35
472.04	9174.90
472.22	9558.75
472.40	9170.22
472.58	9270.86
472.77	9308.31
472.95	9635.99
473.13	9940.26
473.31	9437.04
473.49	9645.35
473.67	9628.96
473.85	9687.48
474.03	9724.93
474.21	9958.98
474.39	9940.26
474.57	9743.65
474.75	10031.54
474.93	10225.80
475.12	10216.44
475.30	10232.82
475.48	10087.71
475.66	10216.44
475.84	10272.61
476.02	10129.84
476.20	10127.50
476.38	10691.57
476.56	10609.65
476.74	10703.27
476.92	10663.48
477.10	10661.14
477.28	10827.32
477.46	10733.70
477.64	10974.77
477.82	11084.78
478.00	11482.67
478.18	11225.21
478.36	11358.62
478.54	11587.99
478.72	11477.99
478.90	11632.46
479.08	11747.15
479.26	11988.22
479.44	11852.47
479.62	12128.66
479.80	12173.13
479.98	11948.43
480.16	12542.93
480.34	12336.96
480.52	12173.13
480.70	12566.34
480.88	12292.49
481.06	12463.35
481.24	12844.86
481.41	12765.28
481.59	12968.91
481.77	12868.27
481.95	13153.81
482.13	13380.84
482.31	13130.41
482.49	13558.72
482.67	13490.85
482.85	13584.47
483.03	14052.58
483.21	13788.10
483.39	13729.58
483.57	13776.39
483.74	14183.65
483.92	14148.54
484.10	14078.32
484.28	14406.00
484.46	14501.96
484.64	14951.34
484.82	14705.59
485.00	14874.10
485.18	14970.07
485.35	15330.51
485.53	15171.35
485.71	15199.44
485.89	15859.47
486.07	15536.48
486.25	15531.80
486.43	15672.23
486.61	16013.95
486.78	15981.18
486.96	15840.75
487.14	16346.30
487.32	16212.89
487.50	16348.64
487.68	16472.69
487.85	16732.49
488.03	16812.07
488.21	17034.42
488.39	17106.98
488.57	17198.26
488.75	17441.67
488.92	17460.40
489.10	17689.77
489.28	17764.67
489.46	18043.19
489.64	18132.13
489.81	18349.80
489.99	18326.39
490.17	18445.76
490.35	18588.53
490.53	18569.81
490.70	18874.08
490.88	18768.76
491.06	18927.91
491.24	19028.56
491.41	19101.11
491.59	19403.04
491.77	19381.98
491.95	19389.00
492.13	19723.69
492.30	19833.70
492.48	19566.88
492.66	19833.70
492.84	20348.62
493.01	20479.69
493.19	20505.43
493.37	20662.25
493.54	20795.66
493.72	20720.76
493.90	20861.19
494.08	21083.55
494.25	21160.78
494.43	21511.86
494.61	21443.99
494.79	21308.24
494.96	21511.86
495.14	21802.09
495.32	22066.57
495.49	22082.95
495.67	21855.92
495.85	22476.16
496.02	22558.08
496.20	22309.99
496.38	22677.45
496.55	22785.12
496.73	23000.44
496.91	23105.77
497.09	23049.60
497.26	23098.75
497.44	23026.19
497.62	23246.20
497.79	23707.29
497.97	23311.74
498.14	23819.63
498.32	23805.59
498.50	24121.56
498.67	24489.03
498.85	24119.22
499.03	24631.80
499.20	24154.33
499.38	24379.02
499.56	24432.85
499.73	24727.76
499.91	24730.10
500.08	24996.92
500.26	25034.37
500.44	24900.96
500.61	25104.59
500.79	24821.38
500.97	25348.00
501.14	25874.62
501.32	25649.93
501.49	25476.73
501.67	25745.89
501.84	25923.77
502.02	25399.49
502.20	25860.58
502.37	25949.52
502.55	26059.52
502.72	25984.63
502.90	26059.52
503.07	26047.82
503.25	26195.28
503.43	26054.84
503.60	26883.39
503.78	26815.52
503.95	26602.53
504.13	27129.15
504.30	27126.81
504.48	26977.01
504.65	26799.13
504.83	27606.62
505.01	27421.72
505.18	27161.92
505.36	27475.55
505.53	27625.34
505.71	27922.59
505.88	27903.87
506.06	27714.28
506.23	27632.36
506.41	27896.85
506.58	28093.45
506.76	28056.00
506.93	28407.08
507.11	28519.43
507.28	28870.51
507.46	28390.70
507.63	28542.83
507.81	28861.15
507.98	28709.01
508.16	28634.11
508.33	28694.97
508.50	28980.51
508.68	28931.36
508.85	29003.92
509.03	29411.17
509.20	29277.76
509.38	29497.77
509.55	29635.86
509.73	29762.25
509.90	29834.81
510.08	29862.90
510.25	30026.73
510.42	29682.67
510.60	29855.87
510.77	29848.85
510.95	30429.30
511.12	29940.13
511.30	30670.38
511.47	30321.64
511.64	30338.02
511.82	30485.48
511.99	30953.58
512.17	30974.65
512.34	30689.10
512.51	31061.25
512.69	31328.07
512.86	30911.46
513.04	30991.03
513.21	31087.00
513.38	31075.29
513.56	31475.52
513.73	31381.90
513.90	31372.54
514.08	31620.64
514.25	31819.58
514.43	31950.65
514.60	31920.23
514.77	32091.09
514.95	31922.57
515.12	32044.27
515.29	31983.42
515.47	32198.75
515.64	32247.90
515.81	32261.94
515.99	32458.55
516.16	32811.97
516.33	32350.88
516.51	32818.99
516.68	32498.34
516.85	32596.64
517.03	32863.46
517.20	33046.02
517.37	33102.20
517.54	33336.25
517.72	33399.44
517.89	33378.38
518.06	33333.91
518.24	33020.28
518.41	33235.61
518.58	33731.80
518.75	33432.21
518.93	33462.64
519.10	33677.97
519.27	34185.86
519.45	33699.03
519.62	34220.97
519.79	34066.50
519.96	34061.82
520.14	33853.51
520.31	34115.65
520.48	34522.90
520.65	34387.15
520.83	34691.42
521.00	34883.34
521.17	34782.70
521.34	34771.00
521.52	34731.21
521.69	35023.78
521.86	35016.75
522.03	34941.86
522.20	35297.62
522.38	35456.78
522.55	35398.26
522.72	35269.53
522.89	35260.17
523.07	35672.10
523.24	35302.30
523.41	35688.49
523.58	35576.14
523.75	35833.60
523.92	35700.19
524.10	35983.40
524.27	36493.63
524.44	36196.38
524.61	36151.91
524.78	36123.83
524.96	36282.98
525.13	36315.75
525.30	36636.41
525.47	36278.30
525.64	36540.44
525.81	36687.90
525.98	36547.47
526.16	37099.83
526.33	36545.12
526.50	36638.75
526.67	36739.39
526.84	37062.38
527.01	36844.71
527.18	36893.86
527.36	37333.89
527.53	37408.78
527.70	37319.84
527.87	37516.45
528.04	37460.27
528.21	37493.04
528.38	37762.20
528.55	37771.57
528.72	37617.09
528.89	37713.05
529.07	37457.93
529.24	37226.22
529.41	38033.71
529.58	37544.53
529.75	38052.43
529.92	38071.15
530.09	38143.71
530.26	38014.98
530.43	38099.24
530.60	37986.89
530.77	38534.58
530.94	38403.51
531.11	37851.14
531.28	38415.21
531.46	38471.39
531.63	38462.02
531.80	38548.62
531.97	38710.12
532.14	38745.23
532.31	38993.32
532.48	39161.84
532.65	39119.71
532.82	38948.85
532.99	38883.32
533.16	38927.79
533.33	39129.08
533.50	39229.72
533.67	39077.58
533.84	39077.58
534.01	38897.36
534.18	39388.88
534.35	39620.59
534.52	39365.47
534.69	39367.81
534.86	39791.45
535.03	39543.35
535.20	39569.10
535.37	40039.54
535.54	39948.26
535.71	40065.29
535.88	39690.80
536.05	40051.25
536.22	39934.22
536.38	40250.19
536.55	39936.56
536.72	40605.95
536.89	40105.08
537.06	40233.81
537.23	40294.66
537.40	40243.17
537.57	40362.54
537.74	40271.26
537.91	40594.25
538.08	40580.21
538.25	40297.00
538.42	40374.24
538.59	40411.69
538.75	40809.58
538.92	40870.43
539.09	41050.66
539.26	41020.23
539.43	40933.63
539.60	40942.99
539.77	41083.42
539.94	40994.48
540.11	40938.31
540.28	41364.29
540.44	40987.46
540.61	41174.70
540.78	40643.40
540.95	41158.32
541.12	41085.76
541.29	40968.74
541.46	41394.71
541.62	41579.62
541.79	41710.69
541.96	41141.94
542.13	41284.71
542.30	41668.56
542.47	41682.60
542.63	41694.30
542.80	42045.38
542.97	41762.18
543.14	42506.47
543.31	42171.77
543.48	41872.18
543.64	42459.66
543.81	42873.93
543.98	42270.08
544.15	41921.34
544.32	42342.63
544.48	42885.64
544.65	42625.84
544.82	42682.01
544.99	42665.63
545.16	42017.30
545.32	42682.01
545.49	42679.67
545.66	42841.17
545.83	43054.15
546.00	43276.51
546.16	43072.88
546.33	42895.00
546.50	42745.20
546.67	43100.97
546.83	42780.31
547.00	42993.30
547.17	43332.68
547.34	43381.83
547.50	43519.92
547.67	43320.98
547.84	43571.41
548.00	43721.21
548.17	44123.78
548.34	43501.20
548.51	43821.85
548.67	44093.35
548.84	43686.10
549.01	43681.42
549.18	43730.57
549.34	43658.01
549.51	44020.80
549.68	43971.64
549.84	43845.26
550.01	43931.86
550.18	43761.00
550.34	44123.78
550.51	44362.51
550.68	44123.78
550.84	43737.59
551.01	44233.78
551.18	44219.74
551.34	44133.14
551.51	44626.99
551.68	44266.55
551.84	44224.42
552.01	44273.57
552.18	44488.90
552.34	44229.10
552.51	44495.92
552.68	44177.61
552.84	44278.25
553.01	44961.69
553.18	44442.09
553.34	44582.52
553.51	44519.33
553.67	44701.89
553.84	44910.20
554.01	44624.65
554.17	45069.36
554.34	44926.58
554.51	44619.97
554.67	45455.54
554.84	45057.65
555.00	44844.66
555.17	44933.60
555.33	44917.22
555.50	45085.74
555.67	45155.96
555.83	45059.99
556.00	45734.07
556.16	45397.03
556.33	45411.07
556.50	44989.78
556.66	45462.57
556.83	45207.45
556.99	45434.48
557.16	45895.56
557.32	44942.97
557.49	45647.47
557.65	45397.03
557.82	45621.72
557.98	45556.19
558.15	45696.62
558.32	45715.34
558.48	45537.46
558.65	45680.24
558.81	45853.44
558.98	45338.52
559.14	45514.06
559.31	45633.42
559.47	45511.72
559.64	45806.62
559.80	45382.99
559.97	46033.66
560.13	45626.40
560.30	45705.98
560.46	45935.35
560.63	46433.89
560.79	46096.85
560.96	46181.11
561.12	46148.34
561.29	46192.81
561.45	46424.53
561.61	46071.10
561.78	45951.74
561.94	45940.04
562.11	45993.87
562.27	45701.30
562.44	46131.96
562.60	46218.56
562.77	46241.96
562.93	46485.38
563.10	46459.63
563.26	46234.94
563.42	46330.90
563.59	46284.09
563.75	45813.65
563.92	46141.32
564.08	45925.99
564.24	46766.24
564.41	46321.54
564.57	46529.85
564.74	46405.80
564.90	46431.55
565.07	46377.72
565.23	46117.92
565.39	46681.98
565.56	46574.32
565.72	46583.68
565.88	46361.33
566.05	46461.97
566.21	46712.41
566.38	46471.34
566.54	46672.62
566.70	46513.47
566.87	46635.17
567.03	46595.38
567.19	46780.29
567.36	46689.01
567.52	46623.47
567.68	47124.35
567.85	46962.85
568.01	47103.28
568.17	47065.83
568.34	46726.46
568.50	47159.45
568.66	46651.56
568.83	46794.33
568.99	47201.58
569.15	46710.07
569.32	46995.62
569.48	46602.41
569.64	47126.69
569.81	46777.95
569.97	47178.18
570.13	46780.29
570.30	47028.38
570.46	46684.33
570.62	47058.81
570.78	46883.27
570.95	47215.63
571.11	47185.20
571.27	46932.42
571.43	47100.94
571.60	47124.35
571.76	47131.37
571.92	47030.72
572.09	47126.69
572.25	46930.08
572.41	47201.58
572.57	47051.79
572.74	47288.18
572.90	47016.68
573.06	47445.00
573.22	47194.56
573.38	47243.71
573.55	47784.38
573.71	47646.29
573.87	47566.71
574.03	47131.37
574.20	47742.25
574.36	47545.64
574.52	47306.91
574.68	47199.24
574.84	47543.30
575.01	47889.70
575.17	47868.64
575.33	47679.05
575.49	47445.00
575.65	47709.48
575.82	47576.07
575.98	46902.00
576.14	47828.85
576.30	47800.76
576.46	47349.04
576.62	47180.52
576.79	47611.18
576.95	47580.75
577.11	47026.04
577.27	47531.60
577.43	47400.53
577.59	47625.22
577.75	47325.63
577.92	47257.76
578.08	47367.76
578.24	46939.44
578.40	47775.02
578.56	47435.64
578.72	47271.80
578.88	47690.76
579.04	47351.38
579.21	47337.33
579.37	47988.00
579.53	48095.67
579.69	47297.55
579.85	47435.64
580.01	47466.06
580.17	47145.41
580.33	47632.24
580.49	47489.47
580.65	47751.61
580.82	47948.21
580.98	47510.53
581.14	47400.53
581.30	47838.21
581.46	47491.81
581.62	47569.05
581.78	47550.32
581.94	47955.24
582.10	47571.39
582.26	47828.85
582.42	47833.53
582.58	47557.35
582.74	47782.04
582.90	47782.04
583.06	47573.73
583.22	47496.49
583.38	47700.12
583.54	48067.58
583.70	48095.67
583.86	48137.80
584.02	47826.51
584.18	48200.99
584.34	47690.76
584.50	48074.60
584.66	48107.37
584.82	47597.13
584.98	48163.54
585.14	47683.73
585.30	47320.95
585.46	47924.81
585.62	47681.39
585.78	47737.57
585.94	47133.71
586.10	47496.49
586.26	47566.71
586.42	47789.06
586.58	47814.80
586.74	47632.24
586.90	47622.88
587.06	47620.54
587.22	48257.17
587.38	47880.34
587.54	47943.53
587.70	48261.85
587.86	47973.96
588.02	48107.37
588.18	47526.92
588.34	47498.83
588.49	48208.01
588.65	47620.54
588.81	48030.13
588.97	48348.45
589.13	47866.30
589.29	48177.59
589.45	47915.45
589.61	47749.27
589.77	48388.24
589.93	47903.74
