SpectraSuite Data File
++++++++++++++++++++++++++++++++++++
Date: Fri Oct 25 10:44:52 EDT 2013
User: price-jones
Dark Spectrum Present: No
Reference Spectrum Present: No
Number of Sampled Component Spectra: 1
Spectrometers: USB2+H05261
Integration Time (usec): 100000 (USB2+H05261)
Spectra Averaged: 1 (USB2+H05261)
Boxcar Smoothing: 0 (USB2+H05261)
Correct for Electrical Dark: No (USB2+H05261)
Strobe/Lamp Enabled: No (USB2+H05261)
Correct for Detector Non-linearity: No (USB2+H05261)
Correct for Stray Light: No (USB2+H05261)
Number of Pixels in Processed Spectrum: 2048
>>>>>Begin Processed Spectral Data<<<<<
365.73	124.05
365.92	124.05
366.12	124.05
366.32	0.00
366.52	0.00
366.72	39.79
366.91	0.00
367.11	58.51
367.31	98.30
367.51	53.83
367.70	140.43
367.90	53.83
368.10	37.45
368.30	0.00
368.49	77.24
368.69	21.06
368.89	14.04
369.09	72.56
369.28	37.45
369.48	25.75
369.68	74.90
369.87	124.05
370.07	95.96
370.27	121.71
370.47	205.97
370.66	351.08
370.86	411.93
371.06	456.40
371.25	372.15
371.45	430.66
371.65	461.09
371.84	486.83
372.04	482.15
372.24	505.56
372.44	479.81
372.63	559.39
372.83	545.34
373.03	463.43
373.22	433.00
373.42	491.51
373.62	519.60
373.81	552.37
374.01	517.26
374.21	571.09
374.40	596.84
374.60	589.82
374.79	519.60
374.99	587.47
375.19	538.32
375.38	482.15
375.58	564.07
375.78	594.50
375.97	554.71
376.17	608.54
376.37	547.69
376.56	482.15
376.76	470.45
376.95	613.22
377.15	578.11
377.35	641.31
377.54	552.37
377.74	564.07
377.93	554.71
378.13	610.88
378.33	681.10
378.52	681.10
378.72	554.71
378.91	589.82
379.11	627.26
379.31	606.20
379.50	603.86
379.70	603.86
379.89	617.90
380.09	622.58
380.28	685.78
380.48	557.05
380.68	631.94
380.87	660.03
381.07	624.92
381.26	702.16
381.46	688.12
381.65	699.82
381.85	624.92
382.04	589.82
382.24	688.12
382.43	709.18
382.63	638.97
382.83	697.48
383.02	685.78
383.22	697.48
383.41	681.10
383.61	770.04
383.80	748.97
384.00	746.63
384.19	645.99
384.39	692.80
384.58	706.84
384.78	683.44
384.97	830.89
385.17	821.53
385.36	786.42
385.56	795.78
385.75	676.41
385.95	744.29
386.14	744.29
386.34	760.67
386.53	772.38
386.72	805.14
386.92	798.12
387.11	837.91
387.31	779.40
387.50	809.83
387.70	821.53
387.89	898.77
388.09	777.06
388.28	727.91
388.48	873.02
388.67	863.66
388.86	861.32
389.06	894.08
389.25	922.17
389.45	912.81
389.64	854.30
389.84	861.32
390.03	875.36
390.22	978.34
390.42	868.34
390.61	777.06
390.81	915.15
391.00	1043.88
391.19	973.66
391.39	924.51
391.58	936.21
391.78	971.32
391.97	936.21
392.16	976.00
392.36	990.05
392.55	973.66
392.75	983.02
392.94	971.32
393.13	905.79
393.33	987.71
393.52	929.19
393.71	992.39
393.91	1053.24
394.10	973.66
394.29	999.41
394.49	1128.14
394.68	1071.97
394.88	1153.88
395.07	1160.91
395.26	1144.52
395.46	1055.58
395.65	1111.75
395.84	1167.93
396.04	1226.44
396.23	1125.80
396.42	1123.46
396.62	1090.69
396.81	1219.42
397.00	1181.97
397.19	1160.91
397.39	1254.53
397.58	1245.16
397.77	1284.95
397.97	1256.87
398.16	1284.95
398.35	1294.32
398.55	1364.53
398.74	1315.38
398.93	1434.75
399.12	1320.06
399.32	1341.13
399.51	1371.55
399.70	1383.26
399.90	1369.21
400.09	1432.41
400.28	1451.13
400.47	1343.47
400.67	1467.52
400.86	1526.03
401.05	1423.05
401.24	1474.54
401.44	1483.90
401.63	1500.28
401.82	1507.30
402.01	1511.99
402.21	1572.84
402.40	1474.54
402.59	1462.83
402.78	1600.93
402.97	1589.22
403.17	1572.84
403.36	1589.22
403.55	1638.38
403.74	1640.72
403.93	1563.48
404.13	1673.48
404.32	1596.25
404.51	1659.44
404.70	1699.23
404.89	1661.78
405.09	1743.70
405.28	1757.74
405.47	1736.68
405.66	1680.50
405.85	1776.47
406.05	1806.89
406.24	1788.17
406.43	1818.60
406.62	1832.64
406.81	1980.09
407.00	1837.32
407.20	1673.48
407.39	1816.26
407.58	1881.79
407.77	1914.56
407.96	1989.46
408.15	1956.69
408.34	1949.67
408.54	1968.39
408.73	2031.58
408.92	1956.69
409.11	2118.18
409.30	1987.11
409.49	2118.18
409.68	2003.50
409.87	1949.67
410.07	2090.10
410.26	2228.19
410.45	2265.64
410.64	2176.70
410.83	2183.72
411.02	2209.47
411.21	2251.60
411.40	2237.55
411.59	2270.32
411.78	2284.36
411.98	2277.34
412.17	2272.66
412.36	2321.81
412.55	2551.18
412.74	2513.74
412.93	2487.99
413.12	2319.47
413.31	2516.08
413.50	2551.18
413.69	2506.71
413.88	2562.89
414.07	2551.18
414.26	2708.00
414.45	2637.78
414.64	2532.46
414.83	2691.62
415.02	2609.70
415.22	2785.24
415.41	2794.60
415.60	2750.13
415.79	2920.99
415.98	2930.35
416.17	2731.41
416.36	2740.77
416.55	2768.85
416.74	2988.86
416.93	2951.42
417.12	2977.16
417.31	3075.46
417.50	2920.99
417.69	3180.79
417.88	3049.72
418.07	3164.40
418.26	3045.04
418.45	3056.74
418.64	3239.30
418.83	3150.36
419.02	3199.51
419.21	3152.70
419.39	3166.74
419.58	3141.00
419.77	3169.09
419.96	3304.84
420.15	3246.32
420.34	3248.66
420.53	3377.39
420.72	3255.69
420.91	3316.54
421.10	3368.03
421.29	3391.44
421.48	3403.14
421.67	3412.50
421.86	3478.04
422.05	3417.18
422.24	3438.25
422.43	3478.04
422.61	3552.93
422.80	3445.27
422.99	3496.76
423.18	3574.00
423.37	3604.42
423.56	3421.86
423.75	3485.06
423.94	3386.76
424.13	3316.54
424.32	3398.46
424.50	3531.87
424.69	3517.83
424.88	3566.98
425.07	3588.04
425.26	3531.87
425.45	3480.38
425.64	3684.00
425.83	3616.13
426.01	3798.69
426.20	3555.27
426.39	3508.46
426.58	3592.72
426.77	3623.15
426.96	3655.92
427.15	3630.17
427.33	3705.07
427.52	3714.43
427.71	3728.47
427.90	3716.77
428.09	3747.20
428.28	3691.02
428.46	3705.07
428.65	3681.66
428.84	3960.19
429.03	3885.29
429.22	3822.09
429.40	3988.27
429.59	3756.56
429.78	3609.11
429.97	3651.24
430.16	3808.05
430.34	3758.90
430.53	3899.33
430.72	3791.67
430.91	3880.61
431.10	3948.48
431.28	4060.83
431.47	4114.66
431.66	4217.65
431.85	4124.02
432.03	4133.39
432.22	4182.54
432.41	4166.15
432.60	4201.26
432.79	4320.63
432.97	4248.07
433.16	4297.22
433.35	4175.52
433.54	4322.97
433.72	4332.33
433.91	4278.50
434.10	4369.78
434.28	4358.08
434.47	4505.53
434.66	4533.62
434.85	4486.81
435.03	4538.30
435.22	4491.49
435.41	4585.11
435.59	4428.29
435.78	4517.23
435.97	4629.58
436.16	4699.80
436.34	4610.86
436.53	4578.09
436.72	4767.67
436.90	4685.75
437.09	4861.29
437.28	4575.75
437.46	4648.30
437.65	4535.96
437.84	4770.01
438.02	4755.97
438.21	4517.23
438.40	4641.28
438.58	5048.54
438.77	5004.07
438.96	4952.57
439.14	5273.23
439.33	4922.15
439.52	5064.92
439.70	5111.73
439.89	5165.56
440.08	5064.92
440.26	5036.83
440.45	5130.45
440.63	5385.57
440.82	5336.42
441.01	5362.17
441.19	5294.29
441.38	5568.13
441.57	5526.00
441.75	5441.75
441.94	5638.35
442.12	5610.26
442.31	5750.70
442.50	5593.88
442.68	5638.35
442.87	5706.23
443.05	5837.30
443.24	5851.34
443.43	5717.93
443.61	5884.11
443.80	5984.75
443.98	5895.81
444.17	5563.45
444.35	5853.68
444.54	5898.15
444.73	6064.33
444.91	5849.00
445.10	5930.92
445.28	5776.44
445.47	5834.96
445.65	5792.83
445.84	5811.55
446.02	5916.87
446.21	5816.23
446.39	5937.94
446.58	6047.94
446.77	6003.47
446.95	5877.09
447.14	6012.84
447.32	6010.50
447.51	5996.45
447.69	5853.68
447.88	5994.11
448.06	5923.90
448.25	6064.33
448.43	6134.54
448.62	6026.88
448.80	6066.67
448.99	6139.23
449.17	6099.44
449.36	6368.60
449.54	6244.55
449.73	6392.00
449.91	6272.64
450.10	6282.00
450.28	6541.80
450.46	6506.69
450.65	6394.34
450.83	6560.52
451.02	6464.56
451.20	6541.80
451.39	6497.33
451.57	6614.35
451.76	6576.91
451.94	6441.15
452.13	6553.50
452.31	6532.44
452.49	6370.94
452.68	6558.18
452.86	6417.75
453.05	6600.31
453.23	6525.41
453.42	6572.22
453.60	6487.96
453.78	6726.70
453.97	6572.22
454.15	6576.91
454.34	6635.42
454.52	6775.85
454.70	6923.30
454.89	6698.61
455.07	6853.09
455.26	6881.18
455.44	6984.16
455.62	6803.94
455.81	6951.39
455.99	6949.05
456.17	6949.05
456.36	7037.99
456.54	7370.35
456.73	7115.23
456.91	7414.82
457.09	7272.04
457.28	7255.66
457.46	7250.98
457.64	7417.16
457.83	7297.79
458.01	7159.70
458.19	7510.78
458.38	7307.15
458.56	7676.96
458.74	7492.05
458.93	7449.93
459.11	7538.87
459.29	7506.10
459.48	7482.69
459.66	7627.81
459.84	7578.65
460.03	7817.39
460.21	7836.11
460.39	7714.41
460.57	7679.30
460.76	7868.88
460.94	7859.52
461.12	7793.98
461.31	7770.58
461.49	7864.20
461.67	7801.01
461.85	8102.93
462.04	7913.35
462.22	8105.28
462.40	8021.02
462.59	7941.44
462.77	7936.76
462.95	7990.59
463.13	7922.71
463.32	7990.59
463.50	8175.49
463.68	8248.05
463.86	8294.86
464.05	8084.21
464.23	7976.55
464.41	8369.76
464.59	8060.80
464.78	8383.80
464.96	8250.39
465.14	8177.83
465.32	8571.04
465.50	8416.57
465.69	8540.61
465.87	8451.67
466.05	8362.73
466.23	8219.96
466.41	8594.45
466.60	8575.72
466.78	8257.41
466.96	8425.93
467.14	8545.30
467.32	8517.21
467.51	8720.84
467.69	8451.67
467.87	8641.26
468.05	8704.45
468.23	8547.64
468.41	8648.28
468.60	8716.16
468.78	8784.03
468.96	8439.97
469.14	8877.65
469.32	8835.52
469.50	8748.92
469.69	8924.46
469.87	8912.76
470.05	9015.74
470.23	8973.61
470.41	9071.92
470.59	9200.65
470.77	9092.98
470.95	9114.05
471.14	9202.99
471.32	9273.20
471.50	9343.42
471.68	9415.98
471.86	9418.32
472.04	9322.35
472.22	9664.07
472.40	9324.69
472.58	9362.14
472.77	9610.24
472.95	9909.83
473.13	10087.71
473.31	9563.43
473.49	9434.70
473.67	9750.67
473.85	9624.28
474.03	9998.77
474.21	9907.49
474.39	10132.18
474.57	10087.71
474.75	10139.20
474.93	10270.27
475.12	10150.90
475.30	10354.53
475.48	10314.74
475.66	10352.19
475.84	10171.97
476.02	10530.07
476.20	10413.04
476.38	10616.67
476.56	10743.06
476.74	10885.83
476.92	10876.47
477.10	10857.75
477.28	10927.96
477.46	11101.16
477.64	11164.36
477.82	11176.06
478.00	11358.62
478.18	11473.31
478.36	11297.77
478.54	11726.08
478.72	11534.16
478.90	11922.69
479.08	11793.96
479.26	11880.56
479.44	12159.08
479.62	12250.36
479.80	12173.13
479.98	12109.93
480.16	12372.07
480.34	12365.05
480.52	12608.47
480.70	12533.57
480.88	12486.76
481.06	12575.70
481.24	12713.79
481.41	13041.46
481.59	13444.04
481.77	13088.28
481.95	13081.25
482.13	13312.97
482.31	13331.69
482.49	13453.40
482.67	13575.11
482.85	13811.50
483.03	13752.99
483.21	13923.85
483.39	14237.48
483.57	14052.58
483.74	14202.37
483.92	14492.60
484.10	14221.10
484.28	14691.54
484.46	14637.71
484.64	15108.16
484.82	14864.74
485.00	14848.36
485.18	14848.36
485.35	15021.56
485.53	15140.93
485.71	15304.76
485.89	15279.02
486.07	15370.30
486.25	15410.09
486.43	15784.57
486.61	15803.30
486.78	15939.05
486.96	16161.40
487.14	16463.33
487.32	16673.98
487.50	16556.95
487.68	16613.12
487.85	16573.33
488.03	16856.54
488.21	17404.22
488.39	17116.34
488.57	17231.02
488.75	17249.75
488.92	17486.14
489.10	18005.74
489.28	17984.68
489.46	18097.02
489.64	18003.40
489.81	18422.36
489.99	18623.64
490.17	18572.15
490.35	19058.98
490.53	18948.98
490.70	18841.31
490.88	18838.97
491.06	19234.52
491.24	19077.71
491.41	19147.92
491.59	19386.66
491.77	19220.48
491.95	19667.52
492.13	19459.21
492.30	20306.49
492.48	19976.47
492.66	19775.19
492.84	19953.07
493.01	20252.66
493.19	20386.07
493.37	20582.67
493.54	20514.80
493.72	20807.36
493.90	20706.72
494.08	21216.96
494.25	21179.51
494.43	21095.25
494.61	21715.49
494.79	21624.21
494.96	21610.17
495.14	21678.04
495.32	21940.18
495.49	22015.08
495.67	21991.67
495.85	22120.40
496.02	22251.47
496.20	22270.20
496.38	22522.98
496.55	22724.26
496.73	23026.19
496.91	22511.27
497.09	23208.75
497.26	22998.10
497.44	23110.45
497.62	23005.13
497.79	23765.80
497.97	23150.24
498.14	23646.43
498.32	23812.61
498.50	23447.49
498.67	23864.10
498.85	23847.72
499.03	24624.78
499.20	24175.39
499.38	24341.57
499.56	24280.72
499.73	24622.44
499.91	24711.38
500.08	24725.42
500.26	24493.71
500.44	24690.31
500.61	24915.00
500.79	24645.84
500.97	25017.99
501.14	25432.26
501.32	25408.86
501.49	25488.43
501.67	25247.36
501.84	25179.48
502.02	25633.55
502.20	25689.72
502.37	25965.90
502.55	25844.20
502.72	25741.21
502.90	25860.58
503.07	25713.13
503.25	26398.90
503.43	26068.89
503.60	26029.10
503.78	26314.64
503.95	26298.26
504.13	26544.02
504.30	26464.44
504.48	26771.05
504.65	27136.17
504.83	26946.59
505.01	26878.71
505.18	26820.20
505.36	27887.48
505.53	27353.84
505.71	27419.38
505.88	27653.43
506.06	27103.40
506.23	27679.18
506.41	27747.05
506.58	27473.21
506.76	27447.46
506.93	27793.86
507.11	27782.16
507.28	27850.03
507.46	28294.74
507.63	28247.93
507.81	28173.03
507.98	28334.53
508.16	28278.35
508.33	28451.55
508.50	28830.72
508.68	29027.32
508.85	28870.51
509.03	29102.22
509.20	28699.65
509.38	29322.23
509.55	29270.74
509.73	29357.34
509.90	29404.15
510.08	29202.86
510.25	29415.85
510.42	29514.16
510.60	29727.14
510.77	29898.00
510.95	29846.51
511.12	29979.92
511.30	30036.09
511.47	30129.72
511.64	30221.00
511.82	30433.99
511.99	30553.35
512.17	30520.59
512.34	30520.59
512.51	30478.46
512.69	30384.83
512.86	30649.32
513.04	30356.75
513.21	30595.48
513.38	30511.22
513.56	30925.50
513.73	30698.47
513.90	30998.06
514.08	30888.05
514.25	31463.82
514.43	30883.37
514.60	30976.99
514.77	31079.97
514.95	31637.02
515.12	31454.46
515.29	31314.03
515.47	31875.76
515.64	31934.27
515.81	31489.57
515.99	31728.30
516.16	31988.10
516.33	31819.58
516.51	31784.48
516.68	31466.16
516.85	31433.39
517.03	31922.57
517.20	32065.34
517.37	32184.71
517.54	32491.32
517.72	32734.73
517.89	32060.66
518.06	32385.99
518.24	32425.78
518.41	32254.92
518.58	32304.07
518.75	32313.44
518.93	32996.87
519.10	32886.87
519.27	32870.48
519.45	33043.68
519.62	33170.07
519.79	33034.32
519.96	32938.36
520.14	33455.62
520.31	33378.38
520.48	33191.14
520.65	33713.08
520.83	34132.03
521.00	34190.55
521.17	33905.00
521.34	33942.45
521.52	34099.26
521.69	34082.88
521.86	34181.18
522.03	34225.65
522.20	33897.98
522.38	34824.83
522.55	34073.52
522.72	34117.99
522.89	34312.25
523.07	34244.38
523.24	34455.03
523.41	34862.28
523.58	34529.92
523.75	34955.90
523.92	35131.44
524.10	34981.65
524.27	35089.31
524.44	34958.24
524.61	35316.34
524.78	35512.95
524.96	35489.54
525.13	35133.78
525.30	35522.31
525.47	35831.26
525.64	35571.46
525.81	35803.17
525.98	35428.69
526.16	35505.93
526.33	35400.60
526.50	35489.54
526.67	35173.57
526.84	35222.72
527.01	35693.17
527.18	36154.26
527.36	36013.82
527.53	35955.31
527.70	36203.41
527.87	36547.47
528.04	36268.94
528.21	36481.93
528.38	36011.48
528.55	36041.91
528.72	36774.50
528.89	36669.17
529.07	36205.75
529.24	36453.84
529.41	36634.06
529.58	36287.67
529.75	36540.44
529.92	36957.06
530.09	36809.61
530.26	36861.10
530.43	36847.05
530.60	36910.25
530.77	36935.99
530.94	37509.43
531.11	37326.86
531.28	37186.43
531.46	37326.86
531.63	37436.87
531.80	37474.32
531.97	37832.42
532.14	37303.46
532.31	37258.99
532.48	37315.16
532.65	37771.57
532.82	37771.57
532.99	37366.65
533.16	37401.76
533.33	38036.05
533.50	37827.74
533.67	37752.84
533.84	38204.56
534.01	37832.42
534.18	37701.35
534.35	38478.41
534.52	38188.18
534.69	38307.55
534.86	37844.12
535.03	38108.60
535.20	38543.94
535.37	38164.78
535.54	38775.66
535.71	38888.00
535.88	38321.59
536.05	38342.66
536.22	38822.47
536.38	38459.68
536.55	38548.62
536.72	38719.48
536.89	38780.34
537.06	39019.07
537.23	38672.67
537.40	38731.18
537.57	38794.38
537.74	39000.35
537.91	39072.90
538.08	39213.34
538.25	39124.40
538.42	38976.94
538.59	39353.77
538.75	38770.97
538.92	39047.16
539.09	39283.55
539.26	39112.69
539.43	39423.98
539.60	39449.73
539.77	39505.90
539.94	39360.79
540.11	39578.46
540.28	39393.56
540.44	39669.74
540.61	39519.95
540.78	39475.48
540.95	39407.60
541.12	39367.81
541.29	39728.25
541.46	39903.79
541.62	39651.02
541.79	39690.80
541.96	39861.66
542.13	39679.10
542.30	39548.03
542.47	40416.37
542.63	39892.09
542.80	39814.85
542.97	40486.59
543.14	40713.62
543.31	40187.00
543.48	40659.79
543.64	41287.05
543.81	40538.08
543.98	40713.62
544.15	40741.71
544.32	41057.68
544.48	41008.53
544.65	40755.75
544.82	40615.32
544.99	40793.20
545.16	40898.52
545.32	40722.98
545.49	41352.58
545.66	41193.43
545.83	41340.88
546.00	41305.77
546.16	41144.28
546.33	40825.96
546.50	40844.69
546.67	41181.73
546.83	40882.14
547.00	41123.21
547.17	41097.47
547.34	41497.70
547.50	41556.21
547.67	41448.55
547.84	41308.11
548.00	41755.16
548.17	41890.91
548.34	41516.42
548.51	41652.17
548.67	42057.09
548.84	41539.83
549.01	41443.87
549.18	41195.77
549.34	41715.37
549.51	41691.96
549.68	41628.77
549.84	41823.03
550.01	42059.43
550.18	42019.64
550.34	41876.86
550.51	42244.33
550.68	42263.05
550.84	41720.05
551.01	42387.10
551.18	42059.43
551.34	41591.32
551.51	42047.72
551.68	42403.49
551.84	42010.28
552.01	42150.71
552.18	42164.75
552.34	41869.84
552.51	42639.88
552.68	42670.31
552.84	42969.90
553.01	42361.36
553.18	42653.92
553.34	42382.42
553.51	42031.34
553.67	42880.95
553.84	42323.91
554.01	42600.09
554.17	42710.10
554.34	42911.38
554.51	42944.15
554.67	43028.41
554.84	42616.47
555.00	43063.52
555.17	42799.04
555.33	42696.05
555.50	42780.31
555.67	43250.76
555.83	42958.19
556.00	43168.84
556.16	43395.87
556.33	42677.33
556.50	43119.69
556.66	42895.00
556.83	42829.46
556.99	43075.22
557.16	43386.51
557.32	43145.44
557.49	43112.67
557.65	42948.83
557.82	42986.28
557.98	43152.46
558.15	42895.00
558.32	43070.54
558.48	43236.72
558.65	43201.61
558.81	43072.88
558.98	43356.08
559.14	43136.07
559.31	43540.99
559.47	43856.96
559.64	43548.01
559.80	43826.53
559.97	43688.44
560.13	43072.88
560.30	43452.05
560.46	43466.09
560.63	43447.36
560.79	43634.61
560.96	43981.01
561.12	43461.41
561.29	43873.34
561.45	43400.55
561.61	43739.93
561.78	43653.33
561.94	43555.03
562.11	43983.35
562.27	43929.51
562.44	43442.68
562.60	44060.58
562.77	43807.81
562.93	43599.50
563.10	43894.41
563.26	43349.06
563.42	44079.31
563.59	43756.32
563.75	44292.30
563.92	43992.71
564.08	43756.32
564.24	44282.94
564.41	44177.61
564.57	43835.89
564.74	43913.13
564.90	43632.27
565.07	44011.43
565.23	43966.96
565.39	43686.10
565.56	44175.27
565.72	43695.46
565.88	43992.71
566.05	44142.50
566.21	43693.12
566.38	44109.74
566.54	44158.89
566.70	44282.94
566.87	44589.55
567.03	44418.69
567.19	44388.26
567.36	44091.01
567.52	43775.04
567.68	44402.30
567.85	43707.16
568.01	44334.43
568.17	44339.11
568.34	44175.27
568.50	43990.37
568.66	43920.15
568.83	44222.08
568.99	44343.79
569.15	43976.33
569.32	44147.18
569.48	43814.83
569.64	44266.55
569.81	44332.09
569.97	44261.87
570.13	44296.98
570.30	44039.52
570.46	44151.87
570.62	43856.96
570.78	43826.53
570.95	44123.78
571.11	44524.01
571.27	44463.16
571.43	44170.59
571.60	43941.22
571.76	44009.09
571.92	44140.16
572.09	44018.46
572.25	44105.06
572.41	44460.82
572.57	44664.44
572.74	45146.59
572.90	44409.32
573.06	44172.93
573.22	44177.61
573.38	44697.21
573.55	44378.90
573.71	44399.96
573.87	44399.96
574.03	44231.44
574.20	44790.83
574.36	44296.98
574.52	44624.65
574.68	44369.54
574.84	44685.51
575.01	44306.34
575.17	44416.35
575.33	44299.32
575.49	44381.24
575.65	44828.28
575.82	44273.57
575.98	44463.16
576.14	44774.45
576.30	44172.93
576.46	44332.09
576.62	44704.23
576.79	44318.04
576.95	44573.16
577.11	44095.69
577.27	44655.08
577.43	44594.23
577.59	44411.67
577.75	44287.62
577.92	44083.99
578.08	44217.40
578.24	44332.09
578.40	44622.31
578.56	44484.22
578.72	44376.56
578.88	45050.63
579.04	44652.74
579.21	44505.29
579.37	44772.11
579.53	44605.93
579.69	44418.69
579.85	44559.12
580.01	44863.39
580.17	44268.89
580.33	44587.21
580.49	44741.68
580.65	44734.66
580.82	44772.11
580.98	44554.44
581.14	44634.02
581.30	44907.86
581.46	44664.44
581.62	44666.78
581.78	44540.39
581.94	45106.80
582.10	44430.39
582.26	44678.49
582.42	44311.02
582.58	44334.43
582.74	44486.56
582.90	44685.51
583.06	44666.78
583.22	44580.18
583.38	44910.20
583.54	44477.20
583.70	44683.17
583.86	44842.32
584.02	44493.58
584.18	44804.88
584.34	44474.86
584.50	44573.16
584.66	44484.22
584.82	44605.93
584.98	44701.89
585.14	44699.55
585.30	44563.80
585.46	44872.75
585.62	44699.55
585.78	44608.27
585.94	44233.78
586.10	44201.02
586.26	44318.04
586.42	44722.96
586.58	45118.51
586.74	44907.86
586.90	44514.65
587.06	44573.16
587.22	44526.35
587.38	44737.00
587.54	44191.65
587.70	44643.38
587.86	44952.33
588.02	44563.80
588.18	44587.21
588.34	44598.91
588.49	44421.03
588.65	44486.56
588.81	44095.69
588.97	44428.05
589.13	44421.03
589.29	44704.23
589.45	44847.00
589.61	44690.19
589.77	44814.24
589.93	44748.70
590.08	45088.08
590.24	44357.83
