SpectraSuite Data File
++++++++++++++++++++++++++++++++++++
Date: Fri Oct 25 10:48:09 EDT 2013
User: price-jones
Dark Spectrum Present: No
Reference Spectrum Present: No
Number of Sampled Component Spectra: 1
Spectrometers: USB2+H05261
Integration Time (usec): 100000 (USB2+H05261)
Spectra Averaged: 1 (USB2+H05261)
Boxcar Smoothing: 0 (USB2+H05261)
Correct for Electrical Dark: No (USB2+H05261)
Strobe/Lamp Enabled: No (USB2+H05261)
Correct for Detector Non-linearity: No (USB2+H05261)
Correct for Stray Light: No (USB2+H05261)
Number of Pixels in Processed Spectrum: 2048
>>>>>Begin Processed Spectral Data<<<<<
365.73	182.56
365.92	182.56
366.12	182.56
366.32	56.17
366.52	0.00
366.72	93.62
366.91	11.70
367.11	0.00
367.31	23.41
367.51	0.00
367.70	58.51
367.90	65.54
368.10	28.09
368.30	126.39
368.49	105.32
368.69	65.54
368.89	42.13
369.09	46.81
369.28	67.88
369.48	124.05
369.68	110.01
369.87	177.88
370.07	121.71
370.27	121.71
370.47	184.90
370.66	416.62
370.86	416.62
371.06	395.55
371.25	484.49
371.45	463.43
371.65	510.24
371.84	393.21
372.04	514.92
372.24	475.13
372.44	425.98
372.63	507.90
372.83	503.22
373.03	388.53
373.22	484.49
373.42	538.32
373.62	461.09
373.81	573.43
374.01	543.00
374.21	566.41
374.40	498.53
374.60	573.43
374.79	540.66
374.99	543.00
375.19	540.66
375.38	613.22
375.58	559.39
375.78	573.43
375.97	601.52
376.17	608.54
376.37	547.69
376.56	575.77
376.76	603.86
376.95	592.16
377.15	547.69
377.35	592.16
377.54	610.88
377.74	578.11
377.93	636.63
378.13	685.78
378.33	545.34
378.52	606.20
378.72	603.86
378.91	624.92
379.11	578.11
379.31	645.99
379.50	594.50
379.70	606.20
379.89	777.06
380.09	678.76
380.28	674.07
380.48	650.67
380.68	695.14
380.87	685.78
381.07	631.94
381.26	667.05
381.46	624.92
381.65	636.63
381.85	655.35
382.04	688.12
382.24	711.52
382.43	589.82
382.63	643.65
382.83	671.73
383.02	695.14
383.22	678.76
383.41	692.80
383.61	755.99
383.80	674.07
384.00	634.29
384.19	702.16
384.39	821.53
384.58	716.20
384.78	851.96
384.97	748.97
385.17	744.29
385.36	739.61
385.56	760.67
385.75	753.65
385.95	777.06
386.14	830.89
386.34	716.20
386.53	842.59
386.72	798.12
386.92	854.30
387.11	830.89
387.31	777.06
387.50	772.38
387.70	774.72
387.89	793.44
388.09	779.40
388.28	760.67
388.48	908.13
388.67	861.32
388.86	903.45
389.06	844.93
389.25	959.62
389.45	919.83
389.64	868.34
389.84	945.58
390.03	905.79
390.22	933.87
390.42	999.41
390.61	781.74
390.81	945.58
391.00	976.00
391.19	976.00
391.39	971.32
391.58	999.41
391.78	1036.86
391.97	976.00
392.16	929.19
392.36	1029.84
392.55	966.64
392.75	980.68
392.94	954.94
393.13	1050.90
393.33	980.68
393.52	950.26
393.71	938.55
393.91	1067.28
394.10	1022.81
394.29	1041.54
394.49	1043.88
394.68	1022.81
394.88	1053.24
395.07	1160.91
395.26	1160.91
395.46	1090.69
395.65	1144.52
395.84	1083.67
396.04	1270.91
396.23	1111.75
396.42	1064.94
396.62	1123.46
396.81	1067.28
397.00	1137.50
397.19	1071.97
397.39	1205.38
397.58	1277.93
397.77	1207.72
397.97	1299.00
398.16	1270.91
398.35	1306.02
398.55	1221.76
398.74	1401.98
398.93	1390.28
399.12	1247.51
399.32	1315.38
399.51	1320.06
399.70	1465.18
399.90	1352.83
400.09	1406.66
400.28	1474.54
400.47	1355.17
400.67	1364.53
400.86	1432.41
401.05	1411.34
401.24	1334.11
401.44	1460.49
401.63	1448.79
401.82	1413.68
402.01	1345.81
402.21	1500.28
402.40	1504.96
402.59	1458.15
402.78	1554.12
402.97	1509.65
403.17	1467.52
403.36	1568.16
403.55	1664.12
403.74	1558.80
403.93	1561.14
404.13	1610.29
404.32	1671.14
404.51	1619.65
404.70	1661.78
404.89	1533.05
405.09	1743.70
405.28	1638.38
405.47	1703.91
405.66	1657.10
405.85	1818.60
406.05	1746.04
406.24	1771.79
406.43	1760.08
406.62	1813.92
406.81	1762.42
407.00	1750.72
407.20	1816.26
407.39	1776.47
407.58	1865.41
407.77	1891.15
407.96	1947.33
408.15	2012.86
408.34	1879.45
408.54	1944.99
408.73	1975.41
408.92	1975.41
409.11	2010.52
409.30	2066.69
409.49	2050.31
409.68	1944.99
409.87	2038.61
410.07	2026.90
410.26	2017.54
410.45	2045.63
410.64	2024.56
410.83	2228.19
411.02	2120.53
411.21	2289.04
411.40	2195.42
411.59	2146.27
411.78	2256.28
411.98	2221.17
412.17	2282.02
412.36	2225.85
412.55	2410.75
412.74	2436.50
412.93	2410.75
413.12	2363.94
413.31	2434.16
413.50	2420.11
413.69	2347.56
413.88	2539.48
414.07	2394.37
414.26	2548.84
414.45	2448.20
414.64	2668.21
414.83	2752.47
415.02	2640.12
415.22	2717.36
415.41	2836.73
415.60	2717.36
415.79	2628.42
415.98	2686.94
416.17	2780.56
416.36	2736.09
416.55	2827.37
416.74	2871.84
416.93	2897.58
417.12	2967.80
417.31	2949.08
417.50	2822.69
417.69	3061.42
417.88	2935.03
418.07	2942.05
418.26	3045.04
418.45	3005.25
418.64	3208.87
418.83	3192.49
419.02	3087.17
419.21	3281.43
419.39	3059.08
419.58	3063.76
419.77	3159.72
419.96	3143.34
420.15	3309.52
420.34	3288.45
420.53	3382.07
420.72	3384.41
420.91	3349.31
421.10	3344.63
421.29	3288.45
421.48	3215.90
421.67	3463.99
421.86	3281.43
422.05	3382.07
422.24	3452.29
422.43	3368.03
422.61	3368.03
422.80	3552.93
422.99	3426.54
423.18	3506.12
423.37	3620.81
423.56	3424.20
423.75	3527.19
423.94	3555.27
424.13	3262.71
424.32	3344.63
424.50	3524.85
424.69	3578.68
424.88	3529.53
425.07	3508.46
425.26	3555.27
425.45	3501.44
425.64	3386.76
425.83	3522.51
426.01	3545.91
426.20	3517.83
426.39	3485.06
426.58	3503.78
426.77	3513.14
426.96	3496.76
427.15	3548.25
427.33	3613.79
427.52	3599.74
427.71	3784.65
427.90	3616.13
428.09	3641.87
428.28	3672.30
428.46	3777.62
428.65	3779.97
428.84	3911.04
429.03	3712.09
429.22	3625.49
429.40	3747.20
429.59	3854.86
429.78	3655.92
429.97	3707.41
430.16	3772.94
430.34	3721.45
430.53	3740.18
430.72	3777.62
430.91	3845.50
431.10	3796.35
431.28	3896.99
431.47	4004.66
431.66	4121.68
431.85	3983.59
432.03	4093.60
432.22	4252.75
432.41	4086.58
432.60	4025.72
432.79	4187.22
432.97	4292.54
433.16	4131.05
433.35	4060.83
433.54	4217.65
433.72	4208.28
433.91	4304.25
434.10	4227.01
434.28	4250.41
434.47	4248.07
434.66	4348.72
434.85	4294.88
435.03	4503.19
435.22	4252.75
435.41	4601.49
435.59	4564.04
435.78	4376.80
435.97	4390.84
436.16	4514.89
436.34	4362.76
436.53	4489.15
436.72	4662.35
436.90	4435.32
437.09	4580.43
437.28	4477.44
437.46	4554.68
437.65	4519.57
437.84	4641.28
438.02	4578.09
438.21	4746.61
438.40	4622.56
438.58	4744.27
438.77	4716.18
438.96	4793.42
439.14	5074.28
439.33	4919.81
439.52	4964.28
439.70	5004.07
439.89	5025.13
440.08	4966.62
440.26	4884.70
440.45	5142.16
440.63	5123.43
440.82	5153.86
441.01	5088.32
441.19	5254.50
441.38	5310.68
441.57	5338.76
441.75	5432.38
441.94	5458.13
442.12	5439.40
442.31	5472.17
442.50	5614.95
442.68	5483.88
442.87	5502.60
443.05	5607.92
443.24	5568.13
443.43	5518.98
443.61	5804.53
443.80	5959.00
443.98	5575.16
444.17	5570.48
444.35	5755.38
444.54	5874.74
444.73	5760.06
444.91	5671.12
445.10	5753.04
445.28	5799.85
445.47	5738.99
445.65	6033.90
445.84	5973.05
446.02	5867.72
446.21	5699.20
446.39	5827.93
446.58	5823.25
446.77	5900.49
446.95	5678.14
447.14	6012.84
447.32	6029.22
447.51	5928.58
447.69	5893.47
447.88	5834.96
448.06	5919.21
448.25	5830.27
448.43	5678.14
448.62	5898.15
448.80	5966.03
448.99	6040.92
449.17	5959.00
449.36	6059.65
449.54	6136.88
449.73	6186.04
449.91	6125.18
450.10	6221.14
450.28	6211.78
450.46	6296.04
450.65	6317.11
450.83	6270.30
451.02	6436.47
451.20	6284.34
451.39	6183.70
451.57	6377.96
451.76	6509.03
451.94	6352.21
452.13	6492.65
452.31	6427.11
452.49	6232.85
452.68	6354.55
452.86	6513.71
453.05	6466.90
453.23	6525.41
453.42	6445.84
453.60	6511.37
453.78	6553.50
453.97	6525.41
454.15	6462.22
454.34	6569.88
454.52	6590.95
454.70	6717.34
454.89	6684.57
455.07	6612.01
455.26	6745.42
455.44	6740.74
455.62	6862.45
455.81	7023.95
455.99	6771.17
456.17	6888.20
456.36	6970.12
456.54	6881.18
456.73	6923.30
456.91	7162.04
457.09	7096.50
457.28	7220.55
457.46	7063.74
457.64	7112.89
457.83	7339.92
458.01	7080.12
458.19	7431.20
458.38	7267.36
458.56	7386.73
458.74	7346.94
458.93	7265.02
459.11	7473.33
459.29	7279.07
459.48	7314.17
459.66	7447.58
459.84	7382.05
460.03	7630.15
460.21	7489.71
460.39	7578.65
460.57	7559.93
460.76	7515.46
460.94	7648.87
461.12	7527.16
461.31	7691.00
461.49	7700.36
461.67	7698.02
461.85	7786.96
462.04	7838.45
462.22	8149.75
462.40	8028.04
462.59	7850.16
462.77	7857.18
462.95	7852.50
463.13	8088.89
463.32	7843.14
463.50	7948.46
463.68	7920.37
463.86	8046.76
464.05	7880.58
464.23	7934.42
464.41	8023.36
464.59	7988.25
464.78	8255.07
464.96	8175.49
465.14	7801.01
465.32	8243.37
465.50	8266.77
465.69	8287.84
465.87	8248.05
466.05	8084.21
466.23	8262.09
466.41	8273.79
466.60	8318.26
466.78	8299.54
466.96	8128.68
467.14	8292.52
467.32	8402.52
467.51	8482.10
467.69	8313.58
467.87	8402.52
468.05	8454.02
468.23	8442.31
468.41	8409.54
468.60	8484.44
468.78	8580.40
468.96	8622.53
469.14	8627.21
469.32	8814.46
469.50	8470.40
469.69	8814.46
469.87	8877.65
470.05	8910.42
470.23	8952.55
470.41	8812.12
470.59	8905.74
470.77	8786.37
470.95	8964.25
471.14	9233.41
471.32	8943.19
471.50	9165.54
471.68	8964.25
471.86	9245.12
472.04	9364.48
472.22	9348.10
472.40	9149.15
472.58	9214.69
472.77	9174.90
472.95	9355.12
473.13	9586.83
473.31	9263.84
473.49	9764.72
473.67	9483.85
473.85	9411.29
474.03	9689.82
474.21	9767.06
474.39	9863.02
474.57	9912.17
474.75	9966.00
474.93	9989.41
475.12	10080.69
475.30	10188.35
475.48	9958.98
475.66	10125.16
475.84	10122.82
476.02	10176.65
476.20	10186.01
476.38	10373.25
476.56	10656.46
476.74	10366.23
476.92	10714.97
477.10	10616.67
477.28	10815.62
477.46	10874.13
477.64	10899.87
477.82	11262.66
478.00	11297.77
478.18	11290.74
478.36	11440.54
478.54	11447.56
478.72	11391.39
478.90	11447.56
479.08	11665.23
479.26	11798.64
479.44	11829.07
479.62	11840.77
479.80	11981.20
479.98	11906.31
480.16	12285.47
480.34	12077.16
480.52	12493.78
480.70	12468.03
480.88	12224.62
481.06	12381.43
481.24	12500.80
481.41	12620.17
481.59	12961.89
481.77	13062.53
481.95	12926.78
482.13	12868.27
482.31	13202.96
482.49	13249.77
482.67	13385.52
482.85	13343.39
483.03	13760.01
483.21	13741.29
483.39	13870.01
483.57	13862.99
483.74	13980.02
483.92	14438.76
484.10	14085.34
484.28	14068.96
484.46	14637.71
484.64	14637.71
484.82	14717.29
485.00	14815.59
485.18	14824.95
485.35	14829.63
485.53	14820.27
485.71	14803.89
485.89	15192.42
486.07	14813.25
486.25	15199.44
486.43	15257.95
486.61	15559.88
486.78	15929.69
486.96	15838.41
487.14	15976.50
487.32	15960.11
487.50	16203.53
487.68	16411.84
487.85	16669.30
488.03	16805.05
488.21	17085.91
488.39	17041.44
488.57	16807.39
488.75	16996.97
488.92	17390.18
489.10	17415.93
489.28	17385.50
489.46	17759.98
489.64	17699.13
489.81	18265.54
489.99	18005.74
490.17	18071.28
490.35	18731.31
490.53	18518.32
490.70	18637.69
490.88	18567.47
491.06	18934.93
491.24	18883.44
491.41	18745.35
491.59	19220.48
491.77	18658.75
491.95	19370.27
492.13	19557.52
492.30	19531.77
492.48	19527.09
492.66	19648.80
492.84	19655.82
493.01	19838.38
493.19	20070.09
493.37	20037.33
493.54	20353.30
493.72	20521.82
493.90	20280.74
494.08	20776.94
494.25	20840.13
494.43	21109.29
494.61	21125.68
494.79	21373.77
494.96	21041.42
495.14	21338.66
495.32	21418.24
495.49	21741.24
495.67	21708.47
495.85	21994.01
496.02	21900.39
496.20	21867.63
496.38	22141.47
496.55	22127.42
496.73	22548.72
496.91	22377.86
497.09	22595.53
497.26	22927.89
497.44	22717.24
497.62	23152.58
497.79	23349.18
497.97	22848.31
498.14	23571.54
498.32	23194.71
498.50	23267.27
498.67	23850.06
498.85	23314.08
499.03	23913.25
499.20	23859.42
499.38	24102.84
499.56	23882.83
499.73	24254.97
499.91	24180.07
500.08	24116.88
500.26	24208.16
500.44	24332.21
500.61	24425.83
500.79	24685.63
500.97	24755.85
501.14	24861.17
501.32	24556.90
501.49	25088.20
501.67	24973.52
501.84	25282.47
502.02	25322.26
502.20	25483.75
502.37	25811.43
502.55	25436.94
502.72	25762.28
502.90	25895.69
503.07	25649.93
503.25	25750.57
503.43	26190.59
503.60	26157.83
503.78	26307.62
503.95	26279.54
504.13	25986.97
504.30	26244.43
504.48	26223.36
504.65	26548.70
504.83	26473.80
505.01	26693.81
505.18	26536.99
505.36	26876.37
505.53	26728.92
505.71	27335.12
505.88	27091.70
506.06	26944.25
506.23	27285.97
506.41	26764.03
506.58	27199.37
506.76	27536.40
506.93	27517.68
507.11	27634.71
507.28	27735.35
507.46	27718.96
507.63	27527.04
507.81	27906.21
507.98	27531.72
508.16	27871.10
508.33	28032.60
508.50	28224.52
508.68	28032.60
508.85	28297.08
509.03	28760.50
509.20	28446.87
509.38	28697.31
509.55	28725.39
509.73	28835.40
509.90	29228.61
510.08	28804.97
510.25	28755.82
510.42	29003.92
510.60	29401.81
510.77	29247.33
510.95	29575.01
511.12	29247.33
511.30	29476.71
511.47	29769.27
511.64	29890.98
511.82	29858.21
511.99	29762.25
512.17	29968.22
512.34	29954.18
512.51	29848.85
512.69	30209.29
512.86	30075.88
513.04	30452.71
513.21	30745.28
513.38	30270.15
513.56	30473.78
513.73	30197.59
513.90	30560.37
514.08	30611.87
514.25	30916.14
514.43	30668.04
514.60	30972.31
514.77	31103.38
514.95	30789.75
515.12	31101.04
515.29	31129.12
515.47	31124.44
515.64	31721.28
515.81	31592.55
515.99	31470.84
516.16	31412.33
516.33	31665.11
516.51	31517.65
516.68	31372.54
516.85	31117.42
517.03	31711.92
517.20	31599.57
517.37	31793.84
517.54	32257.26
517.72	32027.89
517.89	31819.58
518.06	32121.51
518.24	31997.46
518.41	32212.79
518.58	32093.43
518.75	32432.80
518.93	32287.69
519.10	32643.45
519.27	32683.24
519.45	32547.49
519.62	32840.06
519.79	32414.08
519.96	32723.03
520.14	33153.69
520.31	32870.48
520.48	33273.06
520.65	33259.01
520.83	33385.40
521.00	33195.82
521.17	33464.98
521.34	33242.63
521.52	33406.47
521.69	33888.62
521.86	33755.21
522.03	34073.52
522.20	34108.63
522.38	33844.15
522.55	34183.52
522.72	33514.13
522.89	33727.12
523.07	33626.48
523.24	33975.22
523.41	33837.12
523.58	34532.26
523.75	34429.28
523.92	34696.10
524.10	34859.94
524.27	34639.93
524.44	34665.67
524.61	34995.69
524.78	34649.29
524.96	34705.46
525.13	35269.53
525.30	35456.78
525.47	35325.71
525.64	34834.19
525.81	34962.92
525.98	35227.40
526.16	35274.21
526.33	34988.67
526.50	35487.20
526.67	35161.87
526.84	34885.68
527.01	35274.21
527.18	35531.67
527.36	35531.67
527.53	35321.02
527.70	35894.46
527.87	35927.22
528.04	35402.94
528.21	35915.52
528.38	36027.87
528.55	36479.59
528.72	35824.24
528.89	36809.61
529.07	36425.76
529.24	36165.96
529.41	36575.55
529.58	35796.15
529.75	36142.55
529.92	36357.88
530.09	36102.76
530.26	36311.07
530.43	36568.53
530.60	36456.18
530.77	36467.89
530.94	36872.80
531.11	36453.84
531.28	36603.64
531.46	37474.32
531.63	36900.89
531.80	37160.69
531.97	36947.70
532.14	36947.70
532.31	36582.57
532.48	37184.09
532.65	37574.96
532.82	36989.83
532.99	37333.89
533.16	37081.11
533.33	37448.57
533.50	37649.86
533.67	37486.02
533.84	37029.62
534.01	37787.95
534.18	37448.57
534.35	37984.55
534.52	37771.57
534.69	38057.11
534.86	37965.83
535.03	37757.52
535.20	37970.51
535.37	38431.60
535.54	38199.88
535.71	37745.82
535.88	37907.32
536.05	38103.92
536.22	38188.18
536.38	38312.23
536.55	38057.11
536.72	38171.80
536.89	38415.21
537.06	38436.28
537.23	38766.29
537.40	38312.23
537.57	38260.74
537.74	38377.76
537.91	38787.36
538.08	38682.03
538.25	38918.43
538.42	38394.15
538.59	39569.10
538.75	38244.35
538.92	39201.63
539.09	39044.82
539.26	39016.73
539.43	39119.71
539.60	39086.95
539.77	38663.31
539.94	39241.42
540.11	39583.14
540.28	38775.66
540.44	39274.19
540.61	39257.81
540.78	39143.12
540.95	38843.53
541.12	39159.50
541.29	39304.62
541.46	39608.89
541.62	39763.36
541.79	39901.45
541.96	39414.62
542.13	39431.01
542.30	39489.52
542.47	40018.48
542.63	39821.87
542.80	39695.49
542.97	40442.12
543.14	40531.06
543.31	40444.46
543.48	40472.54
543.64	40687.87
543.81	40533.40
543.98	40456.16
544.15	40924.27
544.32	40252.53
544.48	40570.85
544.65	40332.11
544.82	40224.45
544.99	40381.26
545.16	40629.36
545.32	40451.48
545.49	40935.97
545.66	40840.01
545.83	40865.75
546.00	41043.63
546.16	40793.20
546.33	40598.93
546.50	40325.09
546.67	40732.34
546.83	40465.52
547.00	40453.82
547.17	40680.85
547.34	40931.29
547.50	41141.94
547.67	41308.11
547.84	41366.63
548.00	41165.34
548.17	41450.89
548.34	41621.75
548.51	41635.79
548.67	41769.20
548.84	41961.12
549.01	41422.80
549.18	41450.89
549.34	41504.72
549.51	41612.38
549.68	41605.36
549.84	41570.25
550.01	41635.79
550.18	41591.32
550.34	41633.45
550.51	41684.94
550.68	41565.57
550.84	41383.01
551.01	41677.92
551.18	42010.28
551.34	41226.20
551.51	41698.98
551.68	42169.43
551.84	42117.94
552.01	41933.04
552.18	41755.16
552.34	41949.42
552.51	42188.16
552.68	41947.08
552.84	42164.75
553.01	42473.70
553.18	42241.99
553.34	42354.33
553.51	42106.24
553.67	42073.47
553.84	42167.09
554.01	42190.50
554.17	42319.23
554.34	42684.35
554.51	42548.60
554.67	42499.45
554.84	42485.40
555.00	42288.80
555.17	42356.67
555.33	42871.59
555.50	42302.84
555.67	42672.65
555.83	42590.73
556.00	42740.52
556.16	43138.41
556.33	42574.34
556.50	42478.38
556.66	43044.79
556.83	42960.53
556.99	42941.81
557.16	43257.78
557.32	42892.66
557.49	42747.54
557.65	42646.90
557.82	42843.51
557.98	42878.61
558.15	42948.83
558.32	43019.05
558.48	42895.00
558.65	43138.41
558.81	42885.64
558.98	43367.79
559.14	43098.62
559.31	42576.69
559.47	42932.45
559.64	43456.73
559.80	43232.04
559.97	43103.31
560.13	43049.47
560.30	43201.61
560.46	43192.25
560.63	42841.17
560.79	43749.29
560.96	43468.43
561.12	43601.84
561.29	43374.81
561.45	43398.21
561.61	43517.58
561.78	43454.39
561.94	43517.58
562.11	43358.42
562.27	43627.59
562.44	43737.59
562.60	43468.43
562.77	43672.06
562.93	43524.60
563.10	43807.81
563.26	43346.72
563.42	44126.12
563.59	43412.26
563.75	43695.46
563.92	43260.12
564.08	43812.49
564.24	43435.66
564.41	44079.31
564.57	43889.73
564.74	43580.78
564.90	43831.21
565.07	43702.48
565.23	43709.50
565.39	43810.15
565.56	43653.33
565.72	43702.48
565.88	43791.42
566.05	43643.97
566.21	43784.40
566.38	43531.62
566.54	43938.88
566.70	44329.75
566.87	44257.19
567.03	44025.48
567.19	44147.18
567.36	44137.82
567.52	43475.45
567.68	44219.74
567.85	43777.38
568.01	43943.56
568.17	43908.45
568.34	44399.96
568.50	44229.10
568.66	43777.38
568.83	44107.40
568.99	43833.55
569.15	43559.71
569.32	43753.97
569.48	43753.97
569.64	44158.89
569.81	44060.58
569.97	43999.73
570.13	44442.09
570.30	43976.33
570.46	44091.01
570.62	44383.58
570.78	43908.45
570.95	43903.77
571.11	44133.14
571.27	43845.26
571.43	44016.11
571.60	43927.17
571.76	44072.29
571.92	43922.49
572.09	44081.65
572.25	44376.56
572.41	43920.15
572.57	44491.24
572.74	44685.51
572.90	44191.65
573.06	44102.71
573.22	44701.89
573.38	44463.16
573.55	43959.94
573.71	44559.12
573.87	43833.55
574.03	43779.72
574.20	44549.76
574.36	44535.71
574.52	44376.56
574.68	44044.20
574.84	44432.73
575.01	44587.21
575.17	44074.63
575.33	43957.60
575.49	43866.32
575.65	44423.37
575.82	44514.65
575.98	44264.21
576.14	44643.38
576.30	44278.25
576.46	44168.25
576.62	44217.40
576.79	44273.57
576.95	44030.16
577.11	44191.65
577.27	44580.18
577.43	44486.56
577.59	43978.67
577.75	44751.04
577.92	44065.27
578.08	43903.77
578.24	43908.45
578.40	44446.77
578.56	44594.23
578.72	43679.08
578.88	44306.34
579.04	44271.23
579.21	44215.06
579.37	44065.27
579.53	44357.83
579.69	44013.77
579.85	44568.48
580.01	44392.94
580.17	44622.31
580.33	44769.77
580.49	44528.69
580.65	44718.28
580.82	44587.21
580.98	44259.53
581.14	44299.32
581.30	44385.92
581.46	44587.21
581.62	44444.43
581.78	43981.01
581.94	44685.51
582.10	44570.82
582.26	44598.91
582.42	44460.82
582.58	44694.87
582.74	44322.72
582.90	44479.54
583.06	44619.97
583.22	44493.58
583.38	44313.36
583.54	44341.45
583.70	44699.55
583.86	44418.69
584.02	44165.91
584.18	44069.95
584.34	44313.36
584.50	44304.00
584.66	44233.78
584.82	44186.97
584.98	44608.27
585.14	44690.19
585.30	44439.75
585.46	44453.79
585.62	44509.97
585.78	44339.11
585.94	44074.63
586.10	44423.37
586.26	44507.63
586.42	44011.43
586.58	44624.65
586.74	44816.58
586.90	44699.55
587.06	44502.95
587.22	44912.54
587.38	44294.64
587.54	44959.35
587.70	45254.26
587.86	44612.95
588.02	44505.29
588.18	44999.14
588.34	44648.06
588.49	44641.04
588.65	44189.31
588.81	44329.75
588.97	44442.09
589.13	44395.28
589.29	44767.43
589.45	44442.09
589.61	45008.50
589.77	44694.87
589.93	44612.95
590.08	44809.56
590.24	44423.37
