SpectraSuite Data File
++++++++++++++++++++++++++++++++++++
Date: Fri Oct 25 11:25:31 EDT 2013
User: price-jones
Dark Spectrum Present: No
Reference Spectrum Present: No
Number of Sampled Component Spectra: 1
Spectrometers: USB2+H05261
Integration Time (usec): 100000 (USB2+H05261)
Spectra Averaged: 1 (USB2+H05261)
Boxcar Smoothing: 0 (USB2+H05261)
Correct for Electrical Dark: No (USB2+H05261)
Strobe/Lamp Enabled: No (USB2+H05261)
Correct for Detector Non-linearity: No (USB2+H05261)
Correct for Stray Light: No (USB2+H05261)
Number of Pixels in Processed Spectrum: 2048
>>>>>Begin Processed Spectral Data<<<<<
365.73	245.76
365.92	245.76
366.12	245.76
366.32	189.58
366.52	149.79
366.72	187.24
366.91	121.71
367.11	107.66
367.31	159.16
367.51	79.58
367.70	91.28
367.90	110.01
368.10	117.03
368.30	145.11
368.49	119.37
368.69	210.65
368.89	154.48
369.09	201.29
369.28	212.99
369.48	175.54
369.68	234.05
369.87	243.42
370.07	194.26
370.27	203.63
370.47	285.55
370.66	547.69
370.86	674.07
371.06	641.31
371.25	746.63
371.45	610.88
371.65	688.12
371.84	678.76
372.04	657.69
372.24	720.88
372.44	692.80
372.63	711.52
372.83	788.76
373.03	788.76
373.22	669.39
373.42	755.99
373.62	685.78
373.81	826.21
374.01	875.36
374.21	821.53
374.40	830.89
374.60	807.48
374.79	809.83
374.99	915.15
375.19	819.19
375.38	781.74
375.58	826.21
375.78	901.11
375.97	821.53
376.17	929.19
376.37	856.64
376.56	807.48
376.76	887.06
376.95	812.17
377.15	966.64
377.35	866.00
377.54	943.24
377.74	896.43
377.93	957.28
378.13	945.58
378.33	1039.20
378.52	968.98
378.72	978.34
378.91	983.02
379.11	940.90
379.31	924.51
379.50	875.36
379.70	1018.13
379.89	1011.11
380.09	922.17
380.28	924.51
380.48	994.73
380.68	1036.86
380.87	997.07
381.07	1008.77
381.26	971.32
381.46	1057.92
381.65	1064.94
381.85	952.60
382.04	987.71
382.24	1043.88
382.43	999.41
382.63	1090.69
382.83	1053.24
383.02	1011.11
383.22	1048.56
383.41	1090.69
383.61	1121.12
383.80	1102.39
384.00	1081.33
384.19	1064.94
384.39	1107.07
384.58	1027.50
384.78	1193.67
384.97	1207.72
385.17	1083.67
385.36	1132.82
385.56	1179.63
385.75	1170.27
385.95	1186.65
386.14	1158.57
386.34	1245.16
386.53	1132.82
386.72	1177.29
386.92	1174.95
387.11	1266.23
387.31	1247.51
387.50	1291.98
387.70	1214.74
387.89	1266.23
388.09	1263.89
388.28	1249.85
388.48	1240.48
388.67	1336.45
388.86	1284.95
389.06	1291.98
389.25	1313.04
389.45	1380.92
389.64	1383.26
389.84	1306.02
390.03	1474.54
390.22	1383.26
390.42	1320.06
390.61	1357.51
390.81	1256.87
391.00	1380.92
391.19	1441.77
391.39	1434.75
391.58	1458.15
391.78	1486.24
391.97	1483.90
392.16	1488.58
392.36	1465.18
392.55	1404.32
392.75	1432.41
392.94	1425.39
393.13	1448.79
393.33	1486.24
393.52	1577.52
393.71	1565.82
393.91	1542.41
394.10	1572.84
394.29	1579.86
394.49	1547.09
394.68	1638.38
394.88	1673.48
395.07	1600.93
395.26	1678.16
395.46	1727.32
395.65	1680.50
395.84	1743.70
396.04	1769.44
396.23	1760.08
396.42	1832.64
396.62	1757.74
396.81	1750.72
397.00	1638.38
397.19	1764.76
397.39	1734.34
397.58	1739.02
397.77	1851.36
397.97	1799.87
398.16	1865.41
398.35	1863.07
398.55	1860.73
398.74	1816.26
398.93	1907.54
399.12	1905.20
399.32	1923.92
399.51	2040.95
399.70	1998.82
399.90	1919.24
400.09	1952.01
400.28	2087.76
400.47	2017.54
400.67	2054.99
400.86	1996.48
401.05	2071.37
401.24	2139.25
401.44	2078.40
401.63	2052.65
401.82	2069.03
402.01	2104.14
402.21	2104.14
402.40	2153.29
402.59	2169.68
402.78	2146.27
402.97	2134.57
403.17	2300.75
403.36	2216.49
403.55	2342.88
403.74	2335.85
403.93	2340.54
404.13	2387.35
404.32	2387.35
404.51	2256.28
404.70	2410.75
404.89	2438.84
405.09	2487.99
405.28	2420.11
405.47	2361.60
405.66	2420.11
405.85	2520.76
406.05	2569.91
406.24	2640.12
406.43	2450.54
406.62	2689.28
406.81	2654.17
407.00	2495.01
407.20	2551.18
407.39	2745.45
407.58	2712.68
407.77	2761.83
407.96	2602.68
408.15	2782.90
408.34	2717.36
408.54	2801.62
408.73	2778.22
408.92	2796.94
409.11	2906.95
409.30	2864.82
409.49	2920.99
409.68	2855.45
409.87	2932.69
410.07	2869.50
410.26	2883.54
410.45	2944.39
410.64	2946.73
410.83	3061.42
411.02	3126.96
411.21	3145.68
411.40	3014.61
411.59	3159.72
411.78	3241.64
411.98	3150.36
412.17	3297.81
412.36	3295.47
412.55	3391.44
412.74	3290.79
412.93	3489.74
413.12	3414.84
413.31	3494.42
413.50	3613.79
413.69	3475.70
413.88	3536.55
414.07	3662.94
414.26	3559.95
414.45	3637.19
414.64	3651.24
414.83	3653.58
415.02	3728.47
415.22	3826.78
415.41	3691.02
415.60	3948.48
415.79	3962.53
415.98	3836.14
416.17	3941.46
416.36	3850.18
416.55	4070.19
416.74	3997.64
416.93	3990.61
417.12	4025.72
417.31	4222.33
417.50	4170.83
417.69	4030.40
417.88	4280.84
418.07	3999.98
418.26	4381.48
418.45	4325.31
418.64	4362.76
418.83	4435.32
419.02	4334.67
419.21	4454.04
419.39	4489.15
419.58	4472.76
419.77	4365.10
419.96	4561.70
420.15	4725.54
420.34	4507.87
420.53	4564.04
420.72	4634.26
420.91	4606.17
421.10	4760.65
421.29	4727.88
421.48	4685.75
421.67	4690.43
421.86	4758.31
422.05	4727.88
422.24	4774.69
422.43	4894.06
422.61	4854.27
422.80	4987.68
422.99	4856.61
423.18	4826.18
423.37	4910.44
423.56	4856.61
423.75	4809.80
423.94	4636.60
424.13	4589.79
424.32	4840.23
424.50	4945.55
424.69	5224.08
424.88	5090.67
425.07	4849.59
425.26	4671.71
425.45	5200.67
425.64	4889.38
425.83	4952.57
426.01	5064.92
426.20	5025.13
426.39	5097.69
426.58	5036.83
426.77	5060.24
426.96	4992.36
427.15	4954.91
427.33	5205.35
427.52	5268.55
427.71	5317.70
427.90	5284.93
428.09	5200.67
428.28	5357.49
428.46	5289.61
428.65	5263.86
428.84	5481.53
429.03	5544.73
429.22	5378.55
429.40	5535.37
429.59	5387.91
429.78	5200.67
429.97	5214.71
430.16	5472.17
430.34	5619.63
430.53	5570.48
430.72	5640.69
430.91	5633.67
431.10	5518.98
431.28	5727.29
431.47	5706.23
431.66	5912.19
431.85	5664.10
432.03	5755.38
432.22	6038.58
432.41	5657.07
432.60	5757.72
432.79	5853.68
432.97	5935.60
433.16	5771.76
433.35	5830.27
433.54	6085.39
433.72	6043.26
433.91	6146.25
434.10	5865.38
434.28	6087.73
434.47	6143.91
434.66	6324.13
434.85	6207.10
435.03	6377.96
435.22	6326.47
435.41	6525.41
435.59	6235.19
435.78	6263.27
435.97	6263.27
436.16	6422.43
436.34	6469.24
436.53	6431.79
436.72	6370.94
436.90	6384.98
437.09	6675.21
437.28	6553.50
437.46	6480.94
437.65	6808.62
437.84	6649.46
438.02	6855.43
438.21	6787.55
438.40	6677.55
438.58	6935.01
438.77	6853.09
438.96	6794.58
439.14	7012.24
439.33	7019.27
439.52	7087.14
439.70	7269.70
439.89	7307.15
440.08	7279.07
440.26	7391.41
440.45	7321.20
440.63	7232.26
440.82	7588.02
441.01	7557.59
441.19	7524.82
441.38	7801.01
441.57	7466.31
441.75	7613.76
441.94	7798.66
442.12	7859.52
442.31	7749.51
442.50	8098.25
442.68	7840.79
442.87	8105.28
443.05	8037.40
443.24	8121.66
443.43	8154.43
443.61	8056.12
443.80	8217.62
443.98	7939.10
444.17	7885.26
444.35	8189.53
444.54	8180.17
444.73	8390.82
444.91	8201.24
445.10	8299.54
445.28	8339.33
445.47	8332.31
445.65	8430.61
445.84	8301.88
446.02	8425.93
446.21	8297.20
446.39	8229.32
446.58	8671.68
446.77	8458.70
446.95	8259.75
447.14	8500.83
447.32	8355.71
447.51	8547.64
447.69	8266.77
447.88	8318.26
448.06	8341.67
448.25	8278.47
448.43	8496.14
448.62	8608.49
448.80	8404.86
448.99	8528.91
449.17	8503.17
449.36	8505.51
449.54	8767.65
449.73	8968.93
449.91	9100.00
450.10	8830.84
450.28	9144.47
450.46	9034.47
450.65	8952.55
450.83	8872.97
451.02	9095.32
451.20	9172.56
451.39	9048.51
451.57	9111.71
451.76	9018.08
451.94	9135.11
452.13	9343.42
452.31	9481.51
452.49	9020.42
452.68	9366.82
452.86	9437.04
453.05	9453.42
453.23	9294.27
453.42	9408.95
453.60	9242.78
453.78	9397.25
453.97	9336.40
454.15	9394.91
454.34	9394.91
454.52	9624.28
454.70	9612.58
454.89	9783.44
455.07	9736.63
455.26	9671.09
455.44	9668.75
455.62	9694.50
455.81	9907.49
455.99	9888.76
456.17	9947.28
456.36	10239.84
456.54	10118.14
456.73	10050.26
456.91	10532.41
457.09	10363.89
457.28	10551.14
457.46	10391.98
457.64	10319.42
457.83	10427.09
458.01	10303.04
458.19	10654.12
458.38	10384.96
458.56	10686.89
458.74	10754.76
458.93	10597.95
459.11	10834.34
459.29	10644.76
459.48	10572.20
459.66	10628.37
459.84	10590.92
460.03	10913.92
460.21	10890.51
460.39	11009.88
460.57	10782.85
460.76	11056.69
460.94	11211.17
461.12	11239.25
461.31	11009.88
461.49	10946.69
461.67	10920.94
461.85	11566.93
462.04	11286.06
462.22	11791.62
462.40	11630.12
462.59	11262.66
462.77	11265.00
462.95	11606.72
463.13	11482.67
463.32	11496.71
463.50	11857.15
463.68	11545.86
463.86	11653.53
464.05	11676.93
464.23	11639.48
464.41	11747.15
464.59	11683.95
464.78	11843.11
464.96	11714.38
465.14	11808.00
465.32	12065.46
465.50	12028.01
465.69	12168.45
465.87	12102.91
466.05	11955.46
466.23	11908.65
466.41	11861.84
466.60	12376.75
466.78	11957.80
466.96	12138.02
467.14	12322.92
467.32	12241.00
467.51	12528.89
467.69	11744.81
467.87	12425.90
468.05	12793.37
468.23	12386.12
468.41	12329.94
468.60	12510.16
468.78	12704.43
468.96	12238.66
469.14	12833.16
469.32	12774.64
469.50	12512.50
469.69	12898.69
469.87	13064.87
470.05	13004.02
470.23	12982.95
470.41	12772.30
470.59	13092.96
470.77	13191.26
470.95	13289.56
471.14	13413.61
471.32	13050.83
471.50	13633.62
471.68	13198.28
471.86	13511.91
472.04	13720.22
472.22	14136.84
472.40	13509.57
472.58	13788.10
472.77	13965.98
472.95	13961.30
473.13	14469.19
473.31	14036.19
473.49	13944.91
473.67	13963.64
473.85	14298.33
474.03	14508.98
474.21	14480.89
474.39	14649.41
474.57	14834.32
474.75	14839.00
474.93	14862.40
475.12	14738.35
475.30	15094.11
475.48	15108.16
475.66	15143.27
475.84	14899.85
476.02	15367.96
476.20	15267.31
476.38	15552.86
476.56	15957.77
476.74	15822.02
476.92	15644.14
477.10	15690.95
477.28	16159.06
477.46	15999.90
477.64	16229.27
477.82	16390.77
478.00	16716.11
478.18	16781.64
478.36	16737.17
478.54	17013.35
478.72	16854.20
478.90	17118.68
479.08	17549.34
479.26	17385.50
479.44	17717.86
479.62	17584.44
479.80	17717.86
479.98	18071.28
480.16	18424.70
480.34	18244.48
480.52	18501.93
480.70	18654.07
480.88	18431.72
481.06	18476.19
481.24	18520.66
481.41	18766.42
481.59	19110.47
481.77	19335.17
481.95	19330.48
482.13	19571.56
482.31	19609.01
482.49	19943.70
482.67	19800.93
482.85	20486.71
483.03	20336.91
483.21	20552.24
483.39	20807.36
483.57	20807.36
483.74	20886.94
483.92	21376.11
484.10	21160.78
484.28	21638.25
484.46	22071.25
484.64	22136.79
484.82	21834.86
485.00	22192.96
485.18	22380.20
485.35	22941.93
485.53	22705.54
485.71	22941.93
485.89	23482.59
486.07	22878.74
486.25	23435.78
486.43	23662.82
486.61	23274.29
486.78	23690.90
486.96	23885.17
487.14	24346.25
487.32	24500.73
487.50	24849.47
487.68	24741.80
487.85	25001.60
488.03	25268.42
488.21	25488.43
488.39	25607.80
488.57	25741.21
488.75	26029.10
488.92	26190.59
489.10	26520.61
489.28	26562.74
489.46	26693.81
489.64	27094.04
489.81	27475.55
489.99	27559.81
490.17	27346.82
490.35	27920.25
490.53	27920.25
490.70	28056.00
490.88	27953.02
491.06	28393.04
491.24	28709.01
491.41	28659.86
491.59	28879.87
491.77	29118.60
491.95	29156.05
492.13	29579.69
492.30	29867.58
492.48	29727.14
492.66	30031.41
492.84	29933.11
493.01	30471.43
493.19	30529.95
493.37	31037.84
493.54	30857.62
493.72	31019.12
493.90	31077.63
494.08	31285.94
494.25	31573.83
494.43	31889.80
494.61	31948.31
494.79	32367.27
494.96	32273.65
495.14	32570.90
495.32	33020.28
495.49	32882.19
495.67	33163.05
495.85	33429.87
496.02	33635.84
496.20	33689.67
496.38	33457.96
496.55	33855.85
496.73	34506.52
496.91	34103.95
497.09	34649.29
497.26	34986.33
497.44	34700.78
497.62	35325.71
497.79	35641.68
497.97	35358.47
498.14	35550.40
498.32	35700.19
498.50	36048.93
498.67	36327.45
498.85	35784.45
499.03	36547.47
499.20	36439.80
499.38	37017.91
499.56	36802.58
499.73	36491.29
499.91	36950.04
500.08	37193.45
500.26	37167.71
500.44	37762.20
500.61	37525.81
500.79	37474.32
500.97	37778.59
501.14	38122.65
501.32	38368.40
501.49	38014.98
501.67	38611.82
501.84	38569.69
502.02	39084.61
502.20	38869.28
502.37	38752.25
502.55	38778.00
502.72	39098.65
502.90	39168.87
503.07	39662.72
503.25	39651.02
503.43	39447.39
503.60	39917.84
503.78	39864.00
503.95	39929.54
504.13	40325.09
504.30	40650.42
504.48	39826.56
504.65	40676.17
504.83	41415.78
505.01	40809.58
505.18	40989.80
505.36	41352.58
505.53	40898.52
505.71	41235.56
505.88	41500.04
506.06	41242.58
506.23	41298.75
506.41	41493.02
506.58	41577.28
506.76	41715.37
506.93	41928.36
507.11	41724.73
507.28	42291.14
507.46	42337.95
507.63	42560.30
507.81	42843.51
507.98	42705.41
508.16	42586.05
508.33	43285.87
508.50	43456.73
508.68	43206.29
508.85	43531.62
509.03	43683.76
509.20	43662.69
509.38	43847.60
509.55	44210.38
509.73	44509.97
509.90	44006.75
510.08	44051.22
510.25	43992.71
510.42	44708.91
510.60	44722.96
510.77	45308.09
510.95	44781.47
511.12	44753.38
511.30	44884.45
511.47	45008.50
511.64	45062.33
511.82	45181.70
511.99	45397.03
512.17	45598.32
512.34	45434.48
512.51	46314.52
512.69	46333.24
512.86	46476.02
513.04	46546.23
513.21	46628.15
513.38	46279.41
513.56	46707.73
513.73	46143.66
513.90	46691.35
514.08	46445.59
514.25	46703.05
514.43	47091.58
514.60	47306.91
514.77	47372.44
514.95	47767.99
515.12	47344.36
515.29	47236.69
515.47	47342.02
515.64	47615.86
515.81	47650.97
515.99	47672.03
516.16	48116.73
516.33	47959.92
516.51	48137.80
516.68	48009.07
516.85	48170.57
517.03	48622.29
517.20	48680.80
517.37	48224.40
517.54	48989.75
517.72	48905.49
517.89	48744.00
518.06	49397.01
518.24	49013.16
518.41	49066.99
518.58	49123.16
518.75	49003.80
518.93	49528.08
519.10	48793.15
519.27	49186.36
519.45	49467.22
519.62	49638.08
519.79	49558.50
519.96	49687.23
520.14	50075.76
520.31	49567.87
520.48	49968.10
520.65	49874.48
520.83	50337.90
521.00	50398.76
521.17	50497.06
521.34	50534.51
521.52	50735.79
521.69	50473.65
521.86	50433.86
522.03	50864.52
522.20	51030.70
522.38	51075.17
522.55	51360.72
522.72	50932.40
522.89	51026.02
523.07	51304.54
523.24	51143.05
523.41	51674.35
523.58	51327.95
523.75	51765.63
523.92	51686.05
524.10	51674.35
524.27	51800.74
524.44	51805.42
524.61	51901.38
524.78	51885.00
524.96	51969.26
525.13	52142.45
525.30	51866.27
525.47	51990.32
525.64	51826.48
525.81	52243.10
525.98	52289.91
526.16	52282.89
526.33	52200.97
526.50	52704.18
526.67	52772.06
526.84	52886.74
527.01	52514.60
527.18	52865.68
527.36	52933.56
527.53	52795.46
527.70	52989.73
527.87	53214.42
528.04	53069.31
528.21	53010.79
528.38	53155.91
528.55	53354.85
528.72	53151.23
528.89	53083.35
529.07	52933.56
529.24	53294.00
529.41	53572.52
529.58	53230.80
529.75	53731.68
529.92	53343.15
530.09	53263.57
530.26	53736.36
530.43	53684.87
530.60	53359.53
530.77	53719.98
530.94	53984.46
531.11	53689.55
531.28	53804.24
531.46	53956.37
531.63	54094.46
531.80	54129.57
531.97	54422.14
532.14	54183.40
532.31	54134.25
532.48	54124.89
532.65	54384.69
532.82	54155.32
532.99	54431.50
533.16	54241.92
533.33	54637.47
533.50	54719.38
533.67	54686.62
533.84	54775.56
534.01	54726.41
534.18	54670.23
534.35	55044.72
534.52	55035.36
534.69	55231.96
534.86	55000.25
535.03	54740.45
535.20	54843.43
535.37	54946.42
535.54	55206.22
535.71	55341.97
535.88	55278.77
536.05	55213.24
536.22	55458.99
536.38	55646.24
536.55	55290.48
536.72	55217.92
536.89	55332.60
537.06	55437.93
537.23	55330.26
537.40	55288.13
537.57	55679.00
537.74	55571.34
537.91	55978.59
538.08	55543.25
538.25	55557.30
538.42	55756.24
538.59	55896.67
538.75	55683.69
538.92	55847.52
539.09	56095.62
539.26	56058.17
539.43	55791.35
539.60	56079.24
539.77	55917.74
539.94	56395.21
540.11	56236.05
540.28	56140.09
540.44	56233.71
540.61	56137.75
540.78	55957.53
540.95	56317.97
541.12	56320.31
541.29	56128.39
541.46	56523.94
541.62	56193.92
541.79	56362.44
541.96	56114.34
542.13	56343.72
542.30	56444.36
542.47	56802.46
542.63	56790.76
542.80	56694.80
542.97	56938.21
543.14	57172.27
543.31	57141.84
543.48	57272.91
543.64	57476.54
543.81	57151.20
543.98	57085.67
544.15	57263.55
544.32	57415.68
544.48	57249.50
544.65	57073.96
544.82	57167.58
544.99	56992.04
545.16	57504.62
545.32	57167.58
545.49	57492.92
545.66	57553.77
545.83	57296.31
546.00	57532.71
546.16	57361.85
546.33	57286.95
546.50	57282.27
546.67	57429.72
546.83	57249.50
547.00	57535.05
547.17	57724.63
547.34	57652.08
547.50	57680.16
547.67	57865.06
547.84	58024.22
548.00	57621.65
548.17	58071.03
548.34	57865.06
548.51	57984.43
548.67	58082.73
548.84	58052.31
549.01	57701.23
549.18	58157.63
549.34	57972.73
549.51	58019.54
549.68	58150.61
549.84	58218.49
550.01	58159.97
550.18	58064.01
550.34	58192.74
550.51	58202.10
550.68	58056.99
550.84	57937.62
551.01	58461.90
551.18	58267.64
551.34	58267.64
551.51	58323.81
551.68	58466.58
551.84	58520.41
552.01	57979.75
552.18	58356.58
552.34	58319.13
552.51	58651.48
552.68	58389.34
552.84	58515.73
553.01	58808.30
553.18	58445.52
553.34	58719.36
553.51	58506.37
553.67	58866.81
553.84	58946.39
554.01	58890.22
554.17	58824.68
554.34	58890.22
554.51	58714.68
554.67	58801.28
554.84	58831.71
555.00	58845.75
555.17	58822.34
555.33	58930.01
555.50	58571.91
555.67	58827.02
555.83	59068.10
556.00	59044.69
556.16	59384.07
556.33	59152.36
556.50	58941.71
556.66	59077.46
556.83	58892.56
556.99	59355.99
557.16	59393.43
557.32	59402.80
557.49	59437.90
557.65	59100.87
557.82	59234.28
557.98	59063.42
558.15	59262.36
558.32	59288.11
558.48	59159.38
558.65	59323.22
558.81	59292.79
558.98	59367.69
559.14	59367.69
559.31	59433.22
559.47	59484.72
559.64	59646.21
559.80	59601.74
559.97	59564.29
560.13	59358.33
560.30	59400.46
560.46	59522.16
560.63	59669.62
560.79	59742.17
560.96	59695.36
561.12	59503.44
561.29	59866.22
561.45	59594.72
561.61	59606.42
561.78	59639.19
561.94	59583.02
562.11	59730.47
562.27	59686.00
562.44	59924.74
562.60	59786.64
562.77	59751.54
562.93	59735.15
563.10	59826.43
563.26	59606.42
563.42	59952.82
563.59	59959.84
563.75	59861.54
563.92	59821.75
564.08	59707.07
564.24	59887.29
564.41	59922.40
564.57	59856.86
564.74	60060.49
564.90	60055.81
565.07	59915.37
565.23	59777.28
565.39	60107.30
565.56	60074.53
565.72	60069.85
565.88	60046.44
566.05	60058.15
566.21	60041.76
566.38	59898.99
566.54	60088.57
566.70	60114.32
566.87	60179.85
567.03	60013.68
567.19	60280.50
567.36	60250.07
567.52	60079.21
567.68	60278.16
567.85	60203.26
568.01	60343.69
568.17	59941.12
568.34	60261.77
568.50	60119.00
568.66	60205.60
568.83	60360.08
568.99	60275.82
569.15	60392.84
569.32	60231.35
569.48	60186.88
569.64	60418.59
569.81	60306.24
569.97	60278.16
570.13	60378.80
570.30	60271.14
570.46	60247.73
570.62	60308.58
570.78	60512.21
570.95	60196.24
571.11	60566.04
571.27	60280.50
571.43	60266.45
571.60	60444.33
571.76	60320.29
571.92	60271.14
572.09	60392.84
572.25	60463.06
572.41	60484.12
572.57	60416.25
572.74	60673.71
572.90	60385.82
573.06	60563.70
573.22	60339.01
573.38	60673.71
573.55	60427.95
573.71	60647.96
573.87	60587.11
574.03	60280.50
574.20	60582.43
574.36	60353.05
574.52	60566.04
574.68	60357.74
574.84	60683.07
575.01	60715.84
575.17	60456.04
575.33	60472.42
575.49	60563.70
575.65	60638.60
575.82	60598.81
575.98	60687.75
576.14	60734.56
576.30	60544.98
576.46	60544.98
576.62	60500.51
576.79	60615.19
576.95	60310.92
577.11	60652.64
577.27	60690.09
577.43	60589.45
577.59	60825.84
577.75	60498.17
577.92	60474.76
578.08	60594.13
578.24	60577.75
578.40	60743.92
578.56	60774.35
578.72	60708.82
578.88	60598.81
579.04	60886.70
579.21	60734.56
579.37	60963.93
579.53	60809.46
579.69	60474.76
579.85	60544.98
580.01	60769.67
580.17	60362.42
580.33	60732.22
580.49	60776.69
580.65	60739.24
580.82	60718.18
580.98	60774.35
581.14	60526.25
581.30	60821.16
581.46	60711.16
581.62	60739.24
581.78	60624.56
581.94	60732.22
582.10	60570.72
582.26	60828.18
582.42	60662.00
582.58	60755.63
582.74	60521.57
582.90	60825.84
583.06	60729.88
583.22	60678.39
583.38	60671.37
583.54	60919.46
583.70	60947.55
583.86	60886.70
584.02	60624.56
584.18	60905.42
584.34	61020.11
584.50	60662.00
584.66	60772.01
584.82	60650.30
584.98	60837.54
585.14	60893.72
585.30	60697.11
585.46	60797.76
585.62	60891.38
585.78	61120.75
585.94	60601.15
586.10	60821.16
586.26	60772.01
586.42	60884.36
586.58	60992.02
586.74	60900.74
586.90	60900.74
587.06	60704.13
587.22	61120.75
587.38	60919.46
587.54	60952.23
587.70	61102.03
587.86	60999.04
588.02	60893.72
588.18	60947.55
588.34	60776.69
588.49	61034.15
