SpectraSuite Data File
++++++++++++++++++++++++++++++++++++
Date: Fri Oct 25 11:22:37 EDT 2013
User: price-jones
Dark Spectrum Present: No
Reference Spectrum Present: No
Number of Sampled Component Spectra: 1
Spectrometers: USB2+H05261
Integration Time (usec): 100000 (USB2+H05261)
Spectra Averaged: 1 (USB2+H05261)
Boxcar Smoothing: 0 (USB2+H05261)
Correct for Electrical Dark: No (USB2+H05261)
Strobe/Lamp Enabled: No (USB2+H05261)
Correct for Detector Non-linearity: No (USB2+H05261)
Correct for Stray Light: No (USB2+H05261)
Number of Pixels in Processed Spectrum: 2048
>>>>>Begin Processed Spectral Data<<<<<
365.73	210.65
365.92	210.65
366.12	210.65
366.32	154.48
366.52	77.24
366.72	98.30
366.91	161.50
367.11	135.75
367.31	117.03
367.51	126.39
367.70	70.22
367.90	138.09
368.10	105.32
368.30	84.26
368.49	65.54
368.69	117.03
368.89	166.18
369.09	184.90
369.28	84.26
369.48	140.43
369.68	215.33
369.87	231.71
370.07	173.20
370.27	266.82
370.47	360.44
370.66	587.47
370.86	571.09
371.06	620.24
371.25	662.37
371.45	624.92
371.65	739.61
371.84	645.99
372.04	671.73
372.24	676.41
372.44	699.82
372.63	709.18
372.83	737.27
373.03	730.25
373.22	746.63
373.42	786.42
373.62	781.74
373.81	732.59
374.01	809.83
374.21	798.12
374.40	744.29
374.60	891.74
374.79	877.70
374.99	851.96
375.19	816.85
375.38	786.42
375.58	814.51
375.78	880.04
375.97	870.68
376.17	912.81
376.37	873.02
376.56	891.74
376.76	926.85
376.95	877.70
377.15	896.43
377.35	875.36
377.54	936.21
377.74	1029.84
377.93	931.53
378.13	943.24
378.33	931.53
378.52	933.87
378.72	933.87
378.91	1043.88
379.11	952.60
379.31	943.24
379.50	854.30
379.70	997.07
379.89	947.92
380.09	992.39
380.28	889.40
380.48	992.39
380.68	978.34
380.87	1008.77
381.07	1081.33
381.26	1008.77
381.46	976.00
381.65	1149.20
381.85	947.92
382.04	1078.99
382.24	1107.07
382.43	1088.35
382.63	1004.09
382.83	1013.45
383.02	1151.54
383.22	1172.61
383.41	1071.97
383.61	1135.16
383.80	1165.59
384.00	1100.05
384.19	1153.88
384.39	1137.50
384.58	1142.18
384.78	1188.99
384.97	1191.33
385.17	1057.92
385.36	1207.72
385.56	1181.97
385.75	1130.48
385.95	1200.69
386.14	1184.31
386.34	1207.72
386.53	1078.99
386.72	1242.82
386.92	1245.16
387.11	1310.70
387.31	1188.99
387.50	1259.21
387.70	1181.97
387.89	1165.59
388.09	1263.89
388.28	1306.02
388.48	1324.74
388.67	1273.25
388.86	1380.92
389.06	1291.98
389.25	1226.44
389.45	1446.45
389.64	1397.30
389.84	1369.21
390.03	1401.98
390.22	1418.36
390.42	1387.94
390.61	1404.32
390.81	1352.83
391.00	1357.51
391.19	1537.73
391.39	1378.58
391.58	1451.13
391.78	1446.45
391.97	1469.86
392.16	1500.28
392.36	1577.52
392.55	1579.86
392.75	1687.53
392.94	1528.37
393.13	1514.33
393.33	1572.84
393.52	1629.01
393.71	1619.65
393.91	1607.95
394.10	1687.53
394.29	1544.75
394.49	1561.14
394.68	1678.16
394.88	1640.72
395.07	1689.87
395.26	1724.97
395.46	1680.50
395.65	1757.74
395.84	1692.21
396.04	1825.62
396.23	1741.36
396.42	1785.83
396.62	1802.21
396.81	1877.11
397.00	1811.57
397.19	1732.00
397.39	1715.61
397.58	1856.04
397.77	1856.04
397.97	1755.40
398.16	1755.40
398.35	1886.47
398.55	1809.23
398.74	1879.45
398.93	1998.82
399.12	1975.41
399.32	1944.99
399.51	1893.49
399.70	1970.73
399.90	1994.14
400.09	1973.07
400.28	2066.69
400.47	2101.80
400.67	2085.42
400.86	2043.29
401.05	2120.53
401.24	2127.55
401.44	2172.02
401.63	2195.42
401.82	2181.38
402.01	2003.50
402.21	2200.10
402.40	2256.28
402.59	2188.40
402.78	2218.83
402.97	2186.06
403.17	2244.57
403.36	2204.78
403.55	2303.09
403.74	2403.73
403.93	2296.07
404.13	2349.90
404.32	2417.77
404.51	2455.22
404.70	2443.52
404.89	2380.32
405.09	2392.03
405.28	2490.33
405.47	2495.01
405.66	2499.69
405.85	2565.23
406.05	2555.86
406.24	2457.56
406.43	2513.74
406.62	2670.55
406.81	2810.98
407.00	2565.23
407.20	2696.30
407.39	2642.46
407.58	2691.62
407.77	2761.83
407.96	2792.26
408.15	2799.28
408.34	2736.09
408.54	2918.65
408.73	2773.53
408.92	2923.33
409.11	2963.12
409.30	2925.67
409.49	3014.61
409.68	2932.69
409.87	2970.14
410.07	3112.91
410.26	3133.98
410.45	3056.74
410.64	3091.85
410.83	3063.76
411.02	3227.60
411.21	3119.93
411.40	3157.38
411.59	3274.41
411.78	3157.38
411.98	3274.41
412.17	3138.66
412.36	3290.79
412.55	3442.93
412.74	3487.40
412.93	3248.66
413.12	3269.73
413.31	3637.19
413.50	3405.48
413.69	3585.70
413.88	3648.90
414.07	3566.98
414.26	3728.47
414.45	3688.68
414.64	3791.67
414.83	3756.56
415.02	3707.41
415.22	3794.01
415.41	3868.91
415.60	3817.41
415.79	3854.86
415.98	3882.95
416.17	4128.70
416.36	3969.55
416.55	3999.98
416.74	4093.60
416.93	4126.36
417.12	4124.02
417.31	4252.75
417.50	4306.59
417.69	4421.27
417.88	4416.59
418.07	4308.93
418.26	4337.01
418.45	4379.14
418.64	4648.30
418.83	4456.38
419.02	4585.11
419.21	4540.64
419.39	4465.74
419.58	4322.97
419.77	4514.89
419.96	4650.64
420.15	4566.39
420.34	4578.09
420.53	4725.54
420.72	4774.69
420.91	4704.48
421.10	4777.03
421.29	4877.68
421.48	4777.03
421.67	4842.57
421.86	4966.62
422.05	4863.63
422.24	4901.08
422.43	4990.02
422.61	4983.00
422.80	5118.75
422.99	4901.08
423.18	5083.64
423.37	4994.70
423.56	5053.22
423.75	4983.00
423.94	4798.10
424.13	4657.67
424.32	4917.47
424.50	5018.11
424.69	5104.71
424.88	5076.62
425.07	4971.30
425.26	4966.62
425.45	4971.30
425.64	5188.97
425.83	4938.53
426.01	4950.23
426.20	5128.11
426.39	5165.56
426.58	5032.15
426.77	5149.18
426.96	5090.67
427.15	5102.37
427.33	5228.76
427.52	5259.18
427.71	5224.08
427.90	5254.50
428.09	5467.49
428.28	5401.96
428.46	5514.30
428.65	5434.72
428.84	5488.56
429.03	5675.80
429.22	5397.28
429.40	5518.98
429.59	5535.37
429.78	5294.29
429.97	5355.15
430.16	5628.99
430.34	5757.72
430.53	5706.23
430.72	5678.14
430.91	5764.74
431.10	5591.54
431.28	5792.83
431.47	5837.30
431.66	5884.11
431.85	5771.76
432.03	5879.43
432.22	5989.43
432.41	5935.60
432.60	5951.98
432.79	6054.97
432.97	6038.58
433.16	6073.69
433.35	5937.94
433.54	6087.73
433.72	6038.58
433.91	6064.33
434.10	6242.21
434.28	6223.48
434.47	6282.00
434.66	6380.30
434.85	6326.47
435.03	6445.84
435.22	6216.46
435.41	6616.69
435.59	6466.90
435.78	6621.38
435.97	6464.56
436.16	6452.86
436.34	6387.32
436.53	6633.08
436.72	6712.66
436.90	6504.35
437.09	6647.12
437.28	6614.35
437.46	6621.38
437.65	6782.87
437.84	6778.19
438.02	6705.63
438.21	6813.30
438.40	6810.96
438.58	6965.43
438.77	7021.61
438.96	7023.95
439.14	7171.40
439.33	7185.44
439.52	7248.64
439.70	7258.00
439.89	7363.33
440.08	7325.88
440.26	7290.77
440.45	7613.76
440.63	7573.97
440.82	7777.60
441.01	7616.10
441.19	7714.41
441.38	7714.41
441.57	7871.22
441.75	7812.71
441.94	8098.25
442.12	8065.49
442.31	8070.17
442.50	8203.58
442.68	7962.50
442.87	8145.06
443.05	8175.49
443.24	8215.28
443.43	8297.20
443.61	8175.49
443.80	8381.46
443.98	8285.50
444.17	7981.23
444.35	8428.27
444.54	8482.10
444.73	8400.18
444.91	8397.84
445.10	8404.86
445.28	8468.06
445.47	8383.80
445.65	8540.61
445.84	8559.34
446.02	8594.45
446.21	8475.08
446.39	8439.97
446.58	8547.64
446.77	8514.87
446.95	8329.97
447.14	8463.38
447.32	8587.43
447.51	8842.54
447.69	8430.61
447.88	8456.36
448.06	8587.43
448.25	8847.22
448.43	8706.79
448.62	8652.96
448.80	8781.69
448.99	8690.41
449.17	8571.04
449.36	8704.45
449.54	9041.49
449.73	9074.26
449.91	9043.83
450.10	9092.98
450.28	9200.65
450.46	9076.60
450.65	9397.25
450.83	9095.32
451.02	9008.72
451.20	9394.91
451.39	9284.91
451.57	9205.33
451.76	9153.84
451.94	9181.92
452.13	9516.62
452.31	9528.32
452.49	9165.54
452.68	9467.47
452.86	9259.16
453.05	9198.31
453.23	9249.80
453.42	9444.06
453.60	9486.19
453.78	9600.88
453.97	9605.56
454.15	9607.90
454.34	9486.19
454.52	9839.61
454.70	9692.16
454.89	9713.22
455.07	9944.94
455.26	10094.73
455.44	9937.91
455.62	10080.69
455.81	10059.62
455.99	10047.92
456.17	10188.35
456.36	10071.33
456.54	10359.21
456.73	10422.41
456.91	10597.95
457.09	10670.50
457.28	10721.99
457.46	10436.45
457.64	10609.65
457.83	10513.69
458.01	10649.44
458.19	10661.14
458.38	10895.19
458.56	10586.24
458.74	10946.69
458.93	10757.10
459.11	10792.21
459.29	10949.03
459.48	11143.29
459.66	10691.57
459.84	11108.18
460.03	11372.66
460.21	11353.94
460.39	11201.80
460.57	11037.97
460.76	11267.34
460.94	11250.96
461.12	11351.60
461.31	11297.77
461.49	11276.70
461.67	11213.51
461.85	11578.63
462.04	11279.04
462.22	11988.22
462.40	11499.05
462.59	11646.51
462.77	11637.14
462.95	11651.19
463.13	11889.92
463.32	11674.59
463.50	11721.40
463.68	11819.71
463.86	12138.02
464.05	11784.60
464.23	11618.42
464.41	11934.39
464.59	12002.27
464.78	12147.38
464.96	12262.07
465.14	12201.21
465.32	12236.32
465.50	12332.28
465.69	12535.91
465.87	12182.49
466.05	12210.57
466.23	12397.82
466.41	12582.72
466.60	12561.66
466.78	12327.60
466.96	12056.10
467.14	12439.95
467.32	12592.08
467.51	12751.24
467.69	12475.06
467.87	12666.98
468.05	12912.74
468.23	12554.63
468.41	12430.59
468.60	12765.28
468.78	12767.62
468.96	12645.91
469.14	13006.36
469.32	13188.92
469.50	12826.14
469.69	13039.12
469.87	13149.13
470.05	13163.17
470.23	13364.46
470.41	13139.77
470.59	13556.38
470.77	13022.74
470.95	13348.08
471.14	13516.59
471.32	13202.96
471.50	13731.92
471.68	13701.50
471.86	13743.63
472.04	13750.65
472.22	13870.01
472.40	13755.33
472.58	13898.10
472.77	14291.31
472.95	14300.67
473.13	14462.17
473.31	14207.05
473.49	14307.69
473.67	14244.50
473.85	14312.38
474.03	14789.85
474.21	14831.97
474.39	14794.53
474.57	15094.11
474.75	15077.73
474.93	15201.78
475.12	15297.74
475.30	15227.53
475.48	15393.70
475.66	15332.85
475.84	15445.20
476.02	15627.76
476.20	15552.86
476.38	15829.04
476.56	16112.25
476.74	16145.02
476.92	15971.82
477.10	15852.45
477.28	16210.55
477.46	16706.74
477.64	16475.03
477.82	16891.65
478.00	17132.72
478.18	16791.00
478.36	16936.12
478.54	17336.35
478.72	17121.02
478.90	17500.19
479.08	17605.51
479.26	18012.76
479.44	17813.82
479.62	17937.87
479.80	18125.11
479.98	18359.16
480.16	18860.04
480.34	18216.39
480.52	18642.37
480.70	18635.35
480.88	18726.63
481.06	18869.40
481.24	19201.76
481.41	19201.76
481.59	19353.89
481.77	19611.35
481.95	19421.77
482.13	20273.72
482.31	20257.34
482.49	20489.05
482.67	20315.85
482.85	20800.34
483.03	20575.65
483.21	20971.20
483.39	20915.03
483.57	21085.89
483.74	21392.50
483.92	21584.42
484.10	21296.53
484.28	21977.63
484.46	22167.21
484.64	22515.95
484.82	22068.91
485.00	22363.82
485.18	23021.51
485.35	23168.96
485.53	23140.88
485.71	23351.52
485.89	23651.11
486.07	23309.40
486.25	23817.29
486.43	23878.15
486.61	23957.72
486.78	24552.22
486.96	24687.97
487.14	24627.12
487.32	24767.55
487.50	24900.96
487.68	25214.59
487.85	25469.71
488.03	25757.60
488.21	26082.93
488.39	26251.45
488.57	25940.16
488.75	26326.35
488.92	26852.97
489.10	26841.26
489.28	26717.22
489.46	27611.30
489.64	27192.34
489.81	27999.83
489.99	28020.89
490.17	28219.84
490.35	28486.66
490.53	28772.21
490.70	28535.81
490.88	28716.03
491.06	29060.09
491.24	29242.65
491.41	29378.40
491.59	29495.43
491.77	29500.11
491.95	30139.08
492.13	30366.11
492.30	30188.23
492.48	30857.62
492.66	30469.09
492.84	30852.94
493.01	31079.97
493.19	30721.87
493.37	31428.71
493.54	31463.82
493.72	31655.75
493.90	31789.16
494.08	32116.83
494.25	31955.33
494.43	32442.17
494.61	32505.36
494.79	32900.91
494.96	32830.69
495.14	32926.66
495.32	33488.38
495.49	33284.76
495.67	33240.29
495.85	33947.13
496.02	33919.04
496.20	34082.88
496.38	34483.11
496.55	34256.08
496.73	34918.45
496.91	34817.81
497.09	35194.64
497.26	35215.70
497.44	35494.22
497.62	35433.37
497.79	35597.21
497.97	35824.24
498.14	36559.17
498.32	36512.36
498.50	36479.59
498.67	37165.37
498.85	36807.26
499.03	37034.30
499.20	37284.73
499.38	37092.81
499.56	37230.90
499.73	37090.47
499.91	37511.77
500.08	38036.05
500.26	37890.93
500.44	38026.68
500.61	38094.56
500.79	38410.53
500.97	38312.23
501.14	38525.22
501.32	38799.06
501.49	39096.31
501.67	39234.40
501.84	39026.09
502.02	39150.14
502.20	39431.01
502.37	39566.76
502.55	39779.74
502.72	39573.78
502.90	40240.83
503.07	40100.40
503.25	40210.40
503.43	40107.42
503.60	40678.51
503.78	40444.46
503.95	40261.90
504.13	40760.43
504.30	40786.18
504.48	40961.72
504.65	41254.28
504.83	41322.16
505.01	41743.45
505.18	41574.94
505.36	41876.86
505.53	41631.11
505.71	42232.63
505.88	42213.90
506.06	41617.07
506.23	42347.31
506.41	42284.12
506.58	42677.33
506.76	42616.47
506.93	43082.24
507.11	42768.61
507.28	43229.69
507.46	43353.74
507.63	42953.51
507.81	43772.70
507.98	43133.73
508.16	43496.52
508.33	43496.52
508.50	44161.23
508.68	44062.93
508.85	44182.29
509.03	43763.34
509.20	44411.67
509.38	44917.22
509.55	44928.92
509.73	45244.90
509.90	44980.42
510.08	45247.24
510.25	44587.21
510.42	45151.27
510.60	45240.21
510.77	45904.93
510.95	46153.02
511.12	45642.79
511.30	45750.45
511.47	45801.94
511.64	46075.79
511.82	46169.41
511.99	45827.69
512.17	46609.43
512.34	46263.03
512.51	47012.00
512.69	47075.19
512.86	46787.31
513.04	47327.97
513.21	46848.16
513.38	47107.96
513.56	47473.09
513.73	47021.36
513.90	47517.56
514.08	46927.74
514.25	47751.61
514.43	48095.67
514.60	47784.38
514.77	47985.66
514.95	48030.13
515.12	47863.96
515.29	47646.29
515.47	48067.58
515.64	48959.33
515.81	48692.50
515.99	48470.15
516.16	48966.35
516.33	48673.78
516.51	49287.00
516.68	48650.38
516.85	49191.04
517.03	49092.74
517.20	49656.81
517.37	49287.00
517.54	49279.98
517.72	49507.01
517.89	49319.77
518.06	49731.70
518.24	49099.76
518.41	49305.73
518.58	49469.56
518.75	49811.28
518.93	50499.40
519.10	50005.55
519.27	50087.46
519.45	50024.27
519.62	50377.69
519.79	50255.98
519.96	50052.36
520.14	50740.47
520.31	50145.98
520.48	50845.80
520.65	51110.28
520.83	51323.27
521.00	50536.85
521.17	50674.94
521.34	51065.81
521.52	51037.72
521.69	50894.95
521.86	51196.88
522.03	51753.93
522.20	51508.17
522.38	51515.19
522.55	51835.84
522.72	51877.97
522.89	51824.14
523.07	52168.20
523.24	51957.55
523.41	51782.01
523.58	51908.40
523.75	52250.12
523.92	52385.87
524.10	52322.68
524.27	52626.95
524.44	52479.49
524.61	52367.15
524.78	52896.11
524.96	52437.36
525.13	52516.94
525.30	52893.77
525.47	52699.50
525.64	52893.77
525.81	52905.47
525.98	53289.32
526.16	52947.60
526.33	52549.71
526.50	53263.57
526.67	53279.96
526.84	53256.55
527.01	53139.52
527.18	53375.92
527.36	53294.00
527.53	53340.81
527.70	53652.10
527.87	53624.01
528.04	53514.01
528.21	53579.54
528.38	53666.14
528.55	53911.90
528.72	53350.17
528.89	53626.35
529.07	53834.66
529.24	53689.55
529.41	53848.71
529.58	53865.09
529.75	54127.23
529.92	53881.47
530.09	54223.19
530.26	54110.85
530.43	54368.30
530.60	54143.61
530.77	54127.23
530.94	54286.39
531.11	54262.98
531.28	54656.19
531.46	54527.46
531.63	54684.28
531.80	54504.06
531.97	54820.03
532.14	54791.94
532.31	54695.98
532.48	54906.63
532.65	54937.05
532.82	54642.15
532.99	54794.28
533.16	54681.94
533.33	55131.32
533.50	55018.97
533.67	55117.28
533.84	54817.69
534.01	55147.70
534.18	55367.71
534.35	55505.80
534.52	55365.37
534.69	55657.94
534.86	55679.00
535.03	55344.31
535.20	55618.15
535.37	55671.98
535.54	55749.22
535.71	55412.18
535.88	55669.64
536.05	55819.44
536.22	55781.99
536.38	55870.93
536.55	56076.90
536.72	55990.30
536.89	55753.90
537.06	55852.20
537.23	55814.76
537.40	55915.40
537.57	55899.01
537.74	55999.66
537.91	56390.53
538.08	56163.50
538.25	55978.59
538.42	56334.35
538.59	56638.62
538.75	56229.03
538.92	56119.02
539.09	56467.76
539.26	56442.02
539.43	56519.26
539.60	56598.83
539.77	56516.92
539.94	56624.58
540.11	56685.43
540.28	56725.22
540.44	56423.29
540.61	56893.74
540.78	56582.45
540.95	56772.03
541.12	56418.61
541.29	56811.82
541.46	56772.03
541.62	56989.70
541.79	56884.38
541.96	56811.82
542.13	57132.48
542.30	56886.72
542.47	57272.91
542.63	57181.63
542.80	57172.27
542.97	57261.21
543.14	57542.07
543.31	57315.04
543.48	57516.32
543.64	57757.40
543.81	57457.81
543.98	57698.89
544.15	57462.49
544.32	57719.95
544.48	57918.90
544.65	57448.45
544.82	57593.56
544.99	57607.61
545.16	57708.25
545.32	57696.55
545.49	58042.95
545.66	57989.11
545.83	57867.40
546.00	57820.59
546.16	57745.70
546.33	57886.13
546.50	57708.25
546.67	58064.01
546.83	57677.82
547.00	58157.63
547.17	57860.38
547.34	58122.52
547.50	58195.08
547.67	58525.10
547.84	58347.21
548.00	58192.74
548.17	58660.85
548.34	58244.23
548.51	58464.24
548.67	58468.92
548.84	58375.30
549.01	58316.79
549.18	58614.04
549.34	58489.99
549.51	58443.18
549.68	58705.32
549.84	58475.94
550.01	58529.78
550.18	58475.94
550.34	58934.69
550.51	58906.60
550.68	58592.97
550.84	58632.76
551.01	59009.59
551.18	58824.68
551.34	58670.21
551.51	58602.33
551.68	58866.81
551.84	58852.77
552.01	58691.27
552.18	58871.49
552.34	58838.73
552.51	59065.76
552.68	58796.60
552.84	59185.13
553.01	59288.11
553.18	59072.78
553.34	59243.64
553.51	59112.57
553.67	59112.57
553.84	59339.60
554.01	59241.30
554.17	59257.68
554.34	59255.34
554.51	59250.66
554.67	59199.17
554.84	59283.43
555.00	59171.08
555.17	59234.28
555.33	59421.52
555.50	59433.22
555.67	59271.73
555.83	59458.97
556.00	59391.09
556.16	59519.82
556.33	59487.06
556.50	59370.03
556.66	59863.88
556.83	59367.69
556.99	59765.58
557.16	59737.49
557.32	59646.21
557.49	59929.42
557.65	59674.30
557.82	59442.59
557.98	59704.73
558.15	59767.92
558.32	59800.69
558.48	59587.70
558.65	59730.47
558.81	59739.83
558.98	60065.17
559.14	59999.63
559.31	59826.43
559.47	59889.63
559.64	59845.16
559.80	60093.25
559.97	60210.28
560.13	59779.62
560.30	59957.50
560.46	60107.30
560.63	60205.60
560.79	60102.62
560.96	60039.42
561.12	60191.56
561.29	60027.72
561.45	60177.51
561.61	60140.07
561.78	59971.55
561.94	60034.74
562.11	60133.04
562.27	60109.64
562.44	60289.86
562.60	60439.65
562.77	60147.09
562.93	59929.42
563.10	60268.79
563.26	60214.96
563.42	60420.93
563.59	60151.77
563.75	60315.61
563.92	60236.03
564.08	60271.14
564.24	60266.45
564.41	60369.44
564.57	60491.15
564.74	60355.39
564.90	60217.30
565.07	60427.95
565.23	60348.37
565.39	60507.53
565.56	60383.48
565.72	60179.85
565.88	60636.26
566.05	60154.11
566.21	60463.06
566.38	60460.72
566.54	60423.27
566.70	60823.50
566.87	60580.09
567.03	60577.75
567.19	60669.03
567.36	60612.85
567.52	60528.59
567.68	60706.47
567.85	60622.22
568.01	60561.36
568.17	60645.62
568.34	60638.60
568.50	60584.77
568.66	60573.06
568.83	60580.09
568.99	60619.88
569.15	60697.11
569.32	60493.49
569.48	60659.66
569.64	60626.90
569.81	60800.10
569.97	60760.31
570.13	60704.13
570.30	60542.64
570.46	60732.22
570.62	60694.77
570.78	60739.24
570.95	60697.11
571.11	60825.84
571.27	60484.12
571.43	60882.02
571.60	60940.53
571.76	60786.05
571.92	60900.74
572.09	60739.24
572.25	60762.65
572.41	60788.39
572.57	60802.44
572.74	61109.05
572.90	60942.87
573.06	60704.13
573.22	60889.04
573.38	60914.78
573.55	60750.94
573.71	61179.26
573.87	60947.55
574.03	60647.96
574.20	60900.74
574.36	60938.19
574.52	60804.78
574.68	61057.56
574.84	60977.98
575.01	61087.98
575.17	61071.60
575.33	60919.46
575.49	60938.19
575.65	61188.63
575.82	60961.59
575.98	60989.68
576.14	61034.15
576.30	61052.87
576.46	60874.99
576.62	61090.32
576.79	61226.07
576.95	60764.99
577.11	61111.39
577.27	61160.54
577.43	60989.68
577.59	60889.04
577.75	60977.98
577.92	60865.63
578.08	60893.72
578.24	61134.79
578.40	61123.09
578.56	61275.22
578.72	60844.57
578.88	61268.20
579.04	61130.11
579.21	61219.05
579.37	61057.56
579.53	61340.76
579.69	60931.17
579.85	61207.35
580.01	61212.03
580.17	61017.77
580.33	61242.46
580.49	61162.88
580.65	61038.83
580.82	61116.07
580.98	60994.36
581.14	61062.24
581.30	61228.41
581.46	61085.64
581.62	61249.48
581.78	61209.69
581.94	61195.65
582.10	61183.94
582.26	61254.16
582.42	61010.74
582.58	61095.00
582.74	61214.37
582.90	61048.19
583.06	61256.50
583.22	60975.64
583.38	61205.01
583.54	61165.22
583.70	61455.45
583.86	61141.81
584.02	61123.09
584.18	61197.99
584.34	61312.67
584.50	61277.57
584.66	61151.18
584.82	60968.61
584.98	61305.65
585.14	60970.96
585.30	61059.90
585.46	61296.29
585.62	61329.06
585.78	61471.83
585.94	61102.03
586.10	61289.27
586.26	61205.01
586.42	61230.75
586.58	61350.12
586.74	61181.60
586.90	61307.99
587.06	61027.13
587.22	61345.44
587.38	61336.08
587.54	61326.72
587.70	61436.72
587.86	61343.10
588.02	61331.40
588.18	61586.52
588.34	61254.16
588.49	61315.01
