SpectraSuite Data File
++++++++++++++++++++++++++++++++++++
Date: Fri Oct 25 10:43:28 EDT 2013
User: price-jones
Dark Spectrum Present: No
Reference Spectrum Present: No
Number of Sampled Component Spectra: 1
Spectrometers: USB2+H05261
Integration Time (usec): 100000 (USB2+H05261)
Spectra Averaged: 1 (USB2+H05261)
Boxcar Smoothing: 0 (USB2+H05261)
Correct for Electrical Dark: No (USB2+H05261)
Strobe/Lamp Enabled: No (USB2+H05261)
Correct for Detector Non-linearity: No (USB2+H05261)
Correct for Stray Light: No (USB2+H05261)
Number of Pixels in Processed Spectrum: 2048
>>>>>Begin Processed Spectral Data<<<<<
365.73	142.77
365.92	142.77
366.12	142.77
366.32	25.75
366.52	0.00
366.72	79.58
366.91	56.17
367.11	16.38
367.31	11.70
367.51	79.58
367.70	0.00
367.90	2.34
368.10	0.00
368.30	30.43
368.49	0.00
368.69	42.13
368.89	16.38
369.09	14.04
369.28	95.96
369.48	95.96
369.68	42.13
369.87	102.98
370.07	163.84
370.27	58.51
370.47	196.60
370.66	360.44
370.86	418.96
371.06	456.40
371.25	456.40
371.45	444.70
371.65	472.79
371.84	430.66
372.04	421.30
372.24	468.11
372.44	411.93
372.63	517.26
372.83	505.56
373.03	578.11
373.22	503.22
373.42	557.05
373.62	454.06
373.81	496.19
374.01	657.69
374.21	587.47
374.40	566.41
374.60	526.62
374.79	500.87
374.99	561.73
375.19	582.79
375.38	524.28
375.58	589.82
375.78	592.16
375.97	543.00
376.17	655.35
376.37	622.58
376.56	596.84
376.76	596.84
376.95	638.97
377.15	669.39
377.35	578.11
377.54	599.18
377.74	585.13
377.93	667.05
378.13	627.26
378.33	592.16
378.52	615.56
378.72	681.10
378.91	585.13
379.11	660.03
379.31	580.45
379.50	575.77
379.70	624.92
379.89	725.57
380.09	690.46
380.28	695.14
380.48	638.97
380.68	662.37
380.87	755.99
381.07	690.46
381.26	791.10
381.46	709.18
381.65	585.13
381.85	704.50
382.04	674.07
382.24	737.27
382.43	692.80
382.63	770.04
382.83	730.25
383.02	685.78
383.22	744.29
383.41	676.41
383.61	650.67
383.80	777.06
384.00	739.61
384.19	821.53
384.39	730.25
384.58	692.80
384.78	741.95
384.97	751.31
385.17	851.96
385.36	826.21
385.56	819.19
385.75	674.07
385.95	770.04
386.14	774.72
386.34	767.70
386.53	901.11
386.72	779.40
386.92	819.19
387.11	945.58
387.31	905.79
387.50	826.21
387.70	828.55
387.89	791.10
388.09	877.70
388.28	875.36
388.48	891.74
388.67	856.64
388.86	908.13
389.06	959.62
389.25	1008.77
389.45	1046.22
389.64	903.45
389.84	1043.88
390.03	938.55
390.22	987.71
390.42	1004.09
390.61	1004.09
390.81	966.64
391.00	1121.12
391.19	1093.03
391.39	933.87
391.58	994.73
391.78	1008.77
391.97	1004.09
392.16	992.39
392.36	1046.22
392.55	1039.20
392.75	994.73
392.94	999.41
393.13	947.92
393.33	1008.77
393.52	1060.26
393.71	1048.56
393.91	1107.07
394.10	1121.12
394.29	1149.20
394.49	1167.93
394.68	1198.35
394.88	1174.95
395.07	1228.78
395.26	1170.27
395.46	1135.16
395.65	1181.97
395.84	1210.06
396.04	1345.81
396.23	1132.82
396.42	1036.86
396.62	1149.20
396.81	1198.35
397.00	1132.82
397.19	1352.83
397.39	1266.23
397.58	1275.59
397.77	1299.00
397.97	1416.02
398.16	1324.74
398.35	1406.66
398.55	1469.86
398.74	1437.09
398.93	1540.07
399.12	1469.86
399.32	1542.41
399.51	1451.13
399.70	1467.52
399.90	1596.25
400.09	1603.27
400.28	1575.18
400.47	1572.84
400.67	1547.09
400.86	1633.69
401.05	1680.50
401.24	1661.78
401.44	1657.10
401.63	1666.46
401.82	1692.21
402.01	1760.08
402.21	1727.32
402.40	1755.40
402.59	1720.29
402.78	1734.34
402.97	1715.61
403.17	1809.23
403.36	1804.55
403.55	1830.30
403.74	1881.79
403.93	1923.92
404.13	1914.56
404.32	1802.21
404.51	1743.70
404.70	2019.88
404.89	1944.99
405.09	1937.96
405.28	1980.09
405.47	1935.62
405.66	1952.01
405.85	1816.26
406.05	2026.90
406.24	2038.61
406.43	1980.09
406.62	2139.25
406.81	2101.80
407.00	2057.33
407.20	2012.86
407.39	2064.35
407.58	2157.97
407.77	2143.93
407.96	2202.44
408.15	2225.85
408.34	2181.38
408.54	2345.22
408.73	2272.66
408.92	2270.32
409.11	2150.95
409.30	2183.72
409.49	2260.96
409.68	2359.26
409.87	2319.47
410.07	2282.02
410.26	2282.02
410.45	2340.54
410.64	2377.98
410.83	2452.88
411.02	2422.45
411.21	2562.89
411.40	2555.86
411.59	2551.18
411.78	2452.88
411.98	2497.35
412.17	2635.44
412.36	2649.49
412.55	2649.49
412.74	2635.44
412.93	2754.81
413.12	2619.06
413.31	2789.92
413.50	2752.47
413.69	2736.09
413.88	2782.90
414.07	2841.41
414.26	2974.82
414.45	2841.41
414.64	3089.51
414.83	3019.29
415.02	2909.29
415.22	3070.78
415.41	3222.92
415.60	3063.76
415.79	3138.66
415.98	3215.90
416.17	3166.74
416.36	3136.32
416.55	3185.47
416.74	3213.56
416.93	3194.83
417.12	3251.00
417.31	3255.69
417.50	3236.96
417.69	3349.31
417.88	3419.52
418.07	3426.54
418.26	3361.01
418.45	3468.67
418.64	3637.19
418.83	3681.66
419.02	3454.63
419.21	3674.64
419.39	3466.33
419.58	3557.61
419.77	3485.06
419.96	3522.51
420.15	3641.87
420.34	3698.05
420.53	3751.88
420.72	3772.94
420.91	3850.18
421.10	3796.35
421.29	3852.52
421.48	3712.09
421.67	3896.99
421.86	3765.92
422.05	3681.66
422.24	3815.07
422.43	3770.60
422.61	3852.52
422.80	3892.31
422.99	3836.14
423.18	3829.12
423.37	4042.11
423.56	3927.42
423.75	3808.05
423.94	3960.19
424.13	3695.71
424.32	3810.39
424.50	3915.72
424.69	4025.72
424.88	4159.13
425.07	3941.46
425.26	3735.50
425.45	3805.71
425.64	4044.45
425.83	3873.59
426.01	4156.79
426.20	3932.10
426.39	3915.72
426.58	3646.55
426.77	3918.06
426.96	3999.98
427.15	3995.29
427.33	4035.08
427.52	4084.23
427.71	4049.13
427.90	4067.85
428.09	4032.74
428.28	4138.07
428.46	4109.98
428.65	4121.68
428.84	4203.60
429.03	4245.73
429.22	4095.94
429.40	4177.86
429.59	4053.81
429.78	3824.44
429.97	3737.84
430.16	4002.32
430.34	3955.51
430.53	4014.02
430.72	4163.81
430.91	4126.36
431.10	4381.48
431.28	4280.84
431.47	4416.59
431.66	4622.56
431.85	4503.19
432.03	4608.51
432.22	4624.90
432.41	4723.20
432.60	4606.17
432.79	4645.96
432.97	4638.94
433.16	4734.90
433.35	4648.30
433.54	4737.24
433.72	4681.07
433.91	4564.04
434.10	4603.83
434.28	4917.47
434.47	4758.31
434.66	4798.10
434.85	4952.57
435.03	4924.49
435.22	5011.09
435.41	5004.07
435.59	5004.07
435.78	5088.32
435.97	5013.43
436.16	4999.38
436.34	5165.56
436.53	5071.94
436.72	5184.29
436.90	5128.11
437.09	5203.01
437.28	4971.30
437.46	5071.94
437.65	5102.37
437.84	5074.28
438.02	5104.71
438.21	5221.74
438.40	5100.03
438.58	5263.86
438.77	5413.66
438.96	5263.86
439.14	5518.98
439.33	5423.02
439.52	5404.30
439.70	5467.49
439.89	5628.99
440.08	5636.01
440.26	5589.20
440.45	5699.20
440.63	5781.12
440.82	5830.27
441.01	5928.58
441.19	6078.37
441.38	6036.24
441.57	5982.41
441.75	6223.48
441.94	6127.52
442.12	6111.14
442.31	6193.06
442.50	6324.13
442.68	6216.46
442.87	6244.55
443.05	6319.45
443.24	6394.34
443.43	6331.15
443.61	6380.30
443.80	6532.44
443.98	6204.76
444.17	6061.99
444.35	6363.92
444.54	6392.00
444.73	6490.31
444.91	6523.07
445.10	6363.92
445.28	6595.63
445.47	6239.87
445.65	6441.15
445.84	6497.33
446.02	6504.35
446.21	6497.33
446.39	6530.09
446.58	6532.44
446.77	6700.95
446.95	6651.80
447.14	6689.25
447.32	6581.59
447.51	6682.23
447.69	6497.33
447.88	6649.46
448.06	6548.82
448.25	6483.28
448.43	6663.51
448.62	6654.14
448.80	6668.19
448.99	6846.07
449.17	6949.05
449.36	6597.97
449.54	6754.79
449.73	6930.33
449.91	7009.90
450.10	7096.50
450.28	7166.72
450.46	7206.51
450.65	7225.23
450.83	7089.48
451.02	7021.61
451.20	7150.34
451.39	6998.20
451.57	7084.80
451.76	7087.14
451.94	7000.54
452.13	7138.63
452.31	7089.48
452.49	6899.90
452.68	7208.85
452.86	7094.16
453.05	7105.87
453.23	7169.06
453.42	7105.87
453.60	7250.98
453.78	7435.88
453.97	7105.87
454.15	7349.28
454.34	7438.22
454.52	7360.98
454.70	7548.23
454.89	7456.95
455.07	7339.92
455.26	7538.87
455.44	7646.53
455.62	7562.27
455.81	7761.22
455.99	7648.87
456.17	7756.54
456.36	7740.15
456.54	7953.14
456.73	7946.12
456.91	8128.68
457.09	8037.40
457.28	8112.30
457.46	7866.54
457.64	7971.86
457.83	8128.68
458.01	7850.16
458.19	7943.78
458.38	7843.14
458.56	8463.38
458.74	8177.83
458.93	8081.87
459.11	8175.49
459.29	8074.85
459.48	8243.37
459.66	8407.20
459.84	8458.70
460.03	8641.26
460.21	8322.94
460.39	8276.13
460.57	8521.89
460.76	8512.53
460.94	8507.85
461.12	8674.03
461.31	8564.02
461.49	8571.04
461.67	8723.18
461.85	8997.02
462.04	8697.43
462.22	9111.71
462.40	8858.93
462.59	8711.47
462.77	8877.65
462.95	8865.95
463.13	8840.20
463.32	8861.27
463.50	8898.72
463.68	8833.18
463.86	8915.10
464.05	9076.60
464.23	8786.37
464.41	8830.84
464.59	8835.52
464.78	9125.75
464.96	8982.98
465.14	9029.79
465.32	9242.78
465.50	9366.82
465.69	9252.14
465.87	8964.25
466.05	9015.74
466.23	9392.57
466.41	9231.07
466.60	9235.75
466.78	9006.38
466.96	9160.86
467.14	9289.59
467.32	9235.75
467.51	9228.73
467.69	9125.75
467.87	9448.74
468.05	9408.95
468.23	9439.38
468.41	9483.85
468.60	9497.89
468.78	9373.85
468.96	9308.31
469.14	9600.88
469.32	9509.60
469.50	9198.31
469.69	9605.56
469.87	9820.89
470.05	9839.61
470.23	9673.43
470.41	9741.31
470.59	9961.32
470.77	9720.24
470.95	9741.31
471.14	10073.67
471.32	9790.46
471.50	10249.21
471.68	10045.58
471.86	10328.78
472.04	10188.35
472.22	10380.28
472.40	10228.14
472.58	10289.00
472.77	10090.05
472.95	10487.94
473.13	10609.65
473.31	10296.02
473.49	10359.21
473.67	10581.56
473.85	10628.37
474.03	10956.05
474.21	10759.44
474.39	11028.60
474.57	10934.98
474.75	10881.15
474.93	11066.05
475.12	10951.37
475.30	11005.20
475.48	11098.82
475.66	11063.71
475.84	11019.24
476.02	11510.75
476.20	11199.46
476.38	11470.97
476.56	11709.70
476.74	11602.04
476.92	11648.85
477.10	11700.34
477.28	11896.94
477.46	11639.48
477.64	11995.25
477.82	12133.34
478.00	12416.54
478.18	12407.18
478.36	12456.33
478.54	12397.82
478.72	12411.86
478.90	12798.05
479.08	12765.28
479.26	12999.34
479.44	12936.14
479.62	13034.44
479.80	13301.26
479.98	13373.82
480.16	13446.38
480.34	13373.82
480.52	13860.65
480.70	13781.07
480.88	13507.23
481.06	13860.65
481.24	13872.36
481.41	14155.56
481.59	14272.59
481.77	14097.05
481.95	14438.76
482.13	14663.46
482.31	14216.41
482.49	15021.56
482.67	14888.15
482.85	14761.76
483.03	15033.26
483.21	15279.02
483.39	15370.30
483.57	15136.24
483.74	15225.18
483.92	15459.24
484.10	15042.62
484.28	15850.11
484.46	15892.24
484.64	15974.16
484.82	16088.84
485.00	16123.95
485.18	16362.69
485.35	16486.73
485.53	16081.82
485.71	15997.56
485.89	16266.72
486.07	16084.16
486.25	16217.57
486.43	16613.12
486.61	16870.58
486.78	17067.19
486.96	17029.74
487.14	17521.25
487.32	17699.13
487.50	17895.74
487.68	18097.02
487.85	18017.44
488.03	18127.45
488.21	18256.18
488.39	18113.41
488.57	18326.39
488.75	18532.36
488.92	18874.08
489.10	19276.65
489.28	19105.79
489.46	19384.32
489.64	19360.91
489.81	19924.98
489.99	19999.88
490.17	19978.81
490.35	20283.08
490.53	20194.14
490.70	20278.40
490.88	20210.53
491.06	20624.80
491.24	20629.48
491.41	20533.52
491.59	20362.66
491.77	20297.13
491.95	20870.56
492.13	21153.76
492.30	21535.27
492.48	21301.22
492.66	21724.85
492.84	21727.19
493.01	22101.68
493.19	21635.91
493.37	21986.99
493.54	21956.57
493.72	22104.02
493.90	22249.13
494.08	22597.87
494.25	22857.67
494.43	23208.75
494.61	23211.09
494.79	23185.35
494.96	23243.86
495.14	23166.62
495.32	23513.02
495.49	23639.41
495.67	23208.75
495.85	23714.31
496.02	23845.38
496.20	23861.76
496.38	23948.36
496.55	24198.80
496.73	24739.46
496.91	24570.94
497.09	24678.61
497.26	24641.16
497.44	24851.81
497.62	25081.18
497.79	25144.38
497.97	24985.22
498.14	25130.33
498.32	25481.41
498.50	25446.30
498.67	25647.59
498.85	25635.89
499.03	25888.67
499.20	25954.20
499.38	26015.05
499.56	26031.44
499.73	25916.75
499.91	26384.86
500.08	26253.79
500.26	26171.87
500.44	26309.96
500.61	26721.90
500.79	26373.16
500.97	26415.29
501.14	26761.69
501.32	26916.16
501.49	26628.27
501.67	26932.54
501.84	27351.50
502.02	26974.67
502.20	27300.01
502.37	27615.98
502.55	27431.08
502.72	27641.73
502.90	27995.15
503.07	27828.97
503.25	27707.26
503.43	27672.15
503.60	27637.05
503.78	27920.25
503.95	27805.56
504.13	28339.21
504.30	28166.01
504.48	28226.86
504.65	28753.48
504.83	28521.77
505.01	28765.18
505.18	28964.13
505.36	29142.01
505.53	29212.23
505.71	29352.66
505.88	29411.17
506.06	29111.58
506.23	29191.16
506.41	28931.36
506.58	29619.48
506.76	29432.24
506.93	29640.54
507.11	29497.77
507.28	29780.98
507.46	29818.42
507.63	29757.57
507.81	30139.08
507.98	29736.51
508.16	30185.89
508.33	30092.27
508.50	30279.51
508.68	30731.23
508.85	30939.54
509.03	30724.21
509.20	30808.47
509.38	31304.67
509.55	30885.71
509.73	30852.94
509.90	31056.57
510.08	30675.06
510.25	31278.92
510.42	31199.34
510.60	30866.98
510.77	31435.74
510.95	31531.70
511.12	31601.91
511.30	31594.89
511.47	32060.66
511.64	31964.70
511.82	32079.38
511.99	31828.95
512.17	31924.91
512.34	32149.60
512.51	32437.48
512.69	32416.42
512.86	32360.25
513.04	32203.43
513.21	32861.12
513.38	32402.38
513.56	32442.17
513.73	32570.90
513.90	32797.93
514.08	32353.23
514.25	32701.96
514.43	32896.23
514.60	32664.52
514.77	33191.14
514.95	33134.96
515.12	33418.17
515.29	32783.88
515.47	33661.58
515.64	33659.24
515.81	33640.52
515.99	33603.07
516.16	33731.80
516.33	32964.10
516.51	33062.41
516.68	33003.89
516.85	33008.58
517.03	33123.26
517.20	33628.82
517.37	33839.47
517.54	34017.35
517.72	33862.87
517.89	33621.80
518.06	33509.45
518.24	33692.01
518.41	33755.21
518.58	34338.00
518.75	34223.31
518.93	34368.43
519.10	34600.14
519.27	34850.58
519.45	34778.02
519.62	34871.64
519.79	34803.77
519.96	35194.64
520.14	34604.82
520.31	34897.39
520.48	34944.20
520.65	34794.40
520.83	35704.87
521.00	35676.79
521.17	35608.91
521.34	35587.85
521.52	35686.15
521.69	35768.07
521.86	35931.90
522.03	35681.47
522.20	35845.30
522.38	36123.83
522.55	35899.14
522.72	36018.50
522.89	35707.21
523.07	36479.59
523.24	35777.43
523.41	36402.35
523.58	36212.77
523.75	36907.91
523.92	36493.63
524.10	36987.49
524.27	36608.32
524.44	36989.83
524.61	36980.46
524.78	36657.47
524.96	37017.91
525.13	37266.01
525.30	37399.42
525.47	36973.44
525.64	37340.91
525.81	36844.71
525.98	36971.10
526.16	37048.34
526.33	36818.97
526.50	37074.09
526.67	36746.41
526.84	36807.26
527.01	37212.18
527.18	37212.18
527.36	37785.61
527.53	37848.80
527.70	37893.27
527.87	37902.64
528.04	37970.51
528.21	38115.62
528.38	37886.25
528.55	38485.43
528.72	37900.29
528.89	38983.96
529.07	38717.14
529.24	38553.30
529.41	38792.04
529.58	38387.13
529.75	38019.66
529.92	38536.92
530.09	38918.43
530.26	38471.39
530.43	38660.97
530.60	39033.11
530.77	38696.08
530.94	38979.28
531.11	38880.98
531.28	39056.52
531.46	39290.57
531.63	39175.89
531.80	38857.57
531.97	38845.87
532.14	38878.64
532.31	38532.24
532.48	39229.72
532.65	38909.07
532.82	39035.45
532.99	39412.28
533.16	39164.18
533.33	39505.90
533.50	39950.60
533.67	39604.20
533.84	39716.55
534.01	39786.77
534.18	39468.45
534.35	40102.74
534.52	40210.40
534.69	39988.05
534.86	40172.96
535.03	39915.50
535.20	40430.41
535.37	40542.76
535.54	40615.32
535.71	40121.46
535.88	40917.25
536.05	40053.59
536.22	40189.34
536.38	39896.77
536.55	40573.19
536.72	40030.18
536.89	39782.09
537.06	40500.63
537.23	40774.47
537.40	40589.57
537.57	40886.82
537.74	40669.15
537.91	40982.78
538.08	40641.06
538.25	40453.82
538.42	40701.92
538.59	41055.34
538.75	40540.42
538.92	41097.47
539.09	41287.05
539.26	40957.03
539.43	41134.92
539.60	40601.27
539.77	40725.32
539.94	41085.76
540.11	41230.88
540.28	41441.53
540.44	41202.79
540.61	41001.50
540.78	41317.48
540.95	41106.83
541.12	41031.93
541.29	41308.11
541.46	41191.09
541.62	41387.69
541.79	41668.56
541.96	41336.20
542.13	41532.81
542.30	41656.85
542.47	41289.39
542.63	41514.08
542.80	41563.23
542.97	42335.61
543.14	42274.76
543.31	41979.85
543.48	42113.26
543.64	41989.21
543.81	42775.63
543.98	42302.84
544.15	42335.61
544.32	42520.51
544.48	42862.23
544.65	42763.93
544.82	42550.94
544.99	42162.41
545.16	42630.52
545.32	42024.32
545.49	42784.99
545.66	42677.33
545.83	42670.31
546.00	42866.91
546.16	43117.35
546.33	42483.06
546.50	42246.67
546.67	43168.84
546.83	42326.25
547.00	43014.37
547.17	42815.42
547.34	42997.98
547.50	42831.80
547.67	42848.19
547.84	43129.05
548.00	43166.50
548.17	43164.16
548.34	43047.13
548.51	43793.76
548.67	43653.33
548.84	43536.30
549.01	43381.83
549.18	43456.73
549.34	43295.23
549.51	43250.76
549.68	43381.83
549.84	43438.00
550.01	43402.89
550.18	43257.78
550.34	43365.45
550.51	43735.25
550.68	43611.20
550.84	43325.66
551.01	43636.95
551.18	43517.58
551.34	43686.10
551.51	44170.59
551.68	44020.80
551.84	43405.23
552.01	43646.31
552.18	43861.64
552.34	43627.59
552.51	43908.45
552.68	43924.83
552.84	43772.70
553.01	44156.55
553.18	43714.19
553.34	44304.00
553.51	43847.60
553.67	43901.43
553.84	44432.73
554.01	44449.11
554.17	44236.12
554.34	44219.74
554.51	44348.47
554.67	44378.90
554.84	44081.65
555.00	44439.75
555.17	44060.58
555.33	44226.76
555.50	44348.47
555.67	44236.12
555.83	44212.72
556.00	44250.17
556.16	44624.65
556.33	44027.82
556.50	44481.88
556.66	44495.92
556.83	44495.92
556.99	44854.03
557.16	44507.63
557.32	44353.15
557.49	44741.68
557.65	44381.24
557.82	44617.63
557.98	44512.31
558.15	44701.89
558.32	44334.43
558.48	44287.62
558.65	44329.75
558.81	44177.61
558.98	44762.75
559.14	44737.00
559.31	44711.25
559.47	44402.30
559.64	44942.97
559.80	44889.13
559.97	44598.91
560.13	44292.30
560.30	44645.72
560.46	44856.37
560.63	45017.86
560.79	45184.04
560.96	45422.78
561.12	45034.25
561.29	44825.94
561.45	45031.91
561.61	44985.10
561.78	44729.98
561.94	45181.70
562.11	44767.43
562.27	44701.89
562.44	44875.09
562.60	45317.45
562.77	45277.66
562.93	45181.70
563.10	45464.91
563.26	44884.45
563.42	45432.14
563.59	44966.37
563.75	45212.13
563.92	45146.59
564.08	45544.48
564.24	45067.02
564.41	44891.48
564.57	45411.07
564.74	45200.43
564.90	45181.70
565.07	45294.05
565.23	45045.95
565.39	45226.17
565.56	45059.99
565.72	44938.29
565.88	45127.87
566.05	44680.83
566.21	45450.86
566.38	45532.78
566.54	45315.11
566.70	45607.68
566.87	45553.85
567.03	45284.68
567.19	45982.16
567.36	45937.69
567.52	45450.86
567.68	45331.50
567.85	45315.11
568.01	45560.87
568.17	45263.62
568.34	45759.81
568.50	45492.99
568.66	45097.44
568.83	45303.41
568.99	44776.79
569.15	45282.34
569.32	45780.88
569.48	45469.59
569.64	45659.17
569.81	45212.13
569.97	45427.46
570.13	45577.25
570.30	44872.75
570.46	45118.51
570.62	44694.87
570.78	45034.25
570.95	45207.45
571.11	45755.13
571.27	45029.57
571.43	45661.51
571.60	45617.04
571.76	45731.73
571.92	45750.45
572.09	45469.59
572.25	45839.39
572.41	45436.82
572.57	45614.70
572.74	45851.09
572.90	45628.74
573.06	45635.77
573.22	45848.75
573.38	45237.87
573.55	45319.79
573.71	45979.82
573.87	45635.77
574.03	45268.30
574.20	45151.27
574.36	45521.08
574.52	45560.87
574.68	45591.30
574.84	45565.55
575.01	45160.64
575.17	45584.27
575.33	45125.53
575.49	45577.25
575.65	45703.64
575.82	45818.33
575.98	45670.87
576.14	45670.87
576.30	45689.60
576.46	45511.72
576.62	45364.26
576.79	45558.53
576.95	45111.49
577.11	45734.07
577.27	45684.92
577.43	45832.37
577.59	45603.00
577.75	45186.38
577.92	45612.36
578.08	45464.91
578.24	45404.05
578.40	45509.38
578.56	45464.91
578.72	45607.68
578.88	46019.61
579.04	45769.18
579.21	45443.84
579.37	45256.60
579.53	45745.77
579.69	45567.89
579.85	45544.48
580.01	45385.33
580.17	45631.08
580.33	45790.24
580.49	45687.26
580.65	45727.05
580.82	45352.56
580.98	45736.41
581.14	45549.17
581.30	45883.86
581.46	45298.73
581.62	45757.47
581.78	45647.47
581.94	46539.21
582.10	45263.62
582.26	45844.07
582.42	45563.21
582.58	45839.39
582.74	45762.15
582.90	45783.22
583.06	45832.37
583.22	45813.65
583.38	46368.35
583.54	45677.90
583.70	45792.58
583.86	45631.08
584.02	45565.55
584.18	45776.20
584.34	45357.24
584.50	45925.99
584.66	46101.53
584.82	45823.01
584.98	45563.21
585.14	46064.08
585.30	45408.73
585.46	45766.84
585.62	45347.88
585.78	45483.63
585.94	45434.48
586.10	45595.98
586.26	45532.78
586.42	46424.53
586.58	45705.98
586.74	45743.43
586.90	45748.11
587.06	45776.20
587.22	45584.27
587.38	45890.88
587.54	45874.50
587.70	45879.18
587.86	45483.63
588.02	45621.72
588.18	45837.05
588.34	45551.51
588.49	45441.50
588.65	45514.06
588.81	45148.93
588.97	45242.56
589.13	45441.50
589.29	45179.36
589.45	45308.09
589.61	45769.18
589.77	45769.18
589.93	45858.12
590.08	45752.79
