SpectraSuite Data File
++++++++++++++++++++++++++++++++++++
Date: Fri Oct 25 11:25:30 EDT 2013
User: price-jones
Dark Spectrum Present: No
Reference Spectrum Present: No
Number of Sampled Component Spectra: 1
Spectrometers: USB2+H05261
Integration Time (usec): 100000 (USB2+H05261)
Spectra Averaged: 1 (USB2+H05261)
Boxcar Smoothing: 0 (USB2+H05261)
Correct for Electrical Dark: No (USB2+H05261)
Strobe/Lamp Enabled: No (USB2+H05261)
Correct for Detector Non-linearity: No (USB2+H05261)
Correct for Stray Light: No (USB2+H05261)
Number of Pixels in Processed Spectrum: 2048
>>>>>Begin Processed Spectral Data<<<<<
365.73	196.60
365.92	196.60
366.12	196.60
366.32	140.43
366.52	142.77
366.72	191.92
366.91	203.63
367.11	147.45
367.31	124.05
367.51	100.64
367.70	133.41
367.90	220.01
368.10	84.26
368.30	180.22
368.49	126.39
368.69	201.29
368.89	105.32
369.09	210.65
369.28	177.88
369.48	121.71
369.68	168.52
369.87	220.01
370.07	184.90
370.27	252.78
370.47	299.59
370.66	547.69
370.86	601.52
371.06	648.33
371.25	624.92
371.45	669.39
371.65	711.52
371.84	695.14
372.04	681.10
372.24	648.33
372.44	737.27
372.63	763.01
372.83	751.31
373.03	737.27
373.22	772.38
373.42	835.57
373.62	739.61
373.81	835.57
374.01	755.99
374.21	779.40
374.40	821.53
374.60	849.61
374.79	800.46
374.99	863.66
375.19	805.14
375.38	849.61
375.58	842.59
375.78	767.70
375.97	868.34
376.17	898.77
376.37	819.19
376.56	833.23
376.76	933.87
376.95	905.79
377.15	947.92
377.35	903.45
377.54	875.36
377.74	961.96
377.93	915.15
378.13	840.25
378.33	987.71
378.52	896.43
378.72	952.60
378.91	1067.28
379.11	954.94
379.31	966.64
379.50	940.90
379.70	957.28
379.89	976.00
380.09	992.39
380.28	936.21
380.48	952.60
380.68	1013.45
380.87	992.39
381.07	966.64
381.26	1060.26
381.46	1095.37
381.65	990.05
381.85	997.07
382.04	973.66
382.24	1022.81
382.43	1057.92
382.63	1109.41
382.83	1083.67
383.02	1135.16
383.22	1064.94
383.41	1102.39
383.61	1144.52
383.80	1130.48
384.00	1137.50
384.19	1135.16
384.39	1132.82
384.58	1095.37
384.78	1086.01
384.97	1130.48
385.17	1198.35
385.36	1165.59
385.56	1163.25
385.75	1179.63
385.95	1165.59
386.14	1249.85
386.34	1139.84
386.53	1156.22
386.72	1235.80
386.92	1228.78
387.11	1224.10
387.31	1228.78
387.50	1291.98
387.70	1224.10
387.89	1252.19
388.09	1310.70
388.28	1277.93
388.48	1259.21
388.67	1352.83
388.86	1261.55
389.06	1291.98
389.25	1282.61
389.45	1259.21
389.64	1306.02
389.84	1352.83
390.03	1261.55
390.22	1245.16
390.42	1341.13
390.61	1331.76
390.81	1308.36
391.00	1387.94
391.19	1373.89
391.39	1423.05
391.58	1427.73
391.78	1462.83
391.97	1430.07
392.16	1519.01
392.36	1504.96
392.55	1493.26
392.75	1537.73
392.94	1542.41
393.13	1554.12
393.33	1554.12
393.52	1617.31
393.71	1575.18
393.91	1570.50
394.10	1526.03
394.29	1554.12
394.49	1652.42
394.68	1755.40
394.88	1636.03
395.07	1610.29
395.26	1626.67
395.46	1668.80
395.65	1624.33
395.84	1685.19
396.04	1802.21
396.23	1685.19
396.42	1687.53
396.62	1790.51
396.81	1720.29
397.00	1748.38
397.19	1799.87
397.39	1827.96
397.58	1846.68
397.77	1722.63
397.97	1762.42
398.16	1823.28
398.35	1996.48
398.55	1853.70
398.74	1860.73
398.93	1959.03
399.12	1956.69
399.32	1940.30
399.51	1947.33
399.70	1984.77
399.90	2031.58
400.09	2052.65
400.28	2076.06
400.47	2026.90
400.67	2108.82
400.86	1975.41
401.05	2115.84
401.24	2101.80
401.44	2057.33
401.63	2129.89
401.82	2076.06
402.01	2139.25
402.21	2202.44
402.40	2148.61
402.59	2139.25
402.78	2143.93
402.97	2293.72
403.17	2246.91
403.36	2216.49
403.55	2237.55
403.74	2284.36
403.93	2321.81
404.13	2359.26
404.32	2356.92
404.51	2335.85
404.70	2389.69
404.89	2434.16
405.09	2525.44
405.28	2464.58
405.47	2513.74
405.66	2487.99
405.85	2534.80
406.05	2450.54
406.24	2619.06
406.43	2530.12
406.62	2719.70
406.81	2677.57
407.00	2621.40
407.20	2612.04
407.39	2518.42
407.58	2684.59
407.77	2677.57
407.96	2630.76
408.15	2806.30
408.34	2731.41
408.54	2743.11
408.73	2736.09
408.92	2705.66
409.11	2761.83
409.30	2794.60
409.49	2885.88
409.68	2974.82
409.87	2904.60
410.07	3009.93
410.26	2967.80
410.45	3178.45
410.64	2965.46
410.83	3063.76
411.02	3075.46
411.21	3089.51
411.40	3112.91
411.59	3148.02
411.78	3281.43
411.98	3232.28
412.17	3290.79
412.36	3276.75
412.55	3314.20
412.74	3344.63
412.93	3361.01
413.12	3339.94
413.31	3585.70
413.50	3426.54
413.69	3398.46
413.88	3599.74
414.07	3571.66
414.26	3527.19
414.45	3550.59
414.64	3662.94
414.83	3735.50
415.02	3714.43
415.22	3782.31
415.41	3878.27
415.60	3775.28
415.79	3761.24
415.98	3873.59
416.17	3887.63
416.36	3826.78
416.55	3988.27
416.74	3852.52
416.93	3985.93
417.12	4170.83
417.31	4159.13
417.50	4112.32
417.69	4243.39
417.88	4344.03
418.07	4203.60
418.26	4212.96
418.45	4273.82
418.64	4407.23
418.83	4308.93
419.02	4418.93
419.21	4479.79
419.39	4346.37
419.58	4395.53
419.77	4346.37
419.96	4538.30
420.15	4477.44
420.34	4631.92
420.53	4491.49
420.72	4613.20
420.91	4652.98
421.10	4741.93
421.29	4713.84
421.48	4573.41
421.67	4816.82
421.86	4718.52
422.05	4821.50
422.24	4683.41
422.43	4730.22
422.61	4760.65
422.80	4915.12
422.99	4856.61
423.18	4978.32
423.37	4954.91
423.56	4964.28
423.75	4856.61
423.94	4826.18
424.13	4617.88
424.32	4718.52
424.50	4992.36
424.69	4952.57
424.88	5034.49
425.07	4894.06
425.26	4877.68
425.45	4917.47
425.64	4844.91
425.83	4952.57
426.01	5018.11
426.20	5034.49
426.39	5088.32
426.58	5163.22
426.77	5078.96
426.96	5217.05
427.15	5121.09
427.33	5210.03
427.52	5130.45
427.71	5245.14
427.90	5146.84
428.09	5298.97
428.28	5305.99
428.46	5254.50
428.65	5348.12
428.84	5451.11
429.03	5460.47
429.22	5387.91
429.40	5329.40
429.59	5479.19
429.78	5273.23
429.97	5210.03
430.16	5540.05
430.34	5652.39
430.53	5610.26
430.72	5586.86
430.91	5544.73
431.10	5579.84
431.28	5685.16
431.47	5771.76
431.66	5884.11
431.85	5605.58
432.03	5750.70
432.22	5940.28
432.41	5757.72
432.60	5975.39
432.79	5937.94
432.97	6015.18
433.16	5987.09
433.35	5853.68
433.54	5933.26
433.72	6202.42
433.91	6225.82
434.10	6183.70
434.28	6059.65
434.47	6228.17
434.66	6342.85
434.85	6270.30
435.03	6260.93
435.22	6338.17
435.41	6333.49
435.59	6331.15
435.78	6291.36
435.97	6427.11
436.16	6366.26
436.34	6354.55
436.53	6366.26
436.72	6642.44
436.90	6399.02
437.09	6546.48
437.28	6469.24
437.46	6462.22
437.65	6630.74
437.84	6808.62
438.02	6857.77
438.21	6637.76
438.40	6537.12
438.58	6909.26
438.77	6930.33
438.96	6965.43
439.14	7119.91
439.33	7180.76
439.52	7190.13
439.70	7173.74
439.89	7222.89
440.08	7250.98
440.26	7375.03
440.45	7281.41
440.63	7335.24
440.82	7578.65
441.01	7447.58
441.19	7588.02
441.38	7705.04
441.57	7524.82
441.75	7538.87
441.94	7705.04
442.12	7859.52
442.31	7934.42
442.50	7941.44
442.68	7990.59
442.87	7943.78
443.05	7974.21
443.24	8173.15
443.43	8105.28
443.61	8056.12
443.80	8468.06
443.98	7901.65
444.17	7756.54
444.35	8168.47
444.54	8470.40
444.73	8318.26
444.91	8322.94
445.10	8308.90
445.28	8430.61
445.47	8145.06
445.65	8407.20
445.84	8273.79
446.02	8428.27
446.21	8212.94
446.39	8191.88
446.58	8432.95
446.77	8322.94
446.95	8210.60
447.14	8271.45
447.32	8674.03
447.51	8468.06
447.69	8315.92
447.88	8514.87
448.06	8587.43
448.25	8320.60
448.43	8561.68
448.62	8500.83
448.80	8369.76
448.99	8571.04
449.17	8552.32
449.36	8498.49
449.54	8727.86
449.73	8858.93
449.91	8987.66
450.10	8936.17
450.28	9050.85
450.46	8924.46
450.65	8915.10
450.83	8901.06
451.02	9027.45
451.20	9142.13
451.39	8877.65
451.57	9057.87
451.76	9006.38
451.94	9085.96
452.13	9121.07
452.31	9235.75
452.49	9121.07
452.68	9345.76
452.86	9270.86
453.05	9338.74
453.23	9282.56
453.42	9165.54
453.60	9097.66
453.78	9322.35
453.97	9589.17
454.15	9418.32
454.34	9518.96
454.52	9446.40
454.70	9694.50
454.89	9603.22
455.07	9682.80
455.26	9727.27
455.44	10076.01
455.62	9778.76
455.81	9832.59
455.99	9848.97
456.17	9795.14
456.36	9762.37
456.54	10286.65
456.73	10349.85
456.91	10230.48
457.09	10272.61
457.28	10590.92
457.46	10223.46
457.64	10469.22
457.83	10363.89
458.01	10403.68
458.19	10817.96
458.38	10347.51
458.56	10677.52
458.74	10424.75
458.93	10597.95
459.11	10663.48
459.29	10520.71
459.48	10787.53
459.66	10834.34
459.84	10759.44
460.03	11049.67
460.21	10927.96
460.39	10944.34
460.57	11035.63
460.76	10981.79
460.94	11110.52
461.12	11117.54
461.31	11136.27
461.49	11183.08
461.67	11215.85
461.85	11225.21
462.04	11178.40
462.22	11925.03
462.40	11400.75
462.59	11295.43
462.77	11412.45
462.95	11770.55
463.13	11473.31
463.32	11562.25
463.50	11595.01
463.68	11592.67
463.86	11903.96
464.05	11618.42
464.23	11634.80
464.41	11793.96
464.59	11321.17
464.78	12063.12
464.96	11866.52
465.14	11744.81
465.32	12081.85
465.50	11894.60
465.69	11903.96
465.87	12067.80
466.05	12032.69
466.23	12091.21
466.41	12463.35
466.60	12395.48
466.78	12318.24
466.96	12264.41
467.14	12226.96
467.32	12320.58
467.51	12594.42
467.69	12313.56
467.87	12407.18
468.05	12475.06
468.23	12294.83
468.41	12278.45
468.60	12360.37
468.78	12496.12
468.96	12351.01
469.14	12683.36
469.32	12961.89
469.50	12950.18
469.69	13029.76
469.87	12793.37
470.05	12926.78
470.23	13170.19
470.41	13146.79
470.59	13160.83
470.77	13167.85
470.95	13280.20
471.14	13233.39
471.32	13083.59
471.50	13357.44
471.68	13422.97
471.86	13530.64
472.04	13572.77
472.22	13949.59
472.40	13715.54
472.58	13593.83
472.77	14174.28
472.95	14183.65
473.13	14593.24
473.31	13916.83
473.49	14286.63
473.67	14017.47
473.85	14120.45
474.03	14497.28
474.21	14415.36
474.39	14406.00
474.57	14534.73
474.75	14745.38
474.93	14773.46
475.12	14651.75
475.30	15054.33
475.48	14897.51
475.66	15508.39
475.84	14904.53
476.02	15199.44
476.20	15225.18
476.38	15321.15
476.56	15896.92
476.74	15917.98
476.92	15616.05
477.10	15768.19
477.28	16154.38
477.46	15896.92
477.64	16233.96
477.82	16264.38
478.00	16751.21
478.18	16348.64
478.36	16819.09
478.54	17163.15
478.72	17195.92
478.90	17099.95
479.08	17305.92
479.26	17764.67
479.44	17745.94
479.62	17769.35
479.80	17963.61
479.98	18010.42
480.16	18279.58
480.34	18340.44
480.52	18431.72
480.70	18574.49
480.88	18387.25
481.06	18675.13
481.24	18768.76
481.41	18841.31
481.59	19281.33
481.77	19384.32
481.95	19484.96
482.13	19494.32
482.31	19651.14
482.49	20039.67
482.67	19822.00
482.85	20002.22
483.03	20460.96
483.21	20535.86
483.39	20844.81
483.57	21018.01
483.74	21022.69
483.92	21523.57
484.10	21177.17
484.28	21296.53
484.46	21766.98
484.64	22246.79
484.82	21860.60
485.00	22237.43
485.18	22342.75
485.35	23005.13
485.53	22738.30
485.71	22637.66
485.89	23335.14
486.07	23124.49
486.25	23269.61
486.43	23377.27
486.61	23342.16
486.78	23962.40
486.96	23763.46
487.14	24290.08
487.32	24582.65
487.50	24739.46
487.68	24606.05
487.85	24842.45
488.03	25310.55
488.21	25593.76
488.39	25633.55
488.57	25986.97
488.75	25846.54
488.92	26214.00
489.10	26738.28
489.28	26647.00
489.46	26740.62
489.64	27122.13
489.81	27660.45
489.99	27449.80
490.17	27648.75
490.35	27999.83
490.53	27873.44
490.70	28180.05
490.88	28088.77
491.06	28748.80
491.24	28800.29
491.41	29132.65
491.59	29146.69
491.77	28936.04
491.95	29399.47
492.13	29570.33
492.30	29802.04
492.48	29694.38
492.66	29984.60
492.84	29998.65
493.01	30490.16
493.19	30483.14
493.37	31070.61
493.54	30754.64
493.72	31178.28
493.90	31171.25
494.08	31735.32
494.25	31758.73
494.43	31601.91
494.61	32067.68
494.79	32210.45
494.96	32320.46
495.14	32393.01
495.32	32734.73
495.49	32985.17
495.67	33207.52
495.85	33053.05
496.02	33661.58
496.20	33441.57
496.38	33809.04
496.55	34057.14
496.73	34574.39
496.91	34450.35
497.09	34330.98
497.26	34635.25
497.44	34424.60
497.62	34801.43
497.79	35377.20
497.97	35086.97
498.14	35651.04
498.32	35634.66
498.50	35688.49
498.67	36514.70
498.85	36510.02
499.03	36507.68
499.20	36407.03
499.38	36385.97
499.56	36519.38
499.73	36809.61
499.91	37167.71
500.08	37614.75
500.26	37205.16
500.44	37663.90
500.61	37773.91
500.79	37724.75
500.97	38047.75
501.14	37783.27
501.32	38293.50
501.49	38129.67
501.67	38349.68
501.84	38572.03
502.02	38642.24
502.20	38878.64
502.37	38990.98
502.55	38810.76
502.72	38890.34
502.90	39292.91
503.07	39374.83
503.25	39627.61
503.43	39103.33
503.60	39995.07
503.78	39871.03
503.95	40137.85
504.13	40261.90
504.30	40439.78
504.48	40554.46
504.65	40568.51
504.83	40914.90
505.01	40837.67
505.18	41029.59
505.36	41226.20
505.53	41045.97
505.71	41055.34
505.88	41572.60
506.06	41312.80
506.23	41687.28
506.41	41837.08
506.58	41839.42
506.76	42061.77
506.93	42174.11
507.11	42057.09
507.28	42436.25
507.46	42597.75
507.63	42710.10
507.81	42703.07
507.98	42806.06
508.16	42682.01
508.33	42724.14
508.50	43363.11
508.68	43241.40
508.85	43618.22
509.03	43517.58
509.20	44016.11
509.38	43868.66
509.55	44102.71
509.73	44126.12
509.90	44444.43
510.08	43913.13
510.25	44442.09
510.42	44275.91
510.60	44722.96
510.77	44900.84
510.95	45230.85
511.12	44701.89
511.30	44755.72
511.47	44755.72
511.64	45291.71
511.82	45713.00
511.99	45375.97
512.17	45909.61
512.34	45635.77
512.51	45930.67
512.69	46040.68
512.86	46122.60
513.04	46192.81
513.21	45998.55
513.38	46223.24
513.56	46780.29
513.73	46660.92
513.90	46981.57
514.08	46307.50
514.25	46838.80
514.43	46642.20
514.60	47178.18
514.77	47173.50
514.95	47229.67
515.12	47112.64
515.29	47456.70
515.47	47700.12
515.64	47601.82
515.81	47861.61
515.99	47842.89
516.16	48385.89
516.33	48009.07
516.51	48538.03
516.68	47868.64
516.85	48147.16
517.03	48538.03
517.20	48835.28
517.37	48924.22
517.54	48931.24
517.72	48491.22
517.89	48720.59
518.06	48935.92
518.24	48748.68
518.41	49223.81
518.58	49092.74
518.75	48673.78
518.93	48919.54
519.10	49006.14
519.27	49876.82
519.45	49408.71
519.62	49471.90
519.79	49670.85
519.96	49759.79
520.14	49900.22
520.31	49911.92
520.48	49848.73
520.65	49872.14
520.83	50387.05
521.00	50431.52
521.17	50391.73
521.34	50607.06
521.52	50557.91
521.69	50279.39
521.86	51100.92
522.03	50834.10
522.20	51103.26
522.38	51154.75
522.55	51023.68
522.72	50794.31
522.89	51182.84
523.07	51660.30
523.24	51426.25
523.41	51643.92
523.58	51208.58
523.75	51550.30
523.92	51466.04
524.10	51906.06
524.27	51508.17
524.44	51782.01
524.61	51817.12
524.78	51945.85
524.96	52006.70
525.13	51964.57
525.30	52048.83
525.47	52072.24
525.64	52032.45
525.81	52662.05
525.98	52456.09
526.16	52282.89
526.33	52200.97
526.50	52907.81
526.67	52772.06
526.84	52900.79
527.01	52570.77
527.18	52708.86
527.36	52886.74
527.53	52584.82
527.70	53240.17
527.87	53085.69
528.04	52868.02
528.21	53205.06
528.38	52767.38
528.55	53497.62
528.72	53455.50
528.89	53389.96
529.07	53106.76
529.24	53359.53
529.41	53710.61
529.58	53471.88
529.75	53404.00
529.92	53315.06
530.09	53345.49
530.26	53602.95
530.43	53687.21
530.60	53441.45
530.77	53436.77
530.94	54075.74
531.11	53738.70
531.28	53954.03
531.46	53853.39
531.63	54113.19
531.80	54087.44
531.97	54120.21
532.14	54145.95
532.31	54019.56
532.48	54262.98
532.65	54234.89
532.82	54370.64
532.99	54302.77
533.16	54328.52
533.33	54672.57
533.50	54698.32
533.67	54478.31
533.84	54262.98
534.01	54447.88
534.18	54513.42
534.35	55035.36
534.52	55098.55
534.69	55124.30
534.86	55096.21
535.03	54820.03
535.20	54913.65
535.37	55346.65
535.54	55105.57
535.71	54894.92
535.88	55093.87
536.05	55356.01
536.22	55545.59
536.38	55463.67
536.55	55475.38
536.72	55194.51
536.89	55222.60
537.06	55318.56
537.23	55622.83
537.40	55447.29
537.57	55564.32
537.74	55789.01
537.91	55735.18
538.08	55856.88
538.25	55442.61
538.42	55756.24
538.59	56200.94
538.75	55882.63
538.92	55786.67
539.09	55952.85
539.26	56030.08
539.43	55796.03
539.60	55814.76
539.77	55999.66
539.94	56189.24
540.11	56128.39
540.28	56266.48
540.44	56353.08
540.61	56217.33
540.78	56310.95
540.95	56051.15
541.12	56535.64
541.29	56247.75
541.46	56435.00
541.62	56282.86
541.79	56402.23
541.96	56254.78
542.13	56610.54
542.30	56278.18
542.47	56736.93
542.63	56439.68
542.80	56757.99
542.97	56985.02
543.14	56917.15
543.31	57008.43
543.48	56891.40
543.64	57293.97
543.81	57237.80
543.98	57109.07
544.15	56961.62
544.32	57214.40
544.48	57226.10
544.65	57223.76
544.82	57251.84
544.99	57071.62
545.16	57272.91
545.32	57481.22
545.49	57488.24
545.66	57680.16
545.83	57446.11
546.00	57670.80
546.16	57453.13
546.33	57357.17
546.50	57256.53
546.67	57586.54
546.83	57083.33
547.00	57483.56
547.17	57652.08
547.34	57513.98
547.50	57724.63
547.67	58010.18
547.84	57825.28
548.00	57907.19
548.17	58106.14
548.34	57939.96
548.51	57886.13
548.67	57773.78
548.84	58005.50
549.01	57855.70
549.18	58120.18
549.34	57984.43
549.51	58387.00
549.68	58494.67
549.84	58159.97
550.01	58440.84
550.18	58108.48
550.34	58255.93
550.51	58169.33
550.68	58302.74
550.84	57888.47
551.01	58433.81
551.18	58436.16
551.34	58265.30
551.51	58394.03
551.68	58251.25
551.84	58461.90
552.01	58335.51
552.18	58253.59
552.34	58426.79
552.51	58497.01
552.68	58227.85
552.84	58438.50
553.01	58775.53
553.18	58728.72
553.34	58623.40
553.51	58595.31
553.67	58550.84
553.84	58979.16
554.01	58855.11
554.17	58869.15
554.34	58958.09
554.51	58827.02
554.67	58925.33
554.84	58901.92
555.00	58897.24
555.17	58951.07
555.33	58972.14
555.50	58768.51
555.67	58642.12
555.83	58824.68
556.00	58906.60
556.16	59255.34
556.33	59114.91
556.50	58885.54
556.66	59182.79
556.83	58789.58
556.99	59292.79
557.16	59295.13
557.32	59463.65
557.49	59489.40
557.65	59140.66
557.82	59178.10
557.98	59318.54
558.15	59192.15
558.32	59395.77
558.48	59178.10
558.65	59290.45
558.81	59353.65
558.98	59313.86
559.14	59339.60
559.31	59655.57
559.47	59599.40
559.64	59442.59
559.80	59414.50
559.97	59625.15
560.13	59377.05
560.30	59454.29
560.46	59578.34
560.63	59480.03
560.79	59723.45
560.96	59760.90
561.12	59718.77
561.29	59505.78
561.45	59662.60
561.61	59763.24
561.78	59793.67
561.94	59487.06
562.11	59613.44
562.27	59615.79
562.44	59620.47
562.60	59847.50
562.77	59852.18
562.93	59592.38
563.10	59929.42
563.26	59611.10
563.42	59901.33
563.59	59812.39
563.75	59880.27
563.92	59971.55
564.08	59751.54
564.24	60039.42
564.41	59920.05
564.57	60076.87
564.74	59917.71
564.90	60030.06
565.07	59817.07
565.23	60086.23
565.39	59828.77
565.56	59990.27
565.72	59917.71
565.88	59990.27
566.05	59964.52
566.21	59955.16
566.38	60086.23
566.54	60205.60
566.70	60287.52
566.87	60231.35
567.03	60191.56
567.19	60149.43
567.36	60231.35
567.52	60102.62
567.68	60432.63
567.85	60165.81
568.01	60079.21
568.17	60025.38
568.34	60313.26
568.50	60090.91
568.66	60282.84
568.83	60259.43
568.99	60254.75
569.15	60364.76
569.32	60214.96
569.48	60214.96
569.64	60231.35
569.81	60385.82
569.97	60142.41
570.13	60418.59
570.30	60004.31
570.46	60210.28
570.62	60425.61
570.78	60268.79
570.95	60147.09
571.11	60441.99
571.27	60395.18
571.43	60357.74
571.60	60444.33
571.76	60280.50
571.92	60481.78
572.09	60339.01
572.25	60409.23
572.41	60505.19
572.57	60413.91
572.74	60650.30
572.90	60252.41
573.06	60472.42
573.22	60294.54
573.38	60434.97
573.55	60371.78
573.71	60624.56
573.87	60523.91
574.03	60451.36
574.20	60561.36
574.36	60636.26
574.52	60453.70
574.68	60734.56
574.84	60699.45
575.01	60561.36
575.17	60523.91
575.33	60324.97
575.49	60399.86
575.65	60821.16
575.82	60516.89
575.98	60498.17
576.14	60727.54
576.30	60582.43
576.46	60470.08
576.62	60491.15
576.79	60512.21
576.95	60669.03
577.11	60453.70
577.27	60823.50
577.43	60741.58
577.59	60563.70
577.75	60474.76
577.92	60633.92
578.08	60528.59
578.24	60666.69
578.40	60858.61
578.56	60851.59
578.72	60690.09
578.88	60750.94
579.04	60956.91
579.21	60715.84
579.37	60935.85
579.53	60685.41
579.69	60664.35
579.85	60481.78
580.01	60647.96
580.17	60615.19
580.33	60697.11
580.49	60851.59
580.65	60926.49
580.82	60542.64
580.98	60769.67
581.14	60748.60
581.30	60764.99
581.46	60589.45
581.62	60544.98
581.78	60692.43
581.94	60713.50
582.10	60582.43
582.26	60779.03
582.42	60732.22
582.58	60732.22
582.74	60657.32
582.90	60835.20
583.06	60804.78
583.22	60736.90
583.38	60704.13
583.54	60622.22
583.70	60788.39
583.86	60867.97
584.02	60886.70
584.18	60727.54
584.34	60931.17
584.50	60872.65
584.66	60507.53
584.82	60814.14
584.98	61066.92
585.14	60753.29
585.30	60748.60
585.46	60879.67
585.62	60783.71
585.78	60973.30
585.94	60589.45
586.10	60874.99
586.26	60830.52
586.42	61013.08
586.58	61172.24
586.74	60903.08
586.90	60842.23
587.06	60753.29
587.22	60893.72
587.38	60767.33
587.54	60910.10
587.70	61197.99
587.86	60872.65
588.02	60863.29
588.18	60975.64
588.34	60912.44
588.49	60814.14
