SpectraSuite Data File
++++++++++++++++++++++++++++++++++++
Date: Fri Oct 25 10:43:42 EDT 2013
User: price-jones
Dark Spectrum Present: No
Reference Spectrum Present: No
Number of Sampled Component Spectra: 1
Spectrometers: USB2+H05261
Integration Time (usec): 100000 (USB2+H05261)
Spectra Averaged: 1 (USB2+H05261)
Boxcar Smoothing: 0 (USB2+H05261)
Correct for Electrical Dark: No (USB2+H05261)
Strobe/Lamp Enabled: No (USB2+H05261)
Correct for Detector Non-linearity: No (USB2+H05261)
Correct for Stray Light: No (USB2+H05261)
Number of Pixels in Processed Spectrum: 2048
>>>>>Begin Processed Spectral Data<<<<<
365.73	102.98
365.92	102.98
366.12	102.98
366.32	91.28
366.52	49.15
366.72	25.75
366.91	0.00
367.11	0.00
367.31	11.70
367.51	37.45
367.70	0.00
367.90	11.70
368.10	88.94
368.30	93.62
368.49	0.00
368.69	35.11
368.89	30.43
369.09	46.81
369.28	42.13
369.48	60.85
369.68	88.94
369.87	126.39
370.07	163.84
370.27	135.75
370.47	161.50
370.66	292.57
370.86	475.13
371.06	440.02
371.25	538.32
371.45	458.74
371.65	421.30
371.84	395.55
372.04	414.27
372.24	428.32
372.44	538.32
372.63	510.24
372.83	484.49
373.03	470.45
373.22	500.87
373.42	550.03
373.62	470.45
373.81	550.03
374.01	624.92
374.21	580.45
374.40	543.00
374.60	638.97
374.79	547.69
374.99	550.03
375.19	653.01
375.38	580.45
375.58	510.24
375.78	620.24
375.97	519.60
376.17	615.56
376.37	540.66
376.56	624.92
376.76	636.63
376.95	648.33
377.15	667.05
377.35	650.67
377.54	699.82
377.74	638.97
377.93	638.97
378.13	657.69
378.33	697.48
378.52	575.77
378.72	601.52
378.91	660.03
379.11	650.67
379.31	615.56
379.50	653.01
379.70	648.33
379.89	678.76
380.09	720.88
380.28	664.71
380.48	641.31
380.68	697.48
380.87	704.50
381.07	688.12
381.26	777.06
381.46	755.99
381.65	781.74
381.85	702.16
382.04	777.06
382.24	723.23
382.43	753.65
382.63	648.33
382.83	690.46
383.02	667.05
383.22	730.25
383.41	704.50
383.61	802.80
383.80	713.86
384.00	741.95
384.19	683.44
384.39	800.46
384.58	807.48
384.78	816.85
384.97	760.67
385.17	746.63
385.36	835.57
385.56	849.61
385.75	873.02
385.95	814.51
386.14	884.72
386.34	849.61
386.53	706.84
386.72	880.04
386.92	821.53
387.11	926.85
387.31	830.89
387.50	854.30
387.70	833.23
387.89	903.45
388.09	847.27
388.28	929.19
388.48	898.77
388.67	924.51
388.86	966.64
389.06	1004.09
389.25	1029.84
389.45	924.51
389.64	1018.13
389.84	966.64
390.03	1062.60
390.22	1001.75
390.42	1025.15
390.61	961.96
390.81	1020.47
391.00	1067.28
391.19	1095.37
391.39	994.73
391.58	1083.67
391.78	1081.33
391.97	1167.93
392.16	940.90
392.36	1025.15
392.55	1029.84
392.75	1088.35
392.94	1032.18
393.13	1060.26
393.33	1032.18
393.52	1060.26
393.71	1163.25
393.91	1149.20
394.10	1114.10
394.29	1165.59
394.49	1125.80
394.68	1228.78
394.88	1249.85
395.07	1217.08
395.26	1132.82
395.46	1301.34
395.65	1355.17
395.84	1170.27
396.04	1203.04
396.23	1135.16
396.42	1207.72
396.62	1151.54
396.81	1118.78
397.00	1245.16
397.19	1268.57
397.39	1217.08
397.58	1366.87
397.77	1383.26
397.97	1390.28
398.16	1425.39
398.35	1460.49
398.55	1460.49
398.74	1465.18
398.93	1561.14
399.12	1523.69
399.32	1481.56
399.51	1497.94
399.70	1575.18
399.90	1589.22
400.09	1598.59
400.28	1614.97
400.47	1603.27
400.67	1645.40
400.86	1544.75
401.05	1650.08
401.24	1781.15
401.44	1703.91
401.63	1736.68
401.82	1769.44
402.01	1692.21
402.21	1778.81
402.40	1757.74
402.59	1785.83
402.78	1661.78
402.97	1825.62
403.17	1732.00
403.36	1872.43
403.55	1893.49
403.74	1870.09
403.93	1891.15
404.13	2029.24
404.32	1933.28
404.51	1966.05
404.70	1977.75
404.89	1820.94
405.09	2026.90
405.28	1930.94
405.47	1970.73
405.66	1860.73
405.85	2024.56
406.05	1987.11
406.24	1933.28
406.43	2080.74
406.62	2118.18
406.81	2099.46
407.00	2031.58
407.20	2050.31
407.39	2153.29
407.58	2242.23
407.77	2209.47
407.96	2204.78
408.15	2167.34
408.34	2195.42
408.54	2298.41
408.73	2307.77
408.92	2328.83
409.11	2291.38
409.30	2258.62
409.49	2340.54
409.68	2258.62
409.87	2319.47
410.07	2429.48
410.26	2394.37
410.45	2401.39
410.64	2555.86
410.83	2457.56
411.02	2532.46
411.21	2600.34
411.40	2595.65
411.59	2609.70
411.78	2637.78
411.98	2663.53
412.17	2700.98
412.36	2663.53
412.55	2708.00
412.74	2874.18
412.93	2768.85
413.12	2843.75
413.31	2775.88
413.50	2885.88
413.69	2827.37
413.88	2897.58
414.07	2920.99
414.26	3094.19
414.45	2977.16
414.64	2944.39
414.83	2972.48
415.02	2984.18
415.22	3021.63
415.41	3197.17
415.60	3103.55
415.79	3213.56
415.98	3248.66
416.17	3279.09
416.36	3183.13
416.55	3386.76
416.74	3227.60
416.93	3213.56
417.12	3274.41
417.31	3386.76
417.50	3410.16
417.69	3358.67
417.88	3517.83
418.07	3515.48
418.26	3506.12
418.45	3581.02
418.64	3536.55
418.83	3679.32
419.02	3494.42
419.21	3730.81
419.39	3595.06
419.58	3634.85
419.77	3543.57
419.96	3733.15
420.15	3684.00
420.34	3620.81
420.53	3829.12
420.72	3847.84
420.91	3817.41
421.10	3911.04
421.29	3810.39
421.48	3716.77
421.67	4007.00
421.86	3805.71
422.05	3866.56
422.24	3817.41
422.43	3824.44
422.61	3908.69
422.80	3852.52
422.99	3974.23
423.18	3840.82
423.37	4046.79
423.56	3845.50
423.75	3969.55
423.94	3983.59
424.13	3674.64
424.32	3854.86
424.50	4107.64
424.69	4079.55
424.88	4114.66
425.07	4016.36
425.26	3854.86
425.45	3925.08
425.64	3960.19
425.83	3990.61
426.01	4070.19
426.20	4016.36
426.39	3988.27
426.58	3976.57
426.77	3999.98
426.96	4025.72
427.15	3939.12
427.33	3978.91
427.52	4194.24
427.71	4126.36
427.90	4124.02
428.09	4299.56
428.28	4166.15
428.46	4306.59
428.65	4182.54
428.84	4238.71
429.03	4259.78
429.22	4095.94
429.40	4208.28
429.59	4210.62
429.78	3999.98
429.97	3906.35
430.16	4011.68
430.34	4105.30
430.53	4234.03
430.72	4203.60
430.91	4308.93
431.10	4273.82
431.28	4613.20
431.47	4678.73
431.66	4805.12
431.85	4704.48
432.03	4585.11
432.22	4564.04
432.41	4575.75
432.60	4793.42
432.79	4648.30
432.97	4676.39
433.16	4564.04
433.35	4652.98
433.54	4760.65
433.72	4596.81
433.91	4713.84
434.10	4875.34
434.28	4760.65
434.47	4887.04
434.66	5029.81
434.85	5004.07
435.03	5078.96
435.22	5046.20
435.41	5203.01
435.59	5137.48
435.78	5165.56
435.97	5188.97
436.16	5151.52
436.34	5006.41
436.53	5165.56
436.72	5294.29
436.90	5104.71
437.09	5291.95
437.28	5135.14
437.46	5252.16
437.65	5303.65
437.84	5366.85
438.02	5280.25
438.21	5188.97
438.40	5284.93
438.58	5563.45
438.77	5455.79
438.96	5425.36
439.14	5493.24
439.33	5523.66
439.52	5696.86
439.70	5650.05
439.89	5961.34
440.08	5678.14
440.26	5877.09
440.45	5818.57
440.63	6019.86
440.82	6024.54
441.01	6012.84
441.19	6186.04
441.38	6171.99
441.57	6188.38
441.75	6274.98
441.94	6312.42
442.12	6274.98
442.31	6544.14
442.50	6361.58
442.68	6422.43
442.87	6232.85
443.05	6193.06
443.24	6389.66
443.43	6506.69
443.61	6612.01
443.80	6792.23
443.98	6387.32
444.17	6296.04
444.35	6600.31
444.54	6647.12
444.73	6614.35
444.91	6520.73
445.10	6637.76
445.28	6523.07
445.47	6574.56
445.65	6300.72
445.84	6490.31
446.02	6565.20
446.21	6499.67
446.39	6518.39
446.58	6492.65
446.77	6626.06
446.95	6703.29
447.14	6738.40
447.32	6750.10
447.51	6759.47
447.69	6731.38
447.88	6684.57
448.06	6780.53
448.25	6729.04
448.43	6707.98
448.62	6764.15
448.80	6640.10
448.99	6857.77
449.17	6958.41
449.36	6841.39
449.54	6986.50
449.73	7047.35
449.91	7157.36
450.10	7159.70
450.28	7241.62
450.46	7250.98
450.65	7234.60
450.83	7258.00
451.02	7131.61
451.20	7351.62
451.39	7183.10
451.57	7250.98
451.76	7300.13
451.94	7375.03
452.13	7192.47
452.31	7260.34
452.49	7068.42
452.68	7236.94
452.86	7222.89
453.05	7391.41
453.23	7440.56
453.42	7274.38
453.60	7403.11
453.78	7407.80
453.97	7375.03
454.15	7384.39
454.34	7496.74
454.52	7545.89
454.70	7550.57
454.89	7541.21
455.07	7669.94
455.26	7630.15
455.44	7698.02
455.62	7707.38
455.81	7854.84
455.99	7885.26
456.17	7899.31
456.36	7829.09
456.54	7744.83
456.73	8128.68
456.91	8290.18
457.09	8168.47
457.28	8344.01
457.46	8084.21
457.64	8397.84
457.83	8226.98
458.01	8173.15
458.19	8365.07
458.38	8128.68
458.56	8276.13
458.74	8318.26
458.93	8224.64
459.11	8355.71
459.29	8568.70
459.48	8397.84
459.66	8322.94
459.84	8362.73
460.03	8503.17
460.21	8430.61
460.39	8557.00
460.57	8517.21
460.76	8617.85
460.94	8788.71
461.12	8521.89
461.31	8716.16
461.49	8681.05
461.67	8582.74
461.85	8777.01
462.04	8952.55
462.22	9315.33
462.40	8959.57
462.59	8912.76
462.77	8861.27
462.95	9043.83
463.13	9104.68
463.32	9097.66
463.50	9102.34
463.68	9135.11
463.86	9104.68
464.05	8952.55
464.23	8805.10
464.41	9036.81
464.59	8807.44
464.78	9245.12
464.96	9324.69
465.14	9212.35
465.32	9317.67
465.50	9144.47
465.69	9362.14
465.87	9151.49
466.05	9282.56
466.23	9366.82
466.41	9214.69
466.60	9423.00
466.78	9385.55
466.96	9315.33
467.14	9474.49
467.32	9511.94
467.51	9584.49
467.69	9202.99
467.87	9423.00
468.05	9745.99
468.23	9600.88
468.41	9511.94
468.60	9437.04
468.78	9614.92
468.96	9619.60
469.14	9827.91
469.32	9785.78
469.50	9540.02
469.69	9802.16
469.87	10029.20
470.05	9940.26
470.23	9846.63
470.41	9909.83
470.59	9961.32
470.77	9806.84
470.95	9891.10
471.14	10298.36
471.32	10078.35
471.50	10478.58
471.68	10305.38
471.86	10370.91
472.04	10384.96
472.22	10555.82
472.40	10399.00
472.58	10520.71
472.77	10532.41
472.95	10654.12
473.13	10686.89
473.31	10497.30
473.49	10537.09
473.67	10443.47
473.85	10834.34
474.03	11000.52
474.21	11033.29
474.39	11066.05
474.57	11026.26
474.75	11159.67
474.93	11461.60
475.12	11005.20
475.30	11269.68
475.48	11332.87
475.66	11262.66
475.84	11489.69
476.02	11543.52
476.20	11508.41
476.38	11770.55
476.56	11903.96
476.74	11843.11
476.92	11824.39
477.10	11733.11
477.28	11981.20
477.46	12058.44
477.64	12201.21
477.82	12606.13
478.00	12723.15
478.18	12571.02
478.36	12671.66
478.54	12886.99
478.72	12915.08
478.90	12954.87
479.08	13144.45
479.26	13242.75
479.44	13298.92
479.62	13341.05
479.80	13282.54
479.98	13944.91
480.16	13771.71
480.34	13547.02
480.52	13729.58
480.70	14071.30
480.88	13631.28
481.06	13942.57
481.24	14249.18
481.41	14256.20
481.59	14633.03
481.77	14551.11
481.95	14483.24
482.13	14689.20
482.31	14427.06
482.49	14932.62
482.67	15040.28
482.85	14892.83
483.03	15169.01
483.21	15585.63
483.39	15541.16
483.57	15351.57
483.74	15559.88
483.92	15960.11
484.10	15742.44
484.28	16147.36
484.46	16105.23
484.64	16294.81
484.82	16374.39
485.00	16266.72
485.18	16676.32
485.35	16713.77
485.53	16264.38
485.71	16130.97
485.89	16332.26
486.07	16528.86
486.25	16858.88
486.43	16615.46
486.61	17193.58
486.78	17305.92
486.96	17593.81
487.14	17741.26
487.32	17781.05
487.50	18059.57
487.68	18380.23
487.85	18209.37
488.03	18834.29
488.21	18527.68
488.39	18630.66
488.57	18539.38
488.75	18785.14
488.92	19021.53
489.10	19639.44
489.28	19552.84
489.46	19873.49
489.64	19854.76
489.81	20123.93
489.99	20224.57
490.17	20379.04
490.35	20568.63
490.53	20353.30
490.70	20753.53
490.88	20563.95
491.06	20805.02
491.24	20814.38
491.41	20961.84
491.59	21008.65
491.77	21076.52
491.95	21364.41
492.13	21371.43
492.30	21788.05
492.48	21703.79
492.66	22057.21
492.84	21954.22
493.01	22157.85
493.19	22305.31
493.37	22541.70
493.54	22593.19
493.72	22735.96
493.90	22705.54
494.08	23037.89
494.25	22895.12
494.43	23461.53
494.61	23756.44
494.79	23454.51
494.96	23342.16
495.14	23370.25
495.32	23871.12
495.49	24013.90
495.67	24065.39
495.85	23957.72
496.02	24297.10
496.20	24383.70
496.38	24269.01
496.55	24538.18
496.73	25013.31
496.91	24917.34
497.09	24875.21
497.26	25411.20
497.44	25261.40
497.62	25535.24
497.79	25455.67
497.97	25088.20
498.14	25647.59
498.32	25563.33
498.50	25762.28
498.67	26256.13
498.85	25986.97
499.03	26675.09
499.20	26529.97
499.38	26426.99
499.56	26452.73
499.73	26424.65
499.91	26888.07
500.08	26410.60
500.26	26672.74
500.44	26780.41
500.61	26885.73
500.79	26806.16
500.97	26916.16
501.14	27157.24
501.32	27220.43
501.49	26962.97
501.67	27337.46
501.84	27468.53
502.02	27405.33
502.20	27929.61
502.37	28095.79
502.55	27538.74
502.72	28002.17
502.90	28355.59
503.07	28060.68
503.25	28285.37
503.43	28173.03
503.60	28357.93
503.78	28531.13
503.95	28154.30
504.13	28732.42
504.30	28666.88
504.48	28868.17
504.65	28994.56
504.83	29312.87
505.01	29497.77
505.18	29212.23
505.36	29338.62
505.53	29483.73
505.71	29902.68
505.88	29647.57
506.06	29371.38
506.23	29577.35
506.41	29776.30
506.58	30176.53
506.76	30139.08
506.93	30136.74
507.11	30094.61
507.28	30012.69
507.46	29958.86
507.63	30099.29
507.81	30824.86
507.98	30471.43
508.16	30464.41
508.33	31019.12
508.50	30918.48
508.68	30981.67
508.85	31393.61
509.03	30892.73
509.20	31470.84
509.38	31091.68
509.55	31660.43
509.73	31175.94
509.90	31606.59
510.08	31173.60
510.25	31592.55
510.42	31798.52
510.60	31463.82
510.77	32002.14
510.95	32081.72
511.12	32297.05
511.30	32446.85
511.47	32488.98
511.64	32584.94
511.82	32615.37
511.99	32261.94
512.17	32390.67
512.34	32266.63
512.51	33006.23
512.69	33099.86
512.86	32924.32
513.04	33275.40
513.21	32648.13
513.38	33163.05
513.56	33029.64
513.73	32957.08
513.90	33179.43
514.08	33387.74
514.25	33502.43
514.43	33125.60
514.60	33614.77
514.77	33820.74
514.95	33689.67
515.12	33614.77
515.29	33874.57
515.47	34373.11
515.64	34211.61
515.81	33818.40
515.99	33614.77
516.16	33876.91
516.33	33628.82
516.51	33874.57
516.68	33362.00
516.85	33287.10
517.03	33839.47
517.20	34134.37
517.37	34398.85
517.54	34745.25
517.72	34471.41
517.89	34010.32
518.06	34429.28
518.24	34134.37
518.41	34499.50
518.58	34768.66
518.75	34504.18
518.93	35051.86
519.10	34714.83
519.27	35342.09
519.45	34955.90
519.62	35489.54
519.79	35637.00
519.96	35707.21
520.14	35538.69
520.31	35239.11
520.48	35927.22
520.65	35545.72
520.83	36051.27
521.00	36091.06
521.17	36175.32
521.34	35747.00
521.52	36650.45
521.69	36488.95
521.86	36584.91
522.03	36507.68
522.20	36556.83
522.38	36158.94
522.55	36392.99
522.72	36526.40
522.89	36453.84
523.07	37247.29
523.24	36353.20
523.41	37141.96
523.58	36889.18
523.75	37670.92
523.92	37474.32
524.10	36959.40
524.27	37415.80
524.44	37329.20
524.61	37408.78
524.78	37813.70
524.96	38036.05
525.13	37420.48
525.30	37954.13
525.47	38232.65
525.64	37930.72
525.81	37837.10
525.98	37659.22
526.16	37298.78
526.33	37654.54
526.50	37982.21
526.67	37315.16
526.84	37663.90
527.01	37654.54
527.18	38108.60
527.36	38038.39
527.53	38178.82
527.70	38663.31
527.87	38803.74
528.04	38438.62
528.21	38490.11
528.38	38455.00
528.55	39431.01
528.72	38778.00
528.89	39583.14
529.07	38965.24
529.24	39042.48
529.41	38958.22
529.58	39112.69
529.75	39131.42
529.92	39342.06
530.09	39246.10
530.26	39292.91
530.43	39313.98
530.60	39147.80
530.77	39189.93
530.94	39775.06
531.11	39236.74
531.28	39931.88
531.46	39751.66
531.63	39807.83
531.80	39299.94
531.97	40006.78
532.14	39431.01
532.31	39775.06
532.48	39442.71
532.65	40074.65
532.82	39306.96
532.99	39569.10
533.16	40229.13
533.33	40261.90
533.50	40210.40
533.67	40191.68
533.84	39983.37
534.01	40161.25
534.18	40048.91
534.35	41053.00
534.52	40456.16
534.69	40582.55
534.86	40484.25
535.03	40392.97
535.20	40863.41
535.37	41120.87
535.54	41333.86
535.71	40931.29
535.88	41146.62
536.05	40818.94
536.22	41062.36
536.38	41027.25
536.55	41038.95
536.72	40985.12
536.89	40821.28
537.06	41167.68
537.23	41287.05
537.40	41202.79
537.57	41242.58
537.74	41350.24
537.91	41837.08
538.08	41186.41
538.25	40957.03
538.42	41439.18
538.59	41406.42
538.75	41549.19
538.92	41139.60
539.09	41762.18
539.26	41872.18
539.43	41729.41
539.60	41766.86
539.77	41619.41
539.94	41516.42
540.11	41460.25
540.28	41916.65
540.44	41750.48
540.61	41930.70
540.78	41312.80
540.95	41364.29
541.12	41853.46
541.29	41504.72
541.46	41914.31
541.62	42124.96
541.79	42127.30
541.96	41729.41
542.13	41797.29
542.30	42117.94
542.47	42445.62
542.63	42085.17
542.80	42351.99
542.97	42934.79
543.14	42667.97
543.31	42969.90
543.48	42754.57
543.64	42876.27
543.81	42934.79
543.98	43014.37
544.15	42735.84
544.32	43276.51
544.48	43320.98
544.65	43356.08
544.82	43597.16
544.99	42880.95
545.16	43058.84
545.32	42892.66
545.49	43391.19
545.66	43690.78
545.83	43587.80
546.00	43318.64
546.16	43049.47
546.33	43028.41
546.50	43295.23
546.67	43365.45
546.83	43243.74
547.00	43318.64
547.17	43040.11
547.34	43487.15
547.50	43538.65
547.67	43753.97
547.84	43330.34
548.00	43629.93
548.17	44091.01
548.34	43580.78
548.51	44179.95
548.67	43791.42
548.84	44392.94
549.01	43753.97
549.18	43927.17
549.34	44102.71
549.51	44289.96
549.68	43838.23
549.84	44205.70
550.01	43941.22
550.18	44051.22
550.34	44367.20
550.51	43894.41
550.68	44516.99
550.84	43538.65
551.01	43920.15
551.18	44147.18
551.34	44411.67
551.51	44882.11
551.68	44570.82
551.84	44547.42
552.01	44392.94
552.18	44587.21
552.34	44137.82
552.51	44191.65
552.68	44748.70
552.84	44549.76
553.01	44825.94
553.18	44570.82
553.34	44685.51
553.51	44493.58
553.67	44793.17
553.84	45123.19
554.01	44800.19
554.17	45113.83
554.34	44949.99
554.51	44996.80
554.67	44889.13
554.84	44533.37
555.00	44718.28
555.17	45109.14
555.33	45020.20
555.50	45205.11
555.67	44933.60
555.83	44872.75
556.00	44509.97
556.16	44760.40
556.33	44870.41
556.50	44877.43
556.66	45209.79
556.83	44989.78
556.99	45289.37
557.16	44886.79
557.32	45160.64
557.49	45359.58
557.65	44676.15
557.82	45244.90
557.98	45064.67
558.15	45617.04
558.32	45675.55
558.48	45144.25
558.65	45109.14
558.81	44886.79
558.98	45265.96
559.14	45034.25
559.31	45272.98
559.47	45844.07
559.64	45464.91
559.80	45270.64
559.97	45441.50
560.13	45392.35
560.30	45158.30
560.46	45441.50
560.63	45659.17
560.79	45942.38
560.96	45666.19
561.12	45663.85
561.29	45507.04
561.45	45443.84
561.61	45375.97
561.78	45682.58
561.94	44856.37
562.11	45291.71
562.27	45485.97
562.44	45614.70
562.60	45989.19
562.77	45820.67
562.93	46012.59
563.10	45727.05
563.26	45783.22
563.42	45600.66
563.59	45331.50
563.75	45378.31
563.92	46061.74
564.08	45916.63
564.24	45837.05
564.41	45815.99
564.57	45652.15
564.74	45500.01
564.90	45982.16
565.07	45682.58
565.23	45640.45
565.39	45647.47
565.56	45773.86
565.72	45425.12
565.88	45881.52
566.05	45764.49
566.21	45736.41
566.38	45588.95
566.54	46071.10
566.70	46169.41
566.87	46344.95
567.03	46000.89
567.19	46391.76
567.36	46075.79
567.52	45811.31
567.68	46010.25
567.85	45745.77
568.01	46089.83
568.17	45818.33
568.34	46127.28
568.50	46066.42
568.66	46174.09
568.83	46012.59
568.99	45986.85
569.15	45855.78
569.32	45741.09
569.48	45759.81
569.64	46122.60
569.81	45804.28
569.97	45776.20
570.13	45701.30
570.30	45839.39
570.46	45918.97
570.62	45467.25
570.78	45696.62
570.95	45771.52
571.11	45750.45
571.27	45825.35
571.43	45689.60
571.60	46141.32
571.76	45928.33
571.92	46089.83
572.09	46410.48
572.25	46054.72
572.41	46153.02
572.57	46316.86
572.74	46534.53
572.90	46148.34
573.06	46532.19
573.22	46377.72
573.38	46382.40
573.55	45911.95
573.71	46230.26
573.87	46440.91
574.03	45991.53
574.20	46265.37
574.36	45734.07
574.52	46424.53
574.68	45975.14
574.84	46000.89
575.01	46099.19
575.17	46150.68
575.33	46094.51
575.49	46150.68
575.65	46246.65
575.82	46492.40
575.98	46143.66
576.14	46307.50
576.30	46382.40
576.46	46012.59
576.62	46230.26
576.79	46073.45
576.95	46085.15
577.11	46487.72
577.27	46417.50
577.43	46178.77
577.59	46153.02
577.75	46061.74
577.92	45612.36
578.08	45734.07
578.24	46026.63
578.40	45710.66
578.56	46162.39
578.72	46234.94
578.88	46167.07
579.04	46291.12
579.21	46012.59
579.37	46284.09
579.53	46382.40
579.69	46036.00
579.85	46267.71
580.01	46291.12
580.17	46401.12
580.33	46162.39
580.49	46253.67
580.65	46361.33
580.82	46176.43
580.98	45954.08
581.14	46244.30
581.30	46291.12
581.46	46340.27
581.62	46260.69
581.78	46464.32
581.94	46197.49
582.10	46204.52
582.26	46717.09
582.42	46298.14
582.58	46263.03
582.74	46110.89
582.90	46607.09
583.06	46571.98
583.22	46532.19
583.38	46696.03
583.54	46520.49
583.70	46417.50
583.86	46206.86
584.02	46351.97
584.18	46703.05
584.34	46251.33
584.50	46501.76
584.66	46031.32
584.82	46087.49
584.98	46312.18
585.14	45958.76
585.30	45965.78
585.46	46202.18
585.62	45986.85
585.78	46440.91
585.94	45837.05
586.10	46167.07
586.26	45909.61
586.42	46782.63
586.58	46459.63
586.74	46756.88
586.90	46045.36
587.06	46136.64
587.22	46443.25
587.38	46375.37
587.54	46316.86
587.70	46534.53
587.86	46000.89
588.02	46281.75
588.18	46564.96
588.34	45762.15
588.49	45907.27
588.65	45574.91
588.81	46082.81
588.97	45876.84
589.13	45764.49
589.29	45933.01
589.45	45717.68
589.61	46436.23
589.77	46216.22
589.93	46644.54
