SpectraSuite Data File
++++++++++++++++++++++++++++++++++++
Date: Fri Oct 25 11:26:20 EDT 2013
User: price-jones
Dark Spectrum Present: No
Reference Spectrum Present: No
Number of Sampled Component Spectra: 1
Spectrometers: USB2+H05261
Integration Time (usec): 100000 (USB2+H05261)
Spectra Averaged: 1 (USB2+H05261)
Boxcar Smoothing: 0 (USB2+H05261)
Correct for Electrical Dark: No (USB2+H05261)
Strobe/Lamp Enabled: No (USB2+H05261)
Correct for Detector Non-linearity: No (USB2+H05261)
Correct for Stray Light: No (USB2+H05261)
Number of Pixels in Processed Spectrum: 2048
>>>>>Begin Processed Spectral Data<<<<<
365.73	273.84
365.92	273.84
366.12	273.84
366.32	182.56
366.52	135.75
366.72	117.03
366.91	177.88
367.11	142.77
367.31	88.94
367.51	128.73
367.70	161.50
367.90	210.65
368.10	63.19
368.30	161.50
368.49	74.90
368.69	166.18
368.89	182.56
369.09	152.13
369.28	145.11
369.48	205.97
369.68	229.37
369.87	252.78
370.07	220.01
370.27	283.20
370.47	404.91
370.66	580.45
370.86	688.12
371.06	645.99
371.25	774.72
371.45	681.10
371.65	713.86
371.84	746.63
372.04	704.50
372.24	720.88
372.44	678.76
372.63	763.01
372.83	716.20
373.03	798.12
373.22	777.06
373.42	777.06
373.62	805.14
373.81	866.00
374.01	760.67
374.21	798.12
374.40	704.50
374.60	849.61
374.79	802.80
374.99	793.44
375.19	826.21
375.38	835.57
375.58	863.66
375.78	856.64
375.97	837.91
376.17	924.51
376.37	891.74
376.56	819.19
376.76	849.61
376.95	821.53
377.15	826.21
377.35	866.00
377.54	922.17
377.74	922.17
377.93	882.38
378.13	950.26
378.33	1025.15
378.52	978.34
378.72	954.94
378.91	952.60
379.11	992.39
379.31	884.72
379.50	866.00
379.70	910.47
379.89	992.39
380.09	929.19
380.28	938.55
380.48	1025.15
380.68	1053.24
380.87	1032.18
381.07	1027.50
381.26	1097.71
381.46	1015.79
381.65	1004.09
381.85	1055.58
382.04	964.30
382.24	1057.92
382.43	1050.90
382.63	999.41
382.83	1081.33
383.02	1111.75
383.22	1174.95
383.41	1116.44
383.61	1090.69
383.80	1142.18
384.00	1086.01
384.19	1116.44
384.39	1025.15
384.58	1181.97
384.78	1088.35
384.97	1191.33
385.17	1226.44
385.36	1118.78
385.56	1177.29
385.75	1151.54
385.95	1228.78
386.14	1268.57
386.34	1238.14
386.53	1291.98
386.72	1261.55
386.92	1362.19
387.11	1186.65
387.31	1170.27
387.50	1158.57
387.70	1299.00
387.89	1203.04
388.09	1345.81
388.28	1231.12
388.48	1247.51
388.67	1275.59
388.86	1362.19
389.06	1338.79
389.25	1273.25
389.45	1284.95
389.64	1366.87
389.84	1404.32
390.03	1336.45
390.22	1329.42
390.42	1376.24
390.61	1378.58
390.81	1355.17
391.00	1437.09
391.19	1425.39
391.39	1406.66
391.58	1448.79
391.78	1519.01
391.97	1434.75
392.16	1453.47
392.36	1565.82
392.55	1502.62
392.75	1497.94
392.94	1565.82
393.13	1612.63
393.33	1535.39
393.52	1554.12
393.71	1636.03
393.91	1507.30
394.10	1563.48
394.29	1678.16
394.49	1619.65
394.68	1547.09
394.88	1579.86
395.07	1654.76
395.26	1755.40
395.46	1746.04
395.65	1687.53
395.84	1755.40
396.04	1846.68
396.23	1764.76
396.42	1757.74
396.62	1771.79
396.81	1764.76
397.00	1846.68
397.19	1783.49
397.39	1708.59
397.58	1760.08
397.77	1923.92
397.97	1893.49
398.16	1844.34
398.35	1851.36
398.55	1877.11
398.74	1886.47
398.93	1947.33
399.12	1935.62
399.32	1888.81
399.51	1846.68
399.70	2066.69
399.90	1914.56
400.09	1942.64
400.28	1998.82
400.47	1959.03
400.67	2066.69
400.86	2064.35
401.05	1975.41
401.24	2040.95
401.44	1996.48
401.63	2139.25
401.82	2118.18
402.01	2125.21
402.21	2094.78
402.40	2127.55
402.59	2162.66
402.78	2113.50
402.97	2197.76
403.17	2162.66
403.36	2214.15
403.55	2200.10
403.74	2387.35
403.93	2448.20
404.13	2401.39
404.32	2359.26
404.51	2314.79
404.70	2473.95
404.89	2303.09
405.09	2490.33
405.28	2443.52
405.47	2431.82
405.66	2537.14
405.85	2492.67
406.05	2523.10
406.24	2541.82
406.43	2597.99
406.62	2726.72
406.81	2581.61
407.00	2675.23
407.20	2605.02
407.39	2546.50
407.58	2738.43
407.77	2705.66
407.96	2773.53
408.15	2878.86
408.34	2623.74
408.54	2675.23
408.73	2731.41
408.92	2836.73
409.11	2803.96
409.30	2764.17
409.49	2850.77
409.68	2974.82
409.87	2913.97
410.07	2874.18
410.26	2984.18
410.45	2965.46
410.64	3101.21
410.83	3009.93
411.02	3119.93
411.21	3295.47
411.40	3075.46
411.59	3129.30
411.78	3293.13
411.98	3047.38
412.17	3288.45
412.36	3328.24
412.55	3269.73
412.74	3304.84
412.93	3375.05
413.12	3471.01
413.31	3379.73
413.50	3442.93
413.69	3590.38
413.88	3552.93
414.07	3478.04
414.26	3630.17
414.45	3625.49
414.64	3625.49
414.83	3693.37
415.02	3808.05
415.22	3726.13
415.41	3756.56
415.60	3686.34
415.79	3634.85
415.98	3880.61
416.17	4018.70
416.36	3763.58
416.55	3990.61
416.74	4044.45
416.93	3894.65
417.12	4074.87
417.31	4173.18
417.50	4177.86
417.69	4229.35
417.88	4241.05
418.07	4341.69
418.26	4187.22
418.45	4236.37
418.64	4346.37
418.83	4402.55
419.02	4341.69
419.21	4456.38
419.39	4542.98
419.58	4449.36
419.77	4348.72
419.96	4510.21
420.15	4414.25
420.34	4465.74
420.53	4662.35
420.72	4613.20
420.91	4578.09
421.10	4791.08
421.29	4739.58
421.48	4617.88
421.67	4718.52
421.86	4807.46
422.05	4793.42
422.24	4688.09
422.43	4760.65
422.61	4915.12
422.80	4681.07
422.99	4985.34
423.18	5060.24
423.37	4814.48
423.56	4894.06
423.75	4851.93
423.94	4753.63
424.13	4491.49
424.32	4765.33
424.50	5013.43
424.69	5128.11
424.88	4997.04
425.07	5041.51
425.26	4720.86
425.45	4987.68
425.64	4971.30
425.83	5041.51
426.01	5062.58
426.20	5053.22
426.39	5027.47
426.58	5064.92
426.77	5015.77
426.96	5062.58
427.15	5060.24
427.33	5298.97
427.52	5095.35
427.71	5308.34
427.90	5153.86
428.09	5310.68
428.28	5364.51
428.46	5212.37
428.65	5125.77
428.84	5619.63
429.03	5345.78
429.22	5245.14
429.40	5294.29
429.59	5542.39
429.78	5205.35
429.97	5291.95
430.16	5371.53
430.34	5600.90
430.53	5603.24
430.72	5554.09
430.91	5736.65
431.10	5495.58
431.28	5703.89
431.47	5631.33
431.66	5755.38
431.85	5666.44
432.03	5991.77
432.22	5884.11
432.41	5886.45
432.60	5774.10
432.79	5996.45
432.97	5956.66
433.16	5825.59
433.35	5949.64
433.54	6001.13
433.72	6106.46
433.91	5959.00
434.10	6097.10
434.28	5991.77
434.47	6181.35
434.66	6253.91
434.85	6005.81
435.03	6298.38
435.22	6193.06
435.41	6511.37
435.59	6434.13
435.78	6361.58
435.97	6478.60
436.16	6434.13
436.34	6338.17
436.53	6434.13
436.72	6623.72
436.90	6321.79
437.09	6553.50
437.28	6504.35
437.46	6654.14
437.65	6616.69
437.84	6689.25
438.02	6651.80
438.21	6710.32
438.40	6623.72
438.58	6918.62
438.77	6738.40
438.96	6806.28
439.14	7028.63
439.33	7190.13
439.52	7155.02
439.70	7162.04
439.89	7250.98
440.08	7101.19
440.26	7365.67
440.45	7262.68
440.63	7405.46
440.82	7564.61
441.01	7541.21
441.19	7391.41
441.38	7662.91
441.57	7641.85
441.75	7653.55
441.94	7751.85
442.12	7751.85
442.31	8065.49
442.50	7822.07
442.68	7894.63
442.87	7920.37
443.05	8109.96
443.24	7969.52
443.43	7969.52
443.61	8198.90
443.80	8379.12
443.98	7880.58
444.17	7824.41
444.35	8170.81
444.54	8152.09
444.73	8243.37
444.91	8187.19
445.10	8161.45
445.28	8379.12
445.47	8119.32
445.65	8416.57
445.84	8358.05
446.02	8435.29
446.21	8423.59
446.39	8315.92
446.58	8414.23
446.77	8407.20
446.95	8107.62
447.14	8395.50
447.32	8411.89
447.51	8189.53
447.69	8409.54
447.88	8484.44
448.06	8418.91
448.25	8346.35
448.43	8388.48
448.62	8578.06
448.80	8416.57
448.99	8549.98
449.17	8732.54
449.36	8580.40
449.54	8863.61
449.73	8971.27
449.91	8912.76
450.10	8716.16
450.28	8990.00
450.46	8861.27
450.65	8926.80
450.83	8849.57
451.02	8966.59
451.20	9130.43
451.39	8975.95
451.57	9123.41
451.76	8854.25
451.94	8938.51
452.13	9336.40
452.31	9104.68
452.49	9121.07
452.68	9387.89
452.86	9277.88
453.05	9263.84
453.23	9228.73
453.42	9298.95
453.60	9231.07
453.78	9469.81
453.97	9275.54
454.15	9439.38
454.34	9294.27
454.52	9633.64
454.70	9575.13
454.89	9558.75
455.07	9856.00
455.26	9961.32
455.44	9738.97
455.62	9643.01
455.81	9783.44
455.99	9867.70
456.17	10064.30
456.36	9963.66
456.54	10209.42
456.73	10181.33
456.91	10490.28
457.09	10387.30
457.28	10604.97
457.46	10214.10
457.64	10391.98
457.83	10417.72
458.01	10293.68
458.19	10621.35
458.38	10562.84
458.56	10558.16
458.74	10773.49
458.93	10443.47
459.11	10642.42
459.29	10581.56
459.48	10604.97
459.66	10665.82
459.84	10794.55
460.03	10906.90
460.21	10972.43
460.39	10616.67
460.57	11037.97
460.76	11098.82
460.94	11061.37
461.12	11440.54
461.31	11138.61
461.49	11138.61
461.67	11052.01
461.85	11183.08
462.04	11218.19
462.22	11662.89
462.40	11180.74
462.59	11314.15
462.77	11225.21
462.95	11679.27
463.13	11463.94
463.32	11627.78
463.50	11611.40
463.68	11669.91
463.86	11632.46
464.05	11513.10
464.23	11447.56
464.41	11857.15
464.59	11501.39
464.78	12105.25
464.96	11901.62
465.14	11618.42
465.32	11768.21
465.50	11964.82
465.69	11918.01
465.87	11812.68
466.05	11906.31
466.23	11882.90
466.41	12219.94
466.60	12306.54
466.78	12250.36
466.96	12397.82
467.14	12002.27
467.32	12339.30
467.51	12390.80
467.69	11955.46
467.87	12212.92
468.05	12416.54
468.23	12400.16
468.41	12297.17
468.60	12477.40
468.78	12540.59
468.96	12418.88
469.14	12711.45
469.32	12784.01
469.50	12601.44
469.69	12915.08
469.87	13125.72
470.05	12800.39
470.23	12865.92
470.41	12931.46
470.59	13088.28
470.77	13083.59
470.95	12985.29
471.14	13298.92
471.32	12795.71
471.50	13294.24
471.68	13427.65
471.86	13633.62
472.04	13558.72
472.22	13823.20
472.40	13451.06
472.58	13638.30
472.77	13813.84
472.95	13858.31
473.13	14555.79
473.31	13774.05
473.49	14162.58
473.67	14017.47
473.85	14207.05
474.03	14717.29
474.21	14466.85
474.39	14595.58
474.57	14824.95
474.75	14719.63
474.93	14839.00
475.12	14443.45
475.30	15066.03
475.48	15044.96
475.66	14944.32
475.84	14829.63
476.02	15218.16
476.20	14956.02
476.38	15644.14
476.56	15681.59
476.74	15889.90
476.92	15939.05
477.10	15569.24
477.28	16013.95
477.46	15983.52
477.64	16320.56
477.82	16421.20
478.00	16889.31
478.18	16512.48
478.36	16793.34
478.54	16922.07
478.72	16924.41
478.90	17231.02
479.08	17366.78
479.26	17661.68
479.44	17750.62
479.62	17671.04
479.80	17795.09
479.98	18129.79
480.16	18230.43
480.34	18183.62
480.52	18534.70
480.70	18347.46
480.88	18246.82
481.06	18546.40
481.24	18665.77
481.41	18675.13
481.59	19419.42
481.77	19473.26
481.95	19126.86
482.13	19721.35
482.31	19662.84
482.49	19908.60
482.67	19941.36
482.85	20332.23
483.03	20451.60
483.21	20547.56
483.39	20812.04
483.57	20568.63
483.74	20807.36
483.92	21198.23
484.10	21170.15
484.28	21553.99
484.46	21717.83
484.64	22054.87
484.82	21762.30
485.00	22155.51
485.18	22380.20
485.35	22890.44
485.53	22892.78
485.71	22490.21
485.89	23328.12
486.07	23070.66
486.25	23138.54
486.43	23494.30
486.61	23639.41
486.78	24032.62
486.96	23772.82
487.14	24341.57
487.32	24112.20
487.50	24587.33
487.68	24683.29
487.85	25170.12
488.03	25259.06
488.21	25736.53
488.39	25200.55
488.57	26192.94
488.75	25900.37
488.92	25982.29
489.10	26492.52
489.28	26501.89
489.46	27190.00
489.64	26965.31
489.81	27323.41
489.99	27253.20
490.17	27538.74
490.35	27782.16
490.53	28318.14
490.70	28095.79
490.88	27967.06
491.06	28624.75
491.24	28697.31
491.41	28961.79
491.59	28957.11
491.77	29088.18
491.95	29380.74
492.13	29355.00
492.30	29773.95
492.48	29879.28
492.66	30047.80
492.84	29926.09
493.01	30513.56
493.19	30553.35
493.37	30925.50
493.54	31065.93
493.72	31028.48
493.90	30874.01
494.08	31718.94
494.25	31857.03
494.43	31852.35
494.61	31924.91
494.79	32407.06
494.96	32093.43
495.14	32285.35
495.32	32568.55
495.49	32547.49
495.67	32968.79
495.85	33542.22
496.02	33134.96
496.20	33916.70
496.38	33507.11
496.55	34361.40
496.73	34443.32
496.91	33923.72
497.09	34576.73
497.26	34483.11
497.44	34895.05
497.62	34754.61
497.79	35367.84
497.97	34902.07
498.14	35208.68
498.32	35768.07
498.50	35796.15
498.67	36275.96
498.85	36273.62
499.03	36617.68
499.20	36292.35
499.38	36481.93
499.56	36655.13
499.73	36811.95
499.91	36851.73
500.08	37766.88
500.26	37106.85
500.44	37607.73
500.61	37111.53
500.79	37757.52
500.97	37944.76
501.14	38403.51
501.32	38328.61
501.49	38073.49
501.67	38227.97
501.84	38527.56
502.02	38452.66
502.20	39105.67
502.37	38710.12
502.55	39150.14
502.72	39344.41
502.90	39152.48
503.07	39222.70
503.25	39349.09
503.43	39454.41
503.60	39746.98
503.78	39543.35
503.95	39519.95
504.13	40416.37
504.30	40128.48
504.48	40149.55
504.65	40313.39
504.83	40655.11
505.01	41399.40
505.18	40699.58
505.36	41034.27
505.53	41008.53
505.71	41071.72
505.88	41448.55
506.06	40973.42
506.23	41687.28
506.41	41600.68
506.58	41832.39
506.76	42057.09
506.93	42101.56
507.11	42232.63
507.28	42382.42
507.46	42834.14
507.63	42761.59
507.81	43171.18
507.98	42464.34
508.16	42822.44
508.33	43100.97
508.50	43002.66
508.68	43274.16
508.85	43632.27
509.03	43693.12
509.20	43468.43
509.38	43924.83
509.55	43966.96
509.73	44135.48
509.90	44278.25
510.08	44793.17
510.25	44217.40
510.42	44512.31
510.60	44783.81
510.77	44830.62
510.95	44774.45
511.12	44669.12
511.30	44720.62
511.47	44858.71
511.64	45027.23
511.82	45785.56
511.99	45275.32
512.17	45230.85
512.34	45399.37
512.51	45654.49
512.69	45989.19
512.86	45820.67
513.04	46408.14
513.21	46391.76
513.38	46689.01
513.56	46593.04
513.73	46483.04
513.90	46564.96
514.08	46471.34
514.25	46972.21
514.43	46864.55
514.60	47250.74
514.77	46897.31
514.95	47559.69
515.12	47114.98
515.29	47241.37
515.47	47295.21
515.64	47531.60
515.81	47627.56
515.99	47812.46
516.16	48205.67
516.33	47753.95
516.51	47966.94
516.68	48456.11
516.85	48671.44
517.03	48538.03
517.20	48472.49
517.37	48165.88
517.54	48587.18
517.72	48561.44
517.89	48573.14
518.06	48980.39
518.24	48804.85
518.41	48975.71
518.58	49139.55
518.75	49020.18
518.93	49326.79
519.10	49099.76
519.27	49429.77
519.45	49371.26
519.62	49563.18
519.79	49897.88
519.96	49310.41
520.14	49921.29
520.31	49832.35
520.48	50045.33
520.65	49949.37
520.83	50073.42
521.00	50321.52
521.17	50368.33
521.34	50735.79
521.52	50604.72
521.69	50475.99
521.86	50546.21
522.03	50728.77
522.20	50887.93
522.38	51243.69
522.55	51016.66
522.72	50609.40
522.89	50637.49
523.07	51264.75
523.24	50848.14
523.41	51459.02
523.58	51082.19
523.75	51402.85
523.92	51559.66
524.10	51697.75
524.27	51854.57
524.44	51732.86
524.61	51545.62
524.78	51819.46
524.96	52009.04
525.13	52130.75
525.30	52207.99
525.47	52343.74
525.64	52121.39
525.81	51896.70
525.98	52430.34
526.16	52629.29
526.33	52470.13
526.50	52704.18
526.67	52341.40
526.84	52856.32
527.01	52678.44
527.18	52460.77
527.36	52800.15
527.53	52912.49
527.70	53146.54
527.87	53144.20
528.04	52725.25
528.21	52919.51
528.38	53013.13
528.55	52924.19
528.72	53132.50
528.89	53359.53
529.07	52989.73
529.24	53081.01
529.41	53436.77
529.58	53471.88
529.75	53537.41
529.92	53586.57
530.09	53712.95
530.26	53572.52
530.43	53865.09
530.60	53755.08
530.77	53270.59
530.94	53860.41
531.11	53942.33
531.28	53928.28
531.46	53982.12
531.63	53939.99
531.80	53792.53
531.97	53893.18
532.14	54349.58
532.31	54164.68
532.48	54485.33
532.65	54443.20
532.82	54295.75
532.99	54262.98
533.16	54408.09
533.33	54412.77
533.50	54780.24
533.67	54569.59
533.84	54267.66
534.01	54525.12
534.18	54506.40
534.35	55145.36
534.52	54644.49
534.69	55016.63
534.86	54897.27
535.03	54754.49
535.20	55096.21
535.37	54824.71
535.54	55246.00
535.71	54859.82
535.88	54937.05
536.05	55194.51
536.22	55337.29
536.38	55323.24
536.55	55299.84
536.72	55100.89
536.89	55283.45
537.06	55215.58
537.23	55533.89
537.40	55325.58
537.57	55622.83
537.74	55573.68
537.91	55590.06
538.08	55660.28
538.25	55515.17
538.42	55693.05
538.59	55948.17
538.75	55664.96
538.92	55770.28
539.09	55812.41
539.26	55934.12
539.43	55828.80
539.60	55959.87
539.77	55924.76
539.94	56161.15
540.11	55943.48
540.28	56032.42
540.44	56233.71
540.61	56399.89
540.78	55938.80
540.95	56126.05
541.12	56303.93
541.29	56329.67
541.46	56243.07
541.62	56427.98
541.79	56243.07
541.96	56086.26
542.13	56350.74
542.30	56261.80
542.47	56512.23
542.63	56301.59
542.80	56736.93
542.97	56685.43
543.14	56882.04
543.31	57041.20
543.48	57190.99
543.64	57052.90
543.81	57212.06
543.98	57141.84
544.15	57132.48
544.32	57209.71
544.48	57312.70
544.65	57230.78
544.82	57029.49
544.99	57132.48
545.16	57240.14
545.32	57106.73
545.49	57373.55
545.66	57429.72
545.83	57258.87
546.00	57640.37
546.16	57315.04
546.33	57635.69
546.50	57240.14
546.67	57457.81
546.83	57366.53
547.00	57532.71
547.17	57460.15
547.34	57628.67
547.50	57591.22
547.67	57855.70
547.84	57750.38
548.00	57883.79
548.17	57993.79
548.34	58031.24
548.51	57907.19
548.67	57860.38
548.84	57879.11
549.01	57783.15
549.18	58026.56
549.34	57996.13
549.51	58068.69
549.68	58094.44
549.84	58262.96
550.01	58227.85
550.18	57946.98
550.34	58218.49
550.51	58248.91
550.68	58262.96
550.84	57970.39
551.01	58312.11
551.18	58094.44
551.34	58174.02
551.51	58298.06
551.68	58377.64
551.84	58117.84
552.01	58024.22
552.18	58375.30
552.34	58206.78
552.51	58459.56
552.68	58349.56
552.84	58468.92
553.01	58611.70
553.18	58681.91
553.34	58745.11
553.51	58473.60
553.67	58590.63
553.84	58642.12
554.01	58679.57
554.17	58546.16
554.34	58592.97
554.51	58621.06
554.67	58817.66
554.84	58597.65
555.00	58892.56
555.17	58522.76
555.33	58733.40
555.50	58787.24
555.67	58578.93
555.83	58894.90
556.00	58791.92
556.16	59208.53
556.33	58876.18
556.50	58773.19
556.66	59077.46
556.83	58899.58
556.99	59065.76
557.16	59451.95
557.32	59388.75
557.49	59311.52
557.65	59152.36
557.82	59178.10
557.98	59143.00
558.15	59283.43
558.32	59419.18
558.48	59189.81
558.65	59185.13
558.81	59009.59
558.98	59196.83
559.14	59215.55
559.31	59545.57
559.47	59377.05
559.64	59583.02
559.80	59442.59
559.97	59498.76
560.13	59498.76
560.30	59442.59
560.46	59437.90
560.63	59344.28
560.79	59777.28
560.96	59433.22
561.12	59559.61
561.29	59503.44
561.45	59540.89
561.61	59648.55
561.78	59676.64
561.94	59606.42
562.11	59484.72
562.27	59653.23
562.44	59803.03
562.60	59861.54
562.77	59817.07
562.93	59484.72
563.10	59882.61
563.26	59641.53
563.42	60072.19
563.59	59910.69
563.75	59784.30
563.92	59681.32
564.08	59819.41
564.24	59578.34
564.41	59962.18
564.57	59859.20
564.74	60016.02
564.90	59913.03
565.07	59849.84
565.23	59863.88
565.39	59934.10
565.56	60030.06
565.72	59852.18
565.88	59908.35
566.05	59889.63
566.21	59887.29
566.38	59931.76
566.54	59868.56
566.70	60053.47
566.87	60137.72
567.03	59962.18
567.19	60137.72
567.36	60060.49
567.52	60158.79
567.68	60547.32
567.85	60189.22
568.01	60238.37
568.17	60037.08
568.34	60142.41
568.50	60151.77
568.66	60058.15
568.83	60196.24
568.99	60079.21
569.15	60214.96
569.32	60137.72
569.48	60081.55
569.64	60343.69
569.81	60294.54
569.97	60128.36
570.13	60299.22
570.30	59903.67
570.46	60334.33
570.62	60264.11
570.78	60219.64
570.95	60243.05
571.11	60385.82
571.27	60264.11
571.43	60193.90
571.60	60226.66
571.76	60273.48
571.92	60331.99
572.09	60172.83
572.25	60243.05
572.41	60353.05
572.57	60236.03
572.74	60451.36
572.90	60259.43
573.06	60299.22
573.22	60282.84
573.38	60575.40
573.55	60336.67
573.71	60423.27
573.87	60556.68
574.03	60278.16
574.20	60404.55
574.36	60385.82
574.52	60257.09
574.68	60544.98
574.84	60732.22
575.01	60594.13
575.17	60200.92
575.33	60636.26
575.49	60381.14
575.65	60601.15
575.82	60502.85
575.98	60535.62
576.14	60687.75
576.30	60500.51
576.46	60526.25
576.62	60439.65
576.79	60608.17
576.95	60168.15
577.11	60502.85
577.27	60526.25
577.43	60626.90
577.59	60343.69
577.75	60432.63
577.92	60594.13
578.08	60659.66
578.24	60624.56
578.40	60692.43
578.56	60896.06
578.72	60554.34
578.88	60837.54
579.04	60706.47
579.21	60601.15
579.37	60509.87
579.53	60769.67
579.69	60559.02
579.85	60612.85
580.01	60612.85
580.17	60563.70
580.33	60701.79
580.49	60671.37
580.65	60647.96
580.82	60687.75
580.98	60591.79
581.14	60694.77
581.30	60865.63
581.46	60809.46
581.62	60643.28
581.78	60701.79
581.94	60512.21
582.10	60727.54
582.26	60725.20
582.42	60776.69
582.58	60683.07
582.74	60732.22
582.90	60610.51
583.06	60704.13
583.22	60652.64
583.38	60711.16
583.54	60626.90
583.70	60865.63
583.86	60706.47
584.02	60488.80
584.18	61038.83
584.34	60624.56
584.50	60853.93
584.66	60736.90
584.82	60809.46
584.98	60931.17
585.14	60877.33
585.30	60725.20
585.46	60870.31
585.62	60830.52
585.78	60720.52
585.94	60552.00
586.10	60821.16
586.26	60727.54
586.42	60818.82
586.58	60835.20
586.74	60788.39
586.90	60659.66
587.06	60650.30
587.22	60870.31
587.38	60764.99
587.54	60994.36
587.70	61076.28
587.86	60807.12
588.02	60889.04
588.18	61001.38
588.34	60828.18
588.49	60938.19
