SpectraSuite Data File
++++++++++++++++++++++++++++++++++++
Date: Fri Oct 25 10:48:22 EDT 2013
User: price-jones
Dark Spectrum Present: No
Reference Spectrum Present: No
Number of Sampled Component Spectra: 1
Spectrometers: USB2+H05261
Integration Time (usec): 100000 (USB2+H05261)
Spectra Averaged: 1 (USB2+H05261)
Boxcar Smoothing: 0 (USB2+H05261)
Correct for Electrical Dark: No (USB2+H05261)
Strobe/Lamp Enabled: No (USB2+H05261)
Correct for Detector Non-linearity: No (USB2+H05261)
Correct for Stray Light: No (USB2+H05261)
Number of Pixels in Processed Spectrum: 2048
>>>>>Begin Processed Spectral Data<<<<<
365.73	51.49
365.92	51.49
366.12	51.49
366.32	67.88
366.52	42.13
366.72	79.58
366.91	14.04
367.11	14.04
367.31	9.36
367.51	51.49
367.70	72.56
367.90	114.69
368.10	0.00
368.30	70.22
368.49	63.19
368.69	23.41
368.89	114.69
369.09	0.00
369.28	53.83
369.48	74.90
369.68	117.03
369.87	86.60
370.07	110.01
370.27	227.03
370.47	203.63
370.66	339.38
370.86	379.17
371.06	489.17
371.25	531.30
371.45	524.28
371.65	540.66
371.84	435.34
372.04	477.47
372.24	456.40
372.44	493.85
372.63	615.56
372.83	566.41
373.03	500.87
373.22	500.87
373.42	552.37
373.62	545.34
373.81	617.90
374.01	531.30
374.21	620.24
374.40	547.69
374.60	599.18
374.79	521.94
374.99	582.79
375.19	587.47
375.38	573.43
375.58	578.11
375.78	599.18
375.97	557.05
376.17	744.29
376.37	603.86
376.56	608.54
376.76	552.37
376.95	669.39
377.15	690.46
377.35	634.29
377.54	660.03
377.74	559.39
377.93	648.33
378.13	641.31
378.33	638.97
378.52	699.82
378.72	669.39
378.91	610.88
379.11	557.05
379.31	692.80
379.50	678.76
379.70	711.52
379.89	660.03
380.09	608.54
380.28	739.61
380.48	688.12
380.68	760.67
380.87	734.93
381.07	784.08
381.26	760.67
381.46	671.73
381.65	732.59
381.85	699.82
382.04	746.63
382.24	763.01
382.43	748.97
382.63	734.93
382.83	739.61
383.02	727.91
383.22	800.46
383.41	772.38
383.61	739.61
383.80	777.06
384.00	835.57
384.19	847.27
384.39	835.57
384.58	821.53
384.78	844.93
384.97	779.40
385.17	861.32
385.36	887.06
385.56	854.30
385.75	887.06
385.95	816.85
386.14	940.90
386.34	837.91
386.53	840.25
386.72	741.95
386.92	830.89
387.11	861.32
387.31	837.91
387.50	954.94
387.70	964.30
387.89	959.62
388.09	875.36
388.28	905.79
388.48	936.21
388.67	1004.09
388.86	1041.54
389.06	987.71
389.25	997.07
389.45	980.68
389.64	992.39
389.84	1093.03
390.03	1020.47
390.22	1022.81
390.42	898.77
390.61	1060.26
390.81	1027.50
391.00	1100.05
391.19	1025.15
391.39	1090.69
391.58	1053.24
391.78	1048.56
391.97	1078.99
392.16	1067.28
392.36	1013.45
392.55	1008.77
392.75	1011.11
392.94	987.71
393.13	915.15
393.33	1011.11
393.52	1041.54
393.71	1156.22
393.91	1104.73
394.10	1158.57
394.29	1177.29
394.49	1172.61
394.68	1200.69
394.88	1228.78
395.07	1261.55
395.26	1235.80
395.46	1221.76
395.65	1249.85
395.84	1210.06
396.04	1174.95
396.23	1277.93
396.42	1125.80
396.62	1149.20
396.81	1163.25
397.00	1224.10
397.19	1287.29
397.39	1401.98
397.58	1451.13
397.77	1338.79
397.97	1451.13
398.16	1406.66
398.35	1465.18
398.55	1490.92
398.74	1540.07
398.93	1533.05
399.12	1521.35
399.32	1500.28
399.51	1465.18
399.70	1537.73
399.90	1526.03
400.09	1561.14
400.28	1776.47
400.47	1530.71
400.67	1647.74
400.86	1603.27
401.05	1619.65
401.24	1687.53
401.44	1675.82
401.63	1713.27
401.82	1753.06
402.01	1811.57
402.21	1689.87
402.40	1834.98
402.59	1675.82
402.78	1820.94
402.97	1781.15
403.17	1844.34
403.36	1811.57
403.55	1809.23
403.74	1905.20
403.93	1989.46
404.13	1767.10
404.32	1874.77
404.51	1813.92
404.70	1898.17
404.89	1937.96
405.09	1928.60
405.28	1998.82
405.47	1975.41
405.66	1930.94
405.85	2108.82
406.05	1947.33
406.24	2005.84
406.43	1989.46
406.62	2001.16
406.81	2190.74
407.00	2071.37
407.20	2012.86
407.39	2024.56
407.58	2085.42
407.77	2106.48
407.96	2153.29
408.15	2190.74
408.34	2207.13
408.54	2282.02
408.73	2284.36
408.92	2422.45
409.11	2380.32
409.30	2293.72
409.49	2342.88
409.68	2338.20
409.87	2260.96
410.07	2431.82
410.26	2429.48
410.45	2424.80
410.64	2434.16
410.83	2459.90
411.02	2427.14
411.21	2541.82
411.40	2691.62
411.59	2586.29
411.78	2649.49
411.98	2642.46
412.17	2616.72
412.36	2626.08
412.55	2696.30
412.74	2658.85
412.93	2827.37
413.12	2665.87
413.31	2759.49
413.50	2764.17
413.69	2897.58
413.88	2963.12
414.07	2822.69
414.26	2902.26
414.45	2942.05
414.64	2979.50
414.83	2995.89
415.02	3002.91
415.22	3021.63
415.41	3110.57
415.60	3150.36
415.79	3243.98
415.98	3143.34
416.17	3269.73
416.36	3208.87
416.55	3382.07
416.74	3365.69
416.93	3159.72
417.12	3344.63
417.31	3328.24
417.50	3398.46
417.69	3489.74
417.88	3368.03
418.07	3361.01
418.26	3468.67
418.45	3538.89
418.64	3698.05
418.83	3510.80
419.02	3534.21
419.21	3721.45
419.39	3599.74
419.58	3674.64
419.77	3672.30
419.96	3618.47
420.15	3779.97
420.34	3730.81
420.53	3571.66
420.72	3920.40
420.91	3936.78
421.10	3918.06
421.29	3786.99
421.48	3861.88
421.67	3887.63
421.86	3588.04
422.05	3824.44
422.24	3702.73
422.43	3791.67
422.61	3904.01
422.80	3815.07
422.99	3969.55
423.18	4128.70
423.37	4007.00
423.56	3978.91
423.75	3943.80
423.94	3791.67
424.13	3667.62
424.32	3880.61
424.50	3896.99
424.69	4056.15
424.88	4060.83
425.07	3927.42
425.26	3911.04
425.45	3922.74
425.64	3920.40
425.83	4159.13
426.01	4138.07
426.20	4067.85
426.39	3983.59
426.58	3918.06
426.77	4011.68
426.96	4095.94
427.15	3962.53
427.33	4093.60
427.52	4067.85
427.71	4154.45
427.90	4060.83
428.09	4346.37
428.28	4077.21
428.46	4163.81
428.65	4372.12
428.84	4320.63
429.03	4276.16
429.22	4072.53
429.40	4194.24
429.59	4187.22
429.78	4093.60
429.97	3852.52
430.16	4086.58
430.34	4086.58
430.53	4056.15
430.72	4028.06
430.91	4236.37
431.10	4248.07
431.28	4613.20
431.47	4662.35
431.66	4678.73
431.85	4599.15
432.03	4503.19
432.22	4671.71
432.41	4615.54
432.60	4690.43
432.79	4643.62
432.97	4739.58
433.16	4674.05
433.35	4772.35
433.54	4695.11
433.72	4748.95
433.91	4592.13
434.10	4833.21
434.28	4870.65
434.47	4849.59
434.66	4922.15
434.85	4912.78
435.03	5153.86
435.22	4973.64
435.41	5254.50
435.59	5172.58
435.78	5139.82
435.97	5224.08
436.16	5188.97
436.34	5081.30
436.53	5181.95
436.72	5331.74
436.90	5151.52
437.09	5097.69
437.28	5193.65
437.46	5233.44
437.65	5282.59
437.84	5245.14
438.02	5163.22
438.21	5041.51
438.40	5270.89
438.58	5385.57
438.77	5448.77
438.96	5593.88
439.14	5575.16
439.33	5540.05
439.52	5753.04
439.70	5675.80
439.89	5783.46
440.08	5820.91
440.26	5849.00
440.45	5769.42
440.63	5813.89
440.82	5956.66
441.01	5947.30
441.19	6005.81
441.38	6017.52
441.57	6019.86
441.75	6083.05
441.94	6200.08
442.12	6345.19
442.31	6366.26
442.50	6523.07
442.68	6162.63
442.87	6321.79
443.05	6464.56
443.24	6572.22
443.43	6392.00
443.61	6417.75
443.80	6471.58
443.98	6319.45
444.17	6246.89
444.35	6707.98
444.54	6794.58
444.73	6602.65
444.91	6579.25
445.10	6443.49
445.28	6384.98
445.47	6532.44
445.65	6480.94
445.84	6539.46
446.02	6462.22
446.21	6700.95
446.39	6445.84
446.58	6619.04
446.77	6546.48
446.95	6511.37
447.14	6621.38
447.32	6726.70
447.51	6532.44
447.69	6607.33
447.88	6623.72
448.06	6590.95
448.25	6782.87
448.43	6960.75
448.62	6661.16
448.80	6754.79
448.99	6689.25
449.17	6939.69
449.36	6839.05
449.54	6911.60
449.73	7002.88
449.91	6970.12
450.10	7204.17
450.28	7213.53
450.46	7183.10
450.65	7152.68
450.83	7234.60
451.02	7112.89
451.20	7290.77
451.39	7311.83
451.57	7157.36
451.76	7199.49
451.94	7199.49
452.13	7272.04
452.31	7267.36
452.49	7241.62
452.68	7236.94
452.86	7382.05
453.05	7452.27
453.23	7405.46
453.42	7272.04
453.60	7356.30
453.78	7412.48
453.97	7419.50
454.15	7470.99
454.34	7382.05
454.52	7573.97
454.70	7510.78
454.89	7461.63
455.07	7613.76
455.26	7438.22
455.44	7761.22
455.62	7815.05
455.81	7749.51
455.99	7899.31
456.17	7761.22
456.36	7712.07
456.54	8009.31
456.73	8114.64
456.91	8161.45
457.09	8149.75
457.28	8245.71
457.46	8147.40
457.64	8109.96
457.83	8191.88
458.01	8028.04
458.19	8449.33
458.38	8088.89
458.56	8287.84
458.74	8248.05
458.93	8252.73
459.11	8311.24
459.29	8285.50
459.48	8187.19
459.66	8372.10
459.84	8400.18
460.03	8475.08
460.21	8472.74
460.39	8432.95
460.57	8360.39
460.76	8741.90
460.94	8744.24
461.12	8755.94
461.31	8564.02
461.49	8645.94
461.67	8566.36
461.85	8835.52
462.04	8826.16
462.22	9282.56
462.40	9025.11
462.59	8702.11
462.77	8978.30
462.95	8943.19
463.13	8816.80
463.32	8910.42
463.50	8975.95
463.68	9032.13
463.86	9163.20
464.05	8821.48
464.23	9029.79
464.41	8957.23
464.59	9022.77
464.78	9139.79
464.96	9055.53
465.14	9163.20
465.32	9151.49
465.50	9235.75
465.69	9202.99
465.87	9273.20
466.05	9324.69
466.23	9240.44
466.41	9163.20
466.60	9364.48
466.78	9261.50
466.96	9069.58
467.14	9137.45
467.32	9411.29
467.51	9575.13
467.69	9188.94
467.87	9437.04
468.05	9596.20
468.23	9540.02
468.41	9214.69
468.60	9521.30
468.78	9678.12
468.96	9640.67
469.14	9734.29
469.32	9774.08
469.50	9493.21
469.69	9727.27
469.87	9703.86
470.05	9626.62
470.23	9788.12
470.41	10024.51
470.59	10097.07
470.77	10003.45
470.95	9956.64
471.14	10101.75
471.32	10087.71
471.50	10228.14
471.68	10490.28
471.86	10253.89
472.04	10532.41
472.22	10651.78
472.40	10218.78
472.58	10406.02
472.77	10588.58
472.95	10537.09
473.13	10621.35
473.31	10513.69
473.49	10654.12
473.67	10846.04
473.85	10878.81
474.03	10986.47
474.21	10981.79
474.39	11042.65
474.57	11021.58
474.75	11171.38
474.93	11009.88
475.12	11021.58
475.30	11222.87
475.48	11281.38
475.66	11180.74
475.84	11236.91
476.02	11426.50
476.20	11508.41
476.38	11742.47
476.56	11887.58
476.74	11894.60
476.92	11978.86
477.10	11641.82
477.28	12203.55
477.46	12046.74
477.64	12262.07
477.82	12599.10
478.00	12737.20
478.18	12519.53
478.36	12283.13
478.54	12802.73
478.72	12666.98
478.90	12636.55
479.08	13062.53
479.26	12879.97
479.44	13015.72
479.62	13439.36
479.80	13453.40
479.98	13586.81
480.16	13795.12
480.34	13418.29
480.52	13687.45
480.70	13802.14
480.88	13504.89
481.06	14200.03
481.24	14157.90
481.41	14370.89
481.59	14459.83
481.77	14356.85
481.95	14387.27
482.13	14665.80
482.31	14778.14
482.49	14789.85
482.67	14843.68
482.85	15157.31
483.03	14986.45
483.21	15183.06
483.39	15344.55
483.57	15314.13
483.74	15536.48
483.92	15602.01
484.10	15646.48
484.28	15857.13
484.46	16161.40
484.64	16215.23
484.82	16074.80
485.00	16063.10
485.18	16435.24
485.35	16460.99
485.53	16236.30
485.71	16386.09
485.89	16435.24
486.07	16355.66
486.25	16833.13
486.43	16903.35
486.61	17291.88
486.78	17240.39
486.96	17493.16
487.14	17680.41
487.32	18090.00
487.50	18216.39
487.68	18192.98
487.85	18525.34
488.03	18541.72
488.21	18497.25
488.39	18532.36
488.57	19061.32
488.75	19152.60
488.92	19080.05
489.10	19063.66
489.28	19360.91
489.46	19847.74
489.64	19761.14
489.81	20191.80
489.99	20130.95
490.17	20336.91
490.35	20467.98
490.53	20819.07
490.70	20346.28
490.88	20627.14
491.06	21193.55
491.24	20812.04
491.41	20842.47
491.59	20882.26
491.77	21125.68
491.95	21284.83
492.13	21380.79
492.30	21659.32
492.48	22047.85
492.66	21701.45
492.84	21830.18
493.01	22129.77
493.19	21909.75
493.37	22302.96
493.54	22464.46
493.72	22848.31
493.90	22775.75
494.08	22923.21
494.25	23110.45
494.43	23330.46
494.61	23208.75
494.79	23555.15
494.96	23658.14
495.14	23569.19
495.32	23798.57
495.49	23761.12
495.67	24280.72
495.85	24049.00
496.02	24512.43
496.20	24545.20
496.38	24472.64
496.55	24725.42
496.73	25156.08
496.91	25041.39
497.09	25256.72
497.26	25261.40
497.44	25315.23
497.62	25109.27
497.79	25436.94
497.97	25294.17
498.14	25804.41
498.32	25907.39
498.50	25937.82
498.67	26162.51
498.85	26029.10
499.03	26511.25
499.20	26466.78
499.38	26389.54
499.56	26649.34
499.73	26710.19
499.91	26927.86
500.08	26731.26
500.26	26539.33
500.44	26857.65
500.61	26984.04
500.79	27227.45
500.97	26691.47
501.14	27190.00
501.32	27461.51
501.49	27377.25
501.67	27543.42
501.84	27772.80
502.02	27751.73
502.20	27852.38
502.37	28067.70
502.55	28276.01
502.72	28149.62
502.90	28268.99
503.07	28175.37
503.25	28278.35
503.43	28233.88
503.60	28381.34
503.78	28268.99
503.95	28690.29
504.13	28655.18
504.30	28776.89
504.48	28666.88
504.65	29081.16
504.83	28954.77
505.01	29366.70
505.18	29537.56
505.36	29692.04
505.53	29614.80
505.71	29921.41
505.88	29996.31
506.06	29883.96
506.23	29893.32
506.41	29886.30
506.58	29802.04
506.76	30436.33
506.93	29970.56
507.11	30462.07
507.28	30122.69
507.46	30183.55
507.63	30352.07
507.81	30389.52
507.98	30405.90
508.16	30689.10
508.33	30934.86
508.50	31051.89
508.68	31129.12
508.85	31405.31
509.03	31131.47
509.20	31419.35
509.38	31740.00
509.55	31732.98
509.73	31344.45
509.90	31428.71
510.08	31304.67
510.25	31325.73
510.42	31543.40
510.60	31948.31
510.77	32271.31
510.95	32275.99
511.12	31491.91
511.30	32514.72
511.47	32884.53
511.64	32727.71
511.82	32659.84
511.99	32484.30
512.17	32650.47
512.34	32716.01
512.51	32664.52
512.69	33237.95
512.86	32893.89
513.04	33340.93
513.21	33029.64
513.38	33001.55
513.56	33483.70
513.73	33289.44
513.90	33137.30
514.08	33141.99
514.25	33003.89
514.43	33509.45
514.60	33762.23
514.77	33509.45
514.95	33621.80
515.12	33949.47
515.29	34003.30
515.47	34471.41
515.64	34045.43
515.81	33748.18
515.99	34078.20
516.16	33956.49
516.33	33684.99
516.51	33991.60
516.68	33769.25
516.85	33860.53
517.03	34010.32
517.20	34033.73
517.37	34691.42
517.54	34604.82
517.72	34323.96
517.89	34511.20
518.06	34244.38
518.24	34782.70
518.41	34333.32
518.58	34548.65
518.75	34749.93
518.93	35255.49
519.10	35091.65
519.27	35386.56
519.45	35330.39
519.62	35550.40
519.79	35702.53
519.96	35344.43
520.14	35667.42
520.31	35824.24
520.48	35885.09
520.65	35730.62
520.83	36144.89
521.00	35899.14
521.17	35957.65
521.34	36250.22
521.52	36566.19
521.69	36610.66
521.86	36503.00
522.03	36903.23
522.20	36598.96
522.38	36802.58
522.55	36605.98
522.72	36566.19
522.89	36381.29
523.07	36809.61
523.24	36774.50
523.41	37378.36
523.58	37092.81
523.75	37614.75
523.92	37432.19
524.10	37804.33
524.27	37731.78
524.44	37673.26
524.61	37787.95
524.78	38061.79
524.96	37549.21
525.13	38040.73
525.30	38029.02
525.47	38462.02
525.64	38068.81
525.81	37839.44
525.98	37834.76
526.16	37916.68
526.33	37626.45
526.50	37834.76
526.67	38087.54
526.84	38066.47
527.01	37640.50
527.18	38192.86
527.36	38499.47
527.53	38611.82
527.70	39227.38
527.87	39103.33
528.04	38485.43
528.21	38719.48
528.38	38923.11
528.55	39220.36
528.72	39255.46
528.89	38962.90
529.07	39108.01
529.24	38918.43
529.41	39409.94
529.58	38939.49
529.75	39115.03
529.92	39161.84
530.09	39276.53
530.26	39805.49
530.43	39641.65
530.60	39440.37
530.77	39819.53
530.94	39639.31
531.11	39861.66
531.28	39737.62
531.46	40020.82
531.63	39749.32
531.80	39955.29
531.97	39707.19
532.14	39859.32
532.31	39620.59
532.48	39966.99
532.65	39976.35
532.82	39892.09
532.99	40327.43
533.16	40016.14
533.33	40430.41
533.50	40591.91
533.67	40336.79
533.84	40407.01
534.01	40392.97
534.18	40488.93
534.35	40964.06
534.52	40367.22
534.69	40905.54
534.86	40589.57
535.03	40392.97
535.20	40968.74
535.37	41078.74
535.54	41525.78
535.71	40610.64
535.88	40940.65
536.05	41158.32
536.22	41401.74
536.38	41368.97
536.55	41340.88
536.72	41338.54
536.89	40748.73
537.06	41614.72
537.23	41214.49
537.40	41677.92
537.57	41375.99
537.74	41310.46
537.91	41982.19
538.08	41570.25
538.25	41455.57
538.42	41640.47
538.59	41888.57
538.75	41654.51
538.92	41457.91
539.09	41549.19
539.26	41474.29
539.43	41904.95
539.60	41441.53
539.77	41874.52
539.94	41879.21
540.11	41364.29
540.28	41366.63
540.44	42085.17
540.61	41654.51
540.78	41914.31
540.95	42183.48
541.12	42038.36
541.29	41797.29
541.46	41949.42
541.62	41951.76
541.79	42689.03
541.96	41916.65
542.13	42071.13
542.30	42298.16
542.47	42696.05
542.63	42459.66
542.80	42864.57
542.97	42831.80
543.14	43665.03
543.31	42878.61
543.48	43328.00
543.64	43545.67
543.81	43412.26
543.98	43250.76
544.15	43168.84
544.32	43124.37
544.48	43461.41
544.65	43459.07
544.82	43227.35
544.99	43084.58
545.16	43175.86
545.32	43433.32
545.49	43590.14
545.66	43505.88
545.83	43636.95
546.00	43943.56
546.16	43367.79
546.33	43365.45
546.50	42742.86
546.67	43428.64
546.83	42763.93
547.00	43679.08
547.17	43519.92
547.34	43615.88
547.50	44133.14
547.67	44062.93
547.84	43943.56
548.00	43892.07
548.17	44179.95
548.34	43995.05
548.51	44449.11
548.67	44383.58
548.84	44570.82
549.01	44442.09
549.18	44168.25
549.34	44563.80
549.51	44383.58
549.68	44409.32
549.84	44098.03
550.01	44360.17
550.18	44245.49
550.34	44505.29
550.51	44467.84
550.68	44055.90
550.84	44559.12
551.01	44343.79
551.18	44481.88
551.34	44538.05
551.51	44456.14
551.68	44304.00
551.84	44612.95
552.01	44589.55
552.18	44486.56
552.34	44685.51
552.51	44758.06
552.68	44589.55
552.84	44793.17
553.01	45251.92
553.18	44776.79
553.34	45249.58
553.51	44832.96
553.67	44996.80
553.84	44942.97
554.01	44959.35
554.17	45085.74
554.34	45155.96
554.51	44910.20
554.67	45212.13
554.84	45179.36
555.00	45024.89
555.17	45020.20
555.33	45153.62
555.50	45076.38
555.67	45155.96
555.83	45436.82
556.00	45453.20
556.16	45860.46
556.33	45560.87
556.50	45595.98
556.66	45581.93
556.83	45059.99
556.99	45345.54
557.16	45631.08
557.32	45539.80
557.49	45612.36
557.65	44921.90
557.82	45382.99
557.98	45418.10
558.15	45694.28
558.32	45317.45
558.48	45600.66
558.65	45652.15
558.81	45640.45
558.98	45649.81
559.14	45518.74
559.31	45380.65
559.47	45808.96
559.64	45820.67
559.80	45979.82
559.97	46115.58
560.13	45715.34
560.30	45722.37
560.46	45844.07
560.63	45972.80
560.79	46251.33
560.96	46024.29
561.12	45897.91
561.29	46010.25
561.45	45893.22
561.61	45837.05
561.78	45635.77
561.94	45546.82
562.11	45748.11
562.27	46160.05
562.44	46017.27
562.60	46199.83
562.77	46459.63
562.93	46073.45
563.10	46131.96
563.26	45844.07
563.42	46197.49
563.59	45890.88
563.75	45820.67
563.92	46401.12
564.08	45801.94
564.24	46146.00
564.41	46611.77
564.57	46216.22
564.74	46197.49
564.90	46291.12
565.07	45940.04
565.23	46295.80
565.39	46117.92
565.56	46431.55
565.72	46106.21
565.88	46380.06
566.05	46267.71
566.21	46068.76
566.38	45940.04
566.54	46148.34
566.70	46438.57
566.87	46796.67
567.03	46522.83
567.19	46780.29
567.36	46211.54
567.52	46466.66
567.68	46850.50
567.85	46464.32
568.01	46644.54
568.17	46258.35
568.34	46560.28
568.50	46368.35
568.66	46258.35
568.83	46342.61
568.99	46080.47
569.15	46426.87
569.32	46356.65
569.48	46469.00
569.64	47049.45
569.81	46586.02
569.97	46387.08
570.13	46057.06
570.30	46323.88
570.46	46050.04
570.62	46211.54
570.78	46457.29
570.95	46000.89
571.11	46251.33
571.27	46012.59
571.43	46693.69
571.60	46389.42
571.76	46061.74
571.92	46546.23
572.09	46693.69
572.25	46504.10
572.41	46611.77
572.57	46532.19
572.74	47100.94
572.90	46653.90
573.06	46988.60
573.22	46686.67
573.38	46635.17
573.55	46064.08
573.71	46684.33
573.87	46064.08
574.03	46550.91
574.20	46958.17
574.36	46628.15
574.52	46817.74
574.68	46724.11
574.84	46508.79
575.01	46504.10
575.17	46543.89
575.33	46323.88
575.49	46415.16
575.65	46630.49
575.82	46887.95
575.98	46438.57
576.14	46770.93
576.30	46674.96
576.46	46609.43
576.62	46225.58
576.79	46101.53
576.95	46323.88
577.11	46642.20
577.27	46717.09
577.43	46815.40
577.59	46370.69
577.75	46464.32
577.92	46316.86
578.08	46227.92
578.24	46295.80
578.40	46277.07
578.56	46227.92
578.72	46918.38
578.88	46696.03
579.04	46754.54
579.21	46504.10
579.37	46733.48
579.53	46476.02
579.69	46698.37
579.85	46431.55
580.01	47239.03
580.17	46946.47
580.33	46871.57
580.49	46934.76
580.65	46962.85
580.82	46953.49
580.98	46717.09
581.14	46714.75
581.30	46890.29
581.46	47063.49
581.62	47100.94
581.78	46616.45
581.94	46967.53
582.10	46789.65
582.26	46665.60
582.42	46787.31
582.58	47016.68
582.74	46398.78
582.90	46590.70
583.06	46986.25
583.22	46953.49
583.38	47004.98
583.54	47096.26
583.70	46976.89
583.86	46735.82
584.02	46569.64
584.18	46829.44
584.34	47229.67
584.50	46789.65
584.66	46913.70
584.82	46611.77
584.98	46742.84
585.14	46972.21
585.30	46405.80
585.46	47313.93
585.62	46560.28
585.78	46789.65
585.94	46387.08
586.10	46567.30
586.26	46930.08
586.42	46754.54
586.58	47023.70
586.74	47253.08
586.90	46628.15
587.06	46976.89
587.22	46843.48
587.38	46569.64
587.54	47023.70
587.70	47051.79
587.86	46511.13
588.02	46721.77
588.18	46979.23
588.34	46611.77
588.49	46401.12
588.65	46202.18
588.81	46265.37
588.97	46150.68
589.13	46569.64
589.29	46464.32
589.45	46536.87
589.61	46754.54
589.77	46808.37
589.93	46607.09
