SpectraSuite Data File
++++++++++++++++++++++++++++++++++++
Date: Fri Oct 25 10:48:35 EDT 2013
User: price-jones
Dark Spectrum Present: No
Reference Spectrum Present: No
Number of Sampled Component Spectra: 1
Spectrometers: USB2+H05261
Integration Time (usec): 100000 (USB2+H05261)
Spectra Averaged: 1 (USB2+H05261)
Boxcar Smoothing: 0 (USB2+H05261)
Correct for Electrical Dark: No (USB2+H05261)
Strobe/Lamp Enabled: No (USB2+H05261)
Correct for Detector Non-linearity: No (USB2+H05261)
Correct for Stray Light: No (USB2+H05261)
Number of Pixels in Processed Spectrum: 2048
>>>>>Begin Processed Spectral Data<<<<<
365.73	166.18
365.92	166.18
366.12	166.18
366.32	58.51
366.52	9.36
366.72	86.60
366.91	140.43
367.11	39.79
367.31	112.35
367.51	60.85
367.70	112.35
367.90	32.77
368.10	37.45
368.30	37.45
368.49	16.38
368.69	112.35
368.89	0.00
369.09	21.06
369.28	18.72
369.48	95.96
369.68	67.88
369.87	126.39
370.07	88.94
370.27	147.45
370.47	173.20
370.66	475.13
370.86	423.64
371.06	479.81
371.25	528.96
371.45	526.62
371.65	493.85
371.84	545.34
372.04	496.19
372.24	557.05
372.44	575.77
372.63	578.11
372.83	486.83
373.03	613.22
373.22	547.69
373.42	552.37
373.62	479.81
373.81	552.37
374.01	620.24
374.21	589.82
374.40	631.94
374.60	582.79
374.79	582.79
374.99	557.05
375.19	610.88
375.38	603.86
375.58	613.22
375.78	638.97
375.97	629.60
376.17	674.07
376.37	660.03
376.56	662.37
376.76	575.77
376.95	587.47
377.15	645.99
377.35	622.58
377.54	671.73
377.74	695.14
377.93	777.06
378.13	713.86
378.33	667.05
378.52	678.76
378.72	629.60
378.91	674.07
379.11	594.50
379.31	748.97
379.50	641.31
379.70	730.25
379.89	727.91
380.09	711.52
380.28	695.14
380.48	699.82
380.68	748.97
380.87	744.29
381.07	716.20
381.26	734.93
381.46	800.46
381.65	798.12
381.85	653.01
382.04	755.99
382.24	716.20
382.43	702.16
382.63	795.78
382.83	812.17
383.02	758.33
383.22	847.27
383.41	828.55
383.61	840.25
383.80	751.31
384.00	772.38
384.19	929.19
384.39	784.08
384.58	821.53
384.78	854.30
384.97	884.72
385.17	905.79
385.36	805.14
385.56	828.55
385.75	816.85
385.95	847.27
386.14	903.45
386.34	978.34
386.53	964.30
386.72	875.36
386.92	861.32
387.11	894.08
387.31	994.73
387.50	924.51
387.70	882.38
387.89	971.32
388.09	968.98
388.28	966.64
388.48	1027.50
388.67	1041.54
388.86	978.34
389.06	947.92
389.25	1008.77
389.45	1046.22
389.64	1032.18
389.84	1090.69
390.03	1025.15
390.22	1139.84
390.42	1123.46
390.61	1011.11
390.81	1069.62
391.00	1109.41
391.19	1088.35
391.39	1086.01
391.58	1107.07
391.78	1125.80
391.97	1100.05
392.16	1013.45
392.36	1107.07
392.55	1076.65
392.75	1142.18
392.94	1046.22
393.13	1095.37
393.33	1046.22
393.52	1088.35
393.71	1121.12
393.91	1212.40
394.10	1263.89
394.29	1242.82
394.49	1193.67
394.68	1224.10
394.88	1273.25
395.07	1376.24
395.26	1261.55
395.46	1310.70
395.65	1411.34
395.84	1338.79
396.04	1320.06
396.23	1170.27
396.42	1270.91
396.62	1320.06
396.81	1289.64
397.00	1245.16
397.19	1394.96
397.39	1474.54
397.58	1519.01
397.77	1446.45
397.97	1497.94
398.16	1451.13
398.35	1666.46
398.55	1561.14
398.74	1614.97
398.93	1671.14
399.12	1640.72
399.32	1535.39
399.51	1708.59
399.70	1687.53
399.90	1596.25
400.09	1621.99
400.28	1685.19
400.47	1621.99
400.67	1760.08
400.86	1760.08
401.05	1769.44
401.24	1757.74
401.44	1734.34
401.63	1830.30
401.82	1914.56
402.01	1809.23
402.21	1727.32
402.40	1923.92
402.59	1832.64
402.78	1853.70
402.97	1792.85
403.17	1846.68
403.36	1935.62
403.55	1823.28
403.74	2026.90
403.93	1944.99
404.13	1921.58
404.32	1935.62
404.51	1982.43
404.70	2022.22
404.89	2029.24
405.09	2106.48
405.28	2031.58
405.47	2165.00
405.66	2094.78
405.85	2125.21
406.05	2064.35
406.24	2062.01
406.43	2104.14
406.62	2162.66
406.81	2143.93
407.00	2181.38
407.20	2085.42
407.39	2218.83
407.58	2293.72
407.77	2239.89
407.96	2406.07
408.15	2258.62
408.34	2380.32
408.54	2424.80
408.73	2415.43
408.92	2441.18
409.11	2373.30
409.30	2429.48
409.49	2310.11
409.68	2347.56
409.87	2289.04
410.07	2361.60
410.26	2417.77
410.45	2520.76
410.64	2609.70
410.83	2600.34
411.02	2555.86
411.21	2738.43
411.40	2637.78
411.59	2670.55
411.78	2806.30
411.98	2579.27
412.17	2813.32
412.36	2693.96
412.55	2799.28
412.74	2902.26
412.93	2890.56
413.12	2843.75
413.31	3098.87
413.50	3038.02
413.69	3119.93
413.88	3110.57
414.07	3052.06
414.26	3012.27
414.45	2953.76
414.64	3176.11
414.83	3199.51
415.02	3206.53
415.22	3215.90
415.41	3372.71
415.60	3279.09
415.79	3417.18
415.98	3431.23
416.17	3456.97
416.36	3272.07
416.55	3510.80
416.74	3419.52
416.93	3272.07
417.12	3419.52
417.31	3524.85
417.50	3520.17
417.69	3576.34
417.88	3583.36
418.07	3592.72
418.26	3562.30
418.45	3566.98
418.64	3721.45
418.83	3740.18
419.02	3709.75
419.21	3744.86
419.39	3723.79
419.58	3637.19
419.77	3765.92
419.96	3744.86
420.15	3901.67
420.34	3726.13
420.53	3859.54
420.72	3960.19
420.91	3964.87
421.10	3995.29
421.29	4018.70
421.48	4032.74
421.67	3992.95
421.86	3985.93
422.05	3892.31
422.24	3948.48
422.43	3983.59
422.61	4152.11
422.80	4163.81
422.99	4023.38
423.18	4109.98
423.37	4049.13
423.56	4056.15
423.75	4119.34
423.94	4109.98
424.13	3833.80
424.32	4042.11
424.50	4039.76
424.69	4170.83
424.88	4189.56
425.07	4098.28
425.26	4093.60
425.45	4091.26
425.64	4105.30
425.83	4004.66
426.01	4248.07
426.20	4154.45
426.39	4145.09
426.58	4112.32
426.77	4065.51
426.96	4147.43
427.15	4088.92
427.33	4231.69
427.52	4049.13
427.71	4334.67
427.90	4210.62
428.09	4283.18
428.28	4313.61
428.46	4367.44
428.65	4329.99
428.84	4454.04
429.03	4425.95
429.22	4280.84
429.40	4461.06
429.59	4355.74
429.78	4175.52
429.97	4180.20
430.16	4337.01
430.34	4205.94
430.53	4311.27
430.72	4320.63
430.91	4557.02
431.10	4629.58
431.28	4641.28
431.47	4762.99
431.66	4936.19
431.85	4617.88
432.03	4793.42
432.22	4865.97
432.41	4807.46
432.60	4887.04
432.79	4786.40
432.97	5088.32
433.16	4901.08
433.35	4997.04
433.54	4933.85
433.72	4880.02
433.91	4875.34
434.10	4865.97
434.28	4961.94
434.47	4992.36
434.66	5102.37
434.85	5144.50
435.03	5135.14
435.22	5102.37
435.41	5200.67
435.59	5362.17
435.78	5263.86
435.97	5334.08
436.16	5446.43
436.34	5282.59
436.53	5313.02
436.72	5322.38
436.90	5322.38
437.09	5383.23
437.28	5167.90
437.46	5369.19
437.65	5226.42
437.84	5397.28
438.02	5291.95
438.21	5495.58
438.40	5245.14
438.58	5633.67
438.77	5727.29
438.96	5589.20
439.14	5706.23
439.33	5940.28
439.52	5715.59
439.70	5912.19
439.89	5984.75
440.08	6132.20
440.26	5893.47
440.45	6207.10
440.63	6094.76
440.82	6321.79
441.01	6207.10
441.19	6305.40
441.38	6328.81
441.57	6375.62
441.75	6335.83
441.94	6520.73
442.12	6506.69
442.31	6651.80
442.50	6640.10
442.68	6401.37
442.87	6555.84
443.05	6768.83
443.24	6738.40
443.43	6642.44
443.61	6822.66
443.80	7000.54
443.98	6715.00
444.17	6530.09
444.35	6867.13
444.54	6876.49
444.73	6778.19
444.91	6684.57
445.10	6773.51
445.28	6712.66
445.47	6347.53
445.65	6752.45
445.84	6726.70
446.02	6696.27
446.21	6696.27
446.39	6562.86
446.58	6881.18
446.77	6862.45
446.95	6616.69
447.14	7005.22
447.32	7164.38
447.51	7061.40
447.69	6820.32
447.88	6883.52
448.06	6939.69
448.25	7124.59
448.43	7119.91
448.62	6981.82
448.80	7028.63
448.99	7169.06
449.17	7152.68
449.36	7129.27
449.54	7276.73
449.73	7386.73
449.91	7384.39
450.10	7442.90
450.28	7513.12
450.46	7559.93
450.65	7510.78
450.83	7625.47
451.02	7489.71
451.20	7506.10
451.39	7499.08
451.57	7489.71
451.76	7606.74
451.94	7288.43
452.13	7569.29
452.31	7592.70
452.49	7419.50
452.68	7578.65
452.86	7536.52
453.05	7585.68
453.23	7564.61
453.42	7485.03
453.60	7665.25
453.78	7808.03
453.97	7581.00
454.15	7768.24
454.34	7646.53
454.52	7927.39
454.70	7810.37
454.89	7918.03
455.07	8100.59
455.26	7943.78
455.44	8011.65
455.62	8163.79
455.81	8180.17
455.99	7948.46
456.17	8170.81
456.36	8201.24
456.54	8159.11
456.73	8322.94
456.91	8505.51
457.09	8624.87
457.28	8599.13
457.46	8271.45
457.64	8203.58
457.83	8503.17
458.01	8411.89
458.19	8582.74
458.38	8573.38
458.56	8521.89
458.74	8507.85
458.93	8538.27
459.11	8662.32
459.29	8634.24
459.48	8655.30
459.66	8627.21
459.84	8617.85
460.03	8966.59
460.21	8795.73
460.39	8753.60
460.57	8659.98
460.76	8861.27
460.94	9109.36
461.12	9013.40
461.31	8903.40
461.49	8898.72
461.67	8894.04
461.85	9139.79
462.04	9217.03
462.22	9717.90
462.40	9329.38
462.59	9371.50
462.77	9327.03
462.95	9308.31
463.13	9198.31
463.32	9273.20
463.50	9249.80
463.68	9413.63
463.86	9434.70
464.05	9067.24
464.23	9303.63
464.41	9432.36
464.59	9270.86
464.78	9483.85
464.96	9479.17
465.14	9277.88
465.32	9635.99
465.50	9696.84
465.69	9507.26
465.87	9563.43
466.05	9533.00
466.23	9525.98
466.41	9607.90
466.60	9722.59
466.78	9647.69
466.96	9696.84
467.14	9708.54
467.32	9710.88
467.51	9788.12
467.69	9518.96
467.87	9675.77
468.05	9795.14
468.23	9895.78
468.41	9907.49
468.60	9928.55
468.78	10244.52
468.96	9736.63
469.14	10153.24
469.32	10317.08
469.50	9745.99
469.69	10061.96
469.87	10256.23
470.05	10188.35
470.23	10335.81
470.41	10239.84
470.59	10209.42
470.77	10387.30
470.95	10391.98
471.14	10361.55
471.32	10197.71
471.50	10539.43
471.68	10700.93
471.86	10635.39
472.04	10733.70
472.22	11049.67
472.40	10649.44
472.58	10862.43
472.77	10565.18
472.95	11124.57
473.13	11232.23
473.31	10824.98
473.49	10700.93
473.67	11194.78
473.85	11126.91
474.03	11477.99
474.21	11442.88
474.39	11595.01
474.57	11396.07
474.75	11496.71
474.93	11747.15
475.12	11461.60
475.30	11829.07
475.48	11641.82
475.66	11793.96
475.84	11639.48
476.02	11850.13
476.20	11796.30
476.38	12170.79
476.56	12280.79
476.74	12203.55
476.92	12142.70
477.10	12500.80
477.28	12669.32
477.46	12681.02
477.64	12678.68
477.82	12849.54
478.00	13137.43
478.18	13053.17
478.36	13174.88
478.54	12961.89
478.72	13170.19
478.90	13540.00
479.08	13661.71
479.26	13678.09
479.44	13666.39
479.62	13841.93
479.80	13736.60
479.98	13973.00
480.16	14115.77
480.34	14094.71
480.52	14319.40
480.70	14452.81
480.88	14274.93
481.06	14457.49
481.24	14558.13
481.41	14757.08
481.59	15016.88
481.77	14977.09
481.95	14792.19
482.13	15183.06
482.31	15035.60
482.49	15353.91
482.67	15749.46
482.85	15431.15
483.03	15716.70
483.21	15838.41
483.39	16198.85
483.57	16086.50
483.74	16058.42
483.92	16425.88
484.10	15981.18
484.28	16187.14
484.46	16727.81
484.64	17081.23
484.82	16360.34
485.00	16573.33
485.18	16783.98
485.35	16975.91
485.53	16681.00
485.71	16730.15
485.89	17167.83
486.07	16802.71
486.25	17387.84
486.43	17385.50
486.61	17767.01
486.78	17928.50
486.96	17891.06
487.14	18415.34
487.32	18464.49
487.50	18448.10
487.68	19176.01
487.85	18881.10
488.03	19538.79
488.21	19274.31
488.39	19213.46
488.57	19061.32
488.75	19463.90
488.92	19616.03
489.10	19819.66
489.28	19845.40
489.46	20446.92
489.64	20205.84
489.81	21137.38
489.99	20957.16
490.17	20812.04
490.35	21188.87
490.53	21233.34
490.70	21392.50
490.88	21184.19
491.06	21493.14
491.24	21270.79
491.41	21614.85
491.59	21624.21
491.77	21886.35
491.95	21961.25
492.13	22380.20
492.30	22317.01
492.48	22450.42
492.66	22815.54
492.84	22604.89
493.01	22724.26
493.19	22707.88
493.37	23229.82
493.54	23431.10
493.72	23489.62
493.90	23456.85
494.08	23758.78
494.25	23974.11
494.43	24060.71
494.61	24137.94
494.79	24261.99
494.96	24486.68
495.14	24397.74
495.32	24507.75
495.49	24329.87
495.67	24788.61
495.85	25226.29
496.02	25088.20
496.20	24957.13
496.38	25350.34
496.55	25500.14
496.73	26064.21
496.91	25743.55
497.09	25839.51
497.26	25937.82
497.44	25832.49
497.62	26293.58
497.79	26214.00
497.97	25902.71
498.14	26544.02
498.32	26817.86
498.50	26382.52
498.67	26747.64
498.85	26934.88
499.03	27192.34
499.20	27126.81
499.38	27358.52
499.56	27676.83
499.73	27330.44
499.91	27218.09
500.08	27693.22
500.26	27611.30
500.44	27566.83
500.61	27831.31
500.79	27552.79
500.97	27583.21
501.14	28151.96
501.32	28198.77
501.49	28533.47
501.67	28088.77
501.84	28599.01
502.02	28531.13
502.20	28835.40
502.37	28690.29
502.55	28847.10
502.72	28919.66
502.90	29029.66
503.07	29109.24
503.25	29340.96
503.43	29193.50
503.60	29113.92
503.78	29355.00
503.95	29631.18
504.13	29610.12
504.30	29855.87
504.48	29619.48
504.65	29610.12
504.83	29965.88
505.01	30115.67
505.18	29853.53
505.36	30457.39
505.53	30637.61
505.71	30625.91
505.88	31138.49
506.06	30473.78
506.23	30806.13
506.41	30637.61
506.58	30749.96
506.76	30979.33
506.93	31351.48
507.11	31058.91
507.28	31435.74
507.46	31253.17
507.63	31005.08
507.81	31225.09
507.98	31344.45
508.16	31332.75
508.33	31456.80
508.50	32203.43
508.68	31798.52
508.85	32219.81
509.03	32224.50
509.20	32086.40
509.38	32299.39
509.55	32435.14
509.73	32477.27
509.90	32313.44
510.08	32957.08
510.25	32575.58
510.42	32514.72
510.60	32542.81
510.77	32877.51
510.95	33387.74
511.12	32788.56
511.30	33034.32
511.47	33619.46
511.64	33558.60
511.82	33631.16
511.99	33324.55
512.17	33605.41
512.34	33331.57
512.51	33668.61
512.69	33813.72
512.86	33972.88
513.04	34419.92
513.21	34375.45
513.38	33876.91
513.56	34188.21
513.73	33895.64
513.90	34031.39
514.08	34305.23
514.25	34565.03
514.43	34536.94
514.60	34497.16
514.77	34075.86
514.95	34660.99
515.12	34986.33
515.29	34979.31
515.47	35122.08
515.64	35171.23
515.81	35225.06
515.99	35108.04
516.16	34906.75
516.33	34780.36
516.51	34597.80
516.68	34391.83
516.85	34202.25
517.03	34855.26
517.20	34759.30
517.37	35501.25
517.54	35702.53
517.72	35639.34
517.89	35133.78
518.06	35257.83
518.24	35070.59
518.41	35564.44
518.58	35660.40
518.75	35597.21
518.93	36161.28
519.10	36114.47
519.27	36273.62
519.45	35934.24
519.62	36491.29
519.79	36575.55
519.96	36610.66
520.14	36746.41
520.31	36388.31
520.48	36783.86
520.65	36723.01
520.83	37120.90
521.00	37074.09
521.17	37013.23
521.34	37373.67
521.52	37261.33
521.69	37809.01
521.86	37570.28
522.03	37397.08
522.20	37801.99
522.38	37249.63
522.55	37930.72
522.72	37340.91
522.89	37699.01
523.07	38155.41
523.24	37689.65
523.41	38120.31
523.58	37993.92
523.75	38759.27
523.92	38394.15
524.10	38167.12
524.27	38466.70
524.44	38557.99
524.61	38827.15
524.78	38665.65
524.96	38754.59
525.13	38787.36
525.30	39180.57
525.47	39438.03
525.64	38569.69
525.81	38820.13
525.98	38827.15
526.16	38380.10
526.33	38567.35
526.50	39044.82
526.67	38731.18
526.84	39033.11
527.01	38548.62
527.18	39002.69
527.36	39225.04
527.53	39480.16
527.70	39751.66
527.87	39538.67
528.04	39304.62
528.21	39524.63
528.38	39618.25
528.55	40102.74
528.72	40215.08
528.89	40477.22
529.07	39770.38
529.24	39629.95
529.41	39868.69
529.58	40037.20
529.75	40437.44
529.92	40135.51
530.09	40477.22
530.26	40119.12
530.43	40533.40
530.60	40790.86
530.77	40573.19
530.94	40512.33
531.11	40704.26
531.28	41015.55
531.46	41132.57
531.63	40793.20
531.80	40720.64
531.97	40800.22
532.14	40645.74
532.31	40524.04
532.48	41008.53
532.65	40849.37
532.82	41017.89
532.99	41006.19
533.16	41015.55
533.33	41308.11
533.50	41247.26
533.67	41514.08
533.84	41172.36
534.01	41113.85
534.18	41326.84
534.35	41818.35
534.52	41422.80
534.69	41666.22
534.86	41944.74
535.03	41874.52
535.20	42031.34
535.37	41951.76
535.54	42082.83
535.71	42127.30
535.88	42029.00
536.05	41771.54
536.22	42026.66
536.38	42153.05
536.55	42181.13
536.72	41914.31
536.89	41897.93
537.06	42244.33
537.23	42157.73
537.40	42319.23
537.57	42354.33
537.74	42220.92
537.91	42974.58
538.08	42670.31
538.25	42401.14
538.42	42469.02
538.59	43037.77
538.75	42344.97
538.92	42494.77
539.09	42628.18
539.26	42632.86
539.43	42698.39
539.60	42454.98
539.77	42117.94
539.94	42663.28
540.11	42745.20
540.28	42560.30
540.44	42527.53
540.61	42471.36
540.78	43033.09
540.95	42801.38
541.12	42777.97
541.29	42412.85
541.46	42794.36
541.62	43030.75
541.79	43463.75
541.96	43065.86
542.13	43129.05
542.30	43442.68
542.47	43386.51
542.63	43482.47
542.80	43398.21
542.97	43735.25
543.14	44285.28
543.31	44250.17
543.48	43810.15
543.64	44648.06
543.81	44428.05
543.98	43948.24
544.15	44121.44
544.32	44526.35
544.48	44526.35
544.65	43761.00
544.82	44278.25
544.99	43529.28
545.16	44322.72
545.32	44076.97
545.49	44973.39
545.66	45071.70
545.83	44107.40
546.00	44603.59
546.16	44296.98
546.33	44619.97
546.50	44421.03
546.67	44914.88
546.83	44072.29
547.00	44535.71
547.17	44287.62
547.34	44753.38
547.50	44713.59
547.67	45052.97
547.84	44538.05
548.00	45132.55
548.17	45254.26
548.34	45167.66
548.51	44910.20
548.67	45155.96
548.84	45158.30
549.01	45258.94
549.18	45188.72
549.34	45205.11
549.51	45366.60
549.68	44947.65
549.84	44818.92
550.01	45420.44
550.18	45029.57
550.34	45167.66
550.51	45626.40
550.68	45413.41
550.84	44701.89
551.01	45198.09
551.18	45481.29
551.34	45045.95
551.51	45741.09
551.68	45591.30
551.84	45441.50
552.01	45705.98
552.18	45769.18
552.34	45488.31
552.51	45893.22
552.68	45619.38
552.84	46000.89
553.01	46007.91
553.18	45771.52
553.34	45689.60
553.51	45813.65
553.67	45471.93
553.84	46003.23
554.01	46230.26
554.17	46202.18
554.34	46216.22
554.51	46005.57
554.67	46398.78
554.84	45989.19
555.00	45820.67
555.17	46080.47
555.33	46342.61
555.50	46417.50
555.67	46007.91
555.83	46384.74
556.00	46094.51
556.16	46227.92
556.33	46162.39
556.50	46454.95
556.66	46539.21
556.83	46447.93
556.99	46209.20
557.16	46398.78
557.32	45928.33
557.49	46440.91
557.65	46068.76
557.82	46424.53
557.98	46075.79
558.15	46258.35
558.32	46726.46
558.48	46319.20
558.65	46508.79
558.81	46766.24
558.98	46560.28
559.14	45895.56
559.31	46443.25
559.47	46445.59
559.64	46726.46
559.80	46555.60
559.97	46724.11
560.13	46501.76
560.30	46745.18
560.46	46630.49
560.63	46700.71
560.79	46897.31
560.96	47000.30
561.12	46693.69
561.29	46426.87
561.45	46836.46
561.61	46698.37
561.78	47236.69
561.94	46520.49
562.11	46403.46
562.27	46820.08
562.44	46770.93
562.60	47201.58
562.77	46824.76
562.93	46962.85
563.10	46981.57
563.26	46660.92
563.42	47213.29
563.59	46696.03
563.75	46670.28
563.92	47295.21
564.08	47309.25
564.24	47056.47
564.41	47089.24
564.57	46841.14
564.74	47210.95
564.90	47114.98
565.07	47093.92
565.23	46703.05
565.39	46653.90
565.56	47412.23
565.72	46576.66
565.88	47243.71
566.05	47143.07
566.21	46363.67
566.38	47192.22
566.54	47119.66
566.70	47267.12
566.87	47737.57
567.03	47215.63
567.19	47531.60
567.36	47267.12
567.52	46953.49
567.68	47257.76
567.85	46663.26
568.01	46754.54
568.17	46756.88
568.34	47239.03
568.50	47276.48
568.66	47239.03
568.83	47421.59
568.99	47079.88
569.15	47143.07
569.32	46747.52
569.48	46939.44
569.64	47257.76
569.81	47353.72
569.97	46960.51
570.13	46927.74
570.30	46763.90
570.46	46574.32
570.62	46909.02
570.78	46756.88
570.95	47037.75
571.11	47260.10
571.27	47185.20
571.43	46988.60
571.60	47512.88
571.76	47224.99
571.92	46990.94
572.09	47208.61
572.25	47063.49
572.41	46932.42
572.57	47086.90
572.74	47964.60
572.90	47508.19
573.06	47763.31
573.22	47239.03
573.38	47723.52
573.55	47330.31
573.71	47379.46
573.87	47480.11
574.03	47372.44
574.20	47334.99
574.36	47217.97
574.52	47878.00
574.68	47440.32
574.84	47398.19
575.01	47356.06
575.17	47072.85
575.33	47292.86
575.49	47407.55
575.65	47442.66
575.82	47510.53
575.98	47332.65
576.14	47606.50
576.30	47583.09
576.46	47260.10
576.62	47363.08
576.79	47543.30
576.95	46787.31
577.11	47367.76
577.27	47112.64
577.43	47445.00
577.59	47105.62
577.75	46766.24
577.92	47103.28
578.08	47070.51
578.24	47302.23
578.40	47583.09
578.56	46909.02
578.72	47260.10
578.88	47323.29
579.04	47082.22
579.21	47224.99
579.37	47075.19
579.53	47222.65
579.69	47103.28
579.85	47550.32
580.01	47948.21
580.17	47379.46
580.33	47147.75
580.49	47370.10
580.65	47681.39
580.82	47847.57
580.98	47384.15
581.14	46939.44
581.30	47796.08
581.46	47086.90
581.62	47826.51
581.78	47339.68
581.94	47906.08
582.10	47391.17
582.26	47789.06
582.42	47615.86
582.58	47213.29
582.74	47416.91
582.90	47452.02
583.06	47714.16
583.22	47573.73
583.38	47482.45
583.54	47653.31
583.70	47510.53
583.86	47885.02
584.02	47098.60
584.18	47597.13
584.34	47913.11
584.50	48112.05
584.66	47220.31
584.82	47807.78
584.98	47597.13
585.14	47503.51
585.30	47461.38
585.46	47576.07
585.62	46979.23
585.78	47297.55
585.94	46969.87
586.10	47440.32
586.26	47426.28
586.42	47693.10
586.58	47430.96
586.74	47512.88
586.90	47629.90
587.06	47119.66
587.22	47665.01
587.38	47349.04
587.54	47693.10
587.70	47817.14
587.86	47625.22
588.02	47650.97
588.18	47578.41
588.34	47138.39
588.49	47152.43
588.65	47042.43
588.81	46791.99
588.97	46721.77
589.13	46637.51
589.29	47201.58
589.45	47304.57
589.61	47051.79
589.77	47547.98
