SpectraSuite Data File
++++++++++++++++++++++++++++++++++++
Date: Fri Oct 25 11:33:35 EDT 2013
User: price-jones
Dark Spectrum Present: No
Reference Spectrum Present: No
Number of Sampled Component Spectra: 1
Spectrometers: USB2+H05261
Integration Time (usec): 100000 (USB2+H05261)
Spectra Averaged: 1 (USB2+H05261)
Boxcar Smoothing: 0 (USB2+H05261)
Correct for Electrical Dark: No (USB2+H05261)
Strobe/Lamp Enabled: No (USB2+H05261)
Correct for Detector Non-linearity: No (USB2+H05261)
Correct for Stray Light: No (USB2+H05261)
Number of Pixels in Processed Spectrum: 2048
>>>>>Begin Processed Spectral Data<<<<<
365.73	325.33
365.92	325.33
366.12	325.33
366.32	166.18
366.52	173.20
366.72	212.99
366.91	154.48
367.11	203.63
367.31	203.63
367.51	182.56
367.70	154.48
367.90	182.56
368.10	154.48
368.30	227.03
368.49	229.37
368.69	201.29
368.89	191.92
369.09	138.09
369.28	227.03
369.48	184.90
369.68	147.45
369.87	196.60
370.07	215.33
370.27	346.40
370.47	348.74
370.66	524.28
370.86	503.22
371.06	540.66
371.25	514.92
371.45	533.64
371.65	554.71
371.84	573.43
372.04	587.47
372.24	596.84
372.44	580.45
372.63	568.75
372.83	603.86
373.03	606.20
373.22	648.33
373.42	617.90
373.62	702.16
373.81	592.16
374.01	699.82
374.21	613.22
374.40	685.78
374.60	753.65
374.79	655.35
374.99	653.01
375.19	657.69
375.38	706.84
375.58	669.39
375.78	557.05
375.97	669.39
376.17	788.76
376.37	641.31
376.56	713.86
376.76	662.37
376.95	676.41
377.15	674.07
377.35	713.86
377.54	657.69
377.74	648.33
377.93	638.97
378.13	688.12
378.33	770.04
378.52	730.25
378.72	667.05
378.91	697.48
379.11	732.59
379.31	734.93
379.50	788.76
379.70	777.06
379.89	683.44
380.09	671.73
380.28	777.06
380.48	699.82
380.68	699.82
380.87	727.91
381.07	784.08
381.26	819.19
381.46	716.20
381.65	674.07
381.85	713.86
382.04	840.25
382.24	781.74
382.43	807.48
382.63	791.10
382.83	795.78
383.02	791.10
383.22	812.17
383.41	898.77
383.61	856.64
383.80	800.46
384.00	849.61
384.19	763.01
384.39	816.85
384.58	823.87
384.78	823.87
384.97	896.43
385.17	760.67
385.36	858.98
385.56	800.46
385.75	828.55
385.95	877.70
386.14	854.30
386.34	760.67
386.53	856.64
386.72	837.91
386.92	891.74
387.11	851.96
387.31	861.32
387.50	877.70
387.70	908.13
387.89	945.58
388.09	931.53
388.28	961.96
388.48	943.24
388.67	943.24
388.86	954.94
389.06	999.41
389.25	938.55
389.45	978.34
389.64	901.11
389.84	999.41
390.03	973.66
390.22	985.37
390.42	1006.43
390.61	931.53
390.81	950.26
391.00	938.55
391.19	994.73
391.39	1039.20
391.58	978.34
391.78	1008.77
391.97	1048.56
392.16	1015.79
392.36	1039.20
392.55	1100.05
392.75	1130.48
392.94	987.71
393.13	1029.84
393.33	1153.88
393.52	1020.47
393.71	1114.10
393.91	1025.15
394.10	1008.77
394.29	1179.63
394.49	1039.20
394.68	1069.62
394.88	1156.22
395.07	1137.50
395.26	1128.14
395.46	1097.71
395.65	1090.69
395.84	1200.69
396.04	1249.85
396.23	1203.04
396.42	1308.36
396.62	1263.89
396.81	1224.10
397.00	1287.29
397.19	1235.80
397.39	1238.14
397.58	1270.91
397.77	1163.25
397.97	1228.78
398.16	1203.04
398.35	1350.49
398.55	1273.25
398.74	1376.24
398.93	1172.61
399.12	1343.47
399.32	1261.55
399.51	1266.23
399.70	1380.92
399.90	1350.49
400.09	1341.13
400.28	1455.81
400.47	1383.26
400.67	1462.83
400.86	1327.08
401.05	1369.21
401.24	1378.58
401.44	1446.45
401.63	1413.68
401.82	1490.92
402.01	1479.22
402.21	1479.22
402.40	1565.82
402.59	1568.16
402.78	1507.30
402.97	1509.65
403.17	1568.16
403.36	1535.39
403.55	1497.94
403.74	1612.63
403.93	1584.54
404.13	1659.44
404.32	1643.06
404.51	1643.06
404.70	1659.44
404.89	1582.20
405.09	1633.69
405.28	1696.89
405.47	1687.53
405.66	1661.78
405.85	1717.95
406.05	1589.22
406.24	1839.66
406.43	1755.40
406.62	1816.26
406.81	1694.55
407.00	1818.60
407.20	1715.61
407.39	1734.34
407.58	1792.85
407.77	1769.44
407.96	1849.02
408.15	1856.04
408.34	1872.43
408.54	1928.60
408.73	1949.67
408.92	1919.24
409.11	1844.34
409.30	1947.33
409.49	1926.26
409.68	1858.39
409.87	1966.05
410.07	2038.61
410.26	2008.18
410.45	2019.88
410.64	2104.14
410.83	2092.44
411.02	2242.23
411.21	2202.44
411.40	2136.91
411.59	2235.21
411.78	2216.49
411.98	2338.20
412.17	2218.83
412.36	2282.02
412.55	2331.17
412.74	2361.60
412.93	2359.26
413.12	2457.56
413.31	2434.16
413.50	2305.43
413.69	2394.37
413.88	2478.63
414.07	2523.10
414.26	2431.82
414.45	2509.05
414.64	2530.12
414.83	2607.36
415.02	2537.14
415.22	2600.34
415.41	2761.83
415.60	2574.59
415.79	2736.09
415.98	2761.83
416.17	2775.88
416.36	2726.72
416.55	2757.15
416.74	2775.88
416.93	2782.90
417.12	2850.77
417.31	2916.31
417.50	2827.37
417.69	2949.08
417.88	2827.37
418.07	2787.58
418.26	3108.23
418.45	2909.29
418.64	3117.59
418.83	3042.70
419.02	3016.95
419.21	3030.99
419.39	3080.14
419.58	3159.72
419.77	3176.11
419.96	3197.17
420.15	3178.45
420.34	3176.11
420.53	3096.53
420.72	3222.92
420.91	3229.94
421.10	3346.97
421.29	3236.96
421.48	3180.79
421.67	3258.03
421.86	3136.32
422.05	3220.58
422.24	3302.50
422.43	3442.93
422.61	3368.03
422.80	3426.54
422.99	3330.58
423.18	3314.20
423.37	3510.80
423.56	3417.18
423.75	3361.01
423.94	3272.07
424.13	3211.22
424.32	3342.28
424.50	3412.50
424.69	3527.19
424.88	3407.82
425.07	3456.97
425.26	3421.86
425.45	3337.60
425.64	3440.59
425.83	3522.51
426.01	3361.01
426.20	3566.98
426.39	3424.20
426.58	3431.23
426.77	3538.89
426.96	3459.31
427.15	3552.93
427.33	3595.06
427.52	3669.96
427.71	3655.92
427.90	3634.85
428.09	3758.90
428.28	3686.34
428.46	3705.07
428.65	3744.86
428.84	3747.20
429.03	3779.97
429.22	3796.35
429.40	3674.64
429.59	3826.78
429.78	3581.02
429.97	3611.45
430.16	3784.65
430.34	3805.71
430.53	3810.39
430.72	3887.63
430.91	3885.29
431.10	3847.84
431.28	3889.97
431.47	4021.04
431.66	3978.91
431.85	3934.44
432.03	3981.25
432.22	4177.86
432.41	4114.66
432.60	4063.17
432.79	4011.68
432.97	4138.07
433.16	4025.72
433.35	4032.74
433.54	4133.39
433.72	4234.03
433.91	4067.85
434.10	4217.65
434.28	4124.02
434.47	4194.24
434.66	4266.80
434.85	4318.29
435.03	4393.19
435.22	4205.94
435.41	4456.38
435.59	4341.69
435.78	4503.19
435.97	4311.27
436.16	4491.49
436.34	4362.76
436.53	4491.49
436.72	4447.02
436.90	4442.34
437.09	4500.85
437.28	4414.25
437.46	4596.81
437.65	4461.06
437.84	4568.73
438.02	4695.11
438.21	4587.45
438.40	4636.60
438.58	4652.98
438.77	4882.36
438.96	4748.95
439.14	4863.63
439.33	4929.17
439.52	5011.09
439.70	4975.98
439.89	5015.77
440.08	5048.54
440.26	5041.51
440.45	4922.15
440.63	5076.62
440.82	5151.52
441.01	5212.37
441.19	5198.33
441.38	5226.42
441.57	5130.45
441.75	5184.29
441.94	5338.76
442.12	5451.11
442.31	5427.70
442.50	5462.81
442.68	5247.48
442.87	5497.92
443.05	5544.73
443.24	5575.16
443.43	5521.32
443.61	5607.92
443.80	5647.71
443.98	5427.70
444.17	5282.59
444.35	5544.73
444.54	5664.10
444.73	5682.82
444.91	5717.93
445.10	5596.22
445.28	5671.12
445.47	5654.73
445.65	5589.20
445.84	5673.46
446.02	5596.22
446.21	5591.54
446.39	5659.42
446.58	5727.29
446.77	5804.53
446.95	5514.30
447.14	5703.89
447.32	5783.46
447.51	5799.85
447.69	5736.65
447.88	5867.72
448.06	5727.29
448.25	5783.46
448.43	5748.36
448.62	5940.28
448.80	5778.78
448.99	5806.87
449.17	6052.63
449.36	5849.00
449.54	5987.09
449.73	5895.81
449.91	6036.24
450.10	6029.22
450.28	6174.33
450.46	6033.90
450.65	6097.10
450.83	6230.51
451.02	6223.48
451.20	6235.19
451.39	6122.84
451.57	6160.29
451.76	6183.70
451.94	6314.77
452.13	6253.91
452.31	6162.63
452.49	6200.08
452.68	6258.59
452.86	6370.94
453.05	6338.17
453.23	6443.49
453.42	6363.92
453.60	6338.17
453.78	6403.71
453.97	6504.35
454.15	6328.81
454.34	6530.09
454.52	6457.54
454.70	6487.96
454.89	6394.34
455.07	6497.33
455.26	6715.00
455.44	6829.68
455.62	6494.99
455.81	6670.53
455.99	6738.40
456.17	6595.63
456.36	6799.26
456.54	6857.77
456.73	6920.96
456.91	6965.43
457.09	6995.86
457.28	7056.72
457.46	6801.60
457.64	7098.84
457.83	7030.97
458.01	7037.99
458.19	7337.58
458.38	7148.00
458.56	7112.89
458.74	7108.21
458.93	7190.13
459.11	7248.64
459.29	7304.81
459.48	7152.68
459.66	7368.01
459.84	7428.86
460.03	7463.97
460.21	7426.52
460.39	7386.73
460.57	7365.67
460.76	7459.29
460.94	7660.57
461.12	7681.64
461.31	7356.30
461.49	7564.61
461.67	7489.71
461.85	7688.66
462.04	7487.37
462.22	8116.98
462.40	7772.92
462.59	7831.43
462.77	7707.38
462.95	7948.46
463.13	7801.01
463.32	7665.25
463.50	7927.39
463.68	7747.17
463.86	7875.90
464.05	7826.75
464.23	7847.82
464.41	7901.65
464.59	7674.62
464.78	8241.03
464.96	8072.51
465.14	7990.59
465.32	8124.00
465.50	8152.09
465.69	8191.88
465.87	8290.18
466.05	8154.43
466.23	8109.96
466.41	8149.75
466.60	8414.23
466.78	8138.04
466.96	8140.38
467.14	8252.73
467.32	8231.66
467.51	8360.39
467.69	8339.33
467.87	8339.33
468.05	8580.40
468.23	8325.29
468.41	8313.58
468.60	8393.16
468.78	8594.45
468.96	8269.11
469.14	8716.16
469.32	8559.34
469.50	8468.06
469.69	8643.60
469.87	8655.30
470.05	8718.50
470.23	8793.39
470.41	8777.01
470.59	8753.60
470.77	8793.39
470.95	8837.86
471.14	9160.86
471.32	9064.89
471.50	8889.35
471.68	9100.00
471.86	9139.79
472.04	9235.75
472.22	9331.72
472.40	9114.05
472.58	9039.15
472.77	9392.57
472.95	9451.08
473.13	9607.90
473.31	9345.76
473.49	9472.15
473.67	9584.49
473.85	9490.87
474.03	9549.39
474.21	9593.86
474.39	9745.99
474.57	9530.66
474.75	10010.47
474.93	10143.88
475.12	10026.86
475.30	10031.54
475.48	10040.90
475.66	10022.17
475.84	10122.82
476.02	10146.22
476.20	10281.97
476.38	10516.03
476.56	10583.90
476.74	10581.56
476.92	10548.79
477.10	10499.64
477.28	10651.78
477.46	10684.55
477.64	10864.77
477.82	10707.95
478.00	11267.34
478.18	11098.82
478.36	11190.10
478.54	11367.98
478.72	11309.47
478.90	11604.38
479.08	11609.06
479.26	11644.17
479.44	11655.87
479.62	11756.51
479.80	11892.26
479.98	12081.85
480.16	12306.54
480.34	12138.02
480.52	12156.74
480.70	12528.89
480.88	12233.98
481.06	12388.46
481.24	12430.59
481.41	12442.29
481.59	12786.35
481.77	12800.39
481.95	13008.70
482.13	12837.84
482.31	13118.70
482.49	13392.55
482.67	13121.04
482.85	13453.40
483.03	13635.96
483.21	13577.45
483.39	13905.12
483.57	13591.49
483.74	13862.99
483.92	14071.30
484.10	13870.01
484.28	14242.16
484.46	14651.75
484.64	14759.42
484.82	14555.79
485.00	14801.55
485.18	15051.99
485.35	15169.01
485.53	15002.83
485.71	14679.84
485.89	15339.87
486.07	15286.04
486.25	15529.45
486.43	15733.08
486.61	15791.59
486.78	15819.68
486.96	15831.38
487.14	16231.62
487.32	16236.30
487.50	16477.37
487.68	16397.79
487.85	16322.90
488.03	16802.71
488.21	16924.41
488.39	16793.34
488.57	17341.03
488.75	17308.26
488.92	17467.42
489.10	17362.09
489.28	17881.69
489.46	17858.29
489.64	17872.33
489.81	18111.07
489.99	18195.32
490.17	18211.71
490.35	18438.74
490.53	18541.72
490.70	18663.43
490.88	18473.85
491.06	18710.24
491.24	18993.45
491.41	18939.62
491.59	19290.70
491.77	19222.82
491.95	19428.79
492.13	19545.81
492.30	19704.97
492.48	19917.96
492.66	19903.92
492.84	19721.35
493.01	20269.04
493.19	19946.05
493.37	20690.34
493.54	20531.18
493.72	20732.47
493.90	20774.60
494.08	20486.71
494.25	20985.24
494.43	21158.44
494.61	21263.77
494.79	21064.82
494.96	21043.76
495.14	21387.82
495.32	21912.10
495.49	21682.72
495.67	21907.41
495.85	22024.44
496.02	21935.50
496.20	22382.54
496.38	22469.14
496.55	22525.32
496.73	22902.14
496.91	22843.63
497.09	23147.90
497.26	23250.88
497.44	22838.95
497.62	22998.10
497.79	23419.40
497.97	23335.14
498.14	23250.88
498.32	23709.63
498.50	23754.10
498.67	23639.41
498.85	23971.77
499.03	23924.96
499.20	24063.05
499.38	24135.60
499.56	24554.56
499.73	24364.98
499.91	24252.63
500.08	24929.05
500.26	24301.78
500.44	24683.29
500.61	24694.99
500.79	24968.84
500.97	25238.00
501.14	25312.89
501.32	25584.40
501.49	25369.07
501.67	25450.99
501.84	25572.69
502.02	25539.93
502.20	25376.09
502.37	25617.16
502.55	25607.80
502.72	26462.10
502.90	25462.69
503.07	25984.63
503.25	25811.43
503.43	26085.27
503.60	26230.38
503.78	26499.55
503.95	26359.11
504.13	26422.31
504.30	26621.25
504.48	26466.78
504.65	26862.33
504.83	26859.99
505.01	27211.07
505.18	26955.95
505.36	27257.88
505.53	27330.44
505.71	27262.56
505.88	27520.02
506.06	27491.93
506.23	27473.21
506.41	27424.06
506.58	27704.92
506.76	27906.21
506.93	28261.97
507.11	27810.25
507.28	28236.22
507.46	28105.15
507.63	28053.66
507.81	28350.91
507.98	28119.20
508.16	28606.03
508.33	28634.11
508.50	28416.44
508.68	28535.81
508.85	28854.12
509.03	29102.22
509.20	29177.12
509.38	29256.70
509.55	29120.95
509.73	29312.87
509.90	29064.77
510.08	29523.52
510.25	29565.65
510.42	29743.53
510.60	29734.17
510.77	29685.01
510.95	30216.32
511.12	29518.84
511.30	29820.77
511.47	30183.55
511.64	30370.79
511.82	30445.69
511.99	30389.52
512.17	30249.08
512.34	30120.35
512.51	30881.03
512.69	30838.90
512.86	30576.76
513.04	31199.34
513.21	30752.30
513.38	31072.95
513.56	31061.25
513.73	30885.71
513.90	31154.87
514.08	31288.28
514.25	31545.74
514.43	31637.02
514.60	31515.31
514.77	31218.07
514.95	31592.55
515.12	31765.75
515.29	31498.93
515.47	32098.11
515.64	32196.41
515.81	31945.97
515.99	32233.86
516.16	32088.74
516.33	32449.19
516.51	32385.99
516.68	32233.86
516.85	32617.71
517.03	32879.85
517.20	32629.41
517.37	32964.10
517.54	32844.74
517.72	33153.69
517.89	32772.18
518.06	32865.80
518.24	33060.07
518.41	32987.51
518.58	33230.93
518.75	32910.27
518.93	33383.06
519.10	33034.32
519.27	33448.60
519.45	33701.37
519.62	33897.98
519.79	33376.04
519.96	33586.69
520.14	33453.28
520.31	33607.75
520.48	33914.36
520.65	34288.85
520.83	34113.31
521.00	34108.63
521.17	34082.88
521.34	34047.77
521.52	34429.28
521.69	34588.44
521.86	34749.93
522.03	34829.51
522.20	35093.99
522.38	35281.24
522.55	34834.19
522.72	35042.50
522.89	35232.08
523.07	35526.99
523.24	35007.39
523.41	35534.01
523.58	34981.65
523.75	35601.89
523.92	35054.20
524.10	35796.15
524.27	35854.67
524.44	35681.47
524.61	35782.11
524.78	35606.57
524.96	35969.35
525.13	35910.84
525.30	36039.57
525.47	36058.29
525.64	36238.51
525.81	35948.29
525.98	36601.30
526.16	36016.16
526.33	36446.82
526.50	36851.73
526.67	36086.38
526.84	36641.09
527.01	36690.24
527.18	36790.88
527.36	36907.91
527.53	37053.02
527.70	37043.66
527.87	37036.64
528.04	37123.24
528.21	36924.29
528.38	36982.80
528.55	37226.22
528.72	37212.18
528.89	37050.68
529.07	37214.52
529.24	36957.06
529.41	37574.96
529.58	37373.67
529.75	37212.18
529.92	37984.55
530.09	37720.07
530.26	37736.46
530.43	37881.57
530.60	37490.70
530.77	38000.94
530.94	37605.39
531.11	37872.21
531.28	37818.38
531.46	38242.01
531.63	37954.13
531.80	38499.47
531.97	38321.59
532.14	38398.83
532.31	38232.65
532.48	38382.45
532.65	38717.14
532.82	38462.02
532.99	38670.33
533.16	38227.97
533.33	38565.01
533.50	38548.62
533.67	38754.59
533.84	38366.06
534.01	39082.27
534.18	38443.30
534.35	39253.12
534.52	38941.83
534.69	39182.91
534.86	39433.35
535.03	38932.47
535.20	39412.28
535.37	39414.62
535.54	39049.50
535.71	39622.93
535.88	39756.34
536.05	39564.42
536.22	39966.99
536.38	39615.91
536.55	39531.65
536.72	39896.77
536.89	39812.51
537.06	40526.38
537.23	40444.46
537.40	39875.71
537.57	39831.24
537.74	40170.61
537.91	40514.67
538.08	39824.22
538.25	40233.81
538.42	40304.02
538.59	40247.85
538.75	39859.32
538.92	41010.87
539.09	39981.03
539.26	40488.93
539.43	40306.37
539.60	40708.94
539.77	40566.16
539.94	40830.65
540.11	40563.82
540.28	40561.48
540.44	40587.23
540.61	40350.84
540.78	40439.78
540.95	40893.84
541.12	40713.62
541.29	40746.39
541.46	40783.83
541.62	41226.20
541.79	41518.76
541.96	41031.93
542.13	40755.75
542.30	41397.06
542.47	41287.05
542.63	41729.41
542.80	41670.90
542.97	41539.83
543.14	42064.11
543.31	41914.31
543.48	41701.32
543.64	42103.90
543.81	42150.71
543.98	41713.03
544.15	41844.10
544.32	42450.30
544.48	42572.00
544.65	42024.32
544.82	42171.77
544.99	42106.24
545.16	42253.69
545.32	42234.97
545.49	42906.70
545.66	42759.25
545.83	42824.78
546.00	42469.02
546.16	42597.75
546.33	42131.98
546.50	42635.20
546.67	42834.14
546.83	42321.57
547.00	42361.36
547.17	42969.90
547.34	42918.40
547.50	43323.32
547.67	43346.72
547.84	42667.97
548.00	43405.23
548.17	42897.34
548.34	43295.23
548.51	42810.74
548.67	43367.79
548.84	42822.44
549.01	43026.07
549.18	43220.33
549.34	43154.80
549.51	43758.66
549.68	43374.81
549.84	43180.54
550.01	43367.79
550.18	43505.88
550.34	43559.71
550.51	43936.54
550.68	43737.59
550.84	43594.82
551.01	43985.69
551.18	43599.50
551.34	43494.18
551.51	43938.88
551.68	43849.94
551.84	43885.04
552.01	43702.48
552.18	43761.00
552.34	43676.74
552.51	44065.27
552.68	44182.29
552.84	43782.06
553.01	44210.38
553.18	43463.75
553.34	44453.79
553.51	43758.66
553.67	44322.72
553.84	44224.42
554.01	44634.02
554.17	44849.35
554.34	44435.07
554.51	44575.50
554.67	44601.25
554.84	44524.01
555.00	44371.88
555.17	44437.41
555.33	44966.37
555.50	44737.00
555.67	44858.71
555.83	44172.93
556.00	44790.83
556.16	45125.53
556.33	44957.01
556.50	44949.99
556.66	44715.93
556.83	44725.30
556.99	45170.00
557.16	44811.90
557.32	44949.99
557.49	45031.91
557.65	45074.04
557.82	45181.70
557.98	45338.52
558.15	44903.18
558.32	44938.29
558.48	45193.40
558.65	44903.18
558.81	45296.39
558.98	45162.98
559.14	45289.37
559.31	45345.54
559.47	45191.06
559.64	45301.07
559.80	45387.67
559.97	45595.98
560.13	45539.80
560.30	45078.72
560.46	45764.49
560.63	45530.44
560.79	45219.15
560.96	45500.01
561.12	45722.37
561.29	45720.02
561.45	45958.76
561.61	45640.45
561.78	45755.13
561.94	45804.28
562.11	45640.45
562.27	45813.65
562.44	45523.42
562.60	46307.50
562.77	45588.95
562.93	45523.42
563.10	46073.45
563.26	45862.80
563.42	46452.61
563.59	45851.09
563.75	45617.04
563.92	45766.84
564.08	45766.84
564.24	46440.91
564.41	45766.84
564.57	46033.66
564.74	46127.28
564.90	45949.40
565.07	46010.25
565.23	45942.38
565.39	46092.17
565.56	46099.19
565.72	45815.99
565.88	45792.58
566.05	46396.44
566.21	46106.21
566.38	45815.99
566.54	46127.28
566.70	46366.01
566.87	46134.30
567.03	46014.93
567.19	46546.23
567.36	46405.80
567.52	46595.38
567.68	46677.30
567.85	46487.72
568.01	46663.26
568.17	46579.00
568.34	46363.67
568.50	46686.67
568.66	46616.45
568.83	46454.95
568.99	46138.98
569.15	46499.42
569.32	46340.27
569.48	46307.50
569.64	47065.83
569.81	46506.44
569.97	46806.03
570.13	46705.39
570.30	46752.20
570.46	46871.57
570.62	46724.11
570.78	46796.67
570.95	46651.56
571.11	47002.64
571.27	46780.29
571.43	46279.41
571.60	46646.88
571.76	46607.09
571.92	46429.21
572.09	47021.36
572.25	46995.62
572.41	46410.48
572.57	47129.03
572.74	47210.95
572.90	46564.96
573.06	47068.17
573.22	47037.75
573.38	46979.23
573.55	46930.08
573.71	46796.67
573.87	47070.51
574.03	46670.28
574.20	47096.26
574.36	47182.86
574.52	46829.44
574.68	47110.30
574.84	47021.36
575.01	47398.19
575.17	47173.50
575.33	47084.56
575.49	46941.78
575.65	47224.99
575.82	47173.50
575.98	46871.57
576.14	46918.38
576.30	47423.93
576.46	46852.84
576.62	46885.61
576.79	47189.88
576.95	46937.10
577.11	46777.95
577.27	47349.04
577.43	46789.65
577.59	46951.15
577.75	46902.00
577.92	46691.35
578.08	46873.91
578.24	46902.00
578.40	46925.40
578.56	47288.18
578.72	46700.71
578.88	47412.23
579.04	47199.24
579.21	47136.05
579.37	46752.20
579.53	47700.12
579.69	47084.56
579.85	46639.86
580.01	47143.07
580.17	46948.81
580.33	47304.57
580.49	46972.21
580.65	47278.82
580.82	46820.08
580.98	46962.85
581.14	46869.23
581.30	47140.73
581.46	47119.66
581.62	47152.43
581.78	47154.77
581.94	47215.63
582.10	46679.64
582.26	47391.17
582.42	46871.57
582.58	47129.03
582.74	47793.74
582.90	47250.74
583.06	47585.43
583.22	46721.77
583.38	47166.48
583.54	47199.24
583.70	47210.95
583.86	47283.50
584.02	47342.02
584.18	47709.48
584.34	47821.83
584.50	47381.80
584.66	47463.72
584.82	47082.22
584.98	47840.55
585.14	47515.22
585.30	47241.37
585.46	47227.33
585.62	47393.51
585.78	47636.92
585.94	47016.68
586.10	47091.58
586.26	47042.43
586.42	47152.43
586.58	47639.26
586.74	47030.72
586.90	47365.42
587.06	47594.79
587.22	47461.38
587.38	47360.74
587.54	47346.70
587.70	47873.32
587.86	47686.07
588.02	47105.62
588.18	47604.16
588.34	47215.63
588.49	47849.91
588.65	47409.89
588.81	47332.65
588.97	47583.09
589.13	47758.63
589.29	47236.69
589.45	47964.60
589.61	47641.60
589.77	47997.37
589.93	47627.56
