SpectraSuite Data File
++++++++++++++++++++++++++++++++++++
Date: Fri Oct 25 11:23:52 EDT 2013
User: price-jones
Dark Spectrum Present: No
Reference Spectrum Present: No
Number of Sampled Component Spectra: 1
Spectrometers: USB2+H05261
Integration Time (usec): 100000 (USB2+H05261)
Spectra Averaged: 1 (USB2+H05261)
Boxcar Smoothing: 0 (USB2+H05261)
Correct for Electrical Dark: No (USB2+H05261)
Strobe/Lamp Enabled: No (USB2+H05261)
Correct for Detector Non-linearity: No (USB2+H05261)
Correct for Stray Light: No (USB2+H05261)
Number of Pixels in Processed Spectrum: 2048
>>>>>Begin Processed Spectral Data<<<<<
365.73	264.48
365.92	264.48
366.12	264.48
366.32	110.01
366.52	133.41
366.72	124.05
366.91	145.11
367.11	128.73
367.31	140.43
367.51	114.69
367.70	163.84
367.90	131.07
368.10	112.35
368.30	91.28
368.49	60.85
368.69	168.52
368.89	124.05
369.09	142.77
369.28	147.45
369.48	198.95
369.68	166.18
369.87	145.11
370.07	163.84
370.27	180.22
370.47	297.25
370.66	610.88
370.86	617.90
371.06	681.10
371.25	681.10
371.45	720.88
371.65	678.76
371.84	650.67
372.04	638.97
372.24	676.41
372.44	681.10
372.63	751.31
372.83	683.44
373.03	727.91
373.22	777.06
373.42	739.61
373.62	788.76
373.81	821.53
374.01	837.91
374.21	854.30
374.40	793.44
374.60	734.93
374.79	809.83
374.99	763.01
375.19	816.85
375.38	809.83
375.58	805.14
375.78	901.11
375.97	894.08
376.17	889.40
376.37	823.87
376.56	858.98
376.76	880.04
376.95	875.36
377.15	873.02
377.35	849.61
377.54	912.81
377.74	889.40
377.93	945.58
378.13	929.19
378.33	851.96
378.52	961.96
378.72	945.58
378.91	985.37
379.11	978.34
379.31	961.96
379.50	894.08
379.70	933.87
379.89	1015.79
380.09	959.62
380.28	1004.09
380.48	978.34
380.68	1053.24
380.87	943.24
381.07	1043.88
381.26	1118.78
381.46	1013.45
381.65	1018.13
381.85	1006.43
382.04	978.34
382.24	964.30
382.43	1011.11
382.63	1001.75
382.83	1018.13
383.02	1107.07
383.22	1062.60
383.41	1001.75
383.61	1116.44
383.80	1081.33
384.00	1160.91
384.19	1076.65
384.39	1158.57
384.58	1135.16
384.78	1186.65
384.97	1151.54
385.17	1114.10
385.36	1205.38
385.56	1165.59
385.75	1193.67
385.95	1132.82
386.14	1203.04
386.34	1263.89
386.53	1181.97
386.72	1214.74
386.92	1214.74
387.11	1114.10
387.31	1245.16
387.50	1193.67
387.70	1376.24
387.89	1291.98
388.09	1252.19
388.28	1320.06
388.48	1259.21
388.67	1425.39
388.86	1287.29
389.06	1313.04
389.25	1338.79
389.45	1343.47
389.64	1282.61
389.84	1380.92
390.03	1357.51
390.22	1394.96
390.42	1434.75
390.61	1336.45
390.81	1387.94
391.00	1390.28
391.19	1441.77
391.39	1411.34
391.58	1404.32
391.78	1416.02
391.97	1458.15
392.16	1432.41
392.36	1502.62
392.55	1488.58
392.75	1540.07
392.94	1565.82
393.13	1509.65
393.33	1432.41
393.52	1523.69
393.71	1563.48
393.91	1584.54
394.10	1603.27
394.29	1636.03
394.49	1614.97
394.68	1577.52
394.88	1678.16
395.07	1598.59
395.26	1685.19
395.46	1724.97
395.65	1764.76
395.84	1739.02
396.04	1748.38
396.23	1743.70
396.42	1708.59
396.62	1792.85
396.81	1771.79
397.00	1867.75
397.19	1846.68
397.39	1820.94
397.58	1827.96
397.77	1713.27
397.97	1813.92
398.16	1863.07
398.35	1952.01
398.55	1842.00
398.74	1881.79
398.93	1844.34
399.12	1923.92
399.32	1923.92
399.51	1982.43
399.70	2017.54
399.90	1944.99
400.09	2038.61
400.28	1984.77
400.47	2040.95
400.67	2076.06
400.86	2118.18
401.05	2073.71
401.24	2172.02
401.44	2176.70
401.63	1977.75
401.82	2176.70
402.01	2148.61
402.21	2010.52
402.40	2157.97
402.59	2127.55
402.78	2153.29
402.97	2176.70
403.17	2307.77
403.36	2267.98
403.55	2237.55
403.74	2349.90
403.93	2459.90
404.13	2352.24
404.32	2363.94
404.51	2385.01
404.70	2340.54
404.89	2410.75
405.09	2387.35
405.28	2492.67
405.47	2539.48
405.66	2406.07
405.85	2567.57
406.05	2539.48
406.24	2565.23
406.43	2506.71
406.62	2595.65
406.81	2691.62
407.00	2677.57
407.20	2567.57
407.39	2590.97
407.58	2764.17
407.77	2731.41
407.96	2677.57
408.15	2773.53
408.34	2637.78
408.54	2801.62
408.73	2703.32
408.92	2708.00
409.11	2857.79
409.30	2871.84
409.49	2946.73
409.68	2925.67
409.87	2878.86
410.07	2995.89
410.26	2902.26
410.45	2949.08
410.64	3007.59
410.83	3005.25
411.02	3082.49
411.21	3187.81
411.40	3129.30
411.59	3229.94
411.78	3178.45
411.98	3185.47
412.17	3267.39
412.36	3466.33
412.55	3382.07
412.74	3461.65
412.93	3302.50
413.12	3309.52
413.31	3536.55
413.50	3571.66
413.69	3445.27
413.88	3583.36
414.07	3609.11
414.26	3632.51
414.45	3644.21
414.64	3557.61
414.83	3730.81
415.02	3779.97
415.22	3770.60
415.41	3838.48
415.60	3943.80
415.79	3808.05
415.98	4042.11
416.17	3981.25
416.36	3894.65
416.55	3918.06
416.74	4128.70
416.93	4135.73
417.12	4102.96
417.31	4159.13
417.50	4091.26
417.69	4238.71
417.88	4311.27
418.07	4234.03
418.26	4386.16
418.45	4486.81
418.64	4472.76
418.83	4472.76
419.02	4444.68
419.21	4615.54
419.39	4528.94
419.58	4507.87
419.77	4346.37
419.96	4561.70
420.15	4685.75
420.34	4648.30
420.53	4636.60
420.72	4620.22
420.91	4592.13
421.10	4774.69
421.29	4755.97
421.48	4772.35
421.67	4791.08
421.86	4863.63
422.05	4833.21
422.24	4748.95
422.43	4865.97
422.61	4957.25
422.80	4992.36
422.99	4990.02
423.18	4947.89
423.37	4922.15
423.56	5078.96
423.75	4882.36
423.94	4891.72
424.13	4727.88
424.32	4645.96
424.50	5022.79
424.69	5277.91
424.88	5195.99
425.07	4966.62
425.26	4861.29
425.45	5050.88
425.64	4903.42
425.83	4975.98
426.01	5137.48
426.20	5018.11
426.39	5174.92
426.58	5018.11
426.77	5078.96
426.96	5336.42
427.15	5107.05
427.33	5123.43
427.52	5303.65
427.71	5303.65
427.90	5228.76
428.09	5308.34
428.28	5401.96
428.46	5383.23
428.65	5376.21
428.84	5533.03
429.03	5535.37
429.22	5401.96
429.40	5439.40
429.59	5479.19
429.78	5362.17
429.97	5294.29
430.16	5544.73
430.34	5694.52
430.53	5624.31
430.72	5715.59
430.91	5710.91
431.10	5612.60
431.28	5792.83
431.47	5797.51
431.66	5874.74
431.85	5799.85
432.03	5921.56
432.22	5959.00
432.41	5776.44
432.60	6015.18
432.79	6115.82
432.97	6010.50
433.16	6104.12
433.35	6092.41
433.54	6190.72
433.72	6080.71
433.91	6186.04
434.10	6136.88
434.28	6270.30
434.47	6244.55
434.66	6160.29
434.85	6242.21
435.03	6387.32
435.22	6258.59
435.41	6462.22
435.59	6579.25
435.78	6502.01
435.97	6333.49
436.16	6384.98
436.34	6640.10
436.53	6509.03
436.72	6752.45
436.90	6443.49
437.09	6752.45
437.28	6560.52
437.46	6677.55
437.65	6803.94
437.84	6773.51
438.02	6801.60
438.21	6836.70
438.40	6616.69
438.58	6871.81
438.77	7140.97
438.96	7012.24
439.14	7030.97
439.33	7183.10
439.52	7129.27
439.70	7143.32
439.89	7363.33
440.08	7283.75
440.26	7585.68
440.45	7400.77
440.63	7609.08
440.82	7658.23
441.01	7548.23
441.19	7648.87
441.38	7665.25
441.57	7630.15
441.75	7702.70
441.94	8084.21
442.12	8042.08
442.31	7939.10
442.50	7899.31
442.68	7934.42
442.87	8039.74
443.05	8112.30
443.24	8262.09
443.43	8184.85
443.61	8264.43
443.80	8442.31
443.98	7943.78
444.17	7868.88
444.35	8318.26
444.54	8547.64
444.73	8400.18
444.91	8297.20
445.10	8416.57
445.28	8613.17
445.47	8318.26
445.65	8475.08
445.84	8318.26
446.02	8442.31
446.21	8463.38
446.39	8332.31
446.58	8566.36
446.77	8500.83
446.95	8304.22
447.14	8479.76
447.32	8435.29
447.51	8521.89
447.69	8498.49
447.88	8514.87
448.06	8479.76
448.25	8449.33
448.43	8688.07
448.62	8636.58
448.80	8575.72
448.99	8711.47
449.17	8622.53
449.36	8482.10
449.54	8744.24
449.73	8905.74
449.91	9259.16
450.10	9015.74
450.28	8910.42
450.46	9109.36
450.65	9214.69
450.83	9188.94
451.02	9011.06
451.20	9249.80
451.39	9039.15
451.57	9298.95
451.76	8987.66
451.94	9184.26
452.13	9467.47
452.31	9301.29
452.49	9254.48
452.68	9341.08
452.86	9214.69
453.05	9287.25
453.23	9612.58
453.42	9500.23
453.60	9502.58
453.78	9570.45
453.97	9455.76
454.15	9387.89
454.34	9694.50
454.52	9544.70
454.70	9493.21
454.89	9767.06
455.07	9877.06
455.26	9872.38
455.44	10108.77
455.62	9781.10
455.81	9956.64
455.99	10029.20
456.17	10038.56
456.36	10015.15
456.54	10017.49
456.73	10303.04
456.91	10623.69
457.09	10377.94
457.28	10338.15
457.46	10216.44
457.64	10595.61
457.83	10602.63
458.01	10321.76
458.19	10649.44
458.38	10707.95
458.56	10478.58
458.74	10726.68
458.93	10956.05
459.11	10712.63
459.29	10731.36
459.48	10637.73
459.66	10913.92
459.84	11075.42
460.03	11164.36
460.21	10958.39
460.39	11194.78
460.57	11007.54
460.76	11030.94
460.94	11316.49
461.12	11321.17
461.31	11154.99
461.49	11145.63
461.67	11225.21
461.85	11559.91
462.04	11257.98
462.22	11545.86
462.40	11620.76
462.59	11454.58
462.77	11520.12
462.95	11714.38
463.13	11529.48
463.32	11885.24
463.50	11768.21
463.68	11873.54
463.86	11630.12
464.05	11616.08
464.23	11702.68
464.41	12004.61
464.59	11712.04
464.78	12224.62
464.96	11999.93
465.14	12112.27
465.32	12093.55
465.50	12037.38
465.69	12479.74
465.87	12210.57
466.05	11836.09
466.23	12116.95
466.41	12367.39
466.60	12594.42
466.78	12044.40
466.96	12271.43
467.14	12329.94
467.32	12465.69
467.51	12585.06
467.69	12196.53
467.87	12397.82
468.05	12732.51
468.23	12568.68
468.41	12498.46
468.60	12709.11
468.78	12802.73
468.96	12727.83
469.14	12702.09
469.32	13057.85
469.50	12779.32
469.69	12872.95
469.87	13289.56
470.05	13062.53
470.23	13231.05
470.41	13252.11
470.59	13392.55
470.77	12994.65
470.95	13205.30
471.14	13675.75
471.32	13074.23
471.50	13535.32
471.68	13628.94
471.86	13607.87
472.04	13577.45
472.22	14026.83
472.40	13774.05
472.58	14047.90
472.77	14216.41
472.95	14171.94
473.13	14707.93
473.31	14303.01
473.49	14281.95
473.67	14136.84
473.85	14417.70
474.03	14719.63
474.21	14504.30
474.39	14801.55
474.57	14857.72
474.75	15009.86
474.93	14839.00
475.12	14953.68
475.30	15253.27
475.48	15049.64
475.66	15115.18
475.84	15096.46
476.02	15400.72
476.20	15290.72
476.38	15658.18
476.56	15985.86
476.74	15826.70
476.92	16119.27
477.10	15861.81
477.28	16163.74
477.46	16093.52
477.64	16465.67
477.82	16594.40
478.00	17036.76
478.18	16676.32
478.36	16952.50
478.54	17198.26
478.72	17102.29
478.90	17420.61
479.08	17720.20
479.26	17816.16
479.44	17806.80
479.62	17771.69
479.80	18221.07
479.98	17972.97
480.16	18511.30
480.34	18417.68
480.52	18712.58
480.70	18602.58
480.88	18326.39
481.06	18869.40
481.24	18941.96
481.41	19119.84
481.59	19421.77
481.77	19709.65
481.95	19463.90
482.13	19557.52
482.31	19407.72
482.49	20418.83
482.67	20210.53
482.85	20372.02
483.03	20512.46
483.21	20945.45
483.39	21029.71
483.57	20765.23
483.74	21474.42
483.92	21132.70
484.10	21329.30
484.28	21542.29
484.46	22132.11
484.64	22279.56
484.82	22309.99
485.00	22370.84
485.18	22984.06
485.35	23021.51
485.53	22831.93
485.71	23023.85
485.89	23641.75
486.07	23175.98
486.25	23538.77
486.43	23896.87
486.61	23908.57
486.78	24177.73
486.96	24374.34
487.14	24673.93
487.32	25008.62
487.50	24886.92
487.68	25085.86
487.85	25319.92
488.03	25493.12
488.21	25773.98
488.39	25631.21
488.57	26202.30
488.75	26183.57
488.92	26328.69
489.10	26422.31
489.28	26948.93
489.46	27388.95
489.64	27133.83
489.81	27779.82
489.99	27761.09
490.17	27800.88
490.35	28070.04
490.53	28009.19
490.70	28407.08
490.88	28306.44
491.06	29254.36
491.24	28931.36
491.41	29443.94
491.59	29675.65
491.77	29237.97
491.95	29940.13
492.13	30045.46
492.30	29902.68
492.48	30279.51
492.66	30237.38
492.84	30462.07
493.01	30808.47
493.19	30787.41
493.37	31103.38
493.54	31166.57
493.72	31646.38
493.90	31608.93
494.08	31840.65
494.25	32308.76
494.43	31864.05
494.61	32547.49
494.79	32266.63
494.96	32428.12
495.14	32762.82
495.32	33132.62
495.49	33464.98
495.67	33495.41
495.85	33539.88
496.02	33844.15
496.20	34000.96
496.38	34373.11
496.55	34380.13
496.73	35040.16
496.91	34714.83
497.09	34998.03
497.26	35482.52
497.44	35143.14
497.62	35508.27
497.79	35721.26
497.97	35838.28
498.14	36128.51
498.32	36177.66
498.50	35747.00
498.67	36687.90
498.85	36189.36
499.03	36987.49
499.20	36844.71
499.38	37195.79
499.56	36868.12
499.73	37909.66
499.91	37574.96
500.08	37511.77
500.26	37448.57
500.44	37661.56
500.61	37858.17
500.79	37851.14
500.97	38307.55
501.14	38740.55
501.32	38632.88
501.49	38457.34
501.67	38717.14
501.84	39171.21
502.02	39440.37
502.20	39033.11
502.37	38979.28
502.55	39126.74
502.72	39426.32
502.90	39763.36
503.07	39634.63
503.25	39924.86
503.43	40409.35
503.60	40161.25
503.78	40463.18
503.95	40477.22
504.13	41153.64
504.30	40760.43
504.48	40685.53
504.65	40737.02
504.83	41361.95
505.01	41525.78
505.18	41153.64
505.36	41574.94
505.53	41401.74
505.71	41698.98
505.88	41462.59
506.06	41481.31
506.23	41670.90
506.41	41902.61
506.58	42108.58
506.76	42445.62
506.93	42550.94
507.11	42316.89
507.28	42429.23
507.46	43044.79
507.63	43096.28
507.81	43203.95
507.98	42841.17
508.16	43416.94
508.33	43515.24
508.50	43295.23
508.68	43512.90
508.85	44091.01
509.03	43971.64
509.20	44598.91
509.38	44605.93
509.55	44524.01
509.73	44467.84
509.90	44844.66
510.08	44804.88
510.25	44556.78
510.42	44516.99
510.60	45146.59
510.77	45057.65
510.95	45507.04
511.12	45144.25
511.30	45223.83
511.47	45492.99
511.64	45457.88
511.82	45984.51
511.99	45532.78
512.17	46014.93
512.34	45769.18
512.51	46380.06
512.69	46321.54
512.86	46431.55
513.04	47086.90
513.21	46742.84
513.38	47049.45
513.56	46946.47
513.73	46487.72
513.90	47342.02
514.08	47026.04
514.25	47402.87
514.43	47562.03
514.60	47468.40
514.77	47540.96
514.95	47758.63
515.12	47613.52
515.29	47880.34
515.47	47903.74
515.64	48439.73
515.81	48488.88
515.99	48498.24
516.16	48493.56
516.33	48212.70
516.51	48467.81
516.68	48837.62
516.85	48650.38
517.03	49038.90
517.20	48896.13
517.37	49066.99
517.54	49251.89
517.72	48907.83
517.89	49158.27
518.06	49338.49
518.24	49507.01
518.41	49256.57
518.58	49478.92
518.75	49324.45
518.93	49792.56
519.10	49441.48
519.27	49841.71
519.45	50033.63
519.62	49787.88
519.79	50181.09
519.96	49624.04
520.14	50305.13
520.31	50204.49
520.48	50337.90
520.65	50284.07
520.83	51026.02
521.00	50714.73
521.17	50368.33
521.34	50958.14
521.52	50855.16
521.69	51096.24
521.86	51042.40
522.03	51498.81
522.20	51096.24
522.38	51749.24
522.55	51243.69
522.72	51454.34
522.89	51346.67
523.07	51887.34
523.24	51643.92
523.41	52011.38
523.58	51721.16
523.75	51798.40
523.92	51922.44
524.10	52114.37
524.27	52233.74
524.44	52416.30
524.61	52168.20
524.78	52282.89
524.96	52156.50
525.13	52346.08
525.30	52343.74
525.47	52563.75
525.64	52507.58
525.81	52842.27
525.98	52842.27
526.16	52809.51
526.33	52493.54
526.50	53134.84
526.67	52956.96
526.84	53022.50
527.01	52968.66
527.18	52928.87
527.36	53371.24
527.53	53125.48
527.70	53565.50
527.87	53535.07
528.04	53254.21
528.21	53408.68
528.38	53621.67
528.55	53670.82
528.72	53446.13
528.89	53174.63
529.07	53434.43
529.24	53483.58
529.41	53635.72
529.58	53752.74
529.75	53867.43
529.92	53766.79
530.09	53792.53
530.26	53972.75
530.43	54087.44
530.60	53886.15
530.77	53982.12
530.94	53956.37
531.11	54019.56
531.28	54181.06
531.46	54176.38
531.63	54539.16
531.80	54323.83
531.97	54541.50
532.14	54630.44
532.31	54499.37
532.48	54759.17
532.65	54492.35
532.82	54754.49
532.99	54735.77
533.16	54813.01
533.33	55068.12
533.50	55201.53
533.67	54817.69
533.84	54691.30
534.01	55077.49
534.18	55042.38
534.35	55253.03
534.52	55196.85
534.69	55271.75
534.86	55426.23
535.03	55217.92
535.20	55356.01
535.37	55503.46
535.54	55559.64
535.71	55105.57
535.88	55561.98
536.05	55477.72
536.22	55664.96
536.38	55931.78
536.55	55569.00
536.72	55732.84
536.89	55489.42
537.06	55681.34
537.23	55781.99
537.40	55491.76
537.57	55866.25
537.74	55599.43
537.91	56296.91
538.08	56053.49
538.25	55746.88
538.42	56229.03
538.59	56130.73
538.75	55805.39
538.92	56182.22
539.09	56591.81
539.26	56367.12
539.43	56023.06
539.60	56229.03
539.77	56507.55
539.94	56523.94
540.11	56324.99
540.28	56423.29
540.44	56254.78
540.61	56460.74
540.78	56289.88
540.95	56591.81
541.12	56367.12
541.29	56378.82
541.46	56470.11
541.62	56657.35
541.79	56718.20
541.96	56680.75
542.13	56692.46
542.30	56720.54
542.47	56942.89
542.63	57031.83
542.80	57111.41
542.97	57226.10
543.14	57237.80
543.31	57148.86
543.48	57389.94
543.64	57474.20
543.81	57385.25
543.98	57153.54
544.15	57542.07
544.32	57567.82
544.48	57682.50
544.65	57387.60
544.82	57640.37
544.99	57375.89
545.16	57532.71
545.32	57453.13
545.49	57806.55
545.66	57797.19
545.83	57764.42
546.00	57909.53
546.16	57521.01
546.33	57532.71
546.50	57659.10
546.67	57820.59
546.83	57586.54
547.00	57946.98
547.17	57860.38
547.34	57879.11
547.50	58052.31
547.67	58075.71
547.84	58024.22
548.00	58150.61
548.17	58321.47
548.34	57984.43
548.51	58141.25
548.67	58262.96
548.84	58312.11
549.01	58298.06
549.18	58277.00
549.34	58319.13
549.51	58447.86
549.68	58466.58
549.84	58471.26
550.01	58581.27
550.18	58443.18
550.34	58625.74
550.51	58529.78
550.68	58599.99
550.84	58309.77
551.01	58674.89
551.18	58695.95
551.34	58714.68
551.51	58541.48
551.68	58571.91
551.84	58562.54
552.01	58574.25
552.18	58939.37
552.34	58810.64
552.51	59068.10
552.68	58742.77
552.84	58632.76
553.01	59154.70
553.18	58990.86
553.34	58801.28
553.51	59016.61
553.67	58834.05
553.84	58880.86
554.01	59004.91
554.17	59110.23
554.34	58990.86
554.51	59157.04
554.67	59243.64
554.84	59035.33
555.00	59049.38
555.17	59105.55
555.33	59203.85
555.50	58747.45
555.67	59016.61
555.83	59061.08
556.00	59278.75
556.16	59501.10
556.33	59234.28
556.50	59304.49
556.66	59484.72
556.83	59253.00
556.99	59594.72
557.16	59660.26
557.32	59662.60
557.49	59751.54
557.65	59358.33
557.82	59580.68
557.98	59470.67
558.15	59409.82
558.32	59498.76
558.48	59451.95
558.65	59456.63
558.81	59468.33
558.98	59419.18
559.14	59627.49
559.31	59454.29
559.47	59765.58
559.64	59725.79
559.80	59721.11
559.97	59838.14
560.13	59664.94
560.30	59667.28
560.46	59777.28
560.63	59873.24
560.79	59840.48
560.96	59868.56
561.12	60006.65
561.29	59959.84
561.45	59920.05
561.61	59997.29
561.78	59950.48
561.94	60030.06
562.11	59908.35
562.27	59962.18
562.44	60100.28
562.60	60151.77
562.77	59950.48
562.93	59739.83
563.10	60020.70
563.26	59873.24
563.42	60095.60
563.59	59983.25
563.75	59781.96
563.92	60128.36
564.08	60107.30
564.24	60156.45
564.41	60116.66
564.57	60121.34
564.74	60280.50
564.90	60348.37
565.07	60198.58
565.23	60226.66
565.39	60275.82
565.56	60221.98
565.72	60163.47
565.88	60203.26
566.05	60313.26
566.21	60189.22
566.38	60385.82
566.54	60322.63
566.70	60343.69
566.87	60376.46
567.03	60257.09
567.19	60537.96
567.36	60299.22
567.52	60226.66
567.68	60617.53
567.85	60526.25
568.01	60652.64
568.17	60423.27
568.34	60575.40
568.50	60612.85
568.66	60341.35
568.83	60458.38
568.99	60350.71
569.15	60467.74
569.32	60544.98
569.48	60505.19
569.64	60397.52
569.81	60516.89
569.97	60388.16
570.13	60505.19
570.30	60371.78
570.46	60533.28
570.62	60673.71
570.78	60683.07
570.95	60678.39
571.11	60669.03
571.27	60568.38
571.43	60556.68
571.60	60774.35
571.76	60364.76
571.92	60893.72
572.09	60509.87
572.25	60746.26
572.41	60629.24
572.57	60673.71
572.74	60769.67
572.90	60664.35
573.06	60781.37
573.22	60690.09
573.38	60851.59
573.55	60764.99
573.71	60863.29
573.87	60643.28
574.03	60636.26
574.20	60910.10
574.36	60514.55
574.52	60889.04
574.68	60970.96
574.84	60844.57
575.01	60992.02
575.17	60767.33
575.33	60807.12
575.49	60643.28
575.65	60889.04
575.82	61001.38
575.98	60889.04
576.14	60992.02
576.30	60919.46
576.46	60767.33
576.62	60816.48
576.79	60865.63
576.95	60652.64
577.11	60919.46
577.27	61141.81
577.43	60889.04
577.59	60818.82
577.75	60594.13
577.92	60882.02
578.08	60755.63
578.24	60879.67
578.40	61092.66
578.56	60832.86
578.72	60867.97
578.88	61111.39
579.04	61024.79
579.21	60877.33
579.37	61055.21
579.53	60966.27
579.69	60753.29
579.85	61050.53
580.01	60879.67
580.17	60743.92
580.33	61078.62
580.49	61139.47
580.65	61038.83
580.82	61134.79
580.98	60622.22
581.14	60977.98
581.30	61181.60
581.46	60774.35
581.62	61036.49
581.78	60844.57
581.94	61022.45
582.10	60996.70
582.26	60874.99
582.42	60924.14
582.58	61083.30
582.74	60767.33
582.90	61041.17
583.06	60870.31
583.22	60938.19
583.38	61020.11
583.54	61036.49
583.70	60947.55
583.86	61144.16
584.02	60912.44
584.18	61209.69
584.34	61113.73
584.50	61038.83
584.66	60882.02
584.82	61006.06
584.98	60928.83
585.14	61214.37
585.30	60973.30
585.46	61144.16
585.62	61022.45
585.78	61286.93
585.94	61064.58
586.10	61106.71
586.26	61134.79
586.42	61162.88
586.58	61263.52
586.74	61015.43
586.90	60933.51
587.06	61322.04
587.22	61200.33
587.38	61130.11
587.54	61151.18
587.70	61322.04
587.86	61158.20
588.02	61036.49
588.18	61169.90
588.34	61130.11
588.49	61050.53
