SpectraSuite Data File
++++++++++++++++++++++++++++++++++++
Date: Fri Oct 25 10:47:31 EDT 2013
User: price-jones
Dark Spectrum Present: No
Reference Spectrum Present: No
Number of Sampled Component Spectra: 1
Spectrometers: USB2+H05261
Integration Time (usec): 100000 (USB2+H05261)
Spectra Averaged: 1 (USB2+H05261)
Boxcar Smoothing: 0 (USB2+H05261)
Correct for Electrical Dark: No (USB2+H05261)
Strobe/Lamp Enabled: No (USB2+H05261)
Correct for Detector Non-linearity: No (USB2+H05261)
Correct for Stray Light: No (USB2+H05261)
Number of Pixels in Processed Spectrum: 2048
>>>>>Begin Processed Spectral Data<<<<<
365.73	133.41
365.92	133.41
366.12	133.41
366.32	67.88
366.52	35.11
366.72	51.49
366.91	46.81
367.11	74.90
367.31	102.98
367.51	0.00
367.70	46.81
367.90	49.15
368.10	16.38
368.30	0.00
368.49	135.75
368.69	161.50
368.89	53.83
369.09	35.11
369.28	35.11
369.48	35.11
369.68	81.92
369.87	170.86
370.07	117.03
370.27	180.22
370.47	241.08
370.66	332.36
370.86	344.06
371.06	479.81
371.25	470.45
371.45	440.02
371.65	395.55
371.84	517.26
372.04	386.19
372.24	489.17
372.44	470.45
372.63	526.62
372.83	437.68
373.03	386.19
373.22	463.43
373.42	484.49
373.62	484.49
373.81	465.77
374.01	500.87
374.21	554.71
374.40	428.32
374.60	587.47
374.79	582.79
374.99	545.34
375.19	557.05
375.38	543.00
375.58	528.96
375.78	540.66
375.97	615.56
376.17	589.82
376.37	559.39
376.56	606.20
376.76	535.98
376.95	540.66
377.15	629.60
377.35	496.19
377.54	554.71
377.74	573.43
377.93	517.26
378.13	664.71
378.33	615.56
378.52	575.77
378.72	624.92
378.91	643.65
379.11	664.71
379.31	587.47
379.50	615.56
379.70	608.54
379.89	681.10
380.09	655.35
380.28	678.76
380.48	645.99
380.68	641.31
380.87	631.94
381.07	629.60
381.26	676.41
381.46	671.73
381.65	631.94
381.85	613.22
382.04	580.45
382.24	706.84
382.43	669.39
382.63	641.31
382.83	601.52
383.02	727.91
383.22	657.69
383.41	685.78
383.61	653.01
383.80	763.01
384.00	713.86
384.19	645.99
384.39	718.54
384.58	723.23
384.78	641.31
384.97	678.76
385.17	739.61
385.36	777.06
385.56	777.06
385.75	720.88
385.95	662.37
386.14	734.93
386.34	812.17
386.53	802.80
386.72	755.99
386.92	849.61
387.11	835.57
387.31	758.33
387.50	755.99
387.70	830.89
387.89	788.76
388.09	821.53
388.28	833.23
388.48	856.64
388.67	844.93
388.86	844.93
389.06	784.08
389.25	833.23
389.45	851.96
389.64	870.68
389.84	842.59
390.03	931.53
390.22	971.32
390.42	861.32
390.61	950.26
390.81	870.68
391.00	901.11
391.19	952.60
391.39	891.74
391.58	971.32
391.78	968.98
391.97	999.41
392.16	917.49
392.36	976.00
392.55	849.61
392.75	954.94
392.94	976.00
393.13	1029.84
393.33	954.94
393.52	950.26
393.71	1034.52
393.91	1011.11
394.10	1048.56
394.29	1071.97
394.49	983.02
394.68	966.64
394.88	990.05
395.07	1027.50
395.26	1142.18
395.46	1090.69
395.65	1053.24
395.84	1093.03
396.04	1149.20
396.23	1116.44
396.42	1104.73
396.62	1057.92
396.81	1137.50
397.00	1132.82
397.19	1172.61
397.39	1109.41
397.58	1184.31
397.77	1151.54
397.97	1299.00
398.16	1289.64
398.35	1205.38
398.55	1301.34
398.74	1224.10
398.93	1291.98
399.12	1284.95
399.32	1228.78
399.51	1387.94
399.70	1369.21
399.90	1249.85
400.09	1259.21
400.28	1352.83
400.47	1352.83
400.67	1401.98
400.86	1322.40
401.05	1465.18
401.24	1448.79
401.44	1394.96
401.63	1488.58
401.82	1313.04
402.01	1380.92
402.21	1425.39
402.40	1530.71
402.59	1504.96
402.78	1474.54
402.97	1462.83
403.17	1540.07
403.36	1476.88
403.55	1455.81
403.74	1577.52
403.93	1551.78
404.13	1675.82
404.32	1643.06
404.51	1455.81
404.70	1680.50
404.89	1596.25
405.09	1746.04
405.28	1610.29
405.47	1743.70
405.66	1682.85
405.85	1673.48
406.05	1703.91
406.24	1736.68
406.43	1760.08
406.62	1771.79
406.81	1757.74
407.00	1809.23
407.20	1734.34
407.39	1717.95
407.58	1732.00
407.77	1783.49
407.96	1977.75
408.15	1944.99
408.34	1886.47
408.54	1989.46
408.73	1923.92
408.92	1902.86
409.11	1954.35
409.30	2047.97
409.49	1959.03
409.68	2083.08
409.87	2036.27
410.07	2062.01
410.26	2101.80
410.45	2115.84
410.64	2127.55
410.83	2167.34
411.02	2249.25
411.21	2204.78
411.40	2249.25
411.59	2118.18
411.78	2129.89
411.98	2204.78
412.17	2314.79
412.36	2345.22
412.55	2263.30
412.74	2406.07
412.93	2366.28
413.12	2221.17
413.31	2305.43
413.50	2300.75
413.69	2443.52
413.88	2546.50
414.07	2495.01
414.26	2679.91
414.45	2597.99
414.64	2565.23
414.83	2569.91
415.02	2616.72
415.22	2691.62
415.41	2679.91
415.60	2619.06
415.79	2644.81
415.98	2820.35
416.17	2722.04
416.36	2813.32
416.55	2722.04
416.74	2827.37
416.93	2782.90
417.12	2843.75
417.31	2928.01
417.50	2698.64
417.69	2995.89
417.88	2918.65
418.07	2944.39
418.26	2930.35
418.45	3063.76
418.64	3112.91
418.83	3206.53
419.02	3141.00
419.21	3150.36
419.39	3155.04
419.58	3138.66
419.77	3042.70
419.96	3166.74
420.15	3309.52
420.34	3190.15
420.53	3169.09
420.72	3194.83
420.91	3129.30
421.10	3281.43
421.29	3349.31
421.48	3185.47
421.67	3400.80
421.86	3225.26
422.05	3236.96
422.24	3302.50
422.43	3332.92
422.61	3487.40
422.80	3440.59
422.99	3445.27
423.18	3454.63
423.37	3456.97
423.56	3459.31
423.75	3492.08
423.94	3428.88
424.13	3185.47
424.32	3274.41
424.50	3421.86
424.69	3459.31
424.88	3513.14
425.07	3400.80
425.26	3492.08
425.45	3372.71
425.64	3398.46
425.83	3426.54
426.01	3538.89
426.20	3531.87
426.39	3492.08
426.58	3487.40
426.77	3463.99
426.96	3531.87
427.15	3463.99
427.33	3480.38
427.52	3538.89
427.71	3674.64
427.90	3688.68
428.09	3662.94
428.28	3524.85
428.46	3691.02
428.65	3581.02
428.84	3754.22
429.03	3859.54
429.22	3684.00
429.40	3691.02
429.59	3672.30
429.78	3548.25
429.97	3581.02
430.16	3644.21
430.34	3854.86
430.53	3735.50
430.72	3845.50
430.91	3845.50
431.10	3763.58
431.28	4002.32
431.47	3962.53
431.66	4039.76
431.85	3901.67
432.03	4133.39
432.22	4166.15
432.41	4161.47
432.60	4060.83
432.79	4133.39
432.97	4056.15
433.16	4205.94
433.35	4009.34
433.54	4135.73
433.72	4191.90
433.91	4095.94
434.10	4210.62
434.28	4236.37
434.47	4313.61
434.66	4308.93
434.85	4372.12
435.03	4311.27
435.22	4379.14
435.41	4451.70
435.59	4430.63
435.78	4456.38
435.97	4430.63
436.16	4397.87
436.34	4533.62
436.53	4482.13
436.72	4531.28
436.90	4500.85
437.09	4533.62
437.28	4440.00
437.46	4573.41
437.65	4594.47
437.84	4732.56
438.02	4648.30
438.21	4634.26
438.40	4592.13
438.58	4730.22
438.77	4760.65
438.96	4699.80
439.14	4854.27
439.33	4842.57
439.52	4812.14
439.70	4854.27
439.89	4898.74
440.08	5062.58
440.26	4971.30
440.45	4940.87
440.63	5139.82
440.82	5296.63
441.01	5029.81
441.19	5228.76
441.38	5247.48
441.57	5476.85
441.75	5390.25
441.94	5416.00
442.12	5369.19
442.31	5544.73
442.50	5423.02
442.68	5497.92
442.87	5397.28
443.05	5467.49
443.24	5668.78
443.43	5628.99
443.61	5746.02
443.80	5769.42
443.98	5589.20
444.17	5315.36
444.35	5689.84
444.54	5809.21
444.73	5621.97
444.91	5617.29
445.10	5692.18
445.28	5652.39
445.47	5603.24
445.65	5600.90
445.84	5729.63
446.02	5713.25
446.21	5668.78
446.39	5633.67
446.58	5778.78
446.77	5778.78
446.95	5645.37
447.14	5708.57
447.32	5799.85
447.51	5937.94
447.69	5781.12
447.88	5856.02
448.06	5806.87
448.25	5823.25
448.43	5802.19
448.62	5860.70
448.80	5909.85
448.99	5912.19
449.17	6054.97
449.36	5907.51
449.54	6115.82
449.73	6181.35
449.91	6284.34
450.10	6054.97
450.28	6387.32
450.46	6193.06
450.65	6104.12
450.83	6209.44
451.02	6242.21
451.20	6324.13
451.39	6171.99
451.57	6122.84
451.76	6282.00
451.94	6272.64
452.13	6384.98
452.31	6382.64
452.49	6139.23
452.68	6324.13
452.86	6436.47
453.05	6380.30
453.23	6502.01
453.42	6387.32
453.60	6342.85
453.78	6527.75
453.97	6375.62
454.15	6506.69
454.34	6464.56
454.52	6293.70
454.70	6600.31
454.89	6560.52
455.07	6525.41
455.26	6469.24
455.44	6869.47
455.62	6750.10
455.81	6761.81
455.99	6747.76
456.17	6698.61
456.36	6918.62
456.54	7045.01
456.73	6892.88
456.91	7052.03
457.09	7112.89
457.28	7218.21
457.46	7089.48
457.64	7063.74
457.83	7098.84
458.01	6970.12
458.19	7337.58
458.38	7152.68
458.56	7222.89
458.74	7110.55
458.93	7222.89
459.11	7129.27
459.29	7204.17
459.48	7351.62
459.66	7283.75
459.84	7466.31
460.03	7499.08
460.21	7452.27
460.39	7339.92
460.57	7386.73
460.76	7515.46
460.94	7581.00
461.12	7386.73
461.31	7501.42
461.49	7592.70
461.67	7712.07
461.85	7723.77
462.04	7414.82
462.22	8100.59
462.40	7871.22
462.59	7702.70
462.77	7878.24
462.95	7950.80
463.13	7840.79
463.32	7779.94
463.50	7847.82
463.68	7932.08
463.86	8032.72
464.05	7805.69
464.23	7882.92
464.41	8114.64
464.59	7857.18
464.78	8283.16
464.96	8006.97
465.14	7878.24
465.32	7950.80
465.50	8095.91
465.69	8285.50
465.87	7927.39
466.05	8177.83
466.23	8025.70
466.41	8095.91
466.60	8454.02
466.78	8086.55
466.96	7920.37
467.14	8198.90
467.32	8257.41
467.51	8439.97
467.69	8124.00
467.87	8428.27
468.05	8498.49
468.23	8236.35
468.41	8381.46
468.60	8383.80
468.78	8470.40
468.96	8374.44
469.14	8475.08
469.32	8617.85
469.50	8601.47
469.69	8601.47
469.87	8538.27
470.05	8645.94
470.23	8659.98
470.41	8741.90
470.59	8924.46
470.77	8704.45
470.95	8716.16
471.14	8978.30
471.32	8758.28
471.50	9048.51
471.68	9001.70
471.86	9001.70
472.04	9107.02
472.22	9369.16
472.40	8908.08
472.58	9366.82
472.77	9004.04
472.95	9341.08
473.13	9664.07
473.31	9252.14
473.49	9373.85
473.67	9334.06
473.85	9355.12
474.03	9493.21
474.21	9612.58
474.39	9570.45
474.57	9806.84
474.75	9926.21
474.93	9860.68
475.12	9841.95
475.30	10019.83
475.48	10061.96
475.66	9961.32
475.84	9881.74
476.02	9963.66
476.20	9989.41
476.38	10427.09
476.56	10274.95
476.74	10553.48
476.92	10361.55
477.10	10588.58
477.28	10729.02
477.46	10738.38
477.64	11037.97
477.82	10899.87
478.00	11147.97
478.18	11124.57
478.36	11178.40
478.54	11316.49
478.72	11356.28
478.90	11447.56
479.08	11470.97
479.26	11707.36
479.44	11648.85
479.62	11667.57
479.80	11873.54
479.98	11964.82
480.16	12131.00
480.34	12025.67
480.52	12180.15
480.70	12215.26
480.88	11922.69
481.06	12290.15
481.24	12432.93
481.41	12355.69
481.59	12699.75
481.77	13057.85
481.95	12713.79
482.13	12950.18
482.31	13050.83
482.49	13184.24
482.67	13125.72
482.85	13350.42
483.03	13558.72
483.21	13561.06
483.39	13525.96
483.57	13586.81
483.74	13748.31
483.92	14026.83
484.10	13987.04
484.28	14129.81
484.46	14597.92
484.64	14471.53
484.82	14483.24
485.00	14466.85
485.18	14642.39
485.35	14848.36
485.53	14677.50
485.71	14754.74
485.89	15091.77
486.07	15077.73
486.25	15030.92
486.43	15374.98
486.61	15279.02
486.78	15704.99
486.96	15583.29
487.14	15838.41
487.32	15946.07
487.50	16128.63
487.68	16088.84
487.85	16491.41
488.03	16601.42
488.21	16463.33
488.39	16458.65
488.57	16901.01
488.75	17102.29
488.92	17001.65
489.10	17453.37
489.28	17411.25
489.46	17474.44
489.64	17458.06
489.81	18082.98
489.99	17816.16
490.17	18075.96
490.35	18267.88
490.53	18167.24
490.70	18312.35
490.88	18218.73
491.06	18813.23
491.24	18410.65
491.41	18593.22
491.59	18370.86
491.77	18558.11
491.95	19157.28
492.13	19035.58
492.30	19360.91
492.48	19534.11
492.66	19646.46
492.84	19728.38
493.01	19763.48
493.19	19953.07
493.37	19981.15
493.54	19992.86
493.72	20325.21
493.90	20049.03
494.08	20264.36
494.25	20823.75
494.43	20842.47
494.61	20947.79
494.79	20987.58
494.96	20879.92
495.14	21013.33
495.32	21057.80
495.49	21223.98
495.67	21509.52
495.85	22230.41
496.02	21635.91
496.20	21624.21
496.38	21881.67
496.55	21872.31
496.73	22714.90
496.91	22139.13
497.09	22356.80
497.26	22647.02
497.44	22565.10
497.62	22689.15
497.79	23168.96
497.97	22735.96
498.14	23077.68
498.32	23222.80
498.50	23136.20
498.67	23309.40
498.85	23412.38
499.03	23709.63
499.20	23611.32
499.38	23491.96
499.56	23747.08
499.73	23606.64
499.91	23737.71
500.08	24383.70
500.26	24037.30
500.44	24112.20
500.61	24194.12
500.79	23906.23
500.97	24233.91
501.14	24219.86
501.32	24573.28
501.49	24812.02
501.67	24725.42
501.84	24699.67
502.02	24795.64
502.20	25242.68
502.37	25261.40
502.55	25233.32
502.72	25177.14
502.90	25390.13
503.07	25511.84
503.25	25553.97
503.43	25355.02
503.60	25584.40
503.78	25692.06
503.95	25635.89
504.13	25865.26
504.30	26223.36
504.48	25956.54
504.65	26015.05
504.83	26434.01
505.01	26302.94
505.18	26375.50
505.36	26480.82
505.53	26324.01
505.71	26515.93
505.88	26616.57
506.06	26651.68
506.23	27154.90
506.41	26642.32
506.58	27112.77
506.76	27140.85
506.93	27187.66
507.11	27065.96
507.28	27274.26
507.46	27346.82
507.63	27557.47
507.81	27784.50
507.98	27480.23
508.16	27873.44
508.33	27845.35
508.50	27990.47
508.68	27941.32
508.85	28182.39
509.03	28493.68
509.20	28240.90
509.38	28407.08
509.55	28500.70
509.73	28570.92
509.90	28596.67
510.08	28563.90
510.25	28673.90
510.42	28669.22
510.60	28573.26
510.77	28924.34
510.95	29181.80
511.12	29195.84
511.30	29259.04
511.47	29235.63
511.64	29441.60
511.82	29406.49
511.99	29233.29
512.17	29579.69
512.34	29317.55
512.51	29507.13
512.69	29572.67
512.86	29495.43
513.04	30291.21
513.21	30457.39
513.38	30223.34
513.56	30363.77
513.73	29834.81
513.90	30293.55
514.08	30319.30
514.25	30611.87
514.43	30319.30
514.60	30583.78
514.77	30607.19
514.95	30836.56
515.12	30651.66
515.29	30859.96
515.47	30595.48
515.64	31262.54
515.81	30799.11
515.99	30764.00
516.16	31161.89
516.33	30806.13
516.51	31337.43
516.68	31079.97
516.85	31040.18
517.03	31274.24
517.20	31150.19
517.37	31510.63
517.54	31992.78
517.72	31894.48
517.89	31377.22
518.06	31702.56
518.24	31512.97
518.41	32023.21
518.58	31889.80
518.75	31831.29
518.93	32046.62
519.10	32093.43
519.27	32435.14
519.45	32268.97
519.62	32409.40
519.79	32498.34
519.96	32575.58
520.14	32638.77
520.31	32613.02
520.48	33081.13
520.65	32704.31
520.83	33230.93
521.00	33188.80
521.17	32809.63
521.34	32818.99
521.52	33778.61
521.69	33151.35
521.86	33362.00
522.03	33039.00
522.20	33436.89
522.38	33766.91
522.55	33383.06
522.72	33528.17
522.89	33467.32
523.07	33956.49
523.24	33652.22
523.41	34015.01
523.58	33834.78
523.75	33872.23
523.92	33865.21
524.10	34445.66
524.27	34363.75
524.44	34522.90
524.61	34389.49
524.78	34455.03
524.96	34565.03
525.13	34824.83
525.30	34824.83
525.47	34649.29
525.64	34625.89
525.81	34747.59
525.98	34527.58
526.16	34998.03
526.33	34464.39
526.50	34960.58
526.67	34483.11
526.84	34824.83
527.01	34623.54
527.18	35199.32
527.36	35370.18
527.53	35447.41
527.70	36238.51
527.87	35807.86
528.04	35496.56
528.21	35370.18
528.38	35187.61
528.55	35927.22
528.72	35800.83
528.89	36261.92
529.07	35725.94
529.24	35915.52
529.41	35564.44
529.58	35906.16
529.75	36114.47
529.92	36201.07
530.09	36072.34
530.26	36123.83
530.43	36081.70
530.60	36364.90
530.77	36273.62
530.94	36662.15
531.11	36421.08
531.28	36238.51
531.46	36474.91
531.63	36336.82
531.80	36746.41
531.97	36542.78
532.14	36950.04
532.31	36460.87
532.48	36603.64
532.65	36964.08
532.82	37137.28
532.99	37315.16
533.16	36753.43
533.33	36751.09
533.50	37504.74
533.67	37296.44
533.84	37053.02
534.01	37436.87
534.18	37268.35
534.35	37460.27
534.52	37574.96
534.69	37322.18
534.86	37352.61
535.03	37844.12
535.20	38066.47
535.37	38211.59
535.54	38136.69
535.71	37778.59
535.88	37486.02
536.05	37516.45
536.22	38124.99
536.38	38059.45
536.55	37809.01
536.72	37675.60
536.89	38014.98
537.06	37628.79
537.23	38213.93
537.40	38174.14
537.57	37900.29
537.74	37926.04
537.91	38787.36
538.08	38328.61
538.25	38302.87
538.42	38136.69
538.59	38614.16
538.75	38415.21
538.92	38398.83
539.09	38583.73
539.26	38944.17
539.43	38752.25
539.60	38855.23
539.77	38806.08
539.94	38698.42
540.11	38789.70
540.28	38462.02
540.44	38803.74
540.61	38419.89
540.78	39042.48
540.95	39377.17
541.12	38857.57
541.29	39110.35
541.46	39590.16
541.62	39124.40
541.79	39407.60
541.96	38848.21
542.13	39086.95
542.30	39203.97
542.47	39463.77
542.63	38850.55
542.80	39117.37
542.97	39840.60
543.14	39997.41
543.31	39962.31
543.48	39995.07
543.64	40355.52
543.81	39922.52
543.98	39971.67
544.15	39517.60
544.32	40044.23
544.48	40297.00
544.65	39931.88
544.82	40226.79
544.99	39978.69
545.16	40374.24
545.32	39931.88
545.49	40755.75
545.66	40198.70
545.83	40392.97
546.00	40952.35
546.16	40463.18
546.33	40123.80
546.50	40250.19
546.67	40208.06
546.83	40084.01
547.00	40732.34
547.17	40261.90
547.34	40671.49
547.50	40662.13
547.67	41038.95
547.84	40795.54
548.00	40975.76
548.17	41118.53
548.34	40807.24
548.51	41450.89
548.67	40879.80
548.84	40870.43
549.01	40844.69
549.18	40830.65
549.34	40828.30
549.51	41787.92
549.68	41422.80
549.84	41544.51
550.01	41273.01
550.18	40957.03
550.34	41453.23
550.51	41226.20
550.68	41275.35
550.84	40828.30
551.01	41432.16
551.18	41420.46
551.34	41495.36
551.51	41631.11
551.68	41244.92
551.84	41490.68
552.01	41205.13
552.18	41427.48
552.34	41450.89
552.51	41640.47
552.68	41394.71
552.84	42398.80
553.01	41780.90
553.18	42314.55
553.34	41937.72
553.51	41713.03
553.67	41762.18
553.84	42061.77
554.01	42314.55
554.17	42333.27
554.34	42515.83
554.51	42520.51
554.67	42213.90
554.84	41993.89
555.00	41888.57
555.17	41961.12
555.33	42443.27
555.50	42195.18
555.67	42061.77
555.83	41811.33
556.00	42342.63
556.16	42820.10
556.33	42625.84
556.50	42405.83
556.66	42490.09
556.83	42117.94
556.99	42672.65
557.16	42834.14
557.32	42541.58
557.49	42490.09
557.65	42328.59
557.82	42611.79
557.98	42387.10
558.15	42424.55
558.32	42710.10
558.48	42630.52
558.65	42906.70
558.81	42466.68
558.98	42824.78
559.14	42887.98
559.31	42286.46
559.47	43082.24
559.64	43295.23
559.80	43189.91
559.97	42967.55
560.13	42794.36
560.30	42920.74
560.46	43082.24
560.63	42885.64
560.79	43000.32
560.96	43220.33
561.12	43175.86
561.29	42955.85
561.45	43154.80
561.61	42808.40
561.78	43213.31
561.94	43140.75
562.11	43133.73
562.27	43166.50
562.44	43091.60
562.60	43320.98
562.77	43824.19
562.93	43253.10
563.10	43255.44
563.26	42801.38
563.42	43210.97
563.59	43297.57
563.75	43229.69
563.92	43124.37
564.08	43552.69
564.24	43313.95
564.41	43515.24
564.57	43297.57
564.74	43613.54
564.90	43470.77
565.07	43133.73
565.23	43681.42
565.39	43325.66
565.56	43613.54
565.72	43512.90
565.88	43686.10
566.05	43274.16
566.21	43360.76
566.38	43306.93
566.54	43089.26
566.70	43470.77
566.87	43873.34
567.03	43674.40
567.19	44128.46
567.36	43463.75
567.52	43805.47
567.68	43548.01
567.85	43550.35
568.01	43611.20
568.17	43622.90
568.34	43749.29
568.50	43695.46
568.66	43569.07
568.83	43838.23
568.99	43964.62
569.15	43274.16
569.32	43576.09
569.48	43430.98
569.64	43833.55
569.81	43700.14
569.97	43824.19
570.13	43763.34
570.30	43693.12
570.46	43550.35
570.62	43643.97
570.78	43721.21
570.95	43405.23
571.11	43824.19
571.27	43906.11
571.43	44006.75
571.60	44062.93
571.76	44088.67
571.92	43770.36
572.09	43566.73
572.25	44161.23
572.41	43044.79
572.57	43831.21
572.74	44636.36
572.90	43952.92
573.06	44037.18
573.22	43807.81
573.38	44072.29
573.55	43409.92
573.71	44072.29
573.87	43634.61
574.03	44205.70
574.20	43878.02
574.36	43524.60
574.52	43821.85
574.68	44039.52
574.84	44170.59
575.01	43768.02
575.17	43908.45
575.33	43861.64
575.49	43536.30
575.65	44655.08
575.82	44109.74
575.98	44390.60
576.14	44336.77
576.30	44175.27
576.46	44313.36
576.62	43681.42
576.79	43777.38
576.95	43646.31
577.11	43917.81
577.27	44533.37
577.43	44112.08
577.59	44020.80
577.75	43817.17
577.92	44034.84
578.08	44058.24
578.24	43768.02
578.40	43913.13
578.56	44238.47
578.72	44414.01
578.88	44051.22
579.04	44112.08
579.21	44371.88
579.37	43894.41
579.53	44203.36
579.69	43732.91
579.85	43903.77
580.01	44348.47
580.17	44254.85
580.33	44325.07
580.49	44215.06
580.65	44062.93
580.82	44610.61
580.98	44023.14
581.14	43920.15
581.30	44189.31
581.46	43714.19
581.62	44353.15
581.78	44093.35
581.94	44519.33
582.10	44023.14
582.26	44149.53
582.42	44329.75
582.58	43894.41
582.74	44079.31
582.90	44163.57
583.06	44182.29
583.22	44418.69
583.38	44346.13
583.54	44252.51
583.70	43999.73
583.86	44013.77
584.02	43627.59
584.18	43875.68
584.34	44037.18
584.50	44341.45
584.66	44626.99
584.82	43819.51
584.98	44186.97
585.14	44360.17
585.30	44318.04
585.46	43856.96
585.62	44318.04
585.78	44210.38
585.94	43950.58
586.10	44158.89
586.26	43964.62
586.42	44102.71
586.58	44566.14
586.74	44275.91
586.90	44018.46
587.06	43873.34
587.22	44236.12
587.38	43990.37
587.54	44477.20
587.70	44825.94
587.86	44500.61
588.02	44357.83
588.18	44629.34
588.34	44299.32
588.49	44399.96
588.65	44011.43
588.81	44266.55
588.97	44163.57
589.13	44189.31
589.29	44273.57
589.45	44219.74
589.61	44252.51
589.77	44388.26
589.93	44491.24
590.08	44093.35
590.24	44671.46
590.40	44458.48
