SpectraSuite Data File
++++++++++++++++++++++++++++++++++++
Date: Fri Oct 25 11:23:08 EDT 2013
User: price-jones
Dark Spectrum Present: No
Reference Spectrum Present: No
Number of Sampled Component Spectra: 1
Spectrometers: USB2+H05261
Integration Time (usec): 100000 (USB2+H05261)
Spectra Averaged: 1 (USB2+H05261)
Boxcar Smoothing: 0 (USB2+H05261)
Correct for Electrical Dark: No (USB2+H05261)
Strobe/Lamp Enabled: No (USB2+H05261)
Correct for Detector Non-linearity: No (USB2+H05261)
Correct for Stray Light: No (USB2+H05261)
Number of Pixels in Processed Spectrum: 2048
>>>>>Begin Processed Spectral Data<<<<<
365.73	255.12
365.92	255.12
366.12	255.12
366.32	180.22
366.52	131.07
366.72	142.77
366.91	152.13
367.11	133.41
367.31	93.62
367.51	138.09
367.70	98.30
367.90	161.50
368.10	135.75
368.30	107.66
368.49	124.05
368.69	163.84
368.89	156.82
369.09	98.30
369.28	182.56
369.48	156.82
369.68	138.09
369.87	184.90
370.07	198.95
370.27	245.76
370.47	292.57
370.66	543.00
370.86	554.71
371.06	603.86
371.25	767.70
371.45	655.35
371.65	685.78
371.84	634.29
372.04	620.24
372.24	683.44
372.44	755.99
372.63	730.25
372.83	723.23
373.03	676.41
373.22	784.08
373.42	751.31
373.62	774.72
373.81	765.36
374.01	807.48
374.21	660.03
374.40	781.74
374.60	847.27
374.79	858.98
374.99	854.30
375.19	786.42
375.38	812.17
375.58	823.87
375.78	837.91
375.97	898.77
376.17	896.43
376.37	919.83
376.56	889.40
376.76	772.38
376.95	894.08
377.15	917.49
377.35	889.40
377.54	915.15
377.74	856.64
377.93	882.38
378.13	954.94
378.33	905.79
378.52	866.00
378.72	915.15
378.91	987.71
379.11	936.21
379.31	908.13
379.50	882.38
379.70	1029.84
379.89	980.68
380.09	938.55
380.28	1011.11
380.48	961.96
380.68	1041.54
380.87	931.53
381.07	1048.56
381.26	966.64
381.46	1025.15
381.65	992.39
381.85	1114.10
382.04	1034.52
382.24	1039.20
382.43	1020.47
382.63	994.73
382.83	1025.15
383.02	1043.88
383.22	1170.27
383.41	1076.65
383.61	1149.20
383.80	1074.31
384.00	1104.73
384.19	1135.16
384.39	1081.33
384.58	1100.05
384.78	1132.82
384.97	1167.93
385.17	1123.46
385.36	1137.50
385.56	1111.75
385.75	1165.59
385.95	1205.38
386.14	1167.93
386.34	1226.44
386.53	1151.54
386.72	1139.84
386.92	1177.29
387.11	1210.06
387.31	1291.98
387.50	1254.53
387.70	1275.59
387.89	1310.70
388.09	1355.17
388.28	1160.91
388.48	1301.34
388.67	1345.81
388.86	1219.42
389.06	1371.55
389.25	1322.40
389.45	1242.82
389.64	1352.83
389.84	1371.55
390.03	1327.08
390.22	1371.55
390.42	1334.11
390.61	1301.34
390.81	1343.47
391.00	1460.49
391.19	1362.19
391.39	1460.49
391.58	1493.26
391.78	1493.26
391.97	1509.65
392.16	1533.05
392.36	1507.30
392.55	1577.52
392.75	1556.46
392.94	1563.48
393.13	1495.60
393.33	1455.81
393.52	1519.01
393.71	1603.27
393.91	1565.82
394.10	1612.63
394.29	1589.22
394.49	1577.52
394.68	1657.10
394.88	1647.74
395.07	1643.06
395.26	1607.95
395.46	1666.46
395.65	1612.63
395.84	1685.19
396.04	1909.88
396.23	1755.40
396.42	1811.57
396.62	1844.34
396.81	1802.21
397.00	1830.30
397.19	1888.81
397.39	1806.89
397.58	1874.77
397.77	1797.53
397.97	1753.06
398.16	1771.79
398.35	1930.94
398.55	1834.98
398.74	1949.67
398.93	1907.54
399.12	2036.27
399.32	1935.62
399.51	1935.62
399.70	1937.96
399.90	1928.60
400.09	2026.90
400.28	2118.18
400.47	2090.10
400.67	2127.55
400.86	2092.44
401.05	2019.88
401.24	2186.06
401.44	2141.59
401.63	2153.29
401.82	2186.06
402.01	2193.08
402.21	2242.23
402.40	2303.09
402.59	2127.55
402.78	2275.00
402.97	2239.89
403.17	2279.68
403.36	2363.94
403.55	2282.02
403.74	2289.04
403.93	2331.17
404.13	2345.22
404.32	2415.43
404.51	2263.30
404.70	2492.67
404.89	2445.86
405.09	2558.21
405.28	2406.07
405.47	2532.46
405.66	2497.35
405.85	2485.65
406.05	2464.58
406.24	2621.40
406.43	2579.27
406.62	2628.42
406.81	2684.59
407.00	2633.10
407.20	2574.59
407.39	2619.06
407.58	2813.32
407.77	2654.17
407.96	2813.32
408.15	2799.28
408.34	2785.24
408.54	2775.88
408.73	2899.92
408.92	2782.90
409.11	2841.41
409.30	2789.92
409.49	2995.89
409.68	2970.14
409.87	2904.60
410.07	2991.20
410.26	3040.36
410.45	3023.97
410.64	3070.78
410.83	3059.08
411.02	3169.09
411.21	3272.07
411.40	3138.66
411.59	3183.13
411.78	3211.22
411.98	3234.62
412.17	3253.34
412.36	3344.63
412.55	3389.10
412.74	3475.70
412.93	3400.80
413.12	3368.03
413.31	3543.57
413.50	3501.44
413.69	3480.38
413.88	3700.39
414.07	3651.24
414.26	3613.79
414.45	3728.47
414.64	3775.28
414.83	3894.65
415.02	3775.28
415.22	3875.93
415.41	3796.35
415.60	3950.82
415.79	3918.06
415.98	3929.76
416.17	3981.25
416.36	3997.64
416.55	4070.19
416.74	4102.96
416.93	4081.89
417.12	4152.11
417.31	4245.73
417.50	4308.93
417.69	4196.58
417.88	4425.95
418.07	4248.07
418.26	4454.04
418.45	4194.24
418.64	4489.15
418.83	4418.93
419.02	4521.92
419.21	4589.79
419.39	4458.72
419.58	4404.89
419.77	4652.98
419.96	4606.17
420.15	4624.90
420.34	4578.09
420.53	4786.40
420.72	4751.29
420.91	4664.69
421.10	4863.63
421.29	4889.38
421.48	4746.61
421.67	4770.01
421.86	4786.40
422.05	4987.68
422.24	4849.59
422.43	4945.55
422.61	4903.42
422.80	4910.44
422.99	5008.75
423.18	4791.08
423.37	5069.60
423.56	4945.55
423.75	5011.09
423.94	4903.42
424.13	4624.90
424.32	4819.16
424.50	5158.54
424.69	5181.95
424.88	5081.30
425.07	4835.55
425.26	5008.75
425.45	5114.07
425.64	5064.92
425.83	4997.04
426.01	5048.54
426.20	5032.15
426.39	5163.22
426.58	5071.94
426.77	5151.52
426.96	5296.63
427.15	5181.95
427.33	5153.86
427.52	5376.21
427.71	5423.02
427.90	5359.83
428.09	5460.47
428.28	5294.29
428.46	5413.66
428.65	5385.57
428.84	5568.13
429.03	5647.71
429.22	5458.13
429.40	5497.92
429.59	5490.90
429.78	5425.36
429.97	5273.23
430.16	5577.50
430.34	5617.29
430.53	5727.29
430.72	5497.92
430.91	5687.50
431.10	5673.46
431.28	5746.02
431.47	6031.56
431.66	5916.87
431.85	5834.96
432.03	5902.83
432.22	6202.42
432.41	6129.86
432.60	6043.26
432.79	5912.19
432.97	5949.64
433.16	6122.84
433.35	6169.65
433.54	6054.97
433.72	6211.78
433.91	6085.39
434.10	6345.19
434.28	6155.61
434.47	6134.54
434.66	6326.47
434.85	6565.20
435.03	6380.30
435.22	6232.85
435.41	6581.59
435.59	6476.26
435.78	6651.80
435.97	6656.48
436.16	6534.78
436.34	6588.61
436.53	6616.69
436.72	6651.80
436.90	6492.65
437.09	6871.81
437.28	6417.75
437.46	6640.10
437.65	6637.76
437.84	7028.63
438.02	6789.89
438.21	6918.62
438.40	6747.76
438.58	7117.57
438.77	7211.19
438.96	6953.73
439.14	7133.95
439.33	7171.40
439.52	7325.88
439.70	7410.14
439.89	7442.90
440.08	7384.39
440.26	7646.53
440.45	7461.63
440.63	7475.67
440.82	7770.58
441.01	7363.33
441.19	7808.03
441.38	7786.96
441.57	7793.98
441.75	7796.32
441.94	7868.88
442.12	8201.24
442.31	8163.79
442.50	7953.14
442.68	8023.36
442.87	8067.83
443.05	8252.73
443.24	8241.03
443.43	8341.67
443.61	8381.46
443.80	8477.42
443.98	8234.00
444.17	7981.23
444.35	8189.53
444.54	8248.05
444.73	8390.82
444.91	8390.82
445.10	8416.57
445.28	8397.84
445.47	8287.84
445.65	8362.73
445.84	8458.70
446.02	8578.06
446.21	8547.64
446.39	8299.54
446.58	8468.06
446.77	8606.15
446.95	8315.92
447.14	8414.23
447.32	8627.21
447.51	8615.51
447.69	8358.05
447.88	8596.79
448.06	8662.32
448.25	8652.96
448.43	8753.60
448.62	8697.43
448.80	8702.11
448.99	8798.07
449.17	8901.06
449.36	8997.02
449.54	8966.59
449.73	8997.02
449.91	9081.28
450.10	9198.31
450.28	9104.68
450.46	9212.35
450.65	9280.22
450.83	9123.41
451.02	9188.94
451.20	9476.83
451.39	9355.12
451.57	9142.13
451.76	9427.68
451.94	9261.50
452.13	9495.55
452.31	9495.55
452.49	9217.03
452.68	9411.29
452.86	9397.25
453.05	9547.05
453.23	9575.13
453.42	9605.56
453.60	9303.63
453.78	9909.83
453.97	9500.23
454.15	9446.40
454.34	9647.69
454.52	9713.22
454.70	9797.48
454.89	9839.61
455.07	10015.15
455.26	9863.02
455.44	10115.80
455.62	9834.93
455.81	9966.00
455.99	10155.58
456.17	10150.90
456.36	10190.69
456.54	10359.21
456.73	10370.91
456.91	10614.33
457.09	10654.12
457.28	10789.87
457.46	10352.19
457.64	10626.03
457.83	10616.67
458.01	10553.48
458.19	10876.47
458.38	10773.49
458.56	10700.93
458.74	10876.47
458.93	10576.88
459.11	10583.90
459.29	10757.10
459.48	10780.51
459.66	10972.43
459.84	11157.33
460.03	11052.01
460.21	11073.07
460.39	11084.78
460.57	11105.84
460.76	11208.83
460.94	11468.62
461.12	11140.95
461.31	11229.89
461.49	11454.58
461.67	11473.31
461.85	11250.96
462.04	11405.43
462.22	11655.87
462.40	11826.73
462.59	11716.72
462.77	11613.74
462.95	11868.86
463.13	11765.87
463.32	11599.70
463.50	11854.81
463.68	11779.92
463.86	11985.88
464.05	11775.24
464.23	11852.47
464.41	11985.88
464.59	11871.20
464.78	12336.96
464.96	12210.57
465.14	11903.96
465.32	12187.17
465.50	12222.28
465.69	12329.94
465.87	12250.36
466.05	12306.54
466.23	12173.13
466.41	12407.18
466.60	12568.68
466.78	12453.99
466.96	12358.03
467.14	12608.47
467.32	12248.02
467.51	12741.88
467.69	12252.70
467.87	12524.21
468.05	12823.80
468.23	12568.68
468.41	12587.40
468.60	12730.17
468.78	12849.54
468.96	13088.28
469.14	12952.52
469.32	13214.66
469.50	12706.77
469.69	12968.91
469.87	13209.98
470.05	13458.08
470.23	13256.79
470.41	13413.61
470.59	13516.59
470.77	13099.98
470.95	13371.48
471.14	13745.97
471.32	13448.72
471.50	13734.26
471.68	13832.57
471.86	13877.04
472.04	13926.19
472.22	14225.78
472.40	14071.30
472.58	13984.70
472.77	13886.40
472.95	14295.99
473.13	14705.59
473.31	14349.82
473.49	14445.79
473.67	14293.65
473.85	14408.34
474.03	14951.34
474.21	14609.62
474.39	14918.57
474.57	15075.39
474.75	14949.00
474.93	15136.24
475.12	14827.29
475.30	15227.53
475.48	15054.33
475.66	15374.98
475.84	15232.21
476.02	15566.90
476.20	15667.55
476.38	15850.11
476.56	16065.44
476.74	16140.33
476.92	16070.12
477.10	16107.57
477.28	16432.90
477.46	16240.98
477.64	16697.38
477.82	16840.15
478.00	17247.41
478.18	17235.70
478.36	17167.83
478.54	17137.40
478.72	17022.72
478.90	17425.29
479.08	17603.17
479.26	17832.54
479.44	18033.83
479.62	18050.21
479.80	18349.80
479.98	18340.44
480.16	19044.94
480.34	18611.94
480.52	18991.11
480.70	18747.69
480.88	18616.62
481.06	18857.70
481.24	19014.51
481.41	19346.87
481.59	19506.02
481.77	19410.06
481.95	19747.10
482.13	19997.54
482.31	19859.45
482.49	20439.90
482.67	20219.89
482.85	20467.98
483.03	20814.38
483.21	20884.60
483.39	21268.45
483.57	21102.27
483.74	21310.58
483.92	21818.47
484.10	21624.21
484.28	22356.80
484.46	22515.95
484.64	22558.08
484.82	22188.28
485.00	22473.82
485.18	23262.58
485.35	23152.58
485.53	23051.94
485.71	23410.04
485.89	23604.30
486.07	23761.12
486.25	23442.81
486.43	24240.93
486.61	24254.97
486.78	24428.17
486.96	24390.72
487.14	24961.81
487.32	25008.62
487.50	25032.03
487.68	25184.16
487.85	25886.32
488.03	25706.10
488.21	26164.85
488.39	26010.37
488.57	26319.32
488.75	26441.03
488.92	26780.41
489.10	27124.47
489.28	27063.61
489.46	27751.73
489.64	27454.48
489.81	27875.78
489.99	28063.02
490.17	28020.89
490.35	28203.46
490.53	28510.07
490.70	29127.97
490.88	28690.29
491.06	29387.77
491.24	29083.50
491.41	29614.80
491.59	29467.34
491.77	29827.79
491.95	29844.17
492.13	29689.70
492.30	30621.23
492.48	30122.69
492.66	30288.87
492.84	30920.82
493.01	30759.32
493.19	31138.49
493.37	31887.46
493.54	31363.18
493.72	32100.45
493.90	32018.53
494.08	32100.45
494.25	32278.33
494.43	32252.58
494.61	32774.52
494.79	32477.27
494.96	33102.20
495.14	33408.81
495.32	33303.48
495.49	33675.63
495.67	33975.22
495.85	33851.17
496.02	34354.38
496.20	34572.05
496.38	34272.46
496.55	35019.10
496.73	35168.89
496.91	34679.72
497.09	35180.59
497.26	35283.58
497.44	35534.01
497.62	35817.22
497.79	36013.82
497.97	35896.80
498.14	36067.66
498.32	36776.84
498.50	36828.33
498.67	36795.56
498.85	37078.77
499.03	37558.58
499.20	37120.90
499.38	37116.22
499.56	37579.64
499.73	37453.25
499.91	38094.56
500.08	38061.79
500.26	37457.93
500.44	37895.61
500.61	38284.14
500.79	38132.01
500.97	38667.99
501.14	38766.29
501.32	38522.88
501.49	38806.08
501.67	38780.34
501.84	39611.23
502.02	39344.41
502.20	39419.30
502.37	39772.72
502.55	39819.53
502.72	39236.74
502.90	40275.94
503.07	39831.24
503.25	40385.94
503.43	40638.72
503.60	40531.06
503.78	40893.84
503.95	40612.98
504.13	41113.85
504.30	40676.17
504.48	40676.17
504.65	41614.72
504.83	41027.25
505.01	41619.41
505.18	41584.30
505.36	42052.41
505.53	41385.35
505.71	42073.47
505.88	42560.30
506.06	41654.51
506.23	42707.76
506.41	42529.87
506.58	42866.91
506.76	42700.73
506.93	42951.17
507.11	42714.78
507.28	42887.98
507.46	43225.01
507.63	43328.00
507.81	44041.86
507.98	43545.67
508.16	43655.67
508.33	44009.09
508.50	43599.50
508.68	44114.42
508.85	44055.90
509.03	44245.49
509.20	44329.75
509.38	44685.51
509.55	44641.04
509.73	44921.90
509.90	44903.18
510.08	45078.72
510.25	44718.28
510.42	45097.44
510.60	45265.96
510.77	45867.48
510.95	46014.93
511.12	45336.18
511.30	45701.30
511.47	45766.84
511.64	46078.13
511.82	46094.51
511.99	46188.13
512.17	46679.64
512.34	46174.09
512.51	46684.33
512.69	47058.81
512.86	46918.38
513.04	47374.78
513.21	47077.54
513.38	47299.89
513.56	47580.75
513.73	46845.82
513.90	47196.90
514.08	47447.34
514.25	47627.56
514.43	48025.45
514.60	47957.58
514.77	47718.84
514.95	48215.04
515.12	47807.78
515.29	48217.38
515.47	48273.55
515.64	48725.27
515.81	48292.27
515.99	48395.26
516.16	48868.05
516.33	48795.49
516.51	49083.37
516.68	49242.53
516.85	49038.90
517.03	49198.06
517.20	49663.83
517.37	49373.60
517.54	49542.12
517.72	49294.02
517.89	49310.41
518.06	49483.61
518.24	49581.91
518.41	49951.71
518.58	49682.55
518.75	49544.46
518.93	50209.17
519.10	49900.22
519.27	50319.18
519.45	50012.57
519.62	50054.70
519.79	50433.86
519.96	50178.75
520.14	50623.45
520.31	50637.49
520.48	50958.14
520.65	50761.54
520.83	51231.99
521.00	51166.45
521.17	51058.79
521.34	50899.63
521.52	51227.31
521.69	51437.95
521.86	51299.86
522.03	51447.32
522.20	51653.28
522.38	52069.90
522.55	51444.98
522.72	51398.16
522.89	51590.09
523.07	52037.13
523.24	51915.42
523.41	51861.59
523.58	51681.37
523.75	52619.92
523.92	52083.94
524.10	52198.63
524.27	52580.13
524.44	52376.51
524.61	52420.98
524.78	52343.74
524.96	52219.69
525.13	52655.03
525.30	52928.87
525.47	52868.02
525.64	52875.04
525.81	52776.74
525.98	52947.60
526.16	53132.50
526.33	53148.88
526.50	53305.70
526.67	53216.76
526.84	53471.88
527.01	53120.80
527.18	53116.12
527.36	53359.53
527.53	53738.70
527.70	53598.27
527.87	53631.04
528.04	53490.60
528.21	53860.41
528.38	53525.71
528.55	53951.69
528.72	53670.82
528.89	53764.45
529.07	53504.65
529.24	53862.75
529.41	54010.20
529.58	53925.94
529.75	54225.53
529.92	54103.82
530.09	54136.59
530.26	54267.66
530.43	54291.07
530.60	54005.52
530.77	53956.37
530.94	54358.94
531.11	54309.79
531.28	54384.69
531.46	54506.40
531.63	54817.69
531.80	54740.45
531.97	54766.20
532.14	54939.39
532.31	54607.04
532.48	54829.39
532.65	54995.57
532.82	54815.35
532.99	55107.91
533.16	55196.85
533.33	55110.25
533.50	55468.36
533.67	55096.21
533.84	54890.24
534.01	55365.37
534.18	55114.94
534.35	55538.57
534.52	55496.44
534.69	55564.32
534.86	55435.59
535.03	55344.31
535.20	55709.43
535.37	55737.52
535.54	55765.60
535.71	55320.90
535.88	55847.52
536.05	55515.17
536.22	55856.88
536.38	55852.20
536.55	55817.10
536.72	55952.85
536.89	55742.20
537.06	55877.95
537.23	56004.34
537.40	55749.22
537.57	55899.01
537.74	56062.85
537.91	56198.60
538.08	56161.15
538.25	56137.75
538.42	56467.76
538.59	56537.98
538.75	56294.56
538.92	56397.55
539.09	56470.11
539.26	56261.80
539.43	56498.19
539.60	56575.43
539.77	56629.26
539.94	56704.16
540.11	56830.55
540.28	56692.46
540.44	56573.09
540.61	56757.99
540.78	56809.48
540.95	56612.88
541.12	56860.97
541.29	56863.32
541.46	56729.90
541.62	56935.87
541.79	56949.92
541.96	56633.94
542.13	56959.28
542.30	56877.36
542.47	57139.50
542.63	57209.71
542.80	56963.96
542.97	57450.79
543.14	57364.19
543.31	57565.48
543.48	57359.51
543.64	57848.68
543.81	57474.20
543.98	57677.82
544.15	57705.91
544.32	57879.11
544.48	57944.64
544.65	57666.12
544.82	57757.40
544.99	57462.49
545.16	57773.78
545.32	57939.96
545.49	58000.82
545.66	57862.72
545.83	57923.58
546.00	57961.03
546.16	57829.96
546.33	57869.75
546.50	57780.81
546.67	58169.33
546.83	57696.55
547.00	57874.43
547.17	58005.50
547.34	58251.25
547.50	58262.96
547.67	58464.24
547.84	58307.43
548.00	58164.65
548.17	58478.28
548.34	58340.19
548.51	58602.33
548.67	58522.76
548.84	58370.62
549.01	58277.00
549.18	58466.58
549.34	58358.92
549.51	58717.02
549.68	58686.59
549.84	58578.93
550.01	58564.88
550.18	58639.78
550.34	58698.30
550.51	58656.17
550.68	58466.58
550.84	58672.55
551.01	58852.77
551.18	58621.06
551.34	58934.69
551.51	58880.86
551.68	58958.09
551.84	58859.79
552.01	58728.72
552.18	58590.63
552.34	58812.98
552.51	58913.62
552.68	58960.44
552.84	59030.65
553.01	59077.46
553.18	59245.98
553.34	58951.07
553.51	59086.82
553.67	59185.13
553.84	59150.02
554.01	59128.95
554.17	59058.74
554.34	59323.22
554.51	59271.73
554.67	59360.67
554.84	59323.22
555.00	59217.89
555.17	59288.11
555.33	59363.01
555.50	59075.12
555.67	59288.11
555.83	59178.10
556.00	59428.54
556.16	59688.34
556.33	59552.59
556.50	59480.03
556.66	59625.15
556.83	59360.67
556.99	59732.81
557.16	59819.41
557.32	59714.09
557.49	59756.22
557.65	59477.69
557.82	59615.79
557.98	59606.42
558.15	59676.64
558.32	59777.28
558.48	59721.11
558.65	59845.16
558.81	59683.66
558.98	59831.11
559.14	59943.46
559.31	59732.81
559.47	59983.25
559.64	60168.15
559.80	60172.83
559.97	59852.18
560.13	59693.02
560.30	60011.34
560.46	60011.34
560.63	59955.16
560.79	60149.43
560.96	59999.63
561.12	60013.68
561.29	60133.04
561.45	60175.17
561.61	59976.23
561.78	59971.55
561.94	60030.06
562.11	59945.80
562.27	60196.24
562.44	60285.18
562.60	60147.09
562.77	60135.38
562.93	60067.51
563.10	60355.39
563.26	60285.18
563.42	60434.97
563.59	60196.24
563.75	60367.10
563.92	60437.31
564.08	60257.09
564.24	60301.56
564.41	60420.93
564.57	60395.18
564.74	60463.06
564.90	60516.89
565.07	60207.94
565.23	60570.72
565.39	60320.29
565.56	60264.11
565.72	60348.37
565.88	60310.92
566.05	60198.58
566.21	60472.42
566.38	60360.08
566.54	60559.02
566.70	60587.11
566.87	60561.36
567.03	60514.55
567.19	60631.58
567.36	60458.38
567.52	60528.59
567.68	60739.24
567.85	60622.22
568.01	60753.29
568.17	60549.66
568.34	60729.88
568.50	60722.86
568.66	60673.71
568.83	60734.56
568.99	60584.77
569.15	60638.60
569.32	60718.18
569.48	60580.09
569.64	60750.94
569.81	60598.81
569.97	60666.69
570.13	60516.89
570.30	60530.93
570.46	60963.93
570.62	60940.53
570.78	60814.14
570.95	60816.48
571.11	60867.97
571.27	60769.67
571.43	60933.51
571.60	60790.73
571.76	60638.60
571.92	60786.05
572.09	60994.36
572.25	60814.14
572.41	60856.27
572.57	60917.12
572.74	61092.66
572.90	61083.30
573.06	60996.70
573.22	61036.49
573.38	60860.95
573.55	60893.72
573.71	61205.01
573.87	60989.68
574.03	60774.35
574.20	60893.72
574.36	60853.93
574.52	61031.81
574.68	60999.04
574.84	60994.36
575.01	61022.45
575.17	61087.98
575.33	60917.12
575.49	61043.51
575.65	61078.62
575.82	61123.09
575.98	61125.43
576.14	61254.16
576.30	61169.90
576.46	60970.96
576.62	60935.85
576.79	61212.03
576.95	61076.28
577.11	61151.18
577.27	60987.34
577.43	61048.19
577.59	60989.68
577.75	60977.98
577.92	61071.60
578.08	60910.10
578.24	61109.05
578.40	61097.34
578.56	61254.16
578.72	61080.96
578.88	61233.10
579.04	61251.82
579.21	61258.84
579.37	61385.23
579.53	61212.03
579.69	61099.68
579.85	61055.21
580.01	61141.81
580.17	60989.68
580.33	61289.27
580.49	61041.17
580.65	61408.64
580.82	61251.82
580.98	61066.92
581.14	61029.47
581.30	61385.23
581.46	61207.35
581.62	61205.01
581.78	61125.43
581.94	61296.29
582.10	61162.88
582.26	61375.87
582.42	61092.66
582.58	61265.86
582.74	61254.16
582.90	61137.13
583.06	61038.83
583.22	60863.29
583.38	61471.83
583.54	61087.98
583.70	61286.93
583.86	61223.73
584.02	61162.88
584.18	61357.14
584.34	61251.82
584.50	61146.50
584.66	61268.20
584.82	60992.02
584.98	61373.53
585.14	61275.22
585.30	61228.41
585.46	61406.30
585.62	61080.96
585.78	61265.86
585.94	61141.81
586.10	61298.63
586.26	61300.97
586.42	61120.75
586.58	61345.44
586.74	61338.42
586.90	61190.97
587.06	61169.90
587.22	61181.60
587.38	61162.88
587.54	61403.95
587.70	61549.07
587.86	61425.02
588.02	61373.53
588.18	61612.26
588.34	61268.20
588.49	61373.53
