SpectraSuite Data File
++++++++++++++++++++++++++++++++++++
Date: Fri Oct 25 11:26:36 EDT 2013
User: price-jones
Dark Spectrum Present: No
Reference Spectrum Present: No
Number of Sampled Component Spectra: 1
Spectrometers: USB2+H05261
Integration Time (usec): 100000 (USB2+H05261)
Spectra Averaged: 1 (USB2+H05261)
Boxcar Smoothing: 0 (USB2+H05261)
Correct for Electrical Dark: No (USB2+H05261)
Strobe/Lamp Enabled: No (USB2+H05261)
Correct for Detector Non-linearity: No (USB2+H05261)
Correct for Stray Light: No (USB2+H05261)
Number of Pixels in Processed Spectrum: 2048
>>>>>Begin Processed Spectral Data<<<<<
365.73	238.73
365.92	238.73
366.12	238.73
366.32	154.48
366.52	140.43
366.72	135.75
366.91	156.82
367.11	166.18
367.31	166.18
367.51	74.90
367.70	161.50
367.90	133.41
368.10	168.52
368.30	170.86
368.49	128.73
368.69	117.03
368.89	180.22
369.09	161.50
369.28	205.97
369.48	182.56
369.68	187.24
369.87	269.16
370.07	203.63
370.27	234.05
370.47	402.57
370.66	528.96
370.86	578.11
371.06	629.60
371.25	716.20
371.45	608.54
371.65	699.82
371.84	727.91
372.04	676.41
372.24	674.07
372.44	711.52
372.63	737.27
372.83	727.91
373.03	786.42
373.22	779.40
373.42	786.42
373.62	755.99
373.81	748.97
374.01	821.53
374.21	814.51
374.40	807.48
374.60	847.27
374.79	847.27
374.99	826.21
375.19	795.78
375.38	837.91
375.58	910.47
375.78	917.49
375.97	842.59
376.17	929.19
376.37	889.40
376.56	830.89
376.76	814.51
376.95	912.81
377.15	894.08
377.35	894.08
377.54	933.87
377.74	863.66
377.93	847.27
378.13	950.26
378.33	952.60
378.52	959.62
378.72	894.08
378.91	964.30
379.11	887.06
379.31	940.90
379.50	954.94
379.70	929.19
379.89	971.32
380.09	976.00
380.28	964.30
380.48	1081.33
380.68	917.49
380.87	980.68
381.07	1048.56
381.26	983.02
381.46	1015.79
381.65	1025.15
381.85	1006.43
382.04	1057.92
382.24	1118.78
382.43	1057.92
382.63	1034.52
382.83	1146.86
383.02	1135.16
383.22	1228.78
383.41	1036.86
383.61	1111.75
383.80	1125.80
384.00	1137.50
384.19	1086.01
384.39	1235.80
384.58	1196.01
384.78	1142.18
384.97	1149.20
385.17	1102.39
385.36	1097.71
385.56	1151.54
385.75	1191.33
385.95	1203.04
386.14	1144.52
386.34	1172.61
386.53	1252.19
386.72	1287.29
386.92	1336.45
387.11	1219.42
387.31	1317.72
387.50	1242.82
387.70	1334.11
387.89	1306.02
388.09	1219.42
388.28	1287.29
388.48	1263.89
388.67	1310.70
388.86	1383.26
389.06	1263.89
389.25	1336.45
389.45	1387.94
389.64	1320.06
389.84	1406.66
390.03	1500.28
390.22	1350.49
390.42	1390.28
390.61	1366.87
390.81	1455.81
391.00	1320.06
391.19	1394.96
391.39	1437.09
391.58	1432.41
391.78	1446.45
391.97	1556.46
392.16	1474.54
392.36	1486.24
392.55	1551.78
392.75	1479.22
392.94	1598.59
393.13	1572.84
393.33	1563.48
393.52	1605.61
393.71	1652.42
393.91	1640.72
394.10	1584.54
394.29	1605.61
394.49	1572.84
394.68	1577.52
394.88	1650.08
395.07	1657.10
395.26	1687.53
395.46	1636.03
395.65	1717.95
395.84	1699.23
396.04	1863.07
396.23	1830.30
396.42	1717.95
396.62	1757.74
396.81	1734.34
397.00	1823.28
397.19	1790.51
397.39	1753.06
397.58	1865.41
397.77	1706.25
397.97	1912.22
398.16	1816.26
398.35	1818.60
398.55	1853.70
398.74	1940.30
398.93	2040.95
399.12	1989.46
399.32	1980.09
399.51	1952.01
399.70	2036.27
399.90	1975.41
400.09	2047.97
400.28	2097.12
400.47	2076.06
400.67	2054.99
400.86	2005.84
401.05	2083.08
401.24	2026.90
401.44	2104.14
401.63	2169.68
401.82	2239.89
402.01	2195.42
402.21	2218.83
402.40	2132.23
402.59	2176.70
402.78	2263.30
402.97	2359.26
403.17	2197.76
403.36	2293.72
403.55	2235.21
403.74	2394.37
403.93	2246.91
404.13	2279.68
404.32	2328.83
404.51	2431.82
404.70	2361.60
404.89	2469.27
405.09	2347.56
405.28	2539.48
405.47	2399.05
405.66	2457.56
405.85	2483.31
406.05	2565.23
406.24	2605.02
406.43	2630.76
406.62	2532.46
406.81	2651.83
407.00	2642.46
407.20	2502.03
407.39	2693.96
407.58	2703.32
407.77	2808.64
407.96	2745.45
408.15	2829.71
408.34	2759.49
408.54	2841.41
408.73	2710.34
408.92	2836.73
409.11	2960.78
409.30	2963.12
409.49	3054.40
409.68	2972.48
409.87	2984.18
410.07	3045.04
410.26	2892.90
410.45	2981.84
410.64	2972.48
410.83	3066.10
411.02	3082.49
411.21	3206.53
411.40	3300.16
411.59	3346.97
411.78	3339.94
411.98	3129.30
412.17	3307.18
412.36	3356.33
412.55	3377.39
412.74	3372.71
412.93	3454.63
413.12	3396.12
413.31	3487.40
413.50	3515.48
413.69	3466.33
413.88	3520.17
414.07	3616.13
414.26	3566.98
414.45	3702.73
414.64	3644.21
414.83	3889.97
415.02	3714.43
415.22	3901.67
415.41	3847.84
415.60	3786.99
415.79	3962.53
415.98	4100.62
416.17	3904.01
416.36	3918.06
416.55	4086.58
416.74	4079.55
416.93	3946.14
417.12	4035.08
417.31	4208.28
417.50	4229.35
417.69	4205.94
417.88	4397.87
418.07	4290.20
418.26	4390.84
418.45	4276.16
418.64	4451.70
418.83	4255.09
419.02	4463.40
419.21	4421.27
419.39	4550.00
419.58	4517.23
419.77	4652.98
419.96	4664.69
420.15	4638.94
420.34	4692.77
420.53	4610.86
420.72	4667.03
420.91	4704.48
421.10	4706.82
421.29	4975.98
421.48	4718.52
421.67	4748.95
421.86	4826.18
422.05	4877.68
422.24	4753.63
422.43	4915.12
422.61	4987.68
422.80	4844.91
422.99	4940.87
423.18	4910.44
423.37	5053.22
423.56	5060.24
423.75	4933.85
423.94	4767.67
424.13	4571.07
424.32	4753.63
424.50	5036.83
424.69	5097.69
424.88	5060.24
425.07	5020.45
425.26	4924.49
425.45	5128.11
425.64	4980.66
425.83	5081.30
426.01	5083.64
426.20	5085.98
426.39	5240.46
426.58	5188.97
426.77	4877.68
426.96	5172.58
427.15	5027.47
427.33	5203.01
427.52	5191.31
427.71	5240.46
427.90	5289.61
428.09	5357.49
428.28	5511.96
428.46	5619.63
428.65	5217.05
428.84	5542.39
429.03	5399.62
429.22	5423.02
429.40	5369.19
429.59	5528.35
429.78	5357.49
429.97	5273.23
430.16	5605.58
430.34	5694.52
430.53	5621.97
430.72	5692.18
430.91	5664.10
431.10	5610.26
431.28	5713.25
431.47	5832.62
431.66	5799.85
431.85	5839.64
432.03	5643.03
432.22	6036.24
432.41	5935.60
432.60	5874.74
432.79	6057.31
432.97	5909.85
433.16	5984.75
433.35	6036.24
433.54	6031.56
433.72	6019.86
433.91	6202.42
434.10	6132.20
434.28	6188.38
434.47	6317.11
434.66	6377.96
434.85	6300.72
435.03	6345.19
435.22	6300.72
435.41	6565.20
435.59	6413.07
435.78	6649.46
435.97	6420.09
436.16	6548.82
436.34	6541.80
436.53	6523.07
436.72	6546.48
436.90	6389.66
437.09	6518.39
437.28	6562.86
437.46	6597.97
437.65	6717.34
437.84	6867.13
438.02	6850.75
438.21	6888.20
438.40	6705.63
438.58	7096.50
438.77	6963.09
438.96	7014.59
439.14	7126.93
439.33	7094.16
439.52	7148.00
439.70	7325.88
439.89	7372.69
440.08	7400.77
440.26	7316.51
440.45	7356.30
440.63	7426.52
440.82	7707.38
441.01	7590.36
441.19	7602.06
441.38	7662.91
441.57	7749.51
441.75	7899.31
441.94	8002.29
442.12	8044.42
442.31	8184.85
442.50	8067.83
442.68	8060.80
442.87	8091.23
443.05	8077.19
443.24	8166.13
443.43	8063.15
443.61	8074.85
443.80	8465.72
443.98	8077.19
444.17	7882.92
444.35	8446.99
444.54	8327.63
444.73	8299.54
444.91	8269.11
445.10	8222.30
445.28	8437.63
445.47	8299.54
445.65	8121.66
445.84	8559.34
446.02	8631.90
446.21	8461.04
446.39	8351.03
446.58	8524.23
446.77	8643.60
446.95	8280.82
447.14	8650.62
447.32	8629.56
447.51	8386.14
447.69	8353.37
447.88	8531.25
448.06	8430.61
448.25	8482.10
448.43	8727.86
448.62	8645.94
448.80	8503.17
448.99	8786.37
449.17	8514.87
449.36	8826.16
449.54	8894.04
449.73	8791.05
449.91	9238.09
450.10	8889.35
450.28	9020.42
450.46	9067.24
450.65	8985.32
450.83	8894.04
451.02	9118.73
451.20	9233.41
451.39	9221.71
451.57	9217.03
451.76	9090.64
451.94	9125.75
452.13	9455.76
452.31	9310.65
452.49	9139.79
452.68	9362.14
452.86	9249.80
453.05	9628.96
453.23	9476.83
453.42	9448.74
453.60	9275.54
453.78	9554.07
453.97	9565.77
454.15	9455.76
454.34	9540.02
454.52	9778.76
454.70	9834.93
454.89	9715.56
455.07	9729.61
455.26	10097.07
455.44	10036.22
455.62	9795.14
455.81	9830.25
455.99	9935.57
456.17	10153.24
456.36	9968.34
456.54	10286.65
456.73	10417.72
456.91	10480.92
457.09	10560.50
457.28	10373.25
457.46	10349.85
457.64	10441.13
457.83	10347.51
458.01	10509.01
458.19	10848.38
458.38	10672.84
458.56	10829.66
458.74	10651.78
458.93	10766.46
459.11	10883.49
459.29	10736.04
459.48	10726.68
459.66	10927.96
459.84	10934.98
460.03	11269.68
460.21	11180.74
460.39	10899.87
460.57	11066.05
460.76	11087.12
460.94	11236.91
461.12	11176.06
461.31	11126.91
461.49	11220.53
461.67	11452.24
461.85	11545.86
462.04	11269.68
462.22	11499.05
462.40	11730.76
462.59	11616.08
462.77	11527.14
462.95	11648.85
463.13	11557.57
463.32	11728.42
463.50	11728.42
463.68	11901.62
463.86	11742.47
464.05	11843.11
464.23	11690.98
464.41	11805.66
464.59	11609.06
464.78	12056.10
464.96	12109.93
465.14	12025.67
465.32	12191.85
465.50	12152.06
465.69	12070.14
465.87	11999.93
466.05	12105.25
466.23	12362.71
466.41	12042.06
466.60	12493.78
466.78	12308.88
466.96	12046.74
467.14	12119.29
467.32	12503.14
467.51	12727.83
467.69	12173.13
467.87	12634.21
468.05	12643.57
468.23	12482.08
468.41	12507.82
468.60	12699.75
468.78	12765.28
468.96	12734.85
469.14	12912.74
469.32	13231.05
469.50	12601.44
469.69	12973.59
469.87	13032.10
470.05	13123.38
470.23	13114.02
470.41	13369.14
470.59	13373.82
470.77	13193.60
470.95	13212.32
471.14	13404.25
471.32	13008.70
471.50	13612.56
471.68	13589.15
471.86	13593.83
472.04	13806.82
472.22	14181.31
472.40	13799.80
472.58	13710.86
472.77	14118.11
472.95	14342.80
473.13	14642.39
473.31	13846.61
473.49	14363.87
473.67	14195.35
473.85	14228.12
474.03	14590.90
474.21	14649.41
474.39	14672.82
474.57	14757.08
474.75	14785.16
474.93	14803.89
475.12	15110.50
475.30	15059.01
475.48	14988.79
475.66	15342.21
475.84	15019.22
476.02	15438.17
476.20	15538.82
476.38	15513.07
476.56	15894.58
476.74	15833.72
476.92	15915.64
477.10	15803.30
477.28	16198.85
477.46	16245.66
477.64	16397.79
477.82	16570.99
478.00	16819.09
478.18	16664.61
478.36	16973.56
478.54	17099.95
478.72	17338.69
478.90	17317.62
479.08	17385.50
479.26	17710.83
479.44	17731.90
479.62	18160.22
479.80	17851.27
479.98	18160.22
480.16	18860.04
480.34	18434.06
480.52	18881.10
480.70	18693.86
480.88	18288.95
481.06	18934.93
481.24	19047.28
481.41	19108.13
481.59	19412.40
481.77	19721.35
481.95	19688.59
482.13	19906.26
482.31	19889.87
482.49	20163.72
482.67	20322.87
482.85	20528.84
483.03	20510.11
483.21	20751.19
483.39	20987.58
483.57	20957.16
483.74	21010.99
483.92	21652.30
484.10	21174.83
484.28	21633.57
484.46	21991.67
484.64	22415.31
484.82	22003.38
485.00	22017.42
485.18	22845.97
485.35	22801.50
485.53	22761.71
485.71	23332.80
485.89	23683.88
486.07	23590.26
486.25	23145.56
486.43	23873.46
486.61	23625.37
486.78	24032.62
486.96	24226.89
487.14	24664.57
487.32	24641.16
487.50	24690.31
487.68	25090.54
487.85	25238.00
488.03	25654.61
488.21	26024.42
488.39	25781.00
488.57	26267.83
488.75	26396.56
488.92	26476.14
489.10	26871.69
489.28	26712.53
489.46	27215.75
489.64	27393.63
489.81	27555.13
489.99	27868.76
490.17	27660.45
490.35	28484.32
490.53	28208.14
490.70	28610.71
490.88	28367.29
491.06	28769.86
491.24	29041.37
491.41	29406.49
491.59	29446.28
491.77	29074.13
491.95	29785.66
492.13	29956.52
492.30	29977.58
492.48	30206.95
492.66	30314.62
492.84	30551.01
493.01	30979.33
493.19	30551.01
493.37	30785.07
493.54	30981.67
493.72	31634.68
493.90	31508.29
494.08	31604.25
494.25	31817.24
494.43	32002.14
494.61	32283.01
494.79	32224.50
494.96	32418.76
495.14	32624.73
495.32	33003.89
495.49	33153.69
495.67	33457.96
495.85	33425.19
496.02	33897.98
496.20	34192.89
496.38	34277.15
496.55	34246.72
496.73	35154.85
496.91	34431.62
497.09	34958.24
497.26	34562.69
497.44	35009.73
497.62	35435.71
497.79	36140.21
497.97	35412.31
498.14	35833.60
498.32	36449.16
498.50	35880.41
498.67	36676.19
498.85	36491.29
499.03	36896.20
499.20	36617.68
499.38	36723.01
499.56	36917.27
499.73	37331.54
499.91	37153.66
500.08	37776.25
500.26	37474.32
500.44	37839.44
500.61	37773.91
500.79	37820.72
500.97	38082.86
501.14	38464.36
501.32	38841.19
501.49	39002.69
501.67	38728.84
501.84	38916.09
502.02	39040.14
502.20	39236.74
502.37	39370.15
502.55	39196.95
502.72	39585.48
502.90	39548.03
503.07	39407.60
503.25	39866.34
503.43	39901.45
503.60	40229.13
503.78	40161.25
503.95	40009.12
504.13	40540.42
504.30	40594.25
504.48	40669.15
504.65	40844.69
504.83	41048.32
505.01	41048.32
505.18	41696.64
505.36	41500.04
505.53	41467.27
505.71	41680.26
505.88	42007.94
506.06	41612.38
506.23	42316.89
506.41	42195.18
506.58	41411.10
506.76	42511.15
506.93	42342.63
507.11	42258.37
507.28	42852.87
507.46	42845.85
507.63	43075.22
507.81	43512.90
507.98	42958.19
508.16	43409.92
508.33	43810.15
508.50	43430.98
508.68	43866.32
508.85	44217.40
509.03	44165.91
509.20	44154.21
509.38	44044.20
509.55	44568.48
509.73	44783.81
509.90	44732.32
510.08	44423.37
510.25	44870.41
510.42	44622.31
510.60	44800.19
510.77	45366.60
510.95	46033.66
511.12	45141.91
511.30	45013.18
511.47	45139.57
511.64	45483.63
511.82	46038.34
511.99	45680.24
512.17	46333.24
512.34	45801.94
512.51	46518.15
512.69	46611.77
512.86	46515.81
513.04	47295.21
513.21	46478.36
513.38	47150.09
513.56	46742.84
513.73	46347.29
513.90	46827.10
514.08	46843.48
514.25	47000.30
514.43	47215.63
514.60	47580.75
514.77	47501.17
514.95	47803.10
515.12	47538.62
515.29	47236.69
515.47	47952.90
515.64	48144.82
515.81	48046.52
515.99	48343.77
516.16	48631.65
516.33	48102.69
516.51	48568.46
516.68	48311.00
516.85	48900.81
517.03	49205.08
517.20	49116.14
517.37	48910.17
517.54	49158.27
517.72	48931.24
517.89	49181.68
518.06	49385.30
518.24	49146.57
518.41	49359.56
518.58	49464.88
518.75	49148.91
518.93	49710.64
519.10	49705.96
519.27	49799.58
519.45	50021.93
519.62	49677.87
519.79	50349.60
519.96	49986.82
520.14	50293.43
520.31	50078.10
520.48	50241.94
520.65	50429.18
520.83	50890.27
521.00	50948.78
521.17	50677.28
521.34	50562.59
521.52	51215.60
521.69	50623.45
521.86	51285.82
522.03	51037.72
522.20	51679.03
522.38	51594.77
522.55	51428.59
522.72	51281.14
522.89	51337.31
523.07	51592.43
523.24	51702.43
523.41	51856.91
523.58	51391.14
523.75	51950.53
523.92	51992.66
524.10	52112.03
524.27	52144.80
524.44	52116.71
524.61	51966.91
524.78	52189.27
524.96	52041.81
525.13	52538.01
525.30	52406.94
525.47	52547.37
525.64	52556.73
525.81	52758.02
525.98	52715.89
526.16	52568.43
526.33	52619.92
526.50	53113.78
526.67	52919.51
526.84	53045.90
527.01	52818.87
527.18	53099.73
527.36	52804.83
527.53	53272.93
527.70	53556.14
527.87	53448.47
528.04	53111.44
528.21	53176.97
528.38	53502.31
528.55	53382.94
528.72	53485.92
528.89	53556.14
529.07	53455.50
529.24	53380.60
529.41	53900.20
529.58	53879.13
529.75	53511.67
529.92	53921.26
530.09	53918.92
530.26	54188.08
530.43	54305.11
530.60	53867.43
530.77	53792.53
530.94	54192.76
531.11	54061.69
531.28	54106.16
531.46	54300.43
531.63	54391.71
531.80	54436.18
531.97	54459.58
532.14	54588.31
532.31	54583.63
532.48	54649.17
532.65	54803.64
532.82	54672.57
532.99	54841.09
533.16	54688.96
533.33	54831.73
533.50	54937.05
533.67	54990.89
533.84	54649.17
534.01	54791.94
534.18	54850.45
534.35	55501.12
534.52	55114.94
534.69	55281.11
534.86	55402.82
535.03	55203.88
535.20	55482.40
535.37	55346.65
535.54	55360.69
535.71	55173.45
535.88	55484.74
536.05	55402.82
536.22	55627.51
536.38	55861.57
536.55	55700.07
536.72	55608.79
536.89	55648.58
537.06	55821.78
537.23	55884.97
537.40	55660.28
537.57	55648.58
537.74	55772.63
537.91	56060.51
538.08	55978.59
538.25	56018.38
538.42	55992.64
538.59	56154.13
538.75	55978.59
538.92	56030.08
539.09	56271.16
539.26	56395.21
539.43	56121.37
539.60	56413.93
539.77	56465.42
539.94	56650.33
540.11	56418.61
540.28	56346.06
540.44	56371.80
540.61	56479.47
540.78	56320.31
540.95	56481.81
541.12	56779.06
541.29	56296.91
541.46	56868.00
541.62	56753.31
541.79	56828.21
541.96	56568.41
542.13	56566.07
542.30	56683.09
542.47	56753.31
542.63	56954.60
542.80	56994.39
542.97	56980.34
543.14	57462.49
543.31	57015.45
543.48	57148.86
543.64	57399.30
543.81	57394.62
543.98	57492.92
544.15	57317.38
544.32	57595.90
544.48	57698.89
544.65	57511.64
544.82	57343.12
544.99	57340.78
545.16	57642.71
545.32	57448.45
545.49	57680.16
545.66	57930.60
545.83	57694.21
546.00	57652.08
546.16	57846.34
546.33	57860.38
546.50	57558.45
546.67	58028.90
546.83	57640.37
547.00	57897.83
547.17	57640.37
547.34	57928.26
547.50	57874.43
547.67	58064.01
547.84	58166.99
548.00	57979.75
548.17	58337.85
548.34	58007.84
548.51	58391.68
548.67	58279.34
548.84	58396.37
549.01	58024.22
549.18	58487.65
549.34	58504.03
549.51	58213.80
549.68	58293.38
549.84	58471.26
550.01	58492.33
550.18	58188.06
550.34	58513.39
550.51	58387.00
550.68	58197.42
550.84	58321.47
551.01	58726.38
551.18	58576.59
551.34	58576.59
551.51	58679.57
551.68	58714.68
551.84	58646.80
552.01	58497.01
552.18	58681.91
552.34	58408.07
552.51	58590.63
552.68	58590.63
552.84	58791.92
553.01	58988.52
553.18	59084.48
553.34	58967.46
553.51	58721.70
553.67	58953.41
553.84	58827.02
554.01	59093.85
554.17	58993.20
554.34	59065.76
554.51	58976.82
554.67	59320.88
554.84	59004.91
555.00	58805.96
555.17	59093.85
555.33	59201.51
555.50	59044.69
555.67	59023.63
555.83	58859.79
556.00	59222.58
556.16	59587.70
556.33	59222.58
556.50	59213.21
556.66	59344.28
556.83	59121.93
556.99	59662.60
557.16	59388.75
557.32	59515.14
557.49	59615.79
557.65	59470.67
557.82	59213.21
557.98	59402.80
558.15	59426.20
558.32	59423.86
558.48	59419.18
558.65	59517.48
558.81	59573.66
558.98	59377.05
559.14	59611.10
559.31	59728.13
559.47	59613.44
559.64	59714.09
559.80	59608.76
559.97	59868.56
560.13	59613.44
560.30	59664.94
560.46	59987.93
560.63	59969.21
560.79	59704.73
560.96	59999.63
561.12	59950.48
561.29	59777.28
561.45	59903.67
561.61	59938.78
561.78	59896.65
561.94	59894.31
562.11	60048.78
562.27	59964.52
562.44	60046.44
562.60	60158.79
562.77	60048.78
562.93	60011.34
563.10	59955.16
563.26	60130.70
563.42	60289.86
563.59	59987.93
563.75	60203.26
563.92	60088.57
564.08	60076.87
564.24	60123.68
564.41	60158.79
564.57	60266.45
564.74	60179.85
564.90	60133.04
565.07	60072.19
565.23	60226.66
565.39	60221.98
565.56	60186.88
565.72	60231.35
565.88	60264.11
566.05	60142.41
566.21	60264.11
566.38	60219.64
566.54	60226.66
566.70	60463.06
566.87	60535.62
567.03	60133.04
567.19	60580.09
567.36	60385.82
567.52	60285.18
567.68	60594.13
567.85	60339.01
568.01	60673.71
568.17	60399.86
568.34	60521.57
568.50	60397.52
568.66	60308.58
568.83	60575.40
568.99	60376.46
569.15	60467.74
569.32	60315.61
569.48	60362.42
569.64	60776.69
569.81	60566.04
569.97	60334.33
570.13	60441.99
570.30	60453.70
570.46	60449.02
570.62	60530.93
570.78	60390.50
570.95	60533.28
571.11	60680.73
571.27	60463.06
571.43	60622.22
571.60	60570.72
571.76	60498.17
571.92	60514.55
572.09	60673.71
572.25	60647.96
572.41	60512.21
572.57	60519.23
572.74	60846.91
572.90	60860.95
573.06	60694.77
573.22	60704.13
573.38	60905.42
573.55	60465.40
573.71	60910.10
573.87	60912.44
574.03	60537.96
574.20	60683.07
574.36	60683.07
574.52	60734.56
574.68	60739.24
574.84	60818.82
575.01	60856.27
575.17	60657.32
575.33	60636.26
575.49	60699.45
575.65	60942.87
575.82	60898.40
575.98	60938.19
576.14	60900.74
576.30	60783.71
576.46	60774.35
576.62	60729.88
576.79	60732.22
576.95	60762.65
577.11	60839.89
577.27	60926.49
577.43	60816.48
577.59	60914.78
577.75	60856.27
577.92	60729.88
578.08	60804.78
578.24	60940.53
578.40	60886.70
578.56	60992.02
578.72	60755.63
578.88	60994.36
579.04	61045.85
579.21	60842.23
579.37	61104.37
579.53	61109.05
579.69	60851.59
579.85	60961.59
580.01	60818.82
580.17	60818.82
580.33	61045.85
580.49	60973.30
580.65	61010.74
580.82	60830.52
580.98	60795.42
581.14	60764.99
581.30	61188.63
581.46	60891.38
581.62	61029.47
581.78	60809.46
581.94	61066.92
582.10	60949.89
582.26	60856.27
582.42	60757.97
582.58	60905.42
582.74	61158.20
582.90	61024.79
583.06	60872.65
583.22	60846.91
583.38	61001.38
583.54	61066.92
583.70	60992.02
583.86	61071.60
584.02	60825.84
584.18	61113.73
584.34	60989.68
584.50	60882.02
584.66	61010.74
584.82	60882.02
584.98	61041.17
585.14	61385.23
585.30	61041.17
585.46	61055.21
585.62	61247.14
585.78	61097.34
585.94	60900.74
586.10	61010.74
586.26	61216.71
586.42	61006.06
586.58	61190.97
586.74	61087.98
586.90	60921.80
587.06	61052.87
587.22	61247.14
587.38	61132.45
587.54	61106.71
587.70	61268.20
587.86	60980.32
588.02	61214.37
588.18	61174.58
588.34	61052.87
588.49	61125.43
