SpectraSuite Data File
++++++++++++++++++++++++++++++++++++
Date: Fri Oct 25 10:48:01 EDT 2013
User: price-jones
Dark Spectrum Present: No
Reference Spectrum Present: No
Number of Sampled Component Spectra: 1
Spectrometers: USB2+H05261
Integration Time (usec): 100000 (USB2+H05261)
Spectra Averaged: 1 (USB2+H05261)
Boxcar Smoothing: 0 (USB2+H05261)
Correct for Electrical Dark: No (USB2+H05261)
Strobe/Lamp Enabled: No (USB2+H05261)
Correct for Detector Non-linearity: No (USB2+H05261)
Correct for Stray Light: No (USB2+H05261)
Number of Pixels in Processed Spectrum: 2048
>>>>>Begin Processed Spectral Data<<<<<
365.73	152.13
365.92	152.13
366.12	152.13
366.32	84.26
366.52	74.90
366.72	91.28
366.91	0.00
367.11	42.13
367.31	112.35
367.51	37.45
367.70	0.00
367.90	117.03
368.10	72.56
368.30	58.51
368.49	124.05
368.69	72.56
368.89	117.03
369.09	81.92
369.28	102.98
369.48	98.30
369.68	60.85
369.87	74.90
370.07	37.45
370.27	154.48
370.47	152.13
370.66	355.76
370.86	421.30
371.06	531.30
371.25	454.06
371.45	428.32
371.65	416.62
371.84	451.72
372.04	447.04
372.24	484.49
372.44	512.58
372.63	491.51
372.83	456.40
373.03	561.73
373.22	538.32
373.42	479.81
373.62	566.41
373.81	545.34
374.01	489.17
374.21	571.09
374.40	517.26
374.60	573.43
374.79	636.63
374.99	561.73
375.19	568.75
375.38	526.62
375.58	568.75
375.78	550.03
375.97	580.45
376.17	585.13
376.37	561.73
376.56	594.50
376.76	615.56
376.95	601.52
377.15	622.58
377.35	702.16
377.54	643.65
377.74	641.31
377.93	554.71
378.13	615.56
378.33	603.86
378.52	601.52
378.72	606.20
378.91	664.71
379.11	631.94
379.31	575.77
379.50	578.11
379.70	615.56
379.89	636.63
380.09	613.22
380.28	601.52
380.48	596.84
380.68	610.88
380.87	685.78
381.07	674.07
381.26	650.67
381.46	676.41
381.65	683.44
381.85	690.46
382.04	718.54
382.24	711.52
382.43	697.48
382.63	695.14
382.83	641.31
383.02	753.65
383.22	706.84
383.41	683.44
383.61	692.80
383.80	713.86
384.00	746.63
384.19	709.18
384.39	732.59
384.58	711.52
384.78	709.18
384.97	739.61
385.17	807.48
385.36	737.27
385.56	753.65
385.75	765.36
385.95	755.99
386.14	753.65
386.34	678.76
386.53	816.85
386.72	793.44
386.92	800.46
387.11	755.99
387.31	842.59
387.50	718.54
387.70	802.80
387.89	786.42
388.09	809.83
388.28	809.83
388.48	753.65
388.67	793.44
388.86	830.89
389.06	908.13
389.25	851.96
389.45	908.13
389.64	868.34
389.84	835.57
390.03	943.24
390.22	922.17
390.42	950.26
390.61	936.21
390.81	912.81
391.00	933.87
391.19	978.34
391.39	910.47
391.58	919.83
391.78	863.66
391.97	940.90
392.16	968.98
392.36	994.73
392.55	924.51
392.75	1006.43
392.94	983.02
393.13	1011.11
393.33	987.71
393.52	1067.28
393.71	1116.44
393.91	1046.22
394.10	1062.60
394.29	1006.43
394.49	1004.09
394.68	1074.31
394.88	1062.60
395.07	1100.05
395.26	1123.46
395.46	1004.09
395.65	1224.10
395.84	1100.05
396.04	1193.67
396.23	1151.54
396.42	1083.67
396.62	1104.73
396.81	1130.48
397.00	1116.44
397.19	1123.46
397.39	1205.38
397.58	1249.85
397.77	1245.16
397.97	1144.52
398.16	1200.69
398.35	1313.04
398.55	1212.40
398.74	1240.48
398.93	1306.02
399.12	1301.34
399.32	1240.48
399.51	1238.14
399.70	1383.26
399.90	1280.27
400.09	1310.70
400.28	1432.41
400.47	1359.85
400.67	1437.09
400.86	1413.68
401.05	1476.88
401.24	1423.05
401.44	1418.36
401.63	1451.13
401.82	1547.09
402.01	1500.28
402.21	1561.14
402.40	1483.90
402.59	1495.60
402.78	1521.35
402.97	1502.62
403.17	1462.83
403.36	1600.93
403.55	1533.05
403.74	1657.10
403.93	1654.76
404.13	1624.33
404.32	1750.72
404.51	1610.29
404.70	1685.19
404.89	1607.95
405.09	1764.76
405.28	1732.00
405.47	1694.55
405.66	1724.97
405.85	1671.14
406.05	1621.99
406.24	1769.44
406.43	1764.76
406.62	1816.26
406.81	1921.58
407.00	1811.57
407.20	1806.89
407.39	1856.04
407.58	1856.04
407.77	1842.00
407.96	1973.07
408.15	1966.05
408.34	1959.03
408.54	1937.96
408.73	1977.75
408.92	1933.28
409.11	2022.22
409.30	1886.47
409.49	2078.40
409.68	1940.30
409.87	2033.93
410.07	2059.67
410.26	2139.25
410.45	2153.29
410.64	2181.38
410.83	2097.12
411.02	2139.25
411.21	2204.78
411.40	2134.57
411.59	2303.09
411.78	2321.81
411.98	2270.32
412.17	2359.26
412.36	2314.79
412.55	2314.79
412.74	2340.54
412.93	2445.86
413.12	2345.22
413.31	2443.52
413.50	2408.41
413.69	2490.33
413.88	2565.23
414.07	2586.29
414.26	2448.20
414.45	2567.57
414.64	2565.23
414.83	2616.72
415.02	2614.38
415.22	2656.51
415.41	2675.23
415.60	2775.88
415.79	2621.40
415.98	2813.32
416.17	2766.51
416.36	2750.13
416.55	2736.09
416.74	2825.03
416.93	2782.90
417.12	2869.50
417.31	2953.76
417.50	2904.60
417.69	3091.85
417.88	3002.91
418.07	2885.88
418.26	3059.08
418.45	2963.12
418.64	3126.96
418.83	3183.13
419.02	3108.23
419.21	3293.13
419.39	3204.19
419.58	3084.83
419.77	3283.77
419.96	3150.36
420.15	3229.94
420.34	3300.16
420.53	3258.03
420.72	3297.81
420.91	3293.13
421.10	3307.18
421.29	3370.37
421.48	3236.96
421.67	3454.63
421.86	3335.26
422.05	3379.73
422.24	3255.69
422.43	3412.50
422.61	3424.20
422.80	3290.79
422.99	3379.73
423.18	3445.27
423.37	3428.88
423.56	3473.36
423.75	3431.23
423.94	3456.97
424.13	3131.64
424.32	3424.20
424.50	3482.72
424.69	3590.38
424.88	3454.63
425.07	3501.44
425.26	3396.12
425.45	3407.82
425.64	3548.25
425.83	3571.66
426.01	3623.15
426.20	3513.14
426.39	3527.19
426.58	3548.25
426.77	3485.06
426.96	3515.48
427.15	3576.34
427.33	3604.42
427.52	3576.34
427.71	3557.61
427.90	3705.07
428.09	3637.19
428.28	3880.61
428.46	3684.00
428.65	3501.44
428.84	3794.01
429.03	3808.05
429.22	3728.47
429.40	3723.79
429.59	3850.18
429.78	3639.53
429.97	3405.48
430.16	3791.67
430.34	3803.37
430.53	3859.54
430.72	3866.56
430.91	3873.59
431.10	3840.82
431.28	4021.04
431.47	4128.70
431.66	4081.89
431.85	3999.98
432.03	4039.76
432.22	4182.54
432.41	4203.60
432.60	4121.68
432.79	4208.28
432.97	4372.12
433.16	4227.01
433.35	4217.65
433.54	4133.39
433.72	4292.54
433.91	4243.39
434.10	4224.67
434.28	4180.20
434.47	4395.53
434.66	4388.50
434.85	4432.97
435.03	4348.72
435.22	4339.35
435.41	4571.07
435.59	4411.91
435.78	4425.95
435.97	4440.00
436.16	4486.81
436.34	4477.44
436.53	4681.07
436.72	4561.70
436.90	4528.94
437.09	4636.60
437.28	4620.22
437.46	4587.45
437.65	4507.87
437.84	4629.58
438.02	4606.17
438.21	4587.45
438.40	4482.13
438.58	4863.63
438.77	4720.86
438.96	4737.24
439.14	4898.74
439.33	4987.68
439.52	5210.03
439.70	4975.98
439.89	5203.01
440.08	5057.90
440.26	5163.22
440.45	5041.51
440.63	5027.47
440.82	5284.93
441.01	5174.92
441.19	5224.08
441.38	5343.44
441.57	5455.79
441.75	5458.13
441.94	5526.00
442.12	5619.63
442.31	5701.54
442.50	5603.24
442.68	5472.17
442.87	5558.77
443.05	5701.54
443.24	5668.78
443.43	5645.37
443.61	5696.86
443.80	5891.13
443.98	5535.37
444.17	5444.09
444.35	5668.78
444.54	5650.05
444.73	5727.29
444.91	5841.98
445.10	5708.57
445.28	5692.18
445.47	5757.72
445.65	5682.82
445.84	5792.83
446.02	5741.33
446.21	5982.41
446.39	5909.85
446.58	5933.26
446.77	5944.96
446.95	5680.48
447.14	5671.12
447.32	6043.26
447.51	5926.24
447.69	5905.17
447.88	6078.37
448.06	5959.00
448.25	5905.17
448.43	5928.58
448.62	5902.83
448.80	5970.71
448.99	5928.58
449.17	6005.81
449.36	5984.75
449.54	5994.11
449.73	6143.91
449.91	6256.25
450.10	6221.14
450.28	6216.46
450.46	6317.11
450.65	6373.28
450.83	6237.53
451.02	6368.60
451.20	6342.85
451.39	6338.17
451.57	6382.64
451.76	6242.21
451.94	6445.84
452.13	6422.43
452.31	6572.22
452.49	6190.72
452.68	6368.60
452.86	6321.79
453.05	6597.97
453.23	6462.22
453.42	6293.70
453.60	6546.48
453.78	6654.14
453.97	6518.39
454.15	6537.12
454.34	6539.46
454.52	6562.86
454.70	6654.14
454.89	6604.99
455.07	6923.30
455.26	6696.27
455.44	6918.62
455.62	6939.69
455.81	6846.07
455.99	6832.02
456.17	6815.64
456.36	6949.05
456.54	7061.40
456.73	7012.24
456.91	6944.37
457.09	7035.65
457.28	7166.72
457.46	7215.87
457.64	7143.32
457.83	7267.36
458.01	6876.49
458.19	7258.00
458.38	7225.23
458.56	7372.69
458.74	7281.41
458.93	7197.15
459.11	7227.57
459.29	7403.11
459.48	7412.48
459.66	7548.23
459.84	7372.69
460.03	7527.16
460.21	7426.52
460.39	7508.44
460.57	7555.25
460.76	7478.01
460.94	7513.12
461.12	7421.84
461.31	7417.16
461.49	7573.97
461.67	7470.99
461.85	7805.69
462.04	7602.06
462.22	8114.64
462.40	7964.84
462.59	7962.50
462.77	7894.63
462.95	7889.95
463.13	7691.00
463.32	7857.18
463.50	7871.22
463.68	7950.80
463.86	7899.31
464.05	7889.95
464.23	7962.50
464.41	8084.21
464.59	8023.36
464.78	8049.10
464.96	8248.05
465.14	8147.40
465.32	8236.35
465.50	8131.02
465.69	8306.56
465.87	8276.13
466.05	8294.86
466.23	8367.42
466.41	8072.51
466.60	8545.30
466.78	8278.47
466.96	8306.56
467.14	8234.00
467.32	8454.02
467.51	8421.25
467.69	8226.98
467.87	8404.86
468.05	8472.74
468.23	8341.67
468.41	8182.51
468.60	8482.10
468.78	8568.70
468.96	8568.70
469.14	8638.92
469.32	8699.77
469.50	8690.41
469.69	8596.79
469.87	8865.95
470.05	8720.84
470.23	8695.09
470.41	8706.79
470.59	8959.57
470.77	8760.63
470.95	8805.10
471.14	8957.23
471.32	8858.93
471.50	9142.13
471.68	9097.66
471.86	9191.28
472.04	9191.28
472.22	9362.14
472.40	9163.20
472.58	9317.67
472.77	9247.46
472.95	9413.63
473.13	9762.37
473.31	9444.06
473.49	9486.19
473.67	9509.60
473.85	9406.61
474.03	9844.29
474.21	9804.50
474.39	9846.63
474.57	9685.14
474.75	10104.09
474.93	9820.89
475.12	10003.45
475.30	10164.95
475.48	10052.60
475.66	10235.16
475.84	10047.92
476.02	10249.21
476.20	10251.55
476.38	10361.55
476.56	10710.29
476.74	10752.42
476.92	10623.69
477.10	10567.52
477.28	10984.13
477.46	10923.28
477.64	11054.35
477.82	10939.66
478.00	11054.35
478.18	11159.67
478.36	11286.06
478.54	11342.24
478.72	11426.50
478.90	11529.48
479.08	11597.35
479.26	11772.89
479.44	11686.29
479.62	11962.48
479.80	11906.31
479.98	11758.85
480.16	12161.42
480.34	11990.56
480.52	12180.15
480.70	12149.72
480.88	12126.32
481.06	12343.99
481.24	12161.42
481.41	12889.33
481.59	12877.63
481.77	13067.21
481.95	12973.59
482.13	12753.58
482.31	13078.91
482.49	13437.02
482.67	13418.29
482.85	13586.81
483.03	13348.08
483.21	13528.30
483.39	13841.93
483.57	13813.84
483.74	13893.42
483.92	14038.53
484.10	14190.67
484.28	14272.59
484.46	14501.96
484.64	14520.68
484.82	14195.35
485.00	14576.86
485.18	14843.68
485.35	15023.90
485.53	14733.67
485.71	14846.02
485.89	15119.86
486.07	15126.88
486.25	15218.16
486.43	15243.91
486.61	15344.55
486.78	15761.17
486.96	16009.26
487.14	16140.33
487.32	16030.33
487.50	16149.70
487.68	16472.69
487.85	16472.69
488.03	16989.95
488.21	16886.97
488.39	16823.77
488.57	17069.53
488.75	17109.32
488.92	17453.37
489.10	17216.98
489.28	17378.48
489.46	17954.25
489.64	17507.21
489.81	18148.51
489.99	18345.12
490.17	18291.29
490.35	17961.27
490.53	18370.86
490.70	18937.27
490.88	18504.28
491.06	18693.86
491.24	18637.69
491.41	19002.81
491.59	19058.98
491.77	18764.07
491.95	19150.26
492.13	19419.42
492.30	19400.70
492.48	19463.90
492.66	19719.01
492.84	19880.51
493.01	19609.01
493.19	19702.63
493.37	19999.88
493.54	20152.01
493.72	20421.17
493.90	20493.73
494.08	20458.62
494.25	20950.14
494.43	21177.17
494.61	21223.98
494.79	20936.09
494.96	21181.85
495.14	21436.97
495.32	21568.04
495.49	21687.40
495.67	21301.22
495.85	21717.83
496.02	21797.41
496.20	22174.24
496.38	22157.85
496.55	22169.55
496.73	22501.91
496.91	22239.77
497.09	22565.10
497.26	22937.25
497.44	22733.62
497.62	22768.73
497.79	23119.81
497.97	23030.87
498.14	23023.85
498.32	23335.14
498.50	23250.88
498.67	23957.72
498.85	23791.55
499.03	23688.56
499.20	23667.50
499.38	23988.15
499.56	24034.96
499.73	23976.45
499.91	24526.47
500.08	24332.21
500.26	24114.54
500.44	24187.10
500.61	24416.47
500.79	24430.51
500.97	24648.18
501.14	25104.59
501.32	24856.49
501.49	25029.69
501.67	24877.55
501.84	25205.23
502.02	24936.07
502.20	25560.99
502.37	25528.22
502.55	25551.63
502.72	25436.94
502.90	25586.74
503.07	25312.89
503.25	25612.48
503.43	25647.59
503.60	25736.53
503.78	26040.80
503.95	25762.28
504.13	26099.31
504.30	26132.08
504.48	26162.51
504.65	26218.68
504.83	26820.20
505.01	26663.38
505.18	26445.71
505.36	27005.10
505.53	27178.30
505.71	26845.94
505.88	26740.62
506.06	26787.43
506.23	27225.11
506.41	26726.58
506.58	27339.80
506.76	27246.18
506.93	27475.55
507.11	27843.01
507.28	27644.07
507.46	27459.16
507.63	27761.09
507.81	28048.98
507.98	27592.58
508.16	28086.43
508.33	28098.13
508.50	28304.10
508.68	28486.66
508.85	27913.23
509.03	28575.60
509.20	28222.18
509.38	28741.78
509.55	28720.71
509.73	29013.28
509.90	28849.44
510.08	28840.08
510.25	28905.62
510.42	29469.69
510.60	29490.75
510.77	28856.46
510.95	29305.85
511.12	28891.57
511.30	29502.45
511.47	29764.59
511.64	30005.67
511.82	30103.97
511.99	29209.89
512.17	30122.69
512.34	29565.65
512.51	29933.11
512.69	30047.80
512.86	30426.96
513.04	30263.13
513.21	30438.67
513.38	30412.92
513.56	30499.52
513.73	30265.47
513.90	30478.46
514.08	30565.06
514.25	30560.37
514.43	30560.37
514.60	30848.26
514.77	30497.18
514.95	30998.06
515.12	31115.08
515.29	31791.50
515.47	31393.61
515.64	31295.30
515.81	31215.72
515.99	31592.55
516.16	31784.48
516.33	31688.51
516.51	31517.65
516.68	31173.60
516.85	31431.05
517.03	31356.16
517.20	31751.71
517.37	31482.55
517.54	32222.16
517.72	32046.62
517.89	32011.51
518.06	31882.78
518.24	32048.96
518.41	31667.45
518.58	32390.67
518.75	32393.01
518.93	32479.61
519.10	32170.66
519.27	32428.12
519.45	32484.30
519.62	32961.76
519.79	32926.66
519.96	32638.77
520.14	33099.86
520.31	32914.95
520.48	33364.34
520.65	33003.89
520.83	33628.82
521.00	33553.92
521.17	33380.72
521.34	33149.01
521.52	33369.02
521.69	33923.72
521.86	34223.31
522.03	34071.18
522.20	33668.61
522.38	34134.37
522.55	34277.15
522.72	33832.44
522.89	34019.69
523.07	34235.02
523.24	33923.72
523.41	33802.02
523.58	34272.46
523.75	34885.68
523.92	34384.81
524.10	34415.24
524.27	34658.65
524.44	34670.36
524.61	34806.11
524.78	34897.39
524.96	34965.26
525.13	35243.79
525.30	35093.99
525.47	35323.36
525.64	35082.29
525.81	35339.75
525.98	35365.49
526.16	34923.13
526.33	34951.22
526.50	34941.86
526.67	35281.24
526.84	35194.64
527.01	35414.65
527.18	35377.20
527.36	35515.29
527.53	35861.69
527.70	35370.18
527.87	35412.31
528.04	35674.45
528.21	35702.53
528.38	35992.76
528.55	36030.21
528.72	36058.29
528.89	35971.69
529.07	35913.18
529.24	36091.06
529.41	36065.31
529.58	36079.36
529.75	35917.86
529.92	36435.12
530.09	36198.73
530.26	37013.23
530.43	37090.47
530.60	36231.49
530.77	36552.15
530.94	37017.91
531.11	36858.76
531.28	36987.49
531.46	37038.98
531.63	36919.61
531.80	36741.73
531.97	37043.66
532.14	37305.80
532.31	36966.42
532.48	37205.16
532.65	37483.68
532.82	37120.90
532.99	37439.21
533.16	37024.93
533.33	37598.37
533.50	37837.10
533.67	37703.69
533.84	37322.18
534.01	37652.20
534.18	38040.73
534.35	37944.76
534.52	37509.43
534.69	37916.68
534.86	37736.46
535.03	37495.38
535.20	38085.20
535.37	38190.52
535.54	38211.59
535.71	37792.63
535.88	37951.79
536.05	38555.64
536.22	38124.99
536.38	38405.85
536.55	38012.64
536.72	37947.11
536.89	38258.40
537.06	38014.98
537.23	38050.09
537.40	38408.19
537.57	38536.92
537.74	38686.71
537.91	38778.00
538.08	38611.82
538.25	38778.00
538.42	38424.57
538.59	38848.21
538.75	38597.77
538.92	38855.23
539.09	38700.76
539.26	38660.97
539.43	38864.60
539.60	38831.83
539.77	39009.71
539.94	39145.46
540.11	39115.03
540.28	38899.70
540.44	39054.18
540.61	39239.08
540.78	39225.04
540.95	39140.78
541.12	39288.23
541.29	39381.85
541.46	39306.96
541.62	39379.51
541.79	39807.83
541.96	39459.09
542.13	39578.46
542.30	39812.51
542.47	39641.65
542.63	39569.10
542.80	39875.71
542.97	40030.18
543.14	40453.82
543.31	40329.77
543.48	40229.13
543.64	40708.94
543.81	40561.48
543.98	40374.24
544.15	40580.21
544.32	40091.04
544.48	40664.47
544.65	40217.43
544.82	40912.56
544.99	40170.61
545.16	40369.56
545.32	40252.53
545.49	40797.88
545.66	41064.70
545.83	41177.04
546.00	41322.16
546.16	40664.47
546.33	40765.11
546.50	40383.60
546.67	41254.28
546.83	40542.76
547.00	40465.52
547.17	40722.98
547.34	40392.97
547.50	41193.43
547.67	41315.14
547.84	41233.22
548.00	41130.23
548.17	41198.11
548.34	40954.69
548.51	41359.61
548.67	41319.82
548.84	41584.30
549.01	41022.57
549.18	41134.92
549.34	41265.99
549.51	41397.06
549.68	41701.32
549.84	41511.74
550.01	41738.77
550.18	41764.52
550.34	41415.78
550.51	41600.68
550.68	41429.82
550.84	41083.42
551.01	41617.07
551.18	41930.70
551.34	41853.46
551.51	41827.71
551.68	42148.37
551.84	42080.49
552.01	41975.17
552.18	41715.37
552.34	42007.94
552.51	42036.02
552.68	41890.91
552.84	42213.90
553.01	42642.22
553.18	42553.28
553.34	42330.93
553.51	42249.01
553.67	42471.36
553.84	42012.62
554.01	42302.84
554.17	42096.88
554.34	42555.62
554.51	42614.13
554.67	42822.44
554.84	42677.33
555.00	41979.85
555.17	42155.39
555.33	42866.91
555.50	42270.08
555.67	42483.06
555.83	42850.53
556.00	42574.34
556.16	43325.66
556.33	42714.78
556.50	42560.30
556.66	42609.45
556.83	42593.07
556.99	42834.14
557.16	42602.43
557.32	42611.79
557.49	42731.16
557.65	42944.15
557.82	42873.93
557.98	43318.64
558.15	42988.62
558.32	42955.85
558.48	42829.46
558.65	43299.91
558.81	43103.31
558.98	43079.90
559.14	43304.59
559.31	42738.18
559.47	43430.98
559.64	43636.95
559.80	43840.57
559.97	43442.68
560.13	42871.59
560.30	43166.50
560.46	42857.55
560.63	42852.87
560.79	43550.35
560.96	43608.86
561.12	43398.21
561.29	43313.95
561.45	43423.96
561.61	43381.83
561.78	43695.46
561.94	43297.57
562.11	43295.23
562.27	43498.86
562.44	43297.57
562.60	43700.14
562.77	43866.32
562.93	43531.62
563.10	43704.82
563.26	43213.31
563.42	43304.59
563.59	43342.04
563.75	43325.66
563.92	43941.22
564.08	43615.88
564.24	43693.12
564.41	43985.69
564.57	43910.79
564.74	43611.20
564.90	43955.26
565.07	44102.71
565.23	43676.74
565.39	43775.04
565.56	44292.30
565.72	43690.78
565.88	43791.42
566.05	44182.29
566.21	43779.72
566.38	43622.90
566.54	43515.24
566.70	44404.64
566.87	44282.94
567.03	44002.07
567.19	44013.77
567.36	43988.03
567.52	43945.90
567.68	43945.90
567.85	43526.94
568.01	44250.17
568.17	44048.88
568.34	43981.01
568.50	43964.62
568.66	43744.61
568.83	43826.53
568.99	43639.29
569.15	44100.37
569.32	43927.17
569.48	43906.11
569.64	44086.33
569.81	43962.28
569.97	43742.27
570.13	44325.07
570.30	43941.22
570.46	43725.89
570.62	43454.39
570.78	43686.10
570.95	44032.50
571.11	44432.73
571.27	43824.19
571.43	43796.10
571.60	44266.55
571.76	43636.95
571.92	44095.69
572.09	44168.25
572.25	44170.59
572.41	44215.06
572.57	44388.26
572.74	44772.11
572.90	44414.01
573.06	44165.91
573.22	44463.16
573.38	44182.29
573.55	44126.12
573.71	44114.42
573.87	44126.12
574.03	44135.48
574.20	44165.91
574.36	44011.43
574.52	44477.20
574.68	44044.20
574.84	44402.30
575.01	44636.36
575.17	44318.04
575.33	44329.75
575.49	43983.35
575.65	44336.77
575.82	44488.90
575.98	44334.43
576.14	44402.30
576.30	44509.97
576.46	44240.81
576.62	44039.52
576.79	44105.06
576.95	43852.28
577.11	44320.38
577.27	44638.70
577.43	44383.58
577.59	44247.83
577.75	44332.09
577.92	44067.61
578.08	44025.48
578.24	43896.75
578.40	43824.19
578.56	44222.08
578.72	44161.23
578.88	44547.42
579.04	44711.25
579.21	44046.54
579.37	44072.29
579.53	44390.60
579.69	44201.02
579.85	44671.46
580.01	44226.76
580.17	44449.11
580.33	44765.09
580.49	44481.88
580.65	44851.69
580.82	44179.95
580.98	44100.37
581.14	44109.74
581.30	44898.50
581.46	43814.83
581.62	44762.75
581.78	44332.09
581.94	44641.04
582.10	44519.33
582.26	44638.70
582.42	44521.67
582.58	44711.25
582.74	43962.28
582.90	44781.47
583.06	44715.93
583.22	44783.81
583.38	44737.00
583.54	44793.17
583.70	44699.55
583.86	44641.04
584.02	44444.43
584.18	44481.88
584.34	44596.57
584.50	44744.02
584.66	44844.66
584.82	44322.72
584.98	44940.63
585.14	44729.98
585.30	44332.09
585.46	44299.32
585.62	44439.75
585.78	44257.19
585.94	43959.94
586.10	44369.54
586.26	44432.73
586.42	44292.30
586.58	44514.65
586.74	44680.83
586.90	44116.76
587.06	44449.11
587.22	44500.61
587.38	44477.20
587.54	44837.64
587.70	44509.97
587.86	44315.70
588.02	44671.46
588.18	44652.74
588.34	44964.03
588.49	44446.77
588.65	43842.92
588.81	44404.64
588.97	44430.39
589.13	44121.44
589.29	44856.37
589.45	44900.84
589.61	44776.79
589.77	44882.11
589.93	44474.86
590.08	45001.48
590.24	44900.84
