SpectraSuite Data File
++++++++++++++++++++++++++++++++++++
Date: Fri Oct 25 11:24:09 EDT 2013
User: price-jones
Dark Spectrum Present: No
Reference Spectrum Present: No
Number of Sampled Component Spectra: 1
Spectrometers: USB2+H05261
Integration Time (usec): 100000 (USB2+H05261)
Spectra Averaged: 1 (USB2+H05261)
Boxcar Smoothing: 0 (USB2+H05261)
Correct for Electrical Dark: No (USB2+H05261)
Strobe/Lamp Enabled: No (USB2+H05261)
Correct for Detector Non-linearity: No (USB2+H05261)
Correct for Stray Light: No (USB2+H05261)
Number of Pixels in Processed Spectrum: 2048
>>>>>Begin Processed Spectral Data<<<<<
365.73	203.63
365.92	203.63
366.12	203.63
366.32	149.79
366.52	154.48
366.72	175.54
366.91	91.28
367.11	175.54
367.31	175.54
367.51	93.62
367.70	145.11
367.90	154.48
368.10	147.45
368.30	154.48
368.49	117.03
368.69	126.39
368.89	140.43
369.09	145.11
369.28	271.50
369.48	154.48
369.68	168.52
369.87	220.01
370.07	217.67
370.27	292.57
370.47	301.93
370.66	650.67
370.86	702.16
371.06	585.13
371.25	660.03
371.45	671.73
371.65	676.41
371.84	662.37
372.04	660.03
372.24	755.99
372.44	727.91
372.63	723.23
372.83	695.14
373.03	753.65
373.22	751.31
373.42	711.52
373.62	751.31
373.81	746.63
374.01	877.70
374.21	840.25
374.40	819.19
374.60	866.00
374.79	802.80
374.99	819.19
375.19	809.83
375.38	826.21
375.58	767.70
375.78	835.57
375.97	821.53
376.17	849.61
376.37	763.01
376.56	833.23
376.76	807.48
376.95	830.89
377.15	870.68
377.35	901.11
377.54	968.98
377.74	856.64
377.93	922.17
378.13	861.32
378.33	952.60
378.52	898.77
378.72	978.34
378.91	947.92
379.11	828.55
379.31	887.06
379.50	973.66
379.70	1001.75
379.89	994.73
380.09	978.34
380.28	1046.22
380.48	976.00
380.68	997.07
380.87	992.39
381.07	964.30
381.26	1029.84
381.46	926.85
381.65	973.66
381.85	1081.33
382.04	1081.33
382.24	1029.84
382.43	1050.90
382.63	1022.81
382.83	1046.22
383.02	1111.75
383.22	1020.47
383.41	1109.41
383.61	1064.94
383.80	1158.57
384.00	1076.65
384.19	1032.18
384.39	1207.72
384.58	1135.16
384.78	1153.88
384.97	1123.46
385.17	1177.29
385.36	1156.22
385.56	1125.80
385.75	1104.73
385.95	1121.12
386.14	1167.93
386.34	1196.01
386.53	1249.85
386.72	1149.20
386.92	1275.59
387.11	1193.67
387.31	1181.97
387.50	1226.44
387.70	1240.48
387.89	1219.42
388.09	1261.55
388.28	1249.85
388.48	1275.59
388.67	1380.92
388.86	1373.89
389.06	1310.70
389.25	1369.21
389.45	1352.83
389.64	1352.83
389.84	1350.49
390.03	1369.21
390.22	1425.39
390.42	1345.81
390.61	1451.13
390.81	1469.86
391.00	1479.22
391.19	1444.11
391.39	1481.56
391.58	1427.73
391.78	1486.24
391.97	1563.48
392.16	1490.92
392.36	1526.03
392.55	1535.39
392.75	1451.13
392.94	1584.54
393.13	1537.73
393.33	1554.12
393.52	1486.24
393.71	1556.46
393.91	1535.39
394.10	1542.41
394.29	1624.33
394.49	1514.33
394.68	1689.87
394.88	1603.27
395.07	1769.44
395.26	1720.29
395.46	1659.44
395.65	1727.32
395.84	1617.31
396.04	1832.64
396.23	1778.81
396.42	1675.82
396.62	1703.91
396.81	1739.02
397.00	1750.72
397.19	1839.66
397.39	1746.04
397.58	1886.47
397.77	1818.60
397.97	1884.13
398.16	1849.02
398.35	1895.83
398.55	1933.28
398.74	1952.01
398.93	1891.15
399.12	1849.02
399.32	1952.01
399.51	1898.17
399.70	2052.65
399.90	1963.71
400.09	2003.50
400.28	2019.88
400.47	1980.09
400.67	2005.84
400.86	2104.14
401.05	2118.18
401.24	2246.91
401.44	2186.06
401.63	2202.44
401.82	2237.55
402.01	2054.99
402.21	2097.12
402.40	2134.57
402.59	2108.82
402.78	2155.63
402.97	2197.76
403.17	2408.41
403.36	2263.30
403.55	2284.36
403.74	2363.94
403.93	2305.43
404.13	2495.01
404.32	2490.33
404.51	2321.81
404.70	2284.36
404.89	2382.67
405.09	2504.37
405.28	2548.84
405.47	2436.50
405.66	2499.69
405.85	2504.37
406.05	2647.15
406.24	2569.91
406.43	2487.99
406.62	2593.31
406.81	2628.42
407.00	2520.76
407.20	2567.57
407.39	2621.40
407.58	2731.41
407.77	2731.41
407.96	2738.43
408.15	2785.24
408.34	2717.36
408.54	2792.26
408.73	2881.20
408.92	2785.24
409.11	2853.11
409.30	2792.26
409.49	2747.79
409.68	2839.07
409.87	2918.65
410.07	3112.91
410.26	3103.55
410.45	2986.52
410.64	2995.89
410.83	3103.55
411.02	3141.00
411.21	3201.85
411.40	3143.34
411.59	3265.05
411.78	3052.06
411.98	3176.11
412.17	3213.56
412.36	3286.11
412.55	3428.88
412.74	3330.58
412.93	3410.16
413.12	3391.44
413.31	3522.51
413.50	3452.29
413.69	3452.29
413.88	3667.62
414.07	3609.11
414.26	3578.68
414.45	3691.02
414.64	3609.11
414.83	3721.45
415.02	3819.75
415.22	3873.59
415.41	3833.80
415.60	3847.84
415.79	3894.65
415.98	4140.41
416.17	3857.20
416.36	3997.64
416.55	3948.48
416.74	4224.67
416.93	4159.13
417.12	4051.47
417.31	4159.13
417.50	4154.45
417.69	4355.74
417.88	4390.84
418.07	4341.69
418.26	4348.72
418.45	4428.29
418.64	4550.00
418.83	4451.70
419.02	4496.17
419.21	4641.28
419.39	4580.43
419.58	4573.41
419.77	4369.78
419.96	4531.28
420.15	4629.58
420.34	4486.81
420.53	4695.11
420.72	4720.86
420.91	4622.56
421.10	4648.30
421.29	4809.80
421.48	4695.11
421.67	4774.69
421.86	4802.78
422.05	4809.80
422.24	4861.29
422.43	4826.18
422.61	4943.21
422.80	4957.25
422.99	5008.75
423.18	5001.72
423.37	4933.85
423.56	4798.10
423.75	4926.83
423.94	4819.16
424.13	4645.96
424.32	4863.63
424.50	5034.49
424.69	5053.22
424.88	5027.47
425.07	4940.87
425.26	4870.65
425.45	4917.47
425.64	4910.44
425.83	4940.87
426.01	5193.65
426.20	5060.24
426.39	5153.86
426.58	4896.40
426.77	4983.00
426.96	5205.35
427.15	5064.92
427.33	5341.10
427.52	5287.27
427.71	5095.35
427.90	5184.29
428.09	5200.67
428.28	5432.38
428.46	5404.30
428.65	5357.49
428.84	5514.30
429.03	5671.12
429.22	5252.16
429.40	5516.64
429.59	5504.94
429.78	5343.44
429.97	5270.89
430.16	5640.69
430.34	5769.42
430.53	5701.54
430.72	5589.20
430.91	5542.39
431.10	5729.63
431.28	5654.73
431.47	5818.57
431.66	5809.21
431.85	5926.24
432.03	6029.22
432.22	5994.11
432.41	5884.11
432.60	5888.79
432.79	5984.75
432.97	5968.37
433.16	6090.07
433.35	5996.45
433.54	6043.26
433.72	6239.87
433.91	6132.20
434.10	6143.91
434.28	6270.30
434.47	6183.70
434.66	6340.51
434.85	6150.93
435.03	6300.72
435.22	6349.87
435.41	6715.00
435.59	6406.05
435.78	6478.60
435.97	6492.65
436.16	6389.66
436.34	6509.03
436.53	6420.09
436.72	6696.27
436.90	6534.78
437.09	6654.14
437.28	6525.41
437.46	6637.76
437.65	6857.77
437.84	6843.73
438.02	6855.43
438.21	6867.13
438.40	6581.59
438.58	6984.16
438.77	7136.29
438.96	6963.09
439.14	7023.95
439.33	7218.21
439.52	7248.64
439.70	7194.81
439.89	7281.41
440.08	7438.22
440.26	7426.52
440.45	7382.05
440.63	7403.11
440.82	7632.49
441.01	7370.35
441.19	7681.64
441.38	7805.69
441.57	7751.85
441.75	7822.07
441.94	8093.57
442.12	7936.76
442.31	8044.42
442.50	8086.55
442.68	7981.23
442.87	7971.86
443.05	8189.53
443.24	8056.12
443.43	8037.40
443.61	8163.79
443.80	8376.78
443.98	8030.38
444.17	7950.80
444.35	8290.18
444.54	8514.87
444.73	8414.23
444.91	8322.94
445.10	8430.61
445.28	8575.72
445.47	8287.84
445.65	8517.21
445.84	8475.08
446.02	8578.06
446.21	8535.93
446.39	8601.47
446.58	8500.83
446.77	8606.15
446.95	8290.18
447.14	8512.53
447.32	8526.57
447.51	8526.57
447.69	8311.24
447.88	8568.70
448.06	8650.62
448.25	8622.53
448.43	8697.43
448.62	8610.83
448.80	8580.40
448.99	8627.21
449.17	8861.27
449.36	8727.86
449.54	9041.49
449.73	9013.40
449.91	8997.02
450.10	9001.70
450.28	9027.45
450.46	9118.73
450.65	9153.84
450.83	9036.81
451.02	9144.47
451.20	9263.84
451.39	9181.92
451.57	9071.92
451.76	9195.96
451.94	9111.71
452.13	9380.87
452.31	9210.01
452.49	9207.67
452.68	9273.20
452.86	9235.75
453.05	9390.23
453.23	9497.89
453.42	9357.46
453.60	9547.05
453.78	9598.54
453.97	9390.23
454.15	9659.39
454.34	9582.15
454.52	9811.53
454.70	9701.52
454.89	9797.48
455.07	10071.33
455.26	9848.97
455.44	9998.77
455.62	9898.13
455.81	9858.34
455.99	9937.91
456.17	9937.91
456.36	10115.80
456.54	10221.12
456.73	10235.16
456.91	10490.28
457.09	10373.25
457.28	10794.55
457.46	10136.86
457.64	10689.23
457.83	10609.65
458.01	10504.32
458.19	10759.44
458.38	10586.24
458.56	10689.23
458.74	10824.98
458.93	10607.31
459.11	10817.96
459.29	10726.68
459.48	10949.03
459.66	10972.43
459.84	11154.99
460.03	10820.30
460.21	11192.44
460.39	11009.88
460.57	11021.58
460.76	11461.60
460.94	11367.98
461.12	11456.92
461.31	11222.87
461.49	11225.21
461.67	11241.59
461.85	11616.08
462.04	11222.87
462.22	11777.58
462.40	11510.75
462.59	11487.35
462.77	11641.82
462.95	11676.93
463.13	11445.22
463.32	11730.76
463.50	11934.39
463.68	11712.04
463.86	11852.47
464.05	11779.92
464.23	11744.81
464.41	11751.83
464.59	11693.32
464.78	12056.10
464.96	12072.48
465.14	12060.78
465.32	12065.46
465.50	11976.52
465.69	12044.40
465.87	12077.16
466.05	11971.84
466.23	12037.38
466.41	12358.03
466.60	12437.61
466.78	12233.98
466.96	12409.52
467.14	12276.11
467.32	12325.26
467.51	12582.72
467.69	12156.74
467.87	12381.43
468.05	12566.34
468.23	12336.96
468.41	12507.82
468.60	12580.38
468.78	12664.64
468.96	12709.11
469.14	12947.84
469.32	13174.88
469.50	12889.33
469.69	13209.98
469.87	13217.01
470.05	13219.35
470.23	13266.16
470.41	13287.22
470.59	13483.83
470.77	13207.64
470.95	13291.90
471.14	13589.15
471.32	13132.75
471.50	13790.44
471.68	13551.70
471.86	13540.00
472.04	13741.29
472.22	14157.90
472.40	13664.05
472.58	13818.52
472.77	13776.39
472.95	14167.26
473.13	14834.32
473.31	14253.86
473.49	14267.91
473.67	14251.52
473.85	14256.20
474.03	14836.66
474.21	14633.03
474.39	14686.86
474.57	14888.15
474.75	14986.45
474.93	15281.36
475.12	15126.88
475.30	15255.61
475.48	15000.49
475.66	15115.18
475.84	15164.33
476.02	15571.58
476.20	15609.03
476.38	15700.31
476.56	16184.80
476.74	16039.69
476.92	15859.47
477.10	15903.94
477.28	16273.74
477.46	16456.31
477.64	16578.01
477.82	16762.92
478.00	17043.78
478.18	16886.97
478.36	16978.25
478.54	17390.18
478.72	17341.03
478.90	17394.86
479.08	17584.44
479.26	17462.74
479.44	17645.30
479.62	18115.75
479.80	18181.28
479.98	18232.77
480.16	18504.28
480.34	18127.45
480.52	18487.89
480.70	18738.33
480.88	18408.31
481.06	18656.41
481.24	18843.65
481.41	19164.31
481.59	19749.44
481.77	19138.56
481.95	19606.67
482.13	19908.60
482.31	19814.98
482.49	20411.81
482.67	20322.87
482.85	20783.96
483.03	20683.31
483.21	21060.14
483.39	20760.55
483.57	20851.83
483.74	21392.50
483.92	21495.48
484.10	21128.02
484.28	21837.20
484.46	21979.97
484.64	22401.27
484.82	22026.78
485.00	22478.50
485.18	22368.50
485.35	23049.60
485.53	23056.62
485.71	23419.40
485.89	23496.64
486.07	23578.56
486.25	23606.64
486.43	23805.59
486.61	23978.79
486.78	23948.36
486.96	24194.12
487.14	24788.61
487.32	24821.38
487.50	25081.18
487.68	25275.45
487.85	25390.13
488.03	25514.18
488.21	25532.90
488.39	25743.55
488.57	26450.39
488.75	26066.55
488.92	26679.77
489.10	26649.34
489.28	26867.01
489.46	27056.59
489.64	27318.73
489.81	27623.00
489.99	27737.69
490.17	27592.58
490.35	28194.09
490.53	28184.73
490.70	28439.85
490.88	28542.83
491.06	29172.44
491.24	29041.37
491.41	29071.79
491.59	29551.60
491.77	29457.98
491.95	29874.60
492.13	30202.27
492.30	30412.92
492.48	30445.69
492.66	30536.97
492.84	30361.43
493.01	30756.98
493.19	30560.37
493.37	31274.24
493.54	31225.09
493.72	31639.36
493.90	31475.52
494.08	32041.93
494.25	32034.91
494.43	32046.62
494.61	32259.60
494.79	32828.35
494.96	32587.28
495.14	32811.97
495.32	33490.73
495.49	33181.77
495.67	33317.53
495.85	33982.24
496.02	33933.09
496.20	33998.62
496.38	34525.24
496.55	34279.49
496.73	35028.46
496.91	35084.63
497.09	34532.26
497.26	34831.85
497.44	34967.60
497.62	35454.44
497.79	36247.88
497.97	35730.62
498.14	36004.46
498.32	36053.61
498.50	36683.22
498.67	36666.83
498.85	36966.42
499.03	37001.53
499.20	37216.86
499.38	36950.04
499.56	37748.16
499.73	37467.30
499.91	37766.88
500.08	38124.99
500.26	37406.44
500.44	37904.98
500.61	38160.09
500.79	37846.46
500.97	38536.92
501.14	38787.36
501.32	38796.72
501.49	38820.13
501.67	39351.43
501.84	39002.69
502.02	39187.59
502.20	38913.75
502.37	39576.12
502.55	39274.19
502.72	39983.37
502.90	39700.17
503.07	39868.69
503.25	39779.74
503.43	39622.93
503.60	40463.18
503.78	40114.44
503.95	40491.27
504.13	40650.42
504.30	40989.80
504.48	40624.68
504.65	40425.73
504.83	41085.76
505.01	41743.45
505.18	41207.47
505.36	41720.05
505.53	41801.97
505.71	41820.69
505.88	42038.36
506.06	41216.83
506.23	42108.58
506.41	41858.14
506.58	42017.30
506.76	41951.76
506.93	42820.10
507.11	42560.30
507.28	42508.81
507.46	43033.09
507.63	43292.89
507.81	43283.53
507.98	43206.29
508.16	43473.11
508.33	43449.70
508.50	43578.43
508.68	44039.52
508.85	44074.63
509.03	43922.49
509.20	44528.69
509.38	44540.39
509.55	44355.49
509.73	44669.12
509.90	44266.55
510.08	44540.39
510.25	44816.58
510.42	44931.26
510.60	45329.16
510.77	45832.37
510.95	45532.78
511.12	45521.08
511.30	45736.41
511.47	45663.85
511.64	45677.90
511.82	45928.33
511.99	45879.18
512.17	45923.65
512.34	46291.12
512.51	46506.44
512.69	46167.07
512.86	46307.50
513.04	47136.05
513.21	46866.89
513.38	46909.02
513.56	47082.22
513.73	46717.09
513.90	47164.14
514.08	47131.37
514.25	47133.71
514.43	47428.62
514.60	47407.55
514.77	47419.25
514.95	48163.54
515.12	48041.84
515.29	47475.43
515.47	48313.34
515.64	48334.40
515.81	48027.79
515.99	48385.89
516.16	48336.74
516.33	48638.67
516.51	48718.25
516.68	48729.95
516.85	48383.55
517.03	48598.88
517.20	48575.48
517.37	48713.57
517.54	48975.71
517.72	49083.37
517.89	49277.64
518.06	49373.60
518.24	49083.37
518.41	49228.49
518.58	49439.14
518.75	49375.94
518.93	49544.46
519.10	49537.44
519.27	49872.14
519.45	49745.75
519.62	50000.86
519.79	50082.78
519.96	50246.62
520.14	50574.30
520.31	49993.84
520.48	50328.54
520.65	50176.40
520.83	50981.55
521.00	50499.40
521.17	50600.04
521.34	50906.65
521.52	51203.90
521.69	51110.28
521.86	51220.28
522.03	51512.85
522.20	51262.41
522.38	51716.48
522.55	51522.21
522.72	51414.55
522.89	51400.50
523.07	51894.36
523.24	51594.77
523.41	51683.71
523.58	51585.41
523.75	51992.66
523.92	52076.92
524.10	52002.02
524.27	52053.51
524.44	52193.95
524.61	52121.39
524.78	52371.83
524.96	52182.24
525.13	52425.66
525.30	52666.73
525.47	52802.49
525.64	52339.06
525.81	52683.12
525.98	53050.58
526.16	52591.84
526.33	53048.24
526.50	53062.29
526.67	52809.51
526.84	52889.09
527.01	52961.64
527.18	52961.64
527.36	53059.94
527.53	53088.03
527.70	53853.39
527.87	53549.12
528.04	53343.15
528.21	53406.34
528.38	53682.53
528.55	54010.20
528.72	53504.65
528.89	53598.27
529.07	53436.77
529.24	53315.06
529.41	53797.21
529.58	53989.14
529.75	54035.95
529.92	53872.11
530.09	53687.21
530.26	53954.03
530.43	53951.69
530.60	53961.05
530.77	53923.60
530.94	54080.42
531.11	54122.55
531.28	54410.43
531.46	54433.84
531.63	54450.22
531.80	54321.49
531.97	54298.09
532.14	54693.64
532.31	54658.53
532.48	54639.81
532.65	54773.22
532.82	54691.30
532.99	54651.51
533.16	54850.45
533.33	54864.50
533.50	54995.57
533.67	55009.61
533.84	54913.65
534.01	54941.74
534.18	54981.52
534.35	55437.93
534.52	55128.98
534.69	55463.67
534.86	55571.34
535.03	55145.36
535.20	55065.78
535.37	55449.63
535.54	55470.70
535.71	55297.50
535.88	55552.62
536.05	55667.30
536.22	55688.37
536.38	55597.09
536.55	55660.28
536.72	55920.08
536.89	55461.33
537.06	55997.32
537.23	56006.68
537.40	55463.67
537.57	55943.48
537.74	55693.05
537.91	55980.93
538.08	55688.37
538.25	55999.66
538.42	55913.06
538.59	56416.27
538.75	56229.03
538.92	56273.50
539.09	56189.24
539.26	56364.78
539.43	56168.18
539.60	56449.04
539.77	56376.48
539.94	56626.92
540.11	56519.26
540.28	56493.51
540.44	56456.06
540.61	56563.73
540.78	56563.73
540.95	56722.88
541.12	56463.08
541.29	56591.81
541.46	56638.62
541.62	56741.61
541.79	56795.44
541.96	56530.96
542.13	56797.78
542.30	56809.48
542.47	56931.19
542.63	56837.57
542.80	56919.49
542.97	57059.92
543.14	57212.06
543.31	57357.17
543.48	57474.20
543.64	57357.17
543.81	57352.49
543.98	57263.55
544.15	57160.56
544.32	57666.12
544.48	57654.42
544.65	57492.92
544.82	57605.26
544.99	57467.17
545.16	57677.82
545.32	57490.58
545.49	57635.69
545.66	57799.53
545.83	57771.44
546.00	57902.51
546.16	57811.23
546.33	57715.27
546.50	57614.63
546.67	57956.35
546.83	57752.72
547.00	57961.03
547.17	57939.96
547.34	58038.26
547.50	58218.49
547.67	58169.33
547.84	58071.03
548.00	58424.45
548.17	58356.58
548.34	58092.10
548.51	58426.79
548.67	58401.05
548.84	58328.49
549.01	58064.01
549.18	58349.56
549.34	58274.66
549.51	58499.35
549.68	58571.91
549.84	58382.32
550.01	58548.50
550.18	58115.50
550.34	58656.17
550.51	58611.70
550.68	58609.35
550.84	58211.46
551.01	58794.26
551.18	58705.32
551.34	58864.47
551.51	58768.51
551.68	58803.62
551.84	58831.71
552.01	58408.07
552.18	58817.66
552.34	58955.75
552.51	58890.22
552.68	58733.40
552.84	58873.84
553.01	58988.52
553.18	58927.67
553.34	59124.27
553.51	58812.98
553.67	58787.24
553.84	58990.86
554.01	59341.94
554.17	59114.91
554.34	59047.04
554.51	59112.57
554.67	59143.00
554.84	59196.83
555.00	59168.74
555.17	59189.81
555.33	59032.99
555.50	58995.54
555.67	59110.23
555.83	58824.68
556.00	59206.19
556.16	59489.40
556.33	59587.70
556.50	59175.76
556.66	59372.37
556.83	59061.08
556.99	59465.99
557.16	59545.57
557.32	59676.64
557.49	59674.30
557.65	59447.27
557.82	59608.76
557.98	59501.10
558.15	59578.34
558.32	59629.83
558.48	59344.28
558.65	59554.93
558.81	59683.66
558.98	59650.89
559.14	59770.26
559.31	59580.68
559.47	59936.44
559.64	59753.88
559.80	59826.43
559.97	59758.56
560.13	59777.28
560.30	59903.67
560.46	59889.63
560.63	59774.94
560.79	59898.99
560.96	60170.49
561.12	59791.33
561.29	59882.61
561.45	59817.07
561.61	59966.87
561.78	59781.96
561.94	59922.40
562.11	59955.16
562.27	59859.20
562.44	59973.89
562.60	60102.62
562.77	60219.64
562.93	59938.78
563.10	60210.28
563.26	59880.27
563.42	60353.05
563.59	60179.85
563.75	60116.66
563.92	60193.90
564.08	60076.87
564.24	60245.39
564.41	60133.04
564.57	60301.56
564.74	60163.47
564.90	60411.57
565.07	60224.32
565.23	60268.79
565.39	60104.96
565.56	60252.41
565.72	60252.41
565.88	60243.05
566.05	60116.66
566.21	60299.22
566.38	60334.33
566.54	60406.89
566.70	60320.29
566.87	60395.18
567.03	60111.98
567.19	60566.04
567.36	60271.14
567.52	60317.95
567.68	60601.15
567.85	60416.25
568.01	60671.37
568.17	60423.27
568.34	60530.93
568.50	60587.11
568.66	60446.68
568.83	60563.70
568.99	60404.55
569.15	60488.80
569.32	60430.29
569.48	60500.51
569.64	60540.30
569.81	60451.36
569.97	60488.80
570.13	60638.60
570.30	60444.33
570.46	60549.66
570.62	60678.39
570.78	60624.56
570.95	60512.21
571.11	60839.89
571.27	60509.87
571.43	60748.60
571.60	60624.56
571.76	60643.28
571.92	60772.01
572.09	60814.14
572.25	60662.00
572.41	60601.15
572.57	60755.63
572.74	60762.65
572.90	60720.52
573.06	60654.98
573.22	60760.31
573.38	60692.43
573.55	60664.35
573.71	61036.49
573.87	60573.06
574.03	60631.58
574.20	60938.19
574.36	60757.97
574.52	60889.04
574.68	60851.59
574.84	60757.97
575.01	60900.74
575.17	61013.08
575.33	60676.05
575.49	60748.60
575.65	60734.56
575.82	60931.17
575.98	60889.04
576.14	61148.84
576.30	60940.53
576.46	60889.04
576.62	60776.69
576.79	60779.03
576.95	60774.35
577.11	61015.43
577.27	61015.43
577.43	60839.89
577.59	60853.93
577.75	60858.61
577.92	60694.77
578.08	60970.96
578.24	60961.59
578.40	61015.43
578.56	61045.85
578.72	60970.96
578.88	61048.19
579.04	61078.62
579.21	61027.13
579.37	61251.82
579.53	61202.67
579.69	60821.16
579.85	60970.96
580.01	61111.39
580.17	60748.60
580.33	61125.43
580.49	61148.84
580.65	60849.25
580.82	60919.46
580.98	60910.10
581.14	60769.67
581.30	61078.62
581.46	60872.65
581.62	61024.79
581.78	60853.93
581.94	61141.81
582.10	60970.96
582.26	61062.24
582.42	61064.58
582.58	61015.43
582.74	60970.96
582.90	61034.15
583.06	61106.71
583.22	60760.31
583.38	61097.34
583.54	61113.73
583.70	61017.77
583.86	61137.13
584.02	60963.93
584.18	61113.73
584.34	60996.70
584.50	61219.05
584.66	61001.38
584.82	60828.18
584.98	61134.79
585.14	61073.94
585.30	60863.29
585.46	61069.26
585.62	61118.41
585.78	61102.03
585.94	61020.11
586.10	61169.90
586.26	61102.03
586.42	61123.09
586.58	61134.79
586.74	61247.14
586.90	61118.41
587.06	61020.11
587.22	61200.33
587.38	61354.80
587.54	61333.74
587.70	61202.67
587.86	61195.65
588.02	61153.52
588.18	61279.91
588.34	61361.82
588.49	60900.74
