SpectraSuite Data File
++++++++++++++++++++++++++++++++++++
Date: Fri Oct 25 11:23:02 EDT 2013
User: price-jones
Dark Spectrum Present: No
Reference Spectrum Present: No
Number of Sampled Component Spectra: 1
Spectrometers: USB2+H05261
Integration Time (usec): 100000 (USB2+H05261)
Spectra Averaged: 1 (USB2+H05261)
Boxcar Smoothing: 0 (USB2+H05261)
Correct for Electrical Dark: No (USB2+H05261)
Strobe/Lamp Enabled: No (USB2+H05261)
Correct for Detector Non-linearity: No (USB2+H05261)
Correct for Stray Light: No (USB2+H05261)
Number of Pixels in Processed Spectrum: 2048
>>>>>Begin Processed Spectral Data<<<<<
365.73	231.71
365.92	231.71
366.12	231.71
366.32	196.60
366.52	154.48
366.72	88.94
366.91	93.62
367.11	145.11
367.31	184.90
367.51	98.30
367.70	81.92
367.90	58.51
368.10	105.32
368.30	124.05
368.49	121.71
368.69	159.16
368.89	142.77
369.09	149.79
369.28	121.71
369.48	147.45
369.68	215.33
369.87	231.71
370.07	152.13
370.27	163.84
370.47	383.85
370.66	526.62
370.86	610.88
371.06	648.33
371.25	669.39
371.45	617.90
371.65	585.13
371.84	681.10
372.04	650.67
372.24	741.95
372.44	676.41
372.63	702.16
372.83	683.44
373.03	786.42
373.22	725.57
373.42	765.36
373.62	737.27
373.81	816.85
374.01	861.32
374.21	779.40
374.40	755.99
374.60	842.59
374.79	779.40
374.99	823.87
375.19	751.31
375.38	823.87
375.58	887.06
375.78	809.83
375.97	868.34
376.17	882.38
376.37	870.68
376.56	924.51
376.76	830.89
376.95	873.02
377.15	875.36
377.35	842.59
377.54	961.96
377.74	931.53
377.93	908.13
378.13	896.43
378.33	980.68
378.52	922.17
378.72	889.40
378.91	945.58
379.11	957.28
379.31	983.02
379.50	889.40
379.70	959.62
379.89	1015.79
380.09	912.81
380.28	1025.15
380.48	1025.15
380.68	1048.56
380.87	994.73
381.07	999.41
381.26	1022.81
381.46	954.94
381.65	1057.92
381.85	1064.94
382.04	968.98
382.24	1090.69
382.43	1093.03
382.63	1032.18
382.83	1048.56
383.02	1114.10
383.22	1128.14
383.41	1107.07
383.61	1144.52
383.80	1170.27
384.00	1022.81
384.19	1064.94
384.39	1104.73
384.58	1121.12
384.78	1125.80
384.97	1184.31
385.17	1121.12
385.36	1123.46
385.56	1165.59
385.75	1249.85
385.95	1071.97
386.14	1179.63
386.34	1153.88
386.53	1277.93
386.72	1158.57
386.92	1320.06
387.11	1233.46
387.31	1235.80
387.50	1228.78
387.70	1266.23
387.89	1263.89
388.09	1249.85
388.28	1387.94
388.48	1310.70
388.67	1277.93
388.86	1329.42
389.06	1371.55
389.25	1287.29
389.45	1263.89
389.64	1366.87
389.84	1259.21
390.03	1397.30
390.22	1324.74
390.42	1352.83
390.61	1364.53
390.81	1446.45
391.00	1401.98
391.19	1465.18
391.39	1327.08
391.58	1453.47
391.78	1380.92
391.97	1490.92
392.16	1399.64
392.36	1577.52
392.55	1568.16
392.75	1551.78
392.94	1619.65
393.13	1530.71
393.33	1481.56
393.52	1607.95
393.71	1526.03
393.91	1589.22
394.10	1640.72
394.29	1617.31
394.49	1626.67
394.68	1542.41
394.88	1586.88
395.07	1659.44
395.26	1638.38
395.46	1722.63
395.65	1715.61
395.84	1739.02
396.04	1797.53
396.23	1682.85
396.42	1790.51
396.62	1795.19
396.81	1729.66
397.00	1799.87
397.19	1729.66
397.39	1853.70
397.58	1928.60
397.77	1809.23
397.97	1907.54
398.16	1795.19
398.35	1949.67
398.55	1858.39
398.74	1893.49
398.93	1937.96
399.12	1970.73
399.32	1947.33
399.51	1970.73
399.70	1966.05
399.90	2038.61
400.09	2050.31
400.28	1998.82
400.47	1926.26
400.67	2120.53
400.86	2244.57
401.05	2139.25
401.24	2122.87
401.44	2160.31
401.63	2120.53
401.82	2232.87
402.01	2167.34
402.21	2146.27
402.40	2223.51
402.59	2235.21
402.78	2174.36
402.97	2303.09
403.17	2267.98
403.36	2307.77
403.55	2326.49
403.74	2298.41
403.93	2335.85
404.13	2356.92
404.32	2429.48
404.51	2396.71
404.70	2377.98
404.89	2403.73
405.09	2466.92
405.28	2520.76
405.47	2469.27
405.66	2565.23
405.85	2670.55
406.05	2520.76
406.24	2553.52
406.43	2579.27
406.62	2616.72
406.81	2647.15
407.00	2616.72
407.20	2628.42
407.39	2661.19
407.58	2766.51
407.77	2754.81
407.96	2663.53
408.15	2829.71
408.34	2703.32
408.54	2825.03
408.73	2862.48
408.92	2759.49
409.11	3000.57
409.30	2949.08
409.49	2916.31
409.68	2923.33
409.87	2888.22
410.07	2946.73
410.26	2986.52
410.45	2977.16
410.64	2998.23
410.83	3141.00
411.02	3169.09
411.21	3314.20
411.40	3040.36
411.59	3260.37
411.78	3204.19
411.98	3194.83
412.17	3356.33
412.36	3368.03
412.55	3309.52
412.74	3428.88
412.93	3375.05
413.12	3346.97
413.31	3468.67
413.50	3522.51
413.69	3517.83
413.88	3550.59
414.07	3571.66
414.26	3712.09
414.45	3716.77
414.64	3623.15
414.83	3737.84
415.02	3826.78
415.22	3904.01
415.41	4168.49
415.60	3964.87
415.79	3950.82
415.98	4208.28
416.17	3992.95
416.36	3983.59
416.55	4044.45
416.74	4163.81
416.93	4060.83
417.12	4224.67
417.31	4189.56
417.50	4205.94
417.69	4273.82
417.88	4315.95
418.07	4229.35
418.26	4215.30
418.45	4271.48
418.64	4587.45
418.83	4409.57
419.02	4353.40
419.21	4557.02
419.39	4713.84
419.58	4397.87
419.77	4500.85
419.96	4533.62
420.15	4589.79
420.34	4692.77
420.53	4667.03
420.72	4739.58
420.91	4613.20
421.10	4786.40
421.29	4746.61
421.48	4664.69
421.67	4777.03
421.86	4685.75
422.05	4762.99
422.24	4903.42
422.43	4961.94
422.61	5013.43
422.80	5013.43
422.99	5022.79
423.18	4922.15
423.37	4985.34
423.56	5039.17
423.75	4931.51
423.94	4828.53
424.13	4695.11
424.32	4791.08
424.50	5053.22
424.69	4950.23
424.88	5102.37
425.07	5057.90
425.26	4870.65
425.45	5032.15
425.64	4959.60
425.83	5074.28
426.01	5212.37
426.20	5132.79
426.39	5135.14
426.58	4978.32
426.77	5053.22
426.96	5130.45
427.15	5111.73
427.33	5151.52
427.52	5277.91
427.71	5259.18
427.90	5203.01
428.09	5334.08
428.28	5240.46
428.46	5247.48
428.65	5437.06
428.84	5497.92
429.03	5481.53
429.22	5423.02
429.40	5448.77
429.59	5507.28
429.78	5441.75
429.97	5261.52
430.16	5556.43
430.34	5547.07
430.53	5643.03
430.72	5666.44
430.91	5738.99
431.10	5586.86
431.28	5902.83
431.47	5811.55
431.66	5605.58
431.85	5647.71
432.03	5977.73
432.22	5841.98
432.41	5961.34
432.60	6036.24
432.79	5989.43
432.97	6036.24
433.16	5937.94
433.35	5963.68
433.54	6101.78
433.72	6225.82
433.91	6232.85
434.10	6054.97
434.28	5970.71
434.47	6272.64
434.66	6328.81
434.85	6300.72
435.03	6181.35
435.22	6321.79
435.41	6492.65
435.59	6471.58
435.78	6377.96
435.97	6429.45
436.16	6635.42
436.34	6483.28
436.53	6647.12
436.72	6848.41
436.90	6787.55
437.09	6810.96
437.28	6534.78
437.46	6843.73
437.65	6726.70
437.84	6757.13
438.02	6677.55
438.21	6902.24
438.40	6775.85
438.58	6995.86
438.77	7138.63
438.96	6979.48
439.14	7143.32
439.33	7045.01
439.52	7281.41
439.70	7279.07
439.89	7351.62
440.08	7386.73
440.26	7548.23
440.45	7316.51
440.63	7412.48
440.82	7569.29
441.01	7372.69
441.19	7751.85
441.38	7721.43
441.57	7922.71
441.75	7784.62
441.94	8013.99
442.12	7812.71
442.31	8198.90
442.50	8142.72
442.68	8051.44
442.87	8018.68
443.05	8060.80
443.24	8205.92
443.43	8140.38
443.61	8018.68
443.80	8514.87
443.98	8102.93
444.17	7964.84
444.35	8262.09
444.54	8145.06
444.73	8507.85
444.91	8407.20
445.10	8444.65
445.28	8358.05
445.47	8465.72
445.65	8439.97
445.84	8500.83
446.02	8404.86
446.21	8498.49
446.39	8599.13
446.58	8601.47
446.77	8681.05
446.95	8374.44
447.14	8606.15
447.32	8475.08
447.51	8372.10
447.69	8592.11
447.88	8418.91
448.06	8636.58
448.25	8463.38
448.43	8566.36
448.62	8566.36
448.80	8578.06
448.99	8606.15
449.17	8879.99
449.36	8826.16
449.54	8926.80
449.73	9001.70
449.91	8957.23
450.10	9048.51
450.28	9076.60
450.46	9053.19
450.65	9067.24
450.83	9121.07
451.02	9303.63
451.20	9423.00
451.39	9111.71
451.57	9069.58
451.76	9123.41
451.94	9266.18
452.13	9474.49
452.31	9507.26
452.49	9224.05
452.68	9348.10
452.86	9411.29
453.05	9511.94
453.23	9523.64
453.42	9329.38
453.60	9392.57
453.78	9357.46
453.97	9507.26
454.15	9696.84
454.34	9453.42
454.52	9776.42
454.70	9657.05
454.89	9832.59
455.07	9650.03
455.26	10033.88
455.44	9958.98
455.62	9935.57
455.81	9956.64
455.99	9909.83
456.17	9998.77
456.36	10129.84
456.54	10202.40
456.73	10487.94
456.91	10644.76
457.09	10492.62
457.28	10551.14
457.46	10567.52
457.64	10560.50
457.83	10658.80
458.01	10506.66
458.19	10466.88
458.38	10307.72
458.56	10820.30
458.74	10696.25
458.93	10696.25
459.11	10527.73
459.29	10789.87
459.48	10778.17
459.66	11037.97
459.84	11014.56
460.03	11059.03
460.21	11059.03
460.39	11096.48
460.57	11026.26
460.76	11213.51
460.94	11236.91
461.12	11272.02
461.31	11274.36
461.49	11323.51
461.67	11222.87
461.85	11613.74
462.04	11632.46
462.22	11576.29
462.40	11625.44
462.59	11550.54
462.77	11690.98
462.95	11623.10
463.13	11852.47
463.32	11672.25
463.50	11850.13
463.68	11819.71
463.86	11831.41
464.05	11901.62
464.23	11651.19
464.41	11939.07
464.59	11861.84
464.78	12332.28
464.96	12105.25
465.14	12077.16
465.32	12109.93
465.50	12112.27
465.69	12334.62
465.87	12365.05
466.05	12191.85
466.23	12229.30
466.41	12332.28
466.60	12067.80
466.78	12372.07
466.96	12341.64
467.14	12374.41
467.32	12549.95
467.51	12482.08
467.69	12198.87
467.87	12500.80
468.05	12711.45
468.23	12477.40
468.41	12568.68
468.60	12519.53
468.78	12842.52
468.96	12842.52
469.14	12854.22
469.32	13048.49
469.50	12599.10
469.69	13139.77
469.87	13261.48
470.05	13139.77
470.23	13167.85
470.41	13305.95
470.59	13448.72
470.77	13238.07
470.95	13324.67
471.14	13642.98
471.32	13186.58
471.50	13535.32
471.68	13554.04
471.86	13329.35
472.04	13729.58
472.22	14221.10
472.40	13919.17
472.58	13774.05
472.77	14193.01
472.95	14494.94
473.13	14656.43
473.31	14031.51
473.49	14195.35
473.67	14125.13
473.85	14436.42
474.03	14721.97
474.21	14712.61
474.39	14855.38
474.57	14839.00
474.75	15070.71
474.93	15131.56
475.12	15070.71
475.30	15405.41
475.48	15131.56
475.66	15393.70
475.84	15243.91
476.02	15548.18
476.20	15564.56
476.38	15772.87
476.56	16037.35
476.74	16458.65
476.92	15950.75
477.10	16093.52
477.28	16168.42
477.46	16430.56
477.64	16547.59
477.82	16793.34
478.00	17170.17
478.18	17022.72
478.36	17123.36
478.54	17294.22
478.72	17121.02
478.90	17420.61
479.08	17958.93
479.26	17600.83
479.44	17813.82
479.62	17900.42
479.80	18431.72
479.98	18394.27
480.16	18750.03
480.34	18614.28
480.52	18745.35
480.70	18628.32
480.88	18593.22
481.06	18698.54
481.24	18845.99
481.41	19054.30
481.59	19367.93
481.77	19552.84
481.95	19969.45
482.13	19756.46
482.31	19913.28
482.49	20489.05
482.67	20180.10
482.85	20561.61
483.03	20950.14
483.21	21298.88
483.39	21425.26
483.57	20863.54
483.74	21226.32
483.92	21486.12
484.10	21563.36
484.28	21823.16
484.46	22127.42
484.64	22586.17
484.82	22455.10
485.00	22534.68
485.18	22852.99
485.35	23276.63
485.53	22817.88
485.71	23096.41
485.89	23721.33
486.07	23424.08
486.25	23400.68
486.43	23854.74
486.61	24112.20
486.78	24283.06
486.96	23967.09
487.14	25010.96
487.32	24456.26
487.50	24699.67
487.68	24982.88
487.85	25212.25
488.03	25745.89
488.21	25972.92
488.39	25699.08
488.57	26075.91
488.75	26665.72
488.92	26588.49
489.10	26749.98
489.28	26714.87
489.46	27108.08
489.64	27220.43
489.81	27892.16
489.99	27700.24
490.17	27992.81
490.35	28334.53
490.53	28142.60
490.70	28524.11
490.88	28816.68
491.06	29008.60
491.24	28978.17
491.41	29111.58
491.59	29453.30
491.77	29453.30
491.95	29813.74
492.13	30043.12
492.30	30356.75
492.48	30059.50
492.66	30225.68
492.84	30408.24
493.01	30759.32
493.19	30916.14
493.37	31309.35
493.54	31601.91
493.72	31562.12
493.90	32037.25
494.08	32201.09
494.25	32327.48
494.43	32297.05
494.61	32404.72
494.79	32772.18
494.96	32634.09
495.14	33006.23
495.32	33350.29
495.49	33530.51
495.67	33247.31
495.85	33881.60
496.02	34031.39
496.20	33940.11
496.38	34401.19
496.55	34157.78
496.73	35028.46
496.91	34810.79
497.09	35297.62
497.26	35587.85
497.44	35218.04
497.62	35768.07
497.79	35849.99
497.97	35756.36
498.14	36304.05
498.32	36680.88
498.50	36690.24
498.67	36830.67
498.85	36755.77
499.03	37223.88
499.20	36954.72
499.38	37085.79
499.56	37076.43
499.73	37083.45
499.91	37647.52
500.08	37893.27
500.26	37883.91
500.44	38122.65
500.61	38277.12
500.79	37993.92
500.97	38216.27
501.14	38387.13
501.32	38593.09
501.49	38965.24
501.67	38988.64
501.84	39232.06
502.02	38923.11
502.20	39072.90
502.37	39365.47
502.55	39831.24
502.72	39810.17
502.90	39812.51
503.07	39702.51
503.25	40135.51
503.43	39861.66
503.60	40554.46
503.78	40786.18
503.95	40367.22
504.13	40882.14
504.30	40847.03
504.48	40828.30
504.65	41368.97
504.83	41263.64
505.01	41640.47
505.18	41361.95
505.36	41876.86
505.53	41600.68
505.71	42085.17
505.88	42241.99
506.06	41813.67
506.23	42277.10
506.41	42506.47
506.58	42047.72
506.76	42457.32
506.93	42796.70
507.11	42836.48
507.28	42756.91
507.46	42948.83
507.63	43732.91
507.81	43414.60
507.98	43047.13
508.16	43789.08
508.33	43615.88
508.50	43786.74
508.68	43728.23
508.85	44144.84
509.03	43983.35
509.20	44458.48
509.38	44624.65
509.55	44669.12
509.73	44575.50
509.90	44905.52
510.08	44828.28
510.25	44797.85
510.42	45205.11
510.60	45130.21
510.77	45457.88
510.95	45771.52
511.12	45762.15
511.30	45373.63
511.47	45713.00
511.64	45315.11
511.82	46227.92
511.99	45720.02
512.17	45907.27
512.34	46113.23
512.51	46593.04
512.69	47232.01
512.86	46791.99
513.04	46880.93
513.21	46923.06
513.38	47103.28
513.56	47391.17
513.73	46892.63
513.90	47140.73
514.08	47463.72
514.25	47480.11
514.43	47798.42
514.60	47718.84
514.77	47931.83
514.95	48116.73
515.12	48137.80
515.29	47962.26
515.47	48100.35
515.64	48224.40
515.81	48046.52
515.99	48741.66
516.16	48896.13
516.33	48800.17
516.51	48765.06
516.68	48989.75
516.85	48598.88
517.03	49139.55
517.20	49165.29
517.37	49265.94
517.54	48933.58
517.72	49315.09
517.89	49385.30
518.06	49514.03
518.24	49722.34
518.41	49205.08
518.58	49673.19
518.75	49853.41
518.93	49673.19
519.10	49841.71
519.27	50099.17
519.45	49968.10
519.62	50138.96
519.79	50286.41
519.96	50035.97
520.14	50134.28
520.31	50300.45
520.48	50740.47
520.65	50396.42
520.83	51007.29
521.00	50794.31
521.17	50712.39
521.34	50878.57
521.52	51007.29
521.69	51175.81
521.86	51407.53
522.03	51580.73
522.20	51423.91
522.38	51854.57
522.55	51657.96
522.72	51405.19
522.89	51704.77
523.07	51894.36
523.24	51611.15
523.41	52039.47
523.58	51877.97
523.75	52346.08
523.92	51927.13
524.10	52200.97
524.27	52325.02
524.44	51908.40
524.61	52474.81
524.78	52645.67
524.96	52308.63
525.13	52608.22
525.30	52961.64
525.47	52811.85
525.64	52626.95
525.81	52708.86
525.98	52739.29
526.16	53024.84
526.33	53078.67
526.50	53043.56
526.67	53350.17
526.84	53396.98
527.01	52893.77
527.18	52861.00
527.36	53200.38
527.53	53427.41
527.70	53638.06
527.87	53413.37
528.04	53551.46
528.21	53616.99
528.38	53497.62
528.55	53872.11
528.72	53712.95
528.89	53647.42
529.07	53600.61
529.24	53680.19
529.41	53972.75
529.58	53872.11
529.75	54108.50
529.92	53783.17
530.09	53921.26
530.26	54127.23
530.43	54174.04
530.60	53834.66
530.77	54124.89
530.94	54550.87
531.11	54550.87
531.28	54291.07
531.46	54485.33
531.63	54618.74
531.80	54169.36
531.97	54710.02
532.14	54845.77
532.31	54805.98
532.48	54848.11
532.65	54798.96
532.82	54841.09
532.99	54852.80
533.16	54892.58
533.33	54845.77
533.50	55103.23
533.67	54766.20
533.84	54850.45
534.01	55042.38
534.18	55358.35
534.35	55697.73
534.52	55381.76
534.69	55482.40
534.86	55309.20
535.03	55648.58
535.20	55175.79
535.37	55554.96
535.54	55746.88
535.71	55353.67
535.88	55566.66
536.05	55625.17
536.22	55702.41
536.38	55889.65
536.55	55758.58
536.72	55796.03
536.89	55824.12
537.06	55980.93
537.23	55781.99
537.40	55917.74
537.57	55889.65
537.74	56203.28
537.91	56018.38
538.08	56114.34
538.25	55882.63
538.42	55997.32
538.59	56360.10
538.75	55969.23
538.92	56296.91
539.09	56666.71
539.26	56479.47
539.43	56200.94
539.60	56425.64
539.77	56446.70
539.94	56573.09
540.11	56463.08
540.28	56526.28
540.44	56694.80
540.61	56507.55
540.78	56413.93
540.95	56458.40
541.12	56678.41
541.29	56507.55
541.46	56919.49
541.62	57212.06
541.79	56893.74
541.96	56317.97
542.13	56624.58
542.30	56921.83
542.47	57343.12
542.63	57085.67
542.80	57111.41
542.97	57209.71
543.14	57216.74
543.31	57427.38
543.48	57439.09
543.64	57668.46
543.81	57371.21
543.98	57565.48
544.15	57446.11
544.32	57621.65
544.48	57886.13
544.65	57322.06
544.82	57698.89
544.99	57413.34
545.16	57659.10
545.32	57420.36
545.49	57825.28
545.66	57839.32
545.83	57848.68
546.00	57783.15
546.16	57792.51
546.33	57757.40
546.50	57645.05
546.67	57895.49
546.83	57794.85
547.00	57860.38
547.17	57951.66
547.34	57900.17
547.50	58246.57
547.67	58450.20
547.84	58181.04
548.00	58204.44
548.17	58382.32
548.34	58389.34
548.51	58461.90
548.67	58592.97
548.84	58195.08
549.01	58365.94
549.18	58482.97
549.34	58712.34
549.51	58436.16
549.68	58468.92
549.84	58614.04
550.01	58515.73
550.18	58337.85
550.34	58506.37
550.51	58501.69
550.68	58585.95
550.84	58529.78
551.01	58951.07
551.18	58454.88
551.34	58611.70
551.51	58726.38
551.68	58946.39
551.84	58761.49
552.01	58705.32
552.18	59000.22
552.34	58812.98
552.51	58976.82
552.68	58628.08
552.84	58979.16
553.01	59213.21
553.18	58918.31
553.34	59121.93
553.51	58876.18
553.67	59082.14
553.84	59096.19
554.01	59065.76
554.17	59138.32
554.34	59180.45
554.51	59231.94
554.67	59100.87
554.84	59206.19
555.00	59290.45
555.17	59140.66
555.33	59065.76
555.50	59000.22
555.67	59241.30
555.83	59278.75
556.00	59377.05
556.16	59620.47
556.33	59515.14
556.50	59508.12
556.66	59683.66
556.83	59222.58
556.99	59604.08
557.16	59779.62
557.32	59531.53
557.49	59674.30
557.65	59325.56
557.82	59508.12
557.98	59866.22
558.15	59655.57
558.32	59636.85
558.48	59451.95
558.65	59730.47
558.81	59648.55
558.98	59566.63
559.14	59669.62
559.31	59927.08
559.47	59929.42
559.64	59819.41
559.80	59861.54
559.97	59910.69
560.13	59821.75
560.30	59746.86
560.46	59915.37
560.63	59908.35
560.79	59852.18
560.96	60119.00
561.12	60051.12
561.29	59941.12
561.45	60109.64
561.61	59959.84
561.78	59952.82
561.94	59901.33
562.11	60062.83
562.27	60175.17
562.44	60177.51
562.60	60250.07
562.77	60310.92
562.93	59863.88
563.10	60261.77
563.26	60175.17
563.42	60371.78
563.59	60306.24
563.75	60109.64
563.92	60226.66
564.08	60079.21
564.24	60507.53
564.41	60217.30
564.57	60240.71
564.74	60163.47
564.90	60205.60
565.07	60236.03
565.23	60109.64
565.39	60374.12
565.56	60275.82
565.72	60301.56
565.88	60385.82
566.05	60542.64
566.21	60376.46
566.38	60388.16
566.54	60360.08
566.70	60570.72
566.87	60570.72
567.03	60301.56
567.19	60596.47
567.36	60828.18
567.52	60383.48
567.68	60837.54
567.85	60573.06
568.01	60449.02
568.17	60292.20
568.34	60561.36
568.50	60458.38
568.66	60516.89
568.83	60605.83
568.99	60706.47
569.15	60612.85
569.32	60645.62
569.48	60662.00
569.64	60559.02
569.81	60664.35
569.97	60554.34
570.13	60523.91
570.30	60589.45
570.46	60666.69
570.62	60729.88
570.78	60528.59
570.95	60603.49
571.11	60903.08
571.27	60931.17
571.43	60767.33
571.60	60835.20
571.76	60741.58
571.92	60992.02
572.09	60772.01
572.25	60694.77
572.41	60685.41
572.57	60886.70
572.74	60896.06
572.90	60743.92
573.06	60739.24
573.22	60692.43
573.38	60802.44
573.55	60680.73
573.71	60905.42
573.87	60947.55
574.03	60748.60
574.20	60882.02
574.36	60867.97
574.52	60949.89
574.68	61034.15
574.84	60903.08
575.01	60889.04
575.17	60851.59
575.33	60790.73
575.49	60753.29
575.65	60860.95
575.82	60886.70
575.98	60886.70
576.14	61277.57
576.30	60856.27
576.46	60914.78
576.62	60851.59
576.79	61125.43
576.95	60687.75
577.11	61071.60
577.27	61001.38
577.43	61031.81
577.59	60961.59
577.75	60739.24
577.92	60846.91
578.08	61001.38
578.24	60846.91
578.40	60966.27
578.56	61179.26
578.72	60832.86
578.88	61134.79
579.04	61174.58
579.21	61153.52
579.37	61158.20
579.53	61319.70
579.69	61048.19
579.85	60874.99
580.01	60947.55
580.17	61010.74
580.33	61048.19
580.49	60924.14
580.65	60907.76
580.82	60945.21
580.98	61017.77
581.14	60764.99
581.30	61333.74
581.46	61024.79
581.62	61230.75
581.78	60966.27
581.94	61043.51
582.10	61123.09
582.26	61179.26
582.42	61080.96
582.58	61118.41
582.74	61139.47
582.90	61062.24
583.06	61144.16
583.22	61001.38
583.38	61167.56
583.54	61230.75
583.70	61071.60
583.86	61207.35
584.02	61017.77
584.18	61298.63
584.34	61169.90
584.50	61099.68
584.66	60987.34
584.82	61113.73
584.98	61263.52
585.14	61118.41
585.30	61050.53
585.46	61237.78
585.62	61272.88
585.78	61293.95
585.94	61165.22
586.10	61300.97
586.26	61251.82
586.42	61434.38
586.58	61254.16
586.74	61118.41
586.90	61221.39
587.06	61160.54
587.22	61336.08
587.38	61237.78
587.54	61387.57
587.70	61361.82
587.86	61186.28
588.02	61207.35
588.18	61467.15
588.34	61155.86
588.49	61254.16
