SpectraSuite Data File
++++++++++++++++++++++++++++++++++++
Date: Fri Oct 25 11:34:34 EDT 2013
User: price-jones
Dark Spectrum Present: No
Reference Spectrum Present: No
Number of Sampled Component Spectra: 1
Spectrometers: USB2+H05261
Integration Time (usec): 100000 (USB2+H05261)
Spectra Averaged: 1 (USB2+H05261)
Boxcar Smoothing: 0 (USB2+H05261)
Correct for Electrical Dark: No (USB2+H05261)
Strobe/Lamp Enabled: No (USB2+H05261)
Correct for Detector Non-linearity: No (USB2+H05261)
Correct for Stray Light: No (USB2+H05261)
Number of Pixels in Processed Spectrum: 2048
>>>>>Begin Processed Spectral Data<<<<<
365.73	315.97
365.92	315.97
366.12	315.97
366.32	175.54
366.52	224.69
366.72	154.48
366.91	131.07
367.11	180.22
367.31	212.99
367.51	154.48
367.70	236.39
367.90	222.35
368.10	159.16
368.30	189.58
368.49	196.60
368.69	159.16
368.89	196.60
369.09	205.97
369.28	224.69
369.48	231.71
369.68	208.31
369.87	325.33
370.07	227.03
370.27	234.05
370.47	294.91
370.66	407.25
370.86	514.92
371.06	645.99
371.25	594.50
371.45	524.28
371.65	519.60
371.84	559.39
372.04	538.32
372.24	578.11
372.44	599.18
372.63	573.43
372.83	638.97
373.03	571.09
373.22	645.99
373.42	615.56
373.62	568.75
373.81	631.94
374.01	521.94
374.21	648.33
374.40	688.12
374.60	624.92
374.79	695.14
374.99	685.78
375.19	585.13
375.38	734.93
375.58	547.69
375.78	723.23
375.97	650.67
376.17	744.29
376.37	685.78
376.56	697.48
376.76	711.52
376.95	645.99
377.15	657.69
377.35	716.20
377.54	674.07
377.74	697.48
377.93	601.52
378.13	685.78
378.33	601.52
378.52	657.69
378.72	629.60
378.91	653.01
379.11	664.71
379.31	716.20
379.50	702.16
379.70	660.03
379.89	741.95
380.09	706.84
380.28	732.59
380.48	631.94
380.68	653.01
380.87	678.76
381.07	725.57
381.26	774.72
381.46	734.93
381.65	753.65
381.85	741.95
382.04	770.04
382.24	755.99
382.43	858.98
382.63	800.46
382.83	826.21
383.02	674.07
383.22	847.27
383.41	847.27
383.61	739.61
383.80	854.30
384.00	697.48
384.19	788.76
384.39	854.30
384.58	833.23
384.78	819.19
384.97	854.30
385.17	786.42
385.36	828.55
385.56	814.51
385.75	823.87
385.95	856.64
386.14	828.55
386.34	858.98
386.53	725.57
386.72	912.81
386.92	809.83
387.11	854.30
387.31	936.21
387.50	842.59
387.70	901.11
387.89	894.08
388.09	873.02
388.28	877.70
388.48	837.91
388.67	919.83
388.86	950.26
389.06	908.13
389.25	807.48
389.45	812.17
389.64	819.19
389.84	973.66
390.03	959.62
390.22	943.24
390.42	917.49
390.61	922.17
390.81	952.60
391.00	924.51
391.19	1027.50
391.39	964.30
391.58	973.66
391.78	1004.09
391.97	933.87
392.16	1008.77
392.36	1181.97
392.55	1074.31
392.75	1001.75
392.94	1027.50
393.13	1083.67
393.33	1060.26
393.52	1041.54
393.71	1057.92
393.91	1048.56
394.10	1011.11
394.29	1107.07
394.49	1032.18
394.68	1158.57
394.88	1135.16
395.07	1139.84
395.26	1116.44
395.46	1050.90
395.65	1121.12
395.84	1144.52
396.04	1151.54
396.23	1181.97
396.42	1046.22
396.62	1128.14
396.81	1219.42
397.00	1156.22
397.19	1081.33
397.39	1121.12
397.58	1118.78
397.77	1111.75
397.97	1093.03
398.16	1219.42
398.35	1289.64
398.55	1156.22
398.74	1280.27
398.93	1186.65
399.12	1238.14
399.32	1219.42
399.51	1247.51
399.70	1315.38
399.90	1369.21
400.09	1315.38
400.28	1327.08
400.47	1364.53
400.67	1441.77
400.86	1343.47
401.05	1310.70
401.24	1369.21
401.44	1380.92
401.63	1390.28
401.82	1352.83
402.01	1401.98
402.21	1486.24
402.40	1437.09
402.59	1397.30
402.78	1462.83
402.97	1355.17
403.17	1514.33
403.36	1554.12
403.55	1434.75
403.74	1561.14
403.93	1589.22
404.13	1479.22
404.32	1563.48
404.51	1528.37
404.70	1570.50
404.89	1547.09
405.09	1694.55
405.28	1614.97
405.47	1549.43
405.66	1593.90
405.85	1678.16
406.05	1699.23
406.24	1624.33
406.43	1727.32
406.62	1748.38
406.81	1792.85
407.00	1614.97
407.20	1605.61
407.39	1673.48
407.58	1818.60
407.77	1717.95
407.96	1827.96
408.15	1816.26
408.34	1778.81
408.54	1832.64
408.73	1729.66
408.92	1900.52
409.11	1820.94
409.30	1881.79
409.49	1975.41
409.68	1937.96
409.87	1977.75
410.07	1914.56
410.26	2040.95
410.45	2040.95
410.64	1907.54
410.83	2017.54
411.02	2003.50
411.21	2153.29
411.40	2069.03
411.59	2029.24
411.78	2026.90
411.98	2148.61
412.17	2246.91
412.36	2097.12
412.55	2190.74
412.74	2228.19
412.93	2237.55
413.12	2265.64
413.31	2319.47
413.50	2244.57
413.69	2345.22
413.88	2284.36
414.07	2403.73
414.26	2385.01
414.45	2380.32
414.64	2462.24
414.83	2338.20
415.02	2497.35
415.22	2392.03
415.41	2593.31
415.60	2562.89
415.79	2509.05
415.98	2708.00
416.17	2724.38
416.36	2588.63
416.55	2583.95
416.74	2747.79
416.93	2602.68
417.12	2708.00
417.31	2813.32
417.50	2691.62
417.69	2787.58
417.88	2743.11
418.07	2871.84
418.26	2881.20
418.45	2825.03
418.64	2892.90
418.83	2869.50
419.02	2967.80
419.21	2860.13
419.39	2923.33
419.58	3094.19
419.77	3007.59
419.96	2946.73
420.15	3066.10
420.34	2972.48
420.53	2986.52
420.72	3218.24
420.91	3035.67
421.10	3117.59
421.29	3162.06
421.48	3141.00
421.67	3087.17
421.86	3159.72
422.05	3251.00
422.24	3201.85
422.43	3253.34
422.61	3143.34
422.80	3323.56
422.99	3206.53
423.18	3094.19
423.37	3211.22
423.56	3169.09
423.75	3171.43
423.94	3192.49
424.13	3110.57
424.32	3171.43
424.50	3215.90
424.69	3370.37
424.88	3321.22
425.07	3187.81
425.26	3232.28
425.45	3178.45
425.64	3218.24
425.83	3286.11
426.01	3438.25
426.20	3323.56
426.39	3361.01
426.58	3346.97
426.77	3356.33
426.96	3414.84
427.15	3375.05
427.33	3389.10
427.52	3496.76
427.71	3449.95
427.90	3522.51
428.09	3372.71
428.28	3461.65
428.46	3431.23
428.65	3538.89
428.84	3634.85
429.03	3506.12
429.22	3541.23
429.40	3522.51
429.59	3590.38
429.78	3578.68
429.97	3405.48
430.16	3604.42
430.34	3602.08
430.53	3574.00
430.72	3765.92
430.91	3623.15
431.10	3796.35
431.28	3714.43
431.47	3784.65
431.66	3992.95
431.85	3803.37
432.03	3889.97
432.22	3826.78
432.41	3873.59
432.60	3805.71
432.79	3915.72
432.97	3906.35
433.16	4028.06
433.35	3964.87
433.54	3943.80
433.72	3894.65
433.91	4009.34
434.10	4058.49
434.28	3957.85
434.47	3988.27
434.66	4133.39
434.85	4107.64
435.03	4168.49
435.22	4105.30
435.41	4287.86
435.59	4208.28
435.78	4252.75
435.97	4128.70
436.16	4234.03
436.34	4175.52
436.53	4189.56
436.72	4395.53
436.90	4177.86
437.09	4372.12
437.28	4276.16
437.46	4198.92
437.65	4458.72
437.84	4395.53
438.02	4479.79
438.21	4470.42
438.40	4278.50
438.58	4447.02
438.77	4540.64
438.96	4533.62
439.14	4638.94
439.33	4681.07
439.52	4788.74
439.70	4758.31
439.89	4772.35
440.08	4844.91
440.26	4746.61
440.45	4634.26
440.63	4767.67
440.82	4952.57
441.01	4873.00
441.19	5004.07
441.38	4945.55
441.57	5048.54
441.75	5071.94
441.94	5146.84
442.12	5170.24
442.31	5137.48
442.50	5200.67
442.68	5076.62
442.87	5249.82
443.05	5362.17
443.24	5263.86
443.43	5210.03
443.61	5310.68
443.80	5481.53
443.98	5238.12
444.17	5088.32
444.35	5240.46
444.54	5343.44
444.73	5322.38
444.91	5439.40
445.10	5411.32
445.28	5348.12
445.47	5329.40
445.65	5596.22
445.84	5439.40
446.02	5336.42
446.21	5455.79
446.39	5343.44
446.58	5554.09
446.77	5432.38
446.95	5359.83
447.14	5451.11
447.32	5310.68
447.51	5568.13
447.69	5439.40
447.88	5486.22
448.06	5495.58
448.25	5561.11
448.43	5575.16
448.62	5418.34
448.80	5465.15
448.99	5394.93
449.17	5724.95
449.36	5561.11
449.54	5572.82
449.73	5710.91
449.91	5659.42
450.10	5727.29
450.28	5788.14
450.46	5888.79
450.65	5809.21
450.83	5846.66
451.02	5874.74
451.20	5968.37
451.39	5811.55
451.57	5891.13
451.76	5813.89
451.94	5841.98
452.13	5900.49
452.31	5921.56
452.49	5977.73
452.68	5968.37
452.86	5956.66
453.05	6160.29
453.23	6164.97
453.42	6190.72
453.60	5961.34
453.78	6197.74
453.97	6080.71
454.15	5935.60
454.34	6012.84
454.52	6223.48
454.70	6146.25
454.89	6183.70
455.07	6349.87
455.26	6321.79
455.44	6438.81
455.62	6424.77
455.81	6277.32
455.99	6462.22
456.17	6595.63
456.36	6462.22
456.54	6616.69
456.73	6518.39
456.91	6752.45
457.09	6534.78
457.28	6689.25
457.46	6626.06
457.64	6806.28
457.83	6927.99
458.01	6658.82
458.19	6909.26
458.38	6651.80
458.56	6707.98
458.74	6998.20
458.93	6984.16
459.11	6834.36
459.29	6787.55
459.48	7019.27
459.66	7045.01
459.84	6888.20
460.03	7148.00
460.21	6965.43
460.39	6923.30
460.57	6988.84
460.76	7070.76
460.94	7105.87
461.12	7089.48
461.31	7131.61
461.49	7199.49
461.67	7091.82
461.85	7454.61
462.04	7302.47
462.22	7709.72
462.40	7276.73
462.59	7325.88
462.77	7311.83
462.95	7494.40
463.13	7496.74
463.32	7426.52
463.50	7454.61
463.68	7510.78
463.86	7597.38
464.05	7529.50
464.23	7522.48
464.41	7602.06
464.59	7590.36
464.78	7548.23
464.96	7721.43
465.14	7620.78
465.32	7653.55
465.50	7775.26
465.69	7803.35
465.87	7726.11
466.05	7737.81
466.23	7698.02
466.41	7894.63
466.60	8074.85
466.78	7698.02
466.96	7793.98
467.14	7920.37
467.32	7864.20
467.51	7990.59
467.69	7981.23
467.87	7896.97
468.05	7903.99
468.23	7819.73
468.41	8058.46
468.60	8131.02
468.78	8131.02
468.96	7871.22
469.14	8121.66
469.32	8124.00
469.50	8138.04
469.69	8163.79
469.87	8381.46
470.05	8353.37
470.23	8215.28
470.41	8339.33
470.59	8381.46
470.77	8435.29
470.95	8454.02
471.14	8484.44
471.32	8311.24
471.50	8685.73
471.68	8390.82
471.86	8800.41
472.04	8695.09
472.22	8805.10
472.40	8711.47
472.58	8774.67
472.77	8917.44
472.95	8805.10
473.13	9364.48
473.31	8954.89
473.49	8919.78
473.67	8901.06
473.85	8931.48
474.03	9224.05
474.21	9291.93
474.39	9415.98
474.57	9308.31
474.75	9446.40
474.93	9413.63
475.12	9245.12
475.30	9731.95
475.48	9385.55
475.66	9495.55
475.84	9514.28
476.02	9722.59
476.20	9713.22
476.38	9783.44
476.56	10183.67
476.74	10036.22
476.92	9987.07
477.10	9891.10
477.28	10054.94
477.46	10164.95
477.64	10455.17
477.82	10396.66
478.00	10661.14
478.18	10530.07
478.36	10794.55
478.54	10775.83
478.72	10846.04
478.90	11061.37
479.08	11084.78
479.26	11044.99
479.44	10801.57
479.62	11124.57
479.80	11248.61
479.98	11379.68
480.16	11707.36
480.34	11630.12
480.52	11604.38
480.70	11543.52
480.88	11353.94
481.06	11826.73
481.24	11896.94
481.41	11981.20
481.59	12070.14
481.77	12245.68
481.95	12145.04
482.13	12318.24
482.31	12343.99
482.49	12510.16
482.67	12477.40
482.85	12898.69
483.03	12809.75
483.21	13249.77
483.39	13202.96
483.57	13034.44
483.74	13163.17
483.92	13329.35
484.10	13303.60
484.28	13729.58
484.46	13554.04
484.64	13898.10
484.82	13790.44
485.00	14001.08
485.18	14216.41
485.35	14459.83
485.53	14305.35
485.71	14328.76
485.89	14560.47
486.07	14614.30
486.25	14679.84
486.43	14904.53
486.61	14871.76
486.78	15110.50
486.96	15133.90
487.14	15475.62
487.32	15372.64
487.50	15599.67
487.68	15480.30
487.85	15545.84
488.03	15758.83
488.21	16058.42
488.39	15866.49
488.57	16210.55
488.75	16533.54
488.92	16570.99
489.10	16793.34
489.28	16835.47
489.46	16908.03
489.64	16676.32
489.81	17334.01
489.99	17111.66
490.17	17245.07
490.35	17404.22
490.53	17095.27
490.70	18010.42
490.88	17530.61
491.06	17865.31
491.24	17771.69
491.41	18387.25
491.59	18113.41
491.77	18127.45
491.95	18548.75
492.13	18618.96
492.30	18609.60
492.48	18831.95
492.66	18508.96
492.84	18789.82
493.01	19262.61
493.19	19084.73
493.37	19260.27
493.54	19302.40
493.72	19616.03
493.90	19658.16
494.08	19992.86
494.25	19704.97
494.43	20034.99
494.61	20236.27
494.79	20219.89
494.96	20386.07
495.14	20187.12
495.32	20308.83
495.49	20915.03
495.67	20805.02
495.85	20664.59
496.02	20992.26
496.20	21149.08
496.38	21294.19
496.55	21242.70
496.73	21752.94
496.91	21432.29
497.09	21958.91
497.26	21617.19
497.44	21788.05
497.62	21745.92
497.79	22054.87
497.97	22129.77
498.14	22391.91
498.32	22600.21
498.50	22452.76
498.67	22429.35
498.85	22455.10
499.03	22710.22
499.20	23080.02
499.38	23154.92
499.56	22897.46
499.73	23307.05
499.91	23183.01
500.08	23274.29
500.26	23201.73
500.44	23489.62
500.61	23325.78
500.79	23623.03
500.97	23611.32
501.14	23826.65
501.32	24011.56
501.49	24023.26
501.67	23793.89
501.84	24458.60
502.02	23899.21
502.20	23941.34
502.37	24245.61
502.55	24276.04
502.72	24704.35
502.90	24718.40
503.07	24437.53
503.25	24929.05
503.43	24638.82
503.60	25017.99
503.78	25364.39
503.95	25111.61
504.13	25144.38
504.30	25085.86
504.48	25317.57
504.65	25542.27
504.83	25462.69
505.01	25701.42
505.18	26022.08
505.36	25954.20
505.53	25738.87
505.71	26314.64
505.88	26176.55
506.06	25930.80
506.23	26190.59
506.41	26139.10
506.58	26363.79
506.76	25951.86
506.93	26663.38
507.11	26366.13
507.28	26878.71
507.46	26600.19
507.63	26696.15
507.81	27199.37
507.98	27005.10
508.16	26724.24
508.33	26941.91
508.50	27288.31
508.68	27082.34
508.85	27391.29
509.03	27473.21
509.20	27667.47
509.38	27882.80
509.55	27531.72
509.73	28006.85
509.90	27765.78
510.08	27686.20
510.25	28098.13
510.42	27892.16
510.60	28194.09
510.77	28250.27
510.95	28355.59
511.12	27983.44
511.30	28313.46
511.47	28371.97
511.64	28400.06
511.82	28519.43
511.99	28676.24
512.17	29010.94
512.34	28865.83
512.51	29083.50
512.69	29305.85
512.86	29249.67
513.04	29654.59
513.21	29041.37
513.38	29338.62
513.56	29617.14
513.73	29032.00
513.90	29399.47
514.08	29589.05
514.25	29593.73
514.43	30052.48
514.60	29685.01
514.77	30078.22
514.95	30085.25
515.12	30036.09
515.29	30115.67
515.47	30483.14
515.64	30148.44
515.81	30265.47
515.99	30466.75
516.16	30405.90
516.33	30555.69
516.51	30944.22
516.68	30749.96
516.85	30567.40
517.03	30962.95
517.20	31161.89
517.37	31232.11
517.54	31346.79
517.72	30871.67
517.89	31082.31
518.06	31271.90
518.24	31173.60
518.41	31145.51
518.58	31241.47
518.75	31063.59
518.93	31859.37
519.10	31512.97
519.27	31791.50
519.45	32051.30
519.62	32039.59
519.79	32027.89
519.96	31934.27
520.14	32444.51
520.31	32194.07
520.48	32273.65
520.65	32264.28
520.83	32395.35
521.00	32627.07
521.17	32783.88
521.34	32540.47
521.52	32854.10
521.69	32720.69
521.86	32404.72
522.03	33111.56
522.20	32961.76
522.38	33415.83
522.55	33500.09
522.72	33282.42
522.89	33179.43
523.07	33790.31
523.24	33357.32
523.41	33661.58
523.58	32907.93
523.75	33661.58
523.92	33523.49
524.10	33621.80
524.27	34103.95
524.44	34117.99
524.61	33783.29
524.78	34031.39
524.96	33923.72
525.13	34197.57
525.30	34651.63
525.47	34415.24
525.64	34223.31
525.81	34588.44
525.98	34941.86
526.16	34312.25
526.33	34132.03
526.50	34871.64
526.67	34775.68
526.84	34642.27
527.01	34548.65
527.18	34778.02
527.36	35325.71
527.53	34754.61
527.70	35360.81
527.87	35442.73
528.04	34991.01
528.21	35178.25
528.38	34944.20
528.55	35189.95
528.72	34962.92
528.89	35349.11
529.07	35426.35
529.24	35393.58
529.41	35847.64
529.58	35543.38
529.75	35424.01
529.92	36238.51
530.09	35735.30
530.26	35461.46
530.43	35901.48
530.60	35784.45
530.77	35889.77
530.94	35695.51
531.11	35988.08
531.28	36196.38
531.46	36198.73
531.63	36226.81
531.80	35887.43
531.97	36458.52
532.14	36208.09
532.31	36294.69
532.48	36643.43
532.65	36566.19
532.82	36723.01
532.99	36587.25
533.16	36587.25
533.33	36825.99
533.50	36715.98
533.67	36950.04
533.84	36706.62
534.01	36739.39
534.18	36732.37
534.35	37469.64
534.52	37163.03
534.69	37654.54
534.86	37184.09
535.03	37322.18
535.20	36797.90
535.37	37518.79
535.54	37818.38
535.71	37397.08
535.88	37275.37
536.05	37523.47
536.22	37996.26
536.38	37378.36
536.55	37553.90
536.72	37722.41
536.89	37907.32
537.06	37727.10
537.23	38059.45
537.40	37649.86
537.57	37806.67
537.74	37340.91
537.91	38300.53
538.08	37663.90
538.25	37860.51
538.42	38384.79
538.59	38284.14
538.75	37921.36
538.92	38581.39
539.09	38080.52
539.26	38436.28
539.43	38429.26
539.60	38403.51
539.77	38625.86
539.94	38782.68
540.11	38988.64
540.28	38412.87
540.44	38871.62
540.61	38742.89
540.78	38213.93
540.95	38827.15
541.12	38684.37
541.29	38848.21
541.46	39122.05
541.62	38916.09
541.79	39164.18
541.96	38838.85
542.13	38859.91
542.30	39229.72
542.47	39730.59
542.63	39487.18
542.80	39496.54
542.97	39817.19
543.14	39969.33
543.31	39475.48
543.48	39718.89
543.64	40048.91
543.81	40084.01
543.98	39969.33
544.15	39707.19
544.32	39679.10
544.48	40177.64
544.65	40261.90
544.82	40439.78
544.99	40081.67
545.16	40376.58
545.32	39756.34
545.49	40596.59
545.66	40884.48
545.83	40692.55
546.00	40657.45
546.16	40392.97
546.33	40863.41
546.50	40364.88
546.67	40751.07
546.83	40020.82
547.00	40685.53
547.17	40299.34
547.34	40627.02
547.50	41221.52
547.67	41170.02
547.84	40823.62
548.00	40769.79
548.17	41228.54
548.34	41263.64
548.51	41155.98
548.67	41385.35
548.84	41092.79
549.01	41151.30
549.18	40896.18
549.34	41481.31
549.51	41177.04
549.68	41303.43
549.84	41184.07
550.01	41387.69
550.18	40891.50
550.34	41486.00
550.51	41635.79
550.68	41689.62
550.84	41436.84
551.01	41764.52
551.18	41701.32
551.34	41261.30
551.51	41825.37
551.68	41656.85
551.84	41855.80
552.01	41926.02
552.18	41923.68
552.34	41755.16
552.51	41673.24
552.68	41642.81
552.84	42033.68
553.01	42127.30
553.18	41771.54
553.34	42230.29
553.51	41621.75
553.67	42188.16
553.84	42256.03
554.01	42057.09
554.17	41930.70
554.34	42852.87
554.51	42359.02
554.67	42628.18
554.84	42405.83
555.00	42066.45
555.17	42520.51
555.33	42777.97
555.50	42593.07
555.67	42564.98
555.83	42185.82
556.00	42920.74
556.16	42911.38
556.33	42958.19
556.50	42948.83
556.66	42930.11
556.83	42747.54
556.99	43292.89
557.16	42616.47
557.32	43119.69
557.49	43304.59
557.65	42923.08
557.82	42960.53
557.98	43005.00
558.15	42906.70
558.32	43147.78
558.48	42836.48
558.65	42546.26
558.81	42677.33
558.98	43033.09
559.14	42471.36
559.31	43168.84
559.47	42944.15
559.64	43082.24
559.80	43187.56
559.97	43402.89
560.13	42838.83
560.30	43405.23
560.46	43868.66
560.63	43227.35
560.79	43548.01
560.96	43306.93
561.12	43393.53
561.29	43281.19
561.45	43721.21
561.61	43232.04
561.78	43463.75
561.94	43985.69
562.11	43519.92
562.27	43318.64
562.44	43885.04
562.60	43126.71
562.77	43768.02
562.93	43402.89
563.10	44072.29
563.26	43964.62
563.42	43966.96
563.59	43709.50
563.75	43077.56
563.92	43782.06
564.08	44023.14
564.24	43800.79
564.41	43365.45
564.57	43981.01
564.74	43941.22
564.90	43683.76
565.07	43672.06
565.23	43934.20
565.39	44039.52
565.56	44414.01
565.72	43789.08
565.88	43894.41
566.05	44198.68
566.21	43854.62
566.38	43971.64
566.54	44252.51
566.70	44172.93
566.87	44252.51
567.03	43920.15
567.19	44465.50
567.36	44430.39
567.52	44083.99
567.68	44175.27
567.85	44210.38
568.01	44325.07
568.17	44224.42
568.34	44170.59
568.50	44519.33
568.66	43922.49
568.83	44194.00
568.99	44191.65
569.15	44294.64
569.32	43646.31
569.48	43828.87
569.64	44566.14
569.81	44098.03
569.97	44706.57
570.13	44706.57
570.30	44086.33
570.46	44114.42
570.62	44177.61
570.78	44610.61
570.95	44210.38
571.11	44617.63
571.27	44666.78
571.43	43995.05
571.60	44399.96
571.76	44278.25
571.92	44088.67
572.09	44378.90
572.25	44289.96
572.41	44802.53
572.57	44505.29
572.74	44952.33
572.90	44594.23
573.06	44751.04
573.22	44514.65
573.38	44933.60
573.55	44641.04
573.71	45090.42
573.87	44472.52
574.03	44741.68
574.20	44582.52
574.36	44996.80
574.52	44514.65
574.68	44545.08
574.84	45022.54
575.01	44832.96
575.17	44755.72
575.33	44619.97
575.49	44725.30
575.65	44690.19
575.82	44825.94
575.98	44418.69
576.14	45006.16
576.30	44446.77
576.46	44533.37
576.62	44582.52
576.79	44652.74
576.95	44439.75
577.11	44538.05
577.27	44612.95
577.43	44505.29
577.59	45153.62
577.75	44629.34
577.92	44500.61
578.08	45158.30
578.24	44912.54
578.40	44802.53
578.56	45230.85
578.72	45041.27
578.88	44858.71
579.04	45006.16
579.21	45139.57
579.37	44886.79
579.53	45045.95
579.69	45371.28
579.85	45038.93
580.01	45064.67
580.17	44493.58
580.33	44964.03
580.49	44765.09
580.65	45235.53
580.82	45102.12
580.98	44811.90
581.14	44453.79
581.30	44903.18
581.46	44591.89
581.62	44453.79
581.78	45067.02
581.94	45078.72
582.10	44926.58
582.26	44722.96
582.42	44755.72
582.58	45153.62
582.74	44556.78
582.90	45078.72
583.06	45305.75
583.22	44910.20
583.38	45249.58
583.54	44821.26
583.70	44971.05
583.86	45200.43
584.02	45141.91
584.18	45375.97
584.34	45331.50
584.50	45214.47
584.66	45251.92
584.82	45188.72
584.98	45390.01
585.14	45179.36
585.30	44940.63
585.46	45607.68
585.62	45001.48
585.78	45357.24
585.94	44727.64
586.10	44854.03
586.26	44907.86
586.42	45324.47
586.58	45193.40
586.74	45130.21
586.90	44945.31
587.06	45057.65
587.22	45336.18
587.38	45116.17
587.54	45361.92
587.70	45347.88
587.86	45191.06
588.02	45097.44
588.18	45137.23
588.34	45139.57
588.49	45003.82
588.65	44746.36
588.81	45139.57
588.97	45680.24
589.13	45315.11
589.29	45141.91
589.45	45790.24
589.61	45546.82
589.77	45083.40
589.93	45308.09
590.08	45167.66
