SpectraSuite Data File
++++++++++++++++++++++++++++++++++++
Date: Fri Oct 25 11:25:48 EDT 2013
User: price-jones
Dark Spectrum Present: No
Reference Spectrum Present: No
Number of Sampled Component Spectra: 1
Spectrometers: USB2+H05261
Integration Time (usec): 100000 (USB2+H05261)
Spectra Averaged: 1 (USB2+H05261)
Boxcar Smoothing: 0 (USB2+H05261)
Correct for Electrical Dark: No (USB2+H05261)
Strobe/Lamp Enabled: No (USB2+H05261)
Correct for Detector Non-linearity: No (USB2+H05261)
Correct for Stray Light: No (USB2+H05261)
Number of Pixels in Processed Spectrum: 2048
>>>>>Begin Processed Spectral Data<<<<<
365.73	224.69
365.92	224.69
366.12	224.69
366.32	159.16
366.52	159.16
366.72	102.98
366.91	149.79
367.11	124.05
367.31	138.09
367.51	177.88
367.70	95.96
367.90	121.71
368.10	95.96
368.30	156.82
368.49	147.45
368.69	124.05
368.89	154.48
369.09	114.69
369.28	201.29
369.48	149.79
369.68	152.13
369.87	222.35
370.07	175.54
370.27	257.46
370.47	360.44
370.66	589.82
370.86	578.11
371.06	690.46
371.25	683.44
371.45	674.07
371.65	706.84
371.84	727.91
372.04	657.69
372.24	704.50
372.44	641.31
372.63	720.88
372.83	718.54
373.03	739.61
373.22	739.61
373.42	737.27
373.62	704.50
373.81	765.36
374.01	844.93
374.21	788.76
374.40	828.55
374.60	758.33
374.79	781.74
374.99	929.19
375.19	807.48
375.38	849.61
375.58	889.40
375.78	807.48
375.97	840.25
376.17	863.66
376.37	917.49
376.56	833.23
376.76	868.34
376.95	816.85
377.15	926.85
377.35	905.79
377.54	917.49
377.74	917.49
377.93	863.66
378.13	844.93
378.33	903.45
378.52	940.90
378.72	938.55
378.91	915.15
379.11	922.17
379.31	891.74
379.50	884.72
379.70	1062.60
379.89	973.66
380.09	961.96
380.28	957.28
380.48	1004.09
380.68	938.55
380.87	1022.81
381.07	1088.35
381.26	1022.81
381.46	1006.43
381.65	1090.69
381.85	1025.15
382.04	1067.28
382.24	1043.88
382.43	1081.33
382.63	1090.69
382.83	1078.99
383.02	1123.46
383.22	1165.59
383.41	1067.28
383.61	1142.18
383.80	1163.25
384.00	1071.97
384.19	1228.78
384.39	1263.89
384.58	1193.67
384.78	1146.86
384.97	1111.75
385.17	1207.72
385.36	1121.12
385.56	1188.99
385.75	1203.04
385.95	1217.08
386.14	1219.42
386.34	1256.87
386.53	1247.51
386.72	1282.61
386.92	1203.04
387.11	1280.27
387.31	1259.21
387.50	1193.67
387.70	1259.21
387.89	1247.51
388.09	1228.78
388.28	1261.55
388.48	1219.42
388.67	1345.81
388.86	1327.08
389.06	1275.59
389.25	1378.58
389.45	1348.15
389.64	1313.04
389.84	1437.09
390.03	1427.73
390.22	1390.28
390.42	1359.85
390.61	1369.21
390.81	1355.17
391.00	1460.49
391.19	1420.71
391.39	1418.36
391.58	1397.30
391.78	1460.49
391.97	1476.88
392.16	1455.81
392.36	1558.80
392.55	1533.05
392.75	1455.81
392.94	1610.29
393.13	1647.74
393.33	1640.72
393.52	1509.65
393.71	1511.99
393.91	1540.07
394.10	1561.14
394.29	1666.46
394.49	1652.42
394.68	1617.31
394.88	1537.73
395.07	1610.29
395.26	1659.44
395.46	1699.23
395.65	1652.42
395.84	1598.59
396.04	1820.94
396.23	1720.29
396.42	1792.85
396.62	1804.55
396.81	1692.21
397.00	1778.81
397.19	1813.92
397.39	1799.87
397.58	1891.15
397.77	1813.92
397.97	1853.70
398.16	1902.86
398.35	1853.70
398.55	1961.37
398.74	1935.62
398.93	1916.90
399.12	1881.79
399.32	1954.35
399.51	1980.09
399.70	2069.03
399.90	2062.01
400.09	1963.71
400.28	2139.25
400.47	2052.65
400.67	2113.50
400.86	2069.03
401.05	2111.16
401.24	2188.40
401.44	2036.27
401.63	2143.93
401.82	2174.36
402.01	2165.00
402.21	2193.08
402.40	2071.37
402.59	2118.18
402.78	2211.81
402.97	2298.41
403.17	2279.68
403.36	2368.62
403.55	2253.94
403.74	2382.67
403.93	2396.71
404.13	2356.92
404.32	2307.77
404.51	2356.92
404.70	2401.39
404.89	2370.96
405.09	2455.22
405.28	2431.82
405.47	2506.71
405.66	2583.95
405.85	2530.12
406.05	2616.72
406.24	2480.97
406.43	2621.40
406.62	2565.23
406.81	2710.34
407.00	2642.46
407.20	2621.40
407.39	2644.81
407.58	2658.85
407.77	2825.03
407.96	2834.39
408.15	2724.38
408.34	2794.60
408.54	2810.98
408.73	2710.34
408.92	2888.22
409.11	2857.79
409.30	2911.63
409.49	2911.63
409.68	2974.82
409.87	2913.97
410.07	2956.10
410.26	2878.86
410.45	2993.55
410.64	2979.50
410.83	2981.84
411.02	3115.25
411.21	3119.93
411.40	3108.23
411.59	3218.24
411.78	3157.38
411.98	3171.43
412.17	3297.81
412.36	3316.54
412.55	3356.33
412.74	3438.25
412.93	3384.41
413.12	3454.63
413.31	3382.07
413.50	3480.38
413.69	3421.86
413.88	3564.64
414.07	3599.74
414.26	3513.14
414.45	3606.77
414.64	3653.58
414.83	3709.75
415.02	3716.77
415.22	3875.93
415.41	3899.33
415.60	3845.50
415.79	3772.94
415.98	4002.32
416.17	3983.59
416.36	3911.04
416.55	3962.53
416.74	4037.42
416.93	4063.17
417.12	4067.85
417.31	4112.32
417.50	3967.21
417.69	4308.93
417.88	4301.90
418.07	4205.94
418.26	4266.80
418.45	4262.12
418.64	4470.42
418.83	4348.72
419.02	4397.87
419.21	4622.56
419.39	4535.96
419.58	4507.87
419.77	4442.34
419.96	4519.57
420.15	4629.58
420.34	4475.10
420.53	4489.15
420.72	4674.05
420.91	4716.18
421.10	4669.37
421.29	4777.03
421.48	4861.29
421.67	4622.56
421.86	4695.11
422.05	4716.18
422.24	4755.97
422.43	4896.40
422.61	4905.76
422.80	4915.12
422.99	5015.77
423.18	4880.02
423.37	4985.34
423.56	5001.72
423.75	4844.91
423.94	4844.91
424.13	4535.96
424.32	4699.80
424.50	4882.36
424.69	4983.00
424.88	4973.64
425.07	5004.07
425.26	4978.32
425.45	5020.45
425.64	5053.22
425.83	5050.88
426.01	5048.54
426.20	5032.15
426.39	4973.64
426.58	4873.00
426.77	5048.54
426.96	5118.75
427.15	5184.29
427.33	5151.52
427.52	5181.95
427.71	5322.38
427.90	5076.62
428.09	5310.68
428.28	5366.85
428.46	5439.40
428.65	5376.21
428.84	5612.60
429.03	5441.75
429.22	5174.92
429.40	5596.22
429.59	5476.85
429.78	5345.78
429.97	5425.36
430.16	5259.18
430.34	5650.05
430.53	5673.46
430.72	5668.78
430.91	5652.39
431.10	5600.90
431.28	5750.70
431.47	5863.04
431.66	5839.64
431.85	5764.74
432.03	5888.79
432.22	5860.70
432.41	5771.76
432.60	5776.44
432.79	5914.53
432.97	5928.58
433.16	6040.92
433.35	5982.41
433.54	6092.41
433.72	5970.71
433.91	6005.81
434.10	6155.61
434.28	5966.03
434.47	6162.63
434.66	6289.02
434.85	6274.98
435.03	6380.30
435.22	6277.32
435.41	6455.20
435.59	6392.00
435.78	6377.96
435.97	6537.12
436.16	6349.87
436.34	6370.94
436.53	6389.66
436.72	6597.97
436.90	6473.92
437.09	6656.48
437.28	6429.45
437.46	6506.69
437.65	6799.26
437.84	6583.93
438.02	6705.63
438.21	6782.87
438.40	6677.55
438.58	6937.35
438.77	7023.95
438.96	6951.39
439.14	7215.87
439.33	7332.90
439.52	7232.26
439.70	7293.11
439.89	7442.90
440.08	7309.49
440.26	7407.80
440.45	7330.56
440.63	7585.68
440.82	7564.61
441.01	7496.74
441.19	7761.22
441.38	7597.38
441.57	7854.84
441.75	7885.26
441.94	7815.05
442.12	7681.64
442.31	7981.23
442.50	8145.06
442.68	8046.76
442.87	7967.18
443.05	8035.06
443.24	8028.04
443.43	8292.52
443.61	8222.30
443.80	8580.40
443.98	7950.80
444.17	7892.29
444.35	8142.72
444.54	8421.25
444.73	8465.72
444.91	8215.28
445.10	8259.75
445.28	8351.03
445.47	8313.58
445.65	8278.47
445.84	8444.65
446.02	8421.25
446.21	8512.53
446.39	8383.80
446.58	8652.96
446.77	8571.04
446.95	8329.97
447.14	8320.60
447.32	8671.68
447.51	8435.29
447.69	8475.08
447.88	8491.46
448.06	8617.85
448.25	8395.50
448.43	8650.62
448.62	8538.27
448.80	8542.96
448.99	8650.62
449.17	8613.17
449.36	8678.71
449.54	8856.59
449.73	9102.34
449.91	8943.19
450.10	8990.00
450.28	9048.51
450.46	8952.55
450.65	9011.06
450.83	8964.25
451.02	9076.60
451.20	9092.98
451.39	9188.94
451.57	8999.36
451.76	9034.47
451.94	9083.62
452.13	9362.14
452.31	9345.76
452.49	8987.66
452.68	9423.00
452.86	9163.20
453.05	9497.89
453.23	9537.68
453.42	9240.44
453.60	9303.63
453.78	9413.63
453.97	9535.34
454.15	9439.38
454.34	9394.91
454.52	9734.29
454.70	9582.15
454.89	9741.31
455.07	9628.96
455.26	9804.50
455.44	10031.54
455.62	9937.91
455.81	10001.11
455.99	9949.62
456.17	9963.66
456.36	10171.97
456.54	10204.74
456.73	10080.69
456.91	10434.11
457.09	10427.09
457.28	10455.17
457.46	10216.44
457.64	10630.71
457.83	10626.03
458.01	10434.11
458.19	10637.73
458.38	10593.26
458.56	10738.38
458.74	10560.50
458.93	10731.36
459.11	10789.87
459.29	10956.05
459.48	10817.96
459.66	10836.68
459.84	10736.04
460.03	10963.07
460.21	10937.32
460.39	11000.52
460.57	10925.62
460.76	10988.82
460.94	11033.29
461.12	11269.68
461.31	10913.92
461.49	11068.39
461.67	11147.97
461.85	11578.63
462.04	11337.56
462.22	11775.24
462.40	11705.02
462.59	11382.03
462.77	11367.98
462.95	11522.46
463.13	11583.31
463.32	11393.73
463.50	11915.67
463.68	11531.82
463.86	11674.59
464.05	11653.53
464.23	11623.10
464.41	12042.06
464.59	11616.08
464.78	12147.38
464.96	12105.25
465.14	11798.64
465.32	11981.20
465.50	12175.47
465.69	12226.96
465.87	12187.17
466.05	12182.49
466.23	11957.80
466.41	12016.31
466.60	12336.96
466.78	12205.89
466.96	11936.73
467.14	12374.41
467.32	12393.14
467.51	12678.68
467.69	12152.06
467.87	12358.03
468.05	12664.64
468.23	12549.95
468.41	12187.17
468.60	12816.77
468.78	12535.91
468.96	12451.65
469.14	12933.80
469.32	13221.69
469.50	12830.82
469.69	13057.85
469.87	12882.31
470.05	13102.32
470.23	13144.45
470.41	13195.94
470.59	13261.48
470.77	13270.84
470.95	13142.11
471.14	13547.02
471.32	13025.08
471.50	13530.64
471.68	13497.87
471.86	13444.04
472.04	13905.12
472.22	14015.13
472.40	13495.53
472.58	14015.13
472.77	14146.20
472.95	13926.19
473.13	14476.21
473.31	13944.91
473.49	14146.20
473.67	14136.84
473.85	14410.68
474.03	14525.36
474.21	14693.88
474.39	14567.49
474.57	14567.49
474.75	14984.11
474.93	15157.31
475.12	14977.09
475.30	15239.23
475.48	14890.49
475.66	15358.60
475.84	15166.67
476.02	15213.48
476.20	15440.51
476.38	15630.10
476.56	15948.41
476.74	15833.72
476.92	15822.02
477.10	15985.86
477.28	16035.01
477.46	16018.63
477.64	16299.49
477.82	16393.11
478.00	16893.99
478.18	16739.51
478.36	16929.09
478.54	17062.51
478.72	17020.38
478.90	17521.25
479.08	17493.16
479.26	17762.33
479.44	17944.89
479.62	17881.69
479.80	17951.91
479.98	18242.14
480.16	18604.92
480.34	18195.32
480.52	18717.26
480.70	18574.49
480.88	18335.76
481.06	18668.11
481.24	18895.14
481.41	18895.14
481.59	19379.64
481.77	19499.00
481.95	19576.24
482.13	19587.94
482.31	19510.71
482.49	20175.42
482.67	20315.85
482.85	20236.27
483.03	20559.27
483.21	20734.81
483.39	20889.28
483.57	20695.02
483.74	20863.54
483.92	21034.39
484.10	21338.66
484.28	21687.40
484.46	21928.48
484.64	22307.65
484.82	21619.53
485.00	22235.09
485.18	22675.11
485.35	23009.81
485.53	22747.67
485.71	23119.81
485.89	23250.88
486.07	23267.27
486.25	23096.41
486.43	23346.84
486.61	23578.56
486.78	24102.84
486.96	24072.41
487.14	24362.64
487.32	24482.00
487.50	24877.55
487.68	24968.84
487.85	24992.24
488.03	25465.03
488.21	25783.34
488.39	26139.10
488.57	26316.98
488.75	26017.40
488.92	26258.47
489.10	26632.96
489.28	26869.35
489.46	27199.37
489.64	26993.40
489.81	27374.91
489.99	27541.08
490.17	27789.18
490.35	27985.79
490.53	28077.07
490.70	28341.55
490.88	28030.26
491.06	28297.08
491.24	28676.24
491.41	28868.17
491.59	29535.22
491.77	29233.29
491.95	29544.58
492.13	30024.39
492.30	29640.54
492.48	29982.26
492.66	30015.03
492.84	30288.87
493.01	30913.80
493.19	30298.23
493.37	31101.04
493.54	31262.54
493.72	31307.01
493.90	31725.96
494.08	31821.92
494.25	31913.20
494.43	32212.79
494.61	31992.78
494.79	32348.54
494.96	32477.27
495.14	33015.60
495.32	33071.77
495.49	33167.73
495.67	33008.58
495.85	33809.04
496.02	33741.16
496.20	34178.84
496.38	34089.90
496.55	34017.35
496.73	34792.06
496.91	34443.32
497.09	34834.19
497.26	34806.11
497.44	35030.80
497.62	35283.58
497.79	36058.29
497.97	35473.16
498.14	36346.18
498.32	35800.83
498.50	36371.92
498.67	36657.47
498.85	36701.94
499.03	36687.90
499.20	36292.35
499.38	36999.19
499.56	36994.51
499.73	37095.15
499.91	36844.71
500.08	37443.89
500.26	37596.03
500.44	37509.43
500.61	37596.03
500.79	38110.94
500.97	38106.26
501.14	38696.08
501.32	38347.34
501.49	38438.62
501.67	38845.87
501.84	38897.36
502.02	39075.24
502.20	39021.41
502.37	39026.09
502.55	39178.23
502.72	39297.59
502.90	39445.05
503.07	39299.94
503.25	39875.71
503.43	39889.75
503.60	39861.66
503.78	39880.39
503.95	39945.92
504.13	40322.75
504.30	40521.69
504.48	40318.07
504.65	40521.69
504.83	41219.17
505.01	41453.23
505.18	41326.84
505.36	41310.46
505.53	41280.03
505.71	41904.95
505.88	41715.37
506.06	41607.70
506.23	42019.64
506.41	42075.81
506.58	42115.60
506.76	42078.15
506.93	42658.60
507.11	42234.97
507.28	42476.04
507.46	42728.82
507.63	42763.93
507.81	42930.11
507.98	42766.27
508.16	43019.05
508.33	43402.89
508.50	43599.50
508.68	43665.03
508.85	43992.71
509.03	44135.48
509.20	43768.02
509.38	44357.83
509.55	44495.92
509.73	44397.62
509.90	44505.29
510.08	44315.70
510.25	44626.99
510.42	44816.58
510.60	44811.90
510.77	45024.89
510.95	45202.77
511.12	44889.13
511.30	45373.63
511.47	45184.04
511.64	45422.78
511.82	45970.46
511.99	45446.18
512.17	46073.45
512.34	45993.87
512.51	46260.69
512.69	46220.90
512.86	46576.66
513.04	46471.34
513.21	46859.87
513.38	46719.43
513.56	46841.14
513.73	47019.02
513.90	46822.42
514.08	46445.59
514.25	47037.75
514.43	47122.01
514.60	47349.04
514.77	47615.86
514.95	47576.07
515.12	47800.76
515.29	47555.00
515.47	47887.36
515.64	48004.39
515.81	47938.85
515.99	47657.99
516.16	48215.04
516.33	48144.82
516.51	48315.68
516.68	48191.63
516.85	48779.10
517.03	48877.41
517.20	48715.91
517.37	48854.00
517.54	48807.19
517.72	48994.43
517.89	48889.11
518.06	49174.66
518.24	49090.40
518.41	49237.85
518.58	49406.37
518.75	49102.10
518.93	49523.40
519.10	49502.33
519.27	49567.87
519.45	49928.31
519.62	49888.52
519.79	50021.93
519.96	50007.89
520.14	50412.80
520.31	49886.18
520.48	50417.48
520.65	50255.98
520.83	50480.67
521.00	50543.87
521.17	50630.47
521.34	50644.51
521.52	50672.60
521.69	50777.92
521.86	50813.03
522.03	50988.57
522.20	51157.09
522.38	51590.09
522.55	51264.75
522.72	51222.62
522.89	51470.72
523.07	51512.85
523.24	51257.73
523.41	51774.99
523.58	51559.66
523.75	52037.13
523.92	52004.36
524.10	51739.88
524.27	52170.54
524.44	52023.09
524.61	51931.81
524.78	52423.32
524.96	52055.85
525.13	52385.87
525.30	52481.83
525.47	52409.28
525.64	52341.40
525.81	52542.69
525.98	52617.58
526.16	52514.60
526.33	52530.98
526.50	52809.51
526.67	52701.84
526.84	52978.03
527.01	52942.92
527.18	52648.01
527.36	53029.52
527.53	53261.23
527.70	53195.70
527.87	52980.37
528.04	53109.10
528.21	53368.90
528.38	53277.61
528.55	53422.73
528.72	53221.44
528.89	53195.70
529.07	53485.92
529.24	53205.06
529.41	53832.32
529.58	53605.29
529.75	53570.18
529.92	53675.51
530.09	53717.64
530.26	54110.85
530.43	54087.44
530.60	53837.00
530.77	53876.79
530.94	54234.89
531.11	54040.63
531.28	54057.01
531.46	54127.23
531.63	54124.89
531.80	54504.06
531.97	54244.26
532.14	54447.88
532.31	54344.90
532.48	54351.92
532.65	54646.83
532.82	54515.76
532.99	54471.29
533.16	54466.61
533.33	54677.25
533.50	54972.16
533.67	54543.84
533.84	54873.86
534.01	54667.89
534.18	54939.39
534.35	55124.30
534.52	54997.91
534.69	55154.72
534.86	55117.28
535.03	54880.88
535.20	55140.68
535.37	55196.85
535.54	55381.76
535.71	55103.23
535.88	55681.34
536.05	55330.26
536.22	55421.55
536.38	55604.11
536.55	55412.18
536.72	55599.43
536.89	55482.40
537.06	55480.06
537.23	55627.51
537.40	55384.10
537.57	55964.55
537.74	55669.64
537.91	55936.46
538.08	55875.61
538.25	55653.26
538.42	56034.77
538.59	56069.87
538.75	55889.65
538.92	56119.02
539.09	56112.00
539.26	56128.39
539.43	56013.70
539.60	56327.33
539.77	56413.93
539.94	56629.26
540.11	56315.63
540.28	56186.90
540.44	56423.29
540.61	56128.39
540.78	56214.99
540.95	56376.48
541.12	56437.34
541.29	56385.85
541.46	56437.34
541.62	56437.34
541.79	56481.81
541.96	56299.25
542.13	56669.05
542.30	56701.82
542.47	56741.61
542.63	56617.56
542.80	56893.74
542.97	57233.12
543.14	56966.30
543.31	57209.71
543.48	56966.30
543.64	57469.51
543.81	57308.02
543.98	57153.54
544.15	57256.53
544.32	57345.47
544.48	57457.81
544.65	57453.13
544.82	57481.22
544.99	57254.18
545.16	57457.81
545.32	57303.34
545.49	57736.34
545.66	57640.37
545.83	57656.76
546.00	57731.65
546.16	57478.88
546.33	57673.14
546.50	57207.37
546.67	57581.86
546.83	57439.09
547.00	57897.83
547.17	57638.03
547.34	57738.68
547.50	57993.79
547.67	58234.87
547.84	58012.52
548.00	58110.82
548.17	58103.80
548.34	58042.95
548.51	58152.95
548.67	58064.01
548.84	58171.67
549.01	58052.31
549.18	57972.73
549.34	58354.24
549.51	58298.06
549.68	58169.33
549.84	58300.40
550.01	58267.64
550.18	58248.91
550.34	58335.51
550.51	58433.81
550.68	58190.40
550.84	58078.05
551.01	58464.24
551.18	58485.31
551.34	58377.64
551.51	58553.18
551.68	58553.18
551.84	58658.51
552.01	58403.39
552.18	58745.11
552.34	58440.84
552.51	58712.34
552.68	58452.54
552.84	58913.62
553.01	58735.74
553.18	58693.61
553.34	58920.65
553.51	58672.55
553.67	58637.44
553.84	59086.82
554.01	58878.52
554.17	58873.84
554.34	59042.35
554.51	58930.01
554.67	59035.33
554.84	59054.06
555.00	58937.03
555.17	59056.40
555.33	59077.46
555.50	58974.48
555.67	58965.12
555.83	58969.80
556.00	59166.40
556.16	59379.39
556.33	59229.60
556.50	59110.23
556.66	59253.00
556.83	59110.23
556.99	59524.50
557.16	59248.32
557.32	59405.14
557.49	59594.72
557.65	59311.52
557.82	59456.63
557.98	59267.05
558.15	59178.10
558.32	59428.54
558.48	59482.37
558.65	59449.61
558.81	59477.69
558.98	59238.96
559.14	59512.80
559.31	59531.53
559.47	59468.33
559.64	59634.51
559.80	59681.32
559.97	59800.69
560.13	59416.84
560.30	59718.77
560.46	59800.69
560.63	59728.13
560.79	59552.59
560.96	59671.96
561.12	59767.92
561.29	59831.11
561.45	59681.32
561.61	59917.71
561.78	59723.45
561.94	59653.23
562.11	59749.20
562.27	59770.26
562.44	59887.29
562.60	60018.36
562.77	59859.20
562.93	59641.53
563.10	60051.12
563.26	59812.39
563.42	60126.02
563.59	59924.74
563.75	59891.97
563.92	60051.12
564.08	59922.40
564.24	60168.15
564.41	59999.63
564.57	60179.85
564.74	60097.94
564.90	60268.79
565.07	59992.61
565.23	60128.36
565.39	60111.98
565.56	60053.47
565.72	60058.15
565.88	60114.32
566.05	60100.28
566.21	60250.07
566.38	60013.68
566.54	60193.90
566.70	60479.44
566.87	60409.23
567.03	60205.60
567.19	60271.14
567.36	60189.22
567.52	60175.17
567.68	60523.91
567.85	60273.48
568.01	60163.47
568.17	60264.11
568.34	60456.04
568.50	60210.28
568.66	60231.35
568.83	60495.83
568.99	60133.04
569.15	60608.17
569.32	60434.97
569.48	60416.25
569.64	60434.97
569.81	60266.45
569.97	60427.95
570.13	60446.68
570.30	60247.73
570.46	60203.26
570.62	60357.74
570.78	60362.42
570.95	60491.15
571.11	60598.81
571.27	60580.09
571.43	60413.91
571.60	60713.50
571.76	60692.43
571.92	60498.17
572.09	60556.68
572.25	60601.15
572.41	60491.15
572.57	60535.62
572.74	60687.75
572.90	60519.23
573.06	60449.02
573.22	60493.49
573.38	60638.60
573.55	60673.71
573.71	60657.32
573.87	60823.50
574.03	60594.13
574.20	60736.90
574.36	60500.51
574.52	60697.11
574.68	60638.60
574.84	60921.80
575.01	60671.37
575.17	60851.59
575.33	60704.13
575.49	60610.51
575.65	60619.88
575.82	60732.22
575.98	60542.64
576.14	60896.06
576.30	60636.26
576.46	60619.88
576.62	60654.98
576.79	60662.00
576.95	60603.49
577.11	60863.29
577.27	60853.93
577.43	60867.97
577.59	60580.09
577.75	60676.05
577.92	60676.05
578.08	60706.47
578.24	60739.24
578.40	60928.83
578.56	60860.95
578.72	60662.00
578.88	60870.31
579.04	61022.45
579.21	60692.43
579.37	61226.07
579.53	61155.86
579.69	60776.69
579.85	60659.66
580.01	60605.83
580.17	60706.47
580.33	60776.69
580.49	60917.12
580.65	60711.16
580.82	60596.47
580.98	60704.13
581.14	60832.86
581.30	60924.14
581.46	60767.33
581.62	60832.86
581.78	60701.79
581.94	60959.25
582.10	60727.54
582.26	60921.80
582.42	60725.20
582.58	60900.74
582.74	60837.54
582.90	60882.02
583.06	60903.08
583.22	60928.83
583.38	60776.69
583.54	60783.71
583.70	60734.56
583.86	60795.42
584.02	60905.42
584.18	61029.47
584.34	60844.57
584.50	61085.64
584.66	60893.72
584.82	60776.69
584.98	60975.64
585.14	61176.92
585.30	60764.99
585.46	60910.10
585.62	60982.66
585.78	61127.77
585.94	60809.46
586.10	60898.40
586.26	61029.47
586.42	61092.66
586.58	60942.87
586.74	60903.08
586.90	60933.51
587.06	60856.27
587.22	61099.68
587.38	61041.17
587.54	61010.74
587.70	61249.48
587.86	61073.94
588.02	61181.60
588.18	61223.73
588.34	60963.93
588.49	61247.14
