SpectraSuite Data File
++++++++++++++++++++++++++++++++++++
Date: Fri Oct 25 11:23:19 EDT 2013
User: price-jones
Dark Spectrum Present: No
Reference Spectrum Present: No
Number of Sampled Component Spectra: 1
Spectrometers: USB2+H05261
Integration Time (usec): 100000 (USB2+H05261)
Spectra Averaged: 1 (USB2+H05261)
Boxcar Smoothing: 0 (USB2+H05261)
Correct for Electrical Dark: No (USB2+H05261)
Strobe/Lamp Enabled: No (USB2+H05261)
Correct for Detector Non-linearity: No (USB2+H05261)
Correct for Stray Light: No (USB2+H05261)
Number of Pixels in Processed Spectrum: 2048
>>>>>Begin Processed Spectral Data<<<<<
365.73	203.63
365.92	203.63
366.12	203.63
366.32	124.05
366.52	88.94
366.72	198.95
366.91	131.07
367.11	142.77
367.31	138.09
367.51	117.03
367.70	98.30
367.90	91.28
368.10	152.13
368.30	112.35
368.49	95.96
368.69	182.56
368.89	140.43
369.09	140.43
369.28	205.97
369.48	88.94
369.68	140.43
369.87	170.86
370.07	201.29
370.27	278.52
370.47	365.12
370.66	547.69
370.86	622.58
371.06	667.05
371.25	854.30
371.45	699.82
371.65	734.93
371.84	664.71
372.04	688.12
372.24	720.88
372.44	667.05
372.63	709.18
372.83	678.76
373.03	774.72
373.22	788.76
373.42	737.27
373.62	842.59
373.81	826.21
374.01	805.14
374.21	788.76
374.40	798.12
374.60	814.51
374.79	765.36
374.99	847.27
375.19	812.17
375.38	774.72
375.58	856.64
375.78	816.85
375.97	812.17
376.17	882.38
376.37	915.15
376.56	849.61
376.76	840.25
376.95	849.61
377.15	877.70
377.35	901.11
377.54	929.19
377.74	903.45
377.93	868.34
378.13	961.96
378.33	819.19
378.52	968.98
378.72	917.49
378.91	999.41
379.11	983.02
379.31	924.51
379.50	959.62
379.70	1020.47
379.89	919.83
380.09	973.66
380.28	1050.90
380.48	961.96
380.68	985.37
380.87	1020.47
381.07	999.41
381.26	983.02
381.46	1036.86
381.65	1036.86
381.85	1050.90
382.04	1046.22
382.24	1036.86
382.43	1104.73
382.63	1001.75
382.83	978.34
383.02	1128.14
383.22	1118.78
383.41	1064.94
383.61	1128.14
383.80	1156.22
384.00	1104.73
384.19	1060.26
384.39	1139.84
384.58	1179.63
384.78	1149.20
384.97	1118.78
385.17	1107.07
385.36	1158.57
385.56	1228.78
385.75	1181.97
385.95	1174.95
386.14	1205.38
386.34	1163.25
386.53	1139.84
386.72	1200.69
386.92	1313.04
387.11	1315.38
387.31	1277.93
387.50	1301.34
387.70	1235.80
387.89	1261.55
388.09	1294.32
388.28	1336.45
388.48	1224.10
388.67	1294.32
388.86	1214.74
389.06	1411.34
389.25	1336.45
389.45	1324.74
389.64	1380.92
389.84	1327.08
390.03	1385.60
390.22	1465.18
390.42	1411.34
390.61	1394.96
390.81	1387.94
391.00	1418.36
391.19	1488.58
391.39	1371.55
391.58	1430.07
391.78	1497.94
391.97	1469.86
392.16	1364.53
392.36	1584.54
392.55	1509.65
392.75	1502.62
392.94	1486.24
393.13	1629.01
393.33	1490.92
393.52	1483.90
393.71	1577.52
393.91	1624.33
394.10	1610.29
394.29	1558.80
394.49	1577.52
394.68	1591.56
394.88	1610.29
395.07	1755.40
395.26	1631.35
395.46	1729.66
395.65	1715.61
395.84	1795.19
396.04	1792.85
396.23	1839.66
396.42	1715.61
396.62	1746.04
396.81	1834.98
397.00	1750.72
397.19	1839.66
397.39	1837.32
397.58	1799.87
397.77	1919.24
397.97	1877.11
398.16	1851.36
398.35	1952.01
398.55	1849.02
398.74	1874.77
398.93	1872.43
399.12	1795.19
399.32	1961.37
399.51	1914.56
399.70	1994.14
399.90	1928.60
400.09	1989.46
400.28	2052.65
400.47	2057.33
400.67	2043.29
400.86	2050.31
401.05	2134.57
401.24	2118.18
401.44	2104.14
401.63	2165.00
401.82	2008.18
402.01	2019.88
402.21	2167.34
402.40	2195.42
402.59	2228.19
402.78	2172.02
402.97	2251.60
403.17	2207.13
403.36	2204.78
403.55	2298.41
403.74	2476.29
403.93	2335.85
404.13	2347.56
404.32	2331.17
404.51	2443.52
404.70	2408.41
404.89	2471.61
405.09	2502.03
405.28	2464.58
405.47	2450.54
405.66	2532.46
405.85	2607.36
406.05	2560.55
406.24	2462.24
406.43	2663.53
406.62	2675.23
406.81	2651.83
407.00	2712.68
407.20	2647.15
407.39	2607.36
407.58	2677.57
407.77	2731.41
407.96	2693.96
408.15	2839.07
408.34	2853.11
408.54	2808.64
408.73	2846.09
408.92	2832.05
409.11	2963.12
409.30	2841.41
409.49	2928.01
409.68	2995.89
409.87	2960.78
410.07	3035.67
410.26	3009.93
410.45	3164.40
410.64	3084.83
410.83	3131.64
411.02	3194.83
411.21	3166.74
411.40	3157.38
411.59	3155.04
411.78	3213.56
411.98	3262.71
412.17	3260.37
412.36	3272.07
412.55	3424.20
412.74	3428.88
412.93	3372.71
413.12	3363.35
413.31	3658.26
413.50	3482.72
413.69	3527.19
413.88	3712.09
414.07	3588.04
414.26	3574.00
414.45	3756.56
414.64	3709.75
414.83	3702.73
415.02	3730.81
415.22	3922.74
415.41	3943.80
415.60	3875.93
415.79	3953.16
415.98	4044.45
416.17	4131.05
416.36	3927.42
416.55	4044.45
416.74	4112.32
416.93	4011.68
417.12	4201.26
417.31	4250.41
417.50	4198.92
417.69	4255.09
417.88	4341.69
418.07	4280.84
418.26	4339.35
418.45	4308.93
418.64	4465.74
418.83	4400.21
419.02	4475.10
419.21	4496.17
419.39	4496.17
419.58	4475.10
419.77	4533.62
419.96	4587.45
420.15	4741.93
420.34	4578.09
420.53	4650.64
420.72	4770.01
420.91	4779.37
421.10	4891.72
421.29	4971.30
421.48	4627.24
421.67	4821.50
421.86	4758.31
422.05	4800.44
422.24	4816.82
422.43	4952.57
422.61	4894.06
422.80	4971.30
422.99	4851.93
423.18	4973.64
423.37	4917.47
423.56	4968.96
423.75	5008.75
423.94	5008.75
424.13	4610.86
424.32	4847.25
424.50	5167.90
424.69	5165.56
424.88	4997.04
425.07	5018.11
425.26	4830.87
425.45	4987.68
425.64	4873.00
425.83	5001.72
426.01	5167.90
426.20	5104.71
426.39	5048.54
426.58	4997.04
426.77	5132.79
426.96	5195.99
427.15	5118.75
427.33	5289.61
427.52	5259.18
427.71	5411.32
427.90	5345.78
428.09	5451.11
428.28	5416.00
428.46	5483.88
428.65	5385.57
428.84	5575.16
429.03	5568.13
429.22	5341.10
429.40	5530.69
429.59	5584.52
429.78	5303.65
429.97	5305.99
430.16	5509.62
430.34	5621.97
430.53	5860.70
430.72	5764.74
430.91	5612.60
431.10	5689.84
431.28	5989.43
431.47	5921.56
431.66	5900.49
431.85	5884.11
432.03	5930.92
432.22	6150.93
432.41	6059.65
432.60	5949.64
432.79	6024.54
432.97	6066.67
433.16	6087.73
433.35	5947.30
433.54	6265.61
433.72	5994.11
433.91	6274.98
434.10	6146.25
434.28	6071.35
434.47	6249.23
434.66	6532.44
434.85	6209.44
435.03	6403.71
435.22	6319.45
435.41	6377.96
435.59	6635.42
435.78	6459.88
435.97	6726.70
436.16	6509.03
436.34	6562.86
436.53	6541.80
436.72	6853.09
436.90	6686.91
437.09	6780.53
437.28	6579.25
437.46	6544.14
437.65	6750.10
437.84	6951.39
438.02	6846.07
438.21	6832.02
438.40	6888.20
438.58	7178.42
438.77	7124.59
438.96	7033.31
439.14	7066.08
439.33	7103.53
439.52	7176.08
439.70	7487.37
439.89	7485.03
440.08	7459.29
440.26	7531.84
440.45	7480.35
440.63	7426.52
440.82	7660.57
441.01	7492.05
441.19	7655.89
441.38	7948.46
441.57	7801.01
441.75	7754.19
441.94	7988.25
442.12	7829.09
442.31	8072.51
442.50	8063.15
442.68	8077.19
442.87	8262.09
443.05	8198.90
443.24	8180.17
443.43	8156.77
443.61	8327.63
443.80	8491.46
443.98	8142.72
444.17	8013.99
444.35	8423.59
444.54	8425.93
444.73	8510.19
444.91	8432.95
445.10	8435.29
445.28	8294.86
445.47	8367.42
445.65	8444.65
445.84	8681.05
446.02	8526.57
446.21	8849.57
446.39	8423.59
446.58	8589.77
446.77	8662.32
446.95	8353.37
447.14	8664.66
447.32	8521.89
447.51	8765.31
447.69	8561.68
447.88	8491.46
448.06	8634.24
448.25	8498.49
448.43	8638.92
448.62	8594.45
448.80	8336.99
448.99	8582.74
449.17	8697.43
449.36	8835.52
449.54	9046.17
449.73	8987.66
449.91	8973.61
450.10	9006.38
450.28	9083.62
450.46	9210.01
450.65	9226.39
450.83	9128.09
451.02	9083.62
451.20	9315.33
451.39	9291.93
451.57	9135.11
451.76	9224.05
451.94	9355.12
452.13	9486.19
452.31	9408.95
452.49	9256.82
452.68	9427.68
452.86	9479.17
453.05	9488.53
453.23	9586.83
453.42	9544.70
453.60	9350.44
453.78	9755.35
453.97	9364.48
454.15	9514.28
454.34	9612.58
454.52	9685.14
454.70	9626.62
454.89	9799.82
455.07	9863.02
455.26	10174.31
455.44	9905.15
455.62	10122.82
455.81	9937.91
455.99	9989.41
456.17	10125.16
456.36	10216.44
456.54	9987.07
456.73	10382.62
456.91	10607.31
457.09	10441.13
457.28	10757.10
457.46	10466.88
457.64	10544.11
457.83	10583.90
458.01	10480.92
458.19	10754.76
458.38	10471.56
458.56	10827.32
458.74	10885.83
458.93	10848.38
459.11	10780.51
459.29	10864.77
459.48	10710.29
459.66	10649.44
459.84	11115.20
460.03	11337.56
460.21	11199.46
460.39	11180.74
460.57	11056.69
460.76	11300.11
460.94	11360.96
461.12	11318.83
461.31	11257.98
461.49	11314.15
461.67	11162.01
461.85	11597.35
462.04	11627.78
462.22	11641.82
462.40	11705.02
462.59	11599.70
462.77	11646.51
462.95	11655.87
463.13	11674.59
463.32	11850.13
463.50	11824.39
463.68	11934.39
463.86	11887.58
464.05	11850.13
464.23	11737.79
464.41	12067.80
464.59	11723.74
464.78	12292.49
464.96	12416.54
465.14	11817.36
465.32	12149.72
465.50	12203.55
465.69	12297.17
465.87	12322.92
466.05	12465.69
466.23	12203.55
466.41	12353.35
466.60	12573.36
466.78	12332.28
466.96	12278.45
467.14	12421.22
467.32	12531.23
467.51	12641.23
467.69	12451.65
467.87	12545.27
468.05	12762.94
468.23	12421.22
468.41	12599.10
468.60	12620.17
468.78	12987.63
468.96	12655.28
469.14	12877.63
469.32	13181.90
469.50	12564.00
469.69	13053.17
469.87	13476.80
470.05	13357.44
470.23	13418.29
470.41	13282.54
470.59	13362.12
470.77	13322.33
470.95	13383.18
471.14	13635.96
471.32	13502.55
471.50	13598.51
471.68	13788.10
471.86	13612.56
472.04	14045.55
472.22	14267.91
472.40	13584.47
472.58	14071.30
472.77	14267.91
472.95	14176.62
473.13	14721.97
473.31	14445.79
473.49	14448.13
473.67	14274.93
473.85	14380.25
474.03	14665.80
474.21	14611.96
474.39	14810.91
474.57	14923.26
474.75	14951.34
474.93	15225.18
475.12	15105.82
475.30	15166.67
475.48	15136.24
475.66	15321.15
475.84	15272.00
476.02	15314.13
476.20	15403.07
476.38	15887.56
476.56	15950.75
476.74	15871.17
476.92	16236.30
477.10	15807.98
477.28	16154.38
477.46	16355.66
477.64	16657.59
477.82	16774.62
478.00	17062.51
478.18	17191.23
478.36	16966.54
478.54	17043.78
478.72	17319.96
478.90	17582.10
479.08	17757.64
479.26	18010.42
479.44	17851.27
479.62	18019.78
479.80	18223.41
479.98	18394.27
480.16	18965.36
480.34	18630.66
480.52	19023.87
480.70	18932.59
480.88	18415.34
481.06	18768.76
481.24	19136.22
481.41	19398.36
481.59	19683.91
481.77	19775.19
481.95	19740.08
482.13	20084.14
482.31	20065.41
482.49	20622.46
482.67	20308.83
482.85	20980.56
483.03	20812.04
483.21	20924.39
483.39	21060.14
483.57	21135.04
483.74	21235.68
483.92	21703.79
484.10	21177.17
484.28	21956.57
484.46	22150.83
484.64	22642.34
484.82	22267.86
485.00	22759.37
485.18	22965.34
485.35	23197.05
485.53	23103.43
485.71	23634.73
485.89	23679.20
486.07	23564.51
486.25	23737.71
486.43	23992.83
486.61	24049.00
486.78	24496.05
486.96	24702.01
487.14	24584.99
487.32	25144.38
487.50	25205.23
487.68	25371.41
487.85	25827.81
488.03	25773.98
488.21	25958.88
488.39	26019.74
488.57	26415.29
488.75	26307.62
488.92	26806.16
489.10	27007.44
489.28	27028.51
489.46	27234.47
489.64	27398.31
489.81	28048.98
489.99	27920.25
490.17	27814.93
490.35	28577.94
490.53	28411.76
490.70	28809.65
490.88	28577.94
491.06	29074.13
491.24	28952.43
491.41	29476.71
491.59	29551.60
491.77	29603.10
491.95	30057.16
492.13	29956.52
492.30	30335.68
492.48	30188.23
492.66	30569.74
492.84	30443.35
493.01	31199.34
493.19	30979.33
493.37	31412.33
493.54	31189.98
493.72	31847.67
493.90	32041.93
494.08	32313.44
494.25	32390.67
494.43	32470.25
494.61	33015.60
494.79	32671.54
494.96	33071.77
495.14	33109.22
495.32	33319.87
495.49	33684.99
495.67	33853.51
495.85	33680.31
496.02	34218.63
496.20	34169.48
496.38	34616.52
496.55	34670.36
496.73	35370.18
496.91	34656.31
497.09	35253.15
497.26	35381.88
497.44	35056.54
497.62	35445.07
497.79	36304.05
497.97	35646.36
498.14	36725.35
498.32	36601.30
498.50	36500.65
498.67	37172.39
498.85	36996.85
499.03	37181.75
499.20	36804.92
499.38	37649.86
499.56	37308.14
499.73	37645.18
499.91	38106.26
500.08	37509.43
500.26	37668.58
500.44	38022.00
500.61	38501.81
500.79	38157.75
500.97	38113.28
501.14	39318.66
501.32	38363.72
501.49	38986.30
501.67	39103.33
501.84	39496.54
502.02	39283.55
502.20	39501.22
502.37	39447.39
502.55	39559.73
502.72	39910.82
502.90	39763.36
503.07	39931.88
503.25	40311.05
503.43	40500.63
503.60	40479.57
503.78	40886.82
503.95	40638.72
504.13	41153.64
504.30	41158.32
504.48	41242.58
504.65	40832.99
504.83	41205.13
505.01	41558.55
505.18	41429.82
505.36	42124.96
505.53	41572.60
505.71	42047.72
505.88	42342.63
506.06	41954.10
506.23	42335.61
506.41	42319.23
506.58	42330.93
506.76	42546.26
506.93	43138.41
507.11	42522.85
507.28	43014.37
507.46	42667.97
507.63	43412.26
507.81	43241.40
507.98	43325.66
508.16	43274.16
508.33	44018.46
508.50	43945.90
508.68	44182.29
508.85	44425.71
509.03	44538.05
509.20	44273.57
509.38	44851.69
509.55	44751.04
509.73	44774.45
509.90	44772.11
510.08	44563.80
510.25	45188.72
510.42	45001.48
510.60	45642.79
510.77	45514.06
510.95	45918.97
511.12	45265.96
511.30	45553.85
511.47	46047.70
511.64	46342.61
511.82	46258.35
511.99	46265.37
512.17	46241.96
512.34	46513.47
512.51	46759.22
512.69	46291.12
512.86	46983.91
513.04	47206.26
513.21	46768.58
513.38	47309.25
513.56	47459.04
513.73	47030.72
513.90	47562.03
514.08	47096.26
514.25	47622.88
514.43	47800.76
514.60	48020.77
514.77	48006.73
514.95	48186.95
515.12	48109.71
515.29	47927.15
515.47	48547.39
515.64	48523.99
515.81	48360.15
515.99	48535.69
516.16	48917.20
516.33	48779.10
516.51	49081.03
516.68	48755.70
516.85	48430.36
517.03	49244.87
517.20	49462.54
517.37	49188.70
517.54	49443.82
517.72	49228.49
517.89	49354.88
518.06	49675.53
518.24	49972.78
518.41	49820.64
518.58	49750.43
518.75	49656.81
518.93	49855.75
519.10	49621.70
519.27	50171.72
519.45	50131.93
519.62	50300.45
519.79	50220.87
519.96	50038.31
520.14	50312.16
520.31	50497.06
520.48	50396.42
520.65	50567.27
520.83	50838.78
521.00	50976.87
521.17	50965.17
521.34	51304.54
521.52	51463.70
521.69	51201.56
521.86	51089.21
522.03	51550.30
522.20	51847.55
522.38	51903.72
522.55	51826.48
522.72	51356.03
522.89	51814.78
523.07	52189.27
523.24	51987.98
523.41	51917.76
523.58	51824.14
523.75	52320.34
523.92	52025.43
524.10	52552.05
524.27	52177.56
524.44	52458.43
524.61	52329.70
524.78	52589.50
524.96	52732.27
525.13	52626.95
525.30	52912.49
525.47	52846.96
525.64	52633.97
525.81	53003.77
525.98	52896.11
526.16	52999.09
526.33	52893.77
526.50	53495.28
526.67	53078.67
526.84	53331.45
527.01	53022.50
527.18	53371.24
527.36	53361.87
527.53	53553.80
527.70	53514.01
527.87	53954.03
528.04	53375.92
528.21	53867.43
528.38	53464.86
528.55	53862.75
528.72	53659.12
528.89	53855.73
529.07	53663.80
529.24	53588.91
529.41	54227.87
529.58	53954.03
529.75	54007.86
529.92	54225.53
530.09	54363.62
530.26	54344.90
530.43	54138.93
530.60	54174.04
530.77	54246.60
530.94	54382.35
531.11	54475.97
531.28	54660.87
531.46	54621.08
531.63	54836.41
531.80	54600.02
531.97	54703.00
532.14	54955.78
532.31	54859.82
532.48	55021.31
532.65	54948.76
532.82	54426.82
532.99	54894.92
533.16	55084.51
533.33	55323.24
533.50	55529.21
533.67	55168.77
533.84	54923.01
534.01	55138.34
534.18	55384.10
534.35	55529.21
534.52	55487.08
534.69	55512.83
534.86	55470.70
535.03	55168.77
535.20	55405.16
535.37	55526.87
535.54	55400.48
535.71	55475.38
535.88	55529.21
536.05	55550.27
536.22	56002.00
536.38	55983.27
536.55	55901.36
536.72	55866.25
536.89	55863.91
537.06	55913.06
537.23	56123.71
537.40	55819.44
537.57	56119.02
537.74	56210.31
537.91	56273.50
538.08	55985.61
538.25	55859.23
538.42	56137.75
538.59	56315.63
538.75	56367.12
538.92	56271.16
539.09	56350.74
539.26	56266.48
539.43	56516.92
539.60	56509.89
539.77	56292.22
539.94	56788.42
540.11	56671.39
540.28	56790.76
540.44	56732.25
540.61	56741.61
540.78	56875.02
540.95	56896.08
541.12	56743.95
541.29	56725.22
541.46	56683.09
541.62	56987.36
541.79	56797.78
541.96	56662.03
542.13	56790.76
542.30	56844.59
542.47	56844.59
542.63	57036.51
542.80	57411.00
542.97	57329.08
543.14	57684.84
543.31	57352.49
543.48	57382.91
543.64	57815.91
543.81	57546.75
543.98	57425.04
544.15	57453.13
544.32	57778.46
544.48	57855.70
544.65	57528.03
544.82	57811.23
544.99	57460.15
545.16	57766.76
545.32	57607.61
545.49	57834.64
545.66	57935.28
545.83	57949.32
546.00	57918.90
546.16	57930.60
546.33	57867.40
546.50	57869.75
546.67	58185.72
546.83	57656.76
547.00	58101.46
547.17	58113.16
547.34	58157.63
547.50	58349.56
547.67	58178.70
547.84	58183.38
548.00	58433.81
548.17	58518.07
548.34	58204.44
548.51	58436.16
548.67	58525.10
548.84	58234.87
549.01	58361.26
549.18	58408.07
549.34	58660.85
549.51	58553.18
549.68	58576.59
549.84	58672.55
550.01	58489.99
550.18	58478.28
550.34	58710.00
550.51	58597.65
550.68	58569.57
550.84	58576.59
551.01	58810.64
551.18	59047.04
551.34	58733.40
551.51	58817.66
551.68	58824.68
551.84	58892.56
552.01	58906.60
552.18	58946.39
552.34	58887.88
552.51	59105.55
552.68	58557.86
552.84	58859.79
553.01	59288.11
553.18	59009.59
553.34	59166.40
553.51	58955.75
553.67	59145.34
553.84	59030.65
554.01	59084.48
554.17	59234.28
554.34	59201.51
554.51	59339.60
554.67	59334.92
554.84	59194.49
555.00	59316.20
555.17	59257.68
555.33	59079.80
555.50	59140.66
555.67	59201.51
555.83	59227.26
556.00	59386.41
556.16	59650.89
556.33	59430.88
556.50	59533.87
556.66	59566.63
556.83	59299.81
556.99	59671.96
557.16	59777.28
557.32	59838.14
557.49	59971.55
557.65	59496.42
557.82	59793.67
557.98	59489.40
558.15	59739.83
558.32	59845.16
558.48	59634.51
558.65	59774.94
558.81	59824.09
558.98	59671.96
559.14	59880.27
559.31	59948.14
559.47	59805.37
559.64	59941.12
559.80	59777.28
559.97	59931.76
560.13	59870.90
560.30	59913.03
560.46	59973.89
560.63	60086.23
560.79	59934.10
560.96	60196.24
561.12	60133.04
561.29	59908.35
561.45	60252.41
561.61	60207.94
561.78	59999.63
561.94	60236.03
562.11	60245.39
562.27	60011.34
562.44	60224.32
562.60	60285.18
562.77	60381.14
562.93	60037.08
563.10	60296.88
563.26	60247.73
563.42	60479.44
563.59	60250.07
563.75	60163.47
563.92	60247.73
564.08	60224.32
564.24	60458.38
564.41	60346.03
564.57	60154.11
564.74	60392.84
564.90	60397.52
565.07	60341.35
565.23	60362.42
565.39	60547.32
565.56	60416.25
565.72	60409.23
565.88	60362.42
566.05	60427.95
566.21	60519.23
566.38	60544.98
566.54	60530.93
566.70	60449.02
566.87	60757.97
567.03	60453.70
567.19	60741.58
567.36	60434.97
567.52	60362.42
567.68	60783.71
567.85	60500.51
568.01	60573.06
568.17	60568.38
568.34	60591.79
568.50	60666.69
568.66	60568.38
568.83	60786.05
568.99	60701.79
569.15	60697.11
569.32	60764.99
569.48	60720.52
569.64	60807.12
569.81	60659.66
569.97	60598.81
570.13	60537.96
570.30	60378.80
570.46	60676.05
570.62	60837.54
570.78	60739.24
570.95	60896.06
571.11	60926.49
571.27	60650.30
571.43	60750.94
571.60	60882.02
571.76	60863.29
571.92	60720.52
572.09	61024.79
572.25	60750.94
572.41	60863.29
572.57	60870.31
572.74	61167.56
572.90	60788.39
573.06	60999.04
573.22	60877.33
573.38	60807.12
573.55	60898.40
573.71	61043.51
573.87	60851.59
574.03	60802.44
574.20	60933.51
574.36	60832.86
574.52	60872.65
574.68	61034.15
574.84	60910.10
575.01	60872.65
575.17	60996.70
575.33	60860.95
575.49	60903.08
575.65	60949.89
575.82	61207.35
575.98	60926.49
576.14	61200.33
576.30	61102.03
576.46	60945.21
576.62	61043.51
576.79	60907.76
576.95	60762.65
577.11	61127.77
577.27	61095.00
577.43	61080.96
577.59	60917.12
577.75	60954.57
577.92	60982.66
578.08	61017.77
578.24	60959.25
578.40	61064.58
578.56	61293.95
578.72	61038.83
578.88	61141.81
579.04	61413.32
579.21	61090.32
579.37	61219.05
579.53	61293.95
579.69	60947.55
579.85	61080.96
580.01	61076.28
580.17	60975.64
580.33	61289.27
580.49	61338.42
580.65	61268.20
580.82	61083.30
580.98	61078.62
581.14	61027.13
581.30	61270.54
581.46	60994.36
581.62	61148.84
581.78	61080.96
581.94	61146.50
582.10	61158.20
582.26	61179.26
582.42	61216.71
582.58	61092.66
582.74	61272.88
582.90	61052.87
583.06	61127.77
583.22	61226.07
583.38	61216.71
583.54	61233.10
583.70	61272.88
583.86	60959.25
584.02	61118.41
584.18	61249.48
584.34	61331.40
584.50	61254.16
584.66	61062.24
584.82	60928.83
584.98	61336.08
585.14	61125.43
585.30	61010.74
585.46	61453.11
585.62	61256.50
585.78	61418.00
585.94	61261.18
586.10	61249.48
586.26	61202.67
586.42	61441.40
586.58	61389.91
586.74	61230.75
586.90	61293.95
587.06	61169.90
587.22	61380.55
587.38	61345.44
587.54	61432.04
587.70	61579.49
587.86	61209.69
588.02	61179.26
588.18	61492.89
588.34	61151.18
588.49	61235.44
