SpectraSuite Data File
++++++++++++++++++++++++++++++++++++
Date: Fri Oct 25 11:26:04 EDT 2013
User: price-jones
Dark Spectrum Present: No
Reference Spectrum Present: No
Number of Sampled Component Spectra: 1
Spectrometers: USB2+H05261
Integration Time (usec): 100000 (USB2+H05261)
Spectra Averaged: 1 (USB2+H05261)
Boxcar Smoothing: 0 (USB2+H05261)
Correct for Electrical Dark: No (USB2+H05261)
Strobe/Lamp Enabled: No (USB2+H05261)
Correct for Detector Non-linearity: No (USB2+H05261)
Correct for Stray Light: No (USB2+H05261)
Number of Pixels in Processed Spectrum: 2048
>>>>>Begin Processed Spectral Data<<<<<
365.73	212.99
365.92	212.99
366.12	212.99
366.32	145.11
366.52	203.63
366.72	166.18
366.91	154.48
367.11	121.71
367.31	177.88
367.51	196.60
367.70	91.28
367.90	149.79
368.10	131.07
368.30	191.92
368.49	154.48
368.69	145.11
368.89	133.41
369.09	86.60
369.28	159.16
369.48	210.65
369.68	126.39
369.87	184.90
370.07	187.24
370.27	184.90
370.47	332.36
370.66	587.47
370.86	641.31
371.06	692.80
371.25	755.99
371.45	706.84
371.65	641.31
371.84	695.14
372.04	727.91
372.24	744.29
372.44	720.88
372.63	732.59
372.83	727.91
373.03	732.59
373.22	765.36
373.42	765.36
373.62	774.72
373.81	795.78
374.01	877.70
374.21	833.23
374.40	777.06
374.60	863.66
374.79	748.97
374.99	924.51
375.19	851.96
375.38	847.27
375.58	910.47
375.78	891.74
375.97	812.17
376.17	908.13
376.37	830.89
376.56	917.49
376.76	856.64
376.95	828.55
377.15	856.64
377.35	870.68
377.54	847.27
377.74	945.58
377.93	954.94
378.13	880.04
378.33	915.15
378.52	903.45
378.72	957.28
378.91	915.15
379.11	1020.47
379.31	997.07
379.50	980.68
379.70	983.02
379.89	973.66
380.09	959.62
380.28	964.30
380.48	1013.45
380.68	1008.77
380.87	940.90
381.07	983.02
381.26	1097.71
381.46	983.02
381.65	987.71
381.85	1015.79
382.04	1062.60
382.24	1057.92
382.43	1060.26
382.63	1011.11
382.83	1055.58
383.02	1184.31
383.22	1153.88
383.41	1109.41
383.61	1097.71
383.80	1254.53
384.00	1109.41
384.19	1050.90
384.39	1146.86
384.58	1018.13
384.78	1156.22
384.97	1224.10
385.17	1114.10
385.36	1144.52
385.56	1177.29
385.75	1221.76
385.95	1165.59
386.14	1210.06
386.34	1181.97
386.53	1228.78
386.72	1226.44
386.92	1238.14
387.11	1207.72
387.31	1231.12
387.50	1228.78
387.70	1259.21
387.89	1238.14
388.09	1240.48
388.28	1294.32
388.48	1301.34
388.67	1324.74
388.86	1282.61
389.06	1355.17
389.25	1320.06
389.45	1495.60
389.64	1327.08
389.84	1392.62
390.03	1359.85
390.22	1390.28
390.42	1411.34
390.61	1348.15
390.81	1406.66
391.00	1299.00
391.19	1465.18
391.39	1413.68
391.58	1448.79
391.78	1343.47
391.97	1467.52
392.16	1533.05
392.36	1511.99
392.55	1558.80
392.75	1502.62
392.94	1551.78
393.13	1476.88
393.33	1547.09
393.52	1533.05
393.71	1544.75
393.91	1589.22
394.10	1582.20
394.29	1596.25
394.49	1650.08
394.68	1668.80
394.88	1640.72
395.07	1706.25
395.26	1743.70
395.46	1603.27
395.65	1713.27
395.84	1732.00
396.04	1776.47
396.23	1715.61
396.42	1729.66
396.62	1860.73
396.81	1792.85
397.00	1736.68
397.19	1708.59
397.39	1823.28
397.58	1851.36
397.77	1736.68
397.97	1907.54
398.16	1902.86
398.35	1933.28
398.55	1987.11
398.74	1919.24
398.93	1825.62
399.12	1956.69
399.32	2024.56
399.51	1956.69
399.70	2022.22
399.90	2005.84
400.09	1935.62
400.28	2120.53
400.47	2059.67
400.67	2113.50
400.86	2073.71
401.05	2160.31
401.24	2118.18
401.44	2097.12
401.63	2165.00
401.82	2127.55
402.01	2141.59
402.21	2200.10
402.40	2214.15
402.59	2314.79
402.78	2118.18
402.97	2270.32
403.17	2359.26
403.36	2218.83
403.55	2235.21
403.74	2403.73
403.93	2275.00
404.13	2366.28
404.32	2303.09
404.51	2345.22
404.70	2438.84
404.89	2459.90
405.09	2464.58
405.28	2483.31
405.47	2539.48
405.66	2602.68
405.85	2495.01
406.05	2518.42
406.24	2651.83
406.43	2700.98
406.62	2602.68
406.81	2705.66
407.00	2607.36
407.20	2499.69
407.39	2600.34
407.58	2759.49
407.77	2736.09
407.96	2850.77
408.15	2719.70
408.34	2679.91
408.54	2848.43
408.73	2895.24
408.92	2909.29
409.11	2846.09
409.30	2794.60
409.49	2808.64
409.68	2991.20
409.87	2932.69
410.07	3033.33
410.26	3091.85
410.45	2979.50
410.64	3033.33
410.83	3122.27
411.02	3101.21
411.21	3115.25
411.40	3166.74
411.59	3199.51
411.78	3148.02
411.98	3030.99
412.17	3316.54
412.36	3288.45
412.55	3410.16
412.74	3335.26
412.93	3389.10
413.12	3375.05
413.31	3658.26
413.50	3632.51
413.69	3363.35
413.88	3646.55
414.07	3597.40
414.26	3606.77
414.45	3681.66
414.64	3674.64
414.83	3716.77
415.02	3796.35
415.22	3770.60
415.41	3831.46
415.60	3880.61
415.79	4007.00
415.98	4065.51
416.17	4002.32
416.36	3906.35
416.55	3985.93
416.74	3957.85
416.93	4079.55
417.12	4002.32
417.31	4056.15
417.50	4112.32
417.69	4294.88
417.88	4283.18
418.07	4217.65
418.26	4315.95
418.45	4238.71
418.64	4500.85
418.83	4470.42
419.02	4369.78
419.21	4538.30
419.39	4477.44
419.58	4566.39
419.77	4400.21
419.96	4643.62
420.15	4533.62
420.34	4587.45
420.53	4610.86
420.72	4664.69
420.91	4781.71
421.10	4725.54
421.29	4711.50
421.48	4664.69
421.67	4802.78
421.86	4814.48
422.05	4940.87
422.24	4807.46
422.43	4732.56
422.61	4854.27
422.80	5006.41
422.99	4957.25
423.18	4987.68
423.37	5043.85
423.56	4877.68
423.75	4961.94
423.94	4786.40
424.13	4755.97
424.32	4833.21
424.50	4952.57
424.69	5186.63
424.88	5015.77
425.07	4903.42
425.26	5050.88
425.45	4873.00
425.64	4905.76
425.83	4800.44
426.01	5135.14
426.20	5067.26
426.39	5013.43
426.58	4994.70
426.77	4990.02
426.96	5130.45
427.15	5163.22
427.33	5214.71
427.52	5071.94
427.71	5231.10
427.90	5451.11
428.09	5369.19
428.28	5408.98
428.46	5233.44
428.65	5282.59
428.84	5366.85
429.03	5334.08
429.22	5397.28
429.40	5378.55
429.59	5486.22
429.78	5289.61
429.97	5231.10
430.16	5458.13
430.34	5753.04
430.53	5638.35
430.72	5652.39
430.91	5708.57
431.10	5731.97
431.28	5872.40
431.47	5886.45
431.66	5778.78
431.85	5598.56
432.03	5858.36
432.22	6024.54
432.41	5907.51
432.60	6045.60
432.79	5870.06
432.97	6047.94
433.16	6033.90
433.35	5916.87
433.54	6054.97
433.72	6127.52
433.91	6005.81
434.10	6031.56
434.28	6113.48
434.47	6265.61
434.66	6340.51
434.85	6319.45
435.03	6422.43
435.22	6225.82
435.41	6490.31
435.59	6406.05
435.78	6410.73
435.97	6485.62
436.16	6452.86
436.34	6523.07
436.53	6623.72
436.72	6644.78
436.90	6485.62
437.09	6750.10
437.28	6459.88
437.46	6590.95
437.65	6722.02
437.84	6832.02
438.02	6794.58
438.21	6731.38
438.40	6642.44
438.58	7014.59
438.77	6995.86
438.96	6796.92
439.14	7227.57
439.33	7283.75
439.52	7171.40
439.70	7250.98
439.89	7496.74
440.08	7428.86
440.26	7396.09
440.45	7363.33
440.63	7456.95
440.82	7494.40
441.01	7492.05
441.19	7566.95
441.38	7829.09
441.57	7651.21
441.75	7831.43
441.94	7887.61
442.12	7913.35
442.31	8042.08
442.50	8056.12
442.68	7992.93
442.87	8032.72
443.05	8109.96
443.24	8121.66
443.43	8266.77
443.61	8238.69
443.80	8463.38
443.98	8053.78
444.17	7791.64
444.35	8250.39
444.54	8390.82
444.73	8325.29
444.91	8222.30
445.10	8381.46
445.28	8521.89
445.47	8241.03
445.65	8327.63
445.84	8608.49
446.02	8425.93
446.21	8549.98
446.39	8367.42
446.58	8566.36
446.77	8528.91
446.95	8299.54
447.14	8269.11
447.32	8435.29
447.51	8643.60
447.69	8629.56
447.88	8648.28
448.06	8868.29
448.25	8564.02
448.43	8854.25
448.62	8505.51
448.80	8439.97
448.99	8613.17
449.17	8840.20
449.36	8610.83
449.54	8910.42
449.73	9109.36
449.91	9071.92
450.10	9067.24
450.28	9116.39
450.46	8926.80
450.65	8978.30
450.83	9025.11
451.02	9317.67
451.20	9200.65
451.39	9149.15
451.57	9266.18
451.76	9294.27
451.94	9025.11
452.13	9338.74
452.31	9352.78
452.49	9153.84
452.68	9355.12
452.86	9415.98
453.05	9469.81
453.23	9462.79
453.42	9287.25
453.60	9437.04
453.78	9514.28
453.97	9451.08
454.15	9509.60
454.34	9383.21
454.52	9650.03
454.70	9626.62
454.89	9706.20
455.07	9678.12
455.26	9806.84
455.44	9961.32
455.62	9980.04
455.81	9830.25
455.99	9996.43
456.17	9900.47
456.36	9933.23
456.54	10050.26
456.73	10340.49
456.91	10483.26
457.09	10340.49
457.28	10539.43
457.46	10345.17
457.64	10658.80
457.83	10420.06
458.01	10370.91
458.19	10689.23
458.38	10677.52
458.56	10691.57
458.74	10668.16
458.93	10609.65
459.11	10773.49
459.29	10717.31
459.48	10707.95
459.66	10747.74
459.84	10913.92
460.03	10862.43
460.21	10853.06
460.39	10953.71
460.57	10782.85
460.76	11119.89
460.94	11178.40
461.12	11234.57
461.31	11133.93
461.49	11192.44
461.67	11316.49
461.85	11466.28
462.04	11300.11
462.22	11932.05
462.40	11412.45
462.59	11559.91
462.77	11393.73
462.95	11660.55
463.13	11728.42
463.32	11665.23
463.50	11665.23
463.68	11850.13
463.86	11812.68
464.05	11468.62
464.23	11705.02
464.41	12018.65
464.59	11534.16
464.78	12065.46
464.96	11875.88
465.14	11946.09
465.32	11936.73
465.50	12306.54
465.69	12217.60
465.87	12072.48
466.05	12098.23
466.23	12152.06
466.41	12358.03
466.60	12545.27
466.78	12297.17
466.96	12161.42
467.14	12425.90
467.32	12248.02
467.51	12393.14
467.69	12320.58
467.87	12362.71
468.05	12547.61
468.23	12535.91
468.41	12453.99
468.60	12769.96
468.78	12847.20
468.96	12507.82
469.14	12718.47
469.32	13032.10
469.50	12568.68
469.69	13029.76
469.87	13121.04
470.05	13200.62
470.23	13345.73
470.41	13114.02
470.59	13561.06
470.77	13441.70
470.95	13245.09
471.14	13563.40
471.32	13060.19
471.50	13619.58
471.68	13551.70
471.86	13380.84
472.04	13809.16
472.22	14033.85
472.40	13532.98
472.58	13692.13
472.77	13937.89
472.95	14017.47
473.13	14654.09
473.31	13919.17
473.49	14033.85
473.67	14263.22
473.85	14305.35
474.03	14523.02
474.21	14508.98
474.39	14923.26
474.57	14717.29
474.75	14979.43
474.93	14904.53
475.12	14775.80
475.30	15056.67
475.48	14932.62
475.66	15187.74
475.84	15466.26
476.02	15171.35
476.20	15370.30
476.38	15714.36
476.56	16116.93
476.74	15833.72
476.92	15712.02
477.10	15854.79
477.28	16409.50
477.46	16400.13
477.64	16240.98
477.82	16379.07
478.00	17266.13
478.18	16470.35
478.36	16582.70
478.54	17334.01
478.72	17193.58
478.90	17326.99
479.08	17312.94
479.26	17425.29
479.44	17802.11
479.62	17893.40
479.80	18099.36
479.98	18204.69
480.16	18628.32
480.34	17972.97
480.52	18258.52
480.70	18625.98
480.88	18361.50
481.06	18813.23
481.24	18810.89
481.41	19173.67
481.59	19241.54
481.77	19438.15
481.95	19419.42
482.13	19672.20
482.31	19906.26
482.49	20159.03
482.67	20112.22
482.85	20472.67
483.03	20552.24
483.21	20460.96
483.39	20833.11
483.57	20875.24
483.74	21259.09
483.92	21439.31
484.10	21319.94
484.28	21745.92
484.46	21956.57
484.64	22370.84
484.82	21869.97
485.00	22307.65
485.18	22836.61
485.35	23171.30
485.53	23026.19
485.71	23061.30
485.89	23405.36
486.07	22988.74
486.25	23431.10
486.43	23955.38
486.61	23707.29
486.78	24067.73
486.96	24346.25
487.14	24608.39
487.32	24800.32
487.50	25003.94
487.68	24987.56
487.85	25048.41
488.03	25429.92
488.21	25738.87
488.39	25685.04
488.57	25741.21
488.75	26277.19
488.92	26480.82
489.10	26883.39
489.28	26799.13
489.46	27138.51
489.64	27175.96
489.81	27412.35
489.99	27613.64
490.17	27501.29
490.35	27873.44
490.53	28226.86
490.70	28238.56
490.88	27896.85
491.06	28718.37
491.24	28713.69
491.41	29069.45
491.59	29420.53
491.77	29469.69
491.95	29567.99
492.13	29933.11
492.30	29848.85
492.48	30272.49
492.66	30698.47
492.84	30143.76
493.01	30438.67
493.19	30707.83
493.37	30878.69
493.54	31257.85
493.72	31519.99
493.90	31751.71
494.08	31381.90
494.25	31952.99
494.43	32163.64
494.61	32376.63
494.79	32362.59
494.96	32432.80
495.14	32985.17
495.32	32943.04
495.49	33310.50
495.67	33125.60
495.85	33479.02
496.02	33890.96
496.20	34169.48
496.38	34103.95
496.55	34611.84
496.73	34473.75
496.91	34717.17
497.09	34558.01
497.26	34873.98
497.44	35007.39
497.62	35461.46
497.79	35690.83
497.97	35641.68
498.14	35854.67
498.32	35882.75
498.50	36395.33
498.67	36343.84
498.85	36280.64
499.03	36325.11
499.20	36617.68
499.38	36734.71
499.56	37116.22
499.73	36961.74
499.91	37317.50
500.08	37799.65
500.26	37420.48
500.44	37387.72
500.61	37628.79
500.79	37841.78
500.97	38244.35
501.14	38422.23
501.32	38583.73
501.49	38656.29
501.67	38731.18
501.84	39079.92
502.02	38761.61
502.20	39253.12
502.37	39295.25
502.55	39150.14
502.72	39306.96
502.90	39749.32
503.07	39302.28
503.25	39618.25
503.43	39667.40
503.60	40123.80
503.78	40353.18
503.95	40444.46
504.13	40554.46
504.30	40598.93
504.48	40329.77
504.65	40753.41
504.83	40940.65
505.01	41455.57
505.18	41380.67
505.36	41652.17
505.53	41324.50
505.71	41600.68
505.88	41673.24
506.06	41443.87
506.23	42033.68
506.41	41715.37
506.58	41642.81
506.76	42581.37
506.93	42223.26
507.11	41881.55
507.28	42611.79
507.46	42986.28
507.63	43091.60
507.81	43065.86
507.98	43112.67
508.16	43075.22
508.33	43353.74
508.50	43257.78
508.68	43227.35
508.85	43789.08
509.03	43756.32
509.20	44435.07
509.38	44411.67
509.55	44472.52
509.73	44371.88
509.90	44577.84
510.08	44425.71
510.25	45067.02
510.42	44914.88
510.60	45137.23
510.77	45184.04
510.95	45336.18
511.12	45146.59
511.30	44921.90
511.47	45226.17
511.64	45780.88
511.82	45827.69
511.99	45748.11
512.17	45724.71
512.34	46080.47
512.51	45982.16
512.69	46623.47
512.86	46302.82
513.04	46899.65
513.21	46534.53
513.38	46873.91
513.56	46831.78
513.73	46763.90
513.90	46981.57
514.08	46927.74
514.25	47292.86
514.43	47384.15
514.60	47276.48
514.77	47047.11
514.95	47686.07
515.12	47503.51
515.29	47547.98
515.47	47746.93
515.64	48030.13
515.81	48055.88
515.99	47917.79
516.16	48465.47
516.33	48133.12
516.51	48446.75
516.68	48425.68
516.85	48528.67
517.03	48835.28
517.20	49088.06
517.37	48528.67
517.54	48587.18
517.72	48748.68
517.89	48999.12
518.06	49450.84
518.24	49354.88
518.41	48907.83
518.58	49172.31
518.75	49144.23
518.93	49415.73
519.10	49642.76
519.27	50087.46
519.45	49755.11
519.62	50279.39
519.79	49834.69
519.96	49778.51
520.14	50050.02
520.31	50131.93
520.48	50267.69
520.65	50529.83
520.83	50429.18
521.00	50241.94
521.17	50539.19
521.34	50335.56
521.52	50841.12
521.69	50522.80
521.86	50937.08
522.03	51554.98
522.20	51199.22
522.38	51398.16
522.55	51374.76
522.72	51409.87
522.89	51208.58
523.07	51466.04
523.24	51562.00
523.41	51924.78
523.58	51672.01
523.75	51578.39
523.92	51686.05
524.10	52016.07
524.27	51973.94
524.44	52191.61
524.61	52353.10
524.78	52184.58
524.96	52268.84
525.13	52217.35
525.30	52610.56
525.47	52601.20
525.64	52449.06
525.81	52587.16
525.98	52556.73
526.16	52390.55
526.33	52814.19
526.50	52949.94
526.67	52406.94
526.84	53183.99
527.01	53052.92
527.18	52978.03
527.36	53085.69
527.53	53088.03
527.70	53396.98
527.87	53286.98
528.04	53195.70
528.21	53389.96
528.38	53223.78
528.55	53567.84
528.72	53504.65
528.89	53230.80
529.07	53345.49
529.24	53464.86
529.41	53553.80
529.58	53776.15
529.75	53553.80
529.92	53698.91
530.09	53792.53
530.26	53914.24
530.43	53918.92
530.60	53832.32
530.77	53708.27
530.94	53991.48
531.11	54117.87
531.28	54075.74
531.46	54211.49
531.63	54141.27
531.80	54422.14
531.97	54326.17
532.14	54454.90
532.31	54141.27
532.48	54370.64
532.65	54478.31
532.82	54401.07
532.99	54628.10
533.16	54798.96
533.33	54710.02
533.50	54721.72
533.67	54798.96
533.84	54759.17
534.01	54880.88
534.18	54784.92
534.35	55274.09
534.52	55117.28
534.69	55341.97
534.86	55271.75
535.03	55098.55
535.20	55288.13
535.37	55348.99
535.54	55358.35
535.71	55058.76
535.88	55269.41
536.05	55346.65
536.22	55657.94
536.38	55533.89
536.55	55627.51
536.72	55576.02
536.89	55742.20
537.06	55185.15
537.23	55627.51
537.40	55304.52
537.57	55877.95
537.74	55482.40
537.91	56142.43
538.08	56048.81
538.25	55632.19
538.42	55957.53
538.59	56142.43
538.75	55957.53
538.92	56102.64
539.09	55859.23
539.26	55744.54
539.43	56219.67
539.60	56030.08
539.77	56023.06
539.94	56502.87
540.11	56683.09
540.28	56514.58
540.44	56374.14
540.61	56446.70
540.78	56275.84
540.95	56385.85
541.12	56385.85
541.29	56350.74
541.46	56346.06
541.62	56568.41
541.79	56743.95
541.96	56491.17
542.13	56402.23
542.30	56746.29
542.47	56711.18
542.63	56884.38
542.80	56795.44
542.97	57066.94
543.14	57387.60
543.31	57256.53
543.48	57263.55
543.64	57385.25
543.81	57425.04
543.98	57308.02
544.15	57336.10
544.32	57275.25
544.48	57382.91
544.65	57350.15
544.82	57389.94
544.99	57261.21
545.16	57481.22
545.32	57244.82
545.49	57549.09
545.66	57443.77
545.83	57659.10
546.00	57647.39
546.16	57755.06
546.33	57546.75
546.50	57680.16
546.67	57841.66
546.83	57343.12
547.00	57668.46
547.17	57680.16
547.34	57703.57
547.50	57951.66
547.67	58012.52
547.84	58000.82
548.00	58042.95
548.17	58309.77
548.34	58101.46
548.51	58253.59
548.67	58176.36
548.84	58059.33
549.01	58148.27
549.18	58068.69
549.34	58344.87
549.51	58204.44
549.68	58255.93
549.84	58213.80
550.01	58461.90
550.18	58192.74
550.34	58405.73
550.51	58368.28
550.68	58321.47
550.84	58389.34
551.01	58501.69
551.18	58513.39
551.34	58497.01
551.51	58543.82
551.68	58721.70
551.84	58518.07
552.01	58405.73
552.18	58597.65
552.34	58534.46
552.51	58684.25
552.68	58424.45
552.84	58644.46
553.01	58897.24
553.18	58745.11
553.34	58876.18
553.51	58658.51
553.67	58777.87
553.84	58990.86
554.01	58871.49
554.17	58974.48
554.34	59072.78
554.51	58951.07
554.67	59250.66
554.84	59070.44
555.00	59147.68
555.17	59030.65
555.33	58820.00
555.50	58925.33
555.67	58988.52
555.83	59002.56
556.00	59082.14
556.16	59178.10
556.33	59355.99
556.50	59147.68
556.66	59297.47
556.83	58976.82
556.99	59395.77
557.16	59348.96
557.32	59435.56
557.49	59585.36
557.65	59353.65
557.82	59309.18
557.98	59203.85
558.15	59381.73
558.32	59454.29
558.48	59306.83
558.65	59615.79
558.81	59767.92
558.98	59458.97
559.14	59543.23
559.31	59606.42
559.47	59681.32
559.64	59583.02
559.80	59671.96
559.97	59779.62
560.13	59482.37
560.30	59714.09
560.46	59798.35
560.63	59758.56
560.79	59896.65
560.96	59845.16
561.12	60016.02
561.29	59835.80
561.45	59866.22
561.61	59791.33
561.78	59868.56
561.94	59671.96
562.11	59707.07
562.27	59891.97
562.44	60095.60
562.60	60090.91
562.77	59915.37
562.93	59880.27
563.10	59906.01
563.26	59931.76
563.42	60238.37
563.59	59985.59
563.75	60020.70
563.92	59791.33
564.08	59903.67
564.24	60069.85
564.41	60093.25
564.57	60072.19
564.74	60203.26
564.90	60182.19
565.07	60182.19
565.23	59962.18
565.39	60205.60
565.56	60128.36
565.72	60191.56
565.88	60088.57
566.05	60079.21
566.21	60093.25
566.38	60282.84
566.54	60238.37
566.70	60257.09
566.87	60439.65
567.03	60079.21
567.19	60210.28
567.36	60327.31
567.52	60039.42
567.68	60516.89
567.85	60350.71
568.01	60416.25
568.17	60154.11
568.34	60500.51
568.50	60196.24
568.66	60292.20
568.83	60214.96
568.99	60292.20
569.15	60341.35
569.32	60514.55
569.48	60460.72
569.64	60662.00
569.81	60463.06
569.97	60313.26
570.13	60418.59
570.30	60484.12
570.46	60453.70
570.62	60339.01
570.78	60460.72
570.95	60446.68
571.11	60559.02
571.27	60449.02
571.43	60598.81
571.60	60633.92
571.76	60549.66
571.92	60617.53
572.09	60463.06
572.25	60507.53
572.41	60481.78
572.57	60622.22
572.74	60853.93
572.90	60439.65
573.06	60523.91
573.22	60568.38
573.38	60781.37
573.55	60624.56
573.71	60755.63
573.87	60718.18
574.03	60528.59
574.20	60601.15
574.36	60432.63
574.52	60580.09
574.68	60708.82
574.84	60769.67
575.01	60741.58
575.17	60704.13
575.33	60502.85
575.49	60596.47
575.65	60877.33
575.82	60818.82
575.98	60720.52
576.14	60814.14
576.30	60673.71
576.46	60671.37
576.62	60715.84
576.79	60636.26
576.95	60694.77
577.11	60772.01
577.27	60701.79
577.43	60807.12
577.59	60863.29
577.75	60566.04
577.92	60530.93
578.08	60860.95
578.24	60748.60
578.40	61017.77
578.56	60942.87
578.72	60786.05
578.88	60879.67
579.04	61041.17
579.21	60760.31
579.37	60963.93
579.53	61001.38
579.69	60769.67
579.85	60725.20
580.01	60800.10
580.17	60764.99
580.33	60874.99
580.49	61160.54
580.65	60921.80
580.82	60706.47
580.98	60900.74
581.14	60757.97
581.30	60975.64
581.46	61160.54
581.62	60882.02
581.78	60921.80
581.94	60870.31
582.10	60919.46
582.26	60823.50
582.42	60809.46
582.58	61015.43
582.74	60704.13
582.90	61027.13
583.06	60781.37
583.22	60722.86
583.38	61022.45
583.54	60830.52
583.70	61116.07
583.86	60844.57
584.02	60907.76
584.18	60992.02
584.34	61059.90
584.50	61099.68
584.66	60945.21
584.82	60818.82
584.98	61104.37
585.14	60896.06
585.30	61071.60
585.46	61134.79
585.62	60725.20
585.78	61169.90
585.94	60921.80
586.10	61066.92
586.26	61090.32
586.42	61013.08
586.58	61258.84
586.74	61099.68
586.90	60966.27
587.06	61069.26
587.22	61209.69
587.38	60882.02
587.54	61214.37
587.70	61190.97
587.86	60793.07
588.02	60886.70
588.18	61207.35
588.34	60949.89
588.49	60903.08
