SpectraSuite Data File
++++++++++++++++++++++++++++++++++++
Date: Fri Oct 25 11:22:35 EDT 2013
User: price-jones
Dark Spectrum Present: No
Reference Spectrum Present: No
Number of Sampled Component Spectra: 1
Spectrometers: USB2+H05261
Integration Time (usec): 100000 (USB2+H05261)
Spectra Averaged: 1 (USB2+H05261)
Boxcar Smoothing: 0 (USB2+H05261)
Correct for Electrical Dark: No (USB2+H05261)
Strobe/Lamp Enabled: No (USB2+H05261)
Correct for Detector Non-linearity: No (USB2+H05261)
Correct for Stray Light: No (USB2+H05261)
Number of Pixels in Processed Spectrum: 2048
>>>>>Begin Processed Spectral Data<<<<<
365.73	201.29
365.92	201.29
366.12	201.29
366.32	152.13
366.52	93.62
366.72	170.86
366.91	46.81
367.11	86.60
367.31	100.64
367.51	98.30
367.70	95.96
367.90	88.94
368.10	119.37
368.30	51.49
368.49	98.30
368.69	138.09
368.89	142.77
369.09	119.37
369.28	194.26
369.48	102.98
369.68	159.16
369.87	194.26
370.07	102.98
370.27	196.60
370.47	252.78
370.66	585.13
370.86	596.84
371.06	645.99
371.25	657.69
371.45	631.94
371.65	676.41
371.84	610.88
372.04	653.01
372.24	713.86
372.44	692.80
372.63	795.78
372.83	681.10
373.03	683.44
373.22	737.27
373.42	723.23
373.62	748.97
373.81	781.74
374.01	858.98
374.21	777.06
374.40	791.10
374.60	800.46
374.79	786.42
374.99	823.87
375.19	866.00
375.38	786.42
375.58	826.21
375.78	833.23
375.97	889.40
376.17	877.70
376.37	896.43
376.56	959.62
376.76	779.40
376.95	800.46
377.15	858.98
377.35	964.30
377.54	908.13
377.74	854.30
377.93	990.05
378.13	915.15
378.33	959.62
378.52	877.70
378.72	1018.13
378.91	905.79
379.11	954.94
379.31	945.58
379.50	877.70
379.70	1032.18
379.89	966.64
380.09	931.53
380.28	1027.50
380.48	933.87
380.68	950.26
380.87	943.24
381.07	1020.47
381.26	1064.94
381.46	1034.52
381.65	992.39
381.85	1060.26
382.04	1076.65
382.24	1118.78
382.43	999.41
382.63	1050.90
382.83	1135.16
383.02	1097.71
383.22	1130.48
383.41	1153.88
383.61	1156.22
383.80	1125.80
384.00	1149.20
384.19	1132.82
384.39	1144.52
384.58	1146.86
384.78	1191.33
384.97	1121.12
385.17	1165.59
385.36	1179.63
385.56	1181.97
385.75	1142.18
385.95	1158.57
386.14	1196.01
386.34	1135.16
386.53	1266.23
386.72	1137.50
386.92	1205.38
387.11	1242.82
387.31	1184.31
387.50	1200.69
387.70	1217.08
387.89	1320.06
388.09	1275.59
388.28	1385.60
388.48	1242.82
388.67	1252.19
388.86	1308.36
389.06	1287.29
389.25	1392.62
389.45	1366.87
389.64	1277.93
389.84	1418.36
390.03	1409.00
390.22	1462.83
390.42	1380.92
390.61	1357.51
390.81	1376.24
391.00	1446.45
391.19	1481.56
391.39	1409.00
391.58	1444.11
391.78	1497.94
391.97	1418.36
392.16	1455.81
392.36	1476.88
392.55	1556.46
392.75	1549.43
392.94	1551.78
393.13	1619.65
393.33	1526.03
393.52	1589.22
393.71	1563.48
393.91	1638.38
394.10	1493.26
394.29	1523.69
394.49	1561.14
394.68	1629.01
394.88	1439.43
395.07	1668.80
395.26	1694.55
395.46	1673.48
395.65	1753.06
395.84	1769.44
396.04	1771.79
396.23	1816.26
396.42	1832.64
396.62	1771.79
396.81	1816.26
397.00	1760.08
397.19	1827.96
397.39	1802.21
397.58	1743.70
397.77	1816.26
397.97	1877.11
398.16	1905.20
398.35	1923.92
398.55	1888.81
398.74	2008.18
398.93	1984.77
399.12	1797.53
399.32	2057.33
399.51	1956.69
399.70	2029.24
399.90	2038.61
400.09	1940.30
400.28	1944.99
400.47	2090.10
400.67	1994.14
400.86	2036.27
401.05	2136.91
401.24	2223.51
401.44	2232.87
401.63	2218.83
401.82	2172.02
402.01	2214.15
402.21	2253.94
402.40	2143.93
402.59	2202.44
402.78	2228.19
402.97	2188.40
403.17	2160.31
403.36	2267.98
403.55	2270.32
403.74	2249.25
403.93	2394.37
404.13	2385.01
404.32	2396.71
404.51	2349.90
404.70	2359.26
404.89	2417.77
405.09	2413.09
405.28	2478.63
405.47	2513.74
405.66	2427.14
405.85	2616.72
406.05	2572.25
406.24	2553.52
406.43	2600.34
406.62	2621.40
406.81	2710.34
407.00	2619.06
407.20	2506.71
407.39	2658.85
407.58	2726.72
407.77	2764.17
407.96	2752.47
408.15	2827.37
408.34	2752.47
408.54	2832.05
408.73	2930.35
408.92	2911.63
409.11	2925.67
409.30	2911.63
409.49	2970.14
409.68	2960.78
409.87	2935.03
410.07	3023.97
410.26	3049.72
410.45	3019.29
410.64	3108.23
410.83	3063.76
411.02	3138.66
411.21	3162.06
411.40	3155.04
411.59	3288.45
411.78	3318.88
411.98	3295.47
412.17	3265.05
412.36	3260.37
412.55	3337.60
412.74	3400.80
412.93	3419.52
413.12	3440.59
413.31	3517.83
413.50	3410.16
413.69	3517.83
413.88	3503.78
414.07	3569.32
414.26	3676.98
414.45	3630.17
414.64	3620.81
414.83	3772.94
415.02	3896.99
415.22	3756.56
415.41	3974.23
415.60	3815.07
415.79	3925.08
415.98	4014.02
416.17	3974.23
416.36	4044.45
416.55	4016.36
416.74	4093.60
416.93	4030.40
417.12	4119.34
417.31	4327.65
417.50	4252.75
417.69	4283.18
417.88	4348.72
418.07	4353.40
418.26	4351.06
418.45	4358.08
418.64	4465.74
418.83	4456.38
419.02	4381.48
419.21	4596.81
419.39	4519.57
419.58	4578.09
419.77	4454.04
419.96	4582.77
420.15	4676.39
420.34	4580.43
420.53	4482.13
420.72	4739.58
420.91	4837.89
421.10	4732.56
421.29	4770.01
421.48	4716.18
421.67	4774.69
421.86	4842.57
422.05	4713.84
422.24	4908.10
422.43	4968.96
422.61	4786.40
422.80	4940.87
422.99	4978.32
423.18	5022.79
423.37	5064.92
423.56	4922.15
423.75	4940.87
423.94	4973.64
424.13	4561.70
424.32	4695.11
424.50	5100.03
424.69	5217.05
424.88	5188.97
425.07	4992.36
425.26	5006.41
425.45	4940.87
425.64	4994.70
425.83	5046.20
426.01	5179.61
426.20	5130.45
426.39	5095.35
426.58	5064.92
426.77	5116.41
426.96	5273.23
427.15	5287.27
427.33	5280.25
427.52	5181.95
427.71	5160.88
427.90	5284.93
428.09	5320.04
428.28	5394.93
428.46	5394.93
428.65	5203.01
428.84	5423.02
429.03	5675.80
429.22	5296.63
429.40	5455.79
429.59	5572.82
429.78	5380.89
429.97	5394.93
430.16	5460.47
430.34	5565.79
430.53	5706.23
430.72	5727.29
430.91	5741.33
431.10	5687.50
431.28	5736.65
431.47	5804.53
431.66	5839.64
431.85	5823.25
432.03	5767.08
432.22	5949.64
432.41	5886.45
432.60	5902.83
432.79	5975.39
432.97	6017.52
433.16	6036.24
433.35	6064.33
433.54	6076.03
433.72	6064.33
433.91	6017.52
434.10	6157.95
434.28	6251.57
434.47	6127.52
434.66	6202.42
434.85	6216.46
435.03	6520.73
435.22	6331.15
435.41	6560.52
435.59	6518.39
435.78	6597.97
435.97	6464.56
436.16	6377.96
436.34	6408.39
436.53	6574.56
436.72	6867.13
436.90	6679.89
437.09	6778.19
437.28	6733.72
437.46	6745.42
437.65	6644.78
437.84	6874.15
438.02	6726.70
438.21	6759.47
438.40	6853.09
438.58	7295.45
438.77	7073.10
438.96	6942.03
439.14	7112.89
439.33	7063.74
439.52	7307.15
439.70	7192.47
439.89	7466.31
440.08	7527.16
440.26	7433.54
440.45	7445.24
440.63	7559.93
440.82	7686.32
441.01	7674.62
441.19	7735.47
441.38	7836.11
441.57	7742.49
441.75	7861.86
441.94	7999.95
442.12	8021.02
442.31	8112.30
442.50	8208.26
442.68	7990.59
442.87	8278.47
443.05	8175.49
443.24	8241.03
443.43	8124.00
443.61	8264.43
443.80	8674.03
443.98	8149.75
444.17	8046.76
444.35	8393.16
444.54	8648.28
444.73	8308.90
444.91	8262.09
445.10	8329.97
445.28	8411.89
445.47	8168.47
445.65	8266.77
445.84	8388.48
446.02	8402.52
446.21	8299.54
446.39	8535.93
446.58	8709.13
446.77	8430.61
446.95	8290.18
447.14	8589.77
447.32	8573.38
447.51	8456.36
447.69	8493.80
447.88	8631.90
448.06	8517.21
448.25	8674.03
448.43	8688.07
448.62	8807.44
448.80	8734.88
448.99	8868.29
449.17	8688.07
449.36	8861.27
449.54	8758.28
449.73	8975.95
449.91	9172.56
450.10	8840.20
450.28	9069.58
450.46	9437.04
450.65	9048.51
450.83	9085.96
451.02	8957.23
451.20	9228.73
451.39	9242.78
451.57	9221.71
451.76	9249.80
451.94	9259.16
452.13	9420.66
452.31	9167.88
452.49	9348.10
452.68	9427.68
452.86	9312.99
453.05	9717.90
453.23	9706.20
453.42	9406.61
453.60	9523.64
453.78	9708.54
453.97	9366.82
454.15	9437.04
454.34	9666.41
454.52	9638.33
454.70	9830.25
454.89	9912.17
455.07	9804.50
455.26	9727.27
455.44	9984.73
455.62	9809.19
455.81	9792.80
455.99	10146.22
456.17	10162.61
456.36	10216.44
456.54	10167.29
456.73	10281.97
456.91	10239.84
457.09	10457.51
457.28	10593.26
457.46	10267.93
457.64	10689.23
457.83	10731.36
458.01	10319.42
458.19	10630.71
458.38	10649.44
458.56	10832.00
458.74	10846.04
458.93	10958.39
459.11	10775.83
459.29	10658.80
459.48	10956.05
459.66	10869.45
459.84	11325.85
460.03	11028.60
460.21	11225.21
460.39	11103.50
460.57	11206.48
460.76	11250.96
460.94	11314.15
461.12	11253.30
461.31	11276.70
461.49	11386.71
461.67	11330.53
461.85	11688.64
462.04	11456.92
462.22	12315.90
462.40	11761.19
462.59	11599.70
462.77	11555.22
462.95	11822.05
463.13	11604.38
463.32	11826.73
463.50	11693.32
463.68	11686.29
463.86	11985.88
464.05	11857.15
464.23	11864.18
464.41	11822.05
464.59	11829.07
464.78	12196.53
464.96	12011.63
465.14	11957.80
465.32	12042.06
465.50	12175.47
465.69	12472.71
465.87	12226.96
466.05	12058.44
466.23	12175.47
466.41	12283.13
466.60	12369.73
466.78	12507.82
466.96	12138.02
467.14	12493.78
467.32	12442.29
467.51	12844.86
467.69	12147.38
467.87	12519.53
468.05	12470.37
468.23	12255.04
468.41	12535.91
468.60	12662.30
468.78	12844.86
468.96	12531.23
469.14	12973.59
469.32	13193.60
469.50	12882.31
469.69	13025.08
469.87	13390.20
470.05	13221.69
470.23	13331.69
470.41	13418.29
470.59	13474.46
470.77	13277.86
470.95	13305.95
471.14	13870.01
471.32	13287.22
471.50	13839.59
471.68	13837.25
471.86	13516.59
472.04	13834.91
472.22	14391.95
472.40	13942.57
472.58	13970.66
472.77	14148.54
472.95	14256.20
473.13	14745.38
473.31	13968.32
473.49	14274.93
473.67	14258.54
473.85	14324.08
474.03	14700.90
474.21	14780.48
474.39	14998.15
474.57	15101.14
474.75	15183.06
474.93	15089.43
475.12	15211.14
475.30	14967.73
475.48	15147.95
475.66	15438.17
475.84	15384.34
476.02	15508.39
476.20	15648.82
476.38	15637.12
476.56	16208.21
476.74	15894.58
476.92	15906.28
477.10	15922.66
477.28	16318.22
477.46	16301.83
477.64	16372.05
477.82	16648.23
478.00	17413.59
478.18	16884.62
478.36	17139.74
478.54	17394.86
478.72	17261.45
478.90	17532.95
479.08	17535.29
479.26	17628.92
479.44	17741.26
479.62	17902.76
479.80	18216.39
479.98	18359.16
480.16	18412.99
480.34	18366.18
480.52	18801.52
480.70	18700.88
480.88	18822.59
481.06	19035.58
481.24	19211.12
481.41	19054.30
481.59	19557.52
481.77	19637.09
481.95	19810.29
482.13	19665.18
482.31	20013.92
482.49	20290.10
482.67	20439.90
482.85	20585.01
483.03	20493.73
483.21	20713.74
483.39	21060.14
483.57	20931.41
483.74	21329.30
483.92	21624.21
484.10	21247.38
484.28	22059.55
484.46	22534.68
484.64	22480.85
484.82	21898.05
485.00	22223.39
485.18	22761.71
485.35	23166.62
485.53	22977.04
485.71	23115.13
485.89	23990.49
486.07	23346.84
486.25	23328.12
486.43	23880.49
486.61	23875.80
486.78	24184.76
486.96	24233.91
487.14	24360.30
487.32	24704.35
487.50	24957.13
487.68	25289.49
487.85	25383.11
488.03	26043.14
488.21	26143.78
488.39	26279.54
488.57	26134.42
488.75	26501.89
488.92	26623.59
489.10	26815.52
489.28	27089.36
489.46	27421.72
489.64	27438.10
489.81	27896.85
489.99	27835.99
490.17	28046.64
490.35	28594.32
490.53	28577.94
490.70	28807.31
490.88	28463.25
491.06	29010.94
491.24	28924.34
491.41	29462.66
491.59	29537.56
491.77	29160.73
491.95	29937.79
492.13	30019.71
492.30	30216.32
492.48	30298.23
492.66	30490.16
492.84	30670.38
493.01	30878.69
493.19	31049.55
493.37	30986.35
493.54	31409.99
493.72	31505.95
493.90	31742.35
494.08	32198.75
494.25	32013.85
494.43	32070.02
494.61	32568.55
494.79	32837.72
494.96	32503.02
495.14	32900.91
495.32	33577.33
495.49	33574.98
495.67	33769.25
495.85	33706.05
496.02	34036.07
496.20	34333.32
496.38	34396.51
496.55	34146.08
496.73	35138.46
496.91	35033.14
497.09	35227.40
497.26	35309.32
497.44	34923.13
497.62	35491.88
497.79	36177.66
497.97	35608.91
498.14	36374.27
498.32	36891.52
498.50	36458.52
498.67	37022.59
498.85	36624.70
499.03	37029.62
499.20	37230.90
499.38	36968.76
499.56	37181.75
499.73	37446.23
499.91	37668.58
500.08	37921.36
500.26	38050.09
500.44	37731.78
500.61	38340.32
500.79	38337.98
500.97	38345.00
501.14	39056.52
501.32	39023.75
501.49	39007.37
501.67	39566.76
501.84	39159.50
502.02	39281.21
502.20	39386.54
502.37	39784.43
502.55	39175.89
502.72	40091.04
502.90	39908.47
503.07	39821.87
503.25	40559.14
503.43	40264.24
503.60	40285.30
503.78	40725.32
503.95	40271.26
504.13	40549.78
504.30	41053.00
504.48	40968.74
504.65	41397.06
504.83	41581.96
505.01	41902.61
505.18	41273.01
505.36	42335.61
505.53	41729.41
505.71	41729.41
505.88	42241.99
506.06	41907.29
506.23	42033.68
506.41	42277.10
506.58	42267.73
506.76	42852.87
506.93	42557.96
507.11	42726.48
507.28	42829.46
507.46	43143.09
507.63	43468.43
507.81	43391.19
507.98	43225.01
508.16	43653.33
508.33	43650.99
508.50	43950.58
508.68	43838.23
508.85	44320.38
509.03	44140.16
509.20	44547.42
509.38	44676.15
509.55	45015.52
509.73	45078.72
509.90	45013.18
510.08	45155.96
510.25	44741.68
510.42	44739.34
510.60	45406.39
510.77	45507.04
510.95	45624.06
511.12	45179.36
511.30	45867.48
511.47	45902.59
511.64	46007.91
511.82	46351.97
511.99	45598.32
512.17	46220.90
512.34	45940.04
512.51	46679.64
512.69	46703.05
512.86	46611.77
513.04	46873.91
513.21	47178.18
513.38	46780.29
513.56	47517.56
513.73	46864.55
513.90	47353.72
514.08	47402.87
514.25	47564.37
514.43	47625.22
514.60	48062.90
514.77	47739.91
514.95	48182.27
515.12	48165.88
515.29	48004.39
515.47	48559.09
515.64	48624.63
515.81	48133.12
515.99	48879.75
516.16	48666.76
516.33	49144.23
516.51	49254.23
516.68	48631.65
516.85	48760.38
517.03	49249.55
517.20	49422.75
517.37	49261.26
517.54	49212.10
517.72	49279.98
517.89	49535.10
518.06	49588.93
518.24	49265.94
518.41	49516.37
518.58	49958.73
518.75	49684.89
518.93	49881.50
519.10	49602.97
519.27	50033.63
519.45	49769.15
519.62	50300.45
519.79	50492.38
519.96	50188.11
520.14	50532.17
520.31	50543.87
520.48	50696.00
520.65	50768.56
520.83	51196.88
521.00	51423.91
521.17	50939.42
521.34	50920.70
521.52	51072.83
521.69	50827.07
521.86	51227.31
522.03	51459.02
522.20	51742.22
522.38	51629.88
522.55	51753.93
522.72	51760.95
522.89	51980.96
523.07	52093.30
523.24	51826.48
523.41	51950.53
523.58	51744.56
523.75	52397.57
523.92	52203.31
524.10	52371.83
524.27	52451.41
524.44	52217.35
524.61	52369.49
524.78	52788.44
524.96	52584.82
525.13	52706.52
525.30	53038.88
525.47	52868.02
525.64	52793.12
525.81	52842.27
525.98	53354.85
526.16	52736.95
526.33	52865.68
526.50	53172.29
526.67	52711.20
526.84	53027.18
527.01	53006.11
527.18	53315.06
527.36	53195.70
527.53	53375.92
527.70	53631.04
527.87	53549.12
528.04	53188.67
528.21	53600.61
528.38	53502.31
528.55	53764.45
528.72	53703.59
528.89	53670.82
529.07	54129.57
529.24	53645.08
529.41	53799.55
529.58	53736.36
529.75	53719.98
529.92	54005.52
530.09	54356.60
530.26	54541.50
530.43	54321.49
530.60	54082.76
530.77	54122.55
530.94	54284.04
531.11	54443.20
531.28	54223.19
531.46	54665.55
531.63	54571.93
531.80	54534.48
531.97	54834.07
532.14	54815.35
532.31	54649.17
532.48	54857.48
532.65	54862.16
532.82	54894.92
532.99	55037.70
533.16	54923.01
533.33	54810.67
533.50	54986.21
533.67	55114.94
533.84	55089.19
534.01	55231.96
534.18	55334.95
534.35	55552.62
534.52	55269.41
534.69	55653.26
534.86	55470.70
535.03	55320.90
535.20	55585.38
535.37	55501.12
535.54	55707.09
535.71	55526.87
535.88	55945.83
536.05	55742.20
536.22	55814.76
536.38	55896.67
536.55	55838.16
536.72	56027.74
536.89	55784.33
537.06	55966.89
537.23	56055.83
537.40	56032.42
537.57	55929.44
537.74	56039.45
537.91	56350.74
538.08	56137.75
538.25	56055.83
538.42	56128.39
538.59	56416.27
538.75	56168.18
538.92	56479.47
539.09	56484.15
539.26	56285.20
539.43	56481.81
539.60	56575.43
539.77	56685.43
539.94	56722.88
540.11	56446.70
540.28	56748.63
540.44	56722.88
540.61	56519.26
540.78	56523.94
540.95	56605.86
541.12	56603.52
541.29	56725.22
541.46	56779.06
541.62	56905.44
541.79	56809.48
541.96	56666.71
542.13	56907.79
542.30	56992.04
542.47	57055.24
542.63	57261.21
542.80	57148.86
542.97	57352.49
543.14	57261.21
543.31	57523.35
543.48	57324.40
543.64	57638.03
543.81	57481.22
543.98	57443.77
544.15	57626.33
544.32	57731.65
544.48	57890.81
544.65	57544.41
544.82	57354.83
544.99	57427.38
545.16	57724.63
545.32	57511.64
545.49	57813.57
545.66	57682.50
545.83	57869.75
546.00	57928.26
546.16	58040.60
546.33	57865.06
546.50	57698.89
546.67	57853.36
546.83	57951.66
547.00	58087.42
547.17	58005.50
547.34	58021.88
547.50	58199.76
547.67	58218.49
547.84	58209.12
548.00	58150.61
548.17	58377.64
548.34	58307.43
548.51	58599.99
548.67	58571.91
548.84	58394.03
549.01	58274.66
549.18	58459.56
549.34	58293.38
549.51	58461.90
549.68	58574.25
549.84	58569.57
550.01	58646.80
550.18	58604.67
550.34	58759.15
550.51	58740.42
550.68	58836.39
550.84	58553.18
551.01	58951.07
551.18	58679.57
551.34	58660.85
551.51	58700.64
551.68	58805.96
551.84	58766.17
552.01	58567.23
552.18	59032.99
552.34	58770.85
552.51	59068.10
552.68	58831.71
552.84	58646.80
553.01	59091.51
553.18	59103.21
553.34	59138.32
553.51	59070.44
553.67	59154.70
553.84	59325.56
554.01	58955.75
554.17	59194.49
554.34	59058.74
554.51	59187.47
554.67	59496.42
554.84	59199.17
555.00	59416.84
555.17	59253.00
555.33	59264.70
555.50	59168.74
555.67	59201.51
555.83	59248.32
556.00	59363.01
556.16	59709.41
556.33	59592.38
556.50	59475.35
556.66	59608.76
556.83	59367.69
556.99	59522.16
557.16	59681.32
557.32	59646.21
557.49	59835.80
557.65	59480.03
557.82	59678.98
557.98	59503.44
558.15	59559.61
558.32	59587.70
558.48	59704.73
558.65	59693.02
558.81	59664.94
558.98	59840.48
559.14	59927.08
559.31	60009.00
559.47	59770.26
559.64	60004.31
559.80	59772.60
559.97	60168.15
560.13	59856.86
560.30	60062.83
560.46	59987.93
560.63	59992.61
560.79	59924.74
560.96	60111.98
561.12	60060.49
561.29	60037.08
561.45	60198.58
561.61	59920.05
561.78	60009.00
561.94	59973.89
562.11	60041.76
562.27	60168.15
562.44	60252.41
562.60	60313.26
562.77	60233.69
562.93	60016.02
563.10	60252.41
563.26	60191.56
563.42	60402.21
563.59	60205.60
563.75	60233.69
563.92	60334.33
564.08	60247.73
564.24	60360.08
564.41	60268.79
564.57	60367.10
564.74	60432.63
564.90	60420.93
565.07	60540.30
565.23	60364.76
565.39	60432.63
565.56	60285.18
565.72	60584.77
565.88	60486.46
566.05	60444.33
566.21	60322.63
566.38	60589.45
566.54	60472.42
566.70	60596.47
566.87	60666.69
567.03	60355.39
567.19	60697.11
567.36	60481.78
567.52	60523.91
567.68	60755.63
567.85	60432.63
568.01	60509.87
568.17	60516.89
568.34	60776.69
568.50	60530.93
568.66	60472.42
568.83	60537.96
568.99	60556.68
569.15	60603.49
569.32	60617.53
569.48	60549.66
569.64	60750.94
569.81	60640.94
569.97	60680.73
570.13	60800.10
570.30	60629.24
570.46	60645.62
570.62	60874.99
570.78	60781.37
570.95	60493.49
571.11	60879.67
571.27	60849.25
571.43	60795.42
571.60	60966.27
571.76	60800.10
571.92	60893.72
572.09	60879.67
572.25	60713.50
572.41	60893.72
572.57	60860.95
572.74	61038.83
572.90	61048.19
573.06	60657.32
573.22	60886.70
573.38	60912.44
573.55	60879.67
573.71	61123.09
573.87	60928.83
574.03	60619.88
574.20	60893.72
574.36	60816.48
574.52	60837.54
574.68	60970.96
574.84	61048.19
575.01	60949.89
575.17	61052.87
575.33	60884.36
575.49	60945.21
575.65	61188.63
575.82	60872.65
575.98	60933.51
576.14	61286.93
576.30	61183.94
576.46	60992.02
576.62	60926.49
576.79	60926.49
576.95	60949.89
577.11	61078.62
577.27	61193.31
577.43	61034.15
577.59	60900.74
577.75	60839.89
577.92	60825.84
578.08	61207.35
578.24	61064.58
578.40	60992.02
578.56	61155.86
578.72	61125.43
578.88	61160.54
579.04	61102.03
579.21	61226.07
579.37	61118.41
579.53	61188.63
579.69	60987.34
579.85	61001.38
580.01	60980.32
580.17	61071.60
580.33	61212.03
580.49	61230.75
580.65	61090.32
580.82	60968.61
580.98	60977.98
581.14	61069.26
581.30	61256.50
581.46	60917.12
581.62	61123.09
581.78	61097.34
581.94	61277.57
582.10	61151.18
582.26	61343.10
582.42	60942.87
582.58	61212.03
582.74	61258.84
582.90	61090.32
583.06	61202.67
583.22	61092.66
583.38	61336.08
583.54	61429.70
583.70	61282.25
583.86	61151.18
584.02	61050.53
584.18	61312.67
584.34	61277.57
584.50	61116.07
584.66	61116.07
584.82	61174.58
584.98	61165.22
585.14	61254.16
585.30	61048.19
585.46	61055.21
585.62	61083.30
585.78	61324.38
585.94	61247.14
586.10	61366.51
586.26	61155.86
586.42	61265.86
586.58	61392.25
586.74	61469.49
586.90	61109.05
587.06	61141.81
587.22	61584.18
587.38	61319.70
587.54	61300.97
587.70	61471.83
587.86	61298.63
588.02	61146.50
588.18	61361.82
588.34	61434.38
588.49	61258.84
