SpectraSuite Data File
++++++++++++++++++++++++++++++++++++
Date: Fri Oct 25 10:47:29 EDT 2013
User: price-jones
Dark Spectrum Present: No
Reference Spectrum Present: No
Number of Sampled Component Spectra: 1
Spectrometers: USB2+H05261
Integration Time (usec): 100000 (USB2+H05261)
Spectra Averaged: 1 (USB2+H05261)
Boxcar Smoothing: 0 (USB2+H05261)
Correct for Electrical Dark: No (USB2+H05261)
Strobe/Lamp Enabled: No (USB2+H05261)
Correct for Detector Non-linearity: No (USB2+H05261)
Correct for Stray Light: No (USB2+H05261)
Number of Pixels in Processed Spectrum: 2048
>>>>>Begin Processed Spectral Data<<<<<
365.73	119.37
365.92	119.37
366.12	119.37
366.32	35.11
366.52	44.47
366.72	28.09
366.91	0.00
367.11	16.38
367.31	0.00
367.51	2.34
367.70	0.00
367.90	67.88
368.10	44.47
368.30	65.54
368.49	63.19
368.69	46.81
368.89	65.54
369.09	39.79
369.28	74.90
369.48	119.37
369.68	88.94
369.87	100.64
370.07	72.56
370.27	135.75
370.47	175.54
370.66	318.31
370.86	411.93
371.06	409.59
371.25	428.32
371.45	376.83
371.65	535.98
371.84	512.58
372.04	451.72
372.24	482.15
372.44	477.47
372.63	552.37
372.83	475.13
373.03	423.64
373.22	458.74
373.42	468.11
373.62	545.34
373.81	531.30
374.01	498.53
374.21	533.64
374.40	550.03
374.60	561.73
374.79	617.90
374.99	552.37
375.19	547.69
375.38	580.45
375.58	622.58
375.78	571.09
375.97	533.64
376.17	622.58
376.37	547.69
376.56	573.43
376.76	550.03
376.95	552.37
377.15	543.00
377.35	578.11
377.54	538.32
377.74	564.07
377.93	573.43
378.13	578.11
378.33	660.03
378.52	578.11
378.72	624.92
378.91	596.84
379.11	657.69
379.31	671.73
379.50	573.43
379.70	655.35
379.89	650.67
380.09	667.05
380.28	643.65
380.48	617.90
380.68	603.86
380.87	638.97
381.07	655.35
381.26	648.33
381.46	662.37
381.65	671.73
381.85	648.33
382.04	695.14
382.24	671.73
382.43	622.58
382.63	627.26
382.83	685.78
383.02	725.57
383.22	760.67
383.41	697.48
383.61	720.88
383.80	741.95
384.00	697.48
384.19	709.18
384.39	718.54
384.58	711.52
384.78	795.78
384.97	770.04
385.17	760.67
385.36	704.50
385.56	802.80
385.75	786.42
385.95	800.46
386.14	819.19
386.34	727.91
386.53	788.76
386.72	664.71
386.92	734.93
387.11	819.19
387.31	870.68
387.50	770.04
387.70	809.83
387.89	807.48
388.09	828.55
388.28	809.83
388.48	795.78
388.67	814.51
388.86	828.55
389.06	851.96
389.25	830.89
389.45	725.57
389.64	819.19
389.84	910.47
390.03	837.91
390.22	917.49
390.42	889.40
390.61	905.79
390.81	887.06
391.00	901.11
391.19	1004.09
391.39	968.98
391.58	1048.56
391.78	959.62
391.97	1027.50
392.16	866.00
392.36	933.87
392.55	1018.13
392.75	961.96
392.94	945.58
393.13	887.06
393.33	936.21
393.52	966.64
393.71	978.34
393.91	1071.97
394.10	938.55
394.29	1020.47
394.49	999.41
394.68	1116.44
394.88	1074.31
395.07	1062.60
395.26	1121.12
395.46	1107.07
395.65	1203.04
395.84	1130.48
396.04	1139.84
396.23	1062.60
396.42	1064.94
396.62	1083.67
396.81	1151.54
397.00	1160.91
397.19	1102.39
397.39	1165.59
397.58	1210.06
397.77	1172.61
397.97	1196.01
398.16	1263.89
398.35	1256.87
398.55	1273.25
398.74	1233.46
398.93	1329.42
399.12	1238.14
399.32	1336.45
399.51	1287.29
399.70	1329.42
399.90	1380.92
400.09	1446.45
400.28	1439.43
400.47	1327.08
400.67	1441.77
400.86	1411.34
401.05	1373.89
401.24	1495.60
401.44	1526.03
401.63	1448.79
401.82	1446.45
402.01	1455.81
402.21	1476.88
402.40	1423.05
402.59	1509.65
402.78	1467.52
402.97	1399.64
403.17	1556.46
403.36	1483.90
403.55	1521.35
403.74	1535.39
403.93	1640.72
404.13	1577.52
404.32	1664.12
404.51	1504.96
404.70	1607.95
404.89	1530.71
405.09	1753.06
405.28	1654.76
405.47	1685.19
405.66	1689.87
405.85	1708.59
406.05	1621.99
406.24	1722.63
406.43	1694.55
406.62	1748.38
406.81	1844.34
407.00	1732.00
407.20	1720.29
407.39	1732.00
407.58	1865.41
407.77	1842.00
407.96	1933.28
408.15	1856.04
408.34	1909.88
408.54	2012.86
408.73	1928.60
408.92	1926.26
409.11	1989.46
409.30	1935.62
409.49	1942.64
409.68	1928.60
409.87	1940.30
410.07	1940.30
410.26	1956.69
410.45	2099.46
410.64	1966.05
410.83	2125.21
411.02	2155.63
411.21	2230.53
411.40	2113.50
411.59	2260.96
411.78	2267.98
411.98	2267.98
412.17	2291.38
412.36	2141.59
412.55	2359.26
412.74	2389.69
412.93	2377.98
413.12	2392.03
413.31	2410.75
413.50	2413.09
413.69	2420.11
413.88	2569.91
414.07	2476.29
414.26	2450.54
414.45	2502.03
414.64	2579.27
414.83	2759.49
415.02	2633.10
415.22	2569.91
415.41	2724.38
415.60	2572.25
415.79	2705.66
415.98	2846.09
416.17	2848.43
416.36	2813.32
416.55	2778.22
416.74	2815.66
416.93	2773.53
417.12	2862.48
417.31	2792.26
417.50	2832.05
417.69	2953.76
417.88	2949.08
418.07	2867.16
418.26	3033.33
418.45	3035.67
418.64	3262.71
418.83	3293.13
419.02	3073.12
419.21	3073.12
419.39	3089.51
419.58	3021.63
419.77	3049.72
419.96	3141.00
420.15	3126.96
420.34	3131.64
420.53	3246.32
420.72	3295.47
420.91	3323.56
421.10	3403.14
421.29	3251.00
421.48	3339.94
421.67	3255.69
421.86	3255.69
422.05	3361.01
422.24	3243.98
422.43	3349.31
422.61	3482.72
422.80	3349.31
422.99	3375.05
423.18	3419.52
423.37	3382.07
423.56	3438.25
423.75	3428.88
423.94	3410.16
424.13	3342.28
424.32	3372.71
424.50	3447.61
424.69	3583.36
424.88	3400.80
425.07	3391.44
425.26	3314.20
425.45	3318.88
425.64	3475.70
425.83	3471.01
426.01	3618.47
426.20	3576.34
426.39	3517.83
426.58	3616.13
426.77	3520.17
426.96	3599.74
427.15	3531.87
427.33	3641.87
427.52	3508.46
427.71	3691.02
427.90	3733.15
428.09	3751.88
428.28	3754.22
428.46	3527.19
428.65	3574.00
428.84	3538.89
429.03	3791.67
429.22	3691.02
429.40	3758.90
429.59	3702.73
429.78	3499.10
429.97	3590.38
430.16	3662.94
430.34	3627.83
430.53	3716.77
430.72	3756.56
430.91	3859.54
431.10	3831.46
431.28	3990.61
431.47	4079.55
431.66	4049.13
431.85	3918.06
432.03	4159.13
432.22	4166.15
432.41	4086.58
432.60	4086.58
432.79	3992.95
432.97	4070.19
433.16	4149.77
433.35	4091.26
433.54	4182.54
433.72	4159.13
433.91	4138.07
434.10	4170.83
434.28	4299.56
434.47	4280.84
434.66	4283.18
434.85	4311.27
435.03	4393.19
435.22	4280.84
435.41	4645.96
435.59	4395.53
435.78	4374.46
435.97	4365.10
436.16	4416.59
436.34	4496.17
436.53	4535.96
436.72	4847.25
436.90	4402.55
437.09	4615.54
437.28	4475.10
437.46	4510.21
437.65	4498.51
437.84	4636.60
438.02	4638.94
438.21	4627.24
438.40	4528.94
438.58	4814.48
438.77	4898.74
438.96	4706.82
439.14	4858.95
439.33	4999.38
439.52	4903.42
439.70	4922.15
439.89	4966.62
440.08	4912.78
440.26	4952.57
440.45	5067.26
440.63	5231.10
440.82	5071.94
441.01	5088.32
441.19	5214.71
441.38	5249.82
441.57	5210.03
441.75	5446.43
441.94	5432.38
442.12	5549.41
442.31	5434.72
442.50	5322.38
442.68	5348.12
442.87	5514.30
443.05	5575.16
443.24	5610.26
443.43	5671.12
443.61	5568.13
443.80	5659.42
443.98	5621.97
444.17	5308.34
444.35	5621.97
444.54	5914.53
444.73	5715.59
444.91	5839.64
445.10	5640.69
445.28	5661.76
445.47	5493.24
445.65	5469.83
445.84	5701.54
446.02	5820.91
446.21	5937.94
446.39	5650.05
446.58	5907.51
446.77	5790.49
446.95	5680.48
447.14	5682.82
447.32	5870.06
447.51	5834.96
447.69	5767.08
447.88	5797.51
448.06	5858.36
448.25	5734.31
448.43	5877.09
448.62	5874.74
448.80	5720.27
448.99	5989.43
449.17	6066.67
449.36	6033.90
449.54	6066.67
449.73	6232.85
449.91	6221.14
450.10	6207.10
450.28	6420.09
450.46	6324.13
450.65	6204.76
450.83	6073.69
451.02	6286.68
451.20	6289.02
451.39	6277.32
451.57	6136.88
451.76	6146.25
451.94	6375.62
452.13	6286.68
452.31	6242.21
452.49	6190.72
452.68	6314.77
452.86	6368.60
453.05	6349.87
453.23	6452.86
453.42	6427.11
453.60	6427.11
453.78	6604.99
453.97	6387.32
454.15	6443.49
454.34	6450.52
454.52	6565.20
454.70	6384.98
454.89	6799.26
455.07	6637.76
455.26	6689.25
455.44	6773.51
455.62	6464.56
455.81	6750.10
455.99	6841.39
456.17	6820.32
456.36	6803.94
456.54	6949.05
456.73	6897.56
456.91	7070.76
457.09	7042.67
457.28	7279.07
457.46	7115.23
457.64	7178.42
457.83	7016.93
458.01	7115.23
458.19	7211.19
458.38	7140.97
458.56	7360.98
458.74	7152.68
458.93	7178.42
459.11	7215.87
459.29	7148.00
459.48	7215.87
459.66	7260.34
459.84	7250.98
460.03	7424.18
460.21	7428.86
460.39	7583.34
460.57	7494.40
460.76	7513.12
460.94	7499.08
461.12	7435.88
461.31	7611.42
461.49	7569.29
461.67	7562.27
461.85	7751.85
462.04	7466.31
462.22	8222.30
462.40	7995.27
462.59	7754.19
462.77	7857.18
462.95	7826.75
463.13	7756.54
463.32	7789.30
463.50	7798.66
463.68	7981.23
463.86	7892.29
464.05	7653.55
464.23	7885.26
464.41	8002.29
464.59	7911.01
464.78	8006.97
464.96	7943.78
465.14	7939.10
465.32	8095.91
465.50	8046.76
465.69	8006.97
465.87	8077.19
466.05	8173.15
466.23	8072.51
466.41	8142.72
466.60	8238.69
466.78	8191.88
466.96	8355.71
467.14	8224.64
467.32	8416.57
467.51	8409.54
467.69	8205.92
467.87	8189.53
468.05	8219.96
468.23	8374.44
468.41	8383.80
468.60	8358.05
468.78	8465.72
468.96	8442.31
469.14	8629.56
469.32	8533.59
469.50	8402.52
469.69	8688.07
469.87	8767.65
470.05	8638.92
470.23	8798.07
470.41	8641.26
470.59	8849.57
470.77	8674.03
470.95	8821.48
471.14	8903.40
471.32	8868.29
471.50	9167.88
471.68	9193.62
471.86	9130.43
472.04	9249.80
472.22	9383.21
472.40	9001.70
472.58	9329.38
472.77	9331.72
472.95	9373.85
473.13	9689.82
473.31	9312.99
473.49	9334.06
473.67	9329.38
473.85	9404.27
474.03	9741.31
474.21	9621.94
474.39	9799.82
474.57	9825.57
474.75	9827.91
474.93	9806.84
475.12	9825.57
475.30	9767.06
475.48	9966.00
475.66	10146.22
475.84	9853.66
476.02	10197.71
476.20	10118.14
476.38	10132.18
476.56	10462.19
476.74	10583.90
476.92	10509.01
477.10	10387.30
477.28	10544.11
477.46	10647.10
477.64	10717.31
477.82	10927.96
478.00	11073.07
478.18	11028.60
478.36	11112.86
478.54	11389.05
478.72	11250.96
478.90	11492.03
479.08	11639.48
479.26	11424.15
479.44	11576.29
479.62	11658.21
479.80	11754.17
479.98	11817.36
480.16	12175.47
480.34	12131.00
480.52	12369.73
480.70	12163.76
480.88	11948.43
481.06	12308.88
481.24	12386.12
481.41	12463.35
481.59	12830.82
481.77	12877.63
481.95	12760.60
482.13	13015.72
482.31	12922.10
482.49	13177.22
482.67	13195.94
482.85	13167.85
483.03	13418.29
483.21	13783.41
483.39	13635.96
483.57	13853.63
483.74	13891.08
483.92	13870.01
484.10	14038.53
484.28	14478.55
484.46	14263.22
484.64	14637.71
484.82	14396.64
485.00	14574.52
485.18	15124.54
485.35	14565.15
485.53	14562.81
485.71	14801.55
485.89	15075.39
486.07	14913.89
486.25	15386.68
486.43	15227.53
486.61	15384.34
486.78	15805.64
486.96	15906.28
487.14	15892.24
487.32	15990.54
487.50	16170.76
487.68	16072.46
487.85	16273.74
488.03	16430.56
488.21	16681.00
488.39	16594.40
488.57	17008.67
488.75	16814.41
488.92	17214.64
489.10	17369.12
489.28	17083.57
489.46	17483.80
489.64	17404.22
489.81	17743.60
489.99	18015.10
490.17	18050.21
490.35	18204.69
490.53	18279.58
490.70	18352.14
490.88	18214.05
491.06	18691.52
491.24	18483.21
491.41	18476.19
491.59	18897.49
491.77	18831.95
491.95	19108.13
492.13	19508.37
492.30	19353.89
492.48	19445.17
492.66	19496.66
492.84	19576.24
493.01	19854.76
493.19	19644.12
493.37	19981.15
493.54	20184.78
493.72	20180.10
493.90	20339.26
494.08	20837.79
494.25	20758.21
494.43	20711.40
494.61	21158.44
494.79	20774.60
494.96	20854.17
495.14	21001.63
495.32	21671.02
495.49	21399.52
495.67	21528.25
495.85	21790.39
496.02	21729.53
496.20	22298.28
496.38	22015.08
496.55	22120.40
496.73	22656.39
496.91	22155.51
497.09	22647.02
497.26	22738.30
497.44	22923.21
497.62	22387.22
497.79	23028.53
497.97	22733.62
498.14	22806.18
498.32	23136.20
498.50	23145.56
498.67	23583.24
498.85	23506.00
499.03	23676.86
499.20	23618.35
499.38	23545.79
499.56	23967.09
499.73	24161.35
499.91	23814.95
500.08	24269.01
500.26	23999.85
500.44	24409.45
500.61	24034.96
500.79	24264.33
500.97	24603.71
501.14	24943.09
501.32	24552.22
501.49	24425.83
501.67	24425.83
501.84	25032.03
502.02	24847.13
502.20	25167.78
502.37	25240.34
502.55	25172.46
502.72	25486.09
502.90	25212.25
503.07	25331.62
503.25	25804.41
503.43	25467.37
503.60	25830.15
503.78	25832.49
503.95	25748.23
504.13	25813.77
504.30	25940.16
504.48	26136.76
504.65	26230.38
504.83	26080.59
505.01	26445.71
505.18	26324.01
505.36	26361.45
505.53	26817.86
505.71	26782.75
505.88	26766.37
506.06	26745.30
506.23	27007.44
506.41	26806.16
506.58	26939.57
506.76	27529.38
506.93	27290.65
507.11	27674.49
507.28	27538.74
507.46	27447.46
507.63	27660.45
507.81	27697.90
507.98	27452.14
508.16	27704.92
508.33	27740.03
508.50	27805.56
508.68	28320.48
508.85	28051.32
509.03	28318.14
509.20	28203.46
509.38	28460.91
509.55	28851.78
509.73	28587.30
509.90	28481.98
510.08	28500.70
510.25	28542.83
510.42	28683.27
510.60	28954.77
510.77	29111.58
510.95	28865.83
511.12	28989.88
511.30	29090.52
511.47	29717.78
511.64	29343.30
511.82	29542.24
511.99	29441.60
512.17	29734.17
512.34	29687.36
512.51	30237.38
512.69	29858.21
512.86	29879.28
513.04	30438.67
513.21	29752.89
513.38	30115.67
513.56	30122.69
513.73	29907.37
513.90	30441.01
514.08	30382.49
514.25	30466.75
514.43	30712.51
514.60	30466.75
514.77	30785.07
514.95	31077.63
515.12	30719.53
515.29	30574.42
515.47	30937.20
515.64	31159.55
515.81	31070.61
515.99	31159.55
516.16	31243.81
516.33	31257.85
516.51	31246.15
516.68	31115.08
516.85	31269.56
517.03	31339.77
517.20	31569.15
517.37	31253.17
517.54	31573.83
517.72	31857.03
517.89	31583.19
518.06	31697.88
518.24	31260.20
518.41	31431.05
518.58	31927.25
518.75	31903.84
518.93	32329.82
519.10	31995.12
519.27	32540.47
519.45	32112.15
519.62	32318.12
519.79	32505.36
519.96	32889.21
520.14	32851.76
520.31	32891.55
520.48	32842.40
520.65	33214.54
520.83	32879.85
521.00	32872.82
521.17	32921.98
521.34	32779.20
521.52	33036.66
521.69	33390.08
521.86	33441.57
522.03	33806.70
522.20	33696.69
522.38	33797.34
522.55	33757.55
522.72	33556.26
522.89	33701.37
523.07	33921.38
523.24	34155.44
523.41	34066.50
523.58	33846.49
523.75	34714.83
523.92	34103.95
524.10	34246.72
524.27	34597.80
524.44	34288.85
524.61	34031.39
524.78	34396.51
524.96	34642.27
525.13	34747.59
525.30	34602.48
525.47	34897.39
525.64	34778.02
525.81	34773.34
525.98	34665.67
526.16	34747.59
526.33	34579.07
526.50	35213.36
526.67	35246.13
526.84	35215.70
527.01	35211.02
527.18	35215.70
527.36	35302.30
527.53	35505.93
527.70	35896.80
527.87	35505.93
528.04	35566.78
528.21	35779.77
528.38	35510.61
528.55	36023.19
528.72	35608.91
528.89	35625.29
529.07	35814.88
529.24	35526.99
529.41	35962.33
529.58	35931.90
529.75	35992.76
529.92	36463.21
530.09	35791.47
530.26	36233.83
530.43	36308.73
530.60	35857.01
530.77	36512.36
530.94	36776.84
531.11	36481.93
531.28	36711.30
531.46	36507.68
531.63	36687.90
531.80	36470.23
531.97	36910.25
532.14	36503.00
532.31	36498.31
532.48	36783.86
532.65	37172.39
532.82	36643.43
532.99	37376.01
533.16	36928.97
533.33	36718.32
533.50	37195.79
533.67	37144.30
533.84	37404.10
534.01	37738.80
534.18	37137.28
534.35	37755.18
534.52	37708.37
534.69	37809.01
534.86	37687.31
535.03	37413.46
535.20	38071.15
535.37	38288.82
535.54	37825.40
535.71	37729.44
535.88	37904.98
536.05	37879.23
536.22	38333.29
536.38	37921.36
536.55	38246.69
536.72	38066.47
536.89	37752.84
537.06	38120.31
537.23	38281.80
537.40	38052.43
537.57	38216.27
537.74	38160.09
537.91	38323.93
538.08	38424.57
538.25	38618.84
538.42	38597.77
538.59	38597.77
538.75	38522.88
538.92	38478.41
539.09	38677.35
539.26	38817.78
539.43	38927.79
539.60	38878.64
539.77	38944.17
539.94	39040.14
540.11	38717.14
540.28	39119.71
540.44	38820.13
540.61	38557.99
540.78	38857.57
540.95	39136.10
541.12	39243.76
541.29	38780.34
541.46	39409.94
541.62	39012.05
541.79	39452.07
541.96	38827.15
542.13	39262.49
542.30	39564.42
542.47	39840.60
542.63	39632.29
542.80	39218.02
542.97	39763.36
543.14	40133.17
543.31	40067.63
543.48	39945.92
543.64	40172.96
543.81	40280.62
543.98	39922.52
544.15	40254.87
544.32	40292.32
544.48	40538.08
544.65	40041.88
544.82	40369.56
544.99	40182.32
545.16	40107.42
545.32	40098.06
545.49	40360.20
545.66	40793.20
545.83	40591.91
546.00	40720.64
546.16	40205.72
546.33	40493.61
546.50	40034.86
546.67	40921.93
546.83	40493.61
547.00	40690.21
547.17	40538.08
547.34	40828.30
547.50	40907.88
547.67	40886.82
547.84	41132.57
548.00	40788.52
548.17	40856.39
548.34	41247.26
548.51	41940.06
548.67	41055.34
548.84	40933.63
549.01	41315.14
549.18	41022.57
549.34	41486.00
549.51	41024.91
549.68	41565.57
549.84	41500.04
550.01	41338.54
550.18	41359.61
550.34	41186.41
550.51	41265.99
550.68	41219.17
550.84	41240.24
551.01	41535.15
551.18	41486.00
551.34	41354.93
551.51	41766.86
551.68	41818.35
551.84	41797.29
552.01	41244.92
552.18	41387.69
552.34	41682.60
552.51	41741.11
552.68	41663.88
552.84	41961.12
553.01	41867.50
553.18	41631.11
553.34	41698.98
553.51	41928.36
553.67	42043.04
553.84	41921.34
554.01	42300.50
554.17	42157.73
554.34	42141.35
554.51	42057.09
554.67	42302.84
554.84	42457.32
555.00	42206.88
555.17	42136.66
555.33	42204.54
555.50	42293.48
555.67	42363.70
555.83	42387.10
556.00	42508.81
556.16	42696.05
556.33	42457.32
556.50	42150.71
556.66	42644.56
556.83	42450.30
556.99	42656.26
557.16	42572.00
557.32	42890.32
557.49	42752.23
557.65	42209.22
557.82	42330.93
557.98	42693.71
558.15	42719.46
558.32	42656.26
558.48	43196.93
558.65	42691.37
558.81	42862.23
558.98	42859.89
559.14	42588.39
559.31	42710.10
559.47	43063.52
559.64	43332.68
559.80	43290.55
559.97	43241.40
560.13	42447.96
560.30	42667.97
560.46	43079.90
560.63	43091.60
560.79	42829.46
560.96	43077.56
561.12	43086.92
561.29	42745.20
561.45	43278.85
561.61	43269.48
561.78	43133.73
561.94	43093.94
562.11	43430.98
562.27	42965.21
562.44	43365.45
562.60	43217.99
562.77	43529.28
562.93	43477.79
563.10	43634.61
563.26	42946.49
563.42	43693.12
563.59	43351.40
563.75	43412.26
563.92	43636.95
564.08	43515.24
564.24	43344.38
564.41	43620.56
564.57	43540.99
564.74	43702.48
564.90	43524.60
565.07	43971.64
565.23	43498.86
565.39	43133.73
565.56	43540.99
565.72	43548.01
565.88	43686.10
566.05	43445.02
566.21	43393.53
566.38	43468.43
566.54	43061.18
566.70	43325.66
566.87	44081.65
567.03	43985.69
567.19	43749.29
567.36	43695.46
567.52	43466.09
567.68	43838.23
567.85	43393.53
568.01	44032.50
568.17	43590.14
568.34	43889.73
568.50	43976.33
568.66	43765.68
568.83	43908.45
568.99	44165.91
569.15	43501.20
569.32	43840.57
569.48	43849.94
569.64	44189.31
569.81	43552.69
569.97	43494.18
570.13	43763.34
570.30	43536.30
570.46	43487.15
570.62	43480.13
570.78	43508.22
570.95	43328.00
571.11	44088.67
571.27	43704.82
571.43	44318.04
571.60	44332.09
571.76	43835.89
571.92	44091.01
572.09	43969.30
572.25	43814.83
572.41	43718.87
572.57	44165.91
572.74	44360.17
572.90	43885.04
573.06	43838.23
573.22	44069.95
573.38	44243.15
573.55	44027.82
573.71	44079.31
573.87	44147.18
574.03	43924.83
574.20	44254.85
574.36	43761.00
574.52	44191.65
574.68	44268.89
574.84	44376.56
575.01	44315.70
575.17	43814.83
575.33	43742.27
575.49	43840.57
575.65	44392.94
575.82	44528.69
575.98	43831.21
576.14	44371.88
576.30	44320.38
576.46	43892.07
576.62	43702.48
576.79	44100.37
576.95	43775.04
577.11	44257.19
577.27	44339.11
577.43	44453.79
577.59	44362.51
577.75	44428.05
577.92	44252.51
578.08	44025.48
578.24	43756.32
578.40	44238.47
578.56	44285.28
578.72	44100.37
578.88	44285.28
579.04	44149.53
579.21	44229.10
579.37	44376.56
579.53	44002.07
579.69	43997.39
579.85	43929.51
580.01	43983.35
580.17	44748.70
580.33	44406.98
580.49	44238.47
580.65	44093.35
580.82	44435.07
580.98	44357.83
581.14	44215.06
581.30	44343.79
581.46	44217.40
581.62	44172.93
581.78	44360.17
581.94	44524.01
582.10	44416.35
582.26	44561.46
582.42	43924.83
582.58	44039.52
582.74	43929.51
582.90	43873.34
583.06	44355.49
583.22	44584.86
583.38	44217.40
583.54	44463.16
583.70	44112.08
583.86	43784.40
584.02	44341.45
584.18	44392.94
584.34	44367.20
584.50	44481.88
584.66	43952.92
584.82	44048.88
584.98	44662.10
585.14	44339.11
585.30	44282.94
585.46	44467.84
585.62	43906.11
585.78	44081.65
585.94	43686.10
586.10	44128.46
586.26	44212.72
586.42	44357.83
586.58	44158.89
586.74	44336.77
586.90	44009.09
587.06	44285.28
587.22	43973.98
587.38	44168.25
587.54	44371.88
587.70	44409.32
587.86	44650.40
588.02	44552.10
588.18	44233.78
588.34	44367.20
588.49	44315.70
588.65	44245.49
588.81	44238.47
588.97	44224.42
589.13	44133.14
589.29	44388.26
589.45	44570.82
589.61	44655.08
589.77	44533.37
589.93	44428.05
590.08	44828.28
590.24	44224.42
590.40	44605.93
