SpectraSuite Data File
++++++++++++++++++++++++++++++++++++
Date: Fri Oct 25 11:22:52 EDT 2013
User: price-jones
Dark Spectrum Present: No
Reference Spectrum Present: No
Number of Sampled Component Spectra: 1
Spectrometers: USB2+H05261
Integration Time (usec): 100000 (USB2+H05261)
Spectra Averaged: 1 (USB2+H05261)
Boxcar Smoothing: 0 (USB2+H05261)
Correct for Electrical Dark: No (USB2+H05261)
Strobe/Lamp Enabled: No (USB2+H05261)
Correct for Detector Non-linearity: No (USB2+H05261)
Correct for Stray Light: No (USB2+H05261)
Number of Pixels in Processed Spectrum: 2048
>>>>>Begin Processed Spectral Data<<<<<
365.73	205.97
365.92	205.97
366.12	205.97
366.32	189.58
366.52	142.77
366.72	166.18
366.91	58.51
367.11	152.13
367.31	128.73
367.51	138.09
367.70	128.73
367.90	175.54
368.10	238.73
368.30	161.50
368.49	63.19
368.69	44.47
368.89	79.58
369.09	117.03
369.28	198.95
369.48	142.77
369.68	196.60
369.87	173.20
370.07	217.67
370.27	189.58
370.47	245.76
370.66	582.79
370.86	622.58
371.06	667.05
371.25	671.73
371.45	624.92
371.65	725.57
371.84	617.90
372.04	664.71
372.24	716.20
372.44	849.61
372.63	751.31
372.83	842.59
373.03	755.99
373.22	727.91
373.42	781.74
373.62	730.25
373.81	716.20
374.01	791.10
374.21	795.78
374.40	751.31
374.60	870.68
374.79	884.72
374.99	753.65
375.19	809.83
375.38	903.45
375.58	758.33
375.78	858.98
375.97	875.36
376.17	842.59
376.37	851.96
376.56	891.74
376.76	891.74
376.95	882.38
377.15	882.38
377.35	926.85
377.54	880.04
377.74	816.85
377.93	919.83
378.13	950.26
378.33	931.53
378.52	994.73
378.72	819.19
378.91	896.43
379.11	947.92
379.31	849.61
379.50	926.85
379.70	933.87
379.89	936.21
380.09	915.15
380.28	978.34
380.48	933.87
380.68	954.94
380.87	987.71
381.07	952.60
381.26	1114.10
381.46	1118.78
381.65	1071.97
381.85	1004.09
382.04	1011.11
382.24	992.39
382.43	1029.84
382.63	1020.47
382.83	1060.26
383.02	1177.29
383.22	1219.42
383.41	1100.05
383.61	1146.86
383.80	1146.86
384.00	1188.99
384.19	1121.12
384.39	1188.99
384.58	1041.54
384.78	1123.46
384.97	1184.31
385.17	1123.46
385.36	1139.84
385.56	1081.33
385.75	1083.67
385.95	1212.40
386.14	1196.01
386.34	1226.44
386.53	1160.91
386.72	1132.82
386.92	1203.04
387.11	1196.01
387.31	1205.38
387.50	1240.48
387.70	1170.27
387.89	1334.11
388.09	1380.92
388.28	1343.47
388.48	1217.08
388.67	1329.42
388.86	1376.24
389.06	1301.34
389.25	1373.89
389.45	1392.62
389.64	1310.70
389.84	1373.89
390.03	1383.26
390.22	1317.72
390.42	1378.58
390.61	1373.89
390.81	1397.30
391.00	1362.19
391.19	1493.26
391.39	1500.28
391.58	1469.86
391.78	1453.47
391.97	1444.11
392.16	1418.36
392.36	1591.56
392.55	1439.43
392.75	1460.49
392.94	1502.62
393.13	1563.48
393.33	1605.61
393.52	1500.28
393.71	1549.43
393.91	1591.56
394.10	1551.78
394.29	1577.52
394.49	1582.20
394.68	1568.16
394.88	1633.69
395.07	1570.50
395.26	1598.59
395.46	1687.53
395.65	1776.47
395.84	1675.82
396.04	1699.23
396.23	1739.02
396.42	1689.87
396.62	1769.44
396.81	1750.72
397.00	1743.70
397.19	1788.17
397.39	1792.85
397.58	1853.70
397.77	1811.57
397.97	1867.75
398.16	1802.21
398.35	1912.22
398.55	1820.94
398.74	1900.52
398.93	1961.37
399.12	1823.28
399.32	1963.71
399.51	1844.34
399.70	1944.99
399.90	1961.37
400.09	2043.29
400.28	2043.29
400.47	2104.14
400.67	2078.40
400.86	2118.18
401.05	2148.61
401.24	2148.61
401.44	2026.90
401.63	2134.57
401.82	2085.42
402.01	2120.53
402.21	2186.06
402.40	2253.94
402.59	2190.74
402.78	2225.85
402.97	2260.96
403.17	2246.91
403.36	2291.38
403.55	2298.41
403.74	2331.17
403.93	2342.88
404.13	2408.41
404.32	2354.58
404.51	2324.15
404.70	2473.95
404.89	2385.01
405.09	2469.27
405.28	2558.21
405.47	2473.95
405.66	2546.50
405.85	2541.82
406.05	2583.95
406.24	2590.97
406.43	2649.49
406.62	2567.57
406.81	2644.81
407.00	2558.21
407.20	2616.72
407.39	2740.77
407.58	2738.43
407.77	2750.13
407.96	2771.19
408.15	2834.39
408.34	2614.38
408.54	2932.69
408.73	2782.90
408.92	2792.26
409.11	2885.88
409.30	2965.46
409.49	3016.95
409.68	2909.29
409.87	3012.27
410.07	2881.20
410.26	2963.12
410.45	2953.76
410.64	3033.33
410.83	3068.44
411.02	3084.83
411.21	3131.64
411.40	3187.81
411.59	3176.11
411.78	3112.91
411.98	3068.44
412.17	3251.00
412.36	3412.50
412.55	3375.05
412.74	3475.70
412.93	3368.03
413.12	3417.18
413.31	3485.06
413.50	3496.76
413.69	3534.21
413.88	3566.98
414.07	3508.46
414.26	3714.43
414.45	3646.55
414.64	3648.90
414.83	3840.82
415.02	3796.35
415.22	3946.14
415.41	3868.91
415.60	3896.99
415.79	3978.91
415.98	3913.38
416.17	3969.55
416.36	4011.68
416.55	4032.74
416.74	4264.46
416.93	4037.42
417.12	4187.22
417.31	4224.67
417.50	4184.88
417.69	4414.25
417.88	4337.01
418.07	4360.42
418.26	4290.20
418.45	4374.46
418.64	4608.51
418.83	4440.00
419.02	4304.25
419.21	4493.83
419.39	4475.10
419.58	4486.81
419.77	4472.76
419.96	4606.17
420.15	4594.47
420.34	4627.24
420.53	4613.20
420.72	4706.82
420.91	4758.31
421.10	4788.74
421.29	4784.06
421.48	4758.31
421.67	4798.10
421.86	4685.75
422.05	4915.12
422.24	4929.17
422.43	4992.36
422.61	5039.17
422.80	4929.17
422.99	5067.26
423.18	4975.98
423.37	5006.41
423.56	5001.72
423.75	4978.32
423.94	4772.35
424.13	4606.17
424.32	4805.12
424.50	5001.72
424.69	5170.24
424.88	5118.75
425.07	4954.91
425.26	4943.21
425.45	4997.04
425.64	5020.45
425.83	5071.94
426.01	5139.82
426.20	4973.64
426.39	5013.43
426.58	5071.94
426.77	5027.47
426.96	5296.63
427.15	5097.69
427.33	5233.44
427.52	5245.14
427.71	5448.77
427.90	5245.14
428.09	5305.99
428.28	5423.02
428.46	5357.49
428.65	5352.81
428.84	5418.34
429.03	5542.39
429.22	5425.36
429.40	5462.81
429.59	5558.77
429.78	5352.81
429.97	5200.67
430.16	5626.65
430.34	5617.29
430.53	5654.73
430.72	5643.03
430.91	5647.71
431.10	5659.42
431.28	5743.67
431.47	5851.34
431.66	5893.47
431.85	5825.59
432.03	5996.45
432.22	5954.32
432.41	5998.79
432.60	6113.48
432.79	6080.71
432.97	6064.33
433.16	5961.34
433.35	5907.51
433.54	6059.65
433.72	6293.70
433.91	6225.82
434.10	6406.05
434.28	6293.70
434.47	6406.05
434.66	6274.98
434.85	6335.83
435.03	6244.55
435.22	6324.13
435.41	6700.95
435.59	6370.94
435.78	6450.52
435.97	6485.62
436.16	6469.24
436.34	6541.80
436.53	6527.75
436.72	6773.51
436.90	6396.68
437.09	6787.55
437.28	6642.44
437.46	6609.67
437.65	6597.97
437.84	6656.48
438.02	6841.39
438.21	6871.81
438.40	6787.55
438.58	7040.33
438.77	7220.55
438.96	7012.24
439.14	7236.94
439.33	7187.79
439.52	7265.02
439.70	7201.83
439.89	7396.09
440.08	7311.83
440.26	7386.73
440.45	7461.63
440.63	7588.02
440.82	7634.83
441.01	7627.81
441.19	7620.78
441.38	7667.60
441.57	7808.03
441.75	7922.71
441.94	8109.96
442.12	8028.04
442.31	7995.27
442.50	7922.71
442.68	8133.36
442.87	8018.68
443.05	8210.60
443.24	8351.03
443.43	8154.43
443.61	8241.03
443.80	8479.76
443.98	8093.57
444.17	7782.28
444.35	8425.93
444.54	8425.93
444.73	8226.98
444.91	8306.56
445.10	8301.88
445.28	8549.98
445.47	8163.79
445.65	8564.02
445.84	8411.89
446.02	8388.48
446.21	8524.23
446.39	8414.23
446.58	8491.46
446.77	8381.46
446.95	8442.31
447.14	8365.07
447.32	8709.13
447.51	8514.87
447.69	8514.87
447.88	8779.35
448.06	8585.08
448.25	8650.62
448.43	8690.41
448.62	8730.20
448.80	8575.72
448.99	8652.96
449.17	8652.96
449.36	8737.22
449.54	8947.87
449.73	8950.21
449.91	9135.11
450.10	9085.96
450.28	8936.17
450.46	8940.85
450.65	9102.34
450.83	9074.26
451.02	9057.87
451.20	9104.68
451.39	9298.95
451.57	9289.59
451.76	9104.68
451.94	9404.27
452.13	9371.50
452.31	9263.84
452.49	9008.72
452.68	9357.46
452.86	9390.23
453.05	9511.94
453.23	9385.55
453.42	9476.83
453.60	9404.27
453.78	9654.71
453.97	9397.25
454.15	9469.81
454.34	9563.43
454.52	9788.12
454.70	9635.99
454.89	9865.36
455.07	9877.06
455.26	9944.94
455.44	9926.21
455.62	9961.32
455.81	9961.32
455.99	10008.13
456.17	9940.26
456.36	10174.31
456.54	10188.35
456.73	10434.11
456.91	10555.82
457.09	10466.88
457.28	10555.82
457.46	10431.77
457.64	10506.66
457.83	10600.29
458.01	10408.36
458.19	10853.06
458.38	10682.20
458.56	10897.53
458.74	10436.45
458.93	10803.91
459.11	10801.57
459.29	10867.11
459.48	10927.96
459.66	10967.75
459.84	11047.33
460.03	10857.75
460.21	11084.78
460.39	11276.70
460.57	11110.52
460.76	11192.44
460.94	11239.25
461.12	11140.95
461.31	11164.36
461.49	11459.26
461.67	11346.92
461.85	11705.02
462.04	11428.84
462.22	12105.25
462.40	11688.64
462.59	11566.93
462.77	11541.18
462.95	11833.75
463.13	11470.97
463.32	11672.25
463.50	11964.82
463.68	11798.64
463.86	12039.72
464.05	11978.86
464.23	12039.72
464.41	11974.18
464.59	11639.48
464.78	12238.66
464.96	11981.20
465.14	11882.90
465.32	12145.04
465.50	12341.64
465.69	12215.26
465.87	12070.14
466.05	12138.02
466.23	12491.44
466.41	12500.80
466.60	12353.35
466.78	12351.01
466.96	12510.16
467.14	12643.57
467.32	12465.69
467.51	12718.47
467.69	12304.20
467.87	12622.51
468.05	12575.70
468.23	12348.67
468.41	12491.44
468.60	12702.09
468.78	13245.09
468.96	12952.52
469.14	12851.88
469.32	12933.80
469.50	12826.14
469.69	13130.41
469.87	13245.09
470.05	13050.83
470.23	13242.75
470.41	13212.32
470.59	13362.12
470.77	13273.18
470.95	13163.17
471.14	13429.99
471.32	13256.79
471.50	13591.49
471.68	13652.34
471.86	13699.16
472.04	13909.80
472.22	14087.68
472.40	13781.07
472.58	13799.80
472.77	13994.06
472.95	14211.73
473.13	14644.73
473.31	14157.90
473.49	14305.35
473.67	14317.06
473.85	14410.68
474.03	14773.46
474.21	14782.82
474.39	14993.47
474.57	14745.38
474.75	14944.32
474.93	15138.58
475.12	15066.03
475.30	15176.03
475.48	14934.96
475.66	15473.28
475.84	15363.28
476.02	15585.63
476.20	15389.02
476.38	15939.05
476.56	16292.47
476.74	16182.46
476.92	16030.33
477.10	15873.51
477.28	16545.25
477.46	16156.72
477.64	16465.67
477.82	16933.78
478.00	16992.29
478.18	16851.86
478.36	17083.57
478.54	17362.09
478.72	17212.30
478.90	17507.21
479.08	17654.66
479.26	17867.65
479.44	17692.11
479.62	17851.27
479.80	18342.78
479.98	18422.36
480.16	18899.83
480.34	18361.50
480.52	18721.95
480.70	18686.84
480.88	18438.74
481.06	18925.57
481.24	19166.65
481.41	19274.31
481.59	19576.24
481.77	19548.15
481.95	19431.13
482.13	19730.72
482.31	19711.99
482.49	20367.34
482.67	20414.15
482.85	20638.84
483.03	20865.88
483.21	21275.47
483.39	21109.29
483.57	20936.09
483.74	21238.02
483.92	21460.37
484.10	21390.16
484.28	21778.68
484.46	22141.47
484.64	22541.70
484.82	22235.09
485.00	22581.49
485.18	22663.41
485.35	22916.19
485.53	23140.88
485.71	22991.08
485.89	23903.89
486.07	23733.03
486.25	23749.42
486.43	23943.68
486.61	23747.08
486.78	24276.04
486.96	24449.24
487.14	24638.82
487.32	24620.10
487.50	25078.84
487.68	25027.35
487.85	25359.70
488.03	25500.14
488.21	26291.24
488.39	25818.45
488.57	26188.25
488.75	26576.78
488.92	26656.36
489.10	27131.49
489.28	27115.11
489.46	27365.54
489.64	27297.67
489.81	27931.95
489.99	27896.85
490.17	27983.44
490.35	28276.01
490.53	28514.75
490.70	28996.90
490.88	28456.23
491.06	28931.36
491.24	28924.34
491.41	29504.79
491.59	29333.93
491.77	29633.52
491.95	29869.92
492.13	29827.79
492.30	30314.62
492.48	30391.86
492.66	30609.53
492.84	30485.48
493.01	30731.23
493.19	30827.20
493.37	31012.10
493.54	31510.63
493.72	31503.61
493.90	31880.44
494.08	32231.52
494.25	32416.42
494.43	32503.02
494.61	32900.91
494.79	32898.57
494.96	32868.14
495.14	33120.92
495.32	33156.03
495.49	33394.76
495.67	33628.82
495.85	34015.01
496.02	34204.59
496.20	33951.81
496.38	34225.65
496.55	34263.10
496.73	35199.32
496.91	34511.20
497.09	34962.92
497.26	35363.15
497.44	35374.86
497.62	35447.41
497.79	36217.45
497.97	36107.44
498.14	36189.36
498.32	36229.15
498.50	36411.71
498.67	37167.71
498.85	36739.39
499.03	37258.99
499.20	36884.50
499.38	37352.61
499.56	37184.09
499.73	37659.22
499.91	38132.01
500.08	37703.69
500.26	37830.08
500.44	38302.87
500.61	38249.03
500.79	37996.26
500.97	38508.83
501.14	38920.77
501.32	39189.93
501.49	38836.51
501.67	38946.51
501.84	39175.89
502.02	39248.44
502.20	39559.73
502.37	39274.19
502.55	39828.90
502.72	39746.98
502.90	39885.07
503.07	39966.99
503.25	40521.69
503.43	40027.84
503.60	40835.33
503.78	40346.15
503.95	40194.02
504.13	40854.05
504.30	40931.29
504.48	40816.60
504.65	41155.98
504.83	41181.73
505.01	41469.61
505.18	41893.25
505.36	41989.21
505.53	41588.98
505.71	41907.29
505.88	41951.76
506.06	41656.85
506.23	42162.41
506.41	42499.45
506.58	42792.01
506.76	42590.73
506.93	42951.17
507.11	42803.72
507.28	42885.64
507.46	43075.22
507.63	43311.61
507.81	43426.30
507.98	43409.92
508.16	43395.87
508.33	43796.10
508.50	43856.96
508.68	43978.67
508.85	44172.93
509.03	43995.05
509.20	44208.04
509.38	44528.69
509.55	44753.38
509.73	45130.21
509.90	44437.41
510.08	44938.29
510.25	45174.68
510.42	45043.61
510.60	45261.28
510.77	45415.76
510.95	45942.38
511.12	45251.92
511.30	45684.92
511.47	45722.37
511.64	46064.08
511.82	46057.06
511.99	45996.21
512.17	46483.04
512.34	46101.53
512.51	46899.65
512.69	46752.20
512.86	47075.19
513.04	46953.49
513.21	46770.93
513.38	47222.65
513.56	47168.82
513.73	46962.85
513.90	47217.97
514.08	47257.76
514.25	47519.90
514.43	47674.37
514.60	47709.48
514.77	47646.29
514.95	47688.42
515.12	47751.61
515.29	48039.50
515.47	48271.21
515.64	48264.19
515.81	48163.54
515.99	48594.20
516.16	48655.06
516.33	48437.39
516.51	48854.00
516.68	48947.62
516.85	49109.12
517.03	49153.59
517.20	49333.81
517.37	49097.42
517.54	49062.31
517.72	49191.04
517.89	49298.70
518.06	49261.26
518.24	49834.69
518.41	49820.64
518.58	49572.55
518.75	49446.16
518.93	50272.37
519.10	49385.30
519.27	50148.32
519.45	50061.72
519.62	50127.25
519.79	50061.72
519.96	50209.17
520.14	50129.59
520.31	50403.44
520.48	50688.98
520.65	50717.07
520.83	50995.59
521.00	51100.92
521.17	50951.12
521.34	51136.02
521.52	51021.34
521.69	50934.74
521.86	51398.16
522.03	51393.48
522.20	51730.52
522.38	51636.90
522.55	51606.47
522.72	51468.38
522.89	51629.88
523.07	51847.55
523.24	51995.00
523.41	51737.54
523.58	51723.50
523.75	52058.20
523.92	52252.46
524.10	51952.87
524.27	52266.50
524.44	52285.23
524.61	52158.84
524.78	52259.48
524.96	52411.62
525.13	52701.84
525.30	52687.80
525.47	52839.93
525.64	52521.62
525.81	52793.12
525.98	52985.05
526.16	52516.94
526.33	52971.00
526.50	53132.50
526.67	53062.29
526.84	53176.97
527.01	52949.94
527.18	53233.14
527.36	53130.16
527.53	53263.57
527.70	53577.20
527.87	53736.36
528.04	53340.81
528.21	53528.05
528.38	53558.48
528.55	54014.88
528.72	53626.35
528.89	53853.39
529.07	53563.16
529.24	53895.52
529.41	53521.03
529.58	53939.99
529.75	53832.32
529.92	54028.93
530.09	54265.32
530.26	54260.64
530.43	54527.46
530.60	54145.95
530.77	54045.31
530.94	54272.34
531.11	54279.36
531.28	54494.69
531.46	54326.17
531.63	54443.20
531.80	54548.53
531.97	54623.42
532.14	54693.64
532.31	54972.16
532.48	54822.37
532.65	54742.79
532.82	54644.49
532.99	54869.18
533.16	54887.90
533.33	55037.70
533.50	55143.02
533.67	55098.55
533.84	54873.86
534.01	55185.15
534.18	55234.30
534.35	55412.18
534.52	55299.84
534.69	55597.09
534.86	55660.28
535.03	55201.53
535.20	55194.51
535.37	55407.50
535.54	55805.39
535.71	55515.17
535.88	55657.94
536.05	55749.22
536.22	55742.20
536.38	55894.33
536.55	55856.88
536.72	56006.68
536.89	55723.47
537.06	56123.71
537.23	56025.40
537.40	55941.14
537.57	55845.18
537.74	56161.15
537.91	56062.85
538.08	56074.55
538.25	55744.54
538.42	56163.50
538.59	56322.65
538.75	56179.88
538.92	56402.23
539.09	56418.61
539.26	56296.91
539.43	56435.00
539.60	56617.56
539.77	56549.68
539.94	56582.45
540.11	56542.66
540.28	56928.85
540.44	56556.70
540.61	56720.54
540.78	56584.79
540.95	56435.00
541.12	56676.07
541.29	56680.75
541.46	56973.32
541.62	56685.43
541.79	56545.00
541.96	56608.20
542.13	56919.49
542.30	56835.23
542.47	56996.73
542.63	57041.20
542.80	57003.75
542.97	57450.79
543.14	57317.38
543.31	57240.14
543.48	57352.49
543.64	57766.76
543.81	57443.77
543.98	57553.77
544.15	57794.85
544.32	57633.35
544.48	57865.06
544.65	57834.64
544.82	57684.84
544.99	57565.48
545.16	57932.94
545.32	57296.31
545.49	57848.68
545.66	58054.65
545.83	57975.07
546.00	57715.27
546.16	57757.40
546.33	57872.09
546.50	57649.74
546.67	58064.01
546.83	57689.52
547.00	57879.11
547.17	57902.51
547.34	57972.73
547.50	58052.31
547.67	58354.24
547.84	58426.79
548.00	58433.81
548.17	58440.84
548.34	58272.32
548.51	58302.74
548.67	58525.10
548.84	58415.09
549.01	58195.08
549.18	58464.24
549.34	58368.28
549.51	58635.10
549.68	58714.68
549.84	58646.80
550.01	58614.04
550.18	58511.05
550.34	58585.95
550.51	58557.86
550.68	58712.34
550.84	58319.13
551.01	58770.85
551.18	58890.22
551.34	58766.17
551.51	58702.98
551.68	58770.85
551.84	58843.41
552.01	58541.48
552.18	58883.20
552.34	58883.20
552.51	58780.21
552.68	58691.27
552.84	58801.28
553.01	59035.33
553.18	59068.10
553.34	58962.78
553.51	59018.95
553.67	59040.01
553.84	59236.62
554.01	59285.77
554.17	59217.89
554.34	59203.85
554.51	59311.52
554.67	58993.20
554.84	59082.14
555.00	59178.10
555.17	59229.60
555.33	59236.62
555.50	59257.68
555.67	59215.55
555.83	59168.74
556.00	59381.73
556.16	59814.73
556.33	59557.27
556.50	59615.79
556.66	59473.01
556.83	59260.02
556.99	59533.87
557.16	59686.00
557.32	59700.04
557.49	59845.16
557.65	59456.63
557.82	59501.10
557.98	59346.62
558.15	59735.15
558.32	59599.40
558.48	59508.12
558.65	59611.10
558.81	59688.34
558.98	59655.57
559.14	59854.52
559.31	59877.93
559.47	59714.09
559.64	60044.10
559.80	59721.11
559.97	59997.29
560.13	59948.14
560.30	59929.42
560.46	59877.93
560.63	59985.59
560.79	60137.72
560.96	60147.09
561.12	60161.13
561.29	59980.91
561.45	60088.57
561.61	59980.91
561.78	59861.54
561.94	59913.03
562.11	60163.47
562.27	59990.27
562.44	60264.11
562.60	60353.05
562.77	60149.43
562.93	60046.44
563.10	60186.88
563.26	60259.43
563.42	60397.52
563.59	60217.30
563.75	60151.77
563.92	60254.75
564.08	60151.77
564.24	60350.71
564.41	60111.98
564.57	60306.24
564.74	60212.62
564.90	60432.63
565.07	60430.29
565.23	60240.71
565.39	60388.16
565.56	60301.56
565.72	60523.91
565.88	60163.47
566.05	60292.20
566.21	60322.63
566.38	60315.61
566.54	60591.79
566.70	60704.13
566.87	60479.44
567.03	60432.63
567.19	60568.38
567.36	60397.52
567.52	60528.59
567.68	60746.26
567.85	60626.90
568.01	60671.37
568.17	60526.25
568.34	60755.63
568.50	60559.02
568.66	60537.96
568.83	60544.98
568.99	60491.15
569.15	60582.43
569.32	60654.98
569.48	60690.09
569.64	60631.58
569.81	60846.91
569.97	60622.22
570.13	60676.05
570.30	60598.81
570.46	60774.35
570.62	60736.90
570.78	60645.62
570.95	60673.71
571.11	60891.38
571.27	60584.77
571.43	60940.53
571.60	60750.94
571.76	60814.14
571.92	60839.89
572.09	60666.69
572.25	60666.69
572.41	60807.12
572.57	60837.54
572.74	61050.53
572.90	60839.89
573.06	60921.80
573.22	60886.70
573.38	60851.59
573.55	60851.59
573.71	60931.17
573.87	60825.84
574.03	60786.05
574.20	60762.65
574.36	60980.32
574.52	60830.52
574.68	60959.25
574.84	60966.27
575.01	61179.26
575.17	60945.21
575.33	60734.56
575.49	60795.42
575.65	60879.67
575.82	60996.70
575.98	61048.19
576.14	61048.19
576.30	61179.26
576.46	60942.87
576.62	61083.30
576.79	60985.00
576.95	60830.52
577.11	61123.09
577.27	60959.25
577.43	60966.27
577.59	60837.54
577.75	61003.72
577.92	60818.82
578.08	60828.18
578.24	61052.87
578.40	61106.71
578.56	61226.07
578.72	61183.94
578.88	61284.59
579.04	61221.39
579.21	61034.15
579.37	61214.37
579.53	61354.80
579.69	60940.53
579.85	61066.92
580.01	60956.91
580.17	60877.33
580.33	61111.39
580.49	61359.48
580.65	61113.73
580.82	61064.58
580.98	60912.44
581.14	60797.76
581.30	61062.24
581.46	60961.59
581.62	61228.41
581.78	60992.02
581.94	61144.16
582.10	61006.06
582.26	61155.86
582.42	61043.51
582.58	61181.60
582.74	60924.14
582.90	61090.32
583.06	61153.52
583.22	61099.68
583.38	60952.23
583.54	61172.24
583.70	61244.80
583.86	61216.71
584.02	60898.40
584.18	61179.26
584.34	61139.47
584.50	61162.88
584.66	60968.61
584.82	61055.21
584.98	61186.28
585.14	61202.67
585.30	60872.65
585.46	61132.45
585.62	61226.07
585.78	61516.30
585.94	60954.57
586.10	61263.52
586.26	61123.09
586.42	61151.18
586.58	61382.89
586.74	61183.94
586.90	61099.68
587.06	61036.49
587.22	61296.29
587.38	61249.48
587.54	61282.25
587.70	61530.34
587.86	61247.14
588.02	61139.47
588.18	61680.14
588.34	61282.25
588.49	61141.81
