SpectraSuite Data File
++++++++++++++++++++++++++++++++++++
Date: Fri Oct 25 11:25:37 EDT 2013
User: price-jones
Dark Spectrum Present: No
Reference Spectrum Present: No
Number of Sampled Component Spectra: 1
Spectrometers: USB2+H05261
Integration Time (usec): 100000 (USB2+H05261)
Spectra Averaged: 1 (USB2+H05261)
Boxcar Smoothing: 0 (USB2+H05261)
Correct for Electrical Dark: No (USB2+H05261)
Strobe/Lamp Enabled: No (USB2+H05261)
Correct for Detector Non-linearity: No (USB2+H05261)
Correct for Stray Light: No (USB2+H05261)
Number of Pixels in Processed Spectrum: 2048
>>>>>Begin Processed Spectral Data<<<<<
365.73	212.99
365.92	212.99
366.12	212.99
366.32	102.98
366.52	63.19
366.72	147.45
366.91	93.62
367.11	210.65
367.31	131.07
367.51	145.11
367.70	65.54
367.90	173.20
368.10	128.73
368.30	191.92
368.49	117.03
368.69	154.48
368.89	147.45
369.09	117.03
369.28	217.67
369.48	166.18
369.68	177.88
369.87	173.20
370.07	224.69
370.27	266.82
370.47	311.29
370.66	608.54
370.86	617.90
371.06	681.10
371.25	704.50
371.45	655.35
371.65	678.76
371.84	711.52
372.04	648.33
372.24	720.88
372.44	688.12
372.63	718.54
372.83	678.76
373.03	772.38
373.22	685.78
373.42	695.14
373.62	823.87
373.81	849.61
374.01	760.67
374.21	807.48
374.40	837.91
374.60	807.48
374.79	784.08
374.99	884.72
375.19	723.23
375.38	760.67
375.58	849.61
375.78	877.70
375.97	863.66
376.17	849.61
376.37	807.48
376.56	866.00
376.76	837.91
376.95	851.96
377.15	842.59
377.35	954.94
377.54	887.06
377.74	882.38
377.93	863.66
378.13	884.72
378.33	894.08
378.52	894.08
378.72	917.49
378.91	924.51
379.11	917.49
379.31	968.98
379.50	985.37
379.70	880.04
379.89	980.68
380.09	1018.13
380.28	933.87
380.48	887.06
380.68	926.85
380.87	1011.11
381.07	945.58
381.26	1039.20
381.46	1104.73
381.65	1036.86
381.85	973.66
382.04	1046.22
382.24	943.24
382.43	1067.28
382.63	1107.07
382.83	1123.46
383.02	1118.78
383.22	1081.33
383.41	1114.10
383.61	1083.67
383.80	1060.26
384.00	1125.80
384.19	1142.18
384.39	1221.76
384.58	1128.14
384.78	1205.38
384.97	1130.48
385.17	1146.86
385.36	1179.63
385.56	1233.46
385.75	1093.03
385.95	1179.63
386.14	1196.01
386.34	1142.18
386.53	1228.78
386.72	1142.18
386.92	1217.08
387.11	1291.98
387.31	1259.21
387.50	1299.00
387.70	1254.53
387.89	1240.48
388.09	1214.74
388.28	1245.16
388.48	1277.93
388.67	1313.04
388.86	1334.11
389.06	1446.45
389.25	1352.83
389.45	1401.98
389.64	1310.70
389.84	1366.87
390.03	1397.30
390.22	1357.51
390.42	1390.28
390.61	1399.64
390.81	1362.19
391.00	1416.02
391.19	1373.89
391.39	1577.52
391.58	1411.34
391.78	1533.05
391.97	1490.92
392.16	1533.05
392.36	1551.78
392.55	1476.88
392.75	1462.83
392.94	1474.54
393.13	1577.52
393.33	1523.69
393.52	1537.73
393.71	1483.90
393.91	1537.73
394.10	1523.69
394.29	1521.35
394.49	1465.18
394.68	1645.40
394.88	1654.76
395.07	1624.33
395.26	1617.31
395.46	1589.22
395.65	1694.55
395.84	1687.53
396.04	1727.32
396.23	1762.42
396.42	1685.19
396.62	1792.85
396.81	1741.36
397.00	1760.08
397.19	1769.44
397.39	1753.06
397.58	1797.53
397.77	1790.51
397.97	1898.17
398.16	1837.32
398.35	1865.41
398.55	1785.83
398.74	1825.62
398.93	1888.81
399.12	1919.24
399.32	1923.92
399.51	1874.77
399.70	2036.27
399.90	1914.56
400.09	2012.86
400.28	2043.29
400.47	2062.01
400.67	2050.31
400.86	2064.35
401.05	2059.67
401.24	2083.08
401.44	2054.99
401.63	2094.78
401.82	2129.89
402.01	2230.53
402.21	2090.10
402.40	2167.34
402.59	2146.27
402.78	2195.42
402.97	2174.36
403.17	2251.60
403.36	2305.43
403.55	2307.77
403.74	2256.28
403.93	2258.62
404.13	2211.81
404.32	2253.94
404.51	2352.24
404.70	2392.03
404.89	2441.18
405.09	2509.05
405.28	2495.01
405.47	2431.82
405.66	2445.86
405.85	2525.44
406.05	2612.04
406.24	2506.71
406.43	2581.61
406.62	2675.23
406.81	2588.63
407.00	2551.18
407.20	2583.95
407.39	2555.86
407.58	2635.44
407.77	2661.19
407.96	2689.28
408.15	2761.83
408.34	2684.59
408.54	2750.13
408.73	2843.75
408.92	2700.98
409.11	2806.30
409.30	2892.90
409.49	2890.56
409.68	2974.82
409.87	2803.96
410.07	3019.29
410.26	2993.55
410.45	3077.80
410.64	3049.72
410.83	3108.23
411.02	3110.57
411.21	3061.42
411.40	3094.19
411.59	3335.26
411.78	3133.98
411.98	3152.70
412.17	3208.87
412.36	3267.39
412.55	3321.22
412.74	3396.12
412.93	3358.67
413.12	3286.11
413.31	3456.97
413.50	3527.19
413.69	3463.99
413.88	3674.64
414.07	3581.02
414.26	3583.36
414.45	3566.98
414.64	3562.30
414.83	3749.54
415.02	3805.71
415.22	3873.59
415.41	3761.24
415.60	3784.65
415.79	3899.33
415.98	3859.54
416.17	3941.46
416.36	3925.08
416.55	4098.28
416.74	3913.38
416.93	4028.06
417.12	4128.70
417.31	4100.62
417.50	4051.47
417.69	4273.82
417.88	4470.42
418.07	4304.25
418.26	4276.16
418.45	4208.28
418.64	4545.32
418.83	4491.49
419.02	4346.37
419.21	4482.13
419.39	4479.79
419.58	4578.09
419.77	4479.79
419.96	4521.92
420.15	4519.57
420.34	4667.03
420.53	4568.73
420.72	4720.86
420.91	4683.41
421.10	4690.43
421.29	4723.20
421.48	4819.16
421.67	4652.98
421.86	4765.33
422.05	4905.76
422.24	4648.30
422.43	4816.82
422.61	4863.63
422.80	4875.34
422.99	4929.17
423.18	4919.81
423.37	5048.54
423.56	4947.89
423.75	4912.78
423.94	4901.08
424.13	4739.58
424.32	4758.31
424.50	4964.28
424.69	5195.99
424.88	5289.61
425.07	4856.61
425.26	4952.57
425.45	5114.07
425.64	4802.78
425.83	4929.17
426.01	5074.28
426.20	5102.37
426.39	5013.43
426.58	5020.45
426.77	4992.36
426.96	5032.15
427.15	5151.52
427.33	5221.74
427.52	5313.02
427.71	5228.76
427.90	5064.92
428.09	5205.35
428.28	5425.36
428.46	5359.83
428.65	5298.97
428.84	5439.40
429.03	5446.43
429.22	5320.04
429.40	5390.25
429.59	5427.70
429.78	5259.18
429.97	5163.22
430.16	5591.54
430.34	5453.45
430.53	5767.08
430.72	5628.99
430.91	5673.46
431.10	5425.36
431.28	5696.86
431.47	5905.17
431.66	5830.27
431.85	5731.97
432.03	5884.11
432.22	5846.66
432.41	5870.06
432.60	5856.02
432.79	6003.47
432.97	5886.45
433.16	5893.47
433.35	5909.85
433.54	6005.81
433.72	5888.79
433.91	6099.44
434.10	6218.80
434.28	5961.34
434.47	6296.04
434.66	6242.21
434.85	6223.48
435.03	6431.79
435.22	6188.38
435.41	6345.19
435.59	6256.25
435.78	6354.55
435.97	6422.43
436.16	6403.71
436.34	6354.55
436.53	6539.46
436.72	6740.74
436.90	6452.86
437.09	6778.19
437.28	6399.02
437.46	6466.90
437.65	6567.54
437.84	6874.15
438.02	6647.12
438.21	6736.06
438.40	6651.80
438.58	6848.41
438.77	6986.50
438.96	6995.86
439.14	7007.56
439.33	7183.10
439.52	7117.57
439.70	7185.44
439.89	7265.02
440.08	7379.71
440.26	7522.48
440.45	7377.37
440.63	7550.57
440.82	7440.56
441.01	7651.21
441.19	7700.36
441.38	7552.91
441.57	7714.41
441.75	7871.22
441.94	7911.01
442.12	7906.33
442.31	7983.57
442.50	7964.84
442.68	8006.97
442.87	7779.94
443.05	8112.30
443.24	8119.32
443.43	8231.66
443.61	8060.80
443.80	8376.78
443.98	8201.24
444.17	7913.35
444.35	8255.07
444.54	8285.50
444.73	8222.30
444.91	8395.50
445.10	8322.94
445.28	8276.13
445.47	8170.81
445.65	8231.66
445.84	8276.13
446.02	8369.76
446.21	8322.94
446.39	8297.20
446.58	8374.44
446.77	8367.42
446.95	8217.62
447.14	8313.58
447.32	8659.98
447.51	8442.31
447.69	8439.97
447.88	8311.24
448.06	8585.08
448.25	8432.95
448.43	8409.54
448.62	8353.37
448.80	8442.31
448.99	8552.32
449.17	8531.25
449.36	8528.91
449.54	9118.73
449.73	8999.36
449.91	9156.18
450.10	8959.57
450.28	9132.77
450.46	9125.75
450.65	8905.74
450.83	9020.42
451.02	9060.21
451.20	9219.37
451.39	9137.45
451.57	8952.55
451.76	9149.15
451.94	9212.35
452.13	9268.52
452.31	9266.18
452.49	9195.96
452.68	9221.71
452.86	9202.99
453.05	9469.81
453.23	9495.55
453.42	9252.14
453.60	9121.07
453.78	9511.94
453.97	9437.04
454.15	9558.75
454.34	9523.64
454.52	9731.95
454.70	9430.02
454.89	9811.53
455.07	9692.16
455.26	9717.90
455.44	10015.15
455.62	10061.96
455.81	9898.13
455.99	10038.56
456.17	10076.01
456.36	9870.04
456.54	10134.52
456.73	10134.52
456.91	10359.21
457.09	10256.23
457.28	10363.89
457.46	10452.83
457.64	10611.99
457.83	10403.68
458.01	10307.72
458.19	10431.77
458.38	10406.02
458.56	10754.76
458.74	10909.24
458.93	10565.18
459.11	10614.33
459.29	10703.27
459.48	10799.23
459.66	10611.99
459.84	11040.31
460.03	11204.14
460.21	11033.29
460.39	10932.64
460.57	10974.77
460.76	11026.26
460.94	10876.47
461.12	11105.84
461.31	11138.61
461.49	11227.55
461.67	11068.39
461.85	11351.60
462.04	11372.66
462.22	11868.86
462.40	11485.01
462.59	11405.43
462.77	11513.10
462.95	11611.40
463.13	11632.46
463.32	11520.12
463.50	11772.89
463.68	11667.57
463.86	11948.43
464.05	11613.74
464.23	11625.44
464.41	11782.26
464.59	11674.59
464.78	12042.06
464.96	11934.39
465.14	11960.14
465.32	11950.78
465.50	12100.57
465.69	12243.34
465.87	12044.40
466.05	12053.76
466.23	12168.45
466.41	12226.96
466.60	12411.86
466.78	12084.19
466.96	12273.77
467.14	12390.80
467.32	12407.18
467.51	12587.40
467.69	12042.06
467.87	12402.50
468.05	12594.42
468.23	12468.03
468.41	12425.90
468.60	12615.49
468.78	12720.81
468.96	12791.03
469.14	12622.51
469.32	12819.11
469.50	12418.88
469.69	12886.99
469.87	13226.37
470.05	12786.35
470.23	12922.10
470.41	12961.89
470.59	13322.33
470.77	13217.01
470.95	13142.11
471.14	13345.73
471.32	13331.69
471.50	13371.48
471.68	13420.63
471.86	13671.07
472.04	13790.44
472.22	13736.60
472.40	13474.46
472.58	13888.74
472.77	13954.27
472.95	13888.74
473.13	14504.30
473.31	14125.13
473.49	13947.25
473.67	14036.19
473.85	14223.44
474.03	14513.66
474.21	14347.48
474.39	14890.49
474.57	14691.54
474.75	14696.22
474.93	15094.11
475.12	14721.97
475.30	15101.14
475.48	15218.16
475.66	15194.76
475.84	15051.99
476.02	15321.15
476.20	15463.92
476.38	15852.45
476.56	16009.26
476.74	15782.23
476.92	15747.12
477.10	15623.08
477.28	16292.47
477.46	16243.32
477.64	16156.72
477.82	16578.01
478.00	16886.97
478.18	16643.55
478.36	16781.64
478.54	17081.23
478.72	17001.65
478.90	17287.20
479.08	17692.11
479.26	17642.96
479.44	17834.88
479.62	17661.68
479.80	18003.40
479.98	17975.31
480.16	18590.88
480.34	18457.46
480.52	18455.12
480.70	18623.64
480.88	18384.91
481.06	18483.21
481.24	18714.92
481.41	19204.10
481.59	19295.38
481.77	19475.60
481.95	19232.18
482.13	19508.37
482.31	19908.60
482.49	20025.62
482.67	20329.89
482.85	20273.72
483.03	20372.02
483.21	20669.27
483.39	20755.87
483.57	20793.32
483.74	20847.15
483.92	21488.46
484.10	21188.87
484.28	21591.44
484.46	21673.36
484.64	22157.85
484.82	22190.62
485.00	22244.45
485.18	22483.19
485.35	22682.13
485.53	22670.43
485.71	23065.98
485.89	23421.74
486.07	23421.74
486.25	23283.65
486.43	23529.41
486.61	24177.73
486.78	24308.80
486.96	24210.50
487.14	24332.21
487.32	24301.78
487.50	24746.48
487.68	25092.88
487.85	25163.10
488.03	25488.43
488.21	25701.42
488.39	25823.13
488.57	26047.82
488.75	26178.89
488.92	26272.51
489.10	26618.91
489.28	26565.08
489.46	27133.83
489.64	27037.87
489.81	27480.23
489.99	27929.61
490.17	27573.85
490.35	27828.97
490.53	28046.64
490.70	28526.45
490.88	27878.12
491.06	29095.20
491.24	28929.02
491.41	28996.90
491.59	29441.60
491.77	29212.23
491.95	29427.56
492.13	29792.68
492.30	29680.33
492.48	29818.42
492.66	30391.86
492.84	30356.75
493.01	30494.84
493.19	30431.65
493.37	30979.33
493.54	30995.71
493.72	31887.46
493.90	31358.50
494.08	31828.95
494.25	31819.58
494.43	31831.29
494.61	31948.31
494.79	32561.53
494.96	32041.93
495.14	32690.26
495.32	32994.53
495.49	33280.08
495.67	33097.52
495.85	33017.94
496.02	33558.60
496.20	33865.21
496.38	33928.41
496.55	33797.34
496.73	34881.00
496.91	34464.39
497.09	34946.54
497.26	35028.46
497.44	34799.08
497.62	35370.18
497.79	35859.35
497.97	35599.55
498.14	36037.23
498.32	36299.37
498.50	36098.08
498.67	36400.01
498.85	36013.82
499.03	36769.82
499.20	36739.39
499.38	36811.95
499.56	36790.88
499.73	36884.50
499.91	37270.69
500.08	37804.33
500.26	37357.29
500.44	37350.27
500.61	37853.48
500.79	37317.50
500.97	37706.03
501.14	38555.64
501.32	38410.53
501.49	38799.06
501.67	38426.92
501.84	38469.04
502.02	38983.96
502.20	38665.65
502.37	38843.53
502.55	39725.91
502.72	39213.34
502.90	39203.97
503.07	39431.01
503.25	39824.22
503.43	39662.72
503.60	40123.80
503.78	39906.13
503.95	40100.40
504.13	40226.79
504.30	40285.30
504.48	40821.28
504.65	40285.30
504.83	40865.75
505.01	41607.70
505.18	40994.48
505.36	41273.01
505.53	41085.76
505.71	41488.34
505.88	41626.43
506.06	41195.77
506.23	41801.97
506.41	41563.23
506.58	41794.95
506.76	42017.30
506.93	42529.87
507.11	42384.76
507.28	41907.29
507.46	42323.91
507.63	42511.15
507.81	43210.97
507.98	42604.77
508.16	42754.57
508.33	43227.35
508.50	43423.96
508.68	43704.82
508.85	43461.41
509.03	43728.23
509.20	43791.42
509.38	44280.60
509.55	44069.95
509.73	44287.62
509.90	44189.31
510.08	44369.54
510.25	44643.38
510.42	44856.37
510.60	44776.79
510.77	45345.54
510.95	45132.55
511.12	44886.79
511.30	45209.79
511.47	45256.60
511.64	44985.10
511.82	45427.46
511.99	45413.41
512.17	45640.45
512.34	45823.01
512.51	46080.47
512.69	46146.00
512.86	46134.30
513.04	46490.06
513.21	46686.67
513.38	46501.76
513.56	47086.90
513.73	46855.18
513.90	46890.29
514.08	46637.51
514.25	47419.25
514.43	47114.98
514.60	47248.39
514.77	47334.99
514.95	47620.54
515.12	47133.71
515.29	47456.70
515.47	47838.21
515.64	47412.23
515.81	47849.91
515.99	48245.46
516.16	48154.18
516.33	48264.19
516.51	48488.88
516.68	48404.62
516.85	48177.59
517.03	48687.82
517.20	48509.94
517.37	48720.59
517.54	48720.59
517.72	48786.13
517.89	48926.56
518.06	48879.75
518.24	49118.48
518.41	49202.74
518.58	49132.53
518.75	49095.08
518.93	49357.22
519.10	49364.24
519.27	49925.97
519.45	49523.40
519.62	49853.41
519.79	49813.62
519.96	49722.34
520.14	50155.34
520.31	49558.50
520.48	50417.48
520.65	50157.68
520.83	50405.78
521.00	50607.06
521.17	50759.20
521.34	50553.23
521.52	50401.10
521.69	50684.30
521.86	51049.42
522.03	51075.17
522.20	51061.13
522.38	51395.82
522.55	50993.25
522.72	51311.56
522.89	51344.33
523.07	51416.89
523.24	51405.19
523.41	51569.02
523.58	51363.06
523.75	51636.90
523.92	51681.37
524.10	51782.01
524.27	51620.52
524.44	51929.47
524.61	51903.72
524.78	51915.42
524.96	51831.16
525.13	52313.31
525.30	52563.75
525.47	52325.02
525.64	52350.76
525.81	52388.21
525.98	52385.87
526.16	52425.66
526.33	52631.63
526.50	52750.99
526.67	52760.36
526.84	52905.47
527.01	52870.36
527.18	52858.66
527.36	52683.12
527.53	52685.46
527.70	53249.53
527.87	53338.47
528.04	53146.54
528.21	53263.57
528.38	53097.39
528.55	53586.57
528.72	53195.70
528.89	53399.32
529.07	53296.34
529.24	53614.65
529.41	53741.04
529.58	53572.52
529.75	53401.66
529.92	53682.53
530.09	53904.88
530.26	53869.77
530.43	53900.20
530.60	53495.28
530.77	53464.86
530.94	53911.90
531.11	53785.51
531.28	53932.96
531.46	54035.95
531.63	54410.43
531.80	54017.22
531.97	54461.93
532.14	54244.26
532.31	54410.43
532.48	54508.74
532.65	54305.11
532.82	54471.29
532.99	54597.68
533.16	54246.60
533.33	54522.78
533.50	54831.73
533.67	54504.06
533.84	54499.37
534.01	54600.02
534.18	54908.97
534.35	55128.98
534.52	55037.70
534.69	54965.14
534.86	55330.26
535.03	54944.08
535.20	54838.75
535.37	55351.33
535.54	55173.45
535.71	55040.04
535.88	55440.27
536.05	55180.47
536.22	55484.74
536.38	55641.56
536.55	55323.24
536.72	55489.42
536.89	55423.89
537.06	55419.20
537.23	55524.53
537.40	55639.22
537.57	55966.89
537.74	55840.50
537.91	55730.50
538.08	55789.01
538.25	55711.77
538.42	55760.92
538.59	56062.85
538.75	55938.80
538.92	55674.32
539.09	56224.35
539.26	56182.22
539.43	56102.64
539.60	56397.55
539.77	56137.75
539.94	56357.76
540.11	56233.71
540.28	56491.17
540.44	56420.95
540.61	56472.45
540.78	56313.29
540.95	56465.42
541.12	56360.10
541.29	56500.53
541.46	56416.27
541.62	56626.92
541.79	56526.28
541.96	56432.66
542.13	56299.25
542.30	56657.35
542.47	56664.37
542.63	56671.39
542.80	57083.33
542.97	57080.98
543.14	57139.50
543.31	57038.86
543.48	57134.82
543.64	57513.98
543.81	57200.35
543.98	57240.14
544.15	57228.44
544.32	57291.63
544.48	57490.58
544.65	57230.78
544.82	57352.49
544.99	57118.43
545.16	57270.57
545.32	57125.46
545.49	57542.07
545.66	57939.96
545.83	57485.90
546.00	57549.09
546.16	57759.74
546.33	57441.43
546.50	57394.62
546.67	57584.20
546.83	57565.48
547.00	57577.18
547.17	57268.23
547.34	57701.23
547.50	57663.78
547.67	58148.27
547.84	57932.94
548.00	57883.79
548.17	58148.27
548.34	57904.85
548.51	58251.25
548.67	58230.19
548.84	57939.96
549.01	58145.93
549.18	58028.90
549.34	58176.36
549.51	58269.98
549.68	58262.96
549.84	58351.90
550.01	58241.89
550.18	58206.78
550.34	58382.32
550.51	58419.77
550.68	58401.05
550.84	58162.31
551.01	58532.12
551.18	58075.71
551.34	58227.85
551.51	58684.25
551.68	58534.46
551.84	58529.78
552.01	58426.79
552.18	58625.74
552.34	58277.00
552.51	58625.74
552.68	58480.63
552.84	58686.59
553.01	58979.16
553.18	58356.58
553.34	58735.74
553.51	58705.32
553.67	58660.85
553.84	58740.42
554.01	58803.62
554.17	59049.38
554.34	58951.07
554.51	58815.32
554.67	58960.44
554.84	58805.96
555.00	59089.16
555.17	58829.37
555.33	58979.16
555.50	58939.37
555.67	58824.68
555.83	58937.03
556.00	59044.69
556.16	59454.29
556.33	59194.49
556.50	58976.82
556.66	59241.30
556.83	59210.87
556.99	59494.08
557.16	59348.96
557.32	59398.12
557.49	59496.42
557.65	59271.73
557.82	59433.22
557.98	59515.14
558.15	59302.15
558.32	59465.99
558.48	59313.86
558.65	59372.37
558.81	59346.62
558.98	59580.68
559.14	59681.32
559.31	59524.50
559.47	59468.33
559.64	59487.06
559.80	59515.14
559.97	59456.63
560.13	59480.03
560.30	59517.48
560.46	59648.55
560.63	59641.53
560.79	59550.25
560.96	59774.94
561.12	59702.38
561.29	59709.41
561.45	59707.07
561.61	59798.35
561.78	59662.60
561.94	60006.65
562.11	59625.15
562.27	59746.86
562.44	59817.07
562.60	59997.29
562.77	59718.77
562.93	59779.62
563.10	60111.98
563.26	59896.65
563.42	60095.60
563.59	59793.67
563.75	59812.39
563.92	60027.72
564.08	60027.72
564.24	60184.54
564.41	60067.51
564.57	59943.46
564.74	60133.04
564.90	60163.47
565.07	59929.42
565.23	60142.41
565.39	60072.19
565.56	60102.62
565.72	60261.77
565.88	60168.15
566.05	60121.34
566.21	60217.30
566.38	60219.64
566.54	60069.85
566.70	60425.61
566.87	60364.76
567.03	59990.27
567.19	60334.33
567.36	60221.98
567.52	60313.26
567.68	60662.00
567.85	60397.52
568.01	60324.97
568.17	60229.01
568.34	60547.32
568.50	60327.31
568.66	60278.16
568.83	60486.46
568.99	60355.39
569.15	60177.51
569.32	60383.48
569.48	60535.62
569.64	60554.34
569.81	60552.00
569.97	60254.75
570.13	60420.93
570.30	60364.76
570.46	60252.41
570.62	60446.68
570.78	60530.93
570.95	60376.46
571.11	60605.83
571.27	60385.82
571.43	60388.16
571.60	60666.69
571.76	60257.09
571.92	60601.15
572.09	60706.47
572.25	60591.79
572.41	60247.73
572.57	60388.16
572.74	60650.30
572.90	60451.36
573.06	60699.45
573.22	60409.23
573.38	60591.79
573.55	60413.91
573.71	60748.60
573.87	60549.66
574.03	60526.25
574.20	60652.64
574.36	60418.59
574.52	60720.52
574.68	60603.49
574.84	60800.10
575.01	60687.75
575.17	60617.53
575.33	60645.62
575.49	60636.26
575.65	60704.13
575.82	60713.50
575.98	60793.07
576.14	60844.57
576.30	60544.98
576.46	60605.83
576.62	60755.63
576.79	60769.67
576.95	60589.45
577.11	60608.17
577.27	60624.56
577.43	60559.02
577.59	60732.22
577.75	60664.35
577.92	60666.69
578.08	60736.90
578.24	60874.99
578.40	60846.91
578.56	60982.66
578.72	60647.96
578.88	60970.96
579.04	60863.29
579.21	60722.86
579.37	61095.00
579.53	60961.59
579.69	60636.26
579.85	60788.39
580.01	60790.73
580.17	60736.90
580.33	60879.67
580.49	60952.23
580.65	60788.39
580.82	60701.79
580.98	60903.08
581.14	60802.44
581.30	60996.70
581.46	60636.26
581.62	60839.89
581.78	60786.05
581.94	60938.19
582.10	60786.05
582.26	60839.89
582.42	60772.01
582.58	60849.25
582.74	60945.21
582.90	60889.04
583.06	60720.52
583.22	60542.64
583.38	61123.09
583.54	60860.95
583.70	60999.04
583.86	60874.99
584.02	60779.03
584.18	60903.08
584.34	60814.14
584.50	60996.70
584.66	60608.17
584.82	60863.29
584.98	60898.40
585.14	60966.27
585.30	60779.03
585.46	60940.53
585.62	60996.70
585.78	60982.66
585.94	60994.36
586.10	60891.38
586.26	60853.93
586.42	60970.96
586.58	60921.80
586.74	61010.74
586.90	60905.42
587.06	60893.72
587.22	61176.92
587.38	61085.64
587.54	60977.98
587.70	61181.60
587.86	60846.91
588.02	61050.53
588.18	61008.40
588.34	60980.32
588.49	61020.11
