SpectraSuite Data File
++++++++++++++++++++++++++++++++++++
Date: Fri Oct 25 10:43:23 EDT 2013
User: price-jones
Dark Spectrum Present: No
Reference Spectrum Present: No
Number of Sampled Component Spectra: 1
Spectrometers: USB2+H05261
Integration Time (usec): 100000 (USB2+H05261)
Spectra Averaged: 1 (USB2+H05261)
Boxcar Smoothing: 0 (USB2+H05261)
Correct for Electrical Dark: No (USB2+H05261)
Strobe/Lamp Enabled: No (USB2+H05261)
Correct for Detector Non-linearity: No (USB2+H05261)
Correct for Stray Light: No (USB2+H05261)
Number of Pixels in Processed Spectrum: 2048
>>>>>Begin Processed Spectral Data<<<<<
365.73	147.45
365.92	147.45
366.12	147.45
366.32	9.36
366.52	70.22
366.72	18.72
366.91	42.13
367.11	0.00
367.31	0.00
367.51	0.00
367.70	4.68
367.90	88.94
368.10	49.15
368.30	133.41
368.49	35.11
368.69	30.43
368.89	74.90
369.09	28.09
369.28	100.64
369.48	16.38
369.68	74.90
369.87	42.13
370.07	56.17
370.27	131.07
370.47	227.03
370.66	411.93
370.86	390.87
371.06	383.85
371.25	486.83
371.45	435.34
371.65	484.49
371.84	430.66
372.04	451.72
372.24	449.38
372.44	566.41
372.63	463.43
372.83	421.30
373.03	531.30
373.22	489.17
373.42	496.19
373.62	510.24
373.81	533.64
374.01	582.79
374.21	559.39
374.40	582.79
374.60	594.50
374.79	517.26
374.99	571.09
375.19	524.28
375.38	531.30
375.58	599.18
375.78	641.31
375.97	599.18
376.17	648.33
376.37	599.18
376.56	592.16
376.76	617.90
376.95	564.07
377.15	660.03
377.35	648.33
377.54	638.97
377.74	606.20
377.93	695.14
378.13	664.71
378.33	636.63
378.52	587.47
378.72	692.80
378.91	667.05
379.11	695.14
379.31	685.78
379.50	643.65
379.70	739.61
379.89	627.26
380.09	720.88
380.28	664.71
380.48	699.82
380.68	685.78
380.87	781.74
381.07	734.93
381.26	709.18
381.46	718.54
381.65	819.19
381.85	739.61
382.04	610.88
382.24	699.82
382.43	727.91
382.63	695.14
382.83	664.71
383.02	667.05
383.22	758.33
383.41	688.12
383.61	718.54
383.80	767.70
384.00	732.59
384.19	791.10
384.39	751.31
384.58	784.08
384.78	774.72
384.97	842.59
385.17	786.42
385.36	812.17
385.56	702.16
385.75	814.51
385.95	777.06
386.14	772.38
386.34	884.72
386.53	840.25
386.72	807.48
386.92	882.38
387.11	896.43
387.31	908.13
387.50	880.04
387.70	840.25
387.89	835.57
388.09	912.81
388.28	931.53
388.48	903.45
388.67	866.00
388.86	947.92
389.06	957.28
389.25	959.62
389.45	945.58
389.64	945.58
389.84	1008.77
390.03	985.37
390.22	1029.84
390.42	1046.22
390.61	985.37
390.81	992.39
391.00	968.98
391.19	1109.41
391.39	1048.56
391.58	1004.09
391.78	1055.58
391.97	997.07
392.16	940.90
392.36	1050.90
392.55	1006.43
392.75	952.60
392.94	1039.20
393.13	1013.45
393.33	1022.81
393.52	1064.94
393.71	1146.86
393.91	1132.82
394.10	1153.88
394.29	1067.28
394.49	1151.54
394.68	1207.72
394.88	1231.12
395.07	1284.95
395.26	1188.99
395.46	1200.69
395.65	1343.47
395.84	1198.35
396.04	1306.02
396.23	1188.99
396.42	1219.42
396.62	1170.27
396.81	1235.80
397.00	1191.33
397.19	1266.23
397.39	1291.98
397.58	1364.53
397.77	1432.41
397.97	1416.02
398.16	1444.11
398.35	1352.83
398.55	1399.64
398.74	1479.22
398.93	1542.41
399.12	1516.67
399.32	1516.67
399.51	1544.75
399.70	1575.18
399.90	1521.35
400.09	1504.96
400.28	1584.54
400.47	1710.93
400.67	1624.33
400.86	1600.93
401.05	1631.35
401.24	1696.89
401.44	1682.85
401.63	1741.36
401.82	1668.80
402.01	1750.72
402.21	1692.21
402.40	1708.59
402.59	1774.13
402.78	1706.25
402.97	1722.63
403.17	1823.28
403.36	1844.34
403.55	1881.79
403.74	1865.41
403.93	1935.62
404.13	1956.69
404.32	1858.39
404.51	1900.52
404.70	2001.16
404.89	1902.86
405.09	1956.69
405.28	1968.39
405.47	2050.31
405.66	2040.95
405.85	1994.14
406.05	2073.71
406.24	1966.05
406.43	2080.74
406.62	2052.65
406.81	2204.78
407.00	2076.06
407.20	2129.89
407.39	1980.09
407.58	2106.48
407.77	2249.25
407.96	2195.42
408.15	2188.40
408.34	2260.96
408.54	2221.17
408.73	2354.58
408.92	2321.81
409.11	2263.30
409.30	2235.21
409.49	2298.41
409.68	2342.88
409.87	2256.28
410.07	2392.03
410.26	2228.19
410.45	2495.01
410.64	2392.03
410.83	2478.63
411.02	2525.44
411.21	2630.76
411.40	2588.63
411.59	2670.55
411.78	2626.08
411.98	2612.04
412.17	2712.68
412.36	2619.06
412.55	2572.25
412.74	2717.36
412.93	2789.92
413.12	2789.92
413.31	2822.69
413.50	2733.75
413.69	2878.86
413.88	2953.76
414.07	2808.64
414.26	2855.45
414.45	2977.16
414.64	2993.55
414.83	2932.69
415.02	3061.42
415.22	3126.96
415.41	3187.81
415.60	3059.08
415.79	3176.11
415.98	3290.79
416.17	3321.22
416.36	3204.19
416.55	3286.11
416.74	3328.24
416.93	3253.34
417.12	3330.58
417.31	3321.22
417.50	3421.86
417.69	3449.95
417.88	3382.07
418.07	3414.84
418.26	3510.80
418.45	3637.19
418.64	3641.87
418.83	3623.15
419.02	3499.10
419.21	3700.39
419.39	3482.72
419.58	3520.17
419.77	3536.55
419.96	3595.06
420.15	3808.05
420.34	3772.94
420.53	3698.05
420.72	3889.97
420.91	3946.14
421.10	3826.78
421.29	3946.14
421.48	3887.63
421.67	3866.56
421.86	3674.64
422.05	3829.12
422.24	3871.25
422.43	3630.17
422.61	3843.16
422.80	3794.01
422.99	3852.52
423.18	3995.29
423.37	4060.83
423.56	4021.04
423.75	3882.95
423.94	4004.66
424.13	3714.43
424.32	3726.13
424.50	4016.36
424.69	4011.68
424.88	3992.95
425.07	3899.33
425.26	3906.35
425.45	3953.16
425.64	4011.68
425.83	3955.51
426.01	4081.89
426.20	4053.81
426.39	4046.79
426.58	3894.65
426.77	3988.27
426.96	3934.44
427.15	4173.18
427.33	4077.21
427.52	4039.76
427.71	4152.11
427.90	4189.56
428.09	4215.30
428.28	4079.55
428.46	4142.75
428.65	4182.54
428.84	4250.41
429.03	4252.75
429.22	4236.37
429.40	4145.09
429.59	4105.30
429.78	3997.64
429.97	3962.53
430.16	3985.93
430.34	4180.20
430.53	4224.67
430.72	4287.86
430.91	4332.33
431.10	4304.25
431.28	4559.36
431.47	4547.66
431.66	4578.09
431.85	4690.43
432.03	4557.02
432.22	4699.80
432.41	4587.45
432.60	4652.98
432.79	4795.76
432.97	4676.39
433.16	4744.27
433.35	4638.94
433.54	4510.21
433.72	4603.83
433.91	4819.16
434.10	4760.65
434.28	4835.55
434.47	4971.30
434.66	4952.57
434.85	4931.51
435.03	5053.22
435.22	4947.89
435.41	5067.26
435.59	5069.60
435.78	5172.58
435.97	5259.18
436.16	5163.22
436.34	5107.05
436.53	5181.95
436.72	5310.68
436.90	5085.98
437.09	5144.50
437.28	5128.11
437.46	5149.18
437.65	5268.55
437.84	5261.52
438.02	5256.84
438.21	5142.16
438.40	5160.88
438.58	5350.46
438.77	5343.44
438.96	5507.28
439.14	5437.06
439.33	5565.79
439.52	5722.61
439.70	5535.37
439.89	5680.48
440.08	5516.64
440.26	5591.54
440.45	5600.90
440.63	5963.68
440.82	6120.50
441.01	5797.51
441.19	5989.43
441.38	6277.32
441.57	6174.33
441.75	6272.64
441.94	6244.55
442.12	6431.79
442.31	6464.56
442.50	6349.87
442.68	6434.13
442.87	6193.06
443.05	6380.30
443.24	6607.33
443.43	6551.16
443.61	6593.29
443.80	6719.68
443.98	6282.00
444.17	6305.40
444.35	6658.82
444.54	6609.67
444.73	6668.19
444.91	6335.83
445.10	6593.29
445.28	6342.85
445.47	6328.81
445.65	6476.26
445.84	6497.33
446.02	6743.08
446.21	6551.16
446.39	6473.92
446.58	6595.63
446.77	6429.45
446.95	6513.71
447.14	6633.08
447.32	6738.40
447.51	6677.55
447.69	6675.21
447.88	6642.44
448.06	6700.95
448.25	6682.23
448.43	6715.00
448.62	6715.00
448.80	6754.79
448.99	6848.41
449.17	6888.20
449.36	6801.60
449.54	6878.83
449.73	7063.74
449.91	7028.63
450.10	7103.53
450.28	7283.75
450.46	7344.60
450.65	7190.13
450.83	7103.53
451.02	7150.34
451.20	7426.52
451.39	7274.38
451.57	7375.03
451.76	7143.32
451.94	7155.02
452.13	7349.28
452.31	7272.04
452.49	7117.57
452.68	7307.15
452.86	7265.02
453.05	7279.07
453.23	7492.05
453.42	7215.87
453.60	7435.88
453.78	7379.71
453.97	7215.87
454.15	7571.63
454.34	7379.71
454.52	7665.25
454.70	7428.86
454.89	7569.29
455.07	7391.41
455.26	7726.11
455.44	7978.89
455.62	7674.62
455.81	7681.64
455.99	7662.91
456.17	7803.35
456.36	8049.10
456.54	7873.56
456.73	8093.57
456.91	8147.40
457.09	8023.36
457.28	8465.72
457.46	7878.24
457.64	8116.98
457.83	8109.96
458.01	8053.78
458.19	8325.29
458.38	8077.19
458.56	8374.44
458.74	8163.79
458.93	8170.81
459.11	8234.00
459.29	8379.12
459.48	8484.44
459.66	8379.12
459.84	8187.19
460.03	8587.43
460.21	8400.18
460.39	8379.12
460.57	8608.49
460.76	8706.79
460.94	8795.73
461.12	8667.00
461.31	8755.94
461.49	8676.37
461.67	8727.86
461.85	8954.89
462.04	8758.28
462.22	9212.35
462.40	9069.58
462.59	8889.35
462.77	8879.99
462.95	9125.75
463.13	9132.77
463.32	9027.45
463.50	8863.61
463.68	9069.58
463.86	9090.64
464.05	8875.31
464.23	8957.23
464.41	8910.42
464.59	9001.70
464.78	9177.24
464.96	8971.27
465.14	9067.24
465.32	9252.14
465.50	9406.61
465.69	9324.69
465.87	9380.87
466.05	9266.18
466.23	9198.31
466.41	9214.69
466.60	9397.25
466.78	9362.14
466.96	9231.07
467.14	9303.63
467.32	9352.78
467.51	9266.18
467.69	9331.72
467.87	9387.89
468.05	9696.84
468.23	9486.19
468.41	9497.89
468.60	9579.81
468.78	9664.07
468.96	9352.78
469.14	9551.73
469.32	9832.59
469.50	9558.75
469.69	9797.48
469.87	9886.42
470.05	9762.37
470.23	9738.97
470.41	9724.93
470.59	10057.28
470.77	9863.02
470.95	10045.58
471.14	10155.58
471.32	10010.47
471.50	10317.08
471.68	10251.55
471.86	10162.61
472.04	10321.76
472.22	10675.18
472.40	10059.62
472.58	10413.04
472.77	10597.95
472.95	10644.76
473.13	10792.21
473.31	10661.14
473.49	10448.15
473.67	10548.79
473.85	10661.14
474.03	11033.29
474.21	10939.66
474.39	11066.05
474.57	11070.73
474.75	11126.91
474.93	11112.86
475.12	11194.78
475.30	11208.83
475.48	10970.09
475.66	11379.68
475.84	11101.16
476.02	11541.18
476.20	11538.84
476.38	11578.63
476.56	12084.19
476.74	11978.86
476.92	11686.29
477.10	11854.81
477.28	12329.94
477.46	12133.34
477.64	12032.69
477.82	12060.78
478.00	12470.37
478.18	12587.40
478.36	12456.33
478.54	12739.54
478.72	12652.94
478.90	13076.57
479.08	13071.89
479.26	13064.87
479.44	13268.50
479.62	13317.65
479.80	13334.03
479.98	13570.43
480.16	13668.73
480.34	13645.32
480.52	13612.56
480.70	13659.37
480.88	13659.37
481.06	13760.01
481.24	14104.07
481.41	14001.08
481.59	14640.05
481.77	14270.25
481.95	14593.24
482.13	14560.47
482.31	14572.18
482.49	15110.50
482.67	14836.66
482.85	15119.86
483.03	15007.52
483.21	15295.40
483.39	15484.98
483.57	15126.88
483.74	15529.45
483.92	15866.49
484.10	15555.20
484.28	15910.96
484.46	16065.44
484.64	16425.88
484.82	16077.14
485.00	16362.69
485.18	16376.73
485.35	16517.16
485.53	16245.66
485.71	16173.10
485.89	16575.67
486.07	16292.47
486.25	16879.94
486.43	16954.84
486.61	17088.25
486.78	17158.47
486.96	17486.14
487.14	17666.36
487.32	17872.33
487.50	17972.97
487.68	18256.18
487.85	18473.85
488.03	18410.65
488.21	18480.87
488.39	18670.45
488.57	18759.39
488.75	18845.99
488.92	19246.23
489.10	19414.74
489.28	19604.33
489.46	19913.28
489.64	19564.54
489.81	20044.35
489.99	20156.69
490.17	20238.61
490.35	20704.38
490.53	20388.41
490.70	20056.05
490.88	20713.74
491.06	20889.28
491.24	20582.67
491.41	20978.22
491.59	20858.85
491.77	20886.94
491.95	21420.58
492.13	21289.51
492.30	21631.23
492.48	21839.54
492.66	21916.78
492.84	21968.27
493.01	22015.08
493.19	21884.01
493.37	22183.60
493.54	22279.56
493.72	22661.07
493.90	22560.42
494.08	22738.30
494.25	23119.81
494.43	23183.01
494.61	23417.06
494.79	23536.43
494.96	23733.03
495.14	23461.53
495.32	23662.82
495.49	23489.62
495.67	23833.68
495.85	23896.87
496.02	24219.86
496.20	24341.57
496.38	24610.73
496.55	24369.66
496.73	25001.60
496.91	24699.67
497.09	25160.76
497.26	25113.95
497.44	24952.45
497.62	24933.73
497.79	25256.72
497.97	25238.00
498.14	25516.52
498.32	25514.18
498.50	25422.90
498.67	25954.20
498.85	26340.39
499.03	26298.26
499.20	26005.69
499.38	26712.53
499.56	26415.29
499.73	26698.49
499.91	26717.22
500.08	26691.47
500.26	26314.64
500.44	26466.78
500.61	26813.18
500.79	26785.09
500.97	26747.64
501.14	26827.22
501.32	26787.43
501.49	27358.52
501.67	27171.28
501.84	27227.45
502.02	27468.53
502.20	27723.65
502.37	27723.65
502.55	27737.69
502.72	28374.31
502.90	27805.56
503.07	27915.57
503.25	28201.11
503.43	28168.35
503.60	27957.70
503.78	27850.03
503.95	28182.39
504.13	28311.12
504.30	28882.21
504.48	28800.29
504.65	28952.43
504.83	28802.63
505.01	29369.04
505.18	28680.92
505.36	29706.08
505.53	29443.94
505.71	29539.90
505.88	29809.06
506.06	29757.57
506.23	29970.56
506.41	29432.24
506.58	29727.14
506.76	29656.93
506.93	30225.68
507.11	29993.97
507.28	30167.16
507.46	30047.80
507.63	30052.48
507.81	30483.14
507.98	30321.64
508.16	30394.20
508.33	30565.06
508.50	30817.83
508.68	31023.80
508.85	31222.75
509.03	30946.56
509.20	30871.67
509.38	31480.21
509.55	31056.57
509.73	31227.43
509.90	31576.17
510.08	31494.25
510.25	31365.52
510.42	31608.93
510.60	31632.34
510.77	31941.29
510.95	31873.42
511.12	31950.65
511.30	32215.13
511.47	32414.08
511.64	32252.58
511.82	32479.61
511.99	32336.84
512.17	32519.40
512.34	32268.97
512.51	32711.33
512.69	32847.08
512.86	32376.63
513.04	32910.27
513.21	32730.05
513.38	32666.86
513.56	32891.55
513.73	32818.99
513.90	33420.51
514.08	33071.77
514.25	32704.31
514.43	33350.29
514.60	33303.48
514.77	32989.85
514.95	33713.08
515.12	33460.30
515.29	33333.91
515.47	33649.88
515.64	34199.91
515.81	33951.81
515.99	33724.78
516.16	33858.19
516.33	33448.60
516.51	33991.60
516.68	33553.92
516.85	33172.41
517.03	33549.24
517.20	33975.22
517.37	34288.85
517.54	34532.26
517.72	34129.69
517.89	33923.72
518.06	33813.72
518.24	33762.23
518.41	34277.15
518.58	34740.57
518.75	34733.55
518.93	34558.01
519.10	34448.00
519.27	35442.73
519.45	35271.87
519.62	35498.91
519.79	35466.14
519.96	35452.09
520.14	35466.14
520.31	35218.04
520.48	35601.89
520.65	35168.89
520.83	36027.87
521.00	35901.48
521.17	35775.09
521.34	36222.13
521.52	36088.72
521.69	36219.79
521.86	36325.11
522.03	36561.51
522.20	36287.67
522.38	35990.42
522.55	36493.63
522.72	36610.66
522.89	36231.49
523.07	36746.41
523.24	36886.84
523.41	36594.28
523.58	37027.28
523.75	37663.90
523.92	37237.92
524.10	37022.59
524.27	37542.19
524.44	37425.17
524.61	37605.39
524.78	37352.61
524.96	37666.24
525.13	37383.04
525.30	37816.04
525.47	37708.37
525.64	37837.10
525.81	37490.70
525.98	37834.76
526.16	37766.88
526.33	36945.36
526.50	37591.34
526.67	36807.26
526.84	37212.18
527.01	37338.57
527.18	37858.17
527.36	38197.54
527.53	37935.40
527.70	38873.96
527.87	38204.56
528.04	38153.07
528.21	38323.93
528.38	38040.73
528.55	38675.01
528.72	38885.66
528.89	38850.55
529.07	38719.48
529.24	38583.73
529.41	38923.11
529.58	38972.26
529.75	38696.08
529.92	39096.31
530.09	39035.45
530.26	39161.84
530.43	39426.32
530.60	39421.64
530.77	39299.94
530.94	39398.24
531.11	39599.52
531.28	39335.04
531.46	39599.52
531.63	39922.52
531.80	39215.68
531.97	39365.47
532.14	39629.95
532.31	38979.28
532.48	39541.01
532.65	39779.74
532.82	39526.97
532.99	39487.18
533.16	39894.43
533.33	40137.85
533.50	40196.36
533.67	39779.74
533.84	39714.21
534.01	40652.76
534.18	40170.61
534.35	40786.18
534.52	39864.00
534.69	40170.61
534.86	40509.99
535.03	40493.61
535.20	40638.72
535.37	40858.73
535.54	40928.95
535.71	40505.31
535.88	40739.36
536.05	40481.91
536.22	40975.76
536.38	40481.91
536.55	40863.41
536.72	40568.51
536.89	40282.96
537.06	40629.36
537.23	40940.65
537.40	40926.61
537.57	41261.30
537.74	41116.19
537.91	42192.84
538.08	41324.50
538.25	41263.64
538.42	40765.11
538.59	41443.87
538.75	41205.13
538.92	41132.57
539.09	41287.05
539.26	40786.18
539.43	41638.13
539.60	40959.38
539.77	41242.58
539.94	41429.82
540.11	41184.07
540.28	41237.90
540.44	41698.98
540.61	41614.72
540.78	41301.09
540.95	41422.80
541.12	41408.76
541.29	41610.04
541.46	41790.27
541.62	42017.30
541.79	41773.88
541.96	41792.61
542.13	42033.68
542.30	41769.20
542.47	41750.48
542.63	42092.19
542.80	42183.48
542.97	42038.36
543.14	42103.90
543.31	42251.35
543.48	42286.46
543.64	43084.58
543.81	42955.85
543.98	42679.67
544.15	42253.69
544.32	42682.01
544.48	43449.70
544.65	42787.33
544.82	42686.69
544.99	42548.60
545.16	42787.33
545.32	43016.71
545.49	43363.11
545.66	43510.56
545.83	43225.01
546.00	43168.84
546.16	42997.98
546.33	43014.37
546.50	43274.16
546.67	43236.72
546.83	43112.67
547.00	43388.85
547.17	42927.77
547.34	42965.21
547.50	43412.26
547.67	43543.33
547.84	43543.33
548.00	43854.62
548.17	43707.16
548.34	43667.37
548.51	43814.83
548.67	43742.27
548.84	43878.02
549.01	43412.26
549.18	43686.10
549.34	43725.89
549.51	43557.37
549.68	43639.29
549.84	43863.98
550.01	43674.40
550.18	43510.56
550.34	43761.00
550.51	44217.40
550.68	43922.49
550.84	43377.15
551.01	43962.28
551.18	43580.78
551.34	43814.83
551.51	44404.64
551.68	44500.61
551.84	44385.92
552.01	44222.08
552.18	44144.84
552.34	43878.02
552.51	44296.98
552.68	43938.88
552.84	44170.59
553.01	44519.33
553.18	44465.50
553.34	44612.95
553.51	44399.96
553.67	44729.98
553.84	44762.75
554.01	44821.26
554.17	44701.89
554.34	44421.03
554.51	44788.49
554.67	45247.24
554.84	44369.54
555.00	44334.43
555.17	44708.91
555.33	44832.96
555.50	44587.21
555.67	44732.32
555.83	44865.73
556.00	44966.37
556.16	44863.39
556.33	44648.06
556.50	45219.15
556.66	44694.87
556.83	44678.49
556.99	44526.35
557.16	44849.35
557.32	44797.85
557.49	45146.59
557.65	44678.49
557.82	44949.99
557.98	45043.61
558.15	45237.87
558.32	44896.16
558.48	44390.60
558.65	45024.89
558.81	44877.43
558.98	44669.12
559.14	45020.20
559.31	44933.60
559.47	44741.68
559.64	45228.51
559.80	45062.33
559.97	45268.30
560.13	45001.48
560.30	45088.08
560.46	45219.15
560.63	45193.40
560.79	45530.44
560.96	45619.38
561.12	45331.50
561.29	45172.34
561.45	45490.65
561.61	45434.48
561.78	45474.27
561.94	45560.87
562.11	45345.54
562.27	44999.14
562.44	45633.42
562.60	45270.64
562.77	45621.72
562.93	45282.34
563.10	45860.46
563.26	45219.15
563.42	45530.44
563.59	45420.44
563.75	45558.53
563.92	45525.76
564.08	45628.74
564.24	45883.86
564.41	45584.27
564.57	44690.19
564.74	45434.48
564.90	45483.63
565.07	45528.10
565.23	45581.93
565.39	45525.76
565.56	45710.66
565.72	45350.22
565.88	45394.69
566.05	45160.64
566.21	45490.65
566.38	45476.61
566.54	45619.38
566.70	45773.86
566.87	46176.43
567.03	45703.64
567.19	46300.48
567.36	46033.66
567.52	45759.81
567.68	45684.92
567.85	45488.31
568.01	46045.36
568.17	45886.20
568.34	45937.69
568.50	45764.49
568.66	45593.64
568.83	45801.94
568.99	45563.21
569.15	45734.07
569.32	45551.51
569.48	45727.05
569.64	45858.12
569.81	45776.20
569.97	45710.66
570.13	46021.95
570.30	45202.77
570.46	45766.84
570.62	45502.35
570.78	45570.23
570.95	45382.99
571.11	45787.90
571.27	45525.76
571.43	45825.35
571.60	45766.84
571.76	45504.70
571.92	46068.76
572.09	45808.96
572.25	46028.98
572.41	45844.07
572.57	45909.61
572.74	46260.69
572.90	45944.72
573.06	46272.39
573.22	46162.39
573.38	46057.06
573.55	45930.67
573.71	46246.65
573.87	45799.60
574.03	45806.62
574.20	46019.61
574.36	45851.09
574.52	46064.08
574.68	45893.22
574.84	45680.24
575.01	45820.67
575.17	45647.47
575.33	45780.88
575.49	45539.80
575.65	45694.28
575.82	46356.65
575.98	45703.64
576.14	46349.63
576.30	46075.79
576.46	46401.12
576.62	45434.48
576.79	45771.52
576.95	45539.80
577.11	45900.25
577.27	46080.47
577.43	45998.55
577.59	45713.00
577.75	45745.77
577.92	45724.71
578.08	45429.80
578.24	45560.87
578.40	45904.93
578.56	45830.03
578.72	46017.27
578.88	46005.57
579.04	46017.27
579.21	45652.15
579.37	46101.53
579.53	46272.39
579.69	45745.77
579.85	46115.58
580.01	46122.60
580.17	46146.00
580.33	46230.26
580.49	46054.72
580.65	46080.47
580.82	45998.55
580.98	45940.04
581.14	45441.50
581.30	46567.30
581.46	45848.75
581.62	45961.10
581.78	46188.13
581.94	46192.81
582.10	46110.89
582.26	46258.35
582.42	46036.00
582.58	45928.33
582.74	46099.19
582.90	46419.84
583.06	46146.00
583.22	46153.02
583.38	46260.69
583.54	46017.27
583.70	46146.00
583.86	46036.00
584.02	45839.39
584.18	46344.95
584.34	46506.44
584.50	46113.23
584.66	46272.39
584.82	46047.70
584.98	45942.38
585.14	46473.68
585.30	45865.14
585.46	46089.83
585.62	46050.04
585.78	45904.93
585.94	45263.62
586.10	45881.52
586.26	45528.10
586.42	46609.43
586.58	46351.97
586.74	45874.50
586.90	45783.22
587.06	45935.35
587.22	45928.33
587.38	45942.38
587.54	46071.10
587.70	46457.29
587.86	46396.44
588.02	46150.68
588.18	46328.56
588.34	46040.68
588.49	45603.00
588.65	45476.61
588.81	45572.57
588.97	45883.86
589.13	45729.39
589.29	45434.48
589.45	45570.23
589.61	46185.79
589.77	45991.53
589.93	46443.25
