SpectraSuite Data File
++++++++++++++++++++++++++++++++++++
Date: Fri Oct 25 10:47:21 EDT 2013
User: price-jones
Dark Spectrum Present: No
Reference Spectrum Present: No
Number of Sampled Component Spectra: 1
Spectrometers: USB2+H05261
Integration Time (usec): 100000 (USB2+H05261)
Spectra Averaged: 1 (USB2+H05261)
Boxcar Smoothing: 0 (USB2+H05261)
Correct for Electrical Dark: No (USB2+H05261)
Strobe/Lamp Enabled: No (USB2+H05261)
Correct for Detector Non-linearity: No (USB2+H05261)
Correct for Stray Light: No (USB2+H05261)
Number of Pixels in Processed Spectrum: 2048
>>>>>Begin Processed Spectral Data<<<<<
365.73	175.54
365.92	175.54
366.12	175.54
366.32	65.54
366.52	51.49
366.72	128.73
366.91	60.85
367.11	77.24
367.31	0.00
367.51	58.51
367.70	21.06
367.90	0.00
368.10	0.00
368.30	163.84
368.49	9.36
368.69	32.77
368.89	53.83
369.09	0.00
369.28	79.58
369.48	77.24
369.68	100.64
369.87	154.48
370.07	98.30
370.27	131.07
370.47	159.16
370.66	390.87
370.86	348.74
371.06	367.46
371.25	514.92
371.45	472.79
371.65	454.06
371.84	404.91
372.04	489.17
372.24	503.22
372.44	484.49
372.63	484.49
372.83	526.62
373.03	512.58
373.22	418.96
373.42	519.60
373.62	486.83
373.81	484.49
374.01	531.30
374.21	615.56
374.40	528.96
374.60	653.01
374.79	535.98
374.99	528.96
375.19	514.92
375.38	538.32
375.58	528.96
375.78	664.71
375.97	571.09
376.17	620.24
376.37	519.60
376.56	547.69
376.76	482.15
376.95	606.20
377.15	760.67
377.35	662.37
377.54	566.41
377.74	566.41
377.93	566.41
378.13	601.52
378.33	622.58
378.52	540.66
378.72	608.54
378.91	575.77
379.11	641.31
379.31	601.52
379.50	664.71
379.70	653.01
379.89	716.20
380.09	627.26
380.28	664.71
380.48	599.18
380.68	667.05
380.87	643.65
381.07	643.65
381.26	660.03
381.46	603.86
381.65	660.03
381.85	667.05
382.04	674.07
382.24	690.46
382.43	613.22
382.63	683.44
382.83	610.88
383.02	718.54
383.22	692.80
383.41	695.14
383.61	716.20
383.80	645.99
384.00	720.88
384.19	755.99
384.39	753.65
384.58	734.93
384.78	737.27
384.97	753.65
385.17	704.50
385.36	746.63
385.56	847.27
385.75	739.61
385.95	727.91
386.14	849.61
386.34	732.59
386.53	788.76
386.72	784.08
386.92	819.19
387.11	744.29
387.31	877.70
387.50	819.19
387.70	767.70
387.89	833.23
388.09	814.51
388.28	758.33
388.48	898.77
388.67	856.64
388.86	751.31
389.06	807.48
389.25	882.38
389.45	868.34
389.64	851.96
389.84	931.53
390.03	908.13
390.22	847.27
390.42	809.83
390.61	877.70
390.81	961.96
391.00	954.94
391.19	985.37
391.39	964.30
391.58	861.32
391.78	877.70
391.97	961.96
392.16	875.36
392.36	987.71
392.55	919.83
392.75	1015.79
392.94	999.41
393.13	919.83
393.33	931.53
393.52	1048.56
393.71	990.05
393.91	1011.11
394.10	1020.47
394.29	1015.79
394.49	1060.26
394.68	1074.31
394.88	1104.73
395.07	1132.82
395.26	1132.82
395.46	1067.28
395.65	1196.01
395.84	1172.61
396.04	1188.99
396.23	1170.27
396.42	1137.50
396.62	1146.86
396.81	1146.86
397.00	1093.03
397.19	1212.40
397.39	1149.20
397.58	1313.04
397.77	1188.99
397.97	1188.99
398.16	1289.64
398.35	1221.76
398.55	1179.63
398.74	1231.12
398.93	1303.68
399.12	1303.68
399.32	1310.70
399.51	1371.55
399.70	1350.49
399.90	1277.93
400.09	1357.51
400.28	1352.83
400.47	1301.34
400.67	1439.43
400.86	1439.43
401.05	1497.94
401.24	1437.09
401.44	1528.37
401.63	1507.30
401.82	1563.48
402.01	1451.13
402.21	1514.33
402.40	1537.73
402.59	1507.30
402.78	1519.01
402.97	1596.25
403.17	1509.65
403.36	1563.48
403.55	1584.54
403.74	1732.00
403.93	1619.65
404.13	1610.29
404.32	1636.03
404.51	1654.76
404.70	1729.66
404.89	1633.69
405.09	1661.78
405.28	1685.19
405.47	1645.40
405.66	1788.17
405.85	1785.83
406.05	1729.66
406.24	1755.40
406.43	1802.21
406.62	1750.72
406.81	1741.36
407.00	1806.89
407.20	1849.02
407.39	1806.89
407.58	1937.96
407.77	1907.54
407.96	1891.15
408.15	1900.52
408.34	1888.81
408.54	1851.36
408.73	1891.15
408.92	1998.82
409.11	1984.77
409.30	2003.50
409.49	2090.10
409.68	2003.50
409.87	1975.41
410.07	2066.69
410.26	2073.71
410.45	2071.37
410.64	2099.46
410.83	2118.18
411.02	2104.14
411.21	2108.82
411.40	2298.41
411.59	2146.27
411.78	2244.57
411.98	2244.57
412.17	2277.34
412.36	2317.13
412.55	2282.02
412.74	2443.52
412.93	2464.58
413.12	2356.92
413.31	2483.31
413.50	2480.97
413.69	2492.67
413.88	2553.52
414.07	2499.69
414.26	2523.10
414.45	2621.40
414.64	2567.57
414.83	2597.99
415.02	2605.02
415.22	2771.19
415.41	2832.05
415.60	2789.92
415.79	2818.00
415.98	2864.82
416.17	2834.39
416.36	2794.60
416.55	2834.39
416.74	2928.01
416.93	2843.75
417.12	2832.05
417.31	2963.12
417.50	2930.35
417.69	3016.95
417.88	2991.20
418.07	3096.53
418.26	3075.46
418.45	2937.37
418.64	3173.77
418.83	3145.68
419.02	3103.55
419.21	3281.43
419.39	3211.22
419.58	3103.55
419.77	3105.89
419.96	3152.70
420.15	3281.43
420.34	3197.17
420.53	3178.45
420.72	3396.12
420.91	3286.11
421.10	3342.28
421.29	3361.01
421.48	3307.18
421.67	3419.52
421.86	3288.45
422.05	3396.12
422.24	3304.84
422.43	3300.16
422.61	3290.79
422.80	3407.82
422.99	3396.12
423.18	3489.74
423.37	3445.27
423.56	3452.29
423.75	3492.08
423.94	3307.18
424.13	3199.51
424.32	3438.25
424.50	3522.51
424.69	3513.14
424.88	3592.72
425.07	3431.23
425.26	3377.39
425.45	3494.42
425.64	3508.46
425.83	3435.91
426.01	3536.55
426.20	3545.91
426.39	3466.33
426.58	3421.86
426.77	3433.57
426.96	3475.70
427.15	3588.04
427.33	3508.46
427.52	3625.49
427.71	3632.51
427.90	3630.17
428.09	3779.97
428.28	3716.77
428.46	3798.69
428.65	3641.87
428.84	3838.48
429.03	3810.39
429.22	3632.51
429.40	3707.41
429.59	3833.80
429.78	3674.64
429.97	3517.83
430.16	3634.85
430.34	3850.18
430.53	3899.33
430.72	3845.50
430.91	3751.88
431.10	3892.31
431.28	3904.01
431.47	4007.00
431.66	4109.98
431.85	4016.36
432.03	4187.22
432.22	4339.35
432.41	4072.53
432.60	4049.13
432.79	4128.70
432.97	4161.47
433.16	4231.69
433.35	4227.01
433.54	4163.81
433.72	4266.80
433.91	4283.18
434.10	4245.73
434.28	4182.54
434.47	4262.12
434.66	4404.89
434.85	4337.01
435.03	4369.78
435.22	4325.31
435.41	4615.54
435.59	4568.73
435.78	4531.28
435.97	4514.89
436.16	4554.68
436.34	4435.32
436.53	4489.15
436.72	4634.26
436.90	4554.68
437.09	4578.09
437.28	4533.62
437.46	4643.62
437.65	4606.17
437.84	4571.07
438.02	4528.94
438.21	4720.86
438.40	4594.47
438.58	4713.84
438.77	4788.74
438.96	4774.69
439.14	4894.06
439.33	5022.79
439.52	5074.28
439.70	4978.32
439.89	5006.41
440.08	5158.54
440.26	5095.35
440.45	4954.91
440.63	5174.92
440.82	5226.42
441.01	5146.84
441.19	5479.19
441.38	5413.66
441.57	5537.71
441.75	5465.15
441.94	5416.00
442.12	5390.25
442.31	5593.88
442.50	5523.66
442.68	5664.10
442.87	5521.32
443.05	5680.48
443.24	5692.18
443.43	5778.78
443.61	5949.64
443.80	5865.38
443.98	5682.82
444.17	5439.40
444.35	5802.19
444.54	5746.02
444.73	5659.42
444.91	5837.30
445.10	5760.06
445.28	5741.33
445.47	5743.67
445.65	5729.63
445.84	5870.06
446.02	6033.90
446.21	5893.47
446.39	5849.00
446.58	5942.62
446.77	5975.39
446.95	5778.78
447.14	5923.90
447.32	5937.94
447.51	5795.17
447.69	5680.48
447.88	5886.45
448.06	5991.77
448.25	5916.87
448.43	6139.23
448.62	5914.53
448.80	5849.00
448.99	6059.65
449.17	5846.66
449.36	6069.01
449.54	6085.39
449.73	6342.85
449.91	6256.25
450.10	6216.46
450.28	6408.39
450.46	6286.68
450.65	6111.14
450.83	6221.14
451.02	6214.12
451.20	6291.36
451.39	6176.67
451.57	6331.15
451.76	6438.81
451.94	6417.75
452.13	6382.64
452.31	6502.01
452.49	6356.90
452.68	6349.87
452.86	6408.39
453.05	6436.47
453.23	6703.29
453.42	6396.68
453.60	6410.73
453.78	6703.29
453.97	6347.53
454.15	6712.66
454.34	6710.32
454.52	6832.02
454.70	6815.64
454.89	6621.38
455.07	6715.00
455.26	6733.72
455.44	6738.40
455.62	6771.17
455.81	6846.07
455.99	6827.34
456.17	6817.98
456.36	6946.71
456.54	6986.50
456.73	7023.95
456.91	7140.97
457.09	7164.38
457.28	7386.73
457.46	6998.20
457.64	7412.48
457.83	7316.51
458.01	7042.67
458.19	7250.98
458.38	7269.70
458.56	7279.07
458.74	7283.75
458.93	7288.43
459.11	7396.09
459.29	7288.43
459.48	7433.54
459.66	7487.37
459.84	7501.42
460.03	7599.72
460.21	7716.75
460.39	7634.83
460.57	7522.48
460.76	7543.55
460.94	7590.36
461.12	7639.51
461.31	7648.87
461.49	7728.45
461.67	7440.56
461.85	7845.48
462.04	7693.34
462.22	8105.28
462.40	7988.25
462.59	7868.88
462.77	7604.40
462.95	7939.10
463.13	7929.74
463.32	8189.53
463.50	7775.26
463.68	8023.36
463.86	7936.76
464.05	7941.44
464.23	8016.33
464.41	7850.16
464.59	7918.03
464.78	8114.64
464.96	8360.39
465.14	8168.47
465.32	8002.29
465.50	8252.73
465.69	8454.02
465.87	8226.98
466.05	8271.45
466.23	8194.22
466.41	8278.47
466.60	8280.82
466.78	8327.63
466.96	8196.56
467.14	8329.97
467.32	8243.37
467.51	8601.47
467.69	8372.10
467.87	8400.18
468.05	8369.76
468.23	8489.12
468.41	8442.31
468.60	8336.99
468.78	8688.07
468.96	8657.64
469.14	8760.63
469.32	8505.51
469.50	8503.17
469.69	8870.63
469.87	8727.86
470.05	8737.22
470.23	8896.38
470.41	8795.73
470.59	9027.45
470.77	8805.10
470.95	9022.77
471.14	9184.26
471.32	8861.27
471.50	9074.26
471.68	9303.63
471.86	9163.20
472.04	9383.21
472.22	9516.62
472.40	9027.45
472.58	9163.20
472.77	9364.48
472.95	9518.96
473.13	9736.63
473.31	9378.53
473.49	9453.42
473.67	9312.99
473.85	9476.83
474.03	9809.19
474.21	9682.80
474.39	9853.66
474.57	9895.78
474.75	9912.17
474.93	10101.75
475.12	10178.99
475.30	9928.55
475.48	9968.34
475.66	10031.54
475.84	10246.87
476.02	10078.35
476.20	10186.01
476.38	10368.57
476.56	10597.95
476.74	10602.63
476.92	10462.19
477.10	10492.62
477.28	10630.71
477.46	10579.22
477.64	10998.18
477.82	11082.44
478.00	11346.92
478.18	10913.92
478.36	11218.19
478.54	11468.62
478.72	11452.24
478.90	11438.20
479.08	11660.55
479.26	11714.38
479.44	11786.94
479.62	11978.86
479.80	11939.07
479.98	11962.48
480.16	12402.50
480.34	12233.98
480.52	12187.17
480.70	12098.23
480.88	12290.15
481.06	12465.69
481.24	12425.90
481.41	12552.29
481.59	12753.58
481.77	13048.49
481.95	13076.57
482.13	12971.25
482.31	13095.30
482.49	13561.06
482.67	13572.77
482.85	13479.15
483.03	13551.70
483.21	14001.08
483.39	13790.44
483.57	13783.41
483.74	13970.66
483.92	14223.44
484.10	14115.77
484.28	14281.95
484.46	14483.24
484.64	14733.67
484.82	14508.98
485.00	14663.46
485.18	14836.66
485.35	15143.27
485.53	14916.23
485.71	15000.49
485.89	15042.62
486.07	15152.63
486.25	15180.71
486.43	15602.01
486.61	15506.05
486.78	15866.49
486.96	15866.49
487.14	16098.20
487.32	15929.69
487.50	16287.79
487.68	16266.72
487.85	16833.13
488.03	17153.79
488.21	16917.39
488.39	16837.81
488.57	16992.29
488.75	17209.96
488.92	17355.07
489.10	17502.53
489.28	17572.74
489.46	17701.47
489.64	17607.85
489.81	18106.38
489.99	18111.07
490.17	18279.58
490.35	18508.96
490.53	18361.50
490.70	18541.72
490.88	18478.53
491.06	18822.59
491.24	18792.16
491.41	18953.66
491.59	19117.50
491.77	18932.59
491.95	19290.70
492.13	19503.68
492.30	19309.42
492.48	19585.60
492.66	19885.19
492.84	20203.50
493.01	20173.08
493.19	19866.47
493.37	20182.44
493.54	20458.62
493.72	20568.63
493.90	20695.02
494.08	20603.74
494.25	20982.90
494.43	20943.11
494.61	21219.30
494.79	21212.28
494.96	21130.36
495.14	21132.70
495.32	21694.43
495.49	21394.84
495.67	21986.99
495.85	22054.87
496.02	22071.25
496.20	22235.09
496.38	22459.78
496.55	22237.43
496.73	22427.01
496.91	22661.07
497.09	22499.57
497.26	22871.72
497.44	23019.17
497.62	22705.54
497.79	22672.77
497.97	23262.58
498.14	23405.36
498.32	23452.17
498.50	23222.80
498.67	23480.25
498.85	23637.07
499.03	23934.32
499.20	24002.19
499.38	24037.30
499.56	24072.41
499.73	24051.34
499.91	24573.28
500.08	24507.75
500.26	23985.81
500.44	24460.94
500.61	24613.07
500.79	24409.45
500.97	24540.52
501.14	25006.28
501.32	24489.03
501.49	24893.94
501.67	24793.29
501.84	25158.42
502.02	25188.85
502.20	25165.44
502.37	25504.82
502.55	25687.38
502.72	25675.68
502.90	25886.32
503.07	25525.88
503.25	25839.51
503.43	25846.54
503.60	25869.94
503.78	26001.01
503.95	25993.99
504.13	26092.29
504.30	26118.04
504.48	26120.38
504.65	26382.52
504.83	26632.96
505.01	26721.90
505.18	26771.05
505.36	26874.03
505.53	26604.87
505.71	27241.50
505.88	26749.98
506.06	27213.41
506.23	26969.99
506.41	26953.61
506.58	27192.34
506.76	27838.33
506.93	27606.62
507.11	27566.83
507.28	27522.36
507.46	27639.39
507.63	27864.08
507.81	28039.62
507.98	27859.40
508.16	28219.84
508.33	28046.64
508.50	28126.22
508.68	28126.22
508.85	28421.13
509.03	28458.57
509.20	28226.86
509.38	28910.30
509.55	28460.91
509.73	28837.74
509.90	29130.31
510.08	28786.25
510.25	28685.61
510.42	29104.56
510.60	29567.99
510.77	29495.43
510.95	29486.07
511.12	29413.51
511.30	29766.93
511.47	29923.75
511.64	29727.14
511.82	29926.09
511.99	29795.02
512.17	29930.77
512.34	29809.06
512.51	30064.18
512.69	30019.71
512.86	30260.79
513.04	30288.87
513.21	30066.52
513.38	30134.40
513.56	30064.18
513.73	30471.43
513.90	30623.57
514.08	30576.76
514.25	30593.14
514.43	30520.59
514.60	30944.22
514.77	30733.57
514.95	30948.90
515.12	31447.44
515.29	31122.10
515.47	31597.23
515.64	31480.21
515.81	31192.32
515.99	31477.86
516.16	31503.61
516.33	31449.78
516.51	31889.80
516.68	31264.88
516.85	31503.61
517.03	31756.39
517.20	31974.06
517.37	31814.90
517.54	32198.75
517.72	32163.64
517.89	31564.46
518.06	31882.78
518.24	31786.82
518.41	31803.20
518.58	32369.61
518.75	32084.06
518.93	32889.21
519.10	32301.73
519.27	32694.94
519.45	32425.78
519.62	32840.06
519.79	32526.42
519.96	33130.28
520.14	33373.70
520.31	32659.84
520.48	33177.09
520.65	32971.13
520.83	33251.99
521.00	33050.70
521.17	33411.15
521.34	33331.57
521.52	33432.21
521.69	33675.63
521.86	33670.95
522.03	33792.65
522.20	34209.27
522.38	33525.83
522.55	34103.95
522.72	33879.25
522.89	34036.07
523.07	34029.05
523.24	34000.96
523.41	34279.49
523.58	34010.32
523.75	34576.73
523.92	34506.52
524.10	34646.95
524.27	34330.98
524.44	34391.83
524.61	34967.60
524.78	34771.00
524.96	34878.66
525.13	34272.46
525.30	35101.01
525.47	35257.83
525.64	35468.48
525.81	35168.89
525.98	34944.20
526.16	34813.13
526.33	34850.58
526.50	35491.88
526.67	35496.56
526.84	35288.26
527.01	34972.28
527.18	35543.38
527.36	35700.19
527.53	35990.42
527.70	36360.22
527.87	35826.58
528.04	35826.58
528.21	36170.64
528.38	35587.85
528.55	36044.25
528.72	36004.46
528.89	36297.03
529.07	36128.51
529.24	36072.34
529.41	36119.15
529.58	35957.65
529.75	36032.55
529.92	36495.97
530.09	36680.88
530.26	36460.87
530.43	36360.22
530.60	36549.81
530.77	36397.67
530.94	36978.12
531.11	36510.02
531.28	36856.42
531.46	36851.73
531.63	37266.01
531.80	36708.96
531.97	36980.46
532.14	36952.38
532.31	36964.08
532.48	37139.62
532.65	37670.92
532.82	36900.89
532.99	37338.57
533.16	37354.95
533.33	37354.95
533.50	37539.85
533.67	37432.19
533.84	37357.29
534.01	37422.83
534.18	37280.05
534.35	37682.62
534.52	37809.01
534.69	37804.33
534.86	37689.65
535.03	38471.39
535.20	37954.13
535.37	38279.46
535.54	38129.67
535.71	38216.27
535.88	38178.82
536.05	38576.71
536.22	38132.01
536.38	38162.43
536.55	38359.04
536.72	38024.34
536.89	38457.34
537.06	38373.08
537.23	38831.83
537.40	38447.98
537.57	38761.61
537.74	38548.62
537.91	38770.97
538.08	38864.60
538.25	38682.03
538.42	38754.59
538.59	39253.12
538.75	38476.07
538.92	38382.45
539.09	39063.54
539.26	38789.70
539.43	39051.84
539.60	39288.23
539.77	39452.07
539.94	39161.84
540.11	39236.74
540.28	39100.99
540.44	39100.99
540.61	39386.54
540.78	39077.58
540.95	39318.66
541.12	39096.31
541.29	39103.33
541.46	39349.09
541.62	39452.07
541.79	39545.69
541.96	39185.25
542.13	39725.91
542.30	39833.58
542.47	39725.91
542.63	39676.76
542.80	40086.36
542.97	40378.92
543.14	40280.62
543.31	40526.38
543.48	40179.98
543.64	41277.69
543.81	40533.40
543.98	40264.24
544.15	39847.62
544.32	40399.99
544.48	40657.45
544.65	40545.10
544.82	40631.70
544.99	40254.87
545.16	40357.86
545.32	40367.22
545.49	40811.92
545.66	40912.56
545.83	40886.82
546.00	40842.35
546.16	40737.02
546.33	40704.26
546.50	40327.43
546.67	41020.23
546.83	40671.49
547.00	40985.12
547.17	40788.52
547.34	40711.28
547.50	41174.70
547.67	41486.00
547.84	41500.04
548.00	41251.94
548.17	41434.50
548.34	41099.81
548.51	41432.16
548.67	41757.50
548.84	41469.61
549.01	41696.64
549.18	41141.94
549.34	41486.00
549.51	41603.02
549.68	41411.10
549.84	41483.66
550.01	41708.35
550.18	41223.86
550.34	41565.57
550.51	41439.18
550.68	41656.85
550.84	41151.30
551.01	42054.75
551.18	41811.33
551.34	41422.80
551.51	41942.40
551.68	42047.72
551.84	41579.62
552.01	41832.39
552.18	42178.79
552.34	41556.21
552.51	42087.51
552.68	42108.58
552.84	41914.31
553.01	42525.19
553.18	42480.72
553.34	41935.38
553.51	41841.76
553.67	42157.73
553.84	42625.84
554.01	42351.99
554.17	42749.88
554.34	42979.26
554.51	42801.38
554.67	42658.60
554.84	42586.05
555.00	42436.25
555.17	42237.31
555.33	42864.57
555.50	42024.32
555.67	42618.81
555.83	42674.99
556.00	42738.18
556.16	42796.70
556.33	42873.93
556.50	42417.53
556.66	43480.13
556.83	42686.69
556.99	42632.86
557.16	42813.08
557.32	42916.06
557.49	42962.87
557.65	42721.80
557.82	42672.65
557.98	42464.34
558.15	43194.59
558.32	43030.75
558.48	43023.73
558.65	43232.04
558.81	42611.79
558.98	43182.88
559.14	42916.06
559.31	42770.95
559.47	43182.88
559.64	43852.28
559.80	43086.92
559.97	43524.60
560.13	43124.37
560.30	43524.60
560.46	43306.93
560.63	43356.08
560.79	43033.09
560.96	43519.92
561.12	43182.88
561.29	43325.66
561.45	43175.86
561.61	42993.30
561.78	43463.75
561.94	43660.35
562.11	43014.37
562.27	43260.12
562.44	43178.20
562.60	43611.20
562.77	43669.72
562.93	43374.81
563.10	43620.56
563.26	43686.10
563.42	43746.95
563.59	43384.17
563.75	43835.89
563.92	43475.45
564.08	43416.94
564.24	43466.09
564.41	44060.58
564.57	43700.14
564.74	43913.13
564.90	43786.74
565.07	43473.11
565.23	43723.55
565.39	43435.66
565.56	43711.84
565.72	43498.86
565.88	43922.49
566.05	43379.49
566.21	43290.55
566.38	43838.23
566.54	43405.23
566.70	44088.67
566.87	43856.96
567.03	43978.67
567.19	44163.57
567.36	44362.51
567.52	43779.72
567.68	44044.20
567.85	43601.84
568.01	44109.74
568.17	43646.31
568.34	44161.23
568.50	43840.57
568.66	43950.58
568.83	44025.48
568.99	43924.83
569.15	43526.94
569.32	43739.93
569.48	43765.68
569.64	44109.74
569.81	44273.57
569.97	44086.33
570.13	44395.28
570.30	43814.83
570.46	43756.32
570.62	43634.61
570.78	43845.26
570.95	43744.61
571.11	44184.63
571.27	43735.25
571.43	44289.96
571.60	44151.87
571.76	44112.08
571.92	44381.24
572.09	44222.08
572.25	43983.35
572.41	44105.06
572.57	44189.31
572.74	44875.09
572.90	44566.14
573.06	44016.11
573.22	43882.70
573.38	44130.80
573.55	43950.58
573.71	43924.83
573.87	44154.21
574.03	44470.18
574.20	44137.82
574.36	44194.00
574.52	44339.11
574.68	44329.75
574.84	44524.01
575.01	44116.76
575.17	44428.05
575.33	44095.69
575.49	44041.86
575.65	44823.60
575.82	44779.13
575.98	44512.31
576.14	44399.96
576.30	44233.78
576.46	44172.93
576.62	44165.91
576.79	44046.54
576.95	43739.93
577.11	44282.94
577.27	44772.11
577.43	44346.13
577.59	44182.29
577.75	44470.18
577.92	44374.22
578.08	43828.87
578.24	44273.57
578.40	44208.04
578.56	44156.55
578.72	44446.77
578.88	44449.11
579.04	44243.15
579.21	44116.76
579.37	44060.58
579.53	44388.26
579.69	44226.76
579.85	44626.99
580.01	44680.83
580.17	44299.32
580.33	44676.15
580.49	44652.74
580.65	44100.37
580.82	44493.58
580.98	44655.08
581.14	44334.43
581.30	44753.38
581.46	44568.48
581.62	44605.93
581.78	44105.06
581.94	44687.85
582.10	44821.26
582.26	44692.53
582.42	44952.33
582.58	44299.32
582.74	44240.81
582.90	44612.95
583.06	44786.15
583.22	44435.07
583.38	44973.39
583.54	44224.42
583.70	44502.95
583.86	44205.70
584.02	44657.42
584.18	44507.63
584.34	44697.21
584.50	44610.61
584.66	44673.81
584.82	44414.01
584.98	44879.77
585.14	44428.05
585.30	44252.51
585.46	43999.73
585.62	44311.02
585.78	44683.17
585.94	43983.35
586.10	44577.84
586.26	44191.65
586.42	44198.68
586.58	44453.79
586.74	44339.11
586.90	44706.57
587.06	44708.91
587.22	44465.50
587.38	44376.56
587.54	44706.57
587.70	44788.49
587.86	44598.91
588.02	44746.36
588.18	44720.62
588.34	44364.85
588.49	44535.71
588.65	44404.64
588.81	44444.43
588.97	44385.92
589.13	44512.31
589.29	44271.23
589.45	44245.49
589.61	44519.33
589.77	44744.02
589.93	44430.39
590.08	44872.75
590.24	44933.60
590.40	44692.53
