SpectraSuite Data File
++++++++++++++++++++++++++++++++++++
Date: Fri Oct 25 11:23:05 EDT 2013
User: price-jones
Dark Spectrum Present: No
Reference Spectrum Present: No
Number of Sampled Component Spectra: 1
Spectrometers: USB2+H05261
Integration Time (usec): 100000 (USB2+H05261)
Spectra Averaged: 1 (USB2+H05261)
Boxcar Smoothing: 0 (USB2+H05261)
Correct for Electrical Dark: No (USB2+H05261)
Strobe/Lamp Enabled: No (USB2+H05261)
Correct for Detector Non-linearity: No (USB2+H05261)
Correct for Stray Light: No (USB2+H05261)
Number of Pixels in Processed Spectrum: 2048
>>>>>Begin Processed Spectral Data<<<<<
365.73	238.73
365.92	238.73
366.12	238.73
366.32	138.09
366.52	168.52
366.72	131.07
366.91	121.71
367.11	170.86
367.31	77.24
367.51	72.56
367.70	86.60
367.90	133.41
368.10	93.62
368.30	161.50
368.49	184.90
368.69	119.37
368.89	154.48
369.09	147.45
369.28	149.79
369.48	182.56
369.68	248.10
369.87	203.63
370.07	189.58
370.27	187.24
370.47	355.76
370.66	564.07
370.86	552.37
371.06	711.52
371.25	720.88
371.45	627.26
371.65	709.18
371.84	688.12
372.04	674.07
372.24	765.36
372.44	725.57
372.63	741.95
372.83	725.57
373.03	737.27
373.22	770.04
373.42	844.93
373.62	723.23
373.81	744.29
374.01	814.51
374.21	821.53
374.40	798.12
374.60	772.38
374.79	723.23
374.99	791.10
375.19	854.30
375.38	837.91
375.58	887.06
375.78	910.47
375.97	774.72
376.17	894.08
376.37	917.49
376.56	837.91
376.76	795.78
376.95	889.40
377.15	856.64
377.35	910.47
377.54	851.96
377.74	912.81
377.93	959.62
378.13	887.06
378.33	919.83
378.52	877.70
378.72	961.96
378.91	875.36
379.11	980.68
379.31	922.17
379.50	950.26
379.70	884.72
379.89	954.94
380.09	929.19
380.28	947.92
380.48	919.83
380.68	915.15
380.87	1020.47
381.07	1013.45
381.26	1034.52
381.46	1015.79
381.65	1048.56
381.85	999.41
382.04	1053.24
382.24	1050.90
382.43	1078.99
382.63	1062.60
382.83	1025.15
383.02	1071.97
383.22	1123.46
383.41	992.39
383.61	1050.90
383.80	1160.91
384.00	1142.18
384.19	1198.35
384.39	1181.97
384.58	1078.99
384.78	1172.61
384.97	1078.99
385.17	1128.14
385.36	1181.97
385.56	1200.69
385.75	1181.97
385.95	1186.65
386.14	1153.88
386.34	1270.91
386.53	1184.31
386.72	1165.59
386.92	1226.44
387.11	1163.25
387.31	1261.55
387.50	1313.04
387.70	1245.16
387.89	1277.93
388.09	1263.89
388.28	1263.89
388.48	1317.72
388.67	1270.91
388.86	1322.40
389.06	1324.74
389.25	1376.24
389.45	1329.42
389.64	1327.08
389.84	1331.76
390.03	1348.15
390.22	1390.28
390.42	1416.02
390.61	1331.76
390.81	1432.41
391.00	1430.07
391.19	1413.68
391.39	1427.73
391.58	1418.36
391.78	1376.24
391.97	1516.67
392.16	1465.18
392.36	1495.60
392.55	1645.40
392.75	1465.18
392.94	1511.99
393.13	1619.65
393.33	1544.75
393.52	1537.73
393.71	1619.65
393.91	1542.41
394.10	1504.96
394.29	1577.52
394.49	1661.78
394.68	1645.40
394.88	1603.27
395.07	1685.19
395.26	1687.53
395.46	1650.08
395.65	1717.95
395.84	1750.72
396.04	1764.76
396.23	1760.08
396.42	1795.19
396.62	1813.92
396.81	1722.63
397.00	1783.49
397.19	1802.21
397.39	1820.94
397.58	1825.62
397.77	1837.32
397.97	1837.32
398.16	1914.56
398.35	1795.19
398.55	1895.83
398.74	1952.01
398.93	1954.35
399.12	1916.90
399.32	1881.79
399.51	1921.58
399.70	1994.14
399.90	1963.71
400.09	2043.29
400.28	1947.33
400.47	2066.69
400.67	2146.27
400.86	2087.76
401.05	2169.68
401.24	2125.21
401.44	2050.31
401.63	2342.88
401.82	2183.72
402.01	2153.29
402.21	2209.47
402.40	2239.89
402.59	2186.06
402.78	2193.08
402.97	2235.21
403.17	2310.11
403.36	2312.45
403.55	2284.36
403.74	2368.62
403.93	2394.37
404.13	2408.41
404.32	2363.94
404.51	2354.58
404.70	2448.20
404.89	2303.09
405.09	2452.88
405.28	2492.67
405.47	2406.07
405.66	2441.18
405.85	2455.22
406.05	2574.59
406.24	2644.81
406.43	2553.52
406.62	2644.81
406.81	2822.69
407.00	2544.16
407.20	2600.34
407.39	2778.22
407.58	2532.46
407.77	2705.66
407.96	2806.30
408.15	2796.94
408.34	2829.71
408.54	2822.69
408.73	2759.49
408.92	2904.60
409.11	2944.39
409.30	2972.48
409.49	2988.86
409.68	2888.22
409.87	3026.31
410.07	3105.89
410.26	2981.84
410.45	3124.62
410.64	3089.51
410.83	3159.72
411.02	3101.21
411.21	3218.24
411.40	3110.57
411.59	3368.03
411.78	3204.19
411.98	3279.09
412.17	3283.77
412.36	3304.84
412.55	3335.26
412.74	3389.10
412.93	3353.99
413.12	3417.18
413.31	3634.85
413.50	3426.54
413.69	3543.57
413.88	3648.90
414.07	3534.21
414.26	3833.80
414.45	3786.99
414.64	3707.41
414.83	3768.26
415.02	3796.35
415.22	3871.25
415.41	3990.61
415.60	3824.44
415.79	3880.61
415.98	3882.95
416.17	3941.46
416.36	4070.19
416.55	3997.64
416.74	4088.92
416.93	4154.45
417.12	4189.56
417.31	4145.09
417.50	4308.93
417.69	4217.65
417.88	4222.33
418.07	4320.63
418.26	4269.14
418.45	4397.87
418.64	4423.61
418.83	4430.63
419.02	4622.56
419.21	4542.98
419.39	4594.47
419.58	4559.36
419.77	4624.90
419.96	4674.05
420.15	4573.41
420.34	4711.50
420.53	4765.33
420.72	4840.23
420.91	4767.67
421.10	4706.82
421.29	4844.91
421.48	4821.50
421.67	4624.90
421.86	4807.46
422.05	4861.29
422.24	4929.17
422.43	4882.36
422.61	4922.15
422.80	4990.02
422.99	4898.74
423.18	4741.93
423.37	5071.94
423.56	4964.28
423.75	5053.22
423.94	4971.30
424.13	4711.50
424.32	4589.79
424.50	5025.13
424.69	5294.29
424.88	5207.69
425.07	4980.66
425.26	5046.20
425.45	5011.09
425.64	4933.85
425.83	4985.34
426.01	5249.82
426.20	4971.30
426.39	5109.39
426.58	5146.84
426.77	5083.64
426.96	5214.71
427.15	5195.99
427.33	5245.14
427.52	5085.98
427.71	5303.65
427.90	5240.46
428.09	5263.86
428.28	5373.87
428.46	5472.17
428.65	5413.66
428.84	5640.69
429.03	5495.58
429.22	5387.91
429.40	5563.45
429.59	5547.07
429.78	5516.64
429.97	5369.19
430.16	5364.51
430.34	5626.65
430.53	5806.87
430.72	5809.21
430.91	5584.52
431.10	5706.23
431.28	5776.44
431.47	5860.70
431.66	6003.47
431.85	5682.82
432.03	5937.94
432.22	5923.90
432.41	6047.94
432.60	6003.47
432.79	6026.88
432.97	6171.99
433.16	6242.21
433.35	6207.10
433.54	6167.31
433.72	6361.58
433.91	6059.65
434.10	6071.35
434.28	6092.41
434.47	6303.06
434.66	6326.47
434.85	6544.14
435.03	6394.34
435.22	6289.02
435.41	6537.12
435.59	6485.62
435.78	6473.92
435.97	6413.07
436.16	6532.44
436.34	6375.62
436.53	6462.22
436.72	6581.59
436.90	6478.60
437.09	6729.04
437.28	6630.74
437.46	6654.14
437.65	6832.02
437.84	6850.75
438.02	6794.58
438.21	6789.89
438.40	6665.85
438.58	7019.27
438.77	6937.35
438.96	7187.79
439.14	7166.72
439.33	7232.26
439.52	7232.26
439.70	7330.56
439.89	7309.49
440.08	7424.18
440.26	7449.93
440.45	7283.75
440.63	7405.46
440.82	7559.93
441.01	7632.49
441.19	7555.25
441.38	7836.11
441.57	7847.82
441.75	7775.26
441.94	8119.32
442.12	7995.27
442.31	8025.70
442.50	8074.85
442.68	8208.26
442.87	8208.26
443.05	8102.93
443.24	8156.77
443.43	8322.94
443.61	8308.90
443.80	8454.02
443.98	7985.91
444.17	7815.05
444.35	8557.00
444.54	8444.65
444.73	8325.29
444.91	8313.58
445.10	8500.83
445.28	8409.54
445.47	8304.22
445.65	8510.19
445.84	8500.83
446.02	8659.98
446.21	8341.67
446.39	8430.61
446.58	8430.61
446.77	8477.42
446.95	8322.94
447.14	8418.91
447.32	8561.68
447.51	8535.93
447.69	8624.87
447.88	8552.32
448.06	8641.26
448.25	8428.27
448.43	8704.45
448.62	8664.66
448.80	8753.60
448.99	8943.19
449.17	8943.19
449.36	8662.32
449.54	8971.27
449.73	8954.89
449.91	9181.92
450.10	9165.54
450.28	9275.54
450.46	9256.82
450.65	9095.32
450.83	9224.05
451.02	9151.49
451.20	9137.45
451.39	9280.22
451.57	9275.54
451.76	9184.26
451.94	9397.25
452.13	9359.80
452.31	9390.23
452.49	9081.28
452.68	9343.42
452.86	9413.63
453.05	9364.48
453.23	9713.22
453.42	9549.39
453.60	9383.21
453.78	9659.39
453.97	9507.26
454.15	9685.14
454.34	9675.77
454.52	10057.28
454.70	9795.14
454.89	9825.57
455.07	9942.60
455.26	10054.94
455.44	10038.56
455.62	10022.17
455.81	9856.00
455.99	10059.62
456.17	10174.31
456.36	10059.62
456.54	10321.76
456.73	10387.30
456.91	10506.66
457.09	10347.51
457.28	10729.02
457.46	10237.50
457.64	10752.42
457.83	10658.80
458.01	10619.01
458.19	10792.21
458.38	10761.78
458.56	10808.59
458.74	10754.76
458.93	10684.55
459.11	10960.73
459.29	10834.34
459.48	10813.28
459.66	10644.76
459.84	10984.13
460.03	11143.29
460.21	11178.40
460.39	11096.48
460.57	11351.60
460.76	11133.93
460.94	11246.27
461.12	11300.11
461.31	11136.27
461.49	11274.36
461.67	11445.22
461.85	11571.61
462.04	11398.41
462.22	11705.02
462.40	11702.68
462.59	11583.31
462.77	11325.85
462.95	11742.47
463.13	11686.29
463.32	11756.51
463.50	12044.40
463.68	11829.07
463.86	12091.21
464.05	11824.39
464.23	11936.73
464.41	12011.63
464.59	11777.58
464.78	12081.85
464.96	12161.42
465.14	11875.88
465.32	12123.98
465.50	12205.89
465.69	12479.74
465.87	12292.49
466.05	12044.40
466.23	12077.16
466.41	12358.03
466.60	12676.34
466.78	12463.35
466.96	12285.47
467.14	12510.16
467.32	12446.97
467.51	12606.13
467.69	12348.67
467.87	12477.40
468.05	12746.56
468.23	12556.97
468.41	12505.48
468.60	12582.72
468.78	12901.03
468.96	12823.80
469.14	12870.61
469.32	13032.10
469.50	12603.78
469.69	13048.49
469.87	13270.84
470.05	13149.13
470.23	13598.51
470.41	13312.97
470.59	13334.03
470.77	13130.41
470.95	13460.42
471.14	13785.76
471.32	13399.57
471.50	13785.76
471.68	13654.69
471.86	13956.61
472.04	13830.23
472.22	14097.05
472.40	13977.68
472.58	14293.65
472.77	14148.54
472.95	14328.76
473.13	14836.66
473.31	14193.01
473.49	14293.65
473.67	14595.58
473.85	14396.64
474.03	14609.62
474.21	14881.13
474.39	14768.78
474.57	14810.91
474.75	15197.10
474.93	15171.35
475.12	15192.42
475.30	15543.50
475.48	15176.03
475.66	15475.62
475.84	15321.15
476.02	15747.12
476.20	15658.18
476.38	15826.70
476.56	16130.97
476.74	16070.12
476.92	16119.27
477.10	16100.55
477.28	16240.98
477.46	16301.83
477.64	16308.85
477.82	16805.05
478.00	17099.95
478.18	16854.20
478.36	16917.39
478.54	17392.52
478.72	17549.34
478.90	17551.68
479.08	17755.30
479.26	18246.82
479.44	17886.37
479.62	18017.44
479.80	18499.59
479.98	18391.93
480.16	18934.93
480.34	18377.89
480.52	18831.95
480.70	18698.54
480.88	18597.90
481.06	18663.43
481.24	19140.90
481.41	19386.66
481.59	19332.82
481.77	19508.37
481.95	19936.68
482.13	19988.18
482.31	19957.75
482.49	20512.46
482.67	20648.21
482.85	20622.46
483.03	20868.22
483.21	21032.05
483.39	21064.82
483.57	21081.21
483.74	21242.70
483.92	21544.63
484.10	21350.37
484.28	21860.60
484.46	22403.61
484.64	22321.69
484.82	22478.50
485.00	22658.73
485.18	23204.07
485.35	22993.42
485.53	22829.59
485.71	23190.03
485.89	23819.63
486.07	23798.57
486.25	23660.48
486.43	24184.76
486.61	24397.74
486.78	24247.95
486.96	24608.39
487.14	24657.54
487.32	24734.78
487.50	25153.74
487.68	25132.67
487.85	25790.36
488.03	25989.31
488.21	25984.63
488.39	25825.47
488.57	26286.56
488.75	26178.89
488.92	26593.17
489.10	26993.40
489.28	27213.41
489.46	27241.50
489.64	27201.71
489.81	27838.33
489.99	28072.39
490.17	28266.65
490.35	28376.66
490.53	28620.07
490.70	28727.74
490.88	28547.51
491.06	29174.78
491.24	29268.40
491.41	29338.62
491.59	29560.97
491.77	29390.11
491.95	29984.60
492.13	30401.22
492.30	30618.89
492.48	30543.99
492.66	30466.75
492.84	30866.98
493.01	30689.10
493.19	31021.46
493.37	31651.06
493.54	31501.27
493.72	31789.16
493.90	31763.41
494.08	31962.36
494.25	32472.59
494.43	32360.25
494.61	32900.91
494.79	33151.35
494.96	32744.09
495.14	33387.74
495.32	33638.18
495.49	33411.15
495.67	33780.95
495.85	33972.88
496.02	34256.08
496.20	34707.80
496.38	34700.78
496.55	34581.42
496.73	35096.33
496.91	34829.51
497.09	35124.42
497.26	35541.03
497.44	35178.25
497.62	35580.82
497.79	36070.00
497.97	35976.37
498.14	36180.00
498.32	36725.35
498.50	36655.13
498.67	36851.73
498.85	36898.55
499.03	37429.85
499.20	37565.60
499.38	37390.06
499.56	37240.26
499.73	37848.80
499.91	38036.05
500.08	37904.98
500.26	37603.05
500.44	38256.06
500.61	38181.16
500.79	38286.48
500.97	38227.97
501.14	39199.29
501.32	38700.76
501.49	39140.78
501.67	39084.61
501.84	39147.80
502.02	39564.42
502.20	39381.85
502.37	40182.32
502.55	39093.97
502.72	39892.09
502.90	39931.88
503.07	39709.53
503.25	40212.74
503.43	40130.83
503.60	40437.44
503.78	40737.02
503.95	40673.83
504.13	41172.36
504.30	40992.14
504.48	41462.59
504.65	41083.42
504.83	41273.01
505.01	41570.25
505.18	41745.80
505.36	42054.75
505.53	42003.25
505.71	41937.72
505.88	42286.46
506.06	41904.95
506.23	42511.15
506.41	42029.00
506.58	42665.63
506.76	42670.31
506.93	42979.26
507.11	42721.80
507.28	43119.69
507.46	43634.61
507.63	43533.96
507.81	43489.49
507.98	43641.63
508.16	43826.53
508.33	43686.10
508.50	43791.42
508.68	44149.53
508.85	44301.66
509.03	44643.38
509.20	44364.85
509.38	45008.50
509.55	44898.50
509.73	45013.18
509.90	45088.08
510.08	45261.28
510.25	45368.94
510.42	45415.76
510.60	45635.77
510.77	45511.72
510.95	45918.97
511.12	45663.85
511.30	46026.63
511.47	45900.25
511.64	45825.35
511.82	46146.00
511.99	46031.32
512.17	46300.48
512.34	46347.29
512.51	46766.24
512.69	46700.71
512.86	46665.60
513.04	47330.31
513.21	47030.72
513.38	47363.08
513.56	47358.40
513.73	47089.24
513.90	47646.29
514.08	46887.95
514.25	47557.35
514.43	47501.17
514.60	48076.94
514.77	47559.69
514.95	48463.13
515.12	47625.22
515.29	48224.40
515.47	48526.33
515.64	48453.77
515.81	48509.94
515.99	48886.77
516.16	48835.28
516.33	48964.01
516.51	49123.16
516.68	49083.37
516.85	48942.94
517.03	48896.13
517.20	49298.70
517.37	49446.16
517.54	49537.44
517.72	49329.13
517.89	49481.27
518.06	49851.07
518.24	49567.87
518.41	49464.88
518.58	49900.22
518.75	49698.94
518.93	50108.53
519.10	49853.41
519.27	49937.67
519.45	50459.61
519.62	50080.44
519.79	50239.60
519.96	50038.31
520.14	50578.98
520.31	50436.20
520.48	50700.68
520.65	50623.45
520.83	50604.72
521.00	51049.42
521.17	51070.49
521.34	50934.74
521.52	50995.59
521.69	51110.28
521.86	51161.77
522.03	51157.09
522.20	51526.89
522.38	51922.44
522.55	51941.17
522.72	51758.61
522.89	51875.63
523.07	52067.56
523.24	51983.30
523.41	51917.76
523.58	51999.68
523.75	52020.75
523.92	52114.37
524.10	52385.87
524.27	52294.59
524.44	52296.93
524.61	52610.56
524.78	52692.48
524.96	52657.37
525.13	52839.93
525.30	52582.48
525.47	53106.76
525.64	52650.35
525.81	52790.78
525.98	52978.03
526.16	52903.13
526.33	53027.18
526.50	53289.32
526.67	53275.27
526.84	53291.66
527.01	53289.32
527.18	53123.14
527.36	53233.14
527.53	53467.20
527.70	53581.88
527.87	53556.14
528.04	53347.83
528.21	53813.60
528.38	53415.71
528.55	54014.88
528.72	53656.78
528.89	53680.19
529.07	53755.08
529.24	53680.19
529.41	53799.55
529.58	54003.18
529.75	53890.83
529.92	53984.46
530.09	54206.81
530.26	54204.47
530.43	54319.15
530.60	54244.26
530.77	54066.38
530.94	54515.76
531.11	54323.83
531.28	54466.61
531.46	54686.62
531.63	54405.75
531.80	54712.36
531.97	54515.76
532.14	54880.88
532.31	54794.28
532.48	54986.21
532.65	54887.90
532.82	54908.97
532.99	54995.57
533.16	54911.31
533.33	55363.03
533.50	55196.85
533.67	55021.31
533.84	55098.55
534.01	55140.68
534.18	55426.23
534.35	55512.83
534.52	55196.85
534.69	55744.54
534.86	55604.11
535.03	55217.92
535.20	55681.34
535.37	55583.04
535.54	55552.62
535.71	55653.26
535.88	55662.62
536.05	55660.28
536.22	55861.57
536.38	55978.59
536.55	55718.79
536.72	55934.12
536.89	55973.91
537.06	55889.65
537.23	56090.94
537.40	56097.96
537.57	56053.49
537.74	56193.92
537.91	56168.18
538.08	56154.13
538.25	56119.02
538.42	56142.43
538.59	56343.72
538.75	56107.32
538.92	56355.42
539.09	56313.29
539.26	56535.64
539.43	56364.78
539.60	56722.88
539.77	56509.89
539.94	56853.95
540.11	56713.52
540.28	56720.54
540.44	56643.30
540.61	56889.06
540.78	56647.99
540.95	56790.76
541.12	56690.12
541.29	56814.16
541.46	56989.70
541.62	56736.93
541.79	56900.76
541.96	56685.43
542.13	56769.69
542.30	57120.77
542.47	57137.16
542.63	57403.98
542.80	57078.64
542.97	57350.15
543.14	57471.85
543.31	57560.79
543.48	57532.71
543.64	57722.29
543.81	57743.36
543.98	57647.39
544.15	57635.69
544.32	57649.74
544.48	57689.52
544.65	57804.21
544.82	57792.51
544.99	57532.71
545.16	57635.69
545.32	57731.65
545.49	58047.63
545.66	57979.75
545.83	57836.98
546.00	58159.97
546.16	57949.32
546.33	58021.88
546.50	57619.31
546.67	57869.75
546.83	57687.18
547.00	58031.24
547.17	58003.16
547.34	58066.35
547.50	58199.76
547.67	58272.32
547.84	58302.74
548.00	58295.72
548.17	58529.78
548.34	58370.62
548.51	58560.20
548.67	58480.63
548.84	58377.64
549.01	58534.46
549.18	58632.76
549.34	58534.46
549.51	58609.35
549.68	58417.43
549.84	58628.08
550.01	58653.82
550.18	58466.58
550.34	58567.23
550.51	58756.81
550.68	58775.53
550.84	58445.52
551.01	58719.36
551.18	58630.42
551.34	58724.04
551.51	58794.26
551.68	58892.56
551.84	58894.90
552.01	58635.10
552.18	58766.17
552.34	58733.40
552.51	58939.37
552.68	58681.91
552.84	58988.52
553.01	59220.23
553.18	59110.23
553.34	59327.90
553.51	58899.58
553.67	59058.74
553.84	59288.11
554.01	59107.89
554.17	59430.88
554.34	59501.10
554.51	59365.35
554.67	59473.01
554.84	59253.00
555.00	59475.35
555.17	59290.45
555.33	59426.20
555.50	59075.12
555.67	59100.87
555.83	59388.75
556.00	59400.46
556.16	59791.33
556.33	59522.16
556.50	59447.27
556.66	59714.09
556.83	59391.09
556.99	59536.21
557.16	59751.54
557.32	59805.37
557.49	59927.08
557.65	59606.42
557.82	59700.04
557.98	59489.40
558.15	59650.89
558.32	59686.00
558.48	59604.08
558.65	59660.26
558.81	59908.35
558.98	59980.91
559.14	59950.48
559.31	59805.37
559.47	60093.25
559.64	60053.47
559.80	59898.99
559.97	60086.23
560.13	60104.96
560.30	59980.91
560.46	59866.22
560.63	60243.05
560.79	60243.05
560.96	60060.49
561.12	60034.74
561.29	60067.51
561.45	60156.45
561.61	60053.47
561.78	60102.62
561.94	60221.98
562.11	60378.80
562.27	60100.28
562.44	60282.84
562.60	60083.89
562.77	60149.43
562.93	60016.02
563.10	60329.65
563.26	60013.68
563.42	60456.04
563.59	60221.98
563.75	60285.18
563.92	60261.77
564.08	60210.28
564.24	60399.86
564.41	60334.33
564.57	60364.76
564.74	60292.20
564.90	60254.75
565.07	60528.59
565.23	60463.06
565.39	60350.71
565.56	60498.17
565.72	60460.72
565.88	60388.16
566.05	60406.89
566.21	60406.89
566.38	60502.85
566.54	60547.32
566.70	60514.55
566.87	60673.71
567.03	60367.10
567.19	60617.53
567.36	60657.32
567.52	60533.28
567.68	60748.60
567.85	60619.88
568.01	60743.92
568.17	60573.06
568.34	60800.10
568.50	60629.24
568.66	60584.77
568.83	60659.66
568.99	60430.29
569.15	60591.79
569.32	60659.66
569.48	60624.56
569.64	60828.18
569.81	60615.19
569.97	60533.28
570.13	60690.09
570.30	60631.58
570.46	60938.19
570.62	60949.89
570.78	60982.66
570.95	60809.46
571.11	60910.10
571.27	60605.83
571.43	60671.37
571.60	61144.16
571.76	60750.94
571.92	61076.28
572.09	61001.38
572.25	60839.89
572.41	60713.50
572.57	60743.92
572.74	60999.04
572.90	60811.80
573.06	60896.06
573.22	60823.50
573.38	60823.50
573.55	60793.07
573.71	61102.03
573.87	60982.66
574.03	60662.00
574.20	60999.04
574.36	60889.04
574.52	60949.89
574.68	60982.66
574.84	61041.17
575.01	60928.83
575.17	60982.66
575.33	60921.80
575.49	60975.64
575.65	61034.15
575.82	61006.06
575.98	60926.49
576.14	61303.31
576.30	61146.50
576.46	61038.83
576.62	60996.70
576.79	60959.25
576.95	60982.66
577.11	60975.64
577.27	61073.94
577.43	61111.39
577.59	60781.37
577.75	60842.23
577.92	60842.23
578.08	61036.49
578.24	61158.20
578.40	61092.66
578.56	61249.48
578.72	61214.37
578.88	61418.00
579.04	61125.43
579.21	61183.94
579.37	61066.92
579.53	61237.78
579.69	60828.18
579.85	61214.37
580.01	61036.49
580.17	61132.45
580.33	61139.47
580.49	61307.99
580.65	61050.53
580.82	61024.79
580.98	60980.32
581.14	60945.21
581.30	61240.12
581.46	61127.77
581.62	61364.17
581.78	61102.03
581.94	61345.44
582.10	61202.67
582.26	61408.64
582.42	61256.50
582.58	61036.49
582.74	61315.01
582.90	61076.28
583.06	61116.07
583.22	60956.91
583.38	61202.67
583.54	61300.97
583.70	61300.97
583.86	61137.13
584.02	61024.79
584.18	61375.87
584.34	61319.70
584.50	61151.18
584.66	61132.45
584.82	61069.26
584.98	61291.61
585.14	61197.99
585.30	61298.63
585.46	61183.94
585.62	61300.97
585.78	61333.74
585.94	61155.86
586.10	61008.40
586.26	61403.95
586.42	61293.95
586.58	61303.31
586.74	61160.54
586.90	61160.54
587.06	61148.84
587.22	61436.72
587.38	61249.48
587.54	61467.15
587.70	61481.19
587.86	61277.57
588.02	61338.42
588.18	61427.36
588.34	61319.70
588.49	61371.19
