SpectraSuite Data File
++++++++++++++++++++++++++++++++++++
Date: Fri Oct 25 10:43:41 EDT 2013
User: price-jones
Dark Spectrum Present: No
Reference Spectrum Present: No
Number of Sampled Component Spectra: 1
Spectrometers: USB2+H05261
Integration Time (usec): 100000 (USB2+H05261)
Spectra Averaged: 1 (USB2+H05261)
Boxcar Smoothing: 0 (USB2+H05261)
Correct for Electrical Dark: No (USB2+H05261)
Strobe/Lamp Enabled: No (USB2+H05261)
Correct for Detector Non-linearity: No (USB2+H05261)
Correct for Stray Light: No (USB2+H05261)
Number of Pixels in Processed Spectrum: 2048
>>>>>Begin Processed Spectral Data<<<<<
365.73	159.16
365.92	159.16
366.12	159.16
366.32	98.30
366.52	51.49
366.72	23.41
366.91	63.19
367.11	9.36
367.31	56.17
367.51	4.68
367.70	25.75
367.90	0.00
368.10	88.94
368.30	0.00
368.49	23.41
368.69	86.60
368.89	60.85
369.09	11.70
369.28	91.28
369.48	23.41
369.68	42.13
369.87	88.94
370.07	100.64
370.27	252.78
370.47	215.33
370.66	400.23
370.86	365.12
371.06	442.36
371.25	463.43
371.45	461.09
371.65	489.17
371.84	430.66
372.04	484.49
372.24	491.51
372.44	442.36
372.63	461.09
372.83	526.62
373.03	517.26
373.22	503.22
373.42	587.47
373.62	528.96
373.81	468.11
374.01	547.69
374.21	650.67
374.40	547.69
374.60	617.90
374.79	589.82
374.99	580.45
375.19	608.54
375.38	596.84
375.58	543.00
375.78	660.03
375.97	657.69
376.17	636.63
376.37	641.31
376.56	695.14
376.76	624.92
376.95	596.84
377.15	615.56
377.35	685.78
377.54	585.13
377.74	683.44
377.93	732.59
378.13	671.73
378.33	669.39
378.52	664.71
378.72	610.88
378.91	690.46
379.11	650.67
379.31	627.26
379.50	645.99
379.70	753.65
379.89	763.01
380.09	638.97
380.28	685.78
380.48	664.71
380.68	727.91
380.87	683.44
381.07	669.39
381.26	791.10
381.46	777.06
381.65	676.41
381.85	650.67
382.04	699.82
382.24	716.20
382.43	727.91
382.63	636.63
382.83	725.57
383.02	746.63
383.22	744.29
383.41	751.31
383.61	727.91
383.80	798.12
384.00	748.97
384.19	774.72
384.39	816.85
384.58	767.70
384.78	833.23
384.97	748.97
385.17	748.97
385.36	779.40
385.56	823.87
385.75	788.76
385.95	748.97
386.14	873.02
386.34	943.24
386.53	912.81
386.72	844.93
386.92	908.13
387.11	910.47
387.31	915.15
387.50	809.83
387.70	894.08
387.89	887.06
388.09	858.98
388.28	875.36
388.48	936.21
388.67	954.94
388.86	976.00
389.06	884.72
389.25	961.96
389.45	915.15
389.64	1083.67
389.84	1001.75
390.03	1008.77
390.22	947.92
390.42	933.87
390.61	1036.86
390.81	1004.09
391.00	1158.57
391.19	1034.52
391.39	957.28
391.58	1074.31
391.78	1027.50
391.97	971.32
392.16	1111.75
392.36	1069.62
392.55	1004.09
392.75	978.34
392.94	973.66
393.13	1039.20
393.33	987.71
393.52	1046.22
393.71	1123.46
393.91	1142.18
394.10	1139.84
394.29	1203.04
394.49	1191.33
394.68	1226.44
394.88	1231.12
395.07	1334.11
395.26	1160.91
395.46	1270.91
395.65	1301.34
395.84	1289.64
396.04	1327.08
396.23	1174.95
396.42	1137.50
396.62	1067.28
396.81	1165.59
397.00	1123.46
397.19	1256.87
397.39	1397.30
397.58	1364.53
397.77	1373.89
397.97	1394.96
398.16	1430.07
398.35	1523.69
398.55	1547.09
398.74	1509.65
398.93	1504.96
399.12	1533.05
399.32	1600.93
399.51	1523.69
399.70	1556.46
399.90	1502.62
400.09	1610.29
400.28	1671.14
400.47	1533.05
400.67	1790.51
400.86	1755.40
401.05	1764.76
401.24	1699.23
401.44	1741.36
401.63	1802.21
401.82	1778.81
402.01	1753.06
402.21	1874.77
402.40	1760.08
402.59	1757.74
402.78	1834.98
402.97	1809.23
403.17	1795.19
403.36	1799.87
403.55	1783.49
403.74	1949.67
403.93	1867.75
404.13	1980.09
404.32	1891.15
404.51	1947.33
404.70	1987.11
404.89	1982.43
405.09	2092.44
405.28	2026.90
405.47	2078.40
405.66	2019.88
405.85	2108.82
406.05	1961.37
406.24	2043.29
406.43	2036.27
406.62	2015.20
406.81	2125.21
407.00	2008.18
407.20	2029.24
407.39	2120.53
407.58	2193.08
407.77	2214.15
407.96	2153.29
408.15	2282.02
408.34	2282.02
408.54	2319.47
408.73	2267.98
408.92	2291.38
409.11	2385.01
409.30	2321.81
409.49	2326.49
409.68	2251.60
409.87	2345.22
410.07	2349.90
410.26	2373.30
410.45	2354.58
410.64	2462.24
410.83	2476.29
411.02	2513.74
411.21	2635.44
411.40	2642.46
411.59	2708.00
411.78	2693.96
411.98	2722.04
412.17	2665.87
412.36	2668.21
412.55	2822.69
412.74	2761.83
412.93	2768.85
413.12	2818.00
413.31	2949.08
413.50	2918.65
413.69	2963.12
413.88	3038.02
414.07	2822.69
414.26	3070.78
414.45	2916.31
414.64	2930.35
414.83	2965.46
415.02	3021.63
415.22	3070.78
415.41	3262.71
415.60	3194.83
415.79	3208.87
415.98	3255.69
416.17	3351.65
416.36	3133.98
416.55	3253.34
416.74	3330.58
416.93	3396.12
417.12	3307.18
417.31	3466.33
417.50	3316.54
417.69	3499.10
417.88	3384.41
418.07	3286.11
418.26	3468.67
418.45	3599.74
418.64	3623.15
418.83	3543.57
419.02	3414.84
419.21	3786.99
419.39	3618.47
419.58	3651.24
419.77	3468.67
419.96	3597.40
420.15	3700.39
420.34	3721.45
420.53	3775.28
420.72	3735.50
420.91	3726.13
421.10	3822.09
421.29	3887.63
421.48	3772.94
421.67	3932.10
421.86	3824.44
422.05	3775.28
422.24	3815.07
422.43	3817.41
422.61	3812.73
422.80	3995.29
422.99	3866.56
423.18	3978.91
423.37	4007.00
423.56	3964.87
423.75	3983.59
423.94	4121.68
424.13	3655.92
424.32	3777.62
424.50	4009.34
424.69	3976.57
424.88	4126.36
425.07	4021.04
425.26	3976.57
425.45	3997.64
425.64	4065.51
425.83	4044.45
426.01	4154.45
426.20	3995.29
426.39	4292.54
426.58	4065.51
426.77	4095.94
426.96	3878.27
427.15	3920.40
427.33	4009.34
427.52	4126.36
427.71	4037.42
427.90	4121.68
428.09	4145.09
428.28	4159.13
428.46	4156.79
428.65	4215.30
428.84	4142.75
429.03	4374.46
429.22	4014.02
429.40	4271.48
429.59	4243.39
429.78	3990.61
429.97	4032.74
430.16	4023.38
430.34	4121.68
430.53	4241.05
430.72	4173.18
430.91	4283.18
431.10	4294.88
431.28	4601.49
431.47	4748.95
431.66	4739.58
431.85	4550.00
432.03	4657.67
432.22	4720.86
432.41	4667.03
432.60	4819.16
432.79	4854.27
432.97	4884.70
433.16	4781.71
433.35	4821.50
433.54	4725.54
433.72	4842.57
433.91	4608.51
434.10	4805.12
434.28	4734.90
434.47	4961.94
434.66	4884.70
434.85	4950.23
435.03	5097.69
435.22	5022.79
435.41	5137.48
435.59	5109.39
435.78	5188.97
435.97	5214.71
436.16	5275.57
436.34	5165.56
436.53	5071.94
436.72	5177.26
436.90	5151.52
437.09	5179.61
437.28	5107.05
437.46	5247.48
437.65	5275.57
437.84	5177.26
438.02	5261.52
438.21	5305.99
438.40	5179.61
438.58	5369.19
438.77	5469.83
438.96	5416.00
439.14	5497.92
439.33	5661.76
439.52	5643.03
439.70	5603.24
439.89	5731.97
440.08	5703.89
440.26	5921.56
440.45	5755.38
440.63	6005.81
440.82	6022.20
441.01	5872.40
441.19	5928.58
441.38	6094.76
441.57	6087.73
441.75	6298.38
441.94	6335.83
442.12	6380.30
442.31	6436.47
442.50	6345.19
442.68	6218.80
442.87	6326.47
443.05	6263.27
443.24	6569.88
443.43	6352.21
443.61	6558.18
443.80	6715.00
443.98	6399.02
444.17	6387.32
444.35	6602.65
444.54	6707.98
444.73	6487.96
444.91	6551.16
445.10	6485.62
445.28	6539.46
445.47	6401.37
445.65	6520.73
445.84	6537.12
446.02	6553.50
446.21	6670.53
446.39	6609.67
446.58	6766.49
446.77	6808.62
446.95	6614.35
447.14	6722.02
447.32	6766.49
447.51	6803.94
447.69	6628.40
447.88	6799.26
448.06	6752.45
448.25	6665.85
448.43	6766.49
448.62	6906.92
448.80	6731.38
448.99	6916.28
449.17	6843.73
449.36	6752.45
449.54	6855.43
449.73	7150.34
449.91	7297.79
450.10	7302.47
450.28	7316.51
450.46	7269.70
450.65	7180.76
450.83	7206.51
451.02	7449.93
451.20	7363.33
451.39	7410.14
451.57	7288.43
451.76	7332.90
451.94	7239.28
452.13	7344.60
452.31	7335.24
452.49	6942.03
452.68	7321.20
452.86	7267.36
453.05	7419.50
453.23	7269.70
453.42	7323.54
453.60	7520.14
453.78	7597.38
453.97	7602.06
454.15	7295.45
454.34	7447.58
454.52	7424.18
454.70	7606.74
454.89	7625.47
455.07	7658.23
455.26	7915.69
455.44	7861.86
455.62	7932.08
455.81	7831.43
455.99	7843.14
456.17	7672.28
456.36	7768.24
456.54	7934.42
456.73	7976.55
456.91	8191.88
457.09	8126.34
457.28	8264.43
457.46	7981.23
457.64	8226.98
457.83	8030.38
458.01	8063.15
458.19	8320.60
458.38	8297.20
458.56	8266.77
458.74	8259.75
458.93	8184.85
459.11	8236.35
459.29	8346.35
459.48	8596.79
459.66	8456.36
459.84	8381.46
460.03	8671.68
460.21	8667.00
460.39	8730.20
460.57	8486.78
460.76	8482.10
460.94	8676.37
461.12	8758.28
461.31	8678.71
461.49	8767.65
461.67	8608.49
461.85	8837.86
462.04	8842.54
462.22	9390.23
462.40	9163.20
462.59	9036.81
462.77	8912.76
462.95	8926.80
463.13	8917.44
463.32	9020.42
463.50	9116.39
463.68	8943.19
463.86	8992.34
464.05	9111.71
464.23	8884.67
464.41	9111.71
464.59	8872.97
464.78	9380.87
464.96	9249.80
465.14	9327.03
465.32	9376.19
465.50	9530.66
465.69	9502.58
465.87	9163.20
466.05	9193.62
466.23	9320.01
466.41	9198.31
466.60	9635.99
466.78	9366.82
466.96	9437.04
467.14	9252.14
467.32	9476.83
467.51	9600.88
467.69	9385.55
467.87	9394.91
468.05	9467.47
468.23	9722.59
468.41	9797.48
468.60	9717.90
468.78	9713.22
468.96	9729.61
469.14	9888.76
469.32	9767.06
469.50	9685.14
469.69	9877.06
469.87	9788.12
470.05	9809.19
470.23	9968.34
470.41	9893.44
470.59	9914.51
470.77	10244.52
470.95	10045.58
471.14	10270.27
471.32	9844.29
471.50	10235.16
471.68	10403.68
471.86	10265.59
472.04	10541.77
472.22	10590.92
472.40	10394.32
472.58	10359.21
472.77	10455.17
472.95	10707.95
473.13	11061.37
473.31	10616.67
473.49	10546.45
473.67	10700.93
473.85	10768.80
474.03	10913.92
474.21	10984.13
474.39	11044.99
474.57	11330.53
474.75	11281.38
474.93	11211.17
475.12	11147.97
475.30	11208.83
475.48	11283.72
475.66	11477.99
475.84	11477.99
476.02	11323.51
476.20	11705.02
476.38	11779.92
476.56	11843.11
476.74	11964.82
476.92	12065.46
477.10	11793.96
477.28	12226.96
477.46	12332.28
477.64	12432.93
477.82	12336.96
478.00	12760.60
478.18	12769.96
478.36	12362.71
478.54	12601.44
478.72	12863.58
478.90	12896.35
479.08	13107.00
479.26	13324.67
479.44	13460.42
479.62	13598.51
479.80	13432.33
479.98	13502.55
480.16	13802.14
480.34	13650.00
480.52	13696.82
480.70	13757.67
480.88	13760.01
481.06	14073.64
481.24	14235.14
481.41	14368.55
481.59	14391.95
481.77	14466.85
481.95	14698.56
482.13	14920.92
482.31	14815.59
482.49	14813.25
482.67	14897.51
482.85	15063.69
483.03	15234.55
483.21	15566.90
483.39	15543.50
483.57	15475.62
483.74	15793.94
483.92	15786.91
484.10	15501.37
484.28	15922.66
484.46	16306.51
484.64	16449.28
484.82	16077.14
485.00	16070.12
485.18	16489.07
485.35	16652.91
485.53	16259.70
485.71	16428.22
485.89	16542.91
486.07	16432.90
486.25	17069.53
486.43	16964.20
486.61	17247.41
486.78	17319.96
486.96	17509.55
487.14	17832.54
487.32	17764.67
487.50	18281.92
487.68	18045.53
487.85	18682.16
488.03	18583.85
488.21	18616.62
488.39	18363.84
488.57	18759.39
488.75	18853.02
488.92	19370.27
489.10	19119.84
489.28	19393.68
489.46	19800.93
489.64	20006.90
489.81	20236.27
489.99	20355.64
490.17	20149.67
490.35	20512.46
490.53	20505.43
490.70	20449.26
490.88	20936.09
491.06	20989.92
491.24	20585.01
491.41	20936.09
491.59	20788.64
491.77	21099.93
491.95	21081.21
492.13	21266.11
492.30	21884.01
492.48	22134.45
492.66	21788.05
492.84	22211.68
493.01	22167.21
493.19	21937.84
493.37	22424.67
493.54	22658.73
493.72	22740.64
493.90	22831.93
494.08	23297.69
494.25	23065.98
494.43	23487.28
494.61	23756.44
494.79	23702.61
494.96	23573.88
495.14	23625.37
495.32	23791.55
495.49	23843.04
495.67	23906.23
495.85	24390.72
496.02	24671.59
496.20	24498.39
496.38	24353.27
496.55	24589.67
496.73	25348.00
496.91	24924.36
497.09	25092.88
497.26	25326.94
497.44	24985.22
497.62	25266.08
497.79	25900.37
497.97	25209.91
498.14	25638.23
498.32	25626.53
498.50	25811.43
498.67	26302.94
498.85	26225.70
499.03	26335.71
499.20	26288.90
499.38	26492.52
499.56	26529.97
499.73	26946.59
499.91	26761.69
500.08	26897.44
500.26	26656.36
500.44	26721.90
500.61	27030.85
500.79	26911.48
500.97	26913.82
501.14	27618.32
501.32	27267.24
501.49	27297.67
501.67	27545.76
501.84	27730.67
502.02	27562.15
502.20	27850.03
502.37	27978.76
502.55	28039.62
502.72	28210.48
502.90	28343.89
503.07	28056.00
503.25	28051.32
503.43	28224.52
503.60	28023.23
503.78	28133.24
503.95	28439.85
504.13	28470.28
504.30	28893.91
504.48	28842.42
504.65	29184.14
504.83	29102.22
505.01	29376.06
505.18	29177.12
505.36	29455.64
505.53	29743.53
505.71	29972.90
505.88	29839.49
506.06	29703.74
506.23	29701.40
506.41	29839.49
506.58	30122.69
506.76	30071.20
506.93	30291.21
507.11	30129.72
507.28	30272.49
507.46	29682.67
507.63	30326.32
507.81	30583.78
507.98	30300.58
508.16	30377.81
508.33	30855.28
508.50	31152.53
508.68	30946.56
508.85	31552.76
509.03	31063.59
509.20	31276.58
509.38	31578.51
509.55	31744.69
509.73	31356.16
509.90	31592.55
510.08	31690.85
510.25	31688.51
510.42	32084.06
510.60	31882.78
510.77	31817.24
510.95	32051.30
511.12	31985.76
511.30	32290.03
511.47	32460.89
511.64	32676.22
511.82	32699.62
511.99	32353.23
512.17	32187.05
512.34	32418.76
512.51	32414.08
512.69	33062.41
512.86	32465.57
513.04	33181.77
513.21	33090.49
513.38	33039.00
513.56	33078.79
513.73	33076.45
513.90	33275.40
514.08	32886.87
514.25	33394.76
514.43	33425.19
514.60	33256.67
514.77	33504.77
514.95	33757.55
515.12	33797.34
515.29	33806.70
515.47	34101.61
515.64	34249.06
515.81	33813.72
515.99	34429.28
516.16	33928.41
516.33	33783.29
516.51	34174.16
516.68	33729.46
516.85	33586.69
517.03	34122.67
517.20	34223.31
517.37	34632.91
517.54	34625.89
517.72	34670.36
517.89	34122.67
518.06	33919.04
518.24	34398.85
518.41	34249.06
518.58	34604.82
518.75	34731.21
518.93	35328.05
519.10	34869.30
519.27	35414.65
519.45	35189.95
519.62	35262.51
519.79	35716.58
519.96	35461.46
520.14	35243.79
520.31	35360.81
520.48	35779.77
520.65	35564.44
520.83	35934.24
521.00	36343.84
521.17	36266.60
521.34	36074.68
521.52	36627.04
521.69	36287.67
521.86	36364.90
522.03	36533.42
522.20	36032.55
522.38	37153.66
522.55	36526.40
522.72	36774.50
522.89	36598.96
523.07	36657.47
523.24	36964.08
523.41	37060.04
523.58	37186.43
523.75	37350.27
523.92	37205.16
524.10	37411.12
524.27	37574.96
524.44	37750.50
524.61	37111.53
524.78	37219.20
524.96	37940.08
525.13	37434.53
525.30	37872.21
525.47	38057.11
525.64	37713.05
525.81	37869.87
525.98	38005.62
526.16	37268.35
526.33	37600.71
526.50	38146.05
526.67	37319.84
526.84	37537.51
527.01	37741.14
527.18	38050.09
527.36	38548.62
527.53	38150.73
527.70	38450.32
527.87	38981.62
528.04	38422.23
528.21	38602.46
528.38	38883.32
528.55	39171.21
528.72	39070.56
528.89	39225.04
529.07	39409.94
529.24	38588.41
529.41	39330.36
529.58	39065.88
529.75	38717.14
529.92	39311.64
530.09	39302.28
530.26	39250.78
530.43	39875.71
530.60	39239.08
530.77	39702.51
530.94	39969.33
531.11	39271.85
531.28	39648.68
531.46	39791.45
531.63	39725.91
531.80	40055.93
531.97	39283.55
532.14	40013.80
532.31	39398.24
532.48	39835.92
532.65	39894.43
532.82	39618.25
532.99	39758.68
533.16	39833.58
533.33	40395.31
533.50	40158.91
533.67	40395.31
533.84	40121.46
534.01	40758.09
534.18	40053.59
534.35	40795.54
534.52	40502.97
534.69	40505.31
534.86	40760.43
535.03	40278.28
535.20	40795.54
535.37	41214.49
535.54	41233.22
535.71	40582.55
535.88	40818.94
536.05	41397.06
536.22	41092.79
536.38	40533.40
536.55	41053.00
536.72	40804.90
536.89	40863.41
537.06	40704.26
537.23	41296.41
537.40	41212.15
537.57	40868.09
537.74	41345.56
537.91	41544.51
538.08	41551.53
538.25	41336.20
538.42	41078.74
538.59	41474.29
538.75	41298.75
538.92	41486.00
539.09	41771.54
539.26	41357.27
539.43	41247.26
539.60	41832.39
539.77	41439.18
539.94	41338.54
540.11	41670.90
540.28	41720.05
540.44	41673.24
540.61	42131.98
540.78	41434.50
540.95	41841.76
541.12	41818.35
541.29	41715.37
541.46	42057.09
541.62	42024.32
541.79	42337.95
541.96	41895.59
542.13	41785.58
542.30	42131.98
542.47	42382.42
542.63	42574.34
542.80	42686.69
542.97	42394.12
543.14	42895.00
543.31	42609.45
543.48	42721.80
543.64	43150.12
543.81	43377.15
543.98	43168.84
544.15	43250.76
544.32	42955.85
544.48	43697.80
544.65	43068.20
544.82	43309.27
544.99	42904.36
545.16	43138.41
545.32	43089.26
545.49	43325.66
545.66	43831.21
545.83	43330.34
546.00	43459.07
546.16	43454.39
546.33	43388.85
546.50	43002.66
546.67	43477.79
546.83	43063.52
547.00	43559.71
547.17	43049.47
547.34	43533.96
547.50	43564.39
547.67	43634.61
547.84	43833.55
548.00	43597.16
548.17	44619.97
548.34	43873.34
548.51	44130.80
548.67	44074.63
548.84	43805.47
549.01	43910.79
549.18	43526.94
549.34	44128.46
549.51	43716.53
549.68	44325.07
549.84	43758.66
550.01	44116.76
550.18	44151.87
550.34	44034.84
550.51	44062.93
550.68	44212.72
550.84	43627.59
551.01	44505.29
551.18	44091.01
551.34	44322.72
551.51	44769.77
551.68	44549.76
551.84	44378.90
552.01	44514.65
552.18	44610.61
552.34	44027.82
552.51	44044.20
552.68	44596.57
552.84	44446.77
553.01	44839.98
553.18	44676.15
553.34	44472.52
553.51	44397.62
553.67	44734.66
553.84	45317.45
554.01	45249.58
554.17	44854.03
554.34	45214.47
554.51	44793.17
554.67	44985.10
554.84	45015.52
555.00	44645.72
555.17	44900.84
555.33	45123.19
555.50	44811.90
555.67	45511.72
555.83	44619.97
556.00	44758.06
556.16	45544.48
556.33	44912.54
556.50	45214.47
556.66	44832.96
556.83	44713.59
556.99	44935.95
557.16	44992.12
557.32	45392.35
557.49	45338.52
557.65	45144.25
557.82	44837.64
557.98	45067.02
558.15	45244.90
558.32	45380.65
558.48	45331.50
558.65	45303.41
558.81	45179.36
558.98	45490.65
559.14	45553.85
559.31	45443.84
559.47	45113.83
559.64	45289.37
559.80	45064.67
559.97	45170.00
560.13	45155.96
560.30	45125.53
560.46	45661.51
560.63	45642.79
560.79	45591.30
560.96	45635.77
561.12	45579.59
561.29	45464.91
561.45	45509.38
561.61	45301.07
561.78	45729.39
561.94	45834.71
562.11	45223.83
562.27	45579.59
562.44	45331.50
562.60	45460.23
562.77	45869.82
562.93	45577.25
563.10	45621.72
563.26	45280.00
563.42	45619.38
563.59	45818.33
563.75	46017.27
563.92	46010.25
564.08	46036.00
564.24	46223.24
564.41	45478.95
564.57	45614.70
564.74	45614.70
564.90	45694.28
565.07	45963.44
565.23	45853.44
565.39	45617.04
565.56	45982.16
565.72	45343.20
565.88	45769.18
566.05	45668.53
566.21	45853.44
566.38	45766.84
566.54	45874.50
566.70	45792.58
566.87	46403.46
567.03	45876.84
567.19	46064.08
567.36	45799.60
567.52	45998.55
567.68	46040.68
567.85	45801.94
568.01	46279.41
568.17	45673.21
568.34	46225.58
568.50	46021.95
568.66	45984.51
568.83	46061.74
568.99	45794.92
569.15	46220.90
569.32	46005.57
569.48	45724.71
569.64	46401.12
569.81	46539.21
569.97	45598.32
570.13	45750.45
570.30	45507.04
570.46	46005.57
570.62	45701.30
570.78	45518.74
570.95	45588.95
571.11	46188.13
571.27	45675.55
571.43	46050.04
571.60	45984.51
571.76	46351.97
571.92	46506.44
572.09	46092.17
572.25	46476.02
572.41	45656.83
572.57	46195.15
572.74	46974.55
572.90	46223.24
573.06	46370.69
573.22	46417.50
573.38	46057.06
573.55	45844.07
573.71	46775.61
573.87	46033.66
574.03	45811.31
574.20	45996.21
574.36	46010.25
574.52	46216.22
574.68	46536.87
574.84	46412.82
575.01	46192.81
575.17	45916.63
575.33	45921.31
575.49	46108.55
575.65	46389.42
575.82	46094.51
575.98	46218.56
576.14	46258.35
576.30	46274.73
576.46	45839.39
576.62	46232.60
576.79	46155.36
576.95	45907.27
577.11	46293.46
577.27	45958.76
577.43	46197.49
577.59	45928.33
577.75	46106.21
577.92	45532.78
578.08	45862.80
578.24	46300.48
578.40	46480.70
578.56	46380.06
578.72	46066.42
578.88	46012.59
579.04	45963.44
579.21	46101.53
579.37	45853.44
579.53	46110.89
579.69	46129.62
579.85	46286.43
580.01	46157.70
580.17	46665.60
580.33	45998.55
580.49	46394.10
580.65	46146.00
580.82	46153.02
580.98	46370.69
581.14	46232.60
581.30	46333.24
581.46	46234.94
581.62	45958.76
581.78	45619.38
581.94	46515.81
582.10	46260.69
582.26	46464.32
582.42	46248.99
582.58	46117.92
582.74	46293.46
582.90	46223.24
583.06	46429.21
583.22	46663.26
583.38	46630.49
583.54	46761.56
583.70	46497.08
583.86	45918.97
584.02	46246.65
584.18	46293.46
584.34	46508.79
584.50	46085.15
584.66	46454.95
584.82	46316.86
584.98	46316.86
585.14	46548.57
585.30	45895.56
585.46	46344.95
585.62	45848.75
585.78	46293.46
585.94	45928.33
586.10	46195.15
586.26	46426.87
586.42	46394.10
586.58	46443.25
586.74	46454.95
586.90	46143.66
587.06	46183.45
587.22	46873.91
587.38	46134.30
587.54	46263.03
587.70	45940.04
587.86	46127.28
588.02	46433.89
588.18	46417.50
588.34	45806.62
588.49	45654.49
588.65	45956.42
588.81	46281.75
588.97	45762.15
589.13	45909.61
589.29	46054.72
589.45	46366.01
589.61	46424.53
589.77	46277.07
589.93	46291.12
