SpectraSuite Data File
++++++++++++++++++++++++++++++++++++
Date: Fri Oct 25 11:26:29 EDT 2013
User: price-jones
Dark Spectrum Present: No
Reference Spectrum Present: No
Number of Sampled Component Spectra: 1
Spectrometers: USB2+H05261
Integration Time (usec): 100000 (USB2+H05261)
Spectra Averaged: 1 (USB2+H05261)
Boxcar Smoothing: 0 (USB2+H05261)
Correct for Electrical Dark: No (USB2+H05261)
Strobe/Lamp Enabled: No (USB2+H05261)
Correct for Detector Non-linearity: No (USB2+H05261)
Correct for Stray Light: No (USB2+H05261)
Number of Pixels in Processed Spectrum: 2048
>>>>>Begin Processed Spectral Data<<<<<
365.73	248.10
365.92	248.10
366.12	248.10
366.32	140.43
366.52	107.66
366.72	201.29
366.91	170.86
367.11	170.86
367.31	63.19
367.51	74.90
367.70	84.26
367.90	163.84
368.10	35.11
368.30	131.07
368.49	63.19
368.69	187.24
368.89	189.58
369.09	182.56
369.28	70.22
369.48	222.35
369.68	184.90
369.87	271.50
370.07	177.88
370.27	287.89
370.47	283.20
370.66	547.69
370.86	664.71
371.06	765.36
371.25	695.14
371.45	573.43
371.65	617.90
371.84	617.90
372.04	664.71
372.24	748.97
372.44	734.93
372.63	723.23
372.83	697.48
373.03	791.10
373.22	802.80
373.42	697.48
373.62	807.48
373.81	833.23
374.01	826.21
374.21	880.04
374.40	858.98
374.60	774.72
374.79	770.04
374.99	826.21
375.19	875.36
375.38	870.68
375.58	873.02
375.78	868.34
375.97	877.70
376.17	866.00
376.37	868.34
376.56	851.96
376.76	809.83
376.95	910.47
377.15	917.49
377.35	826.21
377.54	990.05
377.74	903.45
377.93	873.02
378.13	964.30
378.33	882.38
378.52	936.21
378.72	994.73
378.91	952.60
379.11	983.02
379.31	945.58
379.50	964.30
379.70	990.05
379.89	983.02
380.09	924.51
380.28	947.92
380.48	1006.43
380.68	992.39
380.87	954.94
381.07	964.30
381.26	1036.86
381.46	917.49
381.65	1062.60
381.85	1032.18
382.04	1100.05
382.24	1104.73
382.43	1078.99
382.63	1146.86
382.83	1076.65
383.02	1111.75
383.22	1144.52
383.41	1076.65
383.61	1128.14
383.80	1123.46
384.00	1046.22
384.19	1097.71
384.39	1158.57
384.58	1172.61
384.78	1170.27
384.97	1142.18
385.17	1137.50
385.36	1128.14
385.56	1212.40
385.75	1046.22
385.95	1268.57
386.14	1179.63
386.34	1137.50
386.53	1158.57
386.72	1252.19
386.92	1217.08
387.11	1146.86
387.31	1324.74
387.50	1252.19
387.70	1268.57
387.89	1221.76
388.09	1270.91
388.28	1273.25
388.48	1270.91
388.67	1362.19
388.86	1322.40
389.06	1313.04
389.25	1378.58
389.45	1322.40
389.64	1322.40
389.84	1334.11
390.03	1425.39
390.22	1366.87
390.42	1549.43
390.61	1399.64
390.81	1324.74
391.00	1511.99
391.19	1394.96
391.39	1413.68
391.58	1406.66
391.78	1394.96
391.97	1455.81
392.16	1500.28
392.36	1551.78
392.55	1474.54
392.75	1521.35
392.94	1507.30
393.13	1472.20
393.33	1528.37
393.52	1507.30
393.71	1519.01
393.91	1596.25
394.10	1629.01
394.29	1610.29
394.49	1568.16
394.68	1619.65
394.88	1689.87
395.07	1727.32
395.26	1582.20
395.46	1626.67
395.65	1666.46
395.84	1778.81
396.04	1720.29
396.23	1703.91
396.42	1760.08
396.62	1811.57
396.81	1736.68
397.00	1769.44
397.19	1757.74
397.39	1769.44
397.58	1818.60
397.77	1776.47
397.97	1818.60
398.16	1856.04
398.35	1928.60
398.55	1811.57
398.74	1940.30
398.93	1994.14
399.12	1853.70
399.32	1891.15
399.51	1994.14
399.70	1919.24
399.90	2071.37
400.09	1966.05
400.28	1923.92
400.47	2003.50
400.67	2097.12
400.86	2097.12
401.05	1984.77
401.24	2129.89
401.44	2153.29
401.63	2148.61
401.82	2193.08
402.01	2162.66
402.21	2122.87
402.40	2150.95
402.59	2188.40
402.78	2169.68
402.97	2148.61
403.17	2146.27
403.36	2153.29
403.55	2277.34
403.74	2387.35
403.93	2349.90
404.13	2420.11
404.32	2380.32
404.51	2445.86
404.70	2373.30
404.89	2375.64
405.09	2410.75
405.28	2523.10
405.47	2476.29
405.66	2504.37
405.85	2497.35
406.05	2567.57
406.24	2518.42
406.43	2436.50
406.62	2534.80
406.81	2705.66
407.00	2558.21
407.20	2626.08
407.39	2703.32
407.58	2689.28
407.77	2654.17
407.96	2647.15
408.15	2740.77
408.34	2775.88
408.54	2813.32
408.73	2759.49
408.92	2780.56
409.11	2843.75
409.30	2991.20
409.49	2925.67
409.68	2855.45
409.87	2850.77
410.07	2902.26
410.26	2906.95
410.45	2932.69
410.64	2939.71
410.83	3094.19
411.02	3115.25
411.21	3243.98
411.40	3023.97
411.59	3220.58
411.78	3124.62
411.98	3164.40
412.17	3328.24
412.36	3382.07
412.55	3222.92
412.74	3412.50
412.93	3356.33
413.12	3295.47
413.31	3433.57
413.50	3426.54
413.69	3590.38
413.88	3679.32
414.07	3618.47
414.26	3578.68
414.45	3733.15
414.64	3616.13
414.83	3742.52
415.02	3775.28
415.22	3922.74
415.41	3894.65
415.60	3913.38
415.79	3843.16
415.98	3826.78
416.17	3971.89
416.36	4009.34
416.55	3859.54
416.74	4081.89
416.93	4058.49
417.12	4091.26
417.31	4194.24
417.50	3995.29
417.69	4250.41
417.88	4266.80
418.07	4156.79
418.26	4304.25
418.45	4318.29
418.64	4442.34
418.83	4486.81
419.02	4381.48
419.21	4472.76
419.39	4325.31
419.58	4299.56
419.77	4425.95
419.96	4568.73
420.15	4547.66
420.34	4643.62
420.53	4514.89
420.72	4631.92
420.91	4542.98
421.10	4755.97
421.29	4709.16
421.48	4702.14
421.67	4753.63
421.86	4681.07
422.05	4723.20
422.24	4849.59
422.43	4896.40
422.61	4812.14
422.80	4947.89
422.99	4933.85
423.18	5022.79
423.37	4908.10
423.56	4971.30
423.75	4863.63
423.94	4741.93
424.13	4695.11
424.32	4774.69
424.50	4971.30
424.69	4950.23
424.88	5121.09
425.07	4997.04
425.26	4865.97
425.45	4901.08
425.64	5022.79
425.83	4945.55
426.01	4929.17
426.20	5123.43
426.39	4807.46
426.58	4844.91
426.77	5116.41
426.96	5139.82
427.15	5102.37
427.33	5210.03
427.52	5221.74
427.71	5315.36
427.90	5132.79
428.09	5275.57
428.28	5067.26
428.46	5364.51
428.65	5221.74
428.84	5266.21
429.03	5474.51
429.22	5345.78
429.40	5458.13
429.59	5376.21
429.78	5247.48
429.97	5341.10
430.16	5434.72
430.34	5626.65
430.53	5582.18
430.72	5678.14
430.91	5631.33
431.10	5563.45
431.28	5673.46
431.47	5731.97
431.66	5671.12
431.85	5607.92
432.03	5940.28
432.22	5982.41
432.41	5818.57
432.60	5914.53
432.79	5933.26
432.97	5940.28
433.16	6073.69
433.35	5933.26
433.54	6057.31
433.72	6118.16
433.91	6127.52
434.10	6097.10
434.28	6150.93
434.47	6080.71
434.66	6195.40
434.85	6282.00
435.03	6305.40
435.22	6279.66
435.41	6448.18
435.59	6537.12
435.78	6256.25
435.97	6338.17
436.16	6216.46
436.34	6370.94
436.53	6338.17
436.72	6569.88
436.90	6359.24
437.09	6497.33
437.28	6518.39
437.46	6623.72
437.65	6764.15
437.84	6672.87
438.02	6684.57
438.21	6759.47
438.40	6635.42
438.58	7026.29
438.77	6960.75
438.96	6888.20
439.14	6958.41
439.33	7176.08
439.52	7063.74
439.70	7213.53
439.89	7115.23
440.08	7318.86
440.26	7412.48
440.45	7295.45
440.63	7311.83
440.82	7606.74
441.01	7375.03
441.19	7578.65
441.38	7630.15
441.57	7761.22
441.75	7726.11
441.94	8042.08
442.12	7985.91
442.31	7929.74
442.50	7791.64
442.68	7887.61
442.87	8013.99
443.05	8004.63
443.24	7913.35
443.43	8189.53
443.61	8259.75
443.80	8262.09
443.98	8093.57
444.17	7840.79
444.35	8294.86
444.54	8329.97
444.73	8292.52
444.91	8119.32
445.10	8030.38
445.28	8404.86
445.47	8248.05
445.65	8301.88
445.84	8285.50
446.02	8414.23
446.21	8315.92
446.39	8252.73
446.58	8446.99
446.77	8512.53
446.95	8243.37
447.14	8538.27
447.32	8557.00
447.51	8423.59
447.69	8369.76
447.88	8465.72
448.06	8278.47
448.25	8299.54
448.43	8585.08
448.62	8568.70
448.80	8432.95
448.99	8704.45
449.17	8657.64
449.36	8575.72
449.54	8849.57
449.73	8961.91
449.91	8868.29
450.10	8634.24
450.28	9060.21
450.46	9057.87
450.65	8865.95
450.83	9025.11
451.02	8828.50
451.20	9167.88
451.39	9273.20
451.57	8959.57
451.76	8879.99
451.94	9177.24
452.13	9193.62
452.31	9184.26
452.49	8938.51
452.68	9282.56
452.86	9193.62
453.05	9270.86
453.23	9364.48
453.42	9378.53
453.60	9235.75
453.78	9437.04
453.97	9308.31
454.15	9366.82
454.34	9579.81
454.52	9753.01
454.70	9722.59
454.89	9652.37
455.07	9589.17
455.26	9743.65
455.44	9769.40
455.62	9841.95
455.81	9757.69
455.99	9778.76
456.17	10001.11
456.36	10052.60
456.54	10167.29
456.73	10143.88
456.91	10478.58
457.09	10403.68
457.28	10354.53
457.46	10260.91
457.64	10595.61
457.83	10429.43
458.01	10310.06
458.19	10534.75
458.38	10516.03
458.56	10862.43
458.74	10677.52
458.93	10445.81
459.11	10572.20
459.29	10675.18
459.48	10696.25
459.66	10773.49
459.84	10768.80
460.03	11040.31
460.21	10754.76
460.39	10670.50
460.57	11131.59
460.76	10953.71
460.94	11019.24
461.12	11234.57
461.31	10958.39
461.49	11084.78
461.67	10951.37
461.85	11328.19
462.04	11218.19
462.22	11262.66
462.40	11651.19
462.59	11286.06
462.77	11456.92
462.95	11449.90
463.13	11651.19
463.32	11740.13
463.50	11756.51
463.68	11770.55
463.86	11847.79
464.05	11609.06
464.23	11311.81
464.41	11735.45
464.59	11477.99
464.78	12009.29
464.96	11955.46
465.14	11669.91
465.32	11913.33
465.50	12095.89
465.69	12053.76
465.87	12018.65
466.05	11934.39
466.23	12086.53
466.41	12332.28
466.60	12336.96
466.78	12231.64
466.96	11962.48
467.14	12121.63
467.32	12538.25
467.51	12299.52
467.69	12184.83
467.87	12456.33
468.05	12556.97
468.23	12283.13
468.41	12491.44
468.60	12568.68
468.78	12643.57
468.96	12580.38
469.14	12610.81
469.32	12819.11
469.50	12690.38
469.69	13200.62
469.87	13165.51
470.05	12727.83
470.23	13004.02
470.41	12826.14
470.59	13385.52
470.77	13198.28
470.95	13081.25
471.14	13453.40
471.32	13308.29
471.50	13565.74
471.68	13472.12
471.86	13647.66
472.04	13586.81
472.22	13881.72
472.40	13593.83
472.58	13488.51
472.77	13671.07
472.95	14066.62
473.13	14511.32
473.31	14031.51
473.49	14099.39
473.67	13961.30
473.85	14270.25
474.03	14455.15
474.21	14567.49
474.39	14780.48
474.57	14450.47
474.75	14806.23
474.93	14937.30
475.12	14618.99
475.30	14937.30
475.48	14916.23
475.66	14932.62
475.84	14927.94
476.02	15318.81
476.20	15157.31
476.38	15482.64
476.56	15747.12
476.74	15967.13
476.92	15625.42
477.10	15644.14
477.28	15887.56
477.46	16208.21
477.64	16135.65
477.82	16465.67
478.00	16697.38
478.18	16535.88
478.36	16709.08
478.54	16975.91
478.72	17144.42
478.90	17238.05
479.08	17547.00
479.26	17565.72
479.44	17352.73
479.62	17638.28
479.80	18228.09
479.98	18038.51
480.16	18331.08
480.34	18054.89
480.52	18576.83
480.70	18513.64
480.88	18319.37
481.06	18560.45
481.24	18415.34
481.41	18824.93
481.59	19096.43
481.77	19711.99
481.95	19143.24
482.13	19814.98
482.31	19431.13
482.49	19749.44
482.67	19845.40
482.85	20676.29
483.03	20561.61
483.21	20449.26
483.39	20793.32
483.57	20828.43
483.74	21200.57
483.92	21369.09
484.10	21076.52
484.28	21191.21
484.46	21652.30
484.64	22260.84
484.82	21474.42
485.00	22300.62
485.18	22537.02
485.35	23023.85
485.53	22560.42
485.71	22909.16
485.89	23414.72
486.07	23248.54
486.25	23199.39
486.43	23365.57
486.61	23613.66
486.78	23929.64
486.96	24283.06
487.14	24425.83
487.32	24519.45
487.50	24751.17
487.68	24884.58
487.85	24992.24
488.03	25383.11
488.21	25881.64
488.39	25584.40
488.57	25818.45
488.75	25944.84
488.92	26111.02
489.10	26274.85
489.28	26492.52
489.46	26871.69
489.64	26700.83
489.81	27421.72
489.99	27433.42
490.17	27402.99
490.35	28027.92
490.53	28301.76
490.70	28163.67
490.88	27936.63
491.06	28599.01
491.24	28692.63
491.41	28851.78
491.59	28943.06
491.77	29074.13
491.95	29518.84
492.13	29582.03
492.30	30017.37
492.48	30202.27
492.66	30038.44
492.84	29890.98
493.01	30209.29
493.19	30637.61
493.37	30944.22
493.54	31229.77
493.72	31304.67
493.90	30998.06
494.08	31405.31
494.25	31693.19
494.43	31929.59
494.61	32149.60
494.79	32400.04
494.96	32147.26
495.14	32638.77
495.32	32610.68
495.49	32575.58
495.67	33127.94
495.85	33317.53
496.02	33275.40
496.20	33764.57
496.38	33874.57
496.55	33699.03
496.73	34604.82
496.91	34415.24
497.09	34991.01
497.26	34742.91
497.44	34799.08
497.62	35007.39
497.79	35117.40
497.97	35386.56
498.14	36058.29
498.32	35969.35
498.50	35854.67
498.67	36311.07
498.85	36208.09
499.03	36385.97
499.20	36842.37
499.38	36568.53
499.56	36807.26
499.73	36760.45
499.91	36966.42
500.08	37024.93
500.26	37191.11
500.44	37254.31
500.61	37769.22
500.79	37350.27
500.97	38234.99
501.14	38038.39
501.32	38335.63
501.49	38192.86
501.67	38487.77
501.84	38384.79
502.02	38888.00
502.20	38962.90
502.37	39002.69
502.55	38808.42
502.72	39292.91
502.90	39428.66
503.07	39063.54
503.25	39323.34
503.43	39611.23
503.60	40009.12
503.78	39639.31
503.95	40189.34
504.13	40205.72
504.30	40151.89
504.48	40353.18
504.65	39894.43
504.83	40339.13
505.01	40720.64
505.18	40608.29
505.36	41095.13
505.53	41015.55
505.71	41902.61
505.88	41661.54
506.06	41244.92
506.23	41633.45
506.41	41596.00
506.58	41766.86
506.76	42120.28
506.93	42471.36
507.11	42342.63
507.28	42377.74
507.46	42171.77
507.63	42576.69
507.81	42787.33
507.98	42763.93
508.16	42878.61
508.33	43082.24
508.50	42857.55
508.68	43147.78
508.85	43379.49
509.03	43210.97
509.20	43863.98
509.38	44102.71
509.55	44032.50
509.73	43957.60
509.90	44320.38
510.08	43936.54
510.25	44332.09
510.42	44563.80
510.60	45130.21
510.77	44746.36
510.95	45223.83
511.12	44706.57
511.30	44947.65
511.47	44921.90
511.64	45291.71
511.82	45750.45
511.99	45287.03
512.17	45656.83
512.34	45675.55
512.51	46010.25
512.69	46071.10
512.86	45986.85
513.04	46422.19
513.21	46160.05
513.38	46185.79
513.56	46768.58
513.73	46412.82
513.90	46775.61
514.08	46923.06
514.25	47030.72
514.43	47152.43
514.60	47065.83
514.77	46731.14
514.95	47789.06
515.12	47461.38
515.29	47171.16
515.47	47400.53
515.64	47526.92
515.81	47449.68
515.99	47786.72
516.16	48093.33
516.33	48123.75
516.51	48294.61
516.68	48245.46
516.85	48081.63
517.03	48690.16
517.20	48357.81
517.37	48549.73
517.54	48577.82
517.72	48781.45
517.89	48549.73
518.06	49052.95
518.24	48875.07
518.41	48978.05
518.58	49277.64
518.75	49027.20
518.93	49116.14
519.10	48825.92
519.27	49537.44
519.45	48956.99
519.62	49593.61
519.79	49935.33
519.96	49844.05
520.14	49851.07
520.31	49691.91
520.48	50176.40
520.65	50117.89
520.83	50410.46
521.00	50412.80
521.17	50480.67
521.34	50548.55
521.52	50770.90
521.69	50555.57
521.86	50703.03
522.03	50901.97
522.20	51068.15
522.38	51253.05
522.55	51260.07
522.72	50864.52
522.89	51002.61
523.07	51320.93
523.24	51449.66
523.41	51349.01
523.58	51515.19
523.75	51697.75
523.92	51835.84
524.10	51763.29
524.27	52030.11
524.44	51758.61
524.61	51377.10
524.78	51852.23
524.96	51941.17
525.13	52254.80
525.30	52137.77
525.47	52360.12
525.64	52025.43
525.81	52378.85
525.98	52196.29
526.16	52334.38
526.33	52425.66
526.50	52818.87
526.67	52666.73
526.84	52846.96
527.01	52669.08
527.18	52741.63
527.36	52851.64
527.53	52669.08
527.70	53244.85
527.87	53059.94
528.04	52996.75
528.21	53193.36
528.38	53186.33
528.55	53450.81
528.72	53038.88
528.89	53326.77
529.07	53186.33
529.24	53148.88
529.41	53797.21
529.58	53467.20
529.75	53404.00
529.92	53394.64
530.09	53506.99
530.26	53717.64
530.43	53986.80
530.60	53558.48
530.77	53670.82
530.94	53904.88
531.11	53907.22
531.28	53890.83
531.46	53874.45
531.63	53858.07
531.80	53883.81
531.97	54103.82
532.14	54230.21
532.31	54223.19
532.48	54415.11
532.65	54506.40
532.82	54162.34
532.99	54581.29
533.16	54365.96
533.33	54677.25
533.50	54700.66
533.67	54447.88
533.84	54375.33
534.01	54464.27
534.18	54845.77
534.35	55068.12
534.52	54796.62
534.69	55011.95
534.86	55042.38
535.03	55004.93
535.20	55140.68
535.37	55238.98
535.54	55196.85
535.71	55077.49
535.88	55461.33
536.05	55304.52
536.22	55412.18
536.38	55571.34
536.55	55374.73
536.72	55372.39
536.89	55175.79
537.06	55407.50
537.23	55613.47
537.40	55428.57
537.57	55653.26
537.74	55753.90
537.91	55899.01
538.08	55758.58
538.25	55414.52
538.42	55767.94
538.59	56119.02
538.75	55601.77
538.92	56023.06
539.09	56062.85
539.26	55899.01
539.43	55774.97
539.60	55962.21
539.77	56104.98
539.94	56296.91
540.11	55945.83
540.28	56329.67
540.44	56472.45
540.61	56161.15
540.78	56119.02
540.95	56294.56
541.12	56273.50
541.29	56217.33
541.46	56133.07
541.62	56339.04
541.79	56687.78
541.96	56292.22
542.13	56367.12
542.30	56563.73
542.47	56842.25
542.63	56725.22
542.80	56566.07
542.97	56926.51
543.14	57127.80
543.31	56865.66
543.48	57111.41
543.64	57188.65
543.81	57059.92
543.98	57153.54
544.15	57041.20
544.32	57120.77
544.48	57373.55
544.65	57305.68
544.82	57270.57
544.99	57148.86
545.16	57415.68
545.32	57202.69
545.49	57403.98
545.66	57553.77
545.83	57528.03
546.00	57682.50
546.16	57443.77
546.33	57495.26
546.50	57233.12
546.67	57558.45
546.83	57324.40
547.00	57696.55
547.17	57528.03
547.34	57584.20
547.50	57705.91
547.67	58089.76
547.84	57972.73
548.00	58035.92
548.17	57858.04
548.34	57771.44
548.51	58061.67
548.67	58110.82
548.84	57869.75
549.01	58012.52
549.18	57914.22
549.34	58115.50
549.51	58244.23
549.68	58237.21
549.84	58199.76
550.01	58164.65
550.18	58047.63
550.34	58204.44
550.51	58379.98
550.68	58227.85
550.84	57956.35
551.01	58377.64
551.18	58230.19
551.34	58178.70
551.51	58454.88
551.68	58452.54
551.84	58384.66
552.01	58188.06
552.18	58379.98
552.34	58328.49
552.51	58604.67
552.68	58459.56
552.84	58417.43
553.01	58571.91
553.18	58576.59
553.34	58812.98
553.51	58686.59
553.67	58670.21
553.84	58604.67
554.01	58901.92
554.17	59025.97
554.34	58885.54
554.51	58885.54
554.67	58812.98
554.84	58798.94
555.00	58801.28
555.17	58946.39
555.33	58843.41
555.50	58660.85
555.67	58780.21
555.83	58817.66
556.00	59037.67
556.16	58787.24
556.33	59014.27
556.50	58986.18
556.66	59220.23
556.83	58887.88
556.99	59166.40
557.16	59414.50
557.32	59519.82
557.49	59746.86
557.65	59166.40
557.82	59037.67
557.98	59058.74
558.15	59416.84
558.32	59503.44
558.48	59283.43
558.65	59367.69
558.81	59393.43
558.98	59489.40
559.14	59451.95
559.31	59377.05
559.47	59419.18
559.64	59388.75
559.80	59671.96
559.97	59678.98
560.13	59463.65
560.30	59402.80
560.46	59552.59
560.63	59461.31
560.79	59622.81
560.96	59590.04
561.12	59386.41
561.29	59917.71
561.45	59391.09
561.61	59634.51
561.78	59700.04
561.94	59531.53
562.11	59625.15
562.27	59945.80
562.44	59938.78
562.60	59936.44
562.77	59707.07
562.93	59604.08
563.10	59980.91
563.26	59884.95
563.42	60060.49
563.59	59779.62
563.75	59714.09
563.92	59908.35
564.08	59819.41
564.24	59987.93
564.41	59976.23
564.57	59840.48
564.74	59941.12
564.90	60051.12
565.07	59880.27
565.23	59796.01
565.39	60116.66
565.56	60121.34
565.72	60055.81
565.88	60065.17
566.05	59973.89
566.21	60062.83
566.38	60046.44
566.54	60231.35
566.70	60102.62
566.87	59903.67
567.03	59997.29
567.19	60154.11
567.36	60095.60
567.52	60025.38
567.68	60411.57
567.85	60240.71
568.01	60184.54
568.17	60093.25
568.34	60385.82
568.50	60193.90
568.66	60175.17
568.83	60404.55
568.99	60158.79
569.15	60240.71
569.32	60303.90
569.48	60170.49
569.64	60533.28
569.81	60303.90
569.97	60123.68
570.13	60229.01
570.30	60196.24
570.46	60191.56
570.62	60371.78
570.78	60250.07
570.95	60374.12
571.11	60317.95
571.27	60233.69
571.43	60467.74
571.60	60385.82
571.76	60402.21
571.92	60505.19
572.09	60395.18
572.25	60346.03
572.41	60647.96
572.57	60369.44
572.74	60601.15
572.90	60250.07
573.06	60327.31
573.22	60360.08
573.38	60348.37
573.55	60404.55
573.71	60659.66
573.87	60608.17
574.03	60231.35
574.20	60739.24
574.36	60474.76
574.52	60713.50
574.68	60434.97
574.84	60788.39
575.01	60577.75
575.17	60537.96
575.33	60467.74
575.49	60439.65
575.65	60488.80
575.82	60615.19
575.98	60617.53
576.14	61036.49
576.30	60725.20
576.46	60561.36
576.62	60509.87
576.79	60484.12
576.95	60488.80
577.11	60610.51
577.27	60666.69
577.43	60816.48
577.59	60584.77
577.75	60624.56
577.92	60552.00
578.08	60495.83
578.24	60800.10
578.40	60762.65
578.56	60832.86
578.72	60654.98
578.88	60856.27
579.04	60961.59
579.21	60617.53
579.37	60935.85
579.53	60907.76
579.69	60495.83
579.85	60589.45
580.01	60669.03
580.17	60535.62
580.33	60687.75
580.49	60870.31
580.65	60685.41
580.82	60779.03
580.98	60664.35
581.14	60687.75
581.30	60985.00
581.46	60772.01
581.62	60830.52
581.78	60449.02
581.94	60800.10
582.10	60790.73
582.26	60753.29
582.42	60647.96
582.58	60650.30
582.74	60619.88
582.90	60746.26
583.06	60814.14
583.22	60523.91
583.38	60907.76
583.54	60715.84
583.70	60725.20
583.86	60846.91
584.02	60612.85
584.18	60858.61
584.34	60697.11
584.50	60893.72
584.66	60589.45
584.82	60704.13
584.98	61134.79
585.14	61034.15
585.30	60842.23
585.46	60884.36
585.62	60889.04
585.78	60980.32
585.94	60711.16
586.10	60818.82
586.26	60814.14
586.42	61059.90
586.58	60956.91
586.74	60905.42
586.90	60795.42
587.06	60917.12
587.22	61029.47
587.38	60940.53
587.54	60856.27
587.70	61106.71
587.86	60891.38
588.02	60945.21
588.18	61111.39
588.34	60807.12
588.49	61029.47
