SpectraSuite Data File
++++++++++++++++++++++++++++++++++++
Date: Fri Oct 25 10:47:21 EDT 2013
User: price-jones
Dark Spectrum Present: No
Reference Spectrum Present: No
Number of Sampled Component Spectra: 1
Spectrometers: USB2+H05261
Integration Time (usec): 100000 (USB2+H05261)
Spectra Averaged: 1 (USB2+H05261)
Boxcar Smoothing: 0 (USB2+H05261)
Correct for Electrical Dark: No (USB2+H05261)
Strobe/Lamp Enabled: No (USB2+H05261)
Correct for Detector Non-linearity: No (USB2+H05261)
Correct for Stray Light: No (USB2+H05261)
Number of Pixels in Processed Spectrum: 2048
>>>>>Begin Processed Spectral Data<<<<<
365.73	166.18
365.92	166.18
366.12	166.18
366.32	28.09
366.52	86.60
366.72	67.88
366.91	23.41
367.11	81.92
367.31	25.75
367.51	63.19
367.70	7.02
367.90	91.28
368.10	67.88
368.30	88.94
368.49	65.54
368.69	42.13
368.89	86.60
369.09	77.24
369.28	51.49
369.48	114.69
369.68	63.19
369.87	79.58
370.07	112.35
370.27	198.95
370.47	112.35
370.66	334.70
370.86	397.89
371.06	465.77
371.25	489.17
371.45	444.70
371.65	477.47
371.84	416.62
372.04	454.06
372.24	465.77
372.44	442.36
372.63	521.94
372.83	552.37
373.03	510.24
373.22	479.81
373.42	470.45
373.62	503.22
373.81	500.87
374.01	535.98
374.21	554.71
374.40	580.45
374.60	571.09
374.79	482.15
374.99	533.64
375.19	554.71
375.38	496.19
375.58	606.20
375.78	571.09
375.97	568.75
376.17	603.86
376.37	608.54
376.56	566.41
376.76	547.69
376.95	531.30
377.15	601.52
377.35	573.43
377.54	613.22
377.74	592.16
377.93	631.94
378.13	608.54
378.33	657.69
378.52	678.76
378.72	660.03
378.91	667.05
379.11	582.79
379.31	664.71
379.50	552.37
379.70	697.48
379.89	660.03
380.09	690.46
380.28	678.76
380.48	699.82
380.68	662.37
380.87	655.35
381.07	674.07
381.26	734.93
381.46	655.35
381.65	716.20
381.85	730.25
382.04	676.41
382.24	690.46
382.43	683.44
382.63	725.57
382.83	706.84
383.02	702.16
383.22	784.08
383.41	777.06
383.61	657.69
383.80	650.67
384.00	683.44
384.19	741.95
384.39	800.46
384.58	781.74
384.78	823.87
384.97	711.52
385.17	641.31
385.36	730.25
385.56	709.18
385.75	678.76
385.95	716.20
386.14	851.96
386.34	786.42
386.53	826.21
386.72	765.36
386.92	767.70
387.11	791.10
387.31	763.01
387.50	802.80
387.70	830.89
387.89	833.23
388.09	755.99
388.28	777.06
388.48	884.72
388.67	847.27
388.86	809.83
389.06	781.74
389.25	936.21
389.45	866.00
389.64	882.38
389.84	868.34
390.03	922.17
390.22	1001.75
390.42	863.66
390.61	908.13
390.81	901.11
391.00	931.53
391.19	915.15
391.39	903.45
391.58	861.32
391.78	964.30
391.97	933.87
392.16	924.51
392.36	1048.56
392.55	954.94
392.75	1025.15
392.94	985.37
393.13	884.72
393.33	945.58
393.52	968.98
393.71	1018.13
393.91	1036.86
394.10	1025.15
394.29	1069.62
394.49	1074.31
394.68	1163.25
394.88	1069.62
395.07	1100.05
395.26	1088.35
395.46	1032.18
395.65	1130.48
395.84	1125.80
396.04	1198.35
396.23	1188.99
396.42	1081.33
396.62	1181.97
396.81	1139.84
397.00	1158.57
397.19	1158.57
397.39	1287.29
397.58	1291.98
397.77	1181.97
397.97	1224.10
398.16	1214.74
398.35	1228.78
398.55	1341.13
398.74	1263.89
398.93	1362.19
399.12	1380.92
399.32	1282.61
399.51	1270.91
399.70	1366.87
399.90	1313.04
400.09	1343.47
400.28	1345.81
400.47	1462.83
400.67	1355.17
400.86	1416.02
401.05	1448.79
401.24	1406.66
401.44	1519.01
401.63	1385.60
401.82	1418.36
402.01	1458.15
402.21	1605.61
402.40	1575.18
402.59	1514.33
402.78	1530.71
402.97	1486.24
403.17	1533.05
403.36	1614.97
403.55	1570.50
403.74	1570.50
403.93	1701.57
404.13	1661.78
404.32	1668.80
404.51	1692.21
404.70	1717.95
404.89	1671.14
405.09	1816.26
405.28	1764.76
405.47	1727.32
405.66	1664.12
405.85	1767.10
406.05	1671.14
406.24	1708.59
406.43	1739.02
406.62	1811.57
406.81	1907.54
407.00	1774.13
407.20	1680.50
407.39	1846.68
407.58	1877.11
407.77	1893.49
407.96	1863.07
408.15	2012.86
408.34	1860.73
408.54	2043.29
408.73	2087.76
408.92	2012.86
409.11	2052.65
409.30	2010.52
409.49	1942.64
409.68	2050.31
409.87	2043.29
410.07	2054.99
410.26	2094.78
410.45	2087.76
410.64	2097.12
410.83	2188.40
411.02	2183.72
411.21	2186.06
411.40	2279.68
411.59	2305.43
411.78	2406.07
411.98	2270.32
412.17	2370.96
412.36	2216.49
412.55	2312.45
412.74	2347.56
412.93	2413.09
413.12	2394.37
413.31	2621.40
413.50	2464.58
413.69	2602.68
413.88	2541.82
414.07	2579.27
414.26	2574.59
414.45	2661.19
414.64	2717.36
414.83	2623.74
415.02	2766.51
415.22	2787.58
415.41	2768.85
415.60	2689.28
415.79	2920.99
415.98	2717.36
416.17	2881.20
416.36	2920.99
416.55	2951.42
416.74	2916.31
416.93	2862.48
417.12	2892.90
417.31	3028.65
417.50	3033.33
417.69	3084.83
417.88	3117.59
418.07	3023.97
418.26	3059.08
418.45	3117.59
418.64	3222.92
418.83	3265.05
419.02	3173.77
419.21	3211.22
419.39	3239.30
419.58	3251.00
419.77	3211.22
419.96	3267.39
420.15	3262.71
420.34	3105.89
420.53	3258.03
420.72	3346.97
420.91	3414.84
421.10	3386.76
421.29	3492.08
421.48	3442.93
421.67	3398.46
421.86	3440.59
422.05	3323.56
422.24	3335.26
422.43	3307.18
422.61	3412.50
422.80	3541.23
422.99	3480.38
423.18	3517.83
423.37	3447.61
423.56	3520.17
423.75	3550.59
423.94	3616.13
424.13	3332.92
424.32	3396.12
424.50	3599.74
424.69	3578.68
424.88	3595.06
425.07	3574.00
425.26	3515.48
425.45	3485.06
425.64	3520.17
425.83	3482.72
426.01	3545.91
426.20	3489.74
426.39	3618.47
426.58	3588.04
426.77	3651.24
426.96	3630.17
427.15	3552.93
427.33	3707.41
427.52	3707.41
427.71	3559.95
427.90	3646.55
428.09	3581.02
428.28	3693.37
428.46	3684.00
428.65	3810.39
428.84	3906.35
429.03	3885.29
429.22	3653.58
429.40	3756.56
429.59	3850.18
429.78	3517.83
429.97	3758.90
430.16	3667.62
430.34	3721.45
430.53	3878.27
430.72	3880.61
430.91	3887.63
431.10	3936.78
431.28	4009.34
431.47	4081.89
431.66	4159.13
431.85	4142.75
432.03	4140.41
432.22	4266.80
432.41	4236.37
432.60	4212.96
432.79	4121.68
432.97	4229.35
433.16	4234.03
433.35	4187.22
433.54	4168.49
433.72	4257.43
433.91	4259.78
434.10	4194.24
434.28	4397.87
434.47	4322.97
434.66	4428.29
434.85	4519.57
435.03	4540.64
435.22	4524.26
435.41	4566.39
435.59	4580.43
435.78	4484.47
435.97	4472.76
436.16	4615.54
436.34	4447.02
436.53	4517.23
436.72	4702.14
436.90	4627.24
437.09	4669.37
437.28	4568.73
437.46	4795.76
437.65	4695.11
437.84	4748.95
438.02	4725.54
438.21	4620.22
438.40	4564.04
438.58	4840.23
438.77	4903.42
438.96	4844.91
439.14	5128.11
439.33	5057.90
439.52	5055.56
439.70	4933.85
439.89	5043.85
440.08	5144.50
440.26	5135.14
440.45	5095.35
440.63	5245.14
440.82	5350.46
441.01	5123.43
441.19	5399.62
441.38	5263.86
441.57	5387.91
441.75	5479.19
441.94	5577.50
442.12	5582.18
442.31	5664.10
442.50	5593.88
442.68	5701.54
442.87	5771.76
443.05	5657.07
443.24	5633.67
443.43	5856.02
443.61	5701.54
443.80	5933.26
443.98	5776.44
444.17	5549.41
444.35	5776.44
444.54	5989.43
444.73	5827.93
444.91	5834.96
445.10	5720.27
445.28	5870.06
445.47	5650.05
445.65	5905.17
445.84	5893.47
446.02	5909.85
446.21	5891.13
446.39	5930.92
446.58	5841.98
446.77	6115.82
446.95	5944.96
447.14	6057.31
447.32	5982.41
447.51	5863.04
447.69	5982.41
447.88	5909.85
448.06	5921.56
448.25	6008.16
448.43	6083.05
448.62	5968.37
448.80	6052.63
448.99	6153.27
449.17	6258.59
449.36	6078.37
449.54	6129.86
449.73	6354.55
449.91	6211.78
450.10	6455.20
450.28	6473.92
450.46	6354.55
450.65	6562.86
450.83	6417.75
451.02	6377.96
451.20	6399.02
451.39	6382.64
451.57	6401.37
451.76	6387.32
451.94	6509.03
452.13	6553.50
452.31	6530.09
452.49	6354.55
452.68	6478.60
452.86	6434.13
453.05	6434.13
453.23	6633.08
453.42	6392.00
453.60	6530.09
453.78	6686.91
453.97	6616.69
454.15	6661.16
454.34	6567.54
454.52	6848.41
454.70	6628.40
454.89	6820.32
455.07	6906.92
455.26	6935.01
455.44	6846.07
455.62	6862.45
455.81	7124.59
455.99	6916.28
456.17	7049.69
456.36	7054.37
456.54	7164.38
456.73	7023.95
456.91	7157.36
457.09	7419.50
457.28	7335.24
457.46	6988.84
457.64	7330.56
457.83	7405.46
458.01	7253.32
458.19	7487.37
458.38	7335.24
458.56	7452.27
458.74	7417.16
458.93	7470.99
459.11	7215.87
459.29	7302.47
459.48	7581.00
459.66	7417.16
459.84	7527.16
460.03	7669.94
460.21	7758.88
460.39	7646.53
460.57	7569.29
460.76	7435.88
460.94	7695.68
461.12	7803.35
461.31	7864.20
461.49	7616.10
461.67	7557.59
461.85	7836.11
462.04	8006.97
462.22	8365.07
462.40	8053.78
462.59	7988.25
462.77	7859.52
462.95	7997.61
463.13	7843.14
463.32	8088.89
463.50	8128.68
463.68	8112.30
463.86	8112.30
464.05	8044.42
464.23	7964.84
464.41	8217.62
464.59	8056.12
464.78	8336.99
464.96	8318.26
465.14	8124.00
465.32	8262.09
465.50	8468.06
465.69	8236.35
465.87	8325.29
466.05	8428.27
466.23	8255.07
466.41	8208.26
466.60	8437.63
466.78	8241.03
466.96	8231.66
467.14	8486.78
467.32	8355.71
467.51	8706.79
467.69	8147.40
467.87	8498.49
468.05	8552.32
468.23	8519.55
468.41	8559.34
468.60	8863.61
468.78	8636.58
468.96	8631.90
469.14	8608.49
469.32	8947.87
469.50	8762.97
469.69	8872.97
469.87	8678.71
470.05	8833.18
470.23	9011.06
470.41	8929.14
470.59	8975.95
470.77	8933.82
470.95	9041.49
471.14	9226.39
471.32	8961.91
471.50	9408.95
471.68	9256.82
471.86	9369.16
472.04	9392.57
472.22	9614.92
472.40	9301.29
472.58	9275.54
472.77	9474.49
472.95	9444.06
473.13	9778.76
473.31	9458.10
473.49	9437.04
473.67	9533.00
473.85	9577.47
474.03	9914.51
474.21	9668.75
474.39	10010.47
474.57	9860.68
474.75	10155.58
474.93	10122.82
475.12	9944.94
475.30	10359.21
475.48	10085.37
475.66	10314.74
475.84	10363.89
476.02	10373.25
476.20	10258.57
476.38	10485.60
476.56	10813.28
476.74	10771.15
476.92	10539.43
477.10	10796.89
477.28	10953.71
477.46	10967.75
477.64	10909.24
477.82	11276.70
478.00	11623.10
478.18	11382.03
478.36	11283.72
478.54	11438.20
478.72	11531.82
478.90	11723.74
479.08	11667.57
479.26	12002.27
479.44	12013.97
479.62	11974.18
479.80	12250.36
479.98	12189.51
480.16	12304.20
480.34	12248.02
480.52	12351.01
480.70	12526.55
480.88	12280.79
481.06	12659.96
481.24	12554.63
481.41	12964.23
481.59	13022.74
481.77	12996.99
481.95	13149.13
482.13	13200.62
482.31	13245.09
482.49	13453.40
482.67	13413.61
482.85	13600.85
483.03	13872.36
483.21	14012.79
483.39	13731.92
483.57	13687.45
483.74	13975.34
483.92	14209.39
484.10	14141.52
484.28	14424.72
484.46	14422.38
484.64	15028.58
484.82	14736.01
485.00	14712.61
485.18	14946.66
485.35	15424.13
485.53	14930.28
485.71	14941.98
485.89	15351.57
486.07	15281.36
486.25	15641.80
486.43	15545.84
486.61	15719.04
486.78	15969.48
486.96	15964.79
487.14	15988.20
487.32	16339.28
487.50	16081.82
487.68	16409.50
487.85	16788.66
488.03	16807.39
488.21	17003.99
488.39	16919.73
488.57	17191.23
488.75	17121.02
488.92	17551.68
489.10	17839.56
489.28	17722.54
489.46	17736.58
489.64	17827.86
489.81	18253.84
489.99	18279.58
490.17	18359.16
490.35	18794.50
490.53	18560.45
490.70	18728.97
490.88	18717.26
491.06	18883.44
491.24	19178.35
491.41	18881.10
491.59	19178.35
491.77	18932.59
491.95	19129.20
492.13	19501.34
492.30	19913.28
492.48	20107.54
492.66	19915.62
492.84	19864.13
493.01	20133.29
493.19	20067.75
493.37	20573.31
493.54	20467.98
493.72	20671.61
493.90	20774.60
494.08	20702.04
494.25	21095.25
494.43	21153.76
494.61	21525.91
494.79	21219.30
494.96	21308.24
495.14	21226.32
495.32	21797.41
495.49	21968.27
495.67	21818.47
495.85	22204.66
496.02	22405.95
496.20	22190.62
496.38	22373.18
496.55	22530.00
496.73	22778.09
496.91	22527.66
497.09	22810.86
497.26	23028.53
497.44	22813.20
497.62	23168.96
497.79	23096.41
497.97	23356.21
498.14	23487.28
498.32	23651.11
498.50	23559.83
498.67	24306.46
498.85	24046.66
499.03	24072.41
499.20	24109.86
499.38	24313.48
499.56	24505.41
499.73	24364.98
499.91	24311.14
500.08	24088.79
500.26	24390.72
500.44	24915.00
500.61	24631.80
500.79	24755.85
500.97	24643.50
501.14	25158.42
501.32	25181.82
501.49	25186.50
501.67	25127.99
501.84	25296.51
502.02	25518.86
502.20	25579.71
502.37	25984.63
502.55	25743.55
502.72	25956.54
502.90	25755.26
503.07	25773.98
503.25	25982.29
503.43	26092.29
503.60	26508.91
503.78	25593.76
503.95	26085.27
504.13	26508.91
504.30	26590.83
504.48	26527.63
504.65	26609.55
504.83	26869.35
505.01	26955.95
505.18	27044.89
505.36	27136.17
505.53	27129.15
505.71	27012.12
505.88	27529.38
506.06	26960.63
506.23	27124.47
506.41	27211.07
506.58	27615.98
506.76	27859.40
506.93	27866.42
507.11	28180.05
507.28	27803.22
507.46	28304.10
507.63	28250.27
507.81	28236.22
507.98	27630.02
508.16	28079.41
508.33	28168.35
508.50	28215.16
508.68	28442.19
508.85	28840.08
509.03	28531.13
509.20	29010.94
509.38	29076.48
509.55	28980.51
509.73	29345.64
509.90	29097.54
510.08	29268.40
510.25	29214.57
510.42	29252.02
510.60	29347.98
510.77	29809.06
510.95	29755.23
511.12	29589.05
511.30	30103.97
511.47	29902.68
511.64	29853.53
511.82	30153.12
511.99	29900.34
512.17	29907.37
512.34	30281.85
512.51	30328.66
512.69	30443.35
512.86	30728.89
513.04	30574.42
513.21	30607.19
513.38	30614.21
513.56	30639.95
513.73	30735.92
513.90	30745.28
514.08	30796.77
514.25	30951.24
514.43	30874.01
514.60	30824.86
514.77	31089.34
514.95	31489.57
515.12	30937.20
515.29	31709.58
515.47	31730.64
515.64	31812.56
515.81	31311.69
515.99	31262.54
516.16	31740.00
516.33	31524.68
516.51	32039.59
516.68	31587.87
516.85	31803.20
517.03	31613.62
517.20	31740.00
517.37	32065.34
517.54	32437.48
517.72	32367.27
517.89	31990.44
518.06	32114.49
518.24	31821.92
518.41	32334.50
518.58	32130.87
518.75	32350.88
518.93	33095.18
519.10	32816.65
519.27	33071.77
519.45	32697.28
519.62	32907.93
519.79	33090.49
519.96	33069.43
520.14	33127.94
520.31	32985.17
520.48	33118.58
520.65	33425.19
520.83	33399.44
521.00	33804.36
521.17	33479.02
521.34	33483.70
521.52	33729.46
521.69	33553.92
521.86	33869.89
522.03	33886.28
522.20	33879.25
522.38	34349.70
522.55	34110.97
522.72	34132.03
522.89	34146.08
523.07	34382.47
523.24	34476.09
523.41	34916.11
523.58	34033.73
523.75	34876.32
523.92	34735.89
524.10	35058.88
524.27	34911.43
524.44	34827.17
524.61	35021.44
524.78	35007.39
524.96	35515.29
525.13	35321.02
525.30	35522.31
525.47	35456.78
525.64	35292.94
525.81	35337.41
525.98	35220.38
526.16	35255.49
526.33	35414.65
526.50	35548.06
526.67	35438.05
526.84	35438.05
527.01	35173.57
527.18	35651.04
527.36	35725.94
527.53	35974.03
527.70	36236.17
527.87	36362.56
528.04	35927.22
528.21	36128.51
528.38	36428.10
528.55	36727.69
528.72	36552.15
528.89	36503.00
529.07	36751.09
529.24	36079.36
529.41	36500.65
529.58	36236.17
529.75	36172.98
529.92	36584.91
530.09	36842.37
530.26	37177.07
530.43	36893.86
530.60	36643.43
530.77	36690.24
530.94	37263.67
531.11	37226.22
531.28	37027.28
531.46	37308.14
531.63	36809.61
531.80	37579.64
531.97	37060.04
532.14	37326.86
532.31	37326.86
532.48	37015.57
532.65	37315.16
532.82	37457.93
532.99	37411.12
533.16	37081.11
533.33	37600.71
533.50	38012.64
533.67	37640.50
533.84	37610.07
534.01	37699.01
534.18	37984.55
534.35	38466.70
534.52	38213.93
534.69	38340.32
534.86	38831.83
535.03	37251.97
535.20	38848.21
535.37	38424.57
535.54	38801.40
535.71	38169.46
535.88	38136.69
536.05	38424.57
536.22	38506.49
536.38	38934.81
536.55	38167.12
536.72	38485.43
536.89	37984.55
537.06	38550.96
537.23	38916.09
537.40	38567.35
537.57	38572.03
537.74	38824.81
537.91	38890.34
538.08	38902.04
538.25	39215.68
538.42	38871.62
538.59	38878.64
538.75	38742.89
538.92	39077.58
539.09	39313.98
539.26	39302.28
539.43	39318.66
539.60	39227.38
539.77	39321.00
539.94	39365.47
540.11	39491.86
540.28	39470.79
540.44	39885.07
540.61	39634.63
540.78	38864.60
540.95	39484.84
541.12	39201.63
541.29	39845.28
541.46	39524.63
541.62	39800.81
541.79	40013.80
541.96	39519.95
542.13	39587.82
542.30	39974.01
542.47	40114.44
542.63	39651.02
542.80	40313.39
542.97	40282.96
543.14	40601.27
543.31	40409.35
543.48	40891.50
543.64	41219.17
543.81	40421.05
543.98	40229.13
544.15	40507.65
544.32	40863.41
544.48	40875.12
544.65	40814.26
544.82	40708.94
544.99	40067.63
545.16	41008.53
545.32	40495.95
545.49	41427.48
545.66	41291.73
545.83	41043.63
546.00	41167.68
546.16	41151.30
546.33	40935.97
546.50	40547.44
546.67	41160.66
546.83	40411.69
547.00	41006.19
547.17	40837.67
547.34	40872.78
547.50	41212.15
547.67	41682.60
547.84	40926.61
548.00	41778.56
548.17	41621.75
548.34	41464.93
548.51	41493.02
548.67	41918.99
548.84	41872.18
549.01	41701.32
549.18	41563.23
549.34	41998.57
549.51	42045.38
549.68	42246.67
549.84	42026.66
550.01	41923.68
550.18	41769.20
550.34	41876.86
550.51	41940.06
550.68	42036.02
550.84	41844.10
551.01	42101.56
551.18	42199.86
551.34	42394.12
551.51	42335.61
551.68	41923.68
551.84	42256.03
552.01	41872.18
552.18	42295.82
552.34	42298.16
552.51	42354.33
552.68	42319.23
552.84	42611.79
553.01	42822.44
553.18	42391.78
553.34	42323.91
553.51	42195.18
553.67	42115.60
553.84	43098.62
554.01	42576.69
554.17	42330.93
554.34	42813.08
554.51	42794.36
554.67	43110.33
554.84	42916.06
555.00	42761.59
555.17	42850.53
555.33	42876.27
555.50	43042.45
555.67	42993.30
555.83	43210.97
556.00	43033.09
556.16	43449.70
556.33	43210.97
556.50	43201.61
556.66	43175.86
556.83	42534.56
556.99	43533.96
557.16	43133.73
557.32	43501.20
557.49	43189.91
557.65	42822.44
557.82	42726.48
557.98	43433.32
558.15	43232.04
558.32	43365.45
558.48	43248.42
558.65	43187.56
558.81	43014.37
558.98	43227.35
559.14	43400.55
559.31	43650.99
559.47	43477.79
559.64	43592.48
559.80	43969.30
559.97	43679.08
560.13	43232.04
560.30	43669.72
560.46	43440.34
560.63	43817.17
560.79	43704.82
560.96	43655.67
561.12	43442.68
561.29	43782.06
561.45	43201.61
561.61	43824.19
561.78	43487.15
561.94	43849.94
562.11	43480.13
562.27	43625.25
562.44	43435.66
562.60	44243.15
562.77	44470.18
562.93	43433.32
563.10	44285.28
563.26	43807.81
563.42	44023.14
563.59	43370.13
563.75	43997.39
563.92	44467.84
564.08	43959.94
564.24	44079.31
564.41	44034.84
564.57	43988.03
564.74	43866.32
564.90	43971.64
565.07	44287.62
565.23	43973.98
565.39	43941.22
565.56	43917.81
565.72	44081.65
565.88	43782.06
566.05	43777.38
566.21	43758.66
566.38	43955.26
566.54	44107.40
566.70	44626.99
566.87	44371.88
567.03	43973.98
567.19	44327.41
567.36	43861.64
567.52	43913.13
567.68	44811.90
567.85	44224.42
568.01	44020.80
568.17	44196.34
568.34	44215.06
568.50	44093.35
568.66	44135.48
568.83	44299.32
568.99	43964.62
569.15	44158.89
569.32	44397.62
569.48	43758.66
569.64	44102.71
569.81	44919.56
569.97	44144.84
570.13	44088.67
570.30	43929.51
570.46	43971.64
570.62	44023.14
570.78	44294.64
570.95	44261.87
571.11	44318.04
571.27	44261.87
571.43	44116.76
571.60	44184.63
571.76	44521.67
571.92	44435.07
572.09	44247.83
572.25	44238.47
572.41	44360.17
572.57	44397.62
572.74	44898.50
572.90	44847.00
573.06	44062.93
573.22	44554.44
573.38	44491.24
573.55	44027.82
573.71	44568.48
573.87	44318.04
574.03	44451.45
574.20	44636.36
574.36	43950.58
574.52	44210.38
574.68	44535.71
574.84	44722.96
575.01	44652.74
575.17	44727.64
575.33	44395.28
575.49	44348.47
575.65	44519.33
575.82	44748.70
575.98	44395.28
576.14	44964.03
576.30	44584.86
576.46	44198.68
576.62	44231.44
576.79	44751.04
576.95	44186.97
577.11	44423.37
577.27	44624.65
577.43	44793.17
577.59	44809.56
577.75	44615.29
577.92	44744.02
578.08	44065.27
578.24	44346.13
578.40	44512.31
578.56	44254.85
578.72	44444.43
578.88	44891.48
579.04	45074.04
579.21	44444.43
579.37	44655.08
579.53	44507.63
579.69	44205.70
579.85	44584.86
580.01	44444.43
580.17	44938.29
580.33	44863.39
580.49	45092.76
580.65	44800.19
580.82	44828.28
580.98	44741.68
581.14	44612.95
581.30	44795.51
581.46	44563.80
581.62	44271.23
581.78	44554.44
581.94	44706.57
582.10	44830.62
582.26	44856.37
582.42	44573.16
582.58	44711.25
582.74	44582.52
582.90	44959.35
583.06	44720.62
583.22	44744.02
583.38	45067.02
583.54	44306.34
583.70	44685.51
583.86	44919.56
584.02	44257.19
584.18	45221.49
584.34	44626.99
584.50	44947.65
584.66	44631.68
584.82	44554.44
584.98	44940.63
585.14	44617.63
585.30	44390.60
585.46	44802.53
585.62	44226.76
585.78	44301.66
585.94	44559.12
586.10	44540.39
586.26	44683.17
586.42	44795.51
586.58	44615.29
586.74	44720.62
586.90	44573.16
587.06	44378.90
587.22	44797.85
587.38	44596.57
587.54	44985.10
587.70	44945.31
587.86	45390.01
588.02	44898.50
588.18	44886.79
588.34	44521.67
588.49	44896.16
588.65	44402.30
588.81	44612.95
588.97	44292.30
589.13	44657.42
589.29	45052.97
589.45	44409.32
589.61	44875.09
589.77	45141.91
589.93	44814.24
590.08	44748.70
590.24	44999.14
