SpectraSuite Data File
++++++++++++++++++++++++++++++++++++
Date: Fri Oct 25 11:23:25 EDT 2013
User: price-jones
Dark Spectrum Present: No
Reference Spectrum Present: No
Number of Sampled Component Spectra: 1
Spectrometers: USB2+H05261
Integration Time (usec): 100000 (USB2+H05261)
Spectra Averaged: 1 (USB2+H05261)
Boxcar Smoothing: 0 (USB2+H05261)
Correct for Electrical Dark: No (USB2+H05261)
Strobe/Lamp Enabled: No (USB2+H05261)
Correct for Detector Non-linearity: No (USB2+H05261)
Correct for Stray Light: No (USB2+H05261)
Number of Pixels in Processed Spectrum: 2048
>>>>>Begin Processed Spectral Data<<<<<
365.73	231.71
365.92	231.71
366.12	231.71
366.32	147.45
366.52	210.65
366.72	133.41
366.91	161.50
367.11	149.79
367.31	112.35
367.51	100.64
367.70	124.05
367.90	135.75
368.10	114.69
368.30	93.62
368.49	154.48
368.69	163.84
368.89	170.86
369.09	110.01
369.28	166.18
369.48	147.45
369.68	152.13
369.87	177.88
370.07	273.84
370.27	168.52
370.47	294.91
370.66	608.54
370.86	620.24
371.06	685.78
371.25	641.31
371.45	643.65
371.65	690.46
371.84	655.35
372.04	723.23
372.24	737.27
372.44	720.88
372.63	671.73
372.83	772.38
373.03	765.36
373.22	739.61
373.42	709.18
373.62	826.21
373.81	866.00
374.01	809.83
374.21	819.19
374.40	819.19
374.60	866.00
374.79	882.38
374.99	875.36
375.19	840.25
375.38	840.25
375.58	837.91
375.78	842.59
375.97	847.27
376.17	943.24
376.37	823.87
376.56	950.26
376.76	828.55
376.95	866.00
377.15	854.30
377.35	847.27
377.54	929.19
377.74	828.55
377.93	887.06
378.13	828.55
378.33	898.77
378.52	919.83
378.72	898.77
378.91	851.96
379.11	854.30
379.31	945.58
379.50	915.15
379.70	966.64
379.89	959.62
380.09	990.05
380.28	889.40
380.48	943.24
380.68	966.64
380.87	976.00
381.07	973.66
381.26	1029.84
381.46	966.64
381.65	1086.01
381.85	1053.24
382.04	1097.71
382.24	978.34
382.43	997.07
382.63	1055.58
382.83	1032.18
383.02	1109.41
383.22	1093.03
383.41	1027.50
383.61	1050.90
383.80	1118.78
384.00	1088.35
384.19	1078.99
384.39	1135.16
384.58	1135.16
384.78	1090.69
384.97	1174.95
385.17	1137.50
385.36	1128.14
385.56	1139.84
385.75	1167.93
385.95	1224.10
386.14	1107.07
386.34	1256.87
386.53	1277.93
386.72	1167.93
386.92	1170.27
387.11	1259.21
387.31	1203.04
387.50	1266.23
387.70	1256.87
387.89	1284.95
388.09	1299.00
388.28	1174.95
388.48	1242.82
388.67	1343.47
388.86	1245.16
389.06	1313.04
389.25	1308.36
389.45	1338.79
389.64	1345.81
389.84	1322.40
390.03	1380.92
390.22	1446.45
390.42	1383.26
390.61	1310.70
390.81	1416.02
391.00	1472.20
391.19	1483.90
391.39	1488.58
391.58	1369.21
391.78	1413.68
391.97	1423.05
392.16	1439.43
392.36	1523.69
392.55	1425.39
392.75	1502.62
392.94	1519.01
393.13	1511.99
393.33	1486.24
393.52	1572.84
393.71	1530.71
393.91	1603.27
394.10	1577.52
394.29	1621.99
394.49	1526.03
394.68	1575.18
394.88	1664.12
395.07	1680.50
395.26	1659.44
395.46	1703.91
395.65	1771.79
395.84	1640.72
396.04	1769.44
396.23	1638.38
396.42	1750.72
396.62	1811.57
396.81	1827.96
397.00	1816.26
397.19	1827.96
397.39	1750.72
397.58	1980.09
397.77	1811.57
397.97	1877.11
398.16	1893.49
398.35	1982.43
398.55	1785.83
398.74	1891.15
398.93	1940.30
399.12	1898.17
399.32	2005.84
399.51	1942.64
399.70	1916.90
399.90	2015.20
400.09	2022.22
400.28	1970.73
400.47	1987.11
400.67	2115.84
400.86	2050.31
401.05	2115.84
401.24	2211.81
401.44	2125.21
401.63	2195.42
401.82	2094.78
402.01	2148.61
402.21	2181.38
402.40	2113.50
402.59	2101.80
402.78	2139.25
402.97	2155.63
403.17	2223.51
403.36	2221.17
403.55	2204.78
403.74	2370.96
403.93	2270.32
404.13	2452.88
404.32	2443.52
404.51	2471.61
404.70	2469.27
404.89	2380.32
405.09	2527.78
405.28	2567.57
405.47	2471.61
405.66	2473.95
405.85	2499.69
406.05	2406.07
406.24	2581.61
406.43	2574.59
406.62	2663.53
406.81	2656.51
407.00	2569.91
407.20	2616.72
407.39	2487.99
407.58	2670.55
407.77	2766.51
407.96	2787.58
408.15	2796.94
408.34	2761.83
408.54	2902.26
408.73	2820.35
408.92	2775.88
409.11	2836.73
409.30	2984.18
409.49	3012.27
409.68	2960.78
409.87	2874.18
410.07	2944.39
410.26	3012.27
410.45	2857.79
410.64	3075.46
410.83	3166.74
411.02	3068.44
411.21	3150.36
411.40	3192.49
411.59	3225.26
411.78	3304.84
411.98	3197.17
412.17	3243.98
412.36	3349.31
412.55	3389.10
412.74	3428.88
412.93	3419.52
413.12	3384.41
413.31	3627.83
413.50	3421.86
413.69	3559.95
413.88	3515.48
414.07	3578.68
414.26	3506.12
414.45	3709.75
414.64	3733.15
414.83	3756.56
415.02	3749.54
415.22	3871.25
415.41	3861.88
415.60	3950.82
415.79	3698.05
415.98	3946.14
416.17	3955.51
416.36	3901.67
416.55	3906.35
416.74	4105.30
416.93	4049.13
417.12	4011.68
417.31	4060.83
417.50	4102.96
417.69	4250.41
417.88	4252.75
418.07	4308.93
418.26	4402.55
418.45	4337.01
418.64	4423.61
418.83	4365.10
419.02	4421.27
419.21	4554.68
419.39	4512.55
419.58	4320.63
419.77	4454.04
419.96	4561.70
420.15	4524.26
420.34	4575.75
420.53	4571.07
420.72	4683.41
420.91	4765.33
421.10	4667.03
421.29	4819.16
421.48	4819.16
421.67	4657.67
421.86	4746.61
422.05	4863.63
422.24	4676.39
422.43	4917.47
422.61	4896.40
422.80	4936.19
422.99	4950.23
423.18	4992.36
423.37	4887.04
423.56	4915.12
423.75	4788.74
423.94	4788.74
424.13	4660.01
424.32	4819.16
424.50	4926.83
424.69	5170.24
424.88	5100.03
425.07	4994.70
425.26	4837.89
425.45	4926.83
425.64	4983.00
425.83	4908.10
426.01	5188.97
426.20	4992.36
426.39	5109.39
426.58	5172.58
426.77	5029.81
426.96	5125.77
427.15	5181.95
427.33	5004.07
427.52	5107.05
427.71	5181.95
427.90	5139.82
428.09	5259.18
428.28	5296.63
428.46	5188.97
428.65	5334.08
428.84	5650.05
429.03	5565.79
429.22	5261.52
429.40	5607.92
429.59	5511.96
429.78	5266.21
429.97	5350.46
430.16	5474.51
430.34	5804.53
430.53	5558.77
430.72	5682.82
430.91	5628.99
431.10	5551.75
431.28	5746.02
431.47	5774.10
431.66	5741.33
431.85	5703.89
432.03	6012.84
432.22	5764.74
432.41	5792.83
432.60	5987.09
432.79	6005.81
432.97	6015.18
433.16	5926.24
433.35	6057.31
433.54	5980.07
433.72	6162.63
433.91	6230.51
434.10	6195.40
434.28	6090.07
434.47	5912.19
434.66	6092.41
434.85	6340.51
435.03	6450.52
435.22	6195.40
435.41	6516.05
435.59	6415.41
435.78	6443.49
435.97	6363.92
436.16	6429.45
436.34	6455.20
436.53	6665.85
436.72	6612.01
436.90	6368.60
437.09	6565.20
437.28	6562.86
437.46	6715.00
437.65	6590.95
437.84	6754.79
438.02	6860.11
438.21	6839.05
438.40	6726.70
438.58	6850.75
438.77	7033.31
438.96	6825.00
439.14	7096.50
439.33	7087.14
439.52	7204.17
439.70	7269.70
439.89	7356.30
440.08	7363.33
440.26	7311.83
440.45	7335.24
440.63	7494.40
440.82	7653.55
441.01	7379.71
441.19	7616.10
441.38	7602.06
441.57	7737.81
441.75	7974.21
441.94	8060.80
442.12	7974.21
442.31	7981.23
442.50	7925.05
442.68	7969.52
442.87	8348.69
443.05	8037.40
443.24	8304.22
443.43	8166.13
443.61	8250.39
443.80	8346.35
443.98	8177.83
444.17	7922.71
444.35	8159.11
444.54	8388.48
444.73	8264.43
444.91	8318.26
445.10	8365.07
445.28	8278.47
445.47	8243.37
445.65	8351.03
445.84	8498.49
446.02	8507.85
446.21	8435.29
446.39	8142.72
446.58	8491.46
446.77	8512.53
446.95	8271.45
447.14	8329.97
447.32	8533.59
447.51	8400.18
447.69	8390.82
447.88	8549.98
448.06	8683.39
448.25	8748.92
448.43	8306.56
448.62	8760.63
448.80	8496.14
448.99	8674.03
449.17	8505.51
449.36	8854.25
449.54	8833.18
449.73	9043.83
449.91	9036.81
450.10	9050.85
450.28	8987.66
450.46	9055.53
450.65	9100.00
450.83	9123.41
451.02	9149.15
451.20	9025.11
451.39	9109.36
451.57	9172.56
451.76	9205.33
451.94	9247.46
452.13	9467.47
452.31	9310.65
452.49	9167.88
452.68	9626.62
452.86	9231.07
453.05	9373.85
453.23	9591.52
453.42	9329.38
453.60	9408.95
453.78	9387.89
453.97	9481.51
454.15	9547.05
454.34	9376.19
454.52	9776.42
454.70	9799.82
454.89	9586.83
455.07	9895.78
455.26	9951.96
455.44	10019.83
455.62	9888.76
455.81	9825.57
455.99	10127.50
456.17	10050.26
456.36	10218.78
456.54	10312.40
456.73	10293.68
456.91	10345.17
457.09	10246.87
457.28	10480.92
457.46	10118.14
457.64	10562.84
457.83	10382.62
458.01	10548.79
458.19	10892.85
458.38	10619.01
458.56	10759.44
458.74	10726.68
458.93	10616.67
459.11	10675.18
459.29	10738.38
459.48	10916.26
459.66	10913.92
459.84	10984.13
460.03	11047.33
460.21	10927.96
460.39	11047.33
460.57	11140.95
460.76	11330.53
460.94	11208.83
461.12	10932.64
461.31	11047.33
461.49	10960.73
461.67	11201.80
461.85	11531.82
462.04	11503.73
462.22	11433.52
462.40	11571.61
462.59	11538.84
462.77	11548.20
462.95	11534.16
463.13	11611.40
463.32	11332.87
463.50	11719.06
463.68	11761.19
463.86	11985.88
464.05	11620.76
464.23	11676.93
464.41	11810.34
464.59	11808.00
464.78	12046.74
464.96	11756.51
465.14	11885.24
465.32	12028.01
465.50	12224.62
465.69	12168.45
465.87	11887.58
466.05	12004.61
466.23	12301.86
466.41	12177.81
466.60	12643.57
466.78	12262.07
466.96	12262.07
467.14	12362.71
467.32	12332.28
467.51	12407.18
467.69	12336.96
467.87	12498.46
468.05	12477.40
468.23	12093.55
468.41	12669.32
468.60	12596.76
468.78	12772.30
468.96	12528.89
469.14	12713.79
469.32	12933.80
469.50	12922.10
469.69	12784.01
469.87	13090.62
470.05	12849.54
470.23	13053.17
470.41	13383.18
470.59	13261.48
470.77	13200.62
470.95	13432.33
471.14	13612.56
471.32	13167.85
471.50	13418.29
471.68	13458.08
471.86	13577.45
472.04	13523.62
472.22	13902.78
472.40	13537.66
472.58	13650.00
472.77	13947.25
472.95	14036.19
473.13	14761.76
473.31	14214.07
473.49	14321.74
473.67	14193.01
473.85	14398.98
474.03	14792.19
474.21	14675.16
474.39	14981.77
474.57	14633.03
474.75	14618.99
474.93	15009.86
475.12	14984.11
475.30	15091.77
475.48	14981.77
475.66	15124.54
475.84	14930.28
476.02	15353.91
476.20	15428.81
476.38	15716.70
476.56	15735.42
476.74	16018.63
476.92	15960.11
477.10	15721.38
477.28	16020.97
477.46	16175.44
477.64	16456.31
477.82	16407.16
478.00	16992.29
478.18	16636.53
478.36	16659.93
478.54	17294.22
478.72	17610.19
478.90	17224.00
479.08	17525.93
479.26	17820.84
479.44	17731.90
479.62	17965.95
479.80	18197.67
479.98	18235.11
480.16	18478.53
480.34	18487.89
480.52	18785.14
480.70	18553.43
480.88	18410.65
481.06	18972.38
481.24	18817.91
481.41	19384.32
481.59	19185.37
481.77	19543.47
481.95	19396.02
482.13	19976.47
482.31	19587.94
482.49	20437.56
482.67	20006.90
482.85	20313.51
483.03	20774.60
483.21	20978.22
483.39	20924.39
483.57	20950.14
483.74	21422.92
483.92	21434.63
484.10	21362.07
484.28	22085.30
484.46	22143.81
484.64	22202.32
484.82	22080.61
485.00	22515.95
485.18	22780.43
485.35	22991.08
485.53	23080.02
485.71	23070.66
485.89	23751.76
486.07	23328.12
486.25	23721.33
486.43	23737.71
486.61	23929.64
486.78	24049.00
486.96	24589.67
487.14	24484.34
487.32	24512.43
487.50	24751.17
487.68	25006.28
487.85	25338.64
488.03	25497.80
488.21	25869.94
488.39	25720.15
488.57	26005.69
488.75	26436.35
488.92	26436.35
489.10	26618.91
489.28	27129.15
489.46	27218.09
489.64	26939.57
489.81	27765.78
489.99	27807.90
490.17	27660.45
490.35	27953.02
490.53	28081.75
490.70	28737.10
490.88	28196.43
491.06	28341.55
491.24	28905.62
491.41	28865.83
491.59	29294.14
491.77	29191.16
491.95	29682.67
492.13	29720.12
492.30	30066.52
492.48	29968.22
492.66	30527.61
492.84	30242.06
493.01	30703.15
493.19	30558.03
493.37	31283.60
493.54	31314.03
493.72	31658.09
493.90	31346.79
494.08	31796.18
494.25	32137.90
494.43	31967.04
494.61	32437.48
494.79	32488.98
494.96	32488.98
495.14	32666.86
495.32	33043.68
495.49	33237.95
495.67	33240.29
495.85	33329.23
496.02	33930.75
496.20	33818.40
496.38	34225.65
496.55	34139.05
496.73	34590.78
496.91	34464.39
497.09	34993.35
497.26	35143.14
497.44	35000.37
497.62	35517.63
497.79	35690.83
497.97	35700.19
498.14	36198.73
498.32	36346.18
498.50	36313.41
498.67	36685.56
498.85	36030.21
499.03	36713.64
499.20	36847.05
499.38	36751.09
499.56	37317.50
499.73	37406.44
499.91	37347.93
500.08	37656.88
500.26	37415.80
500.44	37528.15
500.61	37713.05
500.79	37834.76
500.97	38162.43
501.14	38885.66
501.32	38869.28
501.49	38766.29
501.67	38642.24
501.84	39323.34
502.02	39065.88
502.20	39131.42
502.37	39587.82
502.55	39548.03
502.72	39098.65
502.90	39618.25
503.07	39728.25
503.25	39824.22
503.43	39793.79
503.60	40133.17
503.78	40194.02
503.95	39957.63
504.13	40093.38
504.30	40722.98
504.48	40563.82
504.65	41050.66
504.83	40814.26
505.01	41357.27
505.18	40921.93
505.36	41446.21
505.53	41120.87
505.71	41715.37
505.88	41642.81
506.06	41368.97
506.23	41841.76
506.41	42050.06
506.58	42490.09
506.76	42548.60
506.93	42412.85
507.11	42253.69
507.28	42330.93
507.46	42541.58
507.63	43489.49
507.81	43171.18
507.98	42707.76
508.16	43358.42
508.33	43667.37
508.50	43356.08
508.68	43590.14
508.85	44020.80
509.03	43782.06
509.20	43955.26
509.38	44561.46
509.55	44388.26
509.73	44446.77
509.90	44519.33
510.08	44486.56
510.25	45050.63
510.42	44765.09
510.60	44713.59
510.77	45457.88
510.95	45422.78
511.12	45319.79
511.30	45048.29
511.47	45382.99
511.64	45682.58
511.82	45696.62
511.99	45869.82
512.17	45872.16
512.34	46106.21
512.51	46616.45
512.69	46457.29
512.86	46529.85
513.04	46740.50
513.21	46380.06
513.38	46766.24
513.56	47152.43
513.73	46941.78
513.90	47035.41
514.08	46759.22
514.25	47683.73
514.43	47606.50
514.60	47859.27
514.77	47358.40
514.95	47611.18
515.12	47489.47
515.29	47524.58
515.47	47917.79
515.64	48210.35
515.81	47988.00
515.99	48224.40
516.16	48615.27
516.33	48619.95
516.51	48699.53
516.68	48769.74
516.85	48664.42
517.03	48933.58
517.20	49130.19
517.37	48921.88
517.54	48790.81
517.72	49254.23
517.89	49029.54
518.06	49144.23
518.24	49062.31
518.41	49333.81
518.58	49401.69
518.75	49151.25
518.93	49649.78
519.10	49284.66
519.27	49631.06
519.45	49715.32
519.62	50042.99
519.79	49914.26
519.96	49890.86
520.14	50255.98
520.31	50150.66
520.48	50045.33
520.65	50225.56
520.83	50822.39
521.00	50899.63
521.17	50759.20
521.34	50899.63
521.52	50756.86
521.69	51213.26
521.86	51267.09
522.03	51147.73
522.20	51056.45
522.38	51473.06
522.55	51264.75
522.72	51206.24
522.89	51054.11
523.07	51728.18
523.24	51552.64
523.41	51847.55
523.58	51615.83
523.75	51957.55
523.92	51683.71
524.10	51892.02
524.27	52100.32
524.44	52315.65
524.61	52252.46
524.78	52374.17
524.96	52247.78
525.13	52215.01
525.30	52451.41
525.47	52762.70
525.64	52680.78
525.81	52587.16
525.98	52980.37
526.16	52301.61
526.33	52540.35
526.50	52935.90
526.67	53034.20
526.84	52905.47
527.01	52882.06
527.18	52739.29
527.36	52846.96
527.53	53083.35
527.70	53279.96
527.87	53614.65
528.04	53134.84
528.21	53502.31
528.38	53340.81
528.55	53607.63
528.72	53385.28
528.89	53499.97
529.07	53375.92
529.24	53350.17
529.41	53563.16
529.58	53408.68
529.75	53457.84
529.92	53897.86
530.09	53963.39
530.26	53961.05
530.43	54073.40
530.60	53750.40
530.77	53972.75
530.94	54089.78
531.11	54057.01
531.28	54202.13
531.46	54384.69
531.63	54255.96
531.80	54328.52
531.97	54569.59
532.14	54499.37
532.31	54314.47
532.48	54464.27
532.65	54967.48
532.82	54637.47
532.99	54595.34
533.16	54536.82
533.33	54791.94
533.50	54808.32
533.67	54997.91
533.84	54906.63
534.01	55196.85
534.18	54918.33
534.35	55440.27
534.52	55257.71
534.69	55278.77
534.86	55302.18
535.03	55070.46
535.20	55269.41
535.37	55236.64
535.54	55536.23
535.71	55210.90
535.88	55189.83
536.05	55646.24
536.22	55351.33
536.38	55784.33
536.55	55643.90
536.72	55877.95
536.89	55552.62
537.06	55721.13
537.23	55796.03
537.40	55686.03
537.57	55786.67
537.74	55957.53
537.91	56243.07
538.08	55798.37
538.25	55608.79
538.42	56259.46
538.59	56055.83
538.75	55835.82
538.92	56140.09
539.09	56214.99
539.26	56114.34
539.43	56296.91
539.60	56210.31
539.77	56226.69
539.94	56601.18
540.11	56229.03
540.28	56465.42
540.44	56435.00
540.61	56374.14
540.78	56367.12
540.95	56559.05
541.12	56231.37
541.29	56493.51
541.46	56605.86
541.62	56563.73
541.79	56762.67
541.96	56278.18
542.13	56760.33
542.30	56589.47
542.47	56776.72
542.63	56722.88
542.80	56837.57
542.97	57029.49
543.14	57083.33
543.31	57176.95
543.48	57169.93
543.64	57392.28
543.81	57308.02
543.98	57303.34
544.15	57134.82
544.32	57415.68
544.48	57642.71
544.65	57286.95
544.82	57340.78
544.99	57368.87
545.16	57724.63
545.32	57420.36
545.49	57836.98
545.66	57851.02
545.83	57598.24
546.00	57848.68
546.16	57745.70
546.33	57319.72
546.50	57338.44
546.67	57729.31
546.83	57733.99
547.00	57834.64
547.17	57656.76
547.34	58042.95
547.50	57996.13
547.67	58066.35
547.84	58061.67
548.00	58148.27
548.17	58394.03
548.34	58181.04
548.51	58300.40
548.67	58150.61
548.84	58335.51
549.01	58166.99
549.18	58302.74
549.34	58206.78
549.51	58344.87
549.68	58548.50
549.84	58298.06
550.01	58431.47
550.18	58183.38
550.34	58468.92
550.51	58527.44
550.68	58485.31
550.84	58106.14
551.01	58592.97
551.18	58529.78
551.34	58595.31
551.51	58501.69
551.68	58553.18
551.84	58604.67
552.01	58438.50
552.18	58796.60
552.34	58611.70
552.51	58700.64
552.68	58518.07
552.84	58766.17
553.01	58995.54
553.18	58749.79
553.34	59047.04
553.51	58864.47
553.67	59035.33
553.84	59070.44
554.01	59028.31
554.17	59199.17
554.34	59079.80
554.51	59079.80
554.67	59002.56
554.84	59238.96
555.00	58883.20
555.17	59018.95
555.33	58925.33
555.50	59000.22
555.67	59224.92
555.83	59098.53
556.00	59189.81
556.16	59412.16
556.33	59484.72
556.50	59274.07
556.66	59568.97
556.83	59063.42
556.99	59489.40
557.16	59709.41
557.32	59526.84
557.49	59566.63
557.65	59395.77
557.82	59309.18
557.98	59367.69
558.15	59557.27
558.32	59503.44
558.48	59323.22
558.65	59580.68
558.81	59615.79
558.98	59583.02
559.14	59583.02
559.31	59683.66
559.47	59765.58
559.64	59618.13
559.80	59711.75
559.97	59777.28
560.13	59657.91
560.30	59758.56
560.46	59592.38
560.63	59700.04
560.79	59716.43
560.96	59976.23
561.12	59849.84
561.29	60025.38
561.45	59835.80
561.61	59786.64
561.78	59891.97
561.94	59931.76
562.11	59915.37
562.27	59966.87
562.44	59891.97
562.60	60261.77
562.77	59856.86
562.93	59917.71
563.10	60081.55
563.26	59929.42
563.42	60360.08
563.59	60168.15
563.75	59943.46
563.92	60142.41
564.08	60254.75
564.24	60266.45
564.41	59999.63
564.57	60130.70
564.74	60179.85
564.90	60271.14
565.07	60140.07
565.23	60144.75
565.39	60203.26
565.56	60140.07
565.72	60046.44
565.88	60140.07
566.05	60039.42
566.21	60233.69
566.38	60451.36
566.54	60210.28
566.70	60519.23
566.87	60488.80
567.03	60081.55
567.19	60357.74
567.36	60460.72
567.52	60381.14
567.68	60523.91
567.85	60350.71
568.01	60336.67
568.17	60385.82
568.34	60640.94
568.50	60299.22
568.66	60329.65
568.83	60556.68
568.99	60360.08
569.15	60289.86
569.32	60432.63
569.48	60472.42
569.64	60465.40
569.81	60493.49
569.97	60449.02
570.13	60615.19
570.30	60327.31
570.46	60596.47
570.62	60507.53
570.78	60488.80
570.95	60451.36
571.11	60617.53
571.27	60535.62
571.43	60528.59
571.60	60669.03
571.76	60547.32
571.92	60647.96
572.09	60664.35
572.25	60608.17
572.41	60718.18
572.57	60760.31
572.74	60835.20
572.90	60584.77
573.06	60673.71
573.22	60669.03
573.38	60640.94
573.55	60692.43
573.71	60846.91
573.87	60678.39
574.03	60793.07
574.20	60842.23
574.36	60718.18
574.52	60645.62
574.68	60694.77
574.84	60669.03
575.01	60893.72
575.17	60814.14
575.33	60874.99
575.49	60776.69
575.65	60762.65
575.82	60671.37
575.98	60987.34
576.14	61202.67
576.30	60926.49
576.46	60734.56
576.62	60708.82
576.79	60795.42
576.95	60643.28
577.11	60809.46
577.27	60900.74
577.43	60924.14
577.59	60659.66
577.75	60788.39
577.92	60924.14
578.08	60821.16
578.24	61022.45
578.40	60931.17
578.56	61183.94
578.72	60900.74
578.88	60889.04
579.04	61092.66
579.21	60982.66
579.37	60830.52
579.53	61113.73
579.69	60685.41
579.85	60720.52
580.01	60762.65
580.17	60924.14
580.33	61102.03
580.49	60851.59
580.65	61045.85
580.82	60956.91
580.98	61020.11
581.14	60907.76
581.30	61104.37
581.46	60898.40
581.62	60973.30
581.78	60832.86
581.94	60900.74
582.10	60919.46
582.26	60980.32
582.42	60809.46
582.58	61064.58
582.74	61013.08
582.90	60898.40
583.06	61048.19
583.22	60921.80
583.38	61080.96
583.54	61083.30
583.70	61015.43
583.86	61050.53
584.02	60797.76
584.18	60907.76
584.34	60949.89
584.50	61158.20
584.66	60926.49
584.82	60874.99
584.98	61160.54
585.14	61041.17
585.30	60832.86
585.46	61083.30
585.62	60935.85
585.78	61139.47
585.94	61022.45
586.10	61144.16
586.26	61195.65
586.42	61146.50
586.58	61312.67
586.74	61085.64
586.90	61057.56
587.06	60900.74
587.22	61137.13
587.38	60846.91
587.54	61291.61
587.70	61226.07
587.86	61197.99
588.02	61207.35
588.18	61160.54
588.34	61080.96
588.49	61169.90
