SpectraSuite Data File
++++++++++++++++++++++++++++++++++++
Date: Fri Oct 25 11:26:16 EDT 2013
User: price-jones
Dark Spectrum Present: No
Reference Spectrum Present: No
Number of Sampled Component Spectra: 1
Spectrometers: USB2+H05261
Integration Time (usec): 100000 (USB2+H05261)
Spectra Averaged: 1 (USB2+H05261)
Boxcar Smoothing: 0 (USB2+H05261)
Correct for Electrical Dark: No (USB2+H05261)
Strobe/Lamp Enabled: No (USB2+H05261)
Correct for Detector Non-linearity: No (USB2+H05261)
Correct for Stray Light: No (USB2+H05261)
Number of Pixels in Processed Spectrum: 2048
>>>>>Begin Processed Spectral Data<<<<<
365.73	220.01
365.92	220.01
366.12	220.01
366.32	126.39
366.52	117.03
366.72	126.39
366.91	156.82
367.11	175.54
367.31	98.30
367.51	112.35
367.70	203.63
367.90	159.16
368.10	126.39
368.30	142.77
368.49	140.43
368.69	124.05
368.89	170.86
369.09	121.71
369.28	114.69
369.48	140.43
369.68	205.97
369.87	177.88
370.07	128.73
370.27	234.05
370.47	320.65
370.66	606.20
370.86	709.18
371.06	601.52
371.25	704.50
371.45	678.76
371.65	723.23
371.84	734.93
372.04	697.48
372.24	758.33
372.44	763.01
372.63	711.52
372.83	758.33
373.03	770.04
373.22	798.12
373.42	826.21
373.62	753.65
373.81	802.80
374.01	819.19
374.21	800.46
374.40	812.17
374.60	828.55
374.79	821.53
374.99	809.83
375.19	753.65
375.38	858.98
375.58	849.61
375.78	896.43
375.97	875.36
376.17	987.71
376.37	901.11
376.56	891.74
376.76	931.53
376.95	961.96
377.15	940.90
377.35	833.23
377.54	898.77
377.74	947.92
377.93	936.21
378.13	957.28
378.33	957.28
378.52	926.85
378.72	929.19
378.91	943.24
379.11	912.81
379.31	971.32
379.50	929.19
379.70	1041.54
379.89	999.41
380.09	945.58
380.28	910.47
380.48	990.05
380.68	1057.92
380.87	1004.09
381.07	931.53
381.26	1034.52
381.46	901.11
381.65	1015.79
381.85	1032.18
382.04	1060.26
382.24	1107.07
382.43	1128.14
382.63	1081.33
382.83	1093.03
383.02	1156.22
383.22	1146.86
383.41	1198.35
383.61	1109.41
383.80	1128.14
384.00	1064.94
384.19	1139.84
384.39	1163.25
384.58	1123.46
384.78	1151.54
384.97	1158.57
385.17	1158.57
385.36	1146.86
385.56	1191.33
385.75	1128.14
385.95	1167.93
386.14	1170.27
386.34	1125.80
386.53	1146.86
386.72	1224.10
386.92	1146.86
387.11	1338.79
387.31	1217.08
387.50	1184.31
387.70	1240.48
387.89	1217.08
388.09	1268.57
388.28	1327.08
388.48	1263.89
388.67	1224.10
388.86	1350.49
389.06	1341.13
389.25	1378.58
389.45	1406.66
389.64	1284.95
389.84	1315.38
390.03	1348.15
390.22	1472.20
390.42	1294.32
390.61	1418.36
390.81	1502.62
391.00	1514.33
391.19	1392.62
391.39	1437.09
391.58	1479.22
391.78	1441.77
391.97	1535.39
392.16	1437.09
392.36	1437.09
392.55	1490.92
392.75	1481.56
392.94	1582.20
393.13	1561.14
393.33	1481.56
393.52	1603.27
393.71	1661.78
393.91	1624.33
394.10	1600.93
394.29	1657.10
394.49	1577.52
394.68	1645.40
394.88	1671.14
395.07	1671.14
395.26	1673.48
395.46	1727.32
395.65	1781.15
395.84	1682.85
396.04	1797.53
396.23	1675.82
396.42	1732.00
396.62	1757.74
396.81	1921.58
397.00	1717.95
397.19	1795.19
397.39	1713.27
397.58	1764.76
397.77	1809.23
397.97	1790.51
398.16	1863.07
398.35	1858.39
398.55	1877.11
398.74	1914.56
398.93	2043.29
399.12	1980.09
399.32	1923.92
399.51	1907.54
399.70	2024.56
399.90	1994.14
400.09	1994.14
400.28	1961.37
400.47	2090.10
400.67	2108.82
400.86	2062.01
401.05	1977.75
401.24	2036.27
401.44	2155.63
401.63	2197.76
401.82	2129.89
402.01	2078.40
402.21	2162.66
402.40	2127.55
402.59	2179.04
402.78	2317.13
402.97	2202.44
403.17	2289.04
403.36	2282.02
403.55	2284.36
403.74	2363.94
403.93	2373.30
404.13	2399.05
404.32	2314.79
404.51	2303.09
404.70	2476.29
404.89	2363.94
405.09	2485.65
405.28	2457.56
405.47	2417.77
405.66	2530.12
405.85	2504.37
406.05	2541.82
406.24	2480.97
406.43	2633.10
406.62	2595.65
406.81	2689.28
407.00	2607.36
407.20	2480.97
407.39	2677.57
407.58	2759.49
407.77	2675.23
407.96	2729.06
408.15	2698.64
408.34	2693.96
408.54	2782.90
408.73	2799.28
408.92	2876.52
409.11	2902.26
409.30	2942.05
409.49	2911.63
409.68	2972.48
409.87	2935.03
410.07	2979.50
410.26	2988.86
410.45	3023.97
410.64	3061.42
410.83	3143.34
411.02	3122.27
411.21	3208.87
411.40	3112.91
411.59	3248.66
411.78	3141.00
411.98	3236.96
412.17	3276.75
412.36	3328.24
412.55	3314.20
412.74	3365.69
412.93	3382.07
413.12	3524.85
413.31	3543.57
413.50	3576.34
413.69	3389.10
413.88	3557.61
414.07	3616.13
414.26	3604.42
414.45	3632.51
414.64	3667.62
414.83	3716.77
415.02	3735.50
415.22	3756.56
415.41	3861.88
415.60	3815.07
415.79	3845.50
415.98	4070.19
416.17	4011.68
416.36	3857.20
416.55	4145.09
416.74	4088.92
416.93	4100.62
417.12	4159.13
417.31	4156.79
417.50	4152.11
417.69	4376.80
417.88	4210.62
418.07	4257.43
418.26	4255.09
418.45	4372.12
418.64	4489.15
418.83	4313.61
419.02	4603.83
419.21	4432.97
419.39	4496.17
419.58	4329.99
419.77	4341.69
419.96	4603.83
420.15	4416.59
420.34	4514.89
420.53	4442.34
420.72	4608.51
420.91	4545.32
421.10	4713.84
421.29	4636.60
421.48	4638.94
421.67	4774.69
421.86	4809.80
422.05	4851.93
422.24	4791.08
422.43	4828.53
422.61	4957.25
422.80	4929.17
422.99	4964.28
423.18	4880.02
423.37	5123.43
423.56	4933.85
423.75	4945.55
423.94	4915.12
424.13	4550.00
424.32	4683.41
424.50	5015.77
424.69	5191.31
424.88	4966.62
425.07	4875.34
425.26	5069.60
425.45	4926.83
425.64	5008.75
425.83	4844.91
426.01	4943.21
426.20	5062.58
426.39	5078.96
426.58	5121.09
426.77	5060.24
426.96	5137.48
427.15	5064.92
427.33	5193.65
427.52	5146.84
427.71	5151.52
427.90	5263.86
428.09	5359.83
428.28	5273.23
428.46	5406.64
428.65	5345.78
428.84	5467.49
429.03	5612.60
429.22	5270.89
429.40	5387.91
429.59	5462.81
429.78	5263.86
429.97	5336.42
430.16	5579.84
430.34	5591.54
430.53	5687.50
430.72	5556.43
430.91	5561.11
431.10	5731.97
431.28	5701.54
431.47	5799.85
431.66	5839.64
431.85	5834.96
432.03	5912.19
432.22	5991.77
432.41	5839.64
432.60	5804.53
432.79	5891.13
432.97	6033.90
433.16	6029.22
433.35	5940.28
433.54	6148.59
433.72	6244.55
433.91	6155.61
434.10	6029.22
434.28	6012.84
434.47	6150.93
434.66	6200.08
434.85	6377.96
435.03	6408.39
435.22	6282.00
435.41	6403.71
435.59	6392.00
435.78	6370.94
435.97	6335.83
436.16	6354.55
436.34	6317.11
436.53	6394.34
436.72	6654.14
436.90	6314.77
437.09	6731.38
437.28	6509.03
437.46	6761.81
437.65	6518.39
437.84	6544.14
438.02	6576.91
438.21	6822.66
438.40	6736.06
438.58	6867.13
438.77	6970.12
438.96	6927.99
439.14	7136.29
439.33	7094.16
439.52	7190.13
439.70	7253.32
439.89	7180.76
440.08	7358.64
440.26	7262.68
440.45	7344.60
440.63	7482.69
440.82	7646.53
441.01	7358.64
441.19	7716.75
441.38	7714.41
441.57	7592.70
441.75	7634.83
441.94	7784.62
442.12	7868.88
442.31	7962.50
442.50	7918.03
442.68	7943.78
442.87	7812.71
443.05	8102.93
443.24	8297.20
443.43	8098.25
443.61	8271.45
443.80	8472.74
443.98	7887.61
444.17	7831.43
444.35	8245.71
444.54	8365.07
444.73	8344.01
444.91	8219.96
445.10	8243.37
445.28	8325.29
445.47	8428.27
445.65	8418.91
445.84	8493.80
446.02	8507.85
446.21	8503.17
446.39	8133.36
446.58	8461.04
446.77	8437.63
446.95	8219.96
447.14	8503.17
447.32	8723.18
447.51	8367.42
447.69	8535.93
447.88	8414.23
448.06	8486.78
448.25	8566.36
448.43	8683.39
448.62	8535.93
448.80	8449.33
448.99	8542.96
449.17	8645.94
449.36	8758.28
449.54	8753.60
449.73	8924.46
449.91	8959.57
450.10	8982.98
450.28	8966.59
450.46	9102.34
450.65	9092.98
450.83	9043.83
451.02	8982.98
451.20	9034.47
451.39	9242.78
451.57	9256.82
451.76	8990.00
451.94	9270.86
452.13	9071.92
452.31	9238.09
452.49	9041.49
452.68	9397.25
452.86	9301.29
453.05	9259.16
453.23	9458.10
453.42	9064.89
453.60	9327.03
453.78	9549.39
453.97	9401.93
454.15	9462.79
454.34	9383.21
454.52	9509.60
454.70	9825.57
454.89	9832.59
455.07	9769.40
455.26	9858.34
455.44	9956.64
455.62	9958.98
455.81	10050.26
455.99	9895.78
456.17	10057.28
456.36	10005.79
456.54	10026.86
456.73	10104.09
456.91	10361.55
457.09	10263.25
457.28	10611.99
457.46	10312.40
457.64	10382.62
457.83	10410.70
458.01	10497.30
458.19	10581.56
458.38	10506.66
458.56	10787.53
458.74	10693.91
458.93	10527.73
459.11	10539.43
459.29	10764.12
459.48	10661.14
459.66	10602.63
459.84	10801.57
460.03	11208.83
460.21	11042.65
460.39	11049.67
460.57	10902.22
460.76	11201.80
460.94	11037.97
461.12	11030.94
461.31	11232.23
461.49	11166.70
461.67	11243.93
461.85	11377.34
462.04	11257.98
462.22	11761.19
462.40	11543.52
462.59	11440.54
462.77	11201.80
462.95	11569.27
463.13	11412.45
463.32	11384.37
463.50	11819.71
463.68	11791.62
463.86	11590.33
464.05	11705.02
464.23	11609.06
464.41	11932.05
464.59	11473.31
464.78	11981.20
464.96	12020.99
465.14	11896.94
465.32	12020.99
465.50	11927.37
465.69	11910.99
465.87	12152.06
466.05	12138.02
466.23	12128.66
466.41	12208.23
466.60	12627.19
466.78	12248.02
466.96	12166.10
467.14	12067.80
467.32	12388.46
467.51	12503.14
467.69	12056.10
467.87	12325.26
468.05	12725.49
468.23	12273.77
468.41	12470.37
468.60	12601.44
468.78	12791.03
468.96	12599.10
469.14	12657.62
469.32	12791.03
469.50	12613.15
469.69	12989.97
469.87	12938.48
470.05	13186.58
470.23	13125.72
470.41	13139.77
470.59	13348.08
470.77	13298.92
470.95	13254.45
471.14	13329.35
471.32	13177.22
471.50	13387.86
471.68	13458.08
471.86	13521.27
472.04	13750.65
472.22	14134.50
472.40	13734.26
472.58	13572.77
472.77	13905.12
472.95	13802.14
473.13	14602.60
473.31	13951.93
473.49	14066.62
473.67	14239.82
473.85	14136.84
474.03	14600.26
474.21	14511.32
474.39	14707.93
474.57	14700.90
474.75	14916.23
474.93	14888.15
475.12	14937.30
475.30	14991.13
475.48	14759.42
475.66	15297.74
475.84	15208.80
476.02	15346.89
476.20	15304.76
476.38	15651.16
476.56	15669.89
476.74	15765.85
476.92	15807.98
477.10	15693.29
477.28	16035.01
477.46	15960.11
477.64	16177.78
477.82	16458.65
478.00	16814.41
478.18	16748.87
478.36	16931.44
478.54	17195.92
478.72	16922.07
478.90	17392.52
479.08	17547.00
479.26	17558.70
479.44	17797.43
479.62	18045.53
479.80	17994.04
479.98	18314.69
480.16	18382.57
480.34	18298.31
480.52	18377.89
480.70	18349.80
480.88	18382.57
481.06	18808.54
481.24	18745.35
481.41	18586.19
481.59	19190.05
481.77	19679.22
481.95	19587.94
482.13	19669.86
482.31	19583.26
482.49	20140.31
482.67	20114.56
482.85	20299.47
483.03	20713.74
483.21	20774.60
483.39	20840.13
483.57	20821.41
483.74	20790.98
483.92	21231.00
484.10	21006.31
484.28	21556.33
484.46	21703.79
484.64	22115.72
484.82	21797.41
485.00	22359.14
485.18	22726.60
485.35	22888.10
485.53	22916.19
485.71	22764.05
485.89	23456.85
486.07	22881.08
486.25	23426.42
486.43	23491.96
486.61	23653.45
486.78	23946.02
486.96	24041.98
487.14	24676.27
487.32	24341.57
487.50	24793.29
487.68	24634.14
487.85	25017.99
488.03	25373.75
488.21	25783.34
488.39	25706.10
488.57	25965.90
488.75	26139.10
488.92	26324.01
489.10	26576.78
489.28	26623.59
489.46	27084.68
489.64	26813.18
489.81	27384.27
489.99	27517.68
490.17	27573.85
490.35	28180.05
490.53	28243.24
490.70	28315.80
490.88	28308.78
491.06	28823.70
491.24	28517.09
491.41	28631.77
491.59	28961.79
491.77	29060.09
491.95	29401.81
492.13	29682.67
492.30	29727.14
492.48	29825.45
492.66	30209.29
492.84	30103.97
493.01	30618.89
493.19	30869.33
493.37	31178.28
493.54	30831.88
493.72	31346.79
493.90	31005.08
494.08	31562.12
494.25	31686.17
494.43	32091.09
494.61	32402.38
494.79	32481.95
494.96	32767.50
495.14	32486.64
495.32	32779.20
495.49	32648.13
495.67	33146.67
495.85	32952.40
496.02	33593.71
496.20	33984.58
496.38	33839.47
496.55	33729.46
496.73	34082.88
496.91	34227.99
497.09	34684.40
497.26	35028.46
497.44	34771.00
497.62	34995.69
497.79	35433.37
497.97	35489.54
498.14	35524.65
498.32	35971.69
498.50	36109.78
498.67	36687.90
498.85	36271.28
499.03	36767.48
499.20	36711.30
499.38	36781.52
499.56	36980.46
499.73	37184.09
499.91	37102.17
500.08	37659.22
500.26	37401.76
500.44	37336.23
500.61	37490.70
500.79	37895.61
500.97	37773.91
501.14	38127.33
501.32	38586.07
501.49	38469.04
501.67	38398.83
501.84	38827.15
502.02	38501.81
502.20	38782.68
502.37	39309.30
502.55	38895.02
502.72	39672.08
502.90	39604.20
503.07	39552.71
503.25	39758.68
503.43	39887.41
503.60	40053.59
503.78	40041.88
503.95	39775.06
504.13	40552.12
504.30	40514.67
504.48	40346.15
504.65	40842.35
504.83	40580.21
505.01	41684.94
505.18	41179.39
505.36	41521.10
505.53	41228.54
505.71	41233.22
505.88	41462.59
506.06	41364.29
506.23	42000.91
506.41	41544.51
506.58	41942.40
506.76	42082.83
506.93	42298.16
507.11	41977.51
507.28	42309.86
507.46	43009.68
507.63	42632.86
507.81	43416.94
507.98	42597.75
508.16	43187.56
508.33	43470.77
508.50	43552.69
508.68	43559.71
508.85	43765.68
509.03	43473.11
509.20	43714.19
509.38	43854.62
509.55	44493.58
509.73	44175.27
509.90	44425.71
510.08	44753.38
510.25	44634.02
510.42	44697.21
510.60	44734.66
510.77	44758.06
510.95	44870.41
511.12	45153.62
511.30	45366.60
511.47	45663.85
511.64	45205.11
511.82	45717.68
511.99	45734.07
512.17	45720.02
512.34	45823.01
512.51	45897.91
512.69	46534.53
512.86	46291.12
513.04	46473.68
513.21	46284.09
513.38	46387.08
513.56	46515.81
513.73	46595.38
513.90	47213.29
514.08	46733.48
514.25	46986.25
514.43	47400.53
514.60	47433.30
514.77	47318.61
514.95	47629.90
515.12	47339.68
515.29	47229.67
515.47	47590.11
515.64	47803.10
515.81	47863.96
515.99	47824.17
516.16	48397.60
516.33	48315.68
516.51	48495.90
516.68	48381.21
516.85	48381.21
517.03	48835.28
517.20	48519.31
517.37	48547.39
517.54	48889.11
517.72	48884.43
517.89	49179.34
518.06	49097.42
518.24	48622.29
518.41	48980.39
518.58	49411.05
518.75	49387.64
518.93	49249.55
519.10	49085.72
519.27	49701.28
519.45	49614.68
519.62	50078.10
519.79	49584.25
519.96	49989.16
520.14	50211.51
520.31	49928.31
520.48	50178.75
520.65	50284.07
520.83	50419.82
521.00	50375.35
521.17	50670.26
521.34	50604.72
521.52	51040.06
521.69	50913.67
521.86	50843.46
522.03	50932.40
522.20	51213.26
522.38	51070.49
522.55	51166.45
522.72	50995.59
522.89	51114.96
523.07	51395.82
523.24	51480.08
523.41	51721.16
523.58	51547.96
523.75	51803.08
523.92	51395.82
524.10	51901.38
524.27	51693.07
524.44	52020.75
524.61	51903.72
524.78	51948.19
524.96	52032.45
525.13	51770.31
525.30	52306.29
525.47	52374.17
525.64	52381.19
525.81	52254.80
525.98	52552.05
526.16	52554.39
526.33	52676.10
526.50	52853.98
526.67	52449.06
526.84	52942.92
527.01	52601.20
527.18	52697.16
527.36	52790.78
527.53	52961.64
527.70	53102.07
527.87	52933.56
528.04	53247.19
528.21	53418.05
528.38	53361.87
528.55	53148.88
528.72	53076.33
528.89	53401.66
529.07	53116.12
529.24	53462.52
529.41	53776.15
529.58	53609.97
529.75	53509.33
529.92	53471.88
530.09	53801.89
530.26	53939.99
530.43	53675.51
530.60	53808.92
530.77	53492.94
530.94	54028.93
531.11	53790.19
531.28	54024.25
531.46	54295.75
531.63	54260.64
531.80	54190.42
531.97	54185.74
532.14	54480.65
532.31	54424.48
532.48	54300.43
532.65	54333.20
532.82	54670.23
532.99	54705.34
533.16	54433.84
533.33	54681.94
533.50	54695.98
533.67	54595.34
533.84	54569.59
534.01	54796.62
534.18	54546.18
534.35	54967.48
534.52	55025.99
534.69	55288.13
534.86	55246.00
535.03	55033.02
535.20	55360.69
535.37	55327.92
535.54	55320.90
535.71	55084.51
535.88	55461.33
536.05	55337.29
536.22	55454.31
536.38	55625.17
536.55	55477.72
536.72	55789.01
536.89	55105.57
537.06	55477.72
537.23	55608.79
537.40	55449.63
537.57	55723.47
537.74	55554.96
537.91	55838.16
538.08	55753.90
538.25	55716.45
538.42	55777.31
538.59	55929.44
538.75	55786.67
538.92	55817.10
539.09	55976.25
539.26	55987.95
539.43	55950.51
539.60	56090.94
539.77	56175.20
539.94	56399.89
540.11	56303.93
540.28	56186.90
540.44	56271.16
540.61	56465.42
540.78	56353.08
540.95	56109.66
541.12	56320.31
541.29	56320.31
541.46	56257.12
541.62	56437.34
541.79	56573.09
541.96	56266.48
542.13	56493.51
542.30	56708.84
542.47	56713.52
542.63	56713.52
542.80	56561.39
542.97	57045.88
543.14	57209.71
543.31	57190.99
543.48	57069.28
543.64	57308.02
543.81	57106.73
543.98	57406.32
544.15	57139.50
544.32	57188.65
544.48	57441.43
544.65	57235.46
544.82	57453.13
544.99	57214.40
545.16	57408.66
545.32	57469.51
545.49	57616.97
545.66	57743.36
545.83	57544.41
546.00	57743.36
546.16	57677.82
546.33	57602.92
546.50	57396.96
546.67	57708.25
546.83	57460.15
547.00	57446.11
547.17	57523.35
547.34	57539.73
547.50	57511.64
547.67	57869.75
547.84	57841.66
548.00	58085.07
548.17	58244.23
548.34	57928.26
548.51	57977.41
548.67	58117.84
548.84	58049.97
549.01	58033.58
549.18	58080.39
549.34	58035.92
549.51	58213.80
549.68	58220.83
549.84	58218.49
550.01	58398.71
550.18	57972.73
550.34	58525.10
550.51	58162.31
550.68	58279.34
550.84	58136.57
551.01	58391.68
551.18	58195.08
551.34	58422.11
551.51	58244.23
551.68	58450.20
551.84	58546.16
552.01	58408.07
552.18	58543.82
552.34	58288.70
552.51	58511.05
552.68	58574.25
552.84	58508.71
553.01	58787.24
553.18	58700.64
553.34	58550.84
553.51	58539.14
553.67	58684.25
553.84	58890.22
554.01	58817.66
554.17	58822.34
554.34	59124.27
554.51	58890.22
554.67	58981.50
554.84	58869.15
555.00	58981.50
555.17	58988.52
555.33	59089.16
555.50	58791.92
555.67	58777.87
555.83	58859.79
556.00	59100.87
556.16	59412.16
556.33	59182.79
556.50	58937.03
556.66	59159.38
556.83	59037.67
556.99	59269.39
557.16	59487.06
557.32	59419.18
557.49	59700.04
557.65	59236.62
557.82	59255.34
557.98	59355.99
558.15	59241.30
558.32	59236.62
558.48	59121.93
558.65	59428.54
558.81	59611.10
558.98	59512.80
559.14	59543.23
559.31	59592.38
559.47	59468.33
559.64	59554.93
559.80	59671.96
559.97	59451.95
560.13	59501.10
560.30	59667.28
560.46	59753.88
560.63	59772.60
560.79	59650.89
560.96	59798.35
561.12	59489.40
561.29	59772.60
561.45	59671.96
561.61	59693.02
561.78	59671.96
561.94	59721.11
562.11	59590.04
562.27	59732.81
562.44	59898.99
562.60	59964.52
562.77	59915.37
562.93	59674.30
563.10	60107.30
563.26	59849.84
563.42	60133.04
563.59	60062.83
563.75	59994.95
563.92	59924.74
564.08	60011.34
564.24	59922.40
564.41	60186.88
564.57	59934.10
564.74	60055.81
564.90	59800.69
565.07	60037.08
565.23	59985.59
565.39	60030.06
565.56	60219.64
565.72	59980.91
565.88	60231.35
566.05	59845.16
566.21	59994.95
566.38	60123.68
566.54	60114.32
566.70	60238.37
566.87	60243.05
567.03	60053.47
567.19	60411.57
567.36	60376.46
567.52	60144.75
567.68	60303.90
567.85	60261.77
568.01	60271.14
568.17	60191.56
568.34	60240.71
568.50	60296.88
568.66	60163.47
568.83	60402.21
568.99	60285.18
569.15	60439.65
569.32	60268.79
569.48	60081.55
569.64	60505.19
569.81	60240.71
569.97	60280.50
570.13	60430.29
570.30	60287.52
570.46	60383.48
570.62	60418.59
570.78	60570.72
570.95	60306.24
571.11	60355.39
571.27	60343.69
571.43	60383.48
571.60	60470.08
571.76	60404.55
571.92	60507.53
572.09	60514.55
572.25	60378.80
572.41	60364.76
572.57	60362.42
572.74	60528.59
572.90	60481.78
573.06	60397.52
573.22	60512.21
573.38	60516.89
573.55	60219.64
573.71	60706.47
573.87	60774.35
574.03	60491.15
574.20	60605.83
574.36	60418.59
574.52	60811.80
574.68	60725.20
574.84	60533.28
575.01	60636.26
575.17	60617.53
575.33	60521.57
575.49	60432.63
575.65	60718.18
575.82	60629.24
575.98	60519.23
576.14	60917.12
576.30	60842.23
576.46	60697.11
576.62	60502.85
576.79	60547.32
576.95	60392.84
577.11	60736.90
577.27	60781.37
577.43	60807.12
577.59	60664.35
577.75	60811.80
577.92	60699.45
578.08	60816.48
578.24	60701.79
578.40	60982.66
578.56	60882.02
578.72	60893.72
578.88	60837.54
579.04	60832.86
579.21	60718.18
579.37	61034.15
579.53	60867.97
579.69	60615.19
579.85	60479.44
580.01	60568.38
580.17	60654.98
580.33	60772.01
580.49	60678.39
580.65	60706.47
580.82	60823.50
580.98	60624.56
581.14	60858.61
581.30	60977.98
581.46	60816.48
581.62	60884.36
581.78	60666.69
581.94	60872.65
582.10	60711.16
582.26	60804.78
582.42	60603.49
582.58	60846.91
582.74	60891.38
582.90	60858.61
583.06	60989.68
583.22	60720.52
583.38	60846.91
583.54	60846.91
583.70	60783.71
583.86	60760.31
584.02	60912.44
584.18	60928.83
584.34	60956.91
584.50	60884.36
584.66	60676.05
584.82	60776.69
584.98	60980.32
585.14	61022.45
585.30	60893.72
585.46	60879.67
585.62	60764.99
585.78	60926.49
585.94	60654.98
586.10	60900.74
586.26	60889.04
586.42	60853.93
586.58	60977.98
586.74	60886.70
586.90	60898.40
587.06	60767.33
587.22	60959.25
587.38	61095.00
587.54	61087.98
587.70	61013.08
587.86	61073.94
588.02	61169.90
588.18	61132.45
588.34	60935.85
588.49	60947.55
