SpectraSuite Data File
++++++++++++++++++++++++++++++++++++
Date: Fri Oct 25 10:44:14 EDT 2013
User: price-jones
Dark Spectrum Present: No
Reference Spectrum Present: No
Number of Sampled Component Spectra: 1
Spectrometers: USB2+H05261
Integration Time (usec): 100000 (USB2+H05261)
Spectra Averaged: 1 (USB2+H05261)
Boxcar Smoothing: 0 (USB2+H05261)
Correct for Electrical Dark: No (USB2+H05261)
Strobe/Lamp Enabled: No (USB2+H05261)
Correct for Detector Non-linearity: No (USB2+H05261)
Correct for Stray Light: No (USB2+H05261)
Number of Pixels in Processed Spectrum: 2048
>>>>>Begin Processed Spectral Data<<<<<
365.73	112.35
365.92	112.35
366.12	112.35
366.32	81.92
366.52	35.11
366.72	77.24
366.91	58.51
367.11	0.00
367.31	0.00
367.51	49.15
367.70	32.77
367.90	42.13
368.10	0.00
368.30	100.64
368.49	77.24
368.69	67.88
368.89	4.68
369.09	42.13
369.28	18.72
369.48	49.15
369.68	35.11
369.87	63.19
370.07	30.43
370.27	60.85
370.47	140.43
370.66	435.34
370.86	395.55
371.06	418.96
371.25	402.57
371.45	397.89
371.65	533.64
371.84	472.79
372.04	435.34
372.24	475.13
372.44	440.02
372.63	531.30
372.83	484.49
373.03	573.43
373.22	521.94
373.42	477.47
373.62	472.79
373.81	524.28
374.01	566.41
374.21	629.60
374.40	561.73
374.60	620.24
374.79	524.28
374.99	592.16
375.19	615.56
375.38	559.39
375.58	545.34
375.78	671.73
375.97	603.86
376.17	643.65
376.37	524.28
376.56	655.35
376.76	622.58
376.95	676.41
377.15	671.73
377.35	603.86
377.54	711.52
377.74	631.94
377.93	610.88
378.13	603.86
378.33	690.46
378.52	550.03
378.72	674.07
378.91	706.84
379.11	674.07
379.31	704.50
379.50	613.22
379.70	751.31
379.89	737.27
380.09	690.46
380.28	587.47
380.48	688.12
380.68	706.84
380.87	758.33
381.07	779.40
381.26	791.10
381.46	751.31
381.65	772.38
381.85	629.60
382.04	711.52
382.24	702.16
382.43	716.20
382.63	709.18
382.83	645.99
383.02	697.48
383.22	695.14
383.41	634.29
383.61	784.08
383.80	805.14
384.00	821.53
384.19	807.48
384.39	835.57
384.58	737.27
384.78	805.14
384.97	765.36
385.17	741.95
385.36	830.89
385.56	875.36
385.75	854.30
385.95	837.91
386.14	919.83
386.34	791.10
386.53	819.19
386.72	840.25
386.92	922.17
387.11	915.15
387.31	947.92
387.50	786.42
387.70	844.93
387.89	910.47
388.09	917.49
388.28	950.26
388.48	896.43
388.67	985.37
388.86	938.55
389.06	887.06
389.25	961.96
389.45	1001.75
389.64	964.30
389.84	856.64
390.03	887.06
390.22	987.71
390.42	1006.43
390.61	1022.81
390.81	1029.84
391.00	1041.54
391.19	1132.82
391.39	1043.88
391.58	1018.13
391.78	1050.90
391.97	1011.11
392.16	987.71
392.36	1165.59
392.55	1041.54
392.75	1041.54
392.94	1001.75
393.13	959.62
393.33	1043.88
393.52	950.26
393.71	1132.82
393.91	1139.84
394.10	1053.24
394.29	1139.84
394.49	1156.22
394.68	1235.80
394.88	1149.20
395.07	1167.93
395.26	1149.20
395.46	1203.04
395.65	1282.61
395.84	1165.59
396.04	1212.40
396.23	1123.46
396.42	1083.67
396.62	1249.85
396.81	1172.61
397.00	1221.76
397.19	1268.57
397.39	1334.11
397.58	1481.56
397.77	1303.68
397.97	1355.17
398.16	1416.02
398.35	1495.60
398.55	1373.89
398.74	1448.79
398.93	1523.69
399.12	1488.58
399.32	1448.79
399.51	1460.49
399.70	1500.28
399.90	1540.07
400.09	1614.97
400.28	1533.05
400.47	1621.99
400.67	1568.16
400.86	1696.89
401.05	1591.56
401.24	1703.91
401.44	1722.63
401.63	1629.01
401.82	1614.97
402.01	1706.25
402.21	1696.89
402.40	1818.60
402.59	1685.19
402.78	1661.78
402.97	1799.87
403.17	1809.23
403.36	1886.47
403.55	1837.32
403.74	1785.83
403.93	1895.83
404.13	1877.11
404.32	1874.77
404.51	1886.47
404.70	1916.90
404.89	1933.28
405.09	1954.35
405.28	1834.98
405.47	1813.92
405.66	1966.05
405.85	2104.14
406.05	1982.43
406.24	2001.16
406.43	1935.62
406.62	2146.27
406.81	2040.95
407.00	2087.76
407.20	2080.74
407.39	2099.46
407.58	2188.40
407.77	2064.35
407.96	2258.62
408.15	2359.26
408.34	2218.83
408.54	2385.01
408.73	2235.21
408.92	2242.23
409.11	2235.21
409.30	2270.32
409.49	2221.17
409.68	2289.04
409.87	2389.69
410.07	2310.11
410.26	2448.20
410.45	2310.11
410.64	2445.86
410.83	2579.27
411.02	2527.78
411.21	2551.18
411.40	2504.37
411.59	2672.89
411.78	2569.91
411.98	2502.03
412.17	2743.11
412.36	2668.21
412.55	2623.74
412.74	2729.06
412.93	2710.34
413.12	2649.49
413.31	2766.51
413.50	2846.09
413.69	2834.39
413.88	2841.41
414.07	2899.92
414.26	2906.95
414.45	2920.99
414.64	2986.52
414.83	2963.12
415.02	3075.46
415.22	3332.92
415.41	3042.70
415.60	3009.93
415.79	3187.81
415.98	3192.49
416.17	3361.01
416.36	3180.79
416.55	3234.62
416.74	3290.79
416.93	3164.40
417.12	3379.73
417.31	3272.07
417.50	3304.84
417.69	3555.27
417.88	3358.67
418.07	3456.97
418.26	3545.91
418.45	3531.87
418.64	3676.98
418.83	3611.45
419.02	3508.46
419.21	3559.95
419.39	3606.77
419.58	3653.58
419.77	3550.59
419.96	3716.77
420.15	3658.26
420.34	3625.49
420.53	3632.51
420.72	3843.16
420.91	3824.44
421.10	3831.46
421.29	3981.25
421.48	3861.88
421.67	3847.84
421.86	3906.35
422.05	3803.37
422.24	3674.64
422.43	3763.58
422.61	3812.73
422.80	3873.59
422.99	4016.36
423.18	3829.12
423.37	4018.70
423.56	3896.99
423.75	3882.95
423.94	3817.41
424.13	3679.32
424.32	3756.56
424.50	3920.40
424.69	4109.98
424.88	3922.74
425.07	3992.95
425.26	3805.71
425.45	3974.23
425.64	3988.27
425.83	3791.67
426.01	4074.87
426.20	3964.87
426.39	4093.60
426.58	3955.51
426.77	3932.10
426.96	3899.33
427.15	3906.35
427.33	4098.28
427.52	4009.34
427.71	4264.46
427.90	4156.79
428.09	4124.02
428.28	4100.62
428.46	4219.99
428.65	4081.89
428.84	4243.39
429.03	4346.37
429.22	4138.07
429.40	4236.37
429.59	4273.82
429.78	3990.61
429.97	3838.48
430.16	4070.19
430.34	3988.27
430.53	4184.88
430.72	4147.43
430.91	4198.92
431.10	4358.08
431.28	4444.68
431.47	4571.07
431.66	4667.03
431.85	4503.19
432.03	4713.84
432.22	4678.73
432.41	4561.70
432.60	4610.86
432.79	4538.30
432.97	4877.68
433.16	4676.39
433.35	4617.88
433.54	4678.73
433.72	4727.88
433.91	4858.95
434.10	4596.81
434.28	4685.75
434.47	4840.23
434.66	4933.85
434.85	4973.64
435.03	4910.44
435.22	4924.49
435.41	5074.28
435.59	5001.72
435.78	5020.45
435.97	5071.94
436.16	5217.05
436.34	5104.71
436.53	5123.43
436.72	5217.05
436.90	5107.05
437.09	5179.61
437.28	5048.54
437.46	5233.44
437.65	5093.01
437.84	5146.84
438.02	5193.65
438.21	5238.12
438.40	5149.18
438.58	5313.02
438.77	5350.46
438.96	5270.89
439.14	5434.72
439.33	5488.56
439.52	5753.04
439.70	5596.22
439.89	5666.44
440.08	5710.91
440.26	5664.10
440.45	5652.39
440.63	5664.10
440.82	6050.28
441.01	5846.66
441.19	6031.56
441.38	6008.16
441.57	6090.07
441.75	6326.47
441.94	6176.67
442.12	6277.32
442.31	6300.72
442.50	6249.23
442.68	6354.55
442.87	6565.20
443.05	6314.77
443.24	6527.75
443.43	6399.02
443.61	6363.92
443.80	6480.94
443.98	6328.81
444.17	6204.76
444.35	6410.73
444.54	6537.12
444.73	6487.96
444.91	6434.13
445.10	6523.07
445.28	6429.45
445.47	6363.92
445.65	6392.00
445.84	6476.26
446.02	6588.61
446.21	6583.93
446.39	6485.62
446.58	6724.36
446.77	6565.20
446.95	6380.30
447.14	6675.21
447.32	6810.96
447.51	6473.92
447.69	6565.20
447.88	6684.57
448.06	6558.18
448.25	6621.38
448.43	6595.63
448.62	6593.29
448.80	6604.99
448.99	6640.10
449.17	6986.50
449.36	6736.06
449.54	6843.73
449.73	7061.40
449.91	7035.65
450.10	7162.04
450.28	7424.18
450.46	7110.55
450.65	7073.10
450.83	7126.93
451.02	7098.84
451.20	7337.58
451.39	7253.32
451.57	7246.30
451.76	7211.19
451.94	7084.80
452.13	7283.75
452.31	7330.56
452.49	6897.56
452.68	7344.60
452.86	7171.40
453.05	7473.33
453.23	7384.39
453.42	7281.41
453.60	7103.53
453.78	7358.64
453.97	7318.86
454.15	7309.49
454.34	7307.15
454.52	7499.08
454.70	7365.67
454.89	7344.60
455.07	7667.60
455.26	7829.09
455.44	7646.53
455.62	7686.32
455.81	7742.49
455.99	7819.73
456.17	7878.24
456.36	7714.41
456.54	7892.29
456.73	7964.84
456.91	8070.17
457.09	8009.31
457.28	8259.75
457.46	8025.70
457.64	8121.66
457.83	8016.33
458.01	8067.83
458.19	8119.32
458.38	7955.48
458.56	8388.48
458.74	8182.51
458.93	8226.98
459.11	8210.60
459.29	8353.37
459.48	8379.12
459.66	8278.47
459.84	8425.93
460.03	8491.46
460.21	8388.48
460.39	8439.97
460.57	8528.91
460.76	8561.68
460.94	8683.39
461.12	8664.66
461.31	8643.60
461.49	8566.36
461.67	8547.64
461.85	8781.69
462.04	8924.46
462.22	8887.01
462.40	8730.20
462.59	8901.06
462.77	8858.93
462.95	8985.32
463.13	8917.44
463.32	9088.30
463.50	8982.98
463.68	9210.01
463.86	9050.85
464.05	8863.61
464.23	8922.12
464.41	8924.46
464.59	8922.12
464.78	9341.08
464.96	9118.73
465.14	9186.60
465.32	9277.88
465.50	9268.52
465.69	9132.77
465.87	9151.49
466.05	9200.65
466.23	8954.89
466.41	9116.39
466.60	9556.41
466.78	9195.96
466.96	9200.65
467.14	9266.18
467.32	9160.86
467.51	9537.68
467.69	9142.13
467.87	9383.21
468.05	9579.81
468.23	9418.32
468.41	9294.27
468.60	9387.89
468.78	9673.43
468.96	9577.47
469.14	9722.59
469.32	9825.57
469.50	9523.64
469.69	9783.44
469.87	9774.08
470.05	9811.53
470.23	9741.31
470.41	9933.23
470.59	10125.16
470.77	9701.52
470.95	9963.66
471.14	9961.32
471.32	9841.95
471.50	10204.74
471.68	10223.46
471.86	10394.32
472.04	10289.00
472.22	10375.59
472.40	10235.16
472.58	10296.02
472.77	10450.49
472.95	10712.63
473.13	10782.85
473.31	10534.75
473.49	10640.08
473.67	10700.93
473.85	10806.25
474.03	11035.63
474.21	11115.20
474.39	11136.27
474.57	10869.45
474.75	11171.38
474.93	11286.06
475.12	11112.86
475.30	10977.11
475.48	11115.20
475.66	11211.17
475.84	11384.37
476.02	11393.73
476.20	11503.73
476.38	11702.68
476.56	12009.29
476.74	11735.45
476.92	11815.02
477.10	11772.89
477.28	12201.21
477.46	12058.44
477.64	12100.57
477.82	12365.05
478.00	12624.85
478.18	12507.82
478.36	12610.81
478.54	12699.75
478.72	12755.92
478.90	12854.22
479.08	12849.54
479.26	13359.78
479.44	13071.89
479.62	13247.43
479.80	13324.67
479.98	13188.92
480.16	13781.07
480.34	13458.08
480.52	13565.74
480.70	13785.76
480.88	13666.39
481.06	13926.19
481.24	13921.51
481.41	13891.08
481.59	14506.64
481.77	14497.28
481.95	14347.48
482.13	14389.61
482.31	14766.44
482.49	14810.91
482.67	14988.79
482.85	14892.83
483.03	15129.22
483.21	15314.13
483.39	15281.36
483.57	15311.78
483.74	15620.74
483.92	15557.54
484.10	15257.95
484.28	15688.61
484.46	16016.29
484.64	16395.45
484.82	16205.87
485.00	16407.16
485.18	16697.38
485.35	16582.70
485.53	16074.80
485.71	16156.72
485.89	16507.80
486.07	16479.71
486.25	16580.36
486.43	16666.95
486.61	16725.47
486.78	17324.65
486.96	17467.42
487.14	17607.85
487.32	17816.16
487.50	17958.93
487.68	18188.30
487.85	18525.34
488.03	18279.58
488.21	18686.84
488.39	18494.91
488.57	18588.53
488.75	18843.65
488.92	19311.76
489.10	19145.58
489.28	19276.65
489.46	19494.32
489.64	19363.25
489.81	20217.55
489.99	19985.83
490.17	20067.75
490.35	20276.06
490.53	20442.24
490.70	20395.43
490.88	20451.60
491.06	20805.02
491.24	20634.16
491.41	20638.84
491.59	20870.56
491.77	21060.14
491.95	21198.23
492.13	21254.40
492.30	21556.33
492.48	21315.26
492.66	21708.47
492.84	21933.16
493.01	21867.63
493.19	21914.44
493.37	22469.14
493.54	22216.36
493.72	22548.72
493.90	22359.14
494.08	23035.55
494.25	23019.17
494.43	22869.37
494.61	23035.55
494.79	23658.14
494.96	23461.53
495.14	23606.64
495.32	23538.77
495.49	23730.69
495.67	24016.24
495.85	23864.10
496.02	24121.56
496.20	24194.12
496.38	24299.44
496.55	24159.01
496.73	25247.36
496.91	25181.82
497.09	25289.49
497.26	25333.96
497.44	24886.92
497.62	25252.04
497.79	25399.49
497.97	25359.70
498.14	25151.40
498.32	25652.27
498.50	25605.46
498.67	25872.28
498.85	25827.81
499.03	26333.37
499.20	25933.14
499.38	25921.43
499.56	26541.68
499.73	26576.78
499.91	26438.69
500.08	26377.84
500.26	26146.12
500.44	26195.28
500.61	26630.62
500.79	26639.98
500.97	26745.30
501.14	27225.11
501.32	27531.72
501.49	27058.93
501.67	27070.64
501.84	27431.08
502.02	27559.81
502.20	27784.50
502.37	27747.05
502.55	27653.43
502.72	27988.13
502.90	28453.89
503.07	27964.72
503.25	27770.46
503.43	28020.89
503.60	28130.90
503.78	28013.87
503.95	28166.01
504.13	28407.08
504.30	28809.65
504.48	28898.59
504.65	28982.85
504.83	29123.29
505.01	29486.07
505.18	29032.00
505.36	29717.78
505.53	29308.19
505.71	29624.16
505.88	29607.78
506.06	29509.47
506.23	29544.58
506.41	29673.31
506.58	29685.01
506.76	29748.21
506.93	29652.25
507.11	29846.51
507.28	30106.31
507.46	29853.53
507.63	30059.50
507.81	30059.50
507.98	29895.66
508.16	30167.16
508.33	30398.88
508.50	30836.56
508.68	30923.16
508.85	31267.22
509.03	30834.22
509.20	31189.98
509.38	31402.97
509.55	31225.09
509.73	31173.60
509.90	31524.68
510.08	31459.14
510.25	31807.88
510.42	31681.49
510.60	31934.27
510.77	32004.49
510.95	32278.33
511.12	31850.01
511.30	31842.99
511.47	32182.37
511.64	32020.87
511.82	32549.83
511.99	32266.63
512.17	32465.57
512.34	32329.82
512.51	32332.16
512.69	32673.88
512.86	32673.88
513.04	32863.46
513.21	32793.25
513.38	32699.62
513.56	32678.56
513.73	32863.46
513.90	33198.16
514.08	32739.41
514.25	33223.90
514.43	33160.71
514.60	33570.30
514.77	33336.25
514.95	33897.98
515.12	33376.04
515.29	33481.36
515.47	33816.06
515.64	33963.51
515.81	33535.20
515.99	33972.88
516.16	33624.14
516.33	33429.87
516.51	33600.73
516.68	33654.56
516.85	33462.64
517.03	33373.70
517.20	33727.12
517.37	34003.30
517.54	34466.73
517.72	34356.72
517.89	34101.61
518.06	34174.16
518.24	34513.54
518.41	34637.59
518.58	34288.85
518.75	34918.45
518.93	34841.21
519.10	34480.77
519.27	35009.73
519.45	35171.23
519.62	35393.58
519.79	35508.27
519.96	35386.56
520.14	35381.88
520.31	35351.45
520.48	35644.02
520.65	35503.59
520.83	36151.91
521.00	35618.27
521.17	36074.68
521.34	35742.32
521.52	36074.68
521.69	36109.78
521.86	36697.26
522.03	36325.11
522.20	36322.77
522.38	36453.84
522.55	36603.64
522.72	36364.90
522.89	36287.67
523.07	36744.07
523.24	36645.77
523.41	37113.87
523.58	37123.24
523.75	37560.92
523.92	37486.02
524.10	37481.34
524.27	37350.27
524.44	37127.92
524.61	37188.77
524.78	37450.91
524.96	37577.30
525.13	37666.24
525.30	37771.57
525.47	37979.87
525.64	37521.13
525.81	37691.99
525.98	37881.57
526.16	37111.53
526.33	37165.37
526.50	37518.79
526.67	37294.10
526.84	37312.82
527.01	37406.44
527.18	37975.19
527.36	38185.84
527.53	38319.25
527.70	38295.85
527.87	38274.78
528.04	38073.49
528.21	38548.62
528.38	38457.34
528.55	38801.40
528.72	39077.58
528.89	39026.09
529.07	39019.07
529.24	38586.07
529.41	38689.06
529.58	38583.73
529.75	39077.58
529.92	39133.76
530.09	38869.28
530.26	39339.72
530.43	39285.89
530.60	39063.54
530.77	39494.20
530.94	39409.94
531.11	39129.08
531.28	39438.03
531.46	39351.43
531.63	39431.01
531.80	39526.97
531.97	39636.97
532.14	39449.73
532.31	39159.50
532.48	39414.62
532.65	39592.50
532.82	39414.62
532.99	40034.86
533.16	39840.60
533.33	39456.75
533.50	39915.50
533.67	39920.18
533.84	40016.14
534.01	39971.67
534.18	40301.68
534.35	40669.15
534.52	40076.99
534.69	40861.07
534.86	40519.35
535.03	40247.85
535.20	40966.40
535.37	40903.20
535.54	41242.58
535.71	40844.69
535.88	41357.27
536.05	40849.37
536.22	41141.94
536.38	40919.59
536.55	41053.00
536.72	40657.45
536.89	40800.22
537.06	40912.56
537.23	41209.81
537.40	41453.23
537.57	40758.09
537.74	41343.22
537.91	41041.29
538.08	40968.74
538.25	40959.38
538.42	40994.48
538.59	41581.96
538.75	41422.80
538.92	41457.91
539.09	41507.06
539.26	41586.64
539.43	41614.72
539.60	41268.33
539.77	41219.17
539.94	41804.31
540.11	41663.88
540.28	41322.16
540.44	41420.46
540.61	41357.27
540.78	41752.82
540.95	41736.43
541.12	41216.83
541.29	41933.04
541.46	41902.61
541.62	42464.34
541.79	42195.18
541.96	41876.86
542.13	41954.10
542.30	42029.00
542.47	42356.67
542.63	42176.45
542.80	42693.71
542.97	42579.03
543.14	43054.15
543.31	42368.38
543.48	42749.88
543.64	43274.16
543.81	43058.84
543.98	42586.05
544.15	43040.11
544.32	43173.52
544.48	43047.13
544.65	42618.81
544.82	43501.20
544.99	42656.26
545.16	43576.09
545.32	42682.01
545.49	43398.21
545.66	43309.27
545.83	43248.42
546.00	43491.83
546.16	43515.24
546.33	43107.99
546.50	43042.45
546.67	43267.14
546.83	43016.71
547.00	43297.57
547.17	43217.99
547.34	42988.62
547.50	43835.89
547.67	43232.04
547.84	43253.10
548.00	43861.64
548.17	44105.06
548.34	43943.56
548.51	43648.65
548.67	44053.56
548.84	43725.89
549.01	43562.05
549.18	43718.87
549.34	43222.67
549.51	44025.48
549.68	44243.15
549.84	44058.24
550.01	44236.12
550.18	43931.86
550.34	43679.08
550.51	43849.94
550.68	44006.75
550.84	43945.90
551.01	44217.40
551.18	44289.96
551.34	44149.53
551.51	44470.18
551.68	43695.46
551.84	44531.03
552.01	44549.76
552.18	44280.60
552.34	44287.62
552.51	44545.08
552.68	44243.15
552.84	44666.78
553.01	44472.52
553.18	44552.10
553.34	44472.52
553.51	44210.38
553.67	44395.28
553.84	44430.39
554.01	44741.68
554.17	44870.41
554.34	45155.96
554.51	45041.27
554.67	44980.42
554.84	44783.81
555.00	44463.16
555.17	44612.95
555.33	44622.31
555.50	44163.57
555.67	44926.58
555.83	44828.28
556.00	44985.10
556.16	45411.07
556.33	44664.44
556.50	44729.98
556.66	45153.62
556.83	45038.93
556.99	45380.65
557.16	45228.51
557.32	45027.23
557.49	45193.40
557.65	44999.14
557.82	45233.19
557.98	45324.47
558.15	45294.05
558.32	44919.56
558.48	45024.89
558.65	45043.61
558.81	44830.62
558.98	45228.51
559.14	45172.34
559.31	45289.37
559.47	45319.79
559.64	45460.23
559.80	45675.55
559.97	45195.74
560.13	45284.68
560.30	45048.29
560.46	45481.29
560.63	45263.62
560.79	45703.64
560.96	45713.00
561.12	45338.52
561.29	45832.37
561.45	45546.82
561.61	45097.44
561.78	45453.20
561.94	45624.06
562.11	45460.23
562.27	45823.01
562.44	45612.36
562.60	45336.18
562.77	45684.92
562.93	45713.00
563.10	45811.31
563.26	45366.60
563.42	45710.66
563.59	45600.66
563.75	45528.10
563.92	45586.61
564.08	45904.93
564.24	45886.20
564.41	45684.92
564.57	45682.58
564.74	45839.39
564.90	45855.78
565.07	46106.21
565.23	45998.55
565.39	45656.83
565.56	45844.07
565.72	45663.85
565.88	46019.61
566.05	45380.65
566.21	46012.59
566.38	45574.91
566.54	46089.83
566.70	45893.22
566.87	46183.45
567.03	45902.59
567.19	46178.77
567.36	46281.75
567.52	45886.20
567.68	45837.05
567.85	45668.53
568.01	46129.62
568.17	45853.44
568.34	46387.08
568.50	46244.30
568.66	45935.35
568.83	45675.55
568.99	45909.61
569.15	45801.94
569.32	45869.82
569.48	45574.91
569.64	45970.46
569.81	45794.92
569.97	46131.96
570.13	45897.91
570.30	45610.02
570.46	45453.20
570.62	45610.02
570.78	45722.37
570.95	45928.33
571.11	46078.13
571.27	45731.73
571.43	45523.42
571.60	46157.70
571.76	46209.20
571.92	46024.29
572.09	45867.48
572.25	45546.82
572.41	46167.07
572.57	46124.94
572.74	46155.36
572.90	46141.32
573.06	46209.20
573.22	45846.41
573.38	46256.01
573.55	46040.68
573.71	46253.67
573.87	45989.19
574.03	45902.59
574.20	45923.65
574.36	45830.03
574.52	46438.57
574.68	46127.28
574.84	46211.54
575.01	46557.94
575.17	45804.28
575.33	45797.26
575.49	46108.55
575.65	46506.44
575.82	46401.12
575.98	46071.10
576.14	46176.43
576.30	46103.87
576.46	46164.73
576.62	46323.88
576.79	46312.18
576.95	46237.28
577.11	45783.22
577.27	46153.02
577.43	46408.14
577.59	45970.46
577.75	45825.35
577.92	45853.44
578.08	45855.78
578.24	45841.73
578.40	46162.39
578.56	46209.20
578.72	46312.18
578.88	46433.89
579.04	46401.12
579.21	46014.93
579.37	46256.01
579.53	45925.99
579.69	46075.79
579.85	45998.55
580.01	46295.80
580.17	46258.35
580.33	46342.61
580.49	46199.83
580.65	46089.83
580.82	46143.66
580.98	46099.19
581.14	46052.38
581.30	46597.73
581.46	46691.35
581.62	46431.55
581.78	46525.17
581.94	46286.43
582.10	46188.13
582.26	46349.63
582.42	46461.97
582.58	46246.65
582.74	46099.19
582.90	46080.47
583.06	46368.35
583.22	46501.76
583.38	46993.28
583.54	46424.53
583.70	46995.62
583.86	46358.99
584.02	46267.71
584.18	46520.49
584.34	46167.07
584.50	46138.98
584.66	46305.16
584.82	45975.14
584.98	46567.30
585.14	46513.47
585.30	46223.24
585.46	46412.82
585.62	45876.84
585.78	46075.79
585.94	45951.74
586.10	46550.91
586.26	46021.95
586.42	46761.56
586.58	46197.49
586.74	46602.41
586.90	46370.69
587.06	45722.37
587.22	46600.07
587.38	45991.53
587.54	46857.52
587.70	46525.17
587.86	46497.08
588.02	46433.89
588.18	46344.95
588.34	46550.91
588.49	45610.02
588.65	45764.49
588.81	45666.19
588.97	45928.33
589.13	45787.90
589.29	46370.69
589.45	46260.69
589.61	46171.75
589.77	46270.05
589.93	46677.30
