SpectraSuite Data File
++++++++++++++++++++++++++++++++++++
Date: Fri Oct 25 11:24:02 EDT 2013
User: price-jones
Dark Spectrum Present: No
Reference Spectrum Present: No
Number of Sampled Component Spectra: 1
Spectrometers: USB2+H05261
Integration Time (usec): 100000 (USB2+H05261)
Spectra Averaged: 1 (USB2+H05261)
Boxcar Smoothing: 0 (USB2+H05261)
Correct for Electrical Dark: No (USB2+H05261)
Strobe/Lamp Enabled: No (USB2+H05261)
Correct for Detector Non-linearity: No (USB2+H05261)
Correct for Stray Light: No (USB2+H05261)
Number of Pixels in Processed Spectrum: 2048
>>>>>Begin Processed Spectral Data<<<<<
365.73	231.71
365.92	231.71
366.12	231.71
366.32	124.05
366.52	86.60
366.72	184.90
366.91	88.94
367.11	177.88
367.31	126.39
367.51	110.01
367.70	107.66
367.90	152.13
368.10	100.64
368.30	133.41
368.49	168.52
368.69	152.13
368.89	147.45
369.09	145.11
369.28	138.09
369.48	175.54
369.68	231.71
369.87	170.86
370.07	175.54
370.27	238.73
370.47	301.93
370.66	594.50
370.86	650.67
371.06	674.07
371.25	660.03
371.45	564.07
371.65	653.01
371.84	610.88
372.04	671.73
372.24	730.25
372.44	711.52
372.63	730.25
372.83	734.93
373.03	781.74
373.22	734.93
373.42	833.23
373.62	788.76
373.81	767.70
374.01	905.79
374.21	800.46
374.40	851.96
374.60	861.32
374.79	861.32
374.99	849.61
375.19	851.96
375.38	849.61
375.58	819.19
375.78	875.36
375.97	873.02
376.17	866.00
376.37	861.32
376.56	840.25
376.76	938.55
376.95	873.02
377.15	901.11
377.35	910.47
377.54	971.32
377.74	922.17
377.93	903.45
378.13	931.53
378.33	905.79
378.52	940.90
378.72	976.00
378.91	987.71
379.11	842.59
379.31	959.62
379.50	947.92
379.70	976.00
379.89	994.73
380.09	1025.15
380.28	966.64
380.48	983.02
380.68	950.26
380.87	957.28
381.07	938.55
381.26	1018.13
381.46	961.96
381.65	940.90
381.85	1025.15
382.04	1097.71
382.24	1022.81
382.43	1121.12
382.63	1027.50
382.83	1144.52
383.02	1123.46
383.22	1104.73
383.41	1114.10
383.61	1083.67
383.80	1184.31
384.00	1076.65
384.19	1076.65
384.39	1097.71
384.58	1071.97
384.78	1107.07
384.97	1210.06
385.17	1146.86
385.36	1111.75
385.56	1086.01
385.75	1097.71
385.95	1116.44
386.14	1231.12
386.34	1188.99
386.53	1200.69
386.72	1191.33
386.92	1266.23
387.11	1158.57
387.31	1203.04
387.50	1245.16
387.70	1259.21
387.89	1273.25
388.09	1249.85
388.28	1299.00
388.48	1263.89
388.67	1369.21
388.86	1315.38
389.06	1345.81
389.25	1193.67
389.45	1228.78
389.64	1460.49
389.84	1406.66
390.03	1418.36
390.22	1430.07
390.42	1413.68
390.61	1371.55
390.81	1387.94
391.00	1453.47
391.19	1526.03
391.39	1502.62
391.58	1460.49
391.78	1437.09
391.97	1416.02
392.16	1437.09
392.36	1533.05
392.55	1495.60
392.75	1495.60
392.94	1451.13
393.13	1500.28
393.33	1568.16
393.52	1572.84
393.71	1549.43
393.91	1633.69
394.10	1610.29
394.29	1605.61
394.49	1575.18
394.68	1746.04
394.88	1626.67
395.07	1769.44
395.26	1654.76
395.46	1668.80
395.65	1724.97
395.84	1638.38
396.04	1806.89
396.23	1729.66
396.42	1696.89
396.62	1685.19
396.81	1762.42
397.00	1874.77
397.19	1774.13
397.39	1797.53
397.58	1799.87
397.77	1685.19
397.97	1888.81
398.16	1778.81
398.35	1975.41
398.55	1877.11
398.74	1970.73
398.93	1891.15
399.12	2005.84
399.32	1996.48
399.51	1858.39
399.70	2005.84
399.90	1856.04
400.09	1980.09
400.28	2120.53
400.47	1961.37
400.67	1989.46
400.86	2122.87
401.05	2036.27
401.24	2010.52
401.44	2169.68
401.63	2207.13
401.82	2104.14
402.01	2165.00
402.21	2132.23
402.40	2193.08
402.59	2284.36
402.78	2235.21
402.97	2179.04
403.17	2356.92
403.36	2331.17
403.55	2246.91
403.74	2319.47
403.93	2331.17
404.13	2347.56
404.32	2396.71
404.51	2480.97
404.70	2438.84
404.89	2431.82
405.09	2490.33
405.28	2487.99
405.47	2434.16
405.66	2457.56
405.85	2572.25
406.05	2572.25
406.24	2565.23
406.43	2607.36
406.62	2546.50
406.81	2717.36
407.00	2689.28
407.20	2609.70
407.39	2654.17
407.58	2609.70
407.77	2682.25
407.96	2715.02
408.15	2829.71
408.34	2679.91
408.54	2759.49
408.73	2789.92
408.92	2796.94
409.11	2906.95
409.30	2937.37
409.49	2925.67
409.68	3047.38
409.87	2939.71
410.07	3002.91
410.26	3126.96
410.45	3087.17
410.64	3026.31
410.83	3077.80
411.02	3087.17
411.21	3276.75
411.40	3080.14
411.59	3145.68
411.78	3295.47
411.98	3061.42
412.17	3218.24
412.36	3286.11
412.55	3463.99
412.74	3471.01
412.93	3309.52
413.12	3473.36
413.31	3557.61
413.50	3389.10
413.69	3485.06
413.88	3599.74
414.07	3667.62
414.26	3641.87
414.45	3604.42
414.64	3630.17
414.83	3669.96
415.02	3845.50
415.22	3747.20
415.41	3941.46
415.60	3915.72
415.79	3913.38
415.98	3906.35
416.17	4037.42
416.36	3927.42
416.55	3946.14
416.74	4107.64
416.93	4170.83
417.12	4124.02
417.31	4070.19
417.50	4238.71
417.69	4212.96
417.88	4369.78
418.07	4208.28
418.26	4280.84
418.45	4421.27
418.64	4587.45
418.83	4355.74
419.02	4435.32
419.21	4531.28
419.39	4517.23
419.58	4503.19
419.77	4477.44
419.96	4676.39
420.15	4671.71
420.34	4538.30
420.53	4575.75
420.72	4681.07
420.91	4821.50
421.10	4751.29
421.29	4793.42
421.48	4833.21
421.67	4758.31
421.86	4566.39
422.05	4650.64
422.24	4929.17
422.43	4936.19
422.61	4755.97
422.80	4966.62
422.99	4924.49
423.18	5057.90
423.37	5135.14
423.56	4990.02
423.75	5032.15
423.94	5057.90
424.13	4732.56
424.32	4774.69
424.50	5022.79
424.69	5240.46
424.88	5158.54
425.07	5001.72
425.26	4823.84
425.45	4954.91
425.64	4964.28
425.83	5034.49
426.01	5093.01
426.20	5036.83
426.39	5233.44
426.58	5036.83
426.77	5097.69
426.96	5114.07
427.15	5043.85
427.33	5284.93
427.52	5205.35
427.71	5123.43
427.90	5268.55
428.09	5401.96
428.28	5502.60
428.46	5408.98
428.65	5378.55
428.84	5362.17
429.03	5521.32
429.22	5198.33
429.40	5462.81
429.59	5511.96
429.78	5523.66
429.97	5207.69
430.16	5479.19
430.34	5617.29
430.53	5687.50
430.72	5738.99
430.91	5617.29
431.10	5603.24
431.28	5867.72
431.47	5804.53
431.66	5860.70
431.85	5788.14
432.03	5977.73
432.22	5994.11
432.41	5959.00
432.60	6136.88
432.79	6022.20
432.97	5909.85
433.16	6099.44
433.35	6078.37
433.54	6249.23
433.72	6136.88
433.91	6141.57
434.10	6169.65
434.28	6073.69
434.47	6012.84
434.66	6228.17
434.85	6319.45
435.03	6384.98
435.22	6399.02
435.41	6464.56
435.59	6457.54
435.78	6382.64
435.97	6492.65
436.16	6509.03
436.34	6347.53
436.53	6537.12
436.72	6771.17
436.90	6555.84
437.09	6649.46
437.28	6464.56
437.46	6621.38
437.65	6607.33
437.84	6878.83
438.02	6750.10
438.21	6869.47
438.40	6705.63
438.58	7066.08
438.77	7068.42
438.96	7033.31
439.14	7148.00
439.33	7304.81
439.52	7236.94
439.70	7206.51
439.89	7288.43
440.08	7255.66
440.26	7440.56
440.45	7328.22
440.63	7548.23
440.82	7632.49
441.01	7485.03
441.19	7503.76
441.38	7545.89
441.57	7625.47
441.75	7726.11
441.94	7960.16
442.12	7939.10
442.31	8154.43
442.50	8072.51
442.68	7992.93
442.87	8049.10
443.05	8023.36
443.24	8236.35
443.43	8159.11
443.61	8255.07
443.80	8498.49
443.98	8196.56
444.17	8013.99
444.35	8386.14
444.54	8224.64
444.73	8194.22
444.91	8262.09
445.10	8266.77
445.28	8596.79
445.47	8149.75
445.65	8475.08
445.84	8676.37
446.02	8397.84
446.21	8449.33
446.39	8409.54
446.58	8564.02
446.77	8514.87
446.95	8421.25
447.14	8528.91
447.32	8372.10
447.51	8465.72
447.69	8482.10
447.88	8369.76
448.06	8446.99
448.25	8762.97
448.43	8732.54
448.62	8566.36
448.80	8498.49
448.99	8676.37
449.17	8795.73
449.36	8732.54
449.54	8842.54
449.73	9090.64
449.91	9104.68
450.10	9046.17
450.28	9062.55
450.46	9130.43
450.65	9029.79
450.83	9092.98
451.02	9128.09
451.20	9355.12
451.39	9228.73
451.57	9228.73
451.76	9128.09
451.94	9355.12
452.13	9430.02
452.31	9186.60
452.49	9327.03
452.68	9376.19
452.86	9298.95
453.05	9682.80
453.23	9659.39
453.42	9516.62
453.60	9254.48
453.78	9488.53
453.97	9392.57
454.15	9614.92
454.34	9551.73
454.52	9944.94
454.70	9715.56
454.89	9753.01
455.07	9678.12
455.26	9942.60
455.44	10015.15
455.62	9514.28
455.81	9825.57
455.99	10078.35
456.17	10059.62
456.36	10209.42
456.54	10319.42
456.73	10356.87
456.91	10333.47
457.09	10452.83
457.28	10516.03
457.46	10076.01
457.64	10441.13
457.83	10663.48
458.01	10689.23
458.19	10960.73
458.38	10876.47
458.56	10794.55
458.74	10525.39
458.93	10693.91
459.11	10782.85
459.29	10794.55
459.48	10951.37
459.66	10799.23
459.84	10810.93
460.03	11126.91
460.21	10827.32
460.39	10897.53
460.57	10827.32
460.76	11379.68
460.94	11375.00
461.12	11136.27
461.31	11131.59
461.49	11283.72
461.67	11190.10
461.85	11372.66
462.04	11454.58
462.22	11674.59
462.40	11583.31
462.59	11580.97
462.77	11499.05
462.95	11730.76
463.13	11700.34
463.32	11896.94
463.50	11857.15
463.68	11772.89
463.86	11992.90
464.05	11758.85
464.23	11824.39
464.41	11971.84
464.59	11751.83
464.78	12259.73
464.96	11857.15
465.14	11829.07
465.32	12241.00
465.50	12180.15
465.69	12219.94
465.87	12086.53
466.05	12198.87
466.23	12147.38
466.41	12257.39
466.60	12531.23
466.78	12084.19
466.96	12215.26
467.14	12100.57
467.32	12437.61
467.51	12416.54
467.69	12236.32
467.87	12437.61
468.05	12685.70
468.23	12437.61
468.41	12458.67
468.60	12643.57
468.78	12812.09
468.96	12666.98
469.14	12917.42
469.32	12947.84
469.50	12446.97
469.69	12971.25
469.87	13156.15
470.05	13221.69
470.23	13444.04
470.41	13322.33
470.59	13343.39
470.77	13310.63
470.95	13336.37
471.14	13488.51
471.32	13483.83
471.50	13760.01
471.68	13797.46
471.86	13785.76
472.04	13743.63
472.22	13951.93
472.40	13921.51
472.58	13799.80
472.77	14003.43
472.95	14068.96
473.13	14745.38
473.31	14113.43
473.49	14352.16
473.67	14256.20
473.85	14340.46
474.03	14609.62
474.21	14635.37
474.39	14813.25
474.57	14630.69
474.75	14841.34
474.93	15180.71
475.12	15103.48
475.30	15119.86
475.48	15236.89
475.66	15272.00
475.84	15269.66
476.02	15396.04
476.20	15438.17
476.38	15754.15
476.56	16025.65
476.74	15955.43
476.92	15943.73
477.10	15812.66
477.28	16276.09
477.46	16243.32
477.64	16444.60
477.82	16709.08
478.00	17074.21
478.18	16709.08
478.36	17242.73
478.54	17076.55
478.72	17270.81
478.90	17614.87
479.08	17659.34
479.26	17764.67
479.44	17806.80
479.62	17916.80
479.80	18242.14
479.98	18523.00
480.16	18726.63
480.34	18401.29
480.52	18724.29
480.70	18696.20
480.88	18576.83
481.06	18614.28
481.24	18700.88
481.41	19229.84
481.59	19302.40
481.77	19580.92
481.95	19597.31
482.13	19606.67
482.31	19824.34
482.49	20240.95
482.67	20325.21
482.85	20350.96
483.03	20547.56
483.21	20992.26
483.39	20877.58
483.57	20936.09
483.74	20966.52
483.92	21572.72
484.10	21174.83
484.28	21680.38
484.46	21771.66
484.64	22483.19
484.82	21982.31
485.00	22410.63
485.18	22750.01
485.35	23379.61
485.53	22745.33
485.71	23145.56
485.89	23571.54
486.07	23152.58
486.25	23283.65
486.43	23690.90
486.61	24112.20
486.78	24074.75
486.96	24451.58
487.14	24636.48
487.32	24830.74
487.50	24875.21
487.68	24781.59
487.85	25429.92
488.03	25369.07
488.21	26012.71
488.39	25916.75
488.57	26118.04
488.75	26288.90
488.92	26705.51
489.10	26998.08
489.28	26405.92
489.46	26822.54
489.64	26881.05
489.81	27658.11
489.99	27693.22
490.17	27995.15
490.35	28215.16
490.53	28037.28
490.70	28416.44
490.88	28531.13
491.06	29256.70
491.24	28622.41
491.41	29050.73
491.59	29383.09
491.77	29268.40
491.95	29792.68
492.13	29575.01
492.30	29963.54
492.48	30253.76
492.66	30239.72
492.84	30192.91
493.01	30871.67
493.19	30693.79
493.37	31299.98
493.54	31299.98
493.72	31281.26
493.90	31569.15
494.08	31992.78
494.25	31878.10
494.43	32261.94
494.61	32400.04
494.79	32470.25
494.96	32477.27
495.14	32947.72
495.32	33071.77
495.49	33427.53
495.67	33582.01
495.85	33710.74
496.02	33621.80
496.20	34007.98
496.38	34085.22
496.55	34389.49
496.73	34717.17
496.91	34457.37
497.09	35187.61
497.26	35168.89
497.44	34834.19
497.62	35314.00
497.79	36065.31
497.97	35529.33
498.14	36278.30
498.32	36613.00
498.50	36119.15
498.67	36613.00
498.85	36596.62
499.03	36968.76
499.20	36875.14
499.38	37085.79
499.56	37277.71
499.73	37392.40
499.91	37600.71
500.08	37748.16
500.26	37888.59
500.44	37780.93
500.61	38120.31
500.79	37820.72
500.97	38438.62
501.14	39002.69
501.32	38742.89
501.49	38656.29
501.67	38576.71
501.84	38845.87
502.02	38932.47
502.20	39412.28
502.37	39604.20
502.55	39225.04
502.72	39662.72
502.90	39695.49
503.07	39966.99
503.25	39889.75
503.43	39695.49
503.60	40371.90
503.78	40058.27
503.95	40629.36
504.13	40566.16
504.30	40350.84
504.48	40933.63
504.65	40741.71
504.83	41319.82
505.01	41352.58
505.18	40971.08
505.36	42040.70
505.53	41713.03
505.71	41546.85
505.88	41792.61
506.06	41558.55
506.23	42073.47
506.41	42195.18
506.58	42618.81
506.76	42660.94
506.93	42649.24
507.11	42735.84
507.28	42777.97
507.46	43246.08
507.63	43091.60
507.81	43054.15
507.98	42876.27
508.16	43047.13
508.33	43662.69
508.50	43335.02
508.68	43824.19
508.85	43807.81
509.03	44222.08
509.20	44165.91
509.38	44282.94
509.55	44596.57
509.73	44837.64
509.90	44851.69
510.08	44720.62
510.25	45123.19
510.42	45027.23
510.60	45230.85
510.77	45453.20
510.95	45118.51
511.12	45359.58
511.30	45481.29
511.47	45794.92
511.64	45951.74
511.82	46197.49
511.99	45689.60
512.17	46080.47
512.34	45986.85
512.51	46478.36
512.69	46625.81
512.86	46752.20
513.04	46284.09
513.21	46611.77
513.38	47107.96
513.56	47122.01
513.73	47215.63
513.90	47414.57
514.08	47079.88
514.25	47330.31
514.43	47807.78
514.60	47810.12
514.77	47810.12
514.95	47892.04
515.12	47751.61
515.29	47580.75
515.47	48245.46
515.64	48308.66
515.81	48079.28
515.99	48500.58
516.16	48577.82
516.33	48357.81
516.51	48598.88
516.68	48678.46
516.85	48659.74
517.03	48978.05
517.20	48809.53
517.37	49057.63
517.54	48893.79
517.72	49490.63
517.89	49521.05
518.06	49052.95
518.24	49404.03
518.41	49499.99
518.58	49764.47
518.75	49364.24
518.93	49869.79
519.10	49378.28
519.27	50286.41
519.45	49869.79
519.62	49897.88
519.79	50365.99
519.96	50429.18
520.14	50373.01
520.31	49729.36
520.48	50543.87
520.65	50593.02
520.83	50967.51
521.00	50756.86
521.17	50674.94
521.34	51082.19
521.52	51051.76
521.69	50990.91
521.86	50911.33
522.03	51264.75
522.20	51569.02
522.38	51543.28
522.55	51533.92
522.72	51592.43
522.89	51250.71
523.07	51845.21
523.24	51686.05
523.41	51744.56
523.58	51559.66
523.75	51945.85
523.92	51828.82
524.10	51995.00
524.27	52086.28
524.44	52505.24
524.61	52320.34
524.78	52231.40
524.96	52238.42
525.13	52287.57
525.30	52568.43
525.47	52671.42
525.64	52516.94
525.81	52828.23
525.98	52767.38
526.16	52797.80
526.33	52776.74
526.50	53345.49
526.67	53015.47
526.84	53237.83
527.01	52952.28
527.18	53008.45
527.36	53249.53
527.53	53207.40
527.70	53663.80
527.87	53705.93
528.04	53263.57
528.21	53492.94
528.38	53528.05
528.55	53750.40
528.72	53214.42
528.89	53380.60
529.07	53652.10
529.24	53366.55
529.41	53904.88
529.58	53715.29
529.75	53848.71
529.92	53785.51
530.09	53918.92
530.26	54007.86
530.43	53841.68
530.60	53888.49
530.77	54106.16
530.94	54307.45
531.11	54061.69
531.28	54183.40
531.46	54106.16
531.63	54447.88
531.80	54433.84
531.97	54518.10
532.14	54745.13
532.31	54461.93
532.48	54798.96
532.65	54834.07
532.82	54644.49
532.99	54834.07
533.16	54915.99
533.33	54787.26
533.50	54953.44
533.67	55030.68
533.84	54644.49
534.01	55199.19
534.18	55175.79
534.35	55309.20
534.52	55114.94
534.69	55255.37
534.86	55304.52
535.03	55222.60
535.20	55360.69
535.37	55447.29
535.54	55524.53
535.71	55337.29
535.88	55416.86
536.05	55613.47
536.22	55608.79
536.38	55552.62
536.55	55512.83
536.72	55707.09
536.89	55554.96
537.06	55758.58
537.23	56006.68
537.40	55709.43
537.57	56053.49
537.74	56083.92
537.91	55969.23
538.08	55927.10
538.25	55732.84
538.42	55835.82
538.59	56306.27
538.75	55791.35
538.92	55906.04
539.09	56346.06
539.26	56324.99
539.43	56236.05
539.60	56570.75
539.77	56219.67
539.94	56453.72
540.11	56537.98
540.28	56559.05
540.44	56481.81
540.61	56765.01
540.78	56570.75
540.95	56509.89
541.12	56409.25
541.29	56392.87
541.46	56430.32
541.62	56645.65
541.79	56853.95
541.96	56507.55
542.13	56846.93
542.30	56715.86
542.47	56882.04
542.63	56898.42
542.80	57216.74
542.97	57158.22
543.14	57272.91
543.31	57359.51
543.48	57153.54
543.64	57626.33
543.81	57478.88
543.98	57331.42
544.15	57429.72
544.32	57293.97
544.48	57460.15
544.65	57427.38
544.82	57345.47
544.99	57401.64
545.16	57551.43
545.32	57425.04
545.49	57780.81
545.66	57790.17
545.83	57425.04
546.00	57752.72
546.16	57743.36
546.33	57881.45
546.50	57427.38
546.67	57930.60
546.83	57532.71
547.00	57958.69
547.17	57822.93
547.34	57872.09
547.50	57841.66
547.67	58094.44
547.84	58174.02
548.00	58330.83
548.17	58223.17
548.34	58305.09
548.51	58389.34
548.67	58159.97
548.84	58255.93
549.01	57839.32
549.18	58309.77
549.34	58342.53
549.51	58412.75
549.68	58417.43
549.84	58742.77
550.01	58560.20
550.18	58267.64
550.34	58665.53
550.51	58489.99
550.68	58567.23
550.84	58365.94
551.01	58721.70
551.18	58592.97
551.34	58532.12
551.51	58461.90
551.68	58653.82
551.84	58735.74
552.01	58656.17
552.18	58979.16
552.34	58625.74
552.51	58775.53
552.68	58955.75
552.84	58904.26
553.01	59203.85
553.18	58677.23
553.34	59004.91
553.51	58754.47
553.67	58955.75
553.84	59000.22
554.01	58866.81
554.17	59016.61
554.34	59023.63
554.51	59100.87
554.67	59164.06
554.84	59096.19
555.00	59086.82
555.17	58951.07
555.33	59208.53
555.50	59288.11
555.67	58883.20
555.83	59098.53
556.00	59105.55
556.16	59454.29
556.33	59501.10
556.50	59274.07
556.66	59482.37
556.83	59084.48
556.99	59370.03
557.16	59629.83
557.32	59475.35
557.49	59601.74
557.65	59355.99
557.82	59334.92
557.98	59632.17
558.15	59557.27
558.32	59650.89
558.48	59568.97
558.65	59482.37
558.81	59697.70
558.98	59664.94
559.14	59859.20
559.31	59746.86
559.47	59522.16
559.64	59716.43
559.80	59678.98
559.97	59887.29
560.13	59632.17
560.30	59751.54
560.46	59697.70
560.63	59803.03
560.79	59845.16
560.96	59917.71
561.12	59983.25
561.29	59990.27
561.45	59861.54
561.61	59920.05
561.78	59873.24
561.94	59971.55
562.11	60006.65
562.27	60135.38
562.44	60093.25
562.60	60203.26
562.77	60081.55
562.93	60011.34
563.10	60177.51
563.26	59994.95
563.42	60203.26
563.59	60186.88
563.75	60032.40
563.92	59994.95
564.08	60177.51
564.24	60236.03
564.41	60381.14
564.57	60147.09
564.74	60346.03
564.90	60093.25
565.07	60238.37
565.23	60404.55
565.39	60135.38
565.56	60264.11
565.72	60378.80
565.88	60320.29
566.05	60252.41
566.21	60341.35
566.38	60322.63
566.54	60313.26
566.70	60575.40
566.87	60437.31
567.03	60350.71
567.19	60451.36
567.36	60633.92
567.52	60231.35
567.68	60636.26
567.85	60413.91
568.01	60392.84
568.17	60388.16
568.34	60512.21
568.50	60381.14
568.66	60320.29
568.83	60561.36
568.99	60451.36
569.15	60488.80
569.32	60500.51
569.48	60317.95
569.64	60582.43
569.81	60507.53
569.97	60418.59
570.13	60605.83
570.30	60484.12
570.46	60643.28
570.62	60556.68
570.78	60434.97
570.95	60725.20
571.11	60610.51
571.27	60568.38
571.43	60491.15
571.60	60704.13
571.76	60444.33
571.92	60727.54
572.09	60615.19
572.25	60797.76
572.41	60617.53
572.57	60610.51
572.74	60938.19
572.90	60849.25
573.06	60706.47
573.22	60711.16
573.38	60636.26
573.55	60701.79
573.71	60877.33
573.87	60629.24
574.03	60432.63
574.20	60795.42
574.36	60743.92
574.52	60811.80
574.68	60839.89
574.84	60823.50
575.01	60926.49
575.17	60736.90
575.33	60748.60
575.49	60594.13
575.65	60865.63
575.82	60865.63
575.98	60860.95
576.14	61010.74
576.30	61050.53
576.46	60748.60
576.62	60727.54
576.79	60853.93
576.95	60814.14
577.11	60860.95
577.27	60973.30
577.43	60970.96
577.59	61017.77
577.75	60626.90
577.92	60842.23
578.08	60903.08
578.24	60928.83
578.40	61132.45
578.56	60977.98
578.72	60987.34
578.88	61249.48
579.04	61162.88
579.21	60891.38
579.37	60959.25
579.53	60914.78
579.69	60912.44
579.85	60893.72
580.01	61003.72
580.17	60856.27
580.33	61139.47
580.49	61123.09
580.65	61041.17
580.82	60821.16
580.98	60912.44
581.14	60912.44
581.30	61181.60
581.46	60949.89
581.62	61109.05
581.78	60952.23
581.94	60928.83
582.10	60938.19
582.26	61059.90
582.42	61027.13
582.58	61116.07
582.74	61113.73
582.90	60980.32
583.06	60905.42
583.22	60938.19
583.38	60940.53
583.54	61092.66
583.70	61029.47
583.86	60999.04
584.02	61071.60
584.18	61109.05
584.34	60947.55
584.50	61052.87
584.66	60823.50
584.82	60924.14
584.98	61244.80
585.14	61221.39
585.30	61106.71
585.46	61106.71
585.62	61085.64
585.78	61228.41
585.94	60992.02
586.10	60954.57
586.26	61034.15
586.42	61380.55
586.58	61099.68
586.74	61097.34
586.90	61052.87
587.06	61106.71
587.22	61221.39
587.38	60935.85
587.54	61310.33
587.70	61415.66
587.86	61249.48
588.02	61090.32
588.18	61226.07
588.34	61099.68
588.49	61284.59
