SpectraSuite Data File
++++++++++++++++++++++++++++++++++++
Date: Fri Oct 25 10:44:54 EDT 2013
User: price-jones
Dark Spectrum Present: No
Reference Spectrum Present: No
Number of Sampled Component Spectra: 1
Spectrometers: USB2+H05261
Integration Time (usec): 100000 (USB2+H05261)
Spectra Averaged: 1 (USB2+H05261)
Boxcar Smoothing: 0 (USB2+H05261)
Correct for Electrical Dark: No (USB2+H05261)
Strobe/Lamp Enabled: No (USB2+H05261)
Correct for Detector Non-linearity: No (USB2+H05261)
Correct for Stray Light: No (USB2+H05261)
Number of Pixels in Processed Spectrum: 2048
>>>>>Begin Processed Spectral Data<<<<<
365.73	93.62
365.92	93.62
366.12	93.62
366.32	60.85
366.52	7.02
366.72	32.77
366.91	32.77
367.11	0.00
367.31	7.02
367.51	11.70
367.70	28.09
367.90	58.51
368.10	72.56
368.30	30.43
368.49	53.83
368.69	32.77
368.89	9.36
369.09	42.13
369.28	53.83
369.48	70.22
369.68	112.35
369.87	124.05
370.07	53.83
370.27	98.30
370.47	117.03
370.66	301.93
370.86	425.98
371.06	367.46
371.25	374.49
371.45	449.38
371.65	465.77
371.84	400.23
372.04	428.32
372.24	414.27
372.44	421.30
372.63	411.93
372.83	543.00
373.03	514.92
373.22	496.19
373.42	484.49
373.62	461.09
373.81	484.49
374.01	498.53
374.21	489.17
374.40	531.30
374.60	608.54
374.79	557.05
374.99	521.94
375.19	589.82
375.38	608.54
375.58	580.45
375.78	507.90
375.97	521.94
376.17	571.09
376.37	645.99
376.56	601.52
376.76	645.99
376.95	615.56
377.15	592.16
377.35	648.33
377.54	624.92
377.74	587.47
377.93	594.50
378.13	629.60
378.33	631.94
378.52	615.56
378.72	648.33
378.91	622.58
379.11	631.94
379.31	589.82
379.50	610.88
379.70	617.90
379.89	699.82
380.09	624.92
380.28	631.94
380.48	674.07
380.68	650.67
380.87	575.77
381.07	781.74
381.26	676.41
381.46	676.41
381.65	648.33
381.85	645.99
382.04	531.30
382.24	676.41
382.43	648.33
382.63	650.67
382.83	643.65
383.02	713.86
383.22	706.84
383.41	664.71
383.61	655.35
383.80	823.87
384.00	739.61
384.19	744.29
384.39	636.63
384.58	795.78
384.78	870.68
384.97	732.59
385.17	723.23
385.36	770.04
385.56	744.29
385.75	713.86
385.95	718.54
386.14	819.19
386.34	814.51
386.53	788.76
386.72	819.19
386.92	812.17
387.11	870.68
387.31	807.48
387.50	800.46
387.70	744.29
387.89	816.85
388.09	798.12
388.28	751.31
388.48	727.91
388.67	891.74
388.86	866.00
389.06	844.93
389.25	964.30
389.45	924.51
389.64	901.11
389.84	891.74
390.03	882.38
390.22	889.40
390.42	889.40
390.61	837.91
390.81	929.19
391.00	938.55
391.19	983.02
391.39	973.66
391.58	1015.79
391.78	898.77
391.97	1006.43
392.16	983.02
392.36	1020.47
392.55	978.34
392.75	997.07
392.94	943.24
393.13	1043.88
393.33	926.85
393.52	945.58
393.71	1064.94
393.91	1004.09
394.10	1078.99
394.29	1015.79
394.49	1097.71
394.68	1139.84
394.88	1102.39
395.07	1090.69
395.26	1170.27
395.46	1078.99
395.65	1179.63
395.84	1107.07
396.04	1212.40
396.23	1123.46
396.42	1069.62
396.62	1046.22
396.81	1116.44
397.00	1041.54
397.19	1249.85
397.39	1214.74
397.58	1259.21
397.77	1172.61
397.97	1308.36
398.16	1261.55
398.35	1315.38
398.55	1245.16
398.74	1205.38
398.93	1371.55
399.12	1303.68
399.32	1336.45
399.51	1376.24
399.70	1320.06
399.90	1336.45
400.09	1380.92
400.28	1458.15
400.47	1387.94
400.67	1455.81
400.86	1385.60
401.05	1416.02
401.24	1432.41
401.44	1572.84
401.63	1565.82
401.82	1455.81
402.01	1500.28
402.21	1565.82
402.40	1493.26
402.59	1483.90
402.78	1495.60
402.97	1535.39
403.17	1689.87
403.36	1521.35
403.55	1605.61
403.74	1621.99
403.93	1652.42
404.13	1582.20
404.32	1612.63
404.51	1743.70
404.70	1624.33
404.89	1680.50
405.09	1659.44
405.28	1666.46
405.47	1825.62
405.66	1748.38
405.85	1764.76
406.05	1834.98
406.24	1811.57
406.43	1781.15
406.62	1797.53
406.81	1874.77
407.00	1844.34
407.20	1781.15
407.39	1774.13
407.58	1849.02
407.77	1987.11
407.96	1956.69
408.15	1933.28
408.34	1914.56
408.54	2033.93
408.73	1872.43
408.92	2031.58
409.11	1909.88
409.30	1984.77
409.49	2129.89
409.68	2080.74
409.87	2087.76
410.07	2092.44
410.26	2071.37
410.45	2101.80
410.64	2188.40
410.83	2134.57
411.02	2200.10
411.21	2153.29
411.40	2267.98
411.59	2284.36
411.78	2195.42
411.98	2270.32
412.17	2242.23
412.36	2406.07
412.55	2361.60
412.74	2476.29
412.93	2368.62
413.12	2396.71
413.31	2588.63
413.50	2567.57
413.69	2612.04
413.88	2555.86
414.07	2607.36
414.26	2586.29
414.45	2534.80
414.64	2579.27
414.83	2644.81
415.02	2700.98
415.22	2761.83
415.41	2834.39
415.60	2719.70
415.79	2740.77
415.98	2890.56
416.17	2799.28
416.36	2719.70
416.55	2801.62
416.74	2932.69
416.93	2902.26
417.12	2881.20
417.31	2892.90
417.50	2902.26
417.69	2991.20
417.88	3033.33
418.07	3089.51
418.26	3063.76
418.45	3049.72
418.64	3276.75
418.83	3066.10
419.02	3105.89
419.21	3201.85
419.39	3197.17
419.58	3098.87
419.77	3239.30
419.96	3293.13
420.15	3295.47
420.34	3258.03
420.53	3353.99
420.72	3459.31
420.91	3342.28
421.10	3442.93
421.29	3473.36
421.48	3382.07
421.67	3449.95
421.86	3337.60
422.05	3302.50
422.24	3471.01
422.43	3328.24
422.61	3328.24
422.80	3513.14
422.99	3552.93
423.18	3613.79
423.37	3527.19
423.56	3410.16
423.75	3534.21
423.94	3506.12
424.13	3353.99
424.32	3398.46
424.50	3559.95
424.69	3503.78
424.88	3592.72
425.07	3513.14
425.26	3475.70
425.45	3513.14
425.64	3428.88
425.83	3557.61
426.01	3644.21
426.20	3585.70
426.39	3489.74
426.58	3583.36
426.77	3527.19
426.96	3550.59
427.15	3508.46
427.33	3674.64
427.52	3716.77
427.71	3658.26
427.90	3688.68
428.09	3632.51
428.28	3740.18
428.46	3896.99
428.65	3782.31
428.84	3852.52
429.03	3878.27
429.22	3847.84
429.40	3789.33
429.59	3857.20
429.78	3595.06
429.97	3613.79
430.16	3742.52
430.34	3861.88
430.53	3817.41
430.72	4021.04
430.91	4004.66
431.10	4004.66
431.28	4011.68
431.47	4152.11
431.66	4252.75
431.85	4032.74
432.03	4208.28
432.22	4304.25
432.41	4051.47
432.60	4170.83
432.79	4191.90
432.97	4250.41
433.16	4332.33
433.35	4306.59
433.54	4255.09
433.72	4283.18
433.91	4280.84
434.10	4444.68
434.28	4131.05
434.47	4393.19
434.66	4456.38
434.85	4514.89
435.03	4526.60
435.22	4447.02
435.41	4559.36
435.59	4491.49
435.78	4613.20
435.97	4550.00
436.16	4554.68
436.34	4528.94
436.53	4662.35
436.72	4685.75
436.90	4561.70
437.09	4699.80
437.28	4498.51
437.46	4652.98
437.65	4652.98
437.84	4770.01
438.02	4713.84
438.21	4648.30
438.40	4664.69
438.58	4917.47
438.77	5027.47
438.96	4882.36
439.14	4898.74
439.33	4997.04
439.52	4973.64
439.70	4947.89
439.89	5191.31
440.08	5280.25
440.26	5294.29
440.45	5149.18
440.63	5399.62
440.82	5315.36
441.01	5334.08
441.19	5303.65
441.38	5418.34
441.57	5561.11
441.75	5444.09
441.94	5427.70
442.12	5523.66
442.31	5575.16
442.50	5769.42
442.68	5659.42
442.87	5647.71
443.05	5717.93
443.24	5771.76
443.43	5701.54
443.61	5891.13
443.80	5975.39
443.98	5666.44
444.17	5570.48
444.35	5900.49
444.54	5923.90
444.73	5738.99
444.91	5764.74
445.10	5893.47
445.28	5661.76
445.47	5804.53
445.65	5884.11
445.84	5879.43
446.02	5947.30
446.21	5982.41
446.39	5900.49
446.58	6080.71
446.77	5881.77
446.95	6024.54
447.14	5940.28
447.32	5935.60
447.51	6015.18
447.69	5872.40
447.88	5968.37
448.06	6057.31
448.25	5975.39
448.43	6169.65
448.62	6101.78
448.80	6015.18
448.99	6143.91
449.17	6099.44
449.36	6022.20
449.54	6272.64
449.73	6207.10
449.91	6260.93
450.10	6441.15
450.28	6359.24
450.46	6452.86
450.65	6377.96
450.83	6469.24
451.02	6389.66
451.20	6370.94
451.39	6527.75
451.57	6335.83
451.76	6462.22
451.94	6509.03
452.13	6469.24
452.31	6471.58
452.49	6502.01
452.68	6621.38
452.86	6750.10
453.05	6513.71
453.23	6518.39
453.42	6548.82
453.60	6534.78
453.78	6715.00
453.97	6693.93
454.15	6518.39
454.34	6679.89
454.52	6684.57
454.70	6686.91
454.89	6705.63
455.07	6775.85
455.26	6839.05
455.44	7016.93
455.62	6778.19
455.81	6932.67
455.99	6892.88
456.17	7115.23
456.36	7054.37
456.54	7016.93
456.73	6988.84
456.91	7307.15
457.09	7220.55
457.28	7405.46
457.46	7096.50
457.64	7283.75
457.83	7321.20
458.01	7304.81
458.19	7353.96
458.38	7445.24
458.56	7428.86
458.74	7424.18
458.93	7499.08
459.11	7583.34
459.29	7391.41
459.48	7253.32
459.66	7337.58
459.84	7524.82
460.03	7609.08
460.21	7454.61
460.39	7630.15
460.57	7595.04
460.76	7714.41
460.94	7772.92
461.12	7793.98
461.31	7911.01
461.49	7688.66
461.67	7819.73
461.85	7969.52
462.04	7742.49
462.22	8084.21
462.40	8006.97
462.59	8070.17
462.77	8028.04
462.95	7882.92
463.13	8170.81
463.32	8035.06
463.50	8093.57
463.68	8196.56
463.86	8182.51
464.05	8006.97
464.23	8135.70
464.41	8194.22
464.59	8138.04
464.78	8339.33
464.96	8187.19
465.14	8257.41
465.32	8278.47
465.50	8334.65
465.69	8383.80
465.87	8414.23
466.05	8294.86
466.23	8198.90
466.41	8381.46
466.60	8472.74
466.78	8442.31
466.96	8280.82
467.14	8332.31
467.32	8383.80
467.51	8580.40
467.69	8484.44
467.87	8519.55
468.05	8411.89
468.23	8535.93
468.41	8423.59
468.60	8599.13
468.78	8758.28
468.96	8533.59
469.14	8851.91
469.32	8999.36
469.50	8765.31
469.69	9027.45
469.87	8882.33
470.05	8823.82
470.23	8980.64
470.41	8868.29
470.59	8961.91
470.77	8835.52
470.95	9114.05
471.14	9015.74
471.32	8992.34
471.50	9214.69
471.68	9408.95
471.86	9535.34
472.04	9341.08
472.22	9563.43
472.40	9348.10
472.58	9371.50
472.77	9490.87
472.95	9713.22
473.13	9853.66
473.31	9397.25
473.49	9792.80
473.67	9645.35
473.85	9813.87
474.03	10057.28
474.21	9963.66
474.39	10015.15
474.57	9825.57
474.75	9921.53
474.93	10221.12
475.12	10061.96
475.30	10333.47
475.48	10155.58
475.66	10207.08
475.84	10335.81
476.02	10314.74
476.20	10375.59
476.38	10696.25
476.56	10913.92
476.74	10602.63
476.92	10490.28
477.10	10555.82
477.28	10932.64
477.46	10857.75
477.64	11152.65
477.82	11253.30
478.00	11470.97
478.18	11204.14
478.36	11426.50
478.54	11536.50
478.72	11403.09
478.90	11756.51
479.08	11875.88
479.26	11927.37
479.44	12002.27
479.62	11817.36
479.80	11941.41
479.98	11932.05
480.16	12489.10
480.34	12262.07
480.52	12622.51
480.70	12559.31
480.88	12194.19
481.06	12528.89
481.24	12772.30
481.41	12898.69
481.59	13167.85
481.77	12894.01
481.95	13022.74
482.13	13151.47
482.31	13231.05
482.49	13729.58
482.67	13369.14
482.85	13547.02
483.03	13797.46
483.21	14005.77
483.39	14015.13
483.57	13968.32
483.74	14267.91
483.92	14223.44
484.10	14202.37
484.28	14736.01
484.46	14850.70
484.64	15059.01
484.82	14555.79
485.00	14810.91
485.18	14946.66
485.35	15176.03
485.53	15070.71
485.71	14902.19
485.89	15499.03
486.07	15286.04
486.25	15360.94
486.43	15665.21
486.61	15747.12
486.78	15969.48
486.96	16046.71
487.14	16493.76
487.32	16425.88
487.50	16535.88
487.68	16500.78
487.85	16924.41
488.03	17102.29
488.21	17118.68
488.39	17060.16
488.57	17369.12
488.75	17214.64
488.92	17532.95
489.10	17666.36
489.28	17902.76
489.46	17886.37
489.64	17621.89
489.81	18417.68
489.99	18679.82
490.17	18654.07
490.35	18773.44
490.53	18562.79
490.70	19066.00
490.88	18698.54
491.06	18991.11
491.24	19007.49
491.41	19075.37
491.59	19145.58
491.77	19180.69
491.95	19346.87
492.13	19552.84
492.30	19805.61
492.48	19742.42
492.66	20140.31
492.84	20093.50
493.01	20238.61
493.19	20357.98
493.37	20332.23
493.54	20308.83
493.72	20643.52
493.90	20896.30
494.08	21092.91
494.25	21207.59
494.43	21469.73
494.61	21661.66
494.79	21392.50
494.96	21717.83
495.14	21338.66
495.32	21832.52
495.49	21860.60
495.67	21776.34
495.85	22061.89
496.02	22106.36
496.20	22263.18
496.38	22448.08
496.55	22691.49
496.73	22911.50
496.91	22630.64
497.09	22923.21
497.26	23119.81
497.44	22988.74
497.62	23360.89
497.79	23381.95
497.97	23204.07
498.14	23276.63
498.32	23669.84
498.50	23515.36
498.67	23934.32
498.85	23985.81
499.03	24247.95
499.20	24325.19
499.38	24336.89
499.56	24437.53
499.73	24552.22
499.91	24613.07
500.08	24517.11
500.26	24306.46
500.44	24723.08
500.61	25006.28
500.79	24805.00
500.97	24760.53
501.14	25399.49
501.32	25319.92
501.49	24971.18
501.67	25032.03
501.84	25507.16
502.02	25390.13
502.20	25682.70
502.37	25848.88
502.55	25865.26
502.72	25991.65
502.90	25731.85
503.07	25741.21
503.25	25961.22
503.43	26190.59
503.60	26178.89
503.78	26199.96
503.95	26354.43
504.13	26515.93
504.30	26347.41
504.48	26415.29
504.65	26775.73
504.83	26529.97
505.01	26848.29
505.18	26885.73
505.36	27473.21
505.53	27438.10
505.71	26852.97
505.88	27325.75
506.06	27255.54
506.23	27552.79
506.41	27316.39
506.58	27686.20
506.76	27562.15
506.93	27768.12
507.11	27843.01
507.28	27587.89
507.46	27913.23
507.63	28074.73
507.81	28168.35
507.98	28002.17
508.16	28264.31
508.33	28596.67
508.50	28669.22
508.68	28882.21
508.85	28734.76
509.03	28589.64
509.20	28664.54
509.38	29088.18
509.55	29020.30
509.73	28819.02
509.90	28854.12
510.08	28816.68
510.25	29109.24
510.42	29467.34
510.60	29383.09
510.77	29972.90
510.95	30075.88
511.12	29631.18
511.30	29883.96
511.47	29879.28
511.64	30136.74
511.82	30162.48
511.99	30082.91
512.17	29937.79
512.34	29909.71
512.51	30536.97
512.69	30672.72
512.86	30384.83
513.04	30569.74
513.21	30876.35
513.38	30838.90
513.56	30745.28
513.73	30670.38
513.90	30855.28
514.08	30646.97
514.25	30986.35
514.43	31070.61
514.60	31091.68
514.77	31199.34
514.95	31431.05
515.12	31344.45
515.29	31269.56
515.47	31910.86
515.64	31779.79
515.81	31325.73
515.99	31740.00
516.16	31847.67
516.33	31510.63
516.51	31641.70
516.68	31372.54
516.85	31470.84
517.03	31648.72
517.20	31548.08
517.37	31857.03
517.54	32147.26
517.72	32341.52
517.89	32374.29
518.06	31868.73
518.24	32453.87
518.41	32102.79
518.58	32011.51
518.75	32589.62
518.93	32804.95
519.10	32570.90
519.27	32694.94
519.45	32493.66
519.62	32814.31
519.79	32833.04
519.96	32847.08
520.14	33174.75
520.31	33046.02
520.48	33158.37
520.65	33132.62
520.83	33364.34
521.00	33668.61
521.17	33783.29
521.34	33666.27
521.52	33762.23
521.69	34026.71
521.86	33703.71
522.03	33795.00
522.20	33855.85
522.38	34047.77
522.55	34321.62
522.72	34064.16
522.89	34609.50
523.07	34199.91
523.24	34251.40
523.41	34499.50
523.58	34541.63
523.75	34899.73
523.92	34962.92
524.10	34693.76
524.27	35185.27
524.44	34735.89
524.61	34700.78
524.78	35388.90
524.96	35098.67
525.13	35519.97
525.30	35384.22
525.47	35629.98
525.64	35330.39
525.81	35255.49
525.98	35505.93
526.16	35765.73
526.33	35573.80
526.50	35534.01
526.67	34927.81
526.84	35730.62
527.01	35306.98
527.18	35618.27
527.36	35749.34
527.53	36102.76
527.70	36039.57
527.87	36229.15
528.04	35824.24
528.21	35964.67
528.38	36208.09
528.55	36905.57
528.72	36582.57
528.89	36559.17
529.07	36219.79
529.24	36194.04
529.41	36444.48
529.58	36643.43
529.75	36952.38
529.92	36510.02
530.09	36678.54
530.26	36875.14
530.43	36580.23
530.60	36921.95
530.77	37008.55
530.94	37219.20
531.11	36982.80
531.28	36797.90
531.46	36868.12
531.63	37160.69
531.80	37207.50
531.97	37282.39
532.14	37406.44
532.31	36973.44
532.48	37113.87
532.65	37460.27
532.82	37443.89
532.99	37385.38
533.16	37418.14
533.33	37642.84
533.50	37518.79
533.67	38120.31
533.84	37319.84
534.01	37701.35
534.18	38242.01
534.35	37970.51
534.52	37691.99
534.69	37893.27
534.86	38312.23
535.03	37862.85
535.20	38532.24
535.37	38279.46
535.54	38534.58
535.71	37923.70
535.88	38707.78
536.05	38328.61
536.22	38396.49
536.38	38644.59
536.55	38256.06
536.72	38649.27
536.89	38712.46
537.06	38094.56
537.23	38525.22
537.40	38635.22
537.57	38167.12
537.74	38773.31
537.91	39248.44
538.08	38749.91
538.25	38419.89
538.42	39044.82
538.59	39297.59
538.75	38918.43
538.92	39180.57
539.09	38995.67
539.26	39281.21
539.43	39178.23
539.60	39459.09
539.77	39079.92
539.94	39484.84
540.11	38941.83
540.28	39208.65
540.44	38841.19
540.61	39313.98
540.78	39477.82
540.95	39342.06
541.12	39622.93
541.29	39541.01
541.46	39501.22
541.62	39489.52
541.79	39690.80
541.96	39508.24
542.13	40018.48
542.30	39688.46
542.47	39810.17
542.63	40278.28
542.80	39910.82
542.97	40376.58
543.14	40198.70
543.31	40184.66
543.48	40041.88
543.64	40545.10
543.81	40484.25
543.98	40512.33
544.15	40402.33
544.32	41120.87
544.48	40921.93
544.65	40715.96
544.82	40514.67
544.99	40699.58
545.16	40917.25
545.32	41254.28
545.49	41366.63
545.66	41223.86
545.83	41668.56
546.00	41097.47
546.16	41387.69
546.33	40891.50
546.50	40964.06
546.67	41092.79
546.83	40758.09
547.00	40842.35
547.17	40928.95
547.34	41191.09
547.50	41031.93
547.67	41397.06
547.84	41401.74
548.00	41453.23
548.17	41462.59
548.34	41701.32
548.51	41631.11
548.67	41581.96
548.84	41319.82
549.01	41921.34
549.18	41647.49
549.34	41743.45
549.51	41698.98
549.68	41926.02
549.84	41684.94
550.01	41680.26
550.18	41897.93
550.34	41607.70
550.51	41961.12
550.68	41776.22
550.84	41888.57
551.01	42139.00
551.18	41883.89
551.34	41844.10
551.51	42506.47
551.68	42043.04
551.84	42768.61
552.01	41986.87
552.18	42319.23
552.34	42204.54
552.51	42270.08
552.68	42342.63
552.84	42274.76
553.01	42396.46
553.18	42656.26
553.34	42251.35
553.51	42452.64
553.67	42344.97
553.84	42649.24
554.01	42412.85
554.17	43009.68
554.34	42806.06
554.51	42895.00
554.67	42747.54
554.84	42672.65
555.00	42146.03
555.17	42747.54
555.33	42412.85
555.50	42342.63
555.67	42850.53
555.83	42717.12
556.00	42981.60
556.16	43248.42
556.33	42447.96
556.50	42422.21
556.66	42969.90
556.83	42562.64
556.99	43381.83
557.16	43246.08
557.32	43016.71
557.49	42803.72
557.65	42859.89
557.82	43124.37
557.98	42878.61
558.15	43332.68
558.32	43147.78
558.48	43208.63
558.65	42766.27
558.81	43175.86
558.98	42953.51
559.14	43143.09
559.31	43255.44
559.47	43463.75
559.64	43276.51
559.80	43012.02
559.97	43487.15
560.13	43445.02
560.30	43646.31
560.46	43180.54
560.63	43753.97
560.79	43543.33
560.96	44048.88
561.12	43639.29
561.29	43761.00
561.45	43730.57
561.61	43318.64
561.78	43323.32
561.94	43503.54
562.11	43508.22
562.27	43274.16
562.44	43962.28
562.60	43768.02
562.77	43908.45
562.93	43952.92
563.10	43578.43
563.26	43323.32
563.42	43871.00
563.59	43622.90
563.75	43445.02
563.92	44201.02
564.08	43824.19
564.24	43973.98
564.41	43695.46
564.57	44027.82
564.74	43454.39
564.90	43583.12
565.07	43812.49
565.23	43962.28
565.39	43590.14
565.56	44062.93
565.72	43817.17
565.88	43938.88
566.05	43370.13
566.21	43962.28
566.38	44074.63
566.54	43739.93
566.70	44100.37
566.87	44161.23
567.03	43859.30
567.19	44315.70
567.36	44245.49
567.52	43627.59
567.68	43966.96
567.85	43667.37
568.01	43543.33
568.17	44081.65
568.34	43732.91
568.50	44011.43
568.66	43739.93
568.83	43899.09
568.99	44144.84
569.15	44168.25
569.32	44261.87
569.48	43704.82
569.64	44601.25
569.81	44259.53
569.97	44119.10
570.13	44210.38
570.30	44161.23
570.46	43487.15
570.62	43962.28
570.78	44032.50
570.95	44030.16
571.11	44020.80
571.27	44034.84
571.43	44643.38
571.60	44296.98
571.76	43842.92
571.92	44346.13
572.09	44030.16
572.25	43660.35
572.41	44109.74
572.57	44474.86
572.74	44348.47
572.90	44577.84
573.06	44423.37
573.22	44308.68
573.38	44519.33
573.55	44126.12
573.71	44362.51
573.87	43910.79
574.03	44102.71
574.20	44135.48
574.36	44030.16
574.52	44425.71
574.68	44158.89
574.84	44287.62
575.01	44201.02
575.17	44428.05
575.33	44161.23
575.49	43831.21
575.65	44421.03
575.82	44205.70
575.98	44385.92
576.14	44542.74
576.30	44402.30
576.46	44280.60
576.62	44154.21
576.79	44175.27
576.95	43882.70
577.11	44535.71
577.27	44601.25
577.43	44570.82
577.59	44437.41
577.75	44271.23
577.92	43828.87
578.08	43770.36
578.24	44250.17
578.40	44390.60
578.56	44357.83
578.72	44196.34
578.88	44664.44
579.04	44786.15
579.21	44650.40
579.37	44404.64
579.53	44023.14
579.69	44041.86
579.85	44247.83
580.01	44708.91
580.17	44535.71
580.33	44369.54
580.49	44346.13
580.65	44994.46
580.82	45015.52
580.98	44357.83
581.14	44229.10
581.30	44704.23
581.46	44655.08
581.62	44446.77
581.78	44531.03
581.94	44811.90
582.10	44470.18
582.26	44325.07
582.42	44294.64
582.58	44692.53
582.74	43920.15
582.90	44594.23
583.06	44626.99
583.22	44479.54
583.38	44821.26
583.54	45240.21
583.70	44626.99
583.86	44570.82
584.02	44444.43
584.18	44589.55
584.34	44502.95
584.50	44034.84
584.66	43880.36
584.82	44252.51
584.98	44821.26
585.14	44680.83
585.30	44322.72
585.46	44795.51
585.62	44432.73
585.78	44406.98
585.94	44051.22
586.10	44643.38
586.26	44161.23
586.42	44786.15
586.58	44367.20
586.74	44758.06
586.90	44362.51
587.06	44053.56
587.22	44645.72
587.38	44109.74
587.54	44643.38
587.70	44390.60
587.86	44435.07
588.02	44701.89
588.18	44903.18
588.34	44149.53
588.49	44381.24
588.65	43854.62
588.81	44172.93
588.97	44406.98
589.13	44362.51
589.29	44414.01
589.45	44505.29
589.61	44329.75
589.77	44807.22
589.93	44598.91
590.08	44811.90
590.24	44673.81
