SpectraSuite Data File
++++++++++++++++++++++++++++++++++++
Date: Fri Oct 25 11:25:51 EDT 2013
User: price-jones
Dark Spectrum Present: No
Reference Spectrum Present: No
Number of Sampled Component Spectra: 1
Spectrometers: USB2+H05261
Integration Time (usec): 100000 (USB2+H05261)
Spectra Averaged: 1 (USB2+H05261)
Boxcar Smoothing: 0 (USB2+H05261)
Correct for Electrical Dark: No (USB2+H05261)
Strobe/Lamp Enabled: No (USB2+H05261)
Correct for Detector Non-linearity: No (USB2+H05261)
Correct for Stray Light: No (USB2+H05261)
Number of Pixels in Processed Spectrum: 2048
>>>>>Begin Processed Spectral Data<<<<<
365.73	182.56
365.92	182.56
366.12	182.56
366.32	243.42
366.52	194.26
366.72	220.01
366.91	180.22
367.11	121.71
367.31	203.63
367.51	117.03
367.70	194.26
367.90	124.05
368.10	86.60
368.30	198.95
368.49	88.94
368.69	189.58
368.89	184.90
369.09	133.41
369.28	105.32
369.48	161.50
369.68	140.43
369.87	234.05
370.07	175.54
370.27	262.14
370.47	353.42
370.66	645.99
370.86	631.94
371.06	631.94
371.25	685.78
371.45	648.33
371.65	669.39
371.84	657.69
372.04	660.03
372.24	697.48
372.44	765.36
372.63	744.29
372.83	781.74
373.03	720.88
373.22	702.16
373.42	765.36
373.62	856.64
373.81	837.91
374.01	814.51
374.21	849.61
374.40	730.25
374.60	854.30
374.79	809.83
374.99	737.27
375.19	849.61
375.38	798.12
375.58	805.14
375.78	837.91
375.97	840.25
376.17	940.90
376.37	887.06
376.56	858.98
376.76	847.27
376.95	861.32
377.15	936.21
377.35	863.66
377.54	866.00
377.74	870.68
377.93	929.19
378.13	945.58
378.33	957.28
378.52	894.08
378.72	987.71
378.91	983.02
379.11	943.24
379.31	924.51
379.50	959.62
379.70	1006.43
379.89	952.60
380.09	945.58
380.28	870.68
380.48	952.60
380.68	976.00
380.87	950.26
381.07	997.07
381.26	940.90
381.46	968.98
381.65	1095.37
381.85	1090.69
382.04	1137.50
382.24	1116.44
382.43	1006.43
382.63	1057.92
382.83	1062.60
383.02	1095.37
383.22	1123.46
383.41	1102.39
383.61	1118.78
383.80	1111.75
384.00	1093.03
384.19	1107.07
384.39	1149.20
384.58	1097.71
384.78	1193.67
384.97	1186.65
385.17	1146.86
385.36	1076.65
385.56	1249.85
385.75	1172.61
385.95	1160.91
386.14	1149.20
386.34	1196.01
386.53	1242.82
386.72	1261.55
386.92	1217.08
387.11	1181.97
387.31	1291.98
387.50	1252.19
387.70	1174.95
387.89	1289.64
388.09	1231.12
388.28	1373.89
388.48	1315.38
388.67	1287.29
388.86	1341.13
389.06	1303.68
389.25	1336.45
389.45	1327.08
389.64	1397.30
389.84	1387.94
390.03	1427.73
390.22	1413.68
390.42	1315.38
390.61	1355.17
390.81	1416.02
391.00	1420.71
391.19	1448.79
391.39	1530.71
391.58	1427.73
391.78	1507.30
391.97	1533.05
392.16	1516.67
392.36	1439.43
392.55	1481.56
392.75	1540.07
392.94	1528.37
393.13	1537.73
393.33	1523.69
393.52	1565.82
393.71	1605.61
393.91	1533.05
394.10	1504.96
394.29	1657.10
394.49	1605.61
394.68	1664.12
394.88	1668.80
395.07	1629.01
395.26	1629.01
395.46	1673.48
395.65	1666.46
395.84	1760.08
396.04	1806.89
396.23	1771.79
396.42	1668.80
396.62	1783.49
396.81	1764.76
397.00	1818.60
397.19	1710.93
397.39	1769.44
397.58	1811.57
397.77	1872.43
397.97	1923.92
398.16	1902.86
398.35	1980.09
398.55	1907.54
398.74	1858.39
398.93	1977.75
399.12	1886.47
399.32	1898.17
399.51	1930.94
399.70	1980.09
399.90	1944.99
400.09	2017.54
400.28	2118.18
400.47	2008.18
400.67	2059.67
400.86	2139.25
401.05	2094.78
401.24	2094.78
401.44	2244.57
401.63	2127.55
401.82	2181.38
402.01	2078.40
402.21	2106.48
402.40	2167.34
402.59	2134.57
402.78	2246.91
402.97	2190.74
403.17	2246.91
403.36	2204.78
403.55	2253.94
403.74	2380.32
403.93	2249.25
404.13	2403.73
404.32	2298.41
404.51	2324.15
404.70	2396.71
404.89	2375.64
405.09	2363.94
405.28	2366.28
405.47	2497.35
405.66	2443.52
405.85	2434.16
406.05	2502.03
406.24	2509.05
406.43	2562.89
406.62	2593.31
406.81	2633.10
407.00	2518.42
407.20	2607.36
407.39	2605.02
407.58	2700.98
407.77	2649.49
407.96	2651.83
408.15	2773.53
408.34	2698.64
408.54	2832.05
408.73	2878.86
408.92	2855.45
409.11	2935.03
409.30	2843.75
409.49	2834.39
409.68	2881.20
409.87	2909.29
410.07	2820.35
410.26	3009.93
410.45	3005.25
410.64	2998.23
410.83	3021.63
411.02	3126.96
411.21	3169.09
411.40	3164.40
411.59	3150.36
411.78	3176.11
411.98	3236.96
412.17	3276.75
412.36	3276.75
412.55	3302.50
412.74	3382.07
412.93	3471.01
413.12	3335.26
413.31	3503.78
413.50	3391.44
413.69	3478.04
413.88	3583.36
414.07	3527.19
414.26	3665.28
414.45	3597.40
414.64	3609.11
414.83	3754.22
415.02	3733.15
415.22	3749.54
415.41	3981.25
415.60	3810.39
415.79	3939.12
415.98	3925.08
416.17	3815.07
416.36	3836.14
416.55	3997.64
416.74	4112.32
416.93	3908.69
417.12	4058.49
417.31	4203.60
417.50	4100.62
417.69	4215.30
417.88	4222.33
418.07	4170.83
418.26	4248.07
418.45	4219.99
418.64	4358.08
418.83	4351.06
419.02	4454.04
419.21	4482.13
419.39	4461.06
419.58	4533.62
419.77	4423.61
419.96	4664.69
420.15	4442.34
420.34	4613.20
420.53	4629.58
420.72	4723.20
420.91	4648.30
421.10	4690.43
421.29	4912.78
421.48	4816.82
421.67	4814.48
421.86	4676.39
422.05	4809.80
422.24	4826.18
422.43	4847.25
422.61	4805.12
422.80	5029.81
422.99	4840.23
423.18	4880.02
423.37	4936.19
423.56	4915.12
423.75	4922.15
423.94	4772.35
424.13	4601.49
424.32	4877.68
424.50	4938.53
424.69	5130.45
424.88	5172.58
425.07	4952.57
425.26	4971.30
425.45	4947.89
425.64	4961.94
425.83	4922.15
426.01	4887.04
426.20	5001.72
426.39	5214.71
426.58	5064.92
426.77	4990.02
426.96	5179.61
427.15	5048.54
427.33	5263.86
427.52	4997.04
427.71	5146.84
427.90	5242.80
428.09	5317.70
428.28	5341.10
428.46	5282.59
428.65	5350.46
428.84	5446.43
429.03	5486.22
429.22	5163.22
429.40	5397.28
429.59	5565.79
429.78	5252.16
429.97	5317.70
430.16	5509.62
430.34	5434.72
430.53	5568.13
430.72	5577.50
430.91	5509.62
431.10	5584.52
431.28	5783.46
431.47	5760.06
431.66	5912.19
431.85	5895.81
432.03	5788.14
432.22	5870.06
432.41	5989.43
432.60	5813.89
432.79	5830.27
432.97	5886.45
433.16	5947.30
433.35	5940.28
433.54	6066.67
433.72	6052.63
433.91	5973.05
434.10	6157.95
434.28	6097.10
434.47	6122.84
434.66	6200.08
434.85	6331.15
435.03	6382.64
435.22	6111.14
435.41	6389.66
435.59	6457.54
435.78	6537.12
435.97	6455.20
436.16	6310.08
436.34	6420.09
436.53	6532.44
436.72	6523.07
436.90	6312.42
437.09	6583.93
437.28	6349.87
437.46	6520.73
437.65	6665.85
437.84	6759.47
438.02	6651.80
438.21	6679.89
438.40	6499.67
438.58	7087.14
438.77	6981.82
438.96	6815.64
439.14	7164.38
439.33	7075.44
439.52	7225.23
439.70	7150.34
439.89	7438.22
440.08	7208.85
440.26	7407.80
440.45	7342.26
440.63	7510.78
440.82	7564.61
441.01	7531.84
441.19	7578.65
441.38	7456.95
441.57	7665.25
441.75	7756.54
441.94	7936.76
442.12	7889.95
442.31	8004.63
442.50	7999.95
442.68	8060.80
442.87	7882.92
443.05	7911.01
443.24	8037.40
443.43	8035.06
443.61	8109.96
443.80	8301.88
443.98	8095.91
444.17	7957.82
444.35	8049.10
444.54	8369.76
444.73	8280.82
444.91	8262.09
445.10	8271.45
445.28	8498.49
445.47	8175.49
445.65	8329.97
445.84	8519.55
446.02	8318.26
446.21	8376.78
446.39	8283.16
446.58	8374.44
446.77	8411.89
446.95	8557.00
447.14	8308.90
447.32	8519.55
447.51	8416.57
447.69	8446.99
447.88	8528.91
448.06	8336.99
448.25	8531.25
448.43	8428.27
448.62	8435.29
448.80	8484.44
448.99	8624.87
449.17	8575.72
449.36	8592.11
449.54	8814.46
449.73	8851.91
449.91	8957.23
450.10	8926.80
450.28	9062.55
450.46	9109.36
450.65	9177.24
450.83	9034.47
451.02	8903.40
451.20	9036.81
451.39	9062.55
451.57	9015.74
451.76	9027.45
451.94	9097.66
452.13	9355.12
452.31	9167.88
452.49	9081.28
452.68	9387.89
452.86	9329.38
453.05	9582.15
453.23	9523.64
453.42	9376.19
453.60	9263.84
453.78	9528.32
453.97	9275.54
454.15	9364.48
454.34	9441.72
454.52	9738.97
454.70	9755.35
454.89	9753.01
455.07	9856.00
455.26	9717.90
455.44	9926.21
455.62	9858.34
455.81	9703.86
455.99	9937.91
456.17	9872.38
456.36	9827.91
456.54	10296.02
456.73	10150.90
456.91	10256.23
457.09	10256.23
457.28	10539.43
457.46	10359.21
457.64	10324.10
457.83	10349.85
458.01	10246.87
458.19	10520.71
458.38	10562.84
458.56	10595.61
458.74	10684.55
458.93	10661.14
459.11	10822.64
459.29	10633.05
459.48	10810.93
459.66	10579.22
459.84	10689.23
460.03	11056.69
460.21	10970.09
460.39	10895.19
460.57	10979.45
460.76	11087.12
460.94	11026.26
461.12	11119.89
461.31	11044.99
461.49	10892.85
461.67	11178.40
461.85	11473.31
462.04	11073.07
462.22	11630.12
462.40	11403.09
462.59	11391.39
462.77	11365.64
462.95	11618.42
463.13	11653.53
463.32	11468.62
463.50	11716.72
463.68	11786.94
463.86	11908.65
464.05	11627.78
464.23	11723.74
464.41	11761.19
464.59	11487.35
464.78	12028.01
464.96	12152.06
465.14	11925.03
465.32	12091.21
465.50	12152.06
465.69	12252.70
465.87	12128.66
466.05	12224.62
466.23	12294.83
466.41	12084.19
466.60	12428.24
466.78	12290.15
466.96	12212.92
467.14	12114.61
467.32	12418.88
467.51	12517.18
467.69	12133.34
467.87	12482.08
468.05	12531.23
468.23	12418.88
468.41	12599.10
468.60	12358.03
468.78	12851.88
468.96	12582.72
469.14	12882.31
469.32	12992.31
469.50	12657.62
469.69	13156.15
469.87	13104.66
470.05	12975.93
470.23	12980.61
470.41	13139.77
470.59	13348.08
470.77	12908.05
470.95	13212.32
471.14	13495.53
471.32	13137.43
471.50	13504.89
471.68	13404.25
471.86	13462.76
472.04	13727.24
472.22	14022.15
472.40	13731.92
472.58	13818.52
472.77	14382.59
472.95	14115.77
473.13	14693.88
473.31	14155.56
473.49	14085.34
473.67	13940.23
473.85	14068.96
474.03	14464.51
474.21	14773.46
474.39	14768.78
474.57	14642.39
474.75	14520.68
474.93	14754.74
475.12	14977.09
475.30	15222.84
475.48	14988.79
475.66	15056.67
475.84	15234.55
476.02	15414.77
476.20	15382.00
476.38	15679.25
476.56	15903.94
476.74	15957.77
476.92	15805.64
477.10	15927.35
477.28	15990.54
477.46	16042.03
477.64	16226.93
477.82	16362.69
478.00	16812.07
478.18	16688.02
478.36	16444.60
478.54	17067.19
478.72	17198.26
478.90	17380.82
479.08	17317.62
479.26	17633.60
479.44	17584.44
479.62	17888.71
479.80	18005.74
479.98	18090.00
480.16	18300.65
480.34	18415.34
480.52	18668.11
480.70	18822.59
480.88	18520.66
481.06	18750.03
481.24	18869.40
481.41	18967.70
481.59	19332.82
481.77	19545.81
481.95	19421.77
482.13	19648.80
482.31	19857.10
482.49	20191.80
482.67	20163.72
482.85	20175.42
483.03	20776.94
483.21	20912.69
483.39	20559.27
483.57	20357.98
483.74	21202.91
483.92	21343.35
484.10	21010.99
484.28	21495.48
484.46	21839.54
484.64	22675.11
484.82	21600.80
485.00	22232.75
485.18	22977.04
485.35	23016.83
485.53	22977.04
485.71	22827.24
485.89	23374.93
486.07	23145.56
486.25	23419.40
486.43	23211.09
486.61	24166.03
486.78	24086.45
486.96	24004.53
487.14	24505.41
487.32	24503.07
487.50	24320.51
487.68	24900.96
487.85	25195.87
488.03	25200.55
488.21	25680.36
488.39	25603.12
488.57	26017.40
488.75	26080.59
488.92	26398.90
489.10	26726.58
489.28	26644.66
489.46	27166.60
489.64	26682.11
489.81	27300.01
489.99	27857.06
490.17	27608.96
490.35	28308.78
490.53	27999.83
490.70	28692.63
490.88	28451.55
491.06	28774.55
491.24	28854.12
491.41	28910.30
491.59	28971.15
491.77	28992.22
491.95	29486.07
492.13	29570.33
492.30	29944.81
492.48	29759.91
492.66	30134.40
492.84	30101.63
493.01	30672.72
493.19	30621.23
493.37	30595.48
493.54	31117.42
493.72	31592.55
493.90	31339.77
494.08	31648.72
494.25	31805.54
494.43	31859.37
494.61	31723.62
494.79	32474.93
494.96	32580.26
495.14	33006.23
495.32	32786.22
495.49	32945.38
495.67	33057.73
495.85	33436.89
496.02	33589.03
496.20	34160.12
496.38	33696.69
496.55	34043.09
496.73	34881.00
496.91	34213.95
497.09	34607.16
497.26	35014.41
497.44	34684.40
497.62	34834.19
497.79	35838.28
497.97	35302.30
498.14	35770.41
498.32	36067.66
498.50	35981.06
498.67	36484.27
498.85	36341.50
499.03	36472.57
499.20	36601.30
499.38	36779.18
499.56	37055.36
499.73	36952.38
499.91	37006.21
500.08	37717.73
500.26	37017.91
500.44	37439.21
500.61	37869.87
500.79	37251.97
500.97	37914.34
501.14	38653.95
501.32	38452.66
501.49	38113.28
501.67	38394.15
501.84	38806.08
502.02	38628.20
502.20	38885.66
502.37	38937.15
502.55	39407.60
502.72	39093.97
502.90	39353.77
503.07	39531.65
503.25	39580.80
503.43	39433.35
503.60	40250.19
503.78	39917.84
503.95	40039.54
504.13	40671.49
504.30	40404.67
504.48	40172.96
504.65	40170.61
504.83	40655.11
505.01	41078.74
505.18	41287.05
505.36	41233.22
505.53	41102.15
505.71	41593.66
505.88	41408.76
506.06	41577.28
506.23	42181.13
506.41	41729.41
506.58	41902.61
506.76	41748.14
506.93	42349.65
507.11	42131.98
507.28	42609.45
507.46	42333.27
507.63	42667.97
507.81	43189.91
507.98	42873.93
508.16	42976.92
508.33	43173.52
508.50	43681.42
508.68	43611.20
508.85	43611.20
509.03	43276.51
509.20	43835.89
509.38	44081.65
509.55	44409.32
509.73	43985.69
509.90	44947.65
510.08	44140.16
510.25	44229.10
510.42	44385.92
510.60	44793.17
510.77	45301.07
510.95	45455.54
511.12	45195.74
511.30	44839.98
511.47	45258.94
511.64	45769.18
511.82	46129.62
511.99	45633.42
512.17	45890.88
512.34	45745.77
512.51	46422.19
512.69	46387.08
512.86	46157.70
513.04	46595.38
513.21	46344.95
513.38	46733.48
513.56	46993.28
513.73	46387.08
513.90	46972.21
514.08	46834.12
514.25	46897.31
514.43	46894.97
514.60	47105.62
514.77	47079.88
514.95	47524.58
515.12	47456.70
515.29	47400.53
515.47	47707.14
515.64	47814.80
515.81	47826.51
515.99	47934.17
516.16	48343.77
516.33	47941.19
516.51	48811.87
516.68	48610.59
516.85	48090.99
517.03	48591.86
517.20	48708.89
517.37	48442.07
517.54	48666.76
517.72	49034.22
517.89	48865.70
518.06	48861.02
518.24	49155.93
518.41	49104.44
518.58	48854.00
518.75	49263.60
518.93	49399.35
519.10	49097.42
519.27	49834.69
519.45	49352.54
519.62	49867.45
519.79	49940.01
519.96	49544.46
520.14	49968.10
520.31	49886.18
520.48	50120.23
520.65	50075.76
520.83	50522.80
521.00	50473.65
521.17	50398.76
521.34	50335.56
521.52	50733.45
521.69	50653.87
521.86	51002.61
522.03	50824.73
522.20	51063.47
522.38	51292.84
522.55	51304.54
522.72	51288.16
522.89	50976.87
523.07	51828.82
523.24	50988.57
523.41	51456.68
523.58	51105.60
523.75	51533.92
523.92	51625.20
524.10	51758.61
524.27	51821.80
524.44	51800.74
524.61	52095.64
524.78	51966.91
524.96	52158.84
525.13	52191.61
525.30	52268.84
525.47	52420.98
525.64	52523.96
525.81	52355.44
525.98	52561.41
526.16	52582.48
526.33	52706.52
526.50	52896.11
526.67	52626.95
526.84	52989.73
527.01	52788.44
527.18	52809.51
527.36	52636.31
527.53	52963.98
527.70	53315.06
527.87	53109.10
528.04	52903.13
528.21	53071.65
528.38	53333.79
528.55	53640.40
528.72	53312.72
528.89	53256.55
529.07	53525.71
529.24	53315.06
529.41	53656.78
529.58	53411.02
529.75	53324.43
529.92	53600.61
530.09	53722.32
530.26	53815.94
530.43	53867.43
530.60	53476.56
530.77	53530.39
530.94	54223.19
531.11	54000.84
531.28	54309.79
531.46	54101.48
531.63	53982.12
531.80	54169.36
531.97	54136.59
532.14	54101.48
532.31	54152.97
532.48	54394.05
532.65	54618.74
532.82	53979.78
532.99	54384.69
533.16	54363.62
533.33	54937.05
533.50	54670.23
533.67	54424.48
533.84	54380.01
534.01	54759.17
534.18	54871.52
534.35	55072.81
534.52	54899.61
534.69	55004.93
534.86	55159.41
535.03	54798.96
535.20	55051.74
535.37	55290.48
535.54	55274.09
535.71	55337.29
535.88	55246.00
536.05	55402.82
536.22	55470.70
536.38	55339.63
536.55	55374.73
536.72	55494.10
536.89	55449.63
537.06	55533.89
537.23	55639.22
537.40	55253.03
537.57	56006.68
537.74	55702.41
537.91	55934.12
538.08	55732.84
538.25	55650.92
538.42	55583.04
538.59	56140.09
538.75	55929.44
538.92	55915.40
539.09	56182.22
539.26	56196.26
539.43	55978.59
539.60	56308.61
539.77	56114.34
539.94	56170.52
540.11	56245.41
540.28	56203.28
540.44	56224.35
540.61	56362.44
540.78	56479.47
540.95	56320.31
541.12	56371.80
541.29	56243.07
541.46	56493.51
541.62	56378.82
541.79	56537.98
541.96	56306.27
542.13	56317.97
542.30	56692.46
542.47	56734.59
542.63	56720.54
542.80	56769.69
542.97	56966.30
543.14	57080.98
543.31	57113.75
543.48	57111.41
543.64	57338.44
543.81	57469.51
543.98	57308.02
544.15	57361.85
544.32	57511.64
544.48	57340.78
544.65	57088.01
544.82	57415.68
544.99	57205.03
545.16	57462.49
545.32	57408.66
545.49	57612.29
545.66	57794.85
545.83	57481.22
546.00	57389.94
546.16	57532.71
546.33	57279.93
546.50	57429.72
546.67	57748.04
546.83	57361.85
547.00	57509.30
547.17	57600.58
547.34	57413.34
547.50	57897.83
547.67	57769.10
547.84	58017.20
548.00	57874.43
548.17	58342.53
548.34	58035.92
548.51	58101.46
548.67	57984.43
548.84	57804.21
549.01	57921.24
549.18	58042.95
549.34	58220.83
549.51	58220.83
549.68	58225.51
549.84	58377.64
550.01	58368.28
550.18	58012.52
550.34	58340.19
550.51	58300.40
550.68	58199.76
550.84	58253.59
551.01	58375.30
551.18	58473.60
551.34	58159.97
551.51	58482.97
551.68	58452.54
551.84	58574.25
552.01	58438.50
552.18	58541.48
552.34	58387.00
552.51	58562.54
552.68	58361.26
552.84	58592.97
553.01	58941.71
553.18	58644.46
553.34	59016.61
553.51	58424.45
553.67	58632.76
553.84	58688.93
554.01	58777.87
554.17	58890.22
554.34	58979.16
554.51	58878.52
554.67	59084.48
554.84	59002.56
555.00	58988.52
555.17	59047.04
555.33	58780.21
555.50	58876.18
555.67	58820.00
555.83	58892.56
556.00	59035.33
556.16	59309.18
556.33	59210.87
556.50	59028.31
556.66	59098.53
556.83	59014.27
556.99	59128.95
557.16	59318.54
557.32	59189.81
557.49	59449.61
557.65	59105.55
557.82	59217.89
557.98	59278.75
558.15	59327.90
558.32	59395.77
558.48	59171.08
558.65	59339.60
558.81	59494.08
558.98	59402.80
559.14	59564.29
559.31	59458.97
559.47	59576.00
559.64	59646.21
559.80	59870.90
559.97	59791.33
560.13	59714.09
560.30	59458.97
560.46	59587.70
560.63	59608.76
560.79	59812.39
560.96	59774.94
561.12	59634.51
561.29	59646.21
561.45	59742.17
561.61	59896.65
561.78	59669.62
561.94	59487.06
562.11	59693.02
562.27	59730.47
562.44	59868.56
562.60	59845.16
562.77	59866.22
562.93	59798.35
563.10	59929.42
563.26	59870.90
563.42	60140.07
563.59	59882.61
563.75	59891.97
563.92	59910.69
564.08	60058.15
564.24	60130.70
564.41	60001.97
564.57	60140.07
564.74	60011.34
564.90	59922.40
565.07	60058.15
565.23	59948.14
565.39	60081.55
565.56	60254.75
565.72	60023.04
565.88	60093.25
566.05	59877.93
566.21	60013.68
566.38	60053.47
566.54	60142.41
566.70	60308.58
566.87	60177.51
567.03	59910.69
567.19	60430.29
567.36	60275.82
567.52	60247.73
567.68	60339.01
567.85	60364.76
568.01	60603.49
568.17	60308.58
568.34	60441.99
568.50	60250.07
568.66	60219.64
568.83	60423.27
568.99	60189.22
569.15	60432.63
569.32	60271.14
569.48	60315.61
569.64	60399.86
569.81	60374.12
569.97	60200.92
570.13	60449.02
570.30	60362.42
570.46	60306.24
570.62	60336.67
570.78	60444.33
570.95	60364.76
571.11	60544.98
571.27	60280.50
571.43	60456.04
571.60	60612.85
571.76	60505.19
571.92	60395.18
572.09	60676.05
572.25	60423.27
572.41	60552.00
572.57	60512.21
572.74	60629.24
572.90	60481.78
573.06	60456.04
573.22	60446.68
573.38	60636.26
573.55	60577.75
573.71	60718.18
573.87	60580.09
574.03	60479.44
574.20	60692.43
574.36	60554.34
574.52	60760.31
574.68	60683.07
574.84	60533.28
575.01	60802.44
575.17	60465.40
575.33	60371.78
575.49	60535.62
575.65	60467.74
575.82	60708.82
575.98	60734.56
576.14	60624.56
576.30	60790.73
576.46	60434.97
576.62	60554.34
576.79	60458.38
576.95	60640.94
577.11	60673.71
577.27	60870.31
577.43	60587.11
577.59	60706.47
577.75	60647.96
577.92	60708.82
578.08	60610.51
578.24	60874.99
578.40	60903.08
578.56	60921.80
578.72	60612.85
578.88	60963.93
579.04	61165.22
579.21	60779.03
579.37	60893.72
579.53	60886.70
579.69	60453.70
579.85	60837.54
580.01	60624.56
580.17	60582.43
580.33	60842.23
580.49	60804.78
580.65	60783.71
580.82	60816.48
580.98	60865.63
581.14	60676.05
581.30	60931.17
581.46	60856.27
581.62	60781.37
581.78	60692.43
581.94	60654.98
582.10	60718.18
582.26	60809.46
582.42	60739.24
582.58	61015.43
582.74	60877.33
582.90	60786.05
583.06	60666.69
583.22	60755.63
583.38	60924.14
583.54	60804.78
583.70	60882.02
583.86	60933.51
584.02	60734.56
584.18	61027.13
584.34	60863.29
584.50	60802.44
584.66	60732.22
584.82	60673.71
584.98	61109.05
585.14	60949.89
585.30	60877.33
585.46	61041.17
585.62	60851.59
585.78	60973.30
585.94	60945.21
586.10	60968.61
586.26	60804.78
586.42	60900.74
586.58	61080.96
586.74	61071.60
586.90	60903.08
587.06	60858.61
587.22	60996.70
587.38	60989.68
587.54	61195.65
587.70	60935.85
587.86	60999.04
588.02	60823.50
588.18	61322.04
588.34	61102.03
588.49	60907.76
