SpectraSuite Data File
++++++++++++++++++++++++++++++++++++
Date: Fri Oct 25 11:22:36 EDT 2013
User: price-jones
Dark Spectrum Present: No
Reference Spectrum Present: No
Number of Sampled Component Spectra: 1
Spectrometers: USB2+H05261
Integration Time (usec): 100000 (USB2+H05261)
Spectra Averaged: 1 (USB2+H05261)
Boxcar Smoothing: 0 (USB2+H05261)
Correct for Electrical Dark: No (USB2+H05261)
Strobe/Lamp Enabled: No (USB2+H05261)
Correct for Detector Non-linearity: No (USB2+H05261)
Correct for Stray Light: No (USB2+H05261)
Number of Pixels in Processed Spectrum: 2048
>>>>>Begin Processed Spectral Data<<<<<
365.73	271.50
365.92	271.50
366.12	271.50
366.32	140.43
366.52	147.45
366.72	205.97
366.91	53.83
367.11	72.56
367.31	114.69
367.51	79.58
367.70	124.05
367.90	173.20
368.10	67.88
368.30	88.94
368.49	63.19
368.69	124.05
368.89	220.01
369.09	159.16
369.28	131.07
369.48	121.71
369.68	220.01
369.87	166.18
370.07	110.01
370.27	210.65
370.47	330.02
370.66	547.69
370.86	657.69
371.06	657.69
371.25	599.18
371.45	657.69
371.65	669.39
371.84	681.10
372.04	716.20
372.24	763.01
372.44	634.29
372.63	751.31
372.83	737.27
373.03	779.40
373.22	758.33
373.42	739.61
373.62	770.04
373.81	802.80
374.01	765.36
374.21	732.59
374.40	833.23
374.60	807.48
374.79	835.57
374.99	814.51
375.19	805.14
375.38	851.96
375.58	842.59
375.78	786.42
375.97	795.78
376.17	851.96
376.37	844.93
376.56	873.02
376.76	821.53
376.95	882.38
377.15	891.74
377.35	922.17
377.54	926.85
377.74	936.21
377.93	847.27
378.13	863.66
378.33	908.13
378.52	947.92
378.72	889.40
378.91	940.90
379.11	968.98
379.31	940.90
379.50	936.21
379.70	968.98
379.89	1015.79
380.09	933.87
380.28	1018.13
380.48	978.34
380.68	1015.79
380.87	877.70
381.07	924.51
381.26	1025.15
381.46	1018.13
381.65	1008.77
381.85	985.37
382.04	1001.75
382.24	1093.03
382.43	966.64
382.63	957.28
382.83	1067.28
383.02	1064.94
383.22	1153.88
383.41	1149.20
383.61	1203.04
383.80	1156.22
384.00	1146.86
384.19	1156.22
384.39	1174.95
384.58	1118.78
384.78	1172.61
384.97	1231.12
385.17	1104.73
385.36	1200.69
385.56	1163.25
385.75	1158.57
385.95	1228.78
386.14	1153.88
386.34	1303.68
386.53	1160.91
386.72	1254.53
386.92	1273.25
387.11	1291.98
387.31	1350.49
387.50	1373.89
387.70	1289.64
387.89	1259.21
388.09	1224.10
388.28	1296.66
388.48	1291.98
388.67	1259.21
388.86	1331.76
389.06	1289.64
389.25	1310.70
389.45	1383.26
389.64	1313.04
389.84	1427.73
390.03	1364.53
390.22	1420.71
390.42	1364.53
390.61	1338.79
390.81	1327.08
391.00	1392.62
391.19	1425.39
391.39	1355.17
391.58	1448.79
391.78	1460.49
391.97	1502.62
392.16	1455.81
392.36	1521.35
392.55	1598.59
392.75	1600.93
392.94	1511.99
393.13	1504.96
393.33	1554.12
393.52	1636.03
393.71	1631.35
393.91	1570.50
394.10	1577.52
394.29	1556.46
394.49	1570.50
394.68	1673.48
394.88	1530.71
395.07	1612.63
395.26	1607.95
395.46	1692.21
395.65	1790.51
395.84	1629.01
396.04	1732.00
396.23	1661.78
396.42	1863.07
396.62	1877.11
396.81	1687.53
397.00	1736.68
397.19	1886.47
397.39	1816.26
397.58	1790.51
397.77	1769.44
397.97	1860.73
398.16	1858.39
398.35	1842.00
398.55	1874.77
398.74	1919.24
398.93	1914.56
399.12	1844.34
399.32	2024.56
399.51	2010.52
399.70	2047.97
399.90	2031.58
400.09	2054.99
400.28	1923.92
400.47	2024.56
400.67	2167.34
400.86	2045.63
401.05	2054.99
401.24	2069.03
401.44	2176.70
401.63	2120.53
401.82	2186.06
402.01	2078.40
402.21	2193.08
402.40	2099.46
402.59	2242.23
402.78	2225.85
402.97	2289.04
403.17	2284.36
403.36	2399.05
403.55	2263.30
403.74	2385.01
403.93	2408.41
404.13	2399.05
404.32	2359.26
404.51	2363.94
404.70	2480.97
404.89	2434.16
405.09	2583.95
405.28	2457.56
405.47	2448.20
405.66	2630.76
405.85	2560.55
406.05	2487.99
406.24	2537.14
406.43	2576.93
406.62	2679.91
406.81	2778.22
407.00	2679.91
407.20	2548.84
407.39	2539.48
407.58	2597.99
407.77	2698.64
407.96	2930.35
408.15	2904.60
408.34	2780.56
408.54	2810.98
408.73	2806.30
408.92	2904.60
409.11	2913.97
409.30	2768.85
409.49	2825.03
409.68	2991.20
409.87	2867.16
410.07	3028.65
410.26	2937.37
410.45	3045.04
410.64	3021.63
410.83	3204.19
411.02	3136.32
411.21	3112.91
411.40	3171.43
411.59	3258.03
411.78	3220.58
411.98	3300.16
412.17	3243.98
412.36	3286.11
412.55	3377.39
412.74	3435.91
412.93	3358.67
413.12	3384.41
413.31	3620.81
413.50	3559.95
413.69	3417.18
413.88	3634.85
414.07	3620.81
414.26	3660.60
414.45	3723.79
414.64	3613.79
414.83	3728.47
415.02	3812.73
415.22	3838.48
415.41	4032.74
415.60	3913.38
415.79	3934.44
415.98	4030.40
416.17	4002.32
416.36	3911.04
416.55	3995.29
416.74	4156.79
416.93	4100.62
417.12	4058.49
417.31	4046.79
417.50	4241.05
417.69	4367.44
417.88	4217.65
418.07	4248.07
418.26	4407.23
418.45	4414.25
418.64	4376.80
418.83	4280.84
419.02	4486.81
419.21	4526.60
419.39	4451.70
419.58	4404.89
419.77	4442.34
419.96	4613.20
420.15	4641.28
420.34	4624.90
420.53	4741.93
420.72	4709.16
420.91	4613.20
421.10	4835.55
421.29	4809.80
421.48	4711.50
421.67	4898.74
421.86	4795.76
422.05	4723.20
422.24	4770.01
422.43	4781.71
422.61	4877.68
422.80	4936.19
422.99	4905.76
423.18	4983.00
423.37	5048.54
423.56	4844.91
423.75	4973.64
423.94	4826.18
424.13	4753.63
424.32	4793.42
424.50	5083.64
424.69	5146.84
424.88	5093.01
425.07	4978.32
425.26	4950.23
425.45	4924.49
425.64	4945.55
425.83	5011.09
426.01	5170.24
426.20	5172.58
426.39	5149.18
426.58	5109.39
426.77	5132.79
426.96	5135.14
427.15	5151.52
427.33	5195.99
427.52	5397.28
427.71	5280.25
427.90	5331.74
428.09	5390.25
428.28	5528.35
428.46	5310.68
428.65	5495.58
428.84	5509.62
429.03	5612.60
429.22	5378.55
429.40	5533.03
429.59	5437.06
429.78	5362.17
429.97	5408.98
430.16	5530.69
430.34	5535.37
430.53	5638.35
430.72	5626.65
430.91	5771.76
431.10	5692.18
431.28	5795.17
431.47	5692.18
431.66	5827.93
431.85	5724.95
432.03	5778.78
432.22	6005.81
432.41	5921.56
432.60	5954.32
432.79	6015.18
432.97	6087.73
433.16	6127.52
433.35	5959.00
433.54	6092.41
433.72	6253.91
433.91	6174.33
434.10	6183.70
434.28	6017.52
434.47	6244.55
434.66	6143.91
434.85	6207.10
435.03	6476.26
435.22	6354.55
435.41	6621.38
435.59	6595.63
435.78	6576.91
435.97	6441.15
436.16	6485.62
436.34	6494.99
436.53	6546.48
436.72	6654.14
436.90	6478.60
437.09	6759.47
437.28	6513.71
437.46	6626.06
437.65	6778.19
437.84	6895.22
438.02	6738.40
438.21	6890.54
438.40	6733.72
438.58	7122.25
438.77	7068.42
438.96	7089.48
439.14	7040.33
439.33	7138.63
439.52	7346.94
439.70	7178.42
439.89	7283.75
440.08	7375.03
440.26	7283.75
440.45	7611.42
440.63	7712.07
440.82	7527.16
441.01	7660.57
441.19	7747.17
441.38	7740.15
441.57	7691.00
441.75	8016.33
441.94	8018.68
442.12	8124.00
442.31	8095.91
442.50	8086.55
442.68	7992.93
442.87	8266.77
443.05	8353.37
443.24	8322.94
443.43	8203.58
443.61	8203.58
443.80	8521.89
443.98	8100.59
444.17	8023.36
444.35	8262.09
444.54	8451.67
444.73	8290.18
444.91	8393.16
445.10	8374.44
445.28	8252.73
445.47	8187.19
445.65	8332.31
445.84	8421.25
446.02	8568.70
446.21	8409.54
446.39	8311.24
446.58	8769.99
446.77	8489.12
446.95	8360.39
447.14	8507.85
447.32	8636.58
447.51	8430.61
447.69	8472.74
447.88	8585.08
448.06	8683.39
448.25	8762.97
448.43	8664.66
448.62	8573.38
448.80	8613.17
448.99	8702.11
449.17	8840.20
449.36	8718.50
449.54	8819.14
449.73	9050.85
449.91	9170.22
450.10	9137.45
450.28	9095.32
450.46	9312.99
450.65	9205.33
450.83	9132.77
451.02	9074.26
451.20	9205.33
451.39	9242.78
451.57	9254.48
451.76	9270.86
451.94	9298.95
452.13	9336.40
452.31	9465.13
452.49	9430.02
452.68	9612.58
452.86	9619.60
453.05	9462.79
453.23	9437.04
453.42	9547.05
453.60	9404.27
453.78	9703.86
453.97	9460.45
454.15	9628.96
454.34	9540.02
454.52	9853.66
454.70	9652.37
454.89	9745.99
455.07	9795.14
455.26	9870.04
455.44	10157.92
455.62	9947.28
455.81	9980.04
455.99	10265.59
456.17	10303.04
456.36	10118.14
456.54	10057.28
456.73	10284.31
456.91	10511.35
457.09	10478.58
457.28	10810.93
457.46	10380.28
457.64	10363.89
457.83	10296.02
458.01	10635.39
458.19	10806.25
458.38	10614.33
458.56	10789.87
458.74	10794.55
458.93	10726.68
459.11	10869.45
459.29	10700.93
459.48	10768.80
459.66	10817.96
459.84	11192.44
460.03	11206.48
460.21	11070.73
460.39	11286.06
460.57	11169.04
460.76	11133.93
460.94	11456.92
461.12	11391.39
461.31	11248.61
461.49	11279.04
461.67	11421.81
461.85	11171.38
462.04	11304.79
462.22	11779.92
462.40	11578.63
462.59	11602.04
462.77	11716.72
462.95	11852.47
463.13	11674.59
463.32	11627.78
463.50	11770.55
463.68	11934.39
463.86	11840.77
464.05	11690.98
464.23	11880.56
464.41	11901.62
464.59	11723.74
464.78	12372.07
464.96	12002.27
465.14	11861.84
465.32	12156.74
465.50	12407.18
465.69	12425.90
465.87	12098.23
466.05	12191.85
466.23	12379.09
466.41	12390.80
466.60	12573.36
466.78	12280.79
466.96	12177.81
467.14	12255.04
467.32	12517.18
467.51	12638.89
467.69	12400.16
467.87	12505.48
468.05	12812.09
468.23	12606.13
468.41	12781.67
468.60	12620.17
468.78	12648.26
468.96	12762.94
469.14	13036.78
469.32	13046.15
469.50	12870.61
469.69	13039.12
469.87	13509.57
470.05	13238.07
470.23	13415.95
470.41	13392.55
470.59	13500.21
470.77	13495.53
470.95	13406.59
471.14	13650.00
471.32	13291.90
471.50	13507.23
471.68	13745.97
471.86	13905.12
472.04	13678.09
472.22	14066.62
472.40	13914.48
472.58	13916.83
472.77	14157.90
472.95	14434.08
473.13	14714.95
473.31	14132.15
473.49	14281.95
473.67	14487.92
473.85	14530.05
474.03	14649.41
474.21	14820.27
474.39	14927.94
474.57	14691.54
474.75	15264.97
474.93	15396.04
475.12	15129.22
475.30	15234.55
475.48	15297.74
475.66	15477.96
475.84	15534.14
476.02	15695.63
476.20	15594.99
476.38	15847.77
476.56	16093.52
476.74	16147.36
476.92	16156.72
477.10	16042.03
477.28	16379.07
477.46	16386.09
477.64	16615.46
477.82	16774.62
478.00	17415.93
478.18	16863.56
478.36	16992.29
478.54	17514.23
478.72	17394.86
478.90	17507.21
479.08	17722.54
479.26	17664.02
479.44	18068.94
479.62	17809.14
479.80	18324.05
479.98	18218.73
480.16	18824.93
480.34	18356.82
480.52	19009.83
480.70	19019.19
480.88	18710.24
481.06	19178.35
481.24	18986.43
481.41	19548.15
481.59	19494.32
481.77	19681.56
481.95	19740.08
482.13	19988.18
482.31	20013.92
482.49	20521.82
482.67	20648.21
482.85	20500.75
483.03	20865.88
483.21	21010.99
483.39	21116.31
483.57	21233.34
483.74	21289.51
483.92	21467.39
484.10	21359.73
484.28	21996.35
484.46	22141.47
484.64	22728.94
484.82	22513.61
485.00	22700.86
485.18	22995.76
485.35	23328.12
485.53	22632.98
485.71	23147.90
485.89	23700.26
486.07	23608.98
486.25	23498.98
486.43	24140.29
486.61	24105.18
486.78	24044.32
486.96	24465.62
487.14	24765.21
487.32	24587.33
487.50	24737.12
487.68	25413.54
487.85	25764.62
488.03	25834.83
488.21	26012.71
488.39	26216.34
488.57	26443.37
488.75	26419.97
488.92	26848.29
489.10	26955.95
489.28	27213.41
489.46	27283.62
489.64	27250.86
489.81	27938.97
489.99	27920.25
490.17	28194.09
490.35	28084.09
490.53	28428.15
490.70	28926.68
490.88	29022.64
491.06	28809.65
491.24	29259.04
491.41	29067.11
491.59	29406.49
491.77	29804.38
491.95	29825.45
492.13	30309.94
492.30	30115.67
492.48	30347.39
492.66	30403.56
492.84	30742.94
493.01	30888.05
493.19	31049.55
493.37	31344.45
493.54	31454.46
493.72	31868.73
493.90	31962.36
494.08	31660.43
494.25	32048.96
494.43	32367.27
494.61	32886.87
494.79	32816.65
494.96	32786.22
495.14	32776.86
495.32	33731.80
495.49	33649.88
495.67	33722.44
495.85	33982.24
496.02	34164.80
496.20	34426.94
496.38	34497.16
496.55	34644.61
496.73	35091.65
496.91	34836.53
497.09	35276.55
497.26	35129.10
497.44	35438.05
497.62	35742.32
497.79	36741.73
497.97	35819.56
498.14	36194.04
498.32	36086.38
498.50	36591.94
498.67	36807.26
498.85	36517.04
499.03	37322.18
499.20	37024.93
499.38	37441.55
499.56	37546.87
499.73	37102.17
499.91	37483.68
500.08	38265.42
500.26	37612.41
500.44	37914.34
500.61	38775.66
500.79	38134.35
500.97	38132.01
501.14	39248.44
501.32	39000.35
501.49	38932.47
501.67	38906.73
501.84	38967.58
502.02	38981.62
502.20	39515.26
502.37	39489.52
502.55	39782.09
502.72	39651.02
502.90	40238.49
503.07	39896.77
503.25	40620.00
503.43	40100.40
503.60	40327.43
503.78	40879.80
503.95	40170.61
504.13	40650.42
504.30	40999.16
504.48	40697.24
504.65	41399.40
504.83	41567.91
505.01	41808.99
505.18	41771.54
505.36	41909.63
505.53	41429.82
505.71	42078.15
505.88	42761.59
506.06	41893.25
506.23	42972.24
506.41	42216.24
506.58	41993.89
506.76	42756.91
506.93	42906.70
507.11	42705.41
507.28	42817.76
507.46	43466.09
507.63	43068.20
507.81	43082.24
507.98	43147.78
508.16	43522.26
508.33	43782.06
508.50	43618.22
508.68	43903.77
508.85	44201.02
509.03	44399.96
509.20	44470.18
509.38	44942.97
509.55	44926.58
509.73	44947.65
509.90	44910.20
510.08	44664.44
510.25	45165.32
510.42	44774.45
510.60	45062.33
510.77	45841.73
510.95	45659.17
511.12	45525.76
511.30	45661.51
511.47	45804.28
511.64	46267.71
511.82	46188.13
511.99	46085.15
512.17	46241.96
512.34	46330.90
512.51	46445.59
512.69	46754.54
512.86	46714.75
513.04	47061.15
513.21	47070.51
513.38	47159.45
513.56	47395.85
513.73	47386.49
513.90	47035.41
514.08	47618.20
514.25	48048.86
514.43	47892.04
514.60	47985.66
514.77	48018.43
514.95	48224.40
515.12	47922.47
515.29	47835.87
515.47	48376.53
515.64	48421.00
515.81	48196.31
515.99	48671.44
516.16	49319.77
516.33	48751.02
516.51	49240.19
516.68	49052.95
516.85	48975.71
517.03	49219.13
517.20	49148.91
517.37	49272.96
517.54	49455.52
517.72	49663.83
517.89	49537.44
518.06	49474.24
518.24	49326.79
518.41	49420.41
518.58	49851.07
518.75	49584.25
518.93	49645.10
519.10	49820.64
519.27	50078.10
519.45	49958.73
519.62	50138.96
519.79	50197.47
519.96	50443.23
520.14	50485.36
520.31	50593.02
520.48	51093.89
520.65	50635.15
520.83	50787.28
521.00	51313.90
521.17	51021.34
521.34	51285.82
521.52	50696.00
521.69	50848.14
521.86	51264.75
522.03	51578.39
522.20	51821.80
522.38	51543.28
522.55	52016.07
522.72	51573.70
522.89	52147.14
523.07	52189.27
523.24	52083.94
523.41	52009.04
523.58	51868.61
523.75	52458.43
523.92	52116.71
524.10	52357.78
524.27	52336.72
524.44	52495.88
524.61	52519.28
524.78	52339.06
524.96	52299.27
525.13	52636.31
525.30	53057.60
525.47	52687.80
525.64	52879.72
525.81	52975.69
525.98	53191.01
526.16	53038.88
526.33	53200.38
526.50	53083.35
526.67	53207.40
526.84	53221.44
527.01	53270.59
527.18	53176.97
527.36	53186.33
527.53	53347.83
527.70	53682.53
527.87	53581.88
528.04	53312.72
528.21	53530.39
528.38	53591.25
528.55	54129.57
528.72	53698.91
528.89	53975.09
529.07	53275.27
529.24	53729.34
529.41	54092.12
529.58	54244.26
529.75	53951.69
529.92	54103.82
530.09	54129.57
530.26	53998.50
530.43	54351.92
530.60	54129.57
530.77	54092.12
530.94	54309.79
531.11	54438.52
531.28	54534.48
531.46	54534.48
531.63	54478.31
531.80	54424.48
531.97	54688.96
532.14	54990.89
532.31	54553.21
532.48	54925.35
532.65	54869.18
532.82	54766.20
532.99	54885.56
533.16	54677.25
533.33	55150.04
533.50	55159.41
533.67	55164.09
533.84	54990.89
534.01	55379.42
534.18	55084.51
534.35	55620.49
534.52	55341.97
534.69	55650.92
534.86	55859.23
535.03	55501.12
535.20	55468.36
535.37	55667.30
535.54	55716.45
535.71	55618.15
535.88	55524.53
536.05	55655.60
536.22	55767.94
536.38	55917.74
536.55	56011.36
536.72	55810.07
536.89	55920.08
537.06	56030.08
537.23	56088.60
537.40	55952.85
537.57	55934.12
537.74	56067.53
537.91	56383.51
538.08	56104.98
538.25	56079.24
538.42	56135.41
538.59	56437.34
538.75	55966.89
538.92	56287.54
539.09	56427.98
539.26	56460.74
539.43	56369.46
539.60	56502.87
539.77	56133.07
539.94	56584.79
540.11	56535.64
540.28	56589.47
540.44	56762.67
540.61	56781.40
540.78	56694.80
540.95	56669.05
541.12	56549.68
541.29	56935.87
541.46	56839.91
541.62	57027.15
541.79	56900.76
541.96	56563.73
542.13	56687.78
542.30	56825.87
542.47	56949.92
542.63	57055.24
542.80	57251.84
542.97	57272.91
543.14	57422.70
543.31	57523.35
543.48	57602.92
543.64	57553.77
543.81	57623.99
543.98	57560.79
544.15	57666.12
544.32	57572.50
544.48	57759.74
544.65	57783.15
544.82	57481.22
544.99	57586.54
545.16	57858.04
545.32	57392.28
545.49	57942.30
545.66	58082.73
545.83	58124.86
546.00	58089.76
546.16	58059.33
546.33	57808.89
546.50	57865.06
546.67	58005.50
546.83	57909.53
547.00	58024.22
547.17	58227.85
547.34	57991.45
547.50	58302.74
547.67	58269.98
547.84	58349.56
548.00	58588.29
548.17	58522.76
548.34	58305.09
548.51	58438.50
548.67	58473.60
548.84	58426.79
549.01	58197.42
549.18	58478.28
549.34	58548.50
549.51	58754.47
549.68	58777.87
549.84	58529.78
550.01	58717.02
550.18	58513.39
550.34	58497.01
550.51	58614.04
550.68	58468.92
550.84	58375.30
551.01	58766.17
551.18	58827.02
551.34	58742.77
551.51	58810.64
551.68	58988.52
551.84	58911.28
552.01	58677.23
552.18	59250.66
552.34	58805.96
552.51	59128.95
552.68	58599.99
552.84	58922.99
553.01	59231.94
553.18	59086.82
553.34	59154.70
553.51	58937.03
553.67	59082.14
553.84	59203.85
554.01	59040.01
554.17	59089.16
554.34	59391.09
554.51	59309.18
554.67	59194.49
554.84	59147.68
555.00	59210.87
555.17	59248.32
555.33	59400.46
555.50	59117.25
555.67	59339.60
555.83	59320.88
556.00	59313.86
556.16	59683.66
556.33	59653.23
556.50	59601.74
556.66	59620.47
556.83	59559.61
556.99	59756.22
557.16	59756.22
557.32	59742.17
557.49	59859.20
557.65	59723.45
557.82	59730.47
557.98	59693.02
558.15	59730.47
558.32	59674.30
558.48	59599.40
558.65	59817.07
558.81	59730.47
558.98	59840.48
559.14	59817.07
559.31	59976.23
559.47	59894.31
559.64	60083.89
559.80	60030.06
559.97	59943.46
560.13	59973.89
560.30	59969.21
560.46	60032.40
560.63	59966.87
560.79	59929.42
560.96	60114.32
561.12	60086.23
561.29	60144.75
561.45	60060.49
561.61	60320.29
561.78	60147.09
561.94	60137.72
562.11	60126.02
562.27	60067.51
562.44	60210.28
562.60	60275.82
562.77	60161.13
562.93	60123.68
563.10	60156.45
563.26	60076.87
563.42	60453.70
563.59	60369.44
563.75	60186.88
563.92	60186.88
564.08	60331.99
564.24	60481.78
564.41	60392.84
564.57	60446.68
564.74	60299.22
564.90	60423.27
565.07	60275.82
565.23	60390.50
565.39	60528.59
565.56	60331.99
565.72	60439.65
565.88	60617.53
566.05	60285.18
566.21	60381.14
566.38	60598.81
566.54	60537.96
566.70	60779.03
566.87	60612.85
567.03	60383.48
567.19	60755.63
567.36	60411.57
567.52	60406.89
567.68	60762.65
567.85	60603.49
568.01	60619.88
568.17	60626.90
568.34	60556.68
568.50	60683.07
568.66	60544.98
568.83	60633.92
568.99	60509.87
569.15	60664.35
569.32	60601.15
569.48	60652.64
569.64	60851.59
569.81	60577.75
569.97	60734.56
570.13	60519.23
570.30	60591.79
570.46	60856.27
570.62	60636.26
570.78	60713.50
570.95	60891.38
571.11	60764.99
571.27	60804.78
571.43	60767.33
571.60	60889.04
571.76	60804.78
571.92	60870.31
572.09	60786.05
572.25	60863.29
572.41	60725.20
572.57	60683.07
572.74	61268.20
572.90	60795.42
573.06	60963.93
573.22	60837.54
573.38	60935.85
573.55	61027.13
573.71	60975.64
573.87	60879.67
574.03	60603.49
574.20	60830.52
574.36	60863.29
574.52	60933.51
574.68	61127.77
574.84	61041.17
575.01	60973.30
575.17	60956.91
575.33	60942.87
575.49	60807.12
575.65	60954.57
575.82	61212.03
575.98	60856.27
576.14	61148.84
576.30	61137.13
576.46	61006.06
576.62	60858.61
576.79	61118.41
576.95	61034.15
577.11	61024.79
577.27	60987.34
577.43	61050.53
577.59	61013.08
577.75	60884.36
577.92	60802.44
578.08	61169.90
578.24	60966.27
578.40	61258.84
578.56	61144.16
578.72	61052.87
578.88	61209.69
579.04	61160.54
579.21	61059.90
579.37	61254.16
579.53	61118.41
579.69	60954.57
579.85	61043.51
580.01	60966.27
580.17	61052.87
580.33	61261.18
580.49	61160.54
580.65	60963.93
580.82	61055.21
580.98	61146.50
581.14	60959.25
581.30	61179.26
581.46	61113.73
581.62	61221.39
581.78	61195.65
581.94	61116.07
582.10	61221.39
582.26	61034.15
582.42	61197.99
582.58	61162.88
582.74	61181.60
582.90	61104.37
583.06	61087.98
583.22	61066.92
583.38	61169.90
583.54	61289.27
583.70	61303.31
583.86	61340.76
584.02	61176.92
584.18	61174.58
584.34	61118.41
584.50	61097.34
584.66	61162.88
584.82	61071.60
584.98	61279.91
585.14	61357.14
585.30	61050.53
585.46	61254.16
585.62	61214.37
585.78	61272.88
585.94	60910.10
586.10	61357.14
586.26	61368.85
586.42	61303.31
586.58	61317.35
586.74	61155.86
586.90	61230.75
587.06	61165.22
587.22	61513.96
587.38	61331.40
587.54	61495.24
587.70	61556.09
587.86	61399.27
588.02	61446.08
588.18	61630.99
588.34	61439.06
588.49	61399.27
