SpectraSuite Data File
++++++++++++++++++++++++++++++++++++
Date: Fri Oct 25 11:23:23 EDT 2013
User: price-jones
Dark Spectrum Present: No
Reference Spectrum Present: No
Number of Sampled Component Spectra: 1
Spectrometers: USB2+H05261
Integration Time (usec): 100000 (USB2+H05261)
Spectra Averaged: 1 (USB2+H05261)
Boxcar Smoothing: 0 (USB2+H05261)
Correct for Electrical Dark: No (USB2+H05261)
Strobe/Lamp Enabled: No (USB2+H05261)
Correct for Detector Non-linearity: No (USB2+H05261)
Correct for Stray Light: No (USB2+H05261)
Number of Pixels in Processed Spectrum: 2048
>>>>>Begin Processed Spectral Data<<<<<
365.73	252.78
365.92	252.78
366.12	252.78
366.32	133.41
366.52	77.24
366.72	135.75
366.91	163.84
367.11	168.52
367.31	88.94
367.51	70.22
367.70	133.41
367.90	154.48
368.10	138.09
368.30	156.82
368.49	65.54
368.69	102.98
368.89	124.05
369.09	128.73
369.28	245.76
369.48	166.18
369.68	154.48
369.87	222.35
370.07	170.86
370.27	184.90
370.47	318.31
370.66	692.80
370.86	617.90
371.06	709.18
371.25	669.39
371.45	685.78
371.65	594.50
371.84	660.03
372.04	734.93
372.24	683.44
372.44	643.65
372.63	697.48
372.83	730.25
373.03	695.14
373.22	723.23
373.42	786.42
373.62	709.18
373.81	802.80
374.01	695.14
374.21	835.57
374.40	809.83
374.60	791.10
374.79	800.46
374.99	767.70
375.19	917.49
375.38	856.64
375.58	877.70
375.78	842.59
375.97	828.55
376.17	940.90
376.37	821.53
376.56	889.40
376.76	800.46
376.95	940.90
377.15	854.30
377.35	835.57
377.54	908.13
377.74	896.43
377.93	915.15
378.13	929.19
378.33	889.40
378.52	891.74
378.72	954.94
378.91	961.96
379.11	877.70
379.31	898.77
379.50	922.17
379.70	1025.15
379.89	1020.47
380.09	891.74
380.28	1039.20
380.48	983.02
380.68	882.38
380.87	961.96
381.07	1004.09
381.26	957.28
381.46	1020.47
381.65	961.96
381.85	987.71
382.04	1039.20
382.24	1053.24
382.43	1018.13
382.63	1104.73
382.83	1100.05
383.02	1107.07
383.22	1071.97
383.41	1102.39
383.61	1170.27
383.80	1172.61
384.00	1149.20
384.19	1142.18
384.39	1231.12
384.58	1088.35
384.78	1078.99
384.97	1109.41
385.17	1165.59
385.36	1249.85
385.56	1121.12
385.75	1151.54
385.95	1132.82
386.14	1135.16
386.34	1224.10
386.53	1207.72
386.72	1172.61
386.92	1221.76
387.11	1235.80
387.31	1306.02
387.50	1228.78
387.70	1263.89
387.89	1212.40
388.09	1282.61
388.28	1371.55
388.48	1327.08
388.67	1434.75
388.86	1345.81
389.06	1390.28
389.25	1336.45
389.45	1373.89
389.64	1385.60
389.84	1425.39
390.03	1401.98
390.22	1392.62
390.42	1430.07
390.61	1383.26
390.81	1336.45
391.00	1420.71
391.19	1416.02
391.39	1453.47
391.58	1516.67
391.78	1437.09
391.97	1530.71
392.16	1362.19
392.36	1371.55
392.55	1565.82
392.75	1437.09
392.94	1441.77
393.13	1476.88
393.33	1467.52
393.52	1547.09
393.71	1526.03
393.91	1558.80
394.10	1474.54
394.29	1659.44
394.49	1598.59
394.68	1710.93
394.88	1582.20
395.07	1720.29
395.26	1692.21
395.46	1715.61
395.65	1605.61
395.84	1727.32
396.04	1685.19
396.23	1739.02
396.42	1671.14
396.62	1792.85
396.81	1888.81
397.00	1729.66
397.19	1783.49
397.39	1785.83
397.58	1849.02
397.77	1818.60
397.97	1860.73
398.16	1834.98
398.35	1947.33
398.55	1888.81
398.74	1874.77
398.93	1973.07
399.12	1923.92
399.32	1912.22
399.51	1998.82
399.70	2092.44
399.90	1909.88
400.09	1963.71
400.28	2054.99
400.47	1984.77
400.67	1926.26
400.86	2094.78
401.05	2066.69
401.24	2132.23
401.44	2106.48
401.63	2115.84
401.82	2069.03
402.01	2080.74
402.21	2277.34
402.40	2284.36
402.59	2169.68
402.78	2174.36
402.97	2094.78
403.17	2225.85
403.36	2270.32
403.55	2317.13
403.74	2291.38
403.93	2368.62
404.13	2319.47
404.32	2326.49
404.51	2359.26
404.70	2380.32
404.89	2413.09
405.09	2459.90
405.28	2478.63
405.47	2431.82
405.66	2455.22
405.85	2487.99
406.05	2553.52
406.24	2675.23
406.43	2534.80
406.62	2677.57
406.81	2656.51
407.00	2750.13
407.20	2658.85
407.39	2602.68
407.58	2665.87
407.77	2878.86
407.96	2836.73
408.15	2740.77
408.34	2661.19
408.54	2818.00
408.73	2796.94
408.92	2782.90
409.11	2818.00
409.30	2963.12
409.49	2895.24
409.68	2892.90
409.87	2937.37
410.07	2923.33
410.26	3066.10
410.45	2960.78
410.64	2967.80
410.83	3098.87
411.02	3117.59
411.21	3141.00
411.40	3096.53
411.59	3361.01
411.78	3166.74
411.98	3096.53
412.17	3269.73
412.36	3370.37
412.55	3300.16
412.74	3435.91
412.93	3346.97
413.12	3377.39
413.31	3599.74
413.50	3482.72
413.69	3393.78
413.88	3618.47
414.07	3590.38
414.26	3679.32
414.45	3744.86
414.64	3789.33
414.83	3770.60
415.02	3733.15
415.22	3810.39
415.41	3875.93
415.60	3861.88
415.79	3988.27
415.98	3932.10
416.17	3810.39
416.36	3978.91
416.55	3974.23
416.74	4044.45
416.93	4037.42
417.12	4196.58
417.31	4109.98
417.50	4215.30
417.69	4238.71
417.88	4374.46
418.07	4234.03
418.26	4304.25
418.45	4327.65
418.64	4383.82
418.83	4379.14
419.02	4388.50
419.21	4507.87
419.39	4461.06
419.58	4559.36
419.77	4491.49
419.96	4624.90
420.15	4641.28
420.34	4678.73
420.53	4571.07
420.72	4793.42
420.91	4652.98
421.10	4856.61
421.29	4777.03
421.48	4578.09
421.67	4734.90
421.86	4767.67
422.05	4758.31
422.24	4901.08
422.43	4856.61
422.61	4753.63
422.80	4896.40
422.99	4844.91
423.18	4929.17
423.37	5036.83
423.56	4748.95
423.75	5032.15
423.94	4987.68
424.13	4685.75
424.32	4830.87
424.50	5006.41
424.69	5172.58
424.88	5149.18
425.07	4929.17
425.26	5022.79
425.45	5062.58
425.64	4905.76
425.83	4978.32
426.01	5004.07
426.20	5050.88
426.39	5081.30
426.58	5116.41
426.77	5219.39
426.96	5121.09
427.15	5179.61
427.33	5275.57
427.52	5348.12
427.71	5387.91
427.90	5263.86
428.09	5322.38
428.28	5341.10
428.46	5287.27
428.65	5270.89
428.84	5643.03
429.03	5376.21
429.22	5313.02
429.40	5507.28
429.59	5556.43
429.78	5226.42
429.97	5383.23
430.16	5628.99
430.34	5837.30
430.53	5591.54
430.72	5671.12
430.91	5650.05
431.10	5628.99
431.28	5771.76
431.47	5746.02
431.66	5940.28
431.85	5877.09
432.03	6040.92
432.22	5970.71
432.41	5881.77
432.60	5846.66
432.79	5956.66
432.97	6029.22
433.16	5902.83
433.35	5916.87
433.54	5963.68
433.72	6033.90
433.91	6129.86
434.10	6111.14
434.28	5998.79
434.47	6143.91
434.66	6349.87
434.85	6300.72
435.03	6377.96
435.22	6366.26
435.41	6593.29
435.59	6375.62
435.78	6534.78
435.97	6354.55
436.16	6513.71
436.34	6356.90
436.53	6445.84
436.72	6745.42
436.90	6630.74
437.09	6745.42
437.28	6480.94
437.46	6726.70
437.65	6684.57
437.84	6778.19
438.02	6696.27
438.21	6722.02
438.40	6658.82
438.58	6897.56
438.77	6853.09
438.96	6883.52
439.14	7110.55
439.33	7133.95
439.52	7152.68
439.70	7335.24
439.89	7501.42
440.08	7426.52
440.26	7368.01
440.45	7358.64
440.63	7459.29
440.82	7564.61
441.01	7625.47
441.19	7517.80
441.38	7761.22
441.57	7831.43
441.75	7960.16
441.94	8018.68
442.12	7908.67
442.31	7978.89
442.50	8046.76
442.68	7892.29
442.87	8124.00
443.05	8028.04
443.24	8238.69
443.43	8138.04
443.61	8243.37
443.80	8528.91
443.98	7929.74
444.17	7894.63
444.35	8329.97
444.54	8376.78
444.73	8196.56
444.91	8383.80
445.10	8301.88
445.28	8416.57
445.47	8346.35
445.65	8475.08
445.84	8416.57
446.02	8531.25
446.21	8641.26
446.39	8531.25
446.58	8549.98
446.77	8575.72
446.95	8215.28
447.14	8599.13
447.32	8629.56
447.51	8655.30
447.69	8589.77
447.88	8418.91
448.06	8498.49
448.25	8411.89
448.43	8594.45
448.62	8489.12
448.80	8732.54
448.99	8491.46
449.17	8884.67
449.36	8517.21
449.54	9020.42
449.73	8987.66
449.91	8877.65
450.10	8940.85
450.28	9062.55
450.46	9015.74
450.65	9041.49
450.83	8978.30
451.02	8964.25
451.20	9242.78
451.39	9020.42
451.57	9291.93
451.76	9139.79
451.94	9261.50
452.13	9535.34
452.31	9317.67
452.49	9312.99
452.68	9502.58
452.86	9336.40
453.05	9469.81
453.23	9446.40
453.42	9355.12
453.60	9518.96
453.78	9619.60
453.97	9495.55
454.15	9551.73
454.34	9596.20
454.52	9813.87
454.70	9722.59
454.89	9951.96
455.07	9958.98
455.26	9944.94
455.44	10099.41
455.62	9994.09
455.81	9874.72
455.99	9984.73
456.17	10101.75
456.36	10113.45
456.54	10242.18
456.73	10317.08
456.91	10504.32
457.09	10534.75
457.28	10581.56
457.46	10434.11
457.64	10647.10
457.83	10480.92
458.01	10565.18
458.19	10904.56
458.38	10649.44
458.56	10647.10
458.74	10754.76
458.93	10904.56
459.11	10621.35
459.29	10846.04
459.48	10862.43
459.66	11042.65
459.84	10827.32
460.03	11180.74
460.21	11164.36
460.39	10853.06
460.57	10799.23
460.76	11154.99
460.94	11201.80
461.12	11297.77
461.31	11190.10
461.49	11286.06
461.67	11339.90
461.85	11482.67
462.04	11412.45
462.22	11419.47
462.40	11824.39
462.59	11543.52
462.77	11557.57
462.95	11735.45
463.13	11712.04
463.32	11557.57
463.50	11733.11
463.68	11779.92
463.86	11765.87
464.05	11686.29
464.23	11576.29
464.41	11845.45
464.59	11815.02
464.78	12414.20
464.96	12070.14
465.14	11859.49
465.32	12163.76
465.50	12212.92
465.69	12077.16
465.87	12435.27
466.05	12156.74
466.23	12252.70
466.41	12376.75
466.60	12514.84
466.78	12116.95
466.96	12154.40
467.14	12383.77
467.32	12594.42
467.51	12437.61
467.69	12128.66
467.87	12561.66
468.05	12662.30
468.23	12498.46
468.41	12603.78
468.60	12575.70
468.78	12758.26
468.96	12657.62
469.14	12772.30
469.32	12755.92
469.50	12805.07
469.69	13200.62
469.87	13118.70
470.05	12966.57
470.23	13369.14
470.41	12989.97
470.59	13240.41
470.77	13383.18
470.95	13226.37
471.14	13511.91
471.32	13296.58
471.50	13561.06
471.68	13603.19
471.86	13584.47
472.04	13645.32
472.22	14071.30
472.40	13841.93
472.58	13977.68
472.77	14106.41
472.95	14377.91
473.13	14679.84
473.31	14237.48
473.49	14253.86
473.67	14015.13
473.85	14286.63
474.03	14555.79
474.21	14565.15
474.39	14813.25
474.57	14562.81
474.75	14965.39
474.93	14815.59
475.12	15047.30
475.30	15070.71
475.48	15232.21
475.66	15283.70
475.84	15360.94
476.02	15564.56
476.20	15328.17
476.38	15555.20
476.56	16184.80
476.74	16060.76
476.92	16025.65
477.10	15892.24
477.28	16320.56
477.46	16372.05
477.64	16451.63
477.82	16830.79
478.00	17181.87
478.18	16702.06
478.36	17144.42
478.54	17394.86
478.72	17310.60
478.90	17301.24
479.08	17654.66
479.26	17851.27
479.44	18108.72
479.62	17919.14
479.80	18139.15
479.98	18178.94
480.16	18497.25
480.34	18136.81
480.52	18944.30
480.70	18874.08
480.88	18548.75
481.06	18913.87
481.24	18857.70
481.41	19000.47
481.59	19290.70
481.77	19424.11
481.95	19810.29
482.13	19866.47
482.31	19655.82
482.49	20325.21
482.67	20699.70
482.85	20737.15
483.03	20929.07
483.21	20762.89
483.39	20819.07
483.57	21118.65
483.74	21102.27
483.92	21331.64
484.10	21125.68
484.28	21778.68
484.46	22064.23
484.64	22317.01
484.82	21884.01
485.00	22427.01
485.18	22562.76
485.35	23229.82
485.53	23040.23
485.71	23098.75
485.89	23594.94
486.07	23358.55
486.25	23548.13
486.43	24051.34
486.61	23920.28
486.78	23866.44
486.96	24247.95
487.14	24886.92
487.32	24622.44
487.50	25249.70
487.68	25294.17
487.85	25245.02
488.03	25785.68
488.21	26326.35
488.39	25970.58
488.57	26457.42
488.75	26202.30
488.92	26405.92
489.10	26782.75
489.28	26955.95
489.46	27407.67
489.64	27503.64
489.81	27910.89
489.99	27538.74
490.17	27971.74
490.35	28025.57
490.53	28528.79
490.70	28648.16
490.88	28428.15
491.06	29127.97
491.24	28992.22
491.41	29132.65
491.59	29420.53
491.77	29626.50
491.95	29696.72
492.13	29755.23
492.30	30103.97
492.48	30340.36
492.66	30611.87
492.84	30448.03
493.01	30998.06
493.19	30841.24
493.37	30888.05
493.54	31096.36
493.72	31515.31
493.90	32095.77
494.08	31995.12
494.25	32259.60
494.43	32343.86
494.61	32343.86
494.79	33055.39
494.96	32950.06
495.14	33102.20
495.32	33450.94
495.49	33521.15
495.67	33511.79
495.85	33645.20
496.02	33797.34
496.20	34160.12
496.38	34323.96
496.55	34389.49
496.73	35416.99
496.91	35033.14
497.09	35103.35
497.26	35391.24
497.44	35129.10
497.62	35566.78
497.79	36062.97
497.97	35543.38
498.14	36292.35
498.32	35976.37
498.50	36245.54
498.67	36952.38
498.85	37020.25
499.03	36861.10
499.20	37013.23
499.38	36957.06
499.56	37642.84
499.73	37617.09
499.91	37563.26
500.08	37785.61
500.26	37443.89
500.44	37998.60
500.61	37923.70
500.79	37942.42
500.97	38604.80
501.14	39000.35
501.32	38651.61
501.49	38866.94
501.67	38778.00
501.84	38904.38
502.02	38567.35
502.20	38986.30
502.37	39531.65
502.55	39737.62
502.72	39782.09
502.90	39636.97
503.07	39908.47
503.25	40076.99
503.43	39983.37
503.60	40128.48
503.78	40289.98
503.95	40596.59
504.13	40341.47
504.30	40858.73
504.48	41132.57
504.65	40751.07
504.83	41205.13
505.01	41495.36
505.18	41235.56
505.36	41701.32
505.53	41617.07
505.71	41797.29
505.88	42007.94
506.06	41647.49
506.23	42321.57
506.41	42127.30
506.58	42288.80
506.76	42354.33
506.93	42644.56
507.11	42763.93
507.28	42693.71
507.46	43019.05
507.63	43042.45
507.81	43625.25
507.98	43433.32
508.16	43241.40
508.33	43676.74
508.50	43739.93
508.68	43800.79
508.85	44004.41
509.03	43941.22
509.20	44275.91
509.38	44842.32
509.55	44753.38
509.73	44570.82
509.90	44500.61
510.08	44985.10
510.25	44741.68
510.42	45230.85
510.60	45083.40
510.77	45333.84
510.95	45532.78
511.12	45235.53
511.30	45305.75
511.47	45907.27
511.64	45823.01
511.82	46241.96
511.99	46274.73
512.17	46085.15
512.34	46506.44
512.51	46752.20
512.69	46499.42
512.86	46389.42
513.04	47255.42
513.21	46637.51
513.38	46892.63
513.56	46944.12
513.73	47096.26
513.90	46817.74
514.08	47281.16
514.25	47470.75
514.43	47779.70
514.60	47756.29
514.77	47428.62
514.95	48156.52
515.12	47629.90
515.29	47746.93
515.47	48280.57
515.64	48189.29
515.81	47978.64
515.99	48404.62
516.16	48783.79
516.33	48474.84
516.51	49027.20
516.68	49041.24
516.85	49113.80
517.03	49109.12
517.20	48816.55
517.37	48940.60
517.54	49064.65
517.72	49282.32
517.89	49289.34
518.06	49478.92
518.24	49631.06
518.41	49652.12
518.58	49780.85
518.75	49130.19
518.93	49563.18
519.10	49628.72
519.27	49975.12
519.45	50096.83
519.62	50529.83
519.79	50255.98
519.96	50110.87
520.14	50361.31
520.31	50466.63
520.48	50518.12
520.65	50433.86
520.83	50635.15
521.00	51009.64
521.17	50958.14
521.34	50855.16
521.52	50913.67
521.69	50752.18
521.86	51077.51
522.03	51608.81
522.20	51576.04
522.38	51566.68
522.55	51664.99
522.72	51302.20
522.89	51363.06
523.07	51760.95
523.24	51807.76
523.41	52102.67
523.58	51702.43
523.75	52109.69
523.92	51599.45
524.10	52435.02
524.27	51966.91
524.44	52444.38
524.61	52336.72
524.78	52442.04
524.96	52460.77
525.13	52577.79
525.30	52926.53
525.47	52554.39
525.64	52626.95
525.81	52823.55
525.98	52870.36
526.16	52793.12
526.33	52985.05
526.50	52982.71
526.67	52945.26
526.84	53294.00
527.01	52788.44
527.18	53041.22
527.36	53146.54
527.53	52921.85
527.70	53572.52
527.87	53516.35
528.04	53429.75
528.21	53633.38
528.38	53593.59
528.55	53689.55
528.72	53504.65
528.89	53577.20
529.07	53649.76
529.24	53401.66
529.41	53968.07
529.58	53921.26
529.75	53778.49
529.92	53818.28
530.09	53806.58
530.26	54270.00
530.43	54293.41
530.60	53916.58
530.77	53776.15
530.94	54361.28
531.11	54113.19
531.28	54101.48
531.46	54504.06
531.63	54569.59
531.80	54431.50
531.97	54773.22
532.14	54600.02
532.31	54625.76
532.48	54805.98
532.65	54993.23
532.82	54810.67
532.99	55002.59
533.16	54740.45
533.33	55140.68
533.50	55168.77
533.67	54660.87
533.84	54738.11
534.01	54953.44
534.18	54927.69
534.35	55454.31
534.52	55150.04
534.69	55253.03
534.86	55278.77
535.03	54855.14
535.20	55402.82
535.37	55580.70
535.54	55451.97
535.71	55451.97
535.88	55561.98
536.05	55746.88
536.22	55807.73
536.38	55917.74
536.55	55662.62
536.72	55667.30
536.89	55817.10
537.06	55838.16
537.23	56034.77
537.40	55845.18
537.57	55903.70
537.74	56142.43
537.91	56161.15
538.08	56236.05
538.25	56009.02
538.42	56252.44
538.59	56495.85
538.75	55931.78
538.92	56184.56
539.09	56306.27
539.26	56250.09
539.43	56210.31
539.60	56371.80
539.77	56322.65
539.94	56837.57
540.11	56605.86
540.28	56568.41
540.44	56598.83
540.61	56493.51
540.78	56495.85
540.95	56540.32
541.12	56521.60
541.29	56540.32
541.46	56617.56
541.62	56783.74
541.79	56694.80
541.96	56420.95
542.13	56727.56
542.30	57001.41
542.47	57041.20
542.63	56849.27
542.80	57001.41
542.97	57336.10
543.14	57251.84
543.31	57237.80
543.48	57359.51
543.64	57521.01
543.81	57680.16
543.98	57567.82
544.15	57375.89
544.32	57750.38
544.48	57488.24
544.65	57652.08
544.82	57492.92
544.99	57581.86
545.16	57752.72
545.32	57668.46
545.49	57705.91
545.66	58122.52
545.83	57750.38
546.00	57930.60
546.16	58045.29
546.33	57794.85
546.50	57719.95
546.67	58007.84
546.83	57642.71
547.00	58059.33
547.17	57996.13
547.34	57916.56
547.50	58115.50
547.67	58307.43
547.84	58136.57
548.00	58253.59
548.17	58443.18
548.34	58174.02
548.51	58541.48
548.67	58382.32
548.84	58295.72
549.01	58101.46
549.18	58440.84
549.34	58487.65
549.51	58323.81
549.68	58419.77
549.84	58707.66
550.01	58461.90
550.18	58443.18
550.34	58681.91
550.51	58845.75
550.68	58372.96
550.84	58445.52
551.01	58773.19
551.18	58770.85
551.34	58415.09
551.51	58836.39
551.68	58506.37
551.84	58798.94
552.01	58574.25
552.18	58899.58
552.34	58560.20
552.51	58740.42
552.68	58635.10
552.84	58838.73
553.01	59030.65
553.18	59091.51
553.34	58967.46
553.51	58906.60
553.67	58944.05
553.84	59150.02
554.01	59121.93
554.17	59054.06
554.34	59124.27
554.51	58953.41
554.67	59135.98
554.84	59185.13
555.00	59121.93
555.17	59178.10
555.33	59213.21
555.50	59096.19
555.67	59140.66
555.83	59161.72
556.00	59089.16
556.16	59583.02
556.33	59529.19
556.50	59320.88
556.66	59522.16
556.83	59351.30
556.99	59489.40
557.16	59632.17
557.32	59744.51
557.49	59742.17
557.65	59386.41
557.82	59519.82
557.98	59487.06
558.15	59491.74
558.32	59826.43
558.48	59461.31
558.65	59749.20
558.81	59573.66
558.98	59594.72
559.14	59894.31
559.31	59877.93
559.47	59898.99
559.64	59744.51
559.80	59765.58
559.97	59859.20
560.13	59774.94
560.30	59812.39
560.46	59875.58
560.63	59936.44
560.79	59952.82
560.96	60060.49
561.12	59849.84
561.29	59847.50
561.45	59943.46
561.61	59990.27
561.78	59889.63
561.94	60144.75
562.11	59955.16
562.27	60001.97
562.44	60137.72
562.60	60135.38
562.77	60243.05
562.93	59973.89
563.10	60184.54
563.26	59849.84
563.42	60308.58
563.59	60128.36
563.75	60210.28
563.92	60135.38
564.08	60200.92
564.24	60280.50
564.41	60257.09
564.57	60301.56
564.74	60296.88
564.90	60238.37
565.07	60186.88
565.23	60025.38
565.39	60369.44
565.56	60444.33
565.72	60390.50
565.88	60463.06
566.05	60238.37
566.21	60348.37
566.38	60313.26
566.54	60299.22
566.70	60385.82
566.87	60453.70
567.03	60275.82
567.19	60573.06
567.36	60451.36
567.52	60519.23
567.68	60643.28
567.85	60523.91
568.01	60570.72
568.17	60605.83
568.34	60453.70
568.50	60584.77
568.66	60619.88
568.83	60507.53
568.99	60456.04
569.15	60390.50
569.32	60397.52
569.48	60662.00
569.64	60566.04
569.81	60502.85
569.97	60636.26
570.13	60699.45
570.30	60481.78
570.46	60706.47
570.62	60605.83
570.78	60598.81
570.95	60781.37
571.11	60764.99
571.27	60570.72
571.43	60764.99
571.60	60753.29
571.76	60643.28
571.92	60790.73
572.09	60959.25
572.25	60760.31
572.41	60629.24
572.57	60720.52
572.74	60851.59
572.90	60767.33
573.06	60683.07
573.22	60708.82
573.38	60636.26
573.55	60832.86
573.71	60968.61
573.87	60832.86
574.03	60559.02
574.20	60779.03
574.36	60823.50
574.52	60928.83
574.68	61027.13
574.84	60924.14
575.01	61109.05
575.17	60781.37
575.33	60757.97
575.49	60587.11
575.65	60811.80
575.82	60985.00
575.98	60956.91
576.14	60952.23
576.30	61078.62
576.46	60949.89
576.62	60919.46
576.79	60959.25
576.95	60907.76
577.11	60804.78
577.27	61080.96
577.43	61062.24
577.59	60877.33
577.75	60940.53
577.92	60961.59
578.08	60772.01
578.24	61092.66
578.40	61216.71
578.56	61228.41
578.72	61106.71
578.88	61066.92
579.04	61172.24
579.21	61062.24
579.37	61043.51
579.53	61291.61
579.69	60945.21
579.85	61160.54
580.01	61153.52
580.17	60996.70
580.33	61151.18
580.49	61092.66
580.65	61048.19
580.82	60874.99
580.98	60837.54
581.14	60928.83
581.30	61202.67
581.46	61183.94
581.62	60912.44
581.78	60802.44
581.94	60970.96
582.10	60966.27
582.26	60954.57
582.42	60933.51
582.58	60893.72
582.74	61085.64
582.90	61137.13
583.06	60942.87
583.22	60893.72
583.38	60928.83
583.54	60952.23
583.70	60952.23
583.86	61151.18
584.02	60963.93
584.18	60975.64
584.34	61073.94
584.50	61197.99
584.66	60942.87
584.82	60795.42
584.98	61399.27
585.14	61169.90
585.30	60879.67
585.46	61249.48
585.62	61432.04
585.78	61223.73
585.94	61041.17
586.10	61357.14
586.26	61312.67
586.42	60968.61
586.58	61125.43
586.74	61174.58
586.90	61125.43
587.06	61139.47
587.22	61298.63
587.38	61120.75
587.54	61361.82
587.70	61366.51
587.86	61366.51
588.02	61148.84
588.18	61244.80
588.34	61221.39
588.49	61223.73
