SpectraSuite Data File
++++++++++++++++++++++++++++++++++++
Date: Fri Oct 25 11:26:09 EDT 2013
User: price-jones
Dark Spectrum Present: No
Reference Spectrum Present: No
Number of Sampled Component Spectra: 1
Spectrometers: USB2+H05261
Integration Time (usec): 100000 (USB2+H05261)
Spectra Averaged: 1 (USB2+H05261)
Boxcar Smoothing: 0 (USB2+H05261)
Correct for Electrical Dark: No (USB2+H05261)
Strobe/Lamp Enabled: No (USB2+H05261)
Correct for Detector Non-linearity: No (USB2+H05261)
Correct for Stray Light: No (USB2+H05261)
Number of Pixels in Processed Spectrum: 2048
>>>>>Begin Processed Spectral Data<<<<<
365.73	231.71
365.92	231.71
366.12	231.71
366.32	175.54
366.52	159.16
366.72	182.56
366.91	175.54
367.11	168.52
367.31	79.58
367.51	187.24
367.70	177.88
367.90	154.48
368.10	60.85
368.30	124.05
368.49	135.75
368.69	180.22
368.89	203.63
369.09	189.58
369.28	180.22
369.48	173.20
369.68	152.13
369.87	208.31
370.07	222.35
370.27	234.05
370.47	365.12
370.66	524.28
370.86	636.63
371.06	739.61
371.25	683.44
371.45	697.48
371.65	645.99
371.84	695.14
372.04	720.88
372.24	748.97
372.44	725.57
372.63	823.87
372.83	779.40
373.03	795.78
373.22	814.51
373.42	765.36
373.62	737.27
373.81	774.72
374.01	809.83
374.21	842.59
374.40	753.65
374.60	753.65
374.79	751.31
374.99	795.78
375.19	844.93
375.38	910.47
375.58	870.68
375.78	924.51
375.97	882.38
376.17	861.32
376.37	858.98
376.56	866.00
376.76	896.43
376.95	866.00
377.15	929.19
377.35	903.45
377.54	861.32
377.74	903.45
377.93	858.98
378.13	884.72
378.33	938.55
378.52	1022.81
378.72	945.58
378.91	973.66
379.11	940.90
379.31	887.06
379.50	992.39
379.70	971.32
379.89	1076.65
380.09	971.32
380.28	971.32
380.48	983.02
380.68	999.41
380.87	929.19
381.07	990.05
381.26	1090.69
381.46	990.05
381.65	992.39
381.85	1060.26
382.04	980.68
382.24	1125.80
382.43	877.70
382.63	1034.52
382.83	1090.69
383.02	1090.69
383.22	1144.52
383.41	1064.94
383.61	1086.01
383.80	1149.20
384.00	1081.33
384.19	1123.46
384.39	1109.41
384.58	1055.58
384.78	1174.95
384.97	1254.53
385.17	1146.86
385.36	1198.35
385.56	1179.63
385.75	1135.16
385.95	1160.91
386.14	1214.74
386.34	1149.20
386.53	1191.33
386.72	1240.48
386.92	1275.59
387.11	1217.08
387.31	1172.61
387.50	1221.76
387.70	1306.02
387.89	1310.70
388.09	1324.74
388.28	1240.48
388.48	1270.91
388.67	1284.95
388.86	1327.08
389.06	1373.89
389.25	1380.92
389.45	1231.12
389.64	1366.87
389.84	1392.62
390.03	1462.83
390.22	1366.87
390.42	1423.05
390.61	1373.89
390.81	1369.21
391.00	1373.89
391.19	1409.00
391.39	1462.83
391.58	1390.28
391.78	1371.55
391.97	1378.58
392.16	1500.28
392.36	1582.20
392.55	1568.16
392.75	1547.09
392.94	1638.38
393.13	1521.35
393.33	1502.62
393.52	1568.16
393.71	1624.33
393.91	1607.95
394.10	1572.84
394.29	1643.06
394.49	1647.74
394.68	1540.07
394.88	1664.12
395.07	1736.68
395.26	1743.70
395.46	1694.55
395.65	1778.81
395.84	1652.42
396.04	1694.55
396.23	1713.27
396.42	1788.17
396.62	1771.79
396.81	1727.32
397.00	1802.21
397.19	1802.21
397.39	1839.66
397.58	1898.17
397.77	1842.00
397.97	1870.09
398.16	1867.75
398.35	2001.16
398.55	1823.28
398.74	1919.24
398.93	2050.31
399.12	1989.46
399.32	1980.09
399.51	1919.24
399.70	1954.35
399.90	1877.11
400.09	1994.14
400.28	2010.52
400.47	1970.73
400.67	2083.08
400.86	2080.74
401.05	2127.55
401.24	2071.37
401.44	2183.72
401.63	2115.84
401.82	2167.34
402.01	2148.61
402.21	2094.78
402.40	2214.15
402.59	2136.91
402.78	2260.96
402.97	2162.66
403.17	2356.92
403.36	2237.55
403.55	2251.60
403.74	2406.07
403.93	2359.26
404.13	2380.32
404.32	2326.49
404.51	2359.26
404.70	2506.71
404.89	2342.88
405.09	2448.20
405.28	2487.99
405.47	2424.80
405.66	2361.60
405.85	2464.58
406.05	2506.71
406.24	2565.23
406.43	2509.05
406.62	2495.01
406.81	2750.13
407.00	2462.24
407.20	2539.48
407.39	2649.49
407.58	2710.34
407.77	2766.51
407.96	2675.23
408.15	2743.11
408.34	2644.81
408.54	2794.60
408.73	2750.13
408.92	2752.47
409.11	2949.08
409.30	2885.88
409.49	2899.92
409.68	2892.90
409.87	2967.80
410.07	2913.97
410.26	3005.25
410.45	2981.84
410.64	2937.37
410.83	2988.86
411.02	3119.93
411.21	3286.11
411.40	3126.96
411.59	3218.24
411.78	3133.98
411.98	3176.11
412.17	3304.84
412.36	3325.90
412.55	3433.57
412.74	3522.51
412.93	3337.60
413.12	3307.18
413.31	3496.76
413.50	3412.50
413.69	3461.65
413.88	3375.05
414.07	3665.28
414.26	3545.91
414.45	3625.49
414.64	3627.83
414.83	3618.47
415.02	3808.05
415.22	3878.27
415.41	3831.46
415.60	3721.45
415.79	3880.61
415.98	3974.23
416.17	4056.15
416.36	4072.53
416.55	4088.92
416.74	4058.49
416.93	4023.38
417.12	4105.30
417.31	4149.77
417.50	4182.54
417.69	4341.69
417.88	4318.29
418.07	4276.16
418.26	4245.73
418.45	4381.48
418.64	4386.16
418.83	4400.21
419.02	4521.92
419.21	4493.83
419.39	4587.45
419.58	4533.62
419.77	4423.61
419.96	4648.30
420.15	4479.79
420.34	4571.07
420.53	4517.23
420.72	4650.64
420.91	4777.03
421.10	4683.41
421.29	4718.52
421.48	4727.88
421.67	4802.78
421.86	4863.63
422.05	4798.10
422.24	4779.37
422.43	4905.76
422.61	4851.93
422.80	4999.38
422.99	4919.81
423.18	4922.15
423.37	4854.27
423.56	4784.06
423.75	4908.10
423.94	4912.78
424.13	4557.02
424.32	4732.56
424.50	4964.28
424.69	5210.03
424.88	5071.94
425.07	5090.67
425.26	4978.32
425.45	5090.67
425.64	4931.51
425.83	4938.53
426.01	5111.73
426.20	5111.73
426.39	5116.41
426.58	5048.54
426.77	4999.38
426.96	5025.13
427.15	5046.20
427.33	5090.67
427.52	5179.61
427.71	5240.46
427.90	5174.92
428.09	5385.57
428.28	5317.70
428.46	5474.51
428.65	5270.89
428.84	5439.40
429.03	5369.19
429.22	5343.44
429.40	5490.90
429.59	5427.70
429.78	5371.53
429.97	5238.12
430.16	5392.59
430.34	5474.51
430.53	5589.20
430.72	5687.50
430.91	5591.54
431.10	5535.37
431.28	5699.20
431.47	5724.95
431.66	5820.91
431.85	5743.67
432.03	5884.11
432.22	6010.50
432.41	5727.29
432.60	5947.30
432.79	5940.28
432.97	5921.56
433.16	6104.12
433.35	6106.46
433.54	6085.39
433.72	6047.94
433.91	6052.63
434.10	6097.10
434.28	6111.14
434.47	6139.23
434.66	6277.32
434.85	6375.62
435.03	6270.30
435.22	6237.53
435.41	6537.12
435.59	6399.02
435.78	6546.48
435.97	6450.52
436.16	6340.51
436.34	6307.74
436.53	6434.13
436.72	6604.99
436.90	6377.96
437.09	6635.42
437.28	6562.86
437.46	6494.99
437.65	6733.72
437.84	6633.08
438.02	6717.34
438.21	6623.72
438.40	6715.00
438.58	6904.58
438.77	7019.27
438.96	6956.07
439.14	7117.57
439.33	7148.00
439.52	7105.87
439.70	7187.79
439.89	7372.69
440.08	7199.49
440.26	7482.69
440.45	7274.38
440.63	7421.84
440.82	7475.67
441.01	7379.71
441.19	7503.76
441.38	7644.19
441.57	7665.25
441.75	7737.81
441.94	7992.93
442.12	7887.61
442.31	7894.63
442.50	8046.76
442.68	7808.03
442.87	8173.15
443.05	8067.83
443.24	8376.78
443.43	7960.16
443.61	8245.71
443.80	8262.09
443.98	7798.66
444.17	7932.08
444.35	8301.88
444.54	8287.84
444.73	8140.38
444.91	8215.28
445.10	8329.97
445.28	8114.64
445.47	8217.62
445.65	8325.29
445.84	8425.93
446.02	8360.39
446.21	8519.55
446.39	8381.46
446.58	8542.96
446.77	8184.85
446.95	8372.10
447.14	8262.09
447.32	8439.97
447.51	8482.10
447.69	8514.87
447.88	8472.74
448.06	8444.65
448.25	8674.03
448.43	8678.71
448.62	8702.11
448.80	8430.61
448.99	8720.84
449.17	8603.81
449.36	8472.74
449.54	8683.39
449.73	8854.25
449.91	8964.25
450.10	8903.40
450.28	9125.75
450.46	9001.70
450.65	8879.99
450.83	9095.32
451.02	8877.65
451.20	9217.03
451.39	9130.43
451.57	9139.79
451.76	8856.59
451.94	9104.68
452.13	9331.72
452.31	9401.93
452.49	9121.07
452.68	9385.55
452.86	9378.53
453.05	9296.61
453.23	9521.30
453.42	9263.84
453.60	9158.52
453.78	9631.30
453.97	9446.40
454.15	9533.00
454.34	9355.12
454.52	9544.70
454.70	9745.99
454.89	9689.82
455.07	9785.78
455.26	9806.84
455.44	9769.40
455.62	9921.53
455.81	9783.44
455.99	10136.86
456.17	10099.41
456.36	9844.29
456.54	10090.05
456.73	10265.59
456.91	10506.66
457.09	10331.12
457.28	10457.51
457.46	10303.04
457.64	10424.75
457.83	10565.18
458.01	10420.06
458.19	10677.52
458.38	10562.84
458.56	10778.17
458.74	10970.09
458.93	10654.12
459.11	10700.93
459.29	10672.84
459.48	10801.57
459.66	10789.87
459.84	10782.85
460.03	11101.16
460.21	11037.97
460.39	10822.64
460.57	11052.01
460.76	11115.20
460.94	11096.48
461.12	11297.77
461.31	11159.67
461.49	11187.76
461.67	11192.44
461.85	11499.05
462.04	11272.02
462.22	11836.09
462.40	11545.86
462.59	11332.87
462.77	11454.58
462.95	11522.46
463.13	11473.31
463.32	11440.54
463.50	11749.49
463.68	11569.27
463.86	11808.00
464.05	11564.59
464.23	11555.22
464.41	12079.50
464.59	11936.73
464.78	12086.53
464.96	12018.65
465.14	11627.78
465.32	11866.52
465.50	12105.25
465.69	12147.38
465.87	11857.15
466.05	12002.27
466.23	12100.57
466.41	12355.69
466.60	12486.76
466.78	12037.38
466.96	12114.61
467.14	12222.28
467.32	12332.28
467.51	12479.74
467.69	12135.68
467.87	12472.71
468.05	12493.78
468.23	12233.98
468.41	12564.00
468.60	12788.69
468.78	12753.58
468.96	12540.59
469.14	12772.30
469.32	12856.56
469.50	12624.85
469.69	13011.04
469.87	13137.43
470.05	13146.79
470.23	13228.71
470.41	13099.98
470.59	13247.43
470.77	13219.35
470.95	13078.91
471.14	13507.23
471.32	13193.60
471.50	13584.47
471.68	13401.91
471.86	13757.67
472.04	13645.32
472.22	13914.48
472.40	13378.50
472.58	13776.39
472.77	13982.36
472.95	14104.07
473.13	14684.52
473.31	14345.14
473.49	14277.27
473.67	14200.03
473.85	14129.81
474.03	14537.07
474.21	14590.90
474.39	14728.99
474.57	14609.62
474.75	14892.83
474.93	14890.49
475.12	14869.42
475.30	14993.47
475.48	14998.15
475.66	14897.51
475.84	15157.31
476.02	15351.57
476.20	15454.56
476.38	15555.20
476.56	15836.06
476.74	15674.57
476.92	15819.68
477.10	15796.28
477.28	16444.60
477.46	15995.22
477.64	16575.67
477.82	16470.35
478.00	16936.12
478.18	16812.07
478.36	16807.39
478.54	17146.76
478.72	16781.64
478.90	17186.55
479.08	17200.60
479.26	17949.57
479.44	17689.77
479.62	17788.07
479.80	18054.89
479.98	18153.20
480.16	18518.32
480.34	18031.49
480.52	18560.45
480.70	18452.78
480.88	18071.28
481.06	18796.84
481.24	18869.40
481.41	18946.64
481.59	19253.25
481.77	19332.82
481.95	19248.57
482.13	19447.51
482.31	19503.68
482.49	19948.39
482.67	19992.86
482.85	20573.31
483.03	20482.03
483.21	20765.23
483.39	21167.80
483.57	20835.45
483.74	20968.86
483.92	21530.59
484.10	21474.42
484.28	21589.10
484.46	21682.72
484.64	22335.73
484.82	21743.58
485.00	22305.31
485.18	22487.87
485.35	22979.38
485.53	22752.35
485.71	22637.66
485.89	23576.22
486.07	23009.81
486.25	23484.94
486.43	23494.30
486.61	23616.01
486.78	24208.16
486.96	24233.91
487.14	24907.98
487.32	24423.49
487.50	24648.18
487.68	24748.82
487.85	25401.83
488.03	25338.64
488.21	25518.86
488.39	25579.71
488.57	25879.30
488.75	26115.70
488.92	26455.08
489.10	26572.10
489.28	26686.79
489.46	27150.21
489.64	26806.16
489.81	27498.95
489.99	27597.26
490.17	27438.10
490.35	27814.93
490.53	28170.69
490.70	28383.68
490.88	28266.65
491.06	28905.62
491.24	28596.67
491.41	28961.79
491.59	29139.67
491.77	29111.58
491.95	29399.47
492.13	29792.68
492.30	29528.20
492.48	29876.94
492.66	30017.37
492.84	30129.72
493.01	30457.39
493.19	30649.32
493.37	31063.59
493.54	31166.57
493.72	31723.62
493.90	30955.93
494.08	31470.84
494.25	31931.93
494.43	32369.61
494.61	32362.59
494.79	32350.88
494.96	32418.76
495.14	33076.45
495.32	32774.52
495.49	32847.08
495.67	33137.30
495.85	33308.16
496.02	33593.71
496.20	33837.12
496.38	34012.66
496.55	33720.10
496.73	34780.36
496.91	34738.23
497.09	34913.77
497.26	35145.48
497.44	34864.62
497.62	35344.43
497.79	35421.67
497.97	34986.33
498.14	36091.06
498.32	35887.43
498.50	36055.95
498.67	36102.76
498.85	35901.48
499.03	36350.86
499.20	36596.62
499.38	36371.92
499.56	36718.32
499.73	36816.63
499.91	37268.35
500.08	37401.76
500.26	37097.49
500.44	37584.32
500.61	37455.59
500.79	37584.32
500.97	38155.41
501.14	38497.13
501.32	38611.82
501.49	38642.24
501.67	38660.97
501.84	39037.80
502.02	38665.65
502.20	38808.42
502.37	39232.06
502.55	38951.20
502.72	39374.83
502.90	39271.85
503.07	39225.04
503.25	39309.30
503.43	39494.20
503.60	39524.63
503.78	40081.67
503.95	39821.87
504.13	40311.05
504.30	40568.51
504.48	40041.88
504.65	40659.79
504.83	40769.79
505.01	41125.55
505.18	40652.76
505.36	41209.81
505.53	41258.96
505.71	41277.69
505.88	41647.49
506.06	41249.60
506.23	41977.51
506.41	42073.47
506.58	41904.95
506.76	42071.13
506.93	42139.00
507.11	42323.91
507.28	42616.47
507.46	42230.29
507.63	42773.29
507.81	42902.02
507.98	42557.96
508.16	43313.95
508.33	43299.91
508.50	43461.41
508.68	43152.46
508.85	43627.59
509.03	43770.36
509.20	43906.11
509.38	44318.04
509.55	44186.97
509.73	44161.23
509.90	44301.66
510.08	44296.98
510.25	44282.94
510.42	44680.83
510.60	44655.08
510.77	45158.30
510.95	45382.99
511.12	45155.96
511.30	45247.24
511.47	44662.10
511.64	45593.64
511.82	45663.85
511.99	45900.25
512.17	45689.60
512.34	45867.48
512.51	46064.08
512.69	46185.79
512.86	45837.05
513.04	46852.84
513.21	46241.96
513.38	46801.35
513.56	46646.88
513.73	46829.44
513.90	46960.51
514.08	46752.20
514.25	47243.71
514.43	46948.81
514.60	47199.24
514.77	47611.18
514.95	47407.55
515.12	47590.11
515.29	47650.97
515.47	47632.24
515.64	47861.61
515.81	47606.50
515.99	48179.93
516.16	48465.47
516.33	48069.92
516.51	48472.49
516.68	48428.02
516.85	48130.78
517.03	48582.50
517.20	48956.99
517.37	48809.53
517.54	48641.01
517.72	48748.68
517.89	49013.16
518.06	48666.76
518.24	48846.98
518.41	48910.17
518.58	49165.29
518.75	49088.06
518.93	49425.09
519.10	49333.81
519.27	49523.40
519.45	49380.62
519.62	49588.93
519.79	49942.35
519.96	50188.11
520.14	50124.91
520.31	50010.23
520.48	50017.25
520.65	50380.03
520.83	50719.41
521.00	50656.21
521.17	50356.63
521.34	50611.74
521.52	50663.24
521.69	50464.29
521.86	50869.20
522.03	50993.25
522.20	51182.84
522.38	51430.93
522.55	50815.37
522.72	51091.55
522.89	51351.35
523.07	51302.20
523.24	51494.13
523.41	51772.65
523.58	51274.12
523.75	51559.66
523.92	51433.27
524.10	51887.34
524.27	51990.32
524.44	52097.98
524.61	51807.76
524.78	52336.72
524.96	51992.66
525.13	52016.07
525.30	52144.80
525.47	52261.82
525.64	52112.03
525.81	52545.03
525.98	52622.26
526.16	52664.39
526.33	52367.15
526.50	52811.85
526.67	52741.63
526.84	52648.01
527.01	52893.77
527.18	52863.34
527.36	52924.19
527.53	52713.55
527.70	53209.74
527.87	53188.67
528.04	52973.34
528.21	53305.70
528.38	53205.06
528.55	53338.47
528.72	53200.38
528.89	53499.97
529.07	53254.21
529.24	53385.28
529.41	53663.80
529.58	53373.58
529.75	53773.81
529.92	53469.54
530.09	53450.81
530.26	53832.32
530.43	53593.59
530.60	53476.56
530.77	53771.47
530.94	53972.75
531.11	53766.79
531.28	53874.45
531.46	54003.18
531.63	54258.30
531.80	54141.27
531.97	54321.49
532.14	54354.26
532.31	54288.73
532.48	54504.06
532.65	54377.67
532.82	54562.57
532.99	54497.03
533.16	54581.29
533.33	54649.17
533.50	54798.96
533.67	54651.51
533.84	54370.64
534.01	54925.35
534.18	54965.14
534.35	54997.91
534.52	55004.93
534.69	55063.44
534.86	54841.09
535.03	54775.56
535.20	55121.96
535.37	55330.26
535.54	55243.66
535.71	55250.69
535.88	55351.33
536.05	55316.22
536.22	55580.70
536.38	55618.15
536.55	55526.87
536.72	55365.37
536.89	55536.23
537.06	55728.16
537.23	55770.28
537.40	55323.24
537.57	55742.20
537.74	55711.77
537.91	55693.05
538.08	55952.85
538.25	55753.90
538.42	55753.90
538.59	56175.20
538.75	55510.49
538.92	55810.07
539.09	55999.66
539.26	56296.91
539.43	56154.13
539.60	56193.92
539.77	56402.23
539.94	56446.70
540.11	56030.08
540.28	56315.63
540.44	56360.10
540.61	56299.25
540.78	56177.54
540.95	56224.35
541.12	56353.08
541.29	56425.64
541.46	56615.22
541.62	56636.28
541.79	56530.96
541.96	56406.91
542.13	56928.85
542.30	56535.64
542.47	56739.27
542.63	56905.44
542.80	56835.23
542.97	57106.73
543.14	56952.26
543.31	56814.16
543.48	57284.61
543.64	57347.81
543.81	57277.59
543.98	57371.21
544.15	57286.95
544.32	57258.87
544.48	57336.10
544.65	57352.49
544.82	57441.43
544.99	57120.77
545.16	57509.30
545.32	57418.02
545.49	57602.92
545.66	57525.69
545.83	57481.22
546.00	57925.92
546.16	57506.96
546.33	57389.94
546.50	57116.09
546.67	57762.08
546.83	57359.51
547.00	57844.00
547.17	57563.14
547.34	57719.95
547.50	57963.37
547.67	57972.73
547.84	57937.62
548.00	58012.52
548.17	58138.91
548.34	57855.70
548.51	58230.19
548.67	58082.73
548.84	58183.38
549.01	57813.57
549.18	57954.00
549.34	58113.16
549.51	58211.46
549.68	58333.17
549.84	58447.86
550.01	58223.17
550.18	58213.80
550.34	58335.51
550.51	58426.79
550.68	58162.31
550.84	58157.63
551.01	58628.08
551.18	58372.96
551.34	58522.76
551.51	58599.99
551.68	58714.68
551.84	58398.71
552.01	58342.53
552.18	58672.55
552.34	58277.00
552.51	58532.12
552.68	58426.79
552.84	58646.80
553.01	58951.07
553.18	58782.55
553.34	58789.58
553.51	58536.80
553.67	58684.25
553.84	58728.72
554.01	59004.91
554.17	58925.33
554.34	58922.99
554.51	58731.06
554.67	58937.03
554.84	58864.47
555.00	59054.06
555.17	58906.60
555.33	59014.27
555.50	58946.39
555.67	58887.88
555.83	59168.74
556.00	59037.67
556.16	59210.87
556.33	59192.15
556.50	59304.49
556.66	59133.63
556.83	58960.44
556.99	59264.70
557.16	59355.99
557.32	59419.18
557.49	59458.97
557.65	59269.39
557.82	59332.58
557.98	59131.29
558.15	59594.72
558.32	59599.40
558.48	59330.24
558.65	59405.14
558.81	59337.26
558.98	59496.42
559.14	59547.91
559.31	59395.77
559.47	59681.32
559.64	59508.12
559.80	59657.91
559.97	59742.17
560.13	59426.20
560.30	59512.80
560.46	59786.64
560.63	59819.41
560.79	59746.86
560.96	59793.67
561.12	59690.68
561.29	59763.24
561.45	59994.95
561.61	59702.38
561.78	59625.15
561.94	59618.13
562.11	59875.58
562.27	59686.00
562.44	59882.61
562.60	60016.02
562.77	60102.62
562.93	59917.71
563.10	59908.35
563.26	59840.48
563.42	60097.94
563.59	60116.66
563.75	59880.27
563.92	59978.57
564.08	59950.48
564.24	60111.98
564.41	59971.55
564.57	60072.19
564.74	59767.92
564.90	60252.41
565.07	60011.34
565.23	60102.62
565.39	60044.10
565.56	60168.15
565.72	59859.20
565.88	60175.17
566.05	60151.77
566.21	60065.17
566.38	60147.09
566.54	60296.88
566.70	60163.47
566.87	60252.41
567.03	60158.79
567.19	60184.54
567.36	60196.24
567.52	60292.20
567.68	60514.55
567.85	60320.29
568.01	60273.48
568.17	60303.90
568.34	60329.65
568.50	60212.62
568.66	60310.92
568.83	60313.26
568.99	60039.42
569.15	60404.55
569.32	60458.38
569.48	60247.73
569.64	60687.75
569.81	60542.64
569.97	60367.10
570.13	60388.16
570.30	60287.52
570.46	60477.10
570.62	60217.30
570.78	60474.76
570.95	60238.37
571.11	60404.55
571.27	60568.38
571.43	60418.59
571.60	60608.17
571.76	60395.18
571.92	60552.00
572.09	60430.29
572.25	60465.40
572.41	60392.84
572.57	60303.90
572.74	60626.90
572.90	60266.45
573.06	60509.87
573.22	60465.40
573.38	60437.31
573.55	60697.11
573.71	60945.21
573.87	60540.30
574.03	60589.45
574.20	60453.70
574.36	60636.26
574.52	60645.62
574.68	60720.52
574.84	60807.12
575.01	60594.13
575.17	60587.11
575.33	60528.59
575.49	60584.77
575.65	60669.03
575.82	60809.46
575.98	60823.50
576.14	60809.46
576.30	60697.11
576.46	60769.67
576.62	60549.66
576.79	60739.24
576.95	60362.42
577.11	60795.42
577.27	60818.82
577.43	60720.52
577.59	60741.58
577.75	60643.28
577.92	60292.20
578.08	60617.53
578.24	60781.37
578.40	60863.29
578.56	60961.59
578.72	60603.49
578.88	60919.46
579.04	60879.67
579.21	60809.46
579.37	61125.43
579.53	60914.78
579.69	60631.58
579.85	60685.41
580.01	60755.63
580.17	60715.84
580.33	60788.39
580.49	60973.30
580.65	60952.23
580.82	60727.54
580.98	60715.84
581.14	60844.57
581.30	60931.17
581.46	60580.09
581.62	60896.06
581.78	60762.65
581.94	60963.93
582.10	60736.90
582.26	60867.97
582.42	60814.14
582.58	60858.61
582.74	60713.50
582.90	60933.51
583.06	60914.78
583.22	60631.58
583.38	60914.78
583.54	60940.53
583.70	60994.36
583.86	61073.94
584.02	60767.33
584.18	61031.81
584.34	60760.31
584.50	60917.12
584.66	60886.70
584.82	60779.03
584.98	61188.63
585.14	61080.96
585.30	60849.25
585.46	61050.53
585.62	60814.14
585.78	60947.55
585.94	60676.05
586.10	60846.91
586.26	60889.04
586.42	61116.07
586.58	61024.79
586.74	61059.90
586.90	61017.77
587.06	61015.43
587.22	60992.02
587.38	60879.67
587.54	61015.43
587.70	61165.22
587.86	61141.81
588.02	60938.19
588.18	61099.68
588.34	61029.47
588.49	60947.55
