SpectraSuite Data File
++++++++++++++++++++++++++++++++++++
Date: Fri Oct 25 10:48:35 EDT 2013
User: price-jones
Dark Spectrum Present: No
Reference Spectrum Present: No
Number of Sampled Component Spectra: 1
Spectrometers: USB2+H05261
Integration Time (usec): 100000 (USB2+H05261)
Spectra Averaged: 1 (USB2+H05261)
Boxcar Smoothing: 0 (USB2+H05261)
Correct for Electrical Dark: No (USB2+H05261)
Strobe/Lamp Enabled: No (USB2+H05261)
Correct for Detector Non-linearity: No (USB2+H05261)
Correct for Stray Light: No (USB2+H05261)
Number of Pixels in Processed Spectrum: 2048
>>>>>Begin Processed Spectral Data<<<<<
365.73	212.99
365.92	212.99
366.12	212.99
366.32	128.73
366.52	28.09
366.72	51.49
366.91	44.47
367.11	70.22
367.31	25.75
367.51	21.06
367.70	0.00
367.90	0.00
368.10	56.17
368.30	44.47
368.49	0.00
368.69	81.92
368.89	72.56
369.09	74.90
369.28	98.30
369.48	14.04
369.68	44.47
369.87	35.11
370.07	81.92
370.27	208.31
370.47	283.20
370.66	451.72
370.86	470.45
371.06	440.02
371.25	475.13
371.45	493.85
371.65	472.79
371.84	528.96
372.04	472.79
372.24	477.47
372.44	582.79
372.63	526.62
372.83	540.66
373.03	578.11
373.22	498.53
373.42	610.88
373.62	557.05
373.81	535.98
374.01	589.82
374.21	636.63
374.40	596.84
374.60	547.69
374.79	554.71
374.99	634.29
375.19	613.22
375.38	603.86
375.58	671.73
375.78	629.60
375.97	575.77
376.17	706.84
376.37	627.26
376.56	596.84
376.76	610.88
376.95	678.76
377.15	727.91
377.35	664.71
377.54	667.05
377.74	596.84
377.93	739.61
378.13	695.14
378.33	702.16
378.52	655.35
378.72	718.54
378.91	741.95
379.11	648.33
379.31	688.12
379.50	706.84
379.70	765.36
379.89	791.10
380.09	751.31
380.28	732.59
380.48	692.80
380.68	753.65
380.87	697.48
381.07	760.67
381.26	741.95
381.46	744.29
381.65	791.10
381.85	713.86
382.04	741.95
382.24	748.97
382.43	723.23
382.63	744.29
382.83	755.99
383.02	802.80
383.22	744.29
383.41	664.71
383.61	744.29
383.80	868.34
384.00	861.32
384.19	765.36
384.39	861.32
384.58	795.78
384.78	889.40
384.97	788.76
385.17	847.27
385.36	884.72
385.56	786.42
385.75	823.87
385.95	823.87
386.14	887.06
386.34	849.61
386.53	896.43
386.72	926.85
386.92	957.28
387.11	915.15
387.31	940.90
387.50	868.34
387.70	875.36
387.89	957.28
388.09	880.04
388.28	947.92
388.48	966.64
388.67	964.30
388.86	1029.84
389.06	1011.11
389.25	926.85
389.45	1067.28
389.64	1142.18
389.84	1050.90
390.03	976.00
390.22	968.98
390.42	1149.20
390.61	1093.03
390.81	990.05
391.00	1083.67
391.19	1088.35
391.39	1137.50
391.58	1191.33
391.78	1048.56
391.97	1125.80
392.16	1123.46
392.36	1034.52
392.55	1057.92
392.75	1018.13
392.94	1027.50
393.13	1078.99
393.33	1020.47
393.52	1149.20
393.71	1156.22
393.91	1179.63
394.10	1212.40
394.29	1167.93
394.49	1219.42
394.68	1308.36
394.88	1240.48
395.07	1329.42
395.26	1235.80
395.46	1329.42
395.65	1364.53
395.84	1245.16
396.04	1322.40
396.23	1153.88
396.42	1252.19
396.62	1259.21
396.81	1317.72
397.00	1320.06
397.19	1247.51
397.39	1404.32
397.58	1411.34
397.77	1481.56
397.97	1507.30
398.16	1582.20
398.35	1469.86
398.55	1586.88
398.74	1544.75
398.93	1607.95
399.12	1544.75
399.32	1678.16
399.51	1713.27
399.70	1748.38
399.90	1598.59
400.09	1664.12
400.28	1741.36
400.47	1708.59
400.67	1771.79
400.86	1633.69
401.05	1675.82
401.24	1797.53
401.44	1788.17
401.63	1734.34
401.82	1888.81
402.01	1820.94
402.21	1837.32
402.40	1921.58
402.59	1863.07
402.78	1867.75
402.97	1830.30
403.17	1891.15
403.36	1902.86
403.55	1898.17
403.74	2040.95
403.93	2008.18
404.13	2038.61
404.32	2066.69
404.51	2029.24
404.70	2019.88
404.89	2010.52
405.09	2157.97
405.28	2052.65
405.47	1977.75
405.66	2139.25
405.85	2036.27
406.05	1891.15
406.24	2169.68
406.43	2235.21
406.62	2275.00
406.81	2125.21
407.00	2265.64
407.20	2174.36
407.39	2179.04
407.58	2190.74
407.77	2415.43
407.96	2335.85
408.15	2373.30
408.34	2272.66
408.54	2331.17
408.73	2457.56
408.92	2462.24
409.11	2340.54
409.30	2401.39
409.49	2377.98
409.68	2368.62
409.87	2312.45
410.07	2567.57
410.26	2492.67
410.45	2485.65
410.64	2434.16
410.83	2553.52
411.02	2569.91
411.21	2576.93
411.40	2654.17
411.59	2801.62
411.78	2775.88
411.98	2747.79
412.17	2818.00
412.36	2668.21
412.55	2899.92
412.74	2869.50
412.93	2878.86
413.12	2843.75
413.31	3009.93
413.50	2839.07
413.69	2967.80
413.88	3019.29
414.07	3204.19
414.26	3052.06
414.45	3094.19
414.64	3042.70
414.83	3129.30
415.02	3096.53
415.22	3243.98
415.41	3288.45
415.60	3379.73
415.79	3358.67
415.98	3396.12
416.17	3358.67
416.36	3410.16
416.55	3440.59
416.74	3382.07
416.93	3335.26
417.12	3407.82
417.31	3468.67
417.50	3513.14
417.69	3637.19
417.88	3548.25
418.07	3632.51
418.26	3646.55
418.45	3613.79
418.64	3599.74
418.83	3770.60
419.02	3803.37
419.21	3875.93
419.39	3676.98
419.58	3749.54
419.77	3667.62
419.96	3805.71
420.15	3852.52
420.34	3920.40
420.53	3784.65
420.72	3967.21
420.91	3999.98
421.10	4074.87
421.29	4021.04
421.48	4044.45
421.67	4067.85
421.86	4056.15
422.05	4095.94
422.24	3859.54
422.43	3896.99
422.61	4044.45
422.80	4100.62
422.99	4051.47
423.18	4241.05
423.37	4086.58
423.56	4170.83
423.75	4018.70
423.94	4191.90
424.13	3995.29
424.32	3957.85
424.50	4081.89
424.69	4219.99
424.88	4278.50
425.07	4128.70
425.26	4011.68
425.45	4051.47
425.64	4175.52
425.83	4095.94
426.01	4163.81
426.20	4219.99
426.39	4067.85
426.58	4051.47
426.77	4124.02
426.96	4189.56
427.15	4095.94
427.33	4264.46
427.52	4241.05
427.71	4259.78
427.90	4304.25
428.09	4337.01
428.28	4257.43
428.46	4470.42
428.65	4294.88
428.84	4491.49
429.03	4468.08
429.22	4245.73
429.40	4234.03
429.59	4177.86
429.78	4060.83
429.97	4044.45
430.16	4215.30
430.34	4203.60
430.53	4168.49
430.72	4322.97
430.91	4477.44
431.10	4496.17
431.28	4758.31
431.47	4798.10
431.66	4819.16
431.85	4774.69
432.03	4816.82
432.22	4936.19
432.41	4873.00
432.60	4877.68
432.79	4851.93
432.97	4882.36
433.16	4933.85
433.35	4748.95
433.54	4823.84
433.72	4919.81
433.91	4950.23
434.10	5055.56
434.28	5025.13
434.47	5135.14
434.66	4910.44
434.85	5144.50
435.03	5156.20
435.22	4983.00
435.41	5467.49
435.59	5247.48
435.78	5348.12
435.97	5408.98
436.16	5348.12
436.34	5310.68
436.53	5441.75
436.72	5493.24
436.90	5331.74
437.09	5338.76
437.28	5416.00
437.46	5242.80
437.65	5430.04
437.84	5345.78
438.02	5228.76
438.21	5350.46
438.40	5392.59
438.58	5544.73
438.77	5556.43
438.96	5823.25
439.14	5820.91
439.33	5816.23
439.52	5975.39
439.70	5991.77
439.89	6090.07
440.08	5891.13
440.26	5879.43
440.45	5811.55
440.63	6022.20
440.82	6179.01
441.01	6230.51
441.19	6265.61
441.38	6415.41
441.57	6382.64
441.75	6431.79
441.94	6731.38
442.12	6389.66
442.31	6579.25
442.50	6635.42
442.68	6497.33
442.87	6602.65
443.05	6745.42
443.24	6705.63
443.43	6553.50
443.61	6670.53
443.80	6988.84
443.98	6644.78
444.17	6513.71
444.35	6729.04
444.54	6860.11
444.73	6752.45
444.91	6604.99
445.10	6792.23
445.28	6780.53
445.47	6616.69
445.65	6693.93
445.84	6958.41
446.02	7122.25
446.21	6696.27
446.39	6871.81
446.58	7035.65
446.77	7002.88
446.95	6853.09
447.14	7082.46
447.32	7133.95
447.51	6951.39
447.69	6988.84
447.88	6825.00
448.06	6883.52
448.25	6899.90
448.43	7014.59
448.62	6984.16
448.80	6843.73
448.99	7098.84
449.17	7197.15
449.36	7117.57
449.54	7199.49
449.73	7426.52
449.91	7524.82
450.10	7421.84
450.28	7524.82
450.46	7548.23
450.65	7475.67
450.83	7515.46
451.02	7522.48
451.20	7592.70
451.39	7501.42
451.57	7449.93
451.76	7583.34
451.94	7456.95
452.13	7627.81
452.31	7623.12
452.49	7414.82
452.68	7592.70
452.86	7569.29
453.05	7496.74
453.23	7611.42
453.42	7667.60
453.60	7616.10
453.78	7833.77
453.97	7651.21
454.15	7655.89
454.34	7681.64
454.52	7782.28
454.70	7880.58
454.89	7901.65
455.07	7925.05
455.26	7845.48
455.44	8032.72
455.62	8088.89
455.81	8006.97
455.99	8173.15
456.17	8215.28
456.36	8353.37
456.54	8334.65
456.73	8346.35
456.91	8468.06
457.09	8463.38
457.28	8627.21
457.46	8114.64
457.64	8472.74
457.83	8510.19
458.01	8393.16
458.19	8678.71
458.38	8500.83
458.56	8739.56
458.74	8456.36
458.93	8634.24
459.11	8702.11
459.29	8430.61
459.48	8718.50
459.66	8627.21
459.84	8814.46
460.03	8933.82
460.21	8816.80
460.39	8748.92
460.57	8777.01
460.76	8875.31
460.94	8968.93
461.12	9041.49
461.31	8807.44
461.49	8887.01
461.67	9207.67
461.85	9233.41
462.04	9046.17
462.22	9689.82
462.40	9401.93
462.59	9039.15
462.77	9266.18
462.95	9263.84
463.13	9235.75
463.32	9238.09
463.50	9268.52
463.68	9390.23
463.86	9305.97
464.05	9294.27
464.23	9184.26
464.41	9432.36
464.59	9217.03
464.78	9518.96
464.96	9352.78
465.14	9462.79
465.32	9575.13
465.50	9687.48
465.69	9572.79
465.87	9390.23
466.05	9610.24
466.23	9364.48
466.41	9348.10
466.60	9830.25
466.78	9493.21
466.96	9762.37
467.14	9633.64
467.32	9720.24
467.51	9757.69
467.69	9731.95
467.87	9633.64
468.05	9888.76
468.23	9760.03
468.41	9729.61
468.60	9795.14
468.78	10101.75
468.96	9891.10
469.14	9994.09
469.32	10076.01
469.50	9877.06
469.69	10143.88
469.87	10073.67
470.05	10249.21
470.23	10328.78
470.41	10139.20
470.59	10272.61
470.77	10061.96
470.95	10434.11
471.14	10445.81
471.32	10436.45
471.50	10857.75
471.68	10565.18
471.86	10832.00
472.04	10874.13
472.22	11019.24
472.40	10773.49
472.58	10963.07
472.77	10799.23
472.95	10909.24
473.13	11171.38
473.31	10902.22
473.49	10808.59
473.67	11122.23
473.85	11035.63
474.03	11154.99
474.21	11190.10
474.39	11557.57
474.57	11550.54
474.75	11590.33
474.93	11618.42
475.12	11454.58
475.30	11550.54
475.48	11660.55
475.66	11712.04
475.84	11775.24
476.02	12006.95
476.20	12006.95
476.38	12257.39
476.56	12341.64
476.74	12133.34
476.92	12093.55
477.10	12381.43
477.28	12594.42
477.46	12528.89
477.64	12629.53
477.82	12791.03
478.00	12985.29
478.18	13156.15
478.36	13153.81
478.54	13018.06
478.72	13240.41
478.90	13355.10
479.08	13455.74
479.26	13404.25
479.44	13767.03
479.62	13804.48
479.80	13694.47
479.98	13774.05
480.16	14235.14
480.34	14031.51
480.52	14361.53
480.70	14370.89
480.88	14115.77
481.06	14389.61
481.24	14508.98
481.41	14541.75
481.59	15176.03
481.77	15122.20
481.95	14998.15
482.13	15169.01
482.31	14927.94
482.49	15400.72
482.67	15594.99
482.85	15344.55
483.03	15995.22
483.21	15807.98
483.39	15847.77
483.57	15789.25
483.74	15985.86
483.92	16512.48
484.10	16018.63
484.28	16332.26
484.46	16861.22
484.64	16854.20
484.82	16826.11
485.00	16863.56
485.18	16954.84
485.35	17102.29
485.53	17048.46
485.71	16971.22
485.89	17142.08
486.07	17006.33
486.25	17348.05
486.43	17436.99
486.61	17518.91
486.78	17963.61
486.96	17778.71
487.14	18066.60
487.32	18305.33
487.50	18604.92
487.68	18668.11
487.85	18810.89
488.03	19344.53
488.21	19431.13
488.39	19145.58
488.57	19295.38
488.75	19199.41
488.92	19482.62
489.10	19950.73
489.28	20039.67
489.46	20276.06
489.64	20484.37
489.81	21046.10
489.99	20514.80
490.17	20854.17
490.35	21142.06
490.53	21053.12
490.70	21341.00
490.88	20980.56
491.06	21694.43
491.24	21624.21
491.41	21387.82
491.59	21586.76
491.77	21652.30
491.95	21975.29
492.13	22326.37
492.30	22291.26
492.48	22515.95
492.66	22438.72
492.84	22375.52
493.01	22897.46
493.19	22967.68
493.37	23047.26
493.54	22974.70
493.72	23417.06
493.90	23604.30
494.08	23934.32
494.25	24254.97
494.43	24077.09
494.61	24472.64
494.79	24184.76
494.96	24444.56
495.14	24240.93
495.32	24512.43
495.49	24299.44
495.67	24613.07
495.85	24924.36
496.02	25238.00
496.20	25568.01
496.38	25504.82
496.55	25282.47
496.73	26094.63
496.91	25991.65
497.09	25954.20
497.26	25593.76
497.44	26141.44
497.62	26302.94
497.79	26125.06
497.97	26185.91
498.14	26445.71
498.32	26824.88
498.50	26445.71
498.67	27119.79
498.85	27208.73
499.03	27672.15
499.20	27194.68
499.38	27714.28
499.56	27552.79
499.73	27407.67
499.91	27529.38
500.08	27470.87
500.26	27168.94
500.44	27599.60
500.61	27751.73
500.79	27438.10
500.97	27667.47
501.14	28486.66
501.32	28098.13
501.49	27550.45
501.67	28034.94
501.84	28191.75
502.02	28402.40
502.20	28854.12
502.37	28964.13
502.55	28753.48
502.72	29041.37
502.90	28840.08
503.07	28638.80
503.25	28898.59
503.43	29024.98
503.60	28922.00
503.78	28989.88
503.95	29446.28
504.13	29392.45
504.30	29589.05
504.48	29336.27
504.65	29792.68
504.83	30225.68
505.01	29921.41
505.18	30338.02
505.36	30412.92
505.53	30555.69
505.71	30778.04
505.88	30415.26
506.06	30705.49
506.23	30749.96
506.41	31063.59
506.58	31094.02
506.76	31005.08
506.93	31152.53
507.11	31105.72
507.28	31068.27
507.46	31140.83
507.63	30991.03
507.81	30974.65
507.98	31442.76
508.16	31498.93
508.33	32163.64
508.50	31887.46
508.68	31740.00
508.85	32505.36
509.03	32294.71
509.20	32098.11
509.38	32196.41
509.55	32112.15
509.73	32353.23
509.90	32624.73
510.08	32278.33
510.25	33041.34
510.42	32584.94
510.60	32818.99
510.77	32772.18
510.95	33275.40
511.12	32964.10
511.30	32947.72
511.47	33769.25
511.64	33464.98
511.82	33514.13
511.99	33298.80
512.17	33710.74
512.34	33347.95
512.51	33462.64
512.69	33745.84
512.86	33846.49
513.04	34061.82
513.21	34045.43
513.38	33607.75
513.56	33970.54
513.73	33940.11
513.90	34178.84
514.08	33982.24
514.25	34253.74
514.43	34398.85
514.60	34347.36
514.77	34384.81
514.95	34780.36
515.12	34590.78
515.29	34766.32
515.47	34998.03
515.64	35374.86
515.81	34871.64
515.99	35047.18
516.16	35346.77
516.33	34609.50
516.51	34794.40
516.68	34452.69
516.85	34462.05
517.03	34742.91
517.20	35009.73
517.37	35236.77
517.54	35601.89
517.72	35475.50
517.89	35150.17
518.06	35475.50
518.24	35126.76
518.41	35288.26
518.58	35058.88
518.75	35311.66
518.93	35906.16
519.10	35824.24
519.27	36587.25
519.45	36325.11
519.62	36168.30
519.79	36268.94
519.96	36528.74
520.14	36781.52
520.31	35997.44
520.48	36900.89
520.65	36762.79
520.83	37125.58
521.00	37146.64
521.17	37378.36
521.34	37584.32
521.52	37359.63
521.69	37097.49
521.86	37462.61
522.03	37462.61
522.20	37755.18
522.38	38333.29
522.55	37759.86
522.72	37755.18
522.89	37390.06
523.07	37958.81
523.24	37617.09
523.41	38473.73
523.58	38164.78
523.75	38735.87
523.92	38319.25
524.10	38623.52
524.27	38660.97
524.44	38759.27
524.61	38937.15
524.78	38813.10
524.96	38286.48
525.13	38684.37
525.30	39021.41
525.47	38934.81
525.64	38597.77
525.81	38710.12
525.98	38356.70
526.16	38883.32
526.33	38237.33
526.50	38686.71
526.67	38513.52
526.84	38593.09
527.01	38693.74
527.18	39089.29
527.36	39423.98
527.53	39491.86
527.70	40046.57
527.87	39789.11
528.04	39620.59
528.21	39997.41
528.38	39658.04
528.55	40570.85
528.72	40018.48
528.89	40502.97
529.07	40046.57
529.24	40053.59
529.41	40137.85
529.58	39920.18
529.75	40203.38
529.92	40339.13
530.09	40575.53
530.26	40360.20
530.43	40348.50
530.60	40519.35
530.77	40425.73
530.94	40748.73
531.11	40437.44
531.28	40746.39
531.46	40975.76
531.63	40657.45
531.80	40659.79
531.97	40947.67
532.14	40912.56
532.31	40177.64
532.48	40821.28
532.65	40620.00
532.82	40608.29
532.99	41380.67
533.16	40987.46
533.33	41249.60
533.50	41439.18
533.67	41408.76
533.84	41092.79
534.01	41031.93
534.18	41483.66
534.35	41867.50
534.52	41801.97
534.69	41752.82
534.86	41361.95
535.03	41731.75
535.20	41975.17
535.37	42361.36
535.54	42457.32
535.71	41951.76
535.88	42490.09
536.05	41991.55
536.22	41921.34
536.38	42155.39
536.55	42045.38
536.72	42314.55
536.89	41607.70
537.06	42220.92
537.23	42689.03
537.40	42403.49
537.57	42141.35
537.74	43105.65
537.91	42911.38
538.08	42705.41
538.25	42347.31
538.42	42621.16
538.59	42859.89
538.75	42340.29
538.92	42747.54
539.09	42478.38
539.26	42866.91
539.43	43103.31
539.60	42710.10
539.77	42462.00
539.94	42466.68
540.11	42555.62
540.28	42497.11
540.44	43136.07
540.61	42923.08
540.78	42895.00
540.95	42508.81
541.12	42852.87
541.29	42829.46
541.46	43332.68
541.62	43267.14
541.79	43601.84
541.96	43042.45
542.13	43014.37
542.30	43070.54
542.47	43686.10
542.63	43454.39
542.80	43320.98
542.97	43983.35
543.14	43768.02
543.31	44081.65
543.48	43861.64
543.64	44619.97
543.81	44191.65
543.98	44456.14
544.15	44151.87
544.32	44313.36
544.48	44636.36
544.65	44460.82
544.82	44435.07
544.99	43761.00
545.16	44491.24
545.32	44245.49
545.49	44938.29
545.66	44701.89
545.83	44603.59
546.00	44832.96
546.16	44589.55
546.33	44479.54
546.50	44060.58
546.67	44720.62
546.83	44505.29
547.00	44545.08
547.17	44428.05
547.34	44395.28
547.50	44430.39
547.67	44854.03
547.84	44638.70
548.00	45247.24
548.17	44893.82
548.34	45092.76
548.51	45268.30
548.67	45235.53
548.84	45305.75
549.01	44933.60
549.18	44989.78
549.34	45413.41
549.51	45471.93
549.68	45436.82
549.84	45123.19
550.01	45588.95
550.18	45050.63
550.34	45516.40
550.51	45067.02
550.68	45338.52
550.84	44980.42
551.01	45399.37
551.18	45195.74
551.34	45413.41
551.51	45539.80
551.68	45764.49
551.84	45654.49
552.01	45507.04
552.18	45551.51
552.34	45385.33
552.51	45694.28
552.68	45691.94
552.84	45684.92
553.01	45687.26
553.18	45874.50
553.34	45457.88
553.51	45352.56
553.67	45382.99
553.84	46286.43
554.01	46005.57
554.17	45869.82
554.34	45921.31
554.51	46244.30
554.67	46312.18
554.84	46043.02
555.00	45509.38
555.17	46094.51
555.33	46160.05
555.50	45853.44
555.67	46012.59
555.83	46298.14
556.00	46272.39
556.16	46630.49
556.33	46595.38
556.50	46408.14
556.66	46230.26
556.83	46263.03
556.99	46307.50
557.16	46366.01
557.32	46005.57
557.49	46511.13
557.65	46131.96
557.82	46663.26
557.98	46267.71
558.15	46759.22
558.32	46543.89
558.48	46363.67
558.65	46747.52
558.81	46316.86
558.98	46525.17
559.14	46131.96
559.31	46263.03
559.47	46511.13
559.64	46344.95
559.80	46658.58
559.97	46850.50
560.13	46354.31
560.30	46586.02
560.46	46667.94
560.63	46997.96
560.79	46972.21
560.96	47007.32
561.12	46946.47
561.29	46838.80
561.45	46923.06
561.61	46705.39
561.78	46588.36
561.94	46689.01
562.11	46539.21
562.27	47199.24
562.44	46681.98
562.60	47044.77
562.77	47255.42
562.93	46787.31
563.10	46925.40
563.26	46859.87
563.42	47007.32
563.59	46312.18
563.75	46763.90
563.92	47372.44
564.08	46880.93
564.24	47185.20
564.41	47063.49
564.57	47089.24
564.74	47056.47
564.90	47210.95
565.07	47243.71
565.23	47009.66
565.39	47086.90
565.56	47232.01
565.72	46899.65
565.88	47208.61
566.05	47161.79
566.21	47068.17
566.38	47150.09
566.54	47150.09
566.70	46813.05
566.87	47381.80
567.03	47051.79
567.19	47482.45
567.36	47285.84
567.52	47054.13
567.68	47498.83
567.85	46763.90
568.01	46972.21
568.17	47533.94
568.34	47269.46
568.50	47203.92
568.66	46789.65
568.83	47208.61
568.99	46904.34
569.15	47524.58
569.32	47227.33
569.48	46838.80
569.64	47545.64
569.81	47213.29
569.97	47143.07
570.13	46799.01
570.30	46920.72
570.46	47091.58
570.62	46714.75
570.78	47110.30
570.95	46632.83
571.11	47126.69
571.27	46773.27
571.43	47489.47
571.60	47505.85
571.76	47414.57
571.92	47243.71
572.09	47021.36
572.25	47122.01
572.41	47164.14
572.57	47339.68
572.74	47751.61
572.90	47122.01
573.06	47477.77
573.22	47391.17
573.38	47489.47
573.55	47246.05
573.71	47470.75
573.87	47091.58
574.03	47182.86
574.20	47206.26
574.36	47604.16
574.52	47580.75
574.68	47660.33
574.84	46997.96
575.01	47283.50
575.17	47086.90
575.33	46955.83
575.49	47100.94
575.65	47086.90
575.82	47468.40
575.98	47342.02
576.14	47168.82
576.30	47501.17
576.46	47217.97
576.62	47122.01
576.79	47742.25
576.95	46988.60
577.11	47379.46
577.27	47122.01
577.43	47744.59
577.59	47547.98
577.75	47196.90
577.92	46721.77
578.08	47133.71
578.24	47098.60
578.40	46756.88
578.56	47290.52
578.72	47220.31
578.88	47447.34
579.04	47227.33
579.21	47061.15
579.37	47332.65
579.53	47260.10
579.69	47002.64
579.85	47274.14
580.01	47657.99
580.17	47847.57
580.33	47618.20
580.49	47636.92
580.65	47760.97
580.82	47569.05
580.98	47260.10
581.14	47168.82
581.30	47281.16
581.46	47351.38
581.62	47835.87
581.78	47751.61
581.94	48203.33
582.10	47643.94
582.26	47550.32
582.42	47400.53
582.58	47407.55
582.74	47412.23
582.90	47449.68
583.06	47398.19
583.22	47613.52
583.38	47978.64
583.54	47536.28
583.70	47445.00
583.86	47367.76
584.02	47325.63
584.18	47508.19
584.34	47337.33
584.50	47760.97
584.66	47580.75
584.82	47180.52
584.98	47693.10
585.14	47529.26
585.30	46897.31
585.46	47285.84
585.62	46953.49
585.78	47269.46
585.94	47019.02
586.10	47302.23
586.26	47484.79
586.42	47709.48
586.58	47580.75
586.74	47629.90
586.90	47676.71
587.06	47442.66
587.22	47339.68
587.38	47267.12
587.54	47391.17
587.70	47777.36
587.86	47473.09
588.02	47505.85
588.18	47672.03
588.34	47224.99
588.49	47150.09
588.65	46693.69
588.81	46897.31
588.97	46918.38
589.13	47159.45
589.29	46913.70
589.45	47344.36
589.61	47208.61
589.77	47655.65
