SpectraSuite Data File
++++++++++++++++++++++++++++++++++++
Date: Fri Oct 25 11:26:33 EDT 2013
User: price-jones
Dark Spectrum Present: No
Reference Spectrum Present: No
Number of Sampled Component Spectra: 1
Spectrometers: USB2+H05261
Integration Time (usec): 100000 (USB2+H05261)
Spectra Averaged: 1 (USB2+H05261)
Boxcar Smoothing: 0 (USB2+H05261)
Correct for Electrical Dark: No (USB2+H05261)
Strobe/Lamp Enabled: No (USB2+H05261)
Correct for Detector Non-linearity: No (USB2+H05261)
Correct for Stray Light: No (USB2+H05261)
Number of Pixels in Processed Spectrum: 2048
>>>>>Begin Processed Spectral Data<<<<<
365.73	234.05
365.92	234.05
366.12	234.05
366.32	149.79
366.52	119.37
366.72	187.24
366.91	177.88
367.11	222.35
367.31	166.18
367.51	121.71
367.70	147.45
367.90	154.48
368.10	121.71
368.30	170.86
368.49	126.39
368.69	182.56
368.89	117.03
369.09	135.75
369.28	152.13
369.48	140.43
369.68	203.63
369.87	259.80
370.07	152.13
370.27	241.08
370.47	388.53
370.66	629.60
370.86	622.58
371.06	711.52
371.25	688.12
371.45	622.58
371.65	655.35
371.84	751.31
372.04	695.14
372.24	697.48
372.44	739.61
372.63	727.91
372.83	741.95
373.03	758.33
373.22	798.12
373.42	777.06
373.62	793.44
373.81	828.55
374.01	830.89
374.21	807.48
374.40	781.74
374.60	912.81
374.79	858.98
374.99	835.57
375.19	877.70
375.38	856.64
375.58	833.23
375.78	835.57
375.97	868.34
376.17	868.34
376.37	861.32
376.56	959.62
376.76	849.61
376.95	952.60
377.15	915.15
377.35	978.34
377.54	985.37
377.74	938.55
377.93	1034.52
378.13	849.61
378.33	910.47
378.52	844.93
378.72	847.27
378.91	980.68
379.11	964.30
379.31	994.73
379.50	898.77
379.70	1011.11
379.89	978.34
380.09	912.81
380.28	919.83
380.48	980.68
380.68	910.47
380.87	1008.77
381.07	1055.58
381.26	917.49
381.46	1111.75
381.65	1006.43
381.85	959.62
382.04	1048.56
382.24	1013.45
382.43	1097.71
382.63	1050.90
382.83	1029.84
383.02	1165.59
383.22	1156.22
383.41	1093.03
383.61	1146.86
383.80	1275.59
384.00	1128.14
384.19	1104.73
384.39	1165.59
384.58	1196.01
384.78	1193.67
384.97	1109.41
385.17	1160.91
385.36	1177.29
385.56	1188.99
385.75	1139.84
385.95	1221.76
386.14	1238.14
386.34	1203.04
386.53	1226.44
386.72	1128.14
386.92	1186.65
387.11	1287.29
387.31	1226.44
387.50	1282.61
387.70	1226.44
387.89	1212.40
388.09	1217.08
388.28	1259.21
388.48	1214.74
388.67	1338.79
388.86	1380.92
389.06	1308.36
389.25	1373.89
389.45	1369.21
389.64	1291.98
389.84	1406.66
390.03	1420.71
390.22	1425.39
390.42	1411.34
390.61	1430.07
390.81	1385.60
391.00	1437.09
391.19	1577.52
391.39	1432.41
391.58	1409.00
391.78	1582.20
391.97	1521.35
392.16	1460.49
392.36	1577.52
392.55	1511.99
392.75	1551.78
392.94	1544.75
393.13	1516.67
393.33	1556.46
393.52	1493.26
393.71	1554.12
393.91	1589.22
394.10	1554.12
394.29	1619.65
394.49	1577.52
394.68	1617.31
394.88	1703.91
395.07	1621.99
395.26	1671.14
395.46	1657.10
395.65	1743.70
395.84	1778.81
396.04	1886.47
396.23	1774.13
396.42	1682.85
396.62	1825.62
396.81	1795.19
397.00	1790.51
397.19	1874.77
397.39	1813.92
397.58	1900.52
397.77	1753.06
397.97	1813.92
398.16	1853.70
398.35	1898.17
398.55	1853.70
398.74	1919.24
398.93	1902.86
399.12	1947.33
399.32	2005.84
399.51	1909.88
399.70	1907.54
399.90	2047.97
400.09	1987.11
400.28	2043.29
400.47	1982.43
400.67	2083.08
400.86	1994.14
401.05	2172.02
401.24	2214.15
401.44	2059.67
401.63	2134.57
401.82	2111.16
402.01	2115.84
402.21	2162.66
402.40	2155.63
402.59	2139.25
402.78	2317.13
402.97	2176.70
403.17	2260.96
403.36	2363.94
403.55	2272.66
403.74	2420.11
403.93	2427.14
404.13	2464.58
404.32	2328.83
404.51	2385.01
404.70	2406.07
404.89	2368.62
405.09	2413.09
405.28	2513.74
405.47	2429.48
405.66	2464.58
405.85	2495.01
406.05	2532.46
406.24	2628.42
406.43	2640.12
406.62	2574.59
406.81	2656.51
407.00	2614.38
407.20	2642.46
407.39	2637.78
407.58	2778.22
407.77	2668.21
407.96	2745.45
408.15	2715.02
408.34	2661.19
408.54	2843.75
408.73	2850.77
408.92	2796.94
409.11	2794.60
409.30	2916.31
409.49	2789.92
409.68	2834.39
409.87	2958.44
410.07	3059.08
410.26	3056.74
410.45	3030.99
410.64	2944.39
410.83	2972.48
411.02	3035.67
411.21	3197.17
411.40	3117.59
411.59	3213.56
411.78	3232.28
411.98	3337.60
412.17	3321.22
412.36	3349.31
412.55	3524.85
412.74	3428.88
412.93	3482.72
413.12	3375.05
413.31	3609.11
413.50	3433.57
413.69	3370.37
413.88	3534.21
414.07	3562.30
414.26	3641.87
414.45	3712.09
414.64	3700.39
414.83	3674.64
415.02	3716.77
415.22	3686.34
415.41	3932.10
415.60	3822.09
415.79	3983.59
415.98	4079.55
416.17	4124.02
416.36	3819.75
416.55	4002.32
416.74	4156.79
416.93	3995.29
417.12	4051.47
417.31	4121.68
417.50	4252.75
417.69	4355.74
417.88	4278.50
418.07	4280.84
418.26	4329.99
418.45	4400.21
418.64	4372.12
418.83	4437.66
419.02	4451.70
419.21	4615.54
419.39	4472.76
419.58	4660.01
419.77	4449.36
419.96	4507.87
420.15	4692.77
420.34	4622.56
420.53	4521.92
420.72	4676.39
420.91	4568.73
421.10	4835.55
421.29	4650.64
421.48	4606.17
421.67	4889.38
421.86	4767.67
422.05	4856.61
422.24	4744.27
422.43	4898.74
422.61	4812.14
422.80	5013.43
422.99	4875.34
423.18	4978.32
423.37	4922.15
423.56	4905.76
423.75	5022.79
423.94	4833.21
424.13	4692.77
424.32	5041.51
424.50	4978.32
424.69	5121.09
424.88	5109.39
425.07	4943.21
425.26	4844.91
425.45	4947.89
425.64	4964.28
425.83	4990.02
426.01	4947.89
426.20	5046.20
426.39	5191.31
426.58	5085.98
426.77	5130.45
426.96	5376.21
427.15	5067.26
427.33	5284.93
427.52	5191.31
427.71	5139.82
427.90	5331.74
428.09	5355.15
428.28	5348.12
428.46	5481.53
428.65	5411.32
428.84	5631.33
429.03	5542.39
429.22	5392.59
429.40	5493.24
429.59	5631.33
429.78	5371.53
429.97	5261.52
430.16	5507.28
430.34	5809.21
430.53	5701.54
430.72	5624.31
430.91	5708.57
431.10	5664.10
431.28	5832.62
431.47	5823.25
431.66	5928.58
431.85	5895.81
432.03	5783.46
432.22	6008.16
432.41	5846.66
432.60	5970.71
432.79	6019.86
432.97	6071.35
433.16	6073.69
433.35	5998.79
433.54	6071.35
433.72	6169.65
433.91	6193.06
434.10	6076.03
434.28	6061.99
434.47	6235.19
434.66	6303.06
434.85	6214.12
435.03	6520.73
435.22	6291.36
435.41	6401.37
435.59	6506.69
435.78	6548.82
435.97	6497.33
436.16	6401.37
436.34	6541.80
436.53	6443.49
436.72	6806.28
436.90	6490.31
437.09	6670.53
437.28	6661.16
437.46	6576.91
437.65	6757.13
437.84	6850.75
438.02	6857.77
438.21	6825.00
438.40	6722.02
438.58	7037.99
438.77	7047.35
438.96	6958.41
439.14	7272.04
439.33	7073.10
439.52	7143.32
439.70	7239.28
439.89	7536.52
440.08	7468.65
440.26	7344.60
440.45	7456.95
440.63	7356.30
440.82	7616.10
441.01	7712.07
441.19	7541.21
441.38	7613.76
441.57	7524.82
441.75	8063.15
441.94	7953.14
442.12	7840.79
442.31	8131.02
442.50	8067.83
442.68	8053.78
442.87	8196.56
443.05	8224.64
443.24	8154.43
443.43	8112.30
443.61	8308.90
443.80	8407.20
443.98	8170.81
444.17	7871.22
444.35	8367.42
444.54	8161.45
444.73	8386.14
444.91	8362.73
445.10	8362.73
445.28	8428.27
445.47	8325.29
445.65	8311.24
445.84	8561.68
446.02	8638.92
446.21	8346.35
446.39	8484.44
446.58	8507.85
446.77	8484.44
446.95	8472.74
447.14	8648.28
447.32	8505.51
447.51	8374.44
447.69	8369.76
447.88	8690.41
448.06	8547.64
448.25	8580.40
448.43	8786.37
448.62	8734.88
448.80	8500.83
448.99	8652.96
449.17	8774.67
449.36	8669.34
449.54	8814.46
449.73	8954.89
449.91	9053.19
450.10	8985.32
450.28	9135.11
450.46	9198.31
450.65	9226.39
450.83	9071.92
451.02	9132.77
451.20	9289.59
451.39	9027.45
451.57	9200.65
451.76	9050.85
451.94	9132.77
452.13	9415.98
452.31	9341.08
452.49	9294.27
452.68	9654.71
452.86	9172.56
453.05	9301.29
453.23	9701.52
453.42	9406.61
453.60	9383.21
453.78	9486.19
453.97	9320.01
454.15	9521.30
454.34	9692.16
454.52	9701.52
454.70	9816.21
454.89	9738.97
455.07	9984.73
455.26	9907.49
455.44	9914.51
455.62	9970.68
455.81	9879.40
455.99	9905.15
456.17	10061.96
456.36	9998.77
456.54	10132.18
456.73	10249.21
456.91	10686.89
457.09	10387.30
457.28	10354.53
457.46	10303.04
457.64	10581.56
457.83	10471.56
458.01	10469.22
458.19	10820.30
458.38	10607.31
458.56	10635.39
458.74	10600.29
458.93	10705.61
459.11	10696.25
459.29	10862.43
459.48	10719.65
459.66	10661.14
459.84	10930.30
460.03	10981.79
460.21	11126.91
460.39	11112.86
460.57	11117.54
460.76	11169.04
460.94	11410.11
461.12	11117.54
461.31	11279.04
461.49	11281.38
461.67	11138.61
461.85	11468.62
462.04	11335.21
462.22	11681.61
462.40	11468.62
462.59	11482.67
462.77	11571.61
462.95	11536.50
463.13	11346.92
463.32	11658.21
463.50	11726.08
463.68	11702.68
463.86	11885.24
464.05	11747.15
464.23	11693.32
464.41	11969.50
464.59	11693.32
464.78	12194.19
464.96	12191.85
465.14	12035.03
465.32	12131.00
465.50	12257.39
465.69	12194.19
465.87	12343.99
466.05	11990.56
466.23	12138.02
466.41	12266.75
466.60	12549.95
466.78	12446.97
466.96	12262.07
467.14	12341.64
467.32	12355.69
467.51	12622.51
467.69	12301.86
467.87	12414.20
468.05	12889.33
468.23	12393.14
468.41	12781.67
468.60	12627.19
468.78	12559.31
468.96	12374.41
469.14	12802.73
469.32	13027.42
469.50	12844.86
469.69	12784.01
469.87	13034.44
470.05	13186.58
470.23	13121.04
470.41	13200.62
470.59	13296.58
470.77	13207.64
470.95	13523.62
471.14	13640.64
471.32	13013.38
471.50	13591.49
471.68	13523.62
471.86	13680.43
472.04	13647.66
472.22	14174.28
472.40	13743.63
472.58	14005.77
472.77	13818.52
472.95	14230.46
473.13	14553.45
473.31	14129.81
473.49	14181.31
473.67	14153.22
473.85	14361.53
474.03	14478.55
474.21	14534.73
474.39	14862.40
474.57	14904.53
474.75	14663.46
474.93	15150.29
475.12	15143.27
475.30	14998.15
475.48	15229.87
475.66	15169.01
475.84	15234.55
476.02	15496.69
476.20	15653.50
476.38	15791.59
476.56	16336.94
476.74	15943.73
476.92	16053.73
477.10	15889.90
477.28	16198.85
477.46	16152.04
477.64	16369.71
477.82	16769.94
478.00	16989.95
478.18	16917.39
478.36	17102.29
478.54	16919.73
478.72	17245.07
478.90	17228.68
479.08	17783.39
479.26	17820.84
479.44	17827.86
479.62	17825.52
479.80	18361.50
479.98	18075.96
480.16	18356.82
480.34	18494.91
480.52	18600.24
480.70	18661.09
480.88	18106.38
481.06	18782.80
481.24	18576.83
481.41	19150.26
481.59	19536.45
481.77	19463.90
481.95	19618.37
482.13	19529.43
482.31	19906.26
482.49	20266.70
482.67	20659.91
482.85	20301.81
483.03	20776.94
483.21	20725.44
483.39	21195.89
483.57	20720.76
483.74	21268.45
483.92	21495.48
484.10	21549.31
484.28	21926.14
484.46	22050.19
484.64	22101.68
484.82	22108.70
485.00	22272.54
485.18	22920.87
485.35	22754.69
485.53	22869.37
485.71	23213.43
485.89	23484.94
486.07	23171.30
486.25	23353.87
486.43	23812.61
486.61	24336.89
486.78	24297.10
486.96	24276.04
487.14	24360.30
487.32	24905.64
487.50	25041.39
487.68	25003.94
487.85	25476.73
488.03	25556.31
488.21	25640.57
488.39	25825.47
488.57	26235.06
488.75	26064.21
488.92	26501.89
489.10	26721.90
489.28	26780.41
489.46	27623.00
489.64	27257.88
489.81	27798.54
489.99	27632.36
490.17	28013.87
490.35	27938.97
490.53	28203.46
490.70	28526.45
490.88	28238.56
491.06	28959.45
491.24	28854.12
491.41	28914.98
491.59	29469.69
491.77	29383.09
491.95	29975.24
492.13	29715.44
492.30	29788.00
492.48	30073.54
492.66	30501.86
492.84	30703.15
493.01	31054.23
493.19	31021.46
493.37	30745.28
493.54	31370.20
493.72	32093.43
493.90	31545.74
494.08	32063.00
494.25	32121.51
494.43	32170.66
494.61	32528.77
494.79	32989.85
494.96	32613.02
495.14	33053.05
495.32	33490.73
495.49	33778.61
495.67	33394.76
495.85	33401.79
496.02	33872.23
496.20	34211.61
496.38	33947.13
496.55	34265.44
496.73	34986.33
496.91	34876.32
497.09	34904.41
497.26	35037.82
497.44	35063.57
497.62	35262.51
497.79	35997.44
497.97	35840.62
498.14	36257.24
498.32	36009.14
498.50	36147.23
498.67	36842.37
498.85	36538.10
499.03	36807.26
499.20	36844.71
499.38	37160.69
499.56	37378.36
499.73	36814.29
499.91	37282.39
500.08	37785.61
500.26	37441.55
500.44	37642.84
500.61	37759.86
500.79	37689.65
500.97	37958.81
501.14	38504.15
501.32	38817.78
501.49	38536.92
501.67	38981.62
501.84	38632.88
502.02	38918.43
502.20	39180.57
502.37	39201.63
502.55	39192.27
502.72	39608.89
502.90	39697.83
503.07	39674.42
503.25	40069.97
503.43	39805.49
503.60	40491.27
503.78	40472.54
503.95	40474.88
504.13	40737.02
504.30	40519.35
504.48	40685.53
504.65	40891.50
504.83	41397.06
505.01	41123.21
505.18	41275.35
505.36	41408.76
505.53	41296.41
505.71	41851.12
505.88	41975.17
506.06	41633.45
506.23	42483.06
506.41	42202.20
506.58	42066.45
506.76	42625.84
506.93	42707.76
507.11	42408.17
507.28	43124.37
507.46	42766.27
507.63	42731.16
507.81	43625.25
507.98	42651.58
508.16	43604.18
508.33	43606.52
508.50	43438.00
508.68	43494.18
508.85	44196.34
509.03	44091.01
509.20	43936.54
509.38	44479.54
509.55	44655.08
509.73	44760.40
509.90	44626.99
510.08	44622.31
510.25	44755.72
510.42	45174.68
510.60	45240.21
510.77	45762.15
510.95	45649.81
511.12	45036.59
511.30	45813.65
511.47	45752.79
511.64	45621.72
511.82	45743.43
511.99	45764.49
512.17	46419.84
512.34	45944.72
512.51	46548.57
512.69	46272.39
512.86	46248.99
513.04	46681.98
513.21	46635.17
513.38	46803.69
513.56	47173.50
513.73	46878.59
513.90	47613.52
514.08	47037.75
514.25	47435.64
514.43	47842.89
514.60	47475.43
514.77	47405.21
514.95	47739.91
515.12	47838.21
515.29	47945.87
515.47	48032.47
515.64	48320.36
515.81	48002.05
515.99	48060.56
516.16	48472.49
516.33	48303.98
516.51	48751.02
516.68	48556.75
516.85	48776.76
517.03	48926.56
517.20	49144.23
517.37	48584.84
517.54	49270.62
517.72	48964.01
517.89	49083.37
518.06	49366.58
518.24	49226.15
518.41	49415.73
518.58	49120.82
518.75	49263.60
518.93	49762.13
519.10	49413.39
519.27	50108.53
519.45	49605.31
519.62	50141.30
519.79	50120.23
519.96	49925.97
520.14	50148.32
520.31	50267.69
520.48	50532.17
520.65	50330.88
520.83	50777.92
521.00	50813.03
521.17	50415.14
521.34	50688.98
521.52	50770.90
521.69	50717.07
521.86	51016.66
522.03	51356.03
522.20	51564.34
522.38	51512.85
522.55	51208.58
522.72	51805.42
522.89	51332.63
523.07	51978.62
523.24	51695.41
523.41	51557.32
523.58	51566.68
523.75	52079.26
523.92	51756.27
524.10	52233.74
524.27	52189.27
524.44	52032.45
524.61	52240.76
524.78	52219.69
524.96	52238.42
525.13	52268.84
525.30	52161.18
525.47	52453.75
525.64	52622.26
525.81	52765.04
525.98	52648.01
526.16	52486.51
526.33	52774.40
526.50	53436.77
526.67	53169.95
526.84	53027.18
527.01	53111.44
527.18	53214.42
527.36	53198.04
527.53	53083.35
527.70	53331.45
527.87	53544.44
528.04	53265.91
528.21	53495.28
528.38	53275.27
528.55	53792.53
528.72	53427.41
528.89	53399.32
529.07	53251.87
529.24	53413.37
529.41	53829.98
529.58	53773.81
529.75	53890.83
529.92	53769.13
530.09	53911.90
530.26	54213.83
530.43	54115.53
530.60	53771.47
530.77	53986.80
530.94	54160.00
531.11	53918.92
531.28	54293.41
531.46	54167.02
531.63	54333.20
531.80	54417.46
531.97	54567.25
532.14	54300.43
532.31	54504.06
532.48	54677.25
532.65	54667.89
532.82	54759.17
532.99	54887.90
533.16	54747.47
533.33	54923.01
533.50	55234.30
533.67	55316.22
533.84	54621.08
534.01	55061.10
534.18	55016.63
534.35	55337.29
534.52	55133.66
534.69	55215.58
534.86	54967.48
535.03	55061.10
535.20	55306.86
535.37	55557.30
535.54	55646.24
535.71	55576.02
535.88	55653.26
536.05	55840.50
536.22	55578.36
536.38	55554.96
536.55	56025.40
536.72	55826.46
536.89	55526.87
537.06	55526.87
537.23	55707.09
537.40	55707.09
537.57	55964.55
537.74	55884.97
537.91	56334.35
538.08	55863.91
538.25	56102.64
538.42	55927.10
538.59	56282.86
538.75	56030.08
538.92	56229.03
539.09	56287.54
539.26	56376.48
539.43	56222.01
539.60	56411.59
539.77	56432.66
539.94	56540.32
540.11	56254.78
540.28	56535.64
540.44	56699.48
540.61	56521.60
540.78	56409.25
540.95	56760.33
541.12	56495.85
541.29	56542.66
541.46	56821.19
541.62	56732.25
541.79	56935.87
541.96	56374.14
542.13	56542.66
542.30	56704.16
542.47	57088.01
542.63	57057.58
542.80	57097.37
542.97	57155.88
543.14	57364.19
543.31	57041.20
543.48	57298.65
543.64	57425.04
543.81	57308.02
543.98	57315.04
544.15	57319.72
544.32	57406.32
544.48	57729.31
544.65	57457.81
544.82	57546.75
544.99	57284.61
545.16	57572.50
545.32	57406.32
545.49	57689.52
545.66	57799.53
545.83	57743.36
546.00	57923.58
546.16	57701.23
546.33	57708.25
546.50	57485.90
546.67	57841.66
546.83	57684.84
547.00	57829.96
547.17	57680.16
547.34	57808.89
547.50	58108.48
547.67	58040.60
547.84	58354.24
548.00	58141.25
548.17	58433.81
548.34	58225.51
548.51	58328.49
548.67	58183.38
548.84	58211.46
549.01	58155.29
549.18	58260.62
549.34	58059.33
549.51	58398.71
549.68	58356.58
549.84	58370.62
550.01	58681.91
550.18	58019.54
550.34	58581.27
550.51	58267.64
550.68	58368.28
550.84	58403.39
551.01	58532.12
551.18	58497.01
551.34	58368.28
551.51	58555.52
551.68	58695.95
551.84	58616.38
552.01	58372.96
552.18	58663.19
552.34	58595.31
552.51	58693.61
552.68	58597.65
552.84	58658.51
553.01	59021.29
553.18	59000.22
553.34	58972.14
553.51	58843.41
553.67	58761.49
553.84	58962.78
554.01	58969.80
554.17	58887.88
554.34	59238.96
554.51	59145.34
554.67	59316.20
554.84	59068.10
555.00	59285.77
555.17	59040.01
555.33	59180.45
555.50	58937.03
555.67	59161.72
555.83	59049.38
556.00	59114.91
556.16	59515.14
556.33	59367.69
556.50	59365.35
556.66	59590.04
556.83	59311.52
556.99	59416.84
557.16	59561.95
557.32	59557.27
557.49	59812.39
557.65	59536.21
557.82	59271.73
557.98	59468.33
558.15	59536.21
558.32	59704.73
558.48	59550.25
558.65	59772.60
558.81	59709.41
558.98	59721.11
559.14	59718.77
559.31	59503.44
559.47	59660.26
559.64	59686.00
559.80	59702.38
559.97	59903.67
560.13	59646.21
560.30	59873.24
560.46	59915.37
560.63	59997.29
560.79	59838.14
560.96	59807.71
561.12	59938.78
561.29	59934.10
561.45	60046.44
561.61	59756.22
561.78	60123.68
561.94	59786.64
562.11	59774.94
562.27	59955.16
562.44	60182.19
562.60	60109.64
562.77	60016.02
562.93	59845.16
563.10	60275.82
563.26	59945.80
563.42	60299.22
563.59	60217.30
563.75	60027.72
563.92	60236.03
564.08	60067.51
564.24	60151.77
564.41	60214.96
564.57	60238.37
564.74	60423.27
564.90	60310.92
565.07	60097.94
565.23	60439.65
565.39	60378.80
565.56	60362.42
565.72	60182.19
565.88	60376.46
566.05	60065.17
566.21	60126.02
566.38	60200.92
566.54	60404.55
566.70	60430.29
566.87	60662.00
567.03	60233.69
567.19	60383.48
567.36	60399.86
567.52	60474.76
567.68	60528.59
567.85	60273.48
568.01	60360.08
568.17	60343.69
568.34	60413.91
568.50	60336.67
568.66	60376.46
568.83	60484.12
568.99	60271.14
569.15	60484.12
569.32	60402.21
569.48	60402.21
569.64	60708.82
569.81	60575.40
569.97	60446.68
570.13	60746.26
570.30	60360.08
570.46	60706.47
570.62	60683.07
570.78	60486.46
570.95	60582.43
571.11	60662.00
571.27	60547.32
571.43	60353.05
571.60	60804.78
571.76	60701.79
571.92	60530.93
572.09	60570.72
572.25	60596.47
572.41	60390.50
572.57	60561.36
572.74	60690.09
572.90	60505.19
573.06	60755.63
573.22	60500.51
573.38	60568.38
573.55	60643.28
573.71	61052.87
573.87	60865.63
574.03	60402.21
574.20	60872.65
574.36	60587.11
574.52	60973.30
574.68	60760.31
574.84	60921.80
575.01	60793.07
575.17	60757.97
575.33	60807.12
575.49	60645.62
575.65	60774.35
575.82	60954.57
575.98	60779.03
576.14	60959.25
576.30	60853.93
576.46	60961.59
576.62	60851.59
576.79	60807.12
576.95	60715.84
577.11	60793.07
577.27	60818.82
577.43	60924.14
577.59	60874.99
577.75	60842.23
577.92	60802.44
578.08	60715.84
578.24	60996.70
578.40	61146.50
578.56	60870.31
578.72	60977.98
578.88	61062.24
579.04	61123.09
579.21	60678.39
579.37	61095.00
579.53	60945.21
579.69	60764.99
579.85	60753.29
580.01	60734.56
580.17	60722.86
580.33	60797.76
580.49	61071.60
580.65	61020.11
580.82	60935.85
580.98	60942.87
581.14	60830.52
581.30	61286.93
581.46	60947.55
581.62	60999.04
581.78	60935.85
581.94	60896.06
582.10	61022.45
582.26	60786.05
582.42	60933.51
582.58	61160.54
582.74	60992.02
582.90	61193.31
583.06	61057.56
583.22	60905.42
583.38	61130.11
583.54	60940.53
583.70	60975.64
583.86	60999.04
584.02	61006.06
584.18	61078.62
584.34	61069.26
584.50	60942.87
584.66	60921.80
584.82	60872.65
584.98	61123.09
585.14	61242.46
585.30	60994.36
585.46	61104.37
585.62	61080.96
585.78	61256.50
585.94	60912.44
586.10	61022.45
586.26	61190.97
586.42	61221.39
586.58	61315.01
586.74	61099.68
586.90	61183.94
587.06	60949.89
587.22	61258.84
587.38	61118.41
587.54	61357.14
587.70	61181.60
587.86	61202.67
588.02	60996.70
588.18	61373.53
588.34	61193.31
588.49	60924.14
