SpectraSuite Data File
++++++++++++++++++++++++++++++++++++
Date: Fri Oct 25 10:48:00 EDT 2013
User: price-jones
Dark Spectrum Present: No
Reference Spectrum Present: No
Number of Sampled Component Spectra: 1
Spectrometers: USB2+H05261
Integration Time (usec): 100000 (USB2+H05261)
Spectra Averaged: 1 (USB2+H05261)
Boxcar Smoothing: 0 (USB2+H05261)
Correct for Electrical Dark: No (USB2+H05261)
Strobe/Lamp Enabled: No (USB2+H05261)
Correct for Detector Non-linearity: No (USB2+H05261)
Correct for Stray Light: No (USB2+H05261)
Number of Pixels in Processed Spectrum: 2048
>>>>>Begin Processed Spectral Data<<<<<
365.73	163.84
365.92	163.84
366.12	163.84
366.32	79.58
366.52	65.54
366.72	21.06
366.91	23.41
367.11	0.00
367.31	28.09
367.51	9.36
367.70	9.36
367.90	35.11
368.10	0.00
368.30	4.68
368.49	107.66
368.69	93.62
368.89	30.43
369.09	46.81
369.28	84.26
369.48	65.54
369.68	81.92
369.87	46.81
370.07	100.64
370.27	133.41
370.47	166.18
370.66	320.65
370.86	332.36
371.06	449.38
371.25	456.40
371.45	388.53
371.65	423.64
371.84	451.72
372.04	416.62
372.24	470.45
372.44	437.68
372.63	430.66
372.83	568.75
373.03	475.13
373.22	428.32
373.42	521.94
373.62	526.62
373.81	617.90
374.01	603.86
374.21	606.20
374.40	568.75
374.60	531.30
374.79	503.22
374.99	657.69
375.19	547.69
375.38	587.47
375.58	535.98
375.78	477.47
375.97	603.86
376.17	578.11
376.37	505.56
376.56	606.20
376.76	587.47
376.95	552.37
377.15	620.24
377.35	596.84
377.54	596.84
377.74	594.50
377.93	645.99
378.13	582.79
378.33	587.47
378.52	629.60
378.72	641.31
378.91	594.50
379.11	667.05
379.31	657.69
379.50	690.46
379.70	653.01
379.89	645.99
380.09	648.33
380.28	657.69
380.48	683.44
380.68	610.88
380.87	603.86
381.07	669.39
381.26	613.22
381.46	610.88
381.65	678.76
381.85	587.47
382.04	657.69
382.24	650.67
382.43	688.12
382.63	629.60
382.83	697.48
383.02	624.92
383.22	800.46
383.41	606.20
383.61	763.01
383.80	697.48
384.00	688.12
384.19	674.07
384.39	739.61
384.58	734.93
384.78	779.40
384.97	779.40
385.17	737.27
385.36	760.67
385.56	720.88
385.75	732.59
385.95	830.89
386.14	842.59
386.34	770.04
386.53	767.70
386.72	889.40
386.92	849.61
387.11	793.44
387.31	833.23
387.50	875.36
387.70	837.91
387.89	880.04
388.09	763.01
388.28	807.48
388.48	861.32
388.67	866.00
388.86	840.25
389.06	830.89
389.25	889.40
389.45	840.25
389.64	880.04
389.84	894.08
390.03	961.96
390.22	964.30
390.42	959.62
390.61	926.85
390.81	898.77
391.00	940.90
391.19	973.66
391.39	882.38
391.58	980.68
391.78	917.49
391.97	980.68
392.16	901.11
392.36	964.30
392.55	1048.56
392.75	985.37
392.94	990.05
393.13	910.47
393.33	933.87
393.52	1027.50
393.71	1004.09
393.91	1022.81
394.10	947.92
394.29	1071.97
394.49	1118.78
394.68	1160.91
394.88	1032.18
395.07	1144.52
395.26	1177.29
395.46	1114.10
395.65	1144.52
395.84	1114.10
396.04	1221.76
396.23	1156.22
396.42	1071.97
396.62	1032.18
396.81	1064.94
397.00	1043.88
397.19	1146.86
397.39	1200.69
397.58	1193.67
397.77	1228.78
397.97	1226.44
398.16	1245.16
398.35	1324.74
398.55	1291.98
398.74	1355.17
398.93	1327.08
399.12	1296.66
399.32	1266.23
399.51	1331.76
399.70	1291.98
399.90	1336.45
400.09	1362.19
400.28	1397.30
400.47	1383.26
400.67	1504.96
400.86	1420.71
401.05	1444.11
401.24	1516.67
401.44	1455.81
401.63	1451.13
401.82	1479.22
402.01	1526.03
402.21	1540.07
402.40	1554.12
402.59	1530.71
402.78	1502.62
402.97	1537.73
403.17	1544.75
403.36	1612.63
403.55	1596.25
403.74	1617.31
403.93	1633.69
404.13	1661.78
404.32	1687.53
404.51	1678.16
404.70	1732.00
404.89	1680.50
405.09	1771.79
405.28	1605.61
405.47	1804.55
405.66	1760.08
405.85	1668.80
406.05	1776.47
406.24	1783.49
406.43	1795.19
406.62	1837.32
406.81	1788.17
407.00	1736.68
407.20	1823.28
407.39	1713.27
407.58	1907.54
407.77	1919.24
407.96	1928.60
408.15	1987.11
408.34	1944.99
408.54	1980.09
408.73	2022.22
408.92	1975.41
409.11	2078.40
409.30	2040.95
409.49	2010.52
409.68	2026.90
409.87	1987.11
410.07	2033.93
410.26	2094.78
410.45	2001.16
410.64	2040.95
410.83	2209.47
411.02	2134.57
411.21	2244.57
411.40	2190.74
411.59	2305.43
411.78	2324.15
411.98	2111.16
412.17	2312.45
412.36	2267.98
412.55	2420.11
412.74	2394.37
412.93	2457.56
413.12	2448.20
413.31	2459.90
413.50	2443.52
413.69	2546.50
413.88	2605.02
414.07	2431.82
414.26	2457.56
414.45	2647.15
414.64	2635.44
414.83	2654.17
415.02	2600.34
415.22	2747.79
415.41	2726.72
415.60	2722.04
415.79	2698.64
415.98	2740.77
416.17	2750.13
416.36	2768.85
416.55	2832.05
416.74	2733.75
416.93	2888.22
417.12	2930.35
417.31	2923.33
417.50	2916.31
417.69	2972.48
417.88	2942.05
418.07	2967.80
418.26	3021.63
418.45	3136.32
418.64	3190.15
418.83	3201.85
419.02	3080.14
419.21	3328.24
419.39	3075.46
419.58	3141.00
419.77	3059.08
419.96	3178.45
420.15	3215.90
420.34	3208.87
420.53	3185.47
420.72	3274.41
420.91	3342.28
421.10	3318.88
421.29	3414.84
421.48	3253.34
421.67	3452.29
421.86	3471.01
422.05	3339.94
422.24	3358.67
422.43	3365.69
422.61	3391.44
422.80	3508.46
422.99	3433.57
423.18	3478.04
423.37	3510.80
423.56	3524.85
423.75	3487.40
423.94	3421.86
424.13	3213.56
424.32	3321.22
424.50	3417.18
424.69	3527.19
424.88	3489.74
425.07	3475.70
425.26	3447.61
425.45	3445.27
425.64	3618.47
425.83	3487.40
426.01	3578.68
426.20	3613.79
426.39	3562.30
426.58	3543.57
426.77	3602.08
426.96	3588.04
427.15	3538.89
427.33	3698.05
427.52	3676.98
427.71	3667.62
427.90	3751.88
428.09	3740.18
428.28	3747.20
428.46	3702.73
428.65	3634.85
428.84	3824.44
429.03	3859.54
429.22	3702.73
429.40	3826.78
429.59	3737.84
429.78	3667.62
429.97	3620.81
430.16	3691.02
430.34	3779.97
430.53	3756.56
430.72	3908.69
430.91	3845.50
431.10	3939.12
431.28	4007.00
431.47	4161.47
431.66	4091.26
431.85	3932.10
432.03	4084.23
432.22	4102.96
432.41	4128.70
432.60	4121.68
432.79	4039.76
432.97	4236.37
433.16	4301.90
433.35	4124.02
433.54	4102.96
433.72	4301.90
433.91	4255.09
434.10	4262.12
434.28	4264.46
434.47	4236.37
434.66	4463.40
434.85	4397.87
435.03	4369.78
435.22	4416.59
435.41	4510.21
435.59	4505.53
435.78	4524.26
435.97	4374.46
436.16	4615.54
436.34	4479.79
436.53	4676.39
436.72	4634.26
436.90	4575.75
437.09	4643.62
437.28	4568.73
437.46	4550.00
437.65	4709.16
437.84	4657.67
438.02	4636.60
438.21	4760.65
438.40	4573.41
438.58	4873.00
438.77	4734.90
438.96	4826.18
439.14	4922.15
439.33	4744.27
439.52	5057.90
439.70	5100.03
439.89	5151.52
440.08	5109.39
440.26	5174.92
440.45	5060.24
440.63	5280.25
440.82	5345.78
441.01	5085.98
441.19	5245.14
441.38	5313.02
441.57	5387.91
441.75	5476.85
441.94	5687.50
442.12	5551.75
442.31	5598.56
442.50	5467.49
442.68	5570.48
442.87	5689.84
443.05	5657.07
443.24	5603.24
443.43	5666.44
443.61	5727.29
443.80	5844.32
443.98	5692.18
444.17	5596.22
444.35	5844.32
444.54	5912.19
444.73	5846.66
444.91	5701.54
445.10	5710.91
445.28	5706.23
445.47	5675.80
445.65	5921.56
445.84	5844.32
446.02	5783.46
446.21	5849.00
446.39	5926.24
446.58	5944.96
446.77	5771.76
446.95	5872.40
447.14	5849.00
447.32	5900.49
447.51	5893.47
447.69	5949.64
447.88	5788.14
448.06	5954.32
448.25	5949.64
448.43	5963.68
448.62	6045.60
448.80	5977.73
448.99	6066.67
449.17	5966.03
449.36	6001.13
449.54	6054.97
449.73	6136.88
449.91	6122.84
450.10	6141.57
450.28	6340.51
450.46	6235.19
450.65	6328.81
450.83	6169.65
451.02	6401.37
451.20	6284.34
451.39	6373.28
451.57	6274.98
451.76	6214.12
451.94	6403.71
452.13	6565.20
452.31	6267.95
452.49	6298.38
452.68	6539.46
452.86	6441.15
453.05	6436.47
453.23	6406.05
453.42	6506.69
453.60	6445.84
453.78	6551.16
453.97	6602.65
454.15	6567.54
454.34	6544.14
454.52	6715.00
454.70	6644.78
454.89	6808.62
455.07	6799.26
455.26	6787.55
455.44	6827.34
455.62	6956.07
455.81	6670.53
455.99	7040.33
456.17	6993.52
456.36	6881.18
456.54	7059.06
456.73	7225.23
456.91	7255.66
457.09	7272.04
457.28	7288.43
457.46	7129.27
457.64	7199.49
457.83	7290.77
458.01	7119.91
458.19	7391.41
458.38	7279.07
458.56	7470.99
458.74	7590.36
458.93	7356.30
459.11	7325.88
459.29	7356.30
459.48	7293.11
459.66	7344.60
459.84	7534.18
460.03	7445.24
460.21	7403.11
460.39	7578.65
460.57	7562.27
460.76	7683.98
460.94	7770.58
461.12	7459.29
461.31	7637.17
461.49	7775.26
461.67	7728.45
461.85	7801.01
462.04	7698.02
462.22	8222.30
462.40	7906.33
462.59	8035.06
462.77	8016.33
462.95	8095.91
463.13	7894.63
463.32	7791.64
463.50	7932.08
463.68	8063.15
463.86	7985.91
464.05	7913.35
464.23	7885.26
464.41	8187.19
464.59	8184.85
464.78	8255.07
464.96	7913.35
465.14	8154.43
465.32	8360.39
465.50	8182.51
465.69	8128.68
465.87	8292.52
466.05	8383.80
466.23	8269.11
466.41	8182.51
466.60	8582.74
466.78	8105.28
466.96	8084.21
467.14	8222.30
467.32	8367.42
467.51	8439.97
467.69	8292.52
467.87	8510.19
468.05	8540.61
468.23	8339.33
468.41	8372.10
468.60	8454.02
468.78	8491.46
468.96	8533.59
469.14	8802.75
469.32	8720.84
469.50	8470.40
469.69	8648.28
469.87	8500.83
470.05	8800.41
470.23	8772.33
470.41	8877.65
470.59	8952.55
470.77	8966.59
470.95	9013.40
471.14	9181.92
471.32	8802.75
471.50	9233.41
471.68	9312.99
471.86	9025.11
472.04	9247.46
472.22	9504.92
472.40	9104.68
472.58	9448.74
472.77	9563.43
472.95	9408.95
473.13	9914.51
473.31	9411.29
473.49	9427.68
473.67	9413.63
473.85	9666.41
474.03	9846.63
474.21	9930.89
474.39	10024.51
474.57	9949.62
474.75	10113.45
474.93	10038.56
475.12	9898.13
475.30	10223.46
475.48	9937.91
475.66	10263.25
475.84	10106.43
476.02	10422.41
476.20	10300.70
476.38	10338.15
476.56	10721.99
476.74	10483.26
476.92	10663.48
477.10	10853.06
477.28	10792.21
477.46	10621.35
477.64	10937.32
477.82	11052.01
478.00	11487.35
478.18	11047.33
478.36	11290.74
478.54	11475.65
478.72	11370.32
478.90	11297.77
479.08	11679.27
479.26	11517.78
479.44	11665.23
479.62	11742.47
479.80	12280.79
479.98	11964.82
480.16	12053.76
480.34	11976.52
480.52	12500.80
480.70	12397.82
480.88	12182.49
481.06	12390.80
481.24	12564.00
481.41	12666.98
481.59	12767.62
481.77	12961.89
481.95	12915.08
482.13	13102.32
482.31	12985.29
482.49	13303.60
482.67	13413.61
482.85	13568.09
483.03	13650.00
483.21	13736.60
483.39	13657.03
483.57	13673.41
483.74	13965.98
483.92	14038.53
484.10	14026.83
484.28	14099.39
484.46	14630.69
484.64	14736.01
484.82	14368.55
485.00	14541.75
485.18	14773.46
485.35	15089.43
485.53	14956.02
485.71	14991.13
485.89	15119.86
486.07	15089.43
486.25	15307.10
486.43	15349.23
486.61	15555.20
486.78	15892.24
486.96	15758.83
487.14	16086.50
487.32	16458.65
487.50	16374.39
487.68	16463.33
487.85	16709.08
488.03	16926.75
488.21	16842.50
488.39	16940.80
488.57	16851.86
488.75	17179.53
488.92	17198.26
489.10	17532.95
489.28	17451.03
489.46	17345.71
489.64	17947.23
489.81	18277.24
489.99	18132.13
490.17	18302.99
490.35	18602.58
490.53	18625.98
490.70	18405.97
490.88	18471.51
491.06	19000.47
491.24	18897.49
491.41	18970.04
491.59	19007.49
491.77	19007.49
491.95	19206.44
492.13	19381.98
492.30	19424.11
492.48	19772.85
492.66	19772.85
492.84	19763.48
493.01	20212.87
493.19	19969.45
493.37	20091.16
493.54	20545.22
493.72	20477.35
493.90	20435.22
494.08	20772.25
494.25	20975.88
494.43	21130.36
494.61	21219.30
494.79	21385.47
494.96	21085.89
495.14	21081.21
495.32	21359.73
495.49	21411.22
495.67	21820.81
495.85	22094.66
496.02	22246.79
496.20	21937.84
496.38	22473.82
496.55	22263.18
496.73	23012.15
496.91	22253.81
497.09	22415.31
497.26	22831.93
497.44	22602.55
497.62	23227.48
497.79	23491.96
497.97	23131.51
498.14	22829.59
498.32	23555.15
498.50	23431.10
498.67	23836.02
498.85	23803.25
499.03	23871.12
499.20	24037.30
499.38	23948.36
499.56	24194.12
499.73	24547.54
499.91	24159.01
500.08	24430.51
500.26	24343.91
500.44	24346.25
500.61	24287.74
500.79	24531.15
500.97	24830.74
501.14	25029.69
501.32	25355.02
501.49	24917.34
501.67	25109.27
501.84	25268.42
502.02	25198.21
502.20	25392.47
502.37	25652.27
502.55	25596.10
502.72	25582.06
502.90	25678.02
503.07	25724.83
503.25	26064.21
503.43	25584.40
503.60	25804.41
503.78	26361.45
503.95	26008.03
504.13	26031.44
504.30	26328.69
504.48	26305.28
504.65	26600.19
504.83	26242.09
505.01	27000.42
505.18	26689.13
505.36	27089.36
505.53	26953.61
505.71	26834.24
505.88	26871.69
506.06	26941.91
506.23	26920.84
506.41	27278.94
506.58	27431.08
506.76	27641.73
506.93	27449.80
507.11	27723.65
507.28	27498.95
507.46	27597.26
507.63	27611.30
507.81	27978.76
507.98	27573.85
508.16	28067.70
508.33	28203.46
508.50	28367.29
508.68	28294.74
508.85	28435.17
509.03	28685.61
509.20	28425.81
509.38	29006.26
509.55	28964.13
509.73	28924.34
509.90	28680.92
510.08	28758.16
510.25	28903.28
510.42	29024.98
510.60	29277.76
510.77	29446.28
510.95	29493.09
511.12	29378.40
511.30	29862.90
511.47	29790.34
511.64	29668.63
511.82	29673.31
511.99	29532.88
512.17	29792.68
512.34	29661.61
512.51	30108.65
512.69	30391.86
512.86	30396.54
513.04	30712.51
513.21	30515.90
513.38	30532.29
513.56	30438.67
513.73	30295.89
513.90	30771.02
514.08	30368.45
514.25	30665.70
514.43	30885.71
514.60	30862.30
514.77	30590.80
514.95	30881.03
515.12	30677.40
515.29	31339.77
515.47	31564.46
515.64	31779.79
515.81	31005.08
515.99	31417.01
516.16	31110.40
516.33	31491.91
516.51	31564.46
516.68	31009.76
516.85	31452.12
517.03	31681.49
517.20	31377.22
517.37	31601.91
517.54	32142.58
517.72	32023.21
517.89	32034.91
518.06	32222.16
518.24	31709.58
518.41	31466.16
518.58	32294.71
518.75	32198.75
518.93	32669.20
519.10	32549.83
519.27	32573.24
519.45	32444.51
519.62	33010.92
519.79	32861.12
519.96	32943.04
520.14	33394.76
520.31	32896.23
520.48	33497.75
520.65	33034.32
520.83	33626.48
521.00	33502.43
521.17	33071.77
521.34	33804.36
521.52	33490.73
521.69	33806.70
521.86	33326.89
522.03	33841.81
522.20	33504.77
522.38	33787.97
522.55	34068.84
522.72	34033.73
522.89	34169.48
523.07	33916.70
523.24	33872.23
523.41	34029.05
523.58	34218.63
523.75	34581.42
523.92	34586.10
524.10	34576.73
524.27	34529.92
524.44	34543.97
524.61	34525.24
524.78	35150.17
524.96	34799.08
525.13	34745.25
525.30	35576.14
525.47	35093.99
525.64	35285.92
525.81	35358.47
525.98	34965.26
526.16	34925.47
526.33	35136.12
526.50	35257.83
526.67	35178.25
526.84	35236.77
527.01	34988.67
527.18	35295.28
527.36	35309.32
527.53	35861.69
527.70	36233.83
527.87	36077.02
528.04	35679.13
528.21	35988.08
528.38	35908.50
528.55	36062.97
528.72	35835.94
528.89	36397.67
529.07	36219.79
529.24	35924.88
529.41	35838.28
529.58	36084.04
529.75	36257.24
529.92	36531.08
530.09	36460.87
530.26	36655.13
530.43	36664.49
530.60	36645.77
530.77	36657.47
530.94	36648.11
531.11	36896.20
531.28	37158.34
531.46	36933.65
531.63	37116.22
531.80	37146.64
531.97	37301.12
532.14	36952.38
532.31	37153.66
532.48	37038.98
532.65	37666.24
532.82	37397.08
532.99	37514.11
533.16	36912.59
533.33	37469.64
533.50	37553.90
533.67	37469.64
533.84	37411.12
534.01	37928.38
534.18	37874.55
534.35	38211.59
534.52	37722.41
534.69	37965.83
534.86	38160.09
535.03	38124.99
535.20	38206.90
535.37	38431.60
535.54	38359.04
535.71	37998.60
535.88	38398.83
536.05	37940.08
536.22	38436.28
536.38	38185.84
536.55	38436.28
536.72	38370.74
536.89	38185.84
537.06	38309.89
537.23	38590.75
537.40	38656.29
537.57	38796.72
537.74	38529.90
537.91	38621.18
538.08	38948.85
538.25	38710.12
538.42	38871.62
538.59	39412.28
538.75	38787.36
538.92	38850.55
539.09	39166.52
539.26	38586.07
539.43	38944.17
539.60	39234.40
539.77	39009.71
539.94	39225.04
540.11	39047.16
540.28	39309.30
540.44	39313.98
540.61	39152.48
540.78	38841.19
540.95	38986.30
541.12	39285.89
541.29	39365.47
541.46	39330.36
541.62	39608.89
541.79	39667.40
541.96	39061.20
542.13	39346.75
542.30	39824.22
542.47	39594.84
542.63	39835.92
542.80	40128.48
542.97	40416.37
543.14	40287.64
543.31	40304.02
543.48	40088.70
543.64	40491.27
543.81	40343.81
543.98	40648.08
544.15	40236.15
544.32	40399.99
544.48	40629.36
544.65	40605.95
544.82	40715.96
544.99	40362.54
545.16	40664.47
545.32	40652.76
545.49	40978.10
545.66	41219.17
545.83	40687.87
546.00	40875.12
546.16	40566.16
546.33	40692.55
546.50	40643.40
546.67	40870.43
546.83	40629.36
547.00	41102.15
547.17	41247.26
547.34	41055.34
547.50	41558.55
547.67	41368.97
547.84	41471.95
548.00	41137.26
548.17	41734.09
548.34	41258.96
548.51	41799.63
548.67	41347.90
548.84	41736.43
549.01	41467.27
549.18	41535.15
549.34	41792.61
549.51	41855.80
549.68	41752.82
549.84	41801.97
550.01	41982.19
550.18	41785.58
550.34	41687.28
550.51	41624.09
550.68	41418.12
550.84	41518.76
551.01	41935.38
551.18	41544.51
551.34	41858.14
551.51	41741.11
551.68	42059.43
551.84	42234.97
552.01	42064.11
552.18	42141.35
552.34	41928.36
552.51	42223.26
552.68	42323.91
552.84	42239.65
553.01	42576.69
553.18	42120.28
553.34	42157.73
553.51	41858.14
553.67	42515.83
553.84	42375.40
554.01	42628.18
554.17	42391.78
554.34	42845.85
554.51	42794.36
554.67	42672.65
554.84	42639.88
555.00	42511.15
555.17	42616.47
555.33	42806.06
555.50	42738.18
555.67	42869.25
555.83	42700.73
556.00	42937.13
556.16	43496.52
556.33	42677.33
556.50	42850.53
556.66	42885.64
556.83	42569.66
556.99	42555.62
557.16	43000.32
557.32	42827.12
557.49	42873.93
557.65	42852.87
557.82	42726.48
557.98	43096.28
558.15	43009.68
558.32	43363.11
558.48	42909.04
558.65	43056.50
558.81	42808.40
558.98	42838.83
559.14	42862.23
559.31	43159.48
559.47	43468.43
559.64	43599.50
559.80	43416.94
559.97	43335.02
560.13	43288.21
560.30	43292.89
560.46	43349.06
560.63	43150.12
560.79	43409.92
560.96	43681.42
561.12	43147.78
561.29	43402.89
561.45	43433.32
561.61	43491.83
561.78	43636.95
561.94	43178.20
562.11	43543.33
562.27	43203.95
562.44	43526.94
562.60	43866.32
562.77	43807.81
562.93	43555.03
563.10	43508.22
563.26	43103.31
563.42	43494.18
563.59	43543.33
563.75	43489.49
563.92	44091.01
564.08	43503.54
564.24	43796.10
564.41	43524.60
564.57	43910.79
564.74	43742.27
564.90	44215.06
565.07	43770.36
565.23	43665.03
565.39	43861.64
565.56	43866.32
565.72	43714.19
565.88	43625.25
566.05	43737.59
566.21	43845.26
566.38	43751.63
566.54	43782.06
566.70	44177.61
566.87	44776.79
567.03	44194.00
567.19	44137.82
567.36	43871.00
567.52	43861.64
567.68	44336.77
567.85	43969.30
568.01	43728.23
568.17	43232.04
568.34	44453.79
568.50	43952.92
568.66	44011.43
568.83	44079.31
568.99	43995.05
569.15	43920.15
569.32	43721.21
569.48	43761.00
569.64	44039.52
569.81	44294.64
569.97	44229.10
570.13	44203.36
570.30	43763.34
570.46	44044.20
570.62	44259.53
570.78	44289.96
570.95	43779.72
571.11	43878.02
571.27	43871.00
571.43	44009.09
571.60	44280.60
571.76	44140.16
571.92	43803.13
572.09	44065.27
572.25	44067.61
572.41	43957.60
572.57	44704.23
572.74	44835.30
572.90	44289.96
573.06	44594.23
573.22	44289.96
573.38	44383.58
573.55	44121.44
573.71	44154.21
573.87	44126.12
574.03	44107.40
574.20	44332.09
574.36	44327.41
574.52	44360.17
574.68	44350.81
574.84	44549.76
575.01	44509.97
575.17	44404.64
575.33	44161.23
575.49	44360.17
575.65	44648.06
575.82	44760.40
575.98	44322.72
576.14	44648.06
576.30	44196.34
576.46	44261.87
576.62	44109.74
576.79	44346.13
576.95	43927.17
577.11	44273.57
577.27	44369.54
577.43	44219.74
577.59	44030.16
577.75	44580.18
577.92	44048.88
578.08	44151.87
578.24	43826.53
578.40	44388.26
578.56	44479.54
578.72	44563.80
578.88	44437.41
579.04	44446.77
579.21	44128.46
579.37	44423.37
579.53	44507.63
579.69	44142.50
579.85	44339.11
580.01	44444.43
580.17	44559.12
580.33	44559.12
580.49	44409.32
580.65	44610.61
580.82	44603.59
580.98	44460.82
581.14	44456.14
581.30	44587.21
581.46	44399.96
581.62	44729.98
581.78	44212.72
581.94	44959.35
582.10	44732.32
582.26	44879.77
582.42	44566.14
582.58	44596.57
582.74	44673.81
582.90	44760.40
583.06	44961.69
583.22	44470.18
583.38	45102.12
583.54	44516.99
583.70	44308.68
583.86	44168.25
584.02	44294.64
584.18	44554.44
584.34	44519.33
584.50	44336.77
584.66	44334.43
584.82	44734.66
584.98	45038.93
585.14	44559.12
585.30	44222.08
585.46	44402.30
585.62	44863.39
585.78	43849.94
585.94	44418.69
586.10	44329.75
586.26	44123.78
586.42	44919.56
586.58	44678.49
586.74	44587.21
586.90	44706.57
587.06	44414.01
587.22	44854.03
587.38	44051.22
587.54	44722.96
587.70	44484.22
587.86	44755.72
588.02	44624.65
588.18	44814.24
588.34	44767.43
588.49	44444.43
588.65	44353.15
588.81	44259.53
588.97	44432.73
589.13	44456.14
589.29	44617.63
589.45	44919.56
589.61	44669.12
589.77	45212.13
589.93	44751.04
590.08	45116.17
590.24	44697.21
590.40	44861.05
