SpectraSuite Data File
++++++++++++++++++++++++++++++++++++
Date: Fri Oct 25 11:25:23 EDT 2013
User: price-jones
Dark Spectrum Present: No
Reference Spectrum Present: No
Number of Sampled Component Spectra: 1
Spectrometers: USB2+H05261
Integration Time (usec): 100000 (USB2+H05261)
Spectra Averaged: 1 (USB2+H05261)
Boxcar Smoothing: 0 (USB2+H05261)
Correct for Electrical Dark: No (USB2+H05261)
Strobe/Lamp Enabled: No (USB2+H05261)
Correct for Detector Non-linearity: No (USB2+H05261)
Correct for Stray Light: No (USB2+H05261)
Number of Pixels in Processed Spectrum: 2048
>>>>>Begin Processed Spectral Data<<<<<
365.73	205.97
365.92	205.97
366.12	205.97
366.32	105.32
366.52	91.28
366.72	182.56
366.91	184.90
367.11	140.43
367.31	128.73
367.51	154.48
367.70	100.64
367.90	191.92
368.10	138.09
368.30	194.26
368.49	84.26
368.69	177.88
368.89	126.39
369.09	177.88
369.28	147.45
369.48	114.69
369.68	187.24
369.87	201.29
370.07	184.90
370.27	269.16
370.47	360.44
370.66	545.34
370.86	615.56
371.06	620.24
371.25	676.41
371.45	622.58
371.65	662.37
371.84	767.70
372.04	753.65
372.24	690.46
372.44	755.99
372.63	711.52
372.83	781.74
373.03	725.57
373.22	713.86
373.42	770.04
373.62	784.08
373.81	816.85
374.01	856.64
374.21	795.78
374.40	870.68
374.60	856.64
374.79	833.23
374.99	786.42
375.19	919.83
375.38	882.38
375.58	833.23
375.78	870.68
375.97	849.61
376.17	858.98
376.37	858.98
376.56	861.32
376.76	901.11
376.95	875.36
377.15	858.98
377.35	889.40
377.54	917.49
377.74	901.11
377.93	877.70
378.13	931.53
378.33	919.83
378.52	917.49
378.72	903.45
378.91	919.83
379.11	964.30
379.31	952.60
379.50	938.55
379.70	922.17
379.89	978.34
380.09	1102.39
380.28	966.64
380.48	877.70
380.68	915.15
380.87	1004.09
381.07	922.17
381.26	1095.37
381.46	1020.47
381.65	1100.05
381.85	1036.86
382.04	1050.90
382.24	1060.26
382.43	1076.65
382.63	1069.62
382.83	1029.84
383.02	1067.28
383.22	1109.41
383.41	1055.58
383.61	1128.14
383.80	1116.44
384.00	1100.05
384.19	1135.16
384.39	1174.95
384.58	1181.97
384.78	1114.10
384.97	1109.41
385.17	1125.80
385.36	1217.08
385.56	1186.65
385.75	1198.35
385.95	1146.86
386.14	1198.35
386.34	1104.73
386.53	1226.44
386.72	1184.31
386.92	1210.06
387.11	1228.78
387.31	1221.76
387.50	1125.80
387.70	1226.44
387.89	1334.11
388.09	1268.57
388.28	1233.46
388.48	1263.89
388.67	1282.61
388.86	1345.81
389.06	1294.32
389.25	1277.93
389.45	1437.09
389.64	1369.21
389.84	1390.28
390.03	1509.65
390.22	1348.15
390.42	1497.94
390.61	1320.06
390.81	1242.82
391.00	1376.24
391.19	1425.39
391.39	1472.20
391.58	1483.90
391.78	1409.00
391.97	1474.54
392.16	1500.28
392.36	1460.49
392.55	1493.26
392.75	1453.47
392.94	1493.26
393.13	1575.18
393.33	1502.62
393.52	1514.33
393.71	1535.39
393.91	1596.25
394.10	1575.18
394.29	1556.46
394.49	1514.33
394.68	1561.14
394.88	1554.12
395.07	1629.01
395.26	1633.69
395.46	1673.48
395.65	1757.74
395.84	1605.61
396.04	1764.76
396.23	1743.70
396.42	1757.74
396.62	1785.83
396.81	1802.21
397.00	1727.32
397.19	1842.00
397.39	1706.25
397.58	1834.98
397.77	1767.10
397.97	1863.07
398.16	1863.07
398.35	1884.13
398.55	1788.17
398.74	1818.60
398.93	1912.22
399.12	1944.99
399.32	2001.16
399.51	1891.15
399.70	1849.02
399.90	1940.30
400.09	2008.18
400.28	2026.90
400.47	1912.22
400.67	1982.43
400.86	2122.87
401.05	1984.77
401.24	2118.18
401.44	2094.78
401.63	2125.21
401.82	2104.14
402.01	2111.16
402.21	2141.59
402.40	2155.63
402.59	2239.89
402.78	2073.71
402.97	2165.00
403.17	2249.25
403.36	2310.11
403.55	2232.87
403.74	2310.11
403.93	2352.24
404.13	2382.67
404.32	2303.09
404.51	2267.98
404.70	2363.94
404.89	2328.83
405.09	2464.58
405.28	2530.12
405.47	2511.39
405.66	2441.18
405.85	2555.86
406.05	2487.99
406.24	2438.84
406.43	2459.90
406.62	2539.48
406.81	2658.85
407.00	2710.34
407.20	2684.59
407.39	2684.59
407.58	2637.78
407.77	2717.36
407.96	2736.09
408.15	2771.19
408.34	2686.94
408.54	2764.17
408.73	2719.70
408.92	2757.15
409.11	2750.13
409.30	2946.73
409.49	2855.45
409.68	2862.48
409.87	2899.92
410.07	3023.97
410.26	2937.37
410.45	3009.93
410.64	3089.51
410.83	3000.57
411.02	3129.30
411.21	3218.24
411.40	3091.85
411.59	3131.64
411.78	3131.64
411.98	3222.92
412.17	3311.86
412.36	3283.77
412.55	3262.71
412.74	3309.52
412.93	3300.16
413.12	3323.56
413.31	3468.67
413.50	3494.42
413.69	3391.44
413.88	3534.21
414.07	3548.25
414.26	3550.59
414.45	3672.30
414.64	3688.68
414.83	3648.90
415.02	3658.26
415.22	3885.29
415.41	3950.82
415.60	3915.72
415.79	3843.16
415.98	3948.48
416.17	4009.34
416.36	3887.63
416.55	4133.39
416.74	4109.98
416.93	3826.78
417.12	4159.13
417.31	4093.60
417.50	4175.52
417.69	4278.50
417.88	4290.20
418.07	4147.43
418.26	4198.92
418.45	4238.71
418.64	4334.67
418.83	4376.80
419.02	4351.06
419.21	4402.55
419.39	4430.63
419.58	4376.80
419.77	4465.74
419.96	4610.86
420.15	4596.81
420.34	4479.79
420.53	4526.60
420.72	4690.43
420.91	4620.22
421.10	4718.52
421.29	4833.21
421.48	4725.54
421.67	4622.56
421.86	4919.81
422.05	4847.25
422.24	4840.23
422.43	4971.30
422.61	4751.29
422.80	5057.90
422.99	4830.87
423.18	4882.36
423.37	4922.15
423.56	4943.21
423.75	4868.31
423.94	4858.95
424.13	4454.04
424.32	4720.86
424.50	4961.94
424.69	5093.01
424.88	4910.44
425.07	4931.51
425.26	4961.94
425.45	4905.76
425.64	4828.53
425.83	4870.65
426.01	5064.92
426.20	5081.30
426.39	4882.36
426.58	5011.09
426.77	4938.53
426.96	5135.14
427.15	5198.33
427.33	5111.73
427.52	5039.17
427.71	5158.54
427.90	5207.69
428.09	5252.16
428.28	5287.27
428.46	5378.55
428.65	5153.86
428.84	5486.22
429.03	5455.79
429.22	5308.34
429.40	5355.15
429.59	5291.95
429.78	5172.58
429.97	5203.01
430.16	5483.88
430.34	5383.23
430.53	5603.24
430.72	5846.66
430.91	5530.69
431.10	5650.05
431.28	5743.67
431.47	5558.77
431.66	5830.27
431.85	5853.68
432.03	5951.98
432.22	6024.54
432.41	5830.27
432.60	5844.32
432.79	5825.59
432.97	6012.84
433.16	5991.77
433.35	5895.81
433.54	6160.29
433.72	6253.91
433.91	6113.48
434.10	6127.52
434.28	6139.23
434.47	6036.24
434.66	6277.32
434.85	6204.76
435.03	6272.64
435.22	6171.99
435.41	6485.62
435.59	6277.32
435.78	6352.21
435.97	6413.07
436.16	6284.34
436.34	6286.68
436.53	6298.38
436.72	6513.71
436.90	6532.44
437.09	6506.69
437.28	6459.88
437.46	6705.63
437.65	6644.78
437.84	6771.17
438.02	6616.69
438.21	6775.85
438.40	6626.06
438.58	7035.65
438.77	6904.58
438.96	6972.46
439.14	7145.66
439.33	7265.02
439.52	7131.61
439.70	7054.37
439.89	7124.59
440.08	7187.79
440.26	7246.30
440.45	7122.25
440.63	7480.35
440.82	7573.97
441.01	7377.37
441.19	7583.34
441.38	7606.74
441.57	7557.59
441.75	7651.21
441.94	7887.61
442.12	7733.13
442.31	7990.59
442.50	7819.73
442.68	8046.76
442.87	7997.61
443.05	8028.04
443.24	8379.12
443.43	8152.09
443.61	8035.06
443.80	8208.26
443.98	8049.10
444.17	7740.15
444.35	8016.33
444.54	8269.11
444.73	8269.11
444.91	8177.83
445.10	8367.42
445.28	8311.24
445.47	8135.70
445.65	8250.39
445.84	8442.31
446.02	8383.80
446.21	8365.07
446.39	8402.52
446.58	8435.29
446.77	8269.11
446.95	8252.73
447.14	8336.99
447.32	8486.78
447.51	8416.57
447.69	8360.39
447.88	8517.21
448.06	8465.72
448.25	8409.54
448.43	8678.71
448.62	8638.92
448.80	8442.31
448.99	8437.63
449.17	8617.85
449.36	8568.70
449.54	8819.14
449.73	8758.28
449.91	8814.46
450.10	8842.54
450.28	9050.85
450.46	9228.73
450.65	8992.34
450.83	9022.77
451.02	9137.45
451.20	9294.27
451.39	9153.84
451.57	9074.26
451.76	9069.58
451.94	9097.66
452.13	9273.20
452.31	9212.35
452.49	8795.73
452.68	9289.59
452.86	9242.78
453.05	9109.36
453.23	9303.63
453.42	8973.61
453.60	9371.50
453.78	9275.54
453.97	9437.04
454.15	9430.02
454.34	9362.14
454.52	9699.18
454.70	9680.46
454.89	9558.75
455.07	9596.20
455.26	9767.06
455.44	9863.02
455.62	9933.23
455.81	9860.68
455.99	9984.73
456.17	9863.02
456.36	9846.63
456.54	10003.45
456.73	10108.77
456.91	10310.06
457.09	10214.10
457.28	10572.20
457.46	10251.55
457.64	10347.51
457.83	10422.41
458.01	10326.44
458.19	10576.88
458.38	10511.35
458.56	10665.82
458.74	10518.37
458.93	10562.84
459.11	10682.20
459.29	10583.90
459.48	10600.29
459.66	10778.17
459.84	10871.79
460.03	10998.18
460.21	10949.03
460.39	10937.32
460.57	10911.58
460.76	11147.97
460.94	11183.08
461.12	11108.18
461.31	11351.60
461.49	10998.18
461.67	11049.67
461.85	11431.18
462.04	11176.06
462.22	11496.71
462.40	11587.99
462.59	11417.13
462.77	11267.34
462.95	11573.95
463.13	11580.97
463.32	11536.50
463.50	11630.12
463.68	11859.49
463.86	11709.70
464.05	11485.01
464.23	11742.47
464.41	11564.59
464.59	11747.15
464.78	12109.93
464.96	11946.09
465.14	11482.67
465.32	11800.98
465.50	11719.06
465.69	11723.74
465.87	11957.80
466.05	12051.42
466.23	12177.81
466.41	12119.29
466.60	12360.37
466.78	11913.33
466.96	12070.14
467.14	12187.17
467.32	12238.66
467.51	12470.37
467.69	11903.96
467.87	12571.02
468.05	12400.16
468.23	12383.77
468.41	12269.09
468.60	12475.06
468.78	12634.21
468.96	12681.02
469.14	12521.87
469.32	12800.39
469.50	12568.68
469.69	12716.13
469.87	12828.48
470.05	13116.36
470.23	12975.93
470.41	13125.72
470.59	13273.18
470.77	13261.48
470.95	13186.58
471.14	13584.47
471.32	13046.15
471.50	13359.78
471.68	13308.29
471.86	13532.98
472.04	13493.19
472.22	13898.10
472.40	13532.98
472.58	13844.27
472.77	14050.24
472.95	14132.15
473.13	14370.89
473.31	13647.66
473.49	14017.47
473.67	14214.07
473.85	14104.07
474.03	14319.40
474.21	14181.31
474.39	14410.68
474.57	14424.72
474.75	14864.74
474.93	14991.13
475.12	14726.65
475.30	14956.02
475.48	14984.11
475.66	15087.09
475.84	14986.45
476.02	15236.89
476.20	15070.71
476.38	15616.05
476.56	15971.82
476.74	15775.21
476.92	15632.44
477.10	15527.11
477.28	15882.88
477.46	16154.38
477.64	16142.67
477.82	16425.88
478.00	16528.86
478.18	16856.54
478.36	16769.94
478.54	16891.65
478.72	17032.08
478.90	17392.52
479.08	17626.57
479.26	17525.93
479.44	17577.42
479.62	17586.79
479.80	17736.58
479.98	17862.97
480.16	18410.65
480.34	18263.20
480.52	18408.31
480.70	18377.89
480.88	18338.10
481.06	18588.53
481.24	18684.50
481.41	18724.29
481.59	19344.53
481.77	19527.09
481.95	19309.42
482.13	19562.20
482.31	19435.81
482.49	20311.17
482.67	20079.46
482.85	20198.82
483.03	20617.78
483.21	20695.02
483.39	21008.65
483.57	20617.78
483.74	20870.56
483.92	21420.58
484.10	20947.79
484.28	21160.78
484.46	21982.31
484.64	22125.08
484.82	21685.06
485.00	22202.32
485.18	22731.28
485.35	22822.56
485.53	22604.89
485.71	22932.57
485.89	23328.12
486.07	23372.59
486.25	23222.80
486.43	23257.90
486.61	23894.53
486.78	24046.66
486.96	24140.29
487.14	24451.58
487.32	24545.20
487.50	24622.44
487.68	24868.19
487.85	25060.12
488.03	25294.17
488.21	25645.25
488.39	25392.47
488.57	25666.31
488.75	25874.62
488.92	25804.41
489.10	26405.92
489.28	26485.50
489.46	26831.90
489.64	26628.27
489.81	27112.77
489.99	27754.07
490.17	27688.54
490.35	28027.92
490.53	28020.89
490.70	27999.83
490.88	28109.83
491.06	28463.25
491.24	28437.51
491.41	28804.97
491.59	29022.64
491.77	28762.84
491.95	29422.87
492.13	29598.41
492.30	29851.19
492.48	29986.94
492.66	30178.87
492.84	30178.87
493.01	30312.28
493.19	30244.40
493.37	30941.88
493.54	30668.04
493.72	31232.11
493.90	31199.34
494.08	31470.84
494.25	31653.40
494.43	31552.76
494.61	32027.89
494.79	32074.70
494.96	31997.46
495.14	32514.72
495.32	32921.98
495.49	32933.68
495.67	32662.18
495.85	33186.46
496.02	33446.26
496.20	33663.93
496.38	34010.32
496.55	33897.98
496.73	34387.15
496.91	34347.36
497.09	34628.23
497.26	34347.36
497.44	34508.86
497.62	35185.27
497.79	35089.31
497.97	34948.88
498.14	35723.60
498.32	36095.74
498.50	35807.86
498.67	36182.34
498.85	36048.93
499.03	36355.54
499.20	36526.40
499.38	36596.62
499.56	37006.21
499.73	36671.51
499.91	36914.93
500.08	37095.15
500.26	37134.94
500.44	37596.03
500.61	37647.52
500.79	37368.99
500.97	37649.86
501.14	38459.68
501.32	37886.25
501.49	38040.73
501.67	38415.21
501.84	38766.29
502.02	38618.84
502.20	38834.17
502.37	38651.61
502.55	39037.80
502.72	39175.89
502.90	39536.33
503.07	39159.50
503.25	39351.43
503.43	39494.20
503.60	39629.95
503.78	39728.25
503.95	40123.80
504.13	39908.47
504.30	40407.01
504.48	40500.63
504.65	40011.46
504.83	40612.98
505.01	40540.42
505.18	40727.66
505.36	41289.39
505.53	40556.80
505.71	41015.55
505.88	41333.86
506.06	41254.28
506.23	42005.59
506.41	41635.79
506.58	41567.91
506.76	41830.05
506.93	41869.84
507.11	41947.08
507.28	41991.55
507.46	42387.10
507.63	42199.86
507.81	42529.87
507.98	42309.86
508.16	42347.31
508.33	42883.30
508.50	43194.59
508.68	43061.18
508.85	43831.21
509.03	43452.05
509.20	43583.12
509.38	44130.80
509.55	44444.43
509.73	44156.55
509.90	44137.82
510.08	44025.48
510.25	44367.20
510.42	44245.49
510.60	44589.55
510.77	44488.90
510.95	45036.59
511.12	44928.92
511.30	44708.91
511.47	45085.74
511.64	44982.76
511.82	45626.40
511.99	45574.91
512.17	45755.13
512.34	45460.23
512.51	45834.71
512.69	46153.02
512.86	45930.67
513.04	46445.59
513.21	46190.47
513.38	46293.46
513.56	46473.68
513.73	46227.92
513.90	46841.14
514.08	46225.58
514.25	47009.66
514.43	47192.22
514.60	46878.59
514.77	46986.25
514.95	47414.57
515.12	47112.64
515.29	47309.25
515.47	47693.10
515.64	47840.55
515.81	47763.31
515.99	47578.41
516.16	48095.67
516.33	47882.68
516.51	48505.26
516.68	48182.27
516.85	48072.26
517.03	48666.76
517.20	48439.73
517.37	48261.85
517.54	48048.86
517.72	48708.89
517.89	48779.10
518.06	48846.98
518.24	48914.86
518.41	49205.08
518.58	49118.48
518.75	49106.78
518.93	49469.56
519.10	49392.33
519.27	49256.57
519.45	49146.57
519.62	49556.16
519.79	49766.81
519.96	49792.56
520.14	49921.29
520.31	50066.40
520.48	50066.40
520.65	49907.24
520.83	50497.06
521.00	50616.43
521.17	50007.89
521.34	50478.33
521.52	50796.65
521.69	50518.12
521.86	50735.79
522.03	50820.05
522.20	50955.80
522.38	51217.94
522.55	51007.29
522.72	51042.40
522.89	50885.59
523.07	51503.49
523.24	51042.40
523.41	51655.62
523.58	51288.16
523.75	51393.48
523.92	51175.81
524.10	51601.79
524.27	52046.49
524.44	51978.62
524.61	51756.27
524.78	51746.90
524.96	51875.63
525.13	51992.66
525.30	52144.80
525.47	52238.42
525.64	52191.61
525.81	52500.56
525.98	52142.45
526.16	52325.02
526.33	52268.84
526.50	52413.96
526.67	52392.89
526.84	52694.82
527.01	52530.98
527.18	52580.13
527.36	52395.23
527.53	52942.92
527.70	52865.68
527.87	52966.32
528.04	52655.03
528.21	53506.99
528.38	53254.21
528.55	53118.46
528.72	53214.42
528.89	53099.73
529.07	52992.07
529.24	53127.82
529.41	53696.57
529.58	53331.45
529.75	53389.96
529.92	53448.47
530.09	53696.57
530.26	53609.97
530.43	53815.94
530.60	53514.01
530.77	53216.76
530.94	53820.62
531.11	53815.94
531.28	53717.64
531.46	53715.29
531.63	54113.19
531.80	53879.13
531.97	54045.31
532.14	54354.26
532.31	54321.49
532.48	54227.87
532.65	54068.72
532.82	54412.77
532.99	54199.79
533.16	54564.91
533.33	54653.85
533.50	54728.75
533.67	54604.70
533.84	54475.97
534.01	54564.91
534.18	54930.03
534.35	55196.85
534.52	54759.17
534.69	54756.83
534.86	55051.74
535.03	54915.99
535.20	54794.28
535.37	55306.86
535.54	55126.64
535.71	55063.44
535.88	54995.57
536.05	55379.42
536.22	55187.49
536.38	55564.32
536.55	55288.13
536.72	55423.89
536.89	55320.90
537.06	55512.83
537.23	55545.59
537.40	55365.37
537.57	55264.73
537.74	55723.47
537.91	55847.52
538.08	55870.93
538.25	55608.79
538.42	55702.41
538.59	55880.29
538.75	55657.94
538.92	55786.67
539.09	55833.48
539.26	56041.79
539.43	55964.55
539.60	56151.79
539.77	55863.91
539.94	56406.91
540.11	56268.82
540.28	56161.15
540.44	55948.17
540.61	56102.64
540.78	56060.51
540.95	56177.54
541.12	56144.77
541.29	56142.43
541.46	56236.05
541.62	56147.11
541.79	56376.48
541.96	56179.88
542.13	56285.20
542.30	56451.38
542.47	56561.39
542.63	56645.65
542.80	56444.36
542.97	56617.56
543.14	57045.88
543.31	56868.00
543.48	57066.94
543.64	57251.84
543.81	57020.13
543.98	56989.70
544.15	57017.79
544.32	57448.45
544.48	57336.10
544.65	57144.18
544.82	57265.89
544.99	57340.78
545.16	57415.68
545.32	57146.52
545.49	57237.80
545.66	57605.26
545.83	57450.79
546.00	57441.43
546.16	57350.15
546.33	57261.21
546.50	57181.63
546.67	57584.20
546.83	57195.67
547.00	57621.65
547.17	57755.06
547.34	57567.82
547.50	57853.36
547.67	57986.77
547.84	57844.00
548.00	57914.22
548.17	57986.77
548.34	57883.79
548.51	57893.15
548.67	57986.77
548.84	58035.92
549.01	57762.08
549.18	57893.15
549.34	58019.54
549.51	58171.67
549.68	58103.80
549.84	57883.79
550.01	58419.77
550.18	58052.31
550.34	58213.80
550.51	58405.73
550.68	58258.27
550.84	58176.36
551.01	58398.71
551.18	57963.37
551.34	58384.66
551.51	58440.84
551.68	58408.07
551.84	58342.53
552.01	58356.58
552.18	58618.72
552.34	58281.68
552.51	58401.05
552.68	58251.25
552.84	58188.06
553.01	58817.66
553.18	58592.97
553.34	58726.38
553.51	58618.72
553.67	58623.40
553.84	58810.64
554.01	58794.26
554.17	58871.49
554.34	58698.30
554.51	58681.91
554.67	59030.65
554.84	58763.83
555.00	58986.18
555.17	58796.60
555.33	58927.67
555.50	58784.90
555.67	58855.11
555.83	58836.39
556.00	58939.37
556.16	59173.42
556.33	58958.09
556.50	59171.08
556.66	59051.72
556.83	58958.09
556.99	59157.04
557.16	59505.78
557.32	59395.77
557.49	59416.84
557.65	59147.68
557.82	59353.65
557.98	58920.65
558.15	59524.50
558.32	59381.73
558.48	59255.34
558.65	59402.80
558.81	59143.00
558.98	59260.02
559.14	59253.00
559.31	59377.05
559.47	59501.10
559.64	59281.09
559.80	59540.89
559.97	59374.71
560.13	59257.68
560.30	59550.25
560.46	59381.73
560.63	59348.96
560.79	59622.81
560.96	59517.48
561.12	59702.38
561.29	59700.04
561.45	59505.78
561.61	59667.28
561.78	59592.38
561.94	59580.68
562.11	59716.43
562.27	59725.79
562.44	59655.57
562.60	59770.26
562.77	59728.13
562.93	59662.60
563.10	59667.28
563.26	59683.66
563.42	59917.71
563.59	59812.39
563.75	59632.17
563.92	59884.95
564.08	59746.86
564.24	60046.44
564.41	60006.65
564.57	59898.99
564.74	59894.31
564.90	60020.70
565.07	59906.01
565.23	59896.65
565.39	59976.23
565.56	60086.23
565.72	59880.27
565.88	59997.29
566.05	59786.64
566.21	60062.83
566.38	60207.94
566.54	60051.12
566.70	60193.90
566.87	60130.70
567.03	59906.01
567.19	60161.13
567.36	60114.32
567.52	60097.94
567.68	60437.31
567.85	60065.17
568.01	60219.64
568.17	59976.23
568.34	60285.18
568.50	60097.94
568.66	60144.75
568.83	60119.00
568.99	60261.77
569.15	60243.05
569.32	60088.57
569.48	60093.25
569.64	60552.00
569.81	60172.83
569.97	60090.91
570.13	60287.52
570.30	60163.47
570.46	60193.90
570.62	60383.48
570.78	60411.57
570.95	60198.58
571.11	60467.74
571.27	60287.52
571.43	60331.99
571.60	60381.14
571.76	60470.08
571.92	60395.18
572.09	60369.44
572.25	60381.14
572.41	60196.24
572.57	60413.91
572.74	60467.74
572.90	60369.44
573.06	60453.70
573.22	60350.71
573.38	60221.98
573.55	60327.31
573.71	60633.92
573.87	60570.72
574.03	60406.89
574.20	60477.10
574.36	60285.18
574.52	60605.83
574.68	60505.19
574.84	60694.77
575.01	60465.40
575.17	60631.58
575.33	60481.78
575.49	60350.71
575.65	60645.62
575.82	60683.07
575.98	60615.19
576.14	60795.42
576.30	60783.71
576.46	60568.38
576.62	60594.13
576.79	60563.70
576.95	60477.10
577.11	60659.66
577.27	60647.96
577.43	60659.66
577.59	60666.69
577.75	60547.32
577.92	60523.91
578.08	60526.25
578.24	60739.24
578.40	60757.97
578.56	60872.65
578.72	60746.26
578.88	60896.06
579.04	60734.56
579.21	60694.77
579.37	60842.23
579.53	60654.98
579.69	60500.51
579.85	60690.09
580.01	60526.25
580.17	60734.56
580.33	60821.16
580.49	60912.44
580.65	60694.77
580.82	60629.24
580.98	60617.53
581.14	60764.99
581.30	60800.10
581.46	60788.39
581.62	60713.50
581.78	60687.75
581.94	60835.20
582.10	60678.39
582.26	60732.22
582.42	60575.40
582.58	60882.02
582.74	60865.63
582.90	60821.16
583.06	60961.59
583.22	60544.98
583.38	60715.84
583.54	60715.84
583.70	60811.80
583.86	60832.86
584.02	60631.58
584.18	60959.25
584.34	60828.18
584.50	60844.57
584.66	60662.00
584.82	60542.64
584.98	60907.76
585.14	60891.38
585.30	60877.33
585.46	60886.70
585.62	60849.25
585.78	60821.16
585.94	60750.94
586.10	60942.87
586.26	60858.61
586.42	60853.93
586.58	60800.10
586.74	60746.26
586.90	60926.49
587.06	60732.22
587.22	60940.53
587.38	60753.29
587.54	61055.21
587.70	61127.77
587.86	61020.11
588.02	60837.54
588.18	61008.40
588.34	60764.99
588.49	60734.56
