SpectraSuite Data File
++++++++++++++++++++++++++++++++++++
Date: Fri Oct 25 10:43:34 EDT 2013
User: price-jones
Dark Spectrum Present: No
Reference Spectrum Present: No
Number of Sampled Component Spectra: 1
Spectrometers: USB2+H05261
Integration Time (usec): 100000 (USB2+H05261)
Spectra Averaged: 1 (USB2+H05261)
Boxcar Smoothing: 0 (USB2+H05261)
Correct for Electrical Dark: No (USB2+H05261)
Strobe/Lamp Enabled: No (USB2+H05261)
Correct for Detector Non-linearity: No (USB2+H05261)
Correct for Stray Light: No (USB2+H05261)
Number of Pixels in Processed Spectrum: 2048
>>>>>Begin Processed Spectral Data<<<<<
365.73	105.32
365.92	105.32
366.12	105.32
366.32	0.00
366.52	0.00
366.72	0.00
366.91	0.00
367.11	14.04
367.31	30.43
367.51	49.15
367.70	0.00
367.90	46.81
368.10	58.51
368.30	77.24
368.49	56.17
368.69	79.58
368.89	74.90
369.09	98.30
369.28	35.11
369.48	67.88
369.68	60.85
369.87	77.24
370.07	37.45
370.27	145.11
370.47	198.95
370.66	346.40
370.86	374.49
371.06	461.09
371.25	477.47
371.45	390.87
371.65	507.90
371.84	468.11
372.04	447.04
372.24	540.66
372.44	442.36
372.63	507.90
372.83	449.38
373.03	451.72
373.22	564.07
373.42	397.89
373.62	503.22
373.81	620.24
374.01	568.75
374.21	533.64
374.40	568.75
374.60	580.45
374.79	545.34
374.99	606.20
375.19	634.29
375.38	533.64
375.58	650.67
375.78	692.80
375.97	596.84
376.17	667.05
376.37	589.82
376.56	550.03
376.76	643.65
376.95	667.05
377.15	615.56
377.35	557.05
377.54	690.46
377.74	671.73
377.93	617.90
378.13	631.94
378.33	690.46
378.52	653.01
378.72	699.82
378.91	667.05
379.11	653.01
379.31	641.31
379.50	683.44
379.70	697.48
379.89	741.95
380.09	711.52
380.28	697.48
380.48	699.82
380.68	702.16
380.87	770.04
381.07	711.52
381.26	755.99
381.46	788.76
381.65	741.95
381.85	751.31
382.04	683.44
382.24	683.44
382.43	734.93
382.63	667.05
382.83	702.16
383.02	730.25
383.22	709.18
383.41	744.29
383.61	800.46
383.80	739.61
384.00	814.51
384.19	861.32
384.39	854.30
384.58	765.36
384.78	748.97
384.97	873.02
385.17	763.01
385.36	873.02
385.56	784.08
385.75	802.80
385.95	898.77
386.14	842.59
386.34	873.02
386.53	828.55
386.72	819.19
386.92	866.00
387.11	800.46
387.31	926.85
387.50	915.15
387.70	868.34
387.89	912.81
388.09	966.64
388.28	842.59
388.48	887.06
388.67	891.74
388.86	889.40
389.06	971.32
389.25	1008.77
389.45	987.71
389.64	1022.81
389.84	1067.28
390.03	1029.84
390.22	1025.15
390.42	1055.58
390.61	959.62
390.81	1015.79
391.00	1114.10
391.19	1036.86
391.39	1076.65
391.58	1123.46
391.78	1086.01
391.97	1076.65
392.16	1109.41
392.36	1104.73
392.55	1053.24
392.75	992.39
392.94	987.71
393.13	1048.56
393.33	997.07
393.52	954.94
393.71	1043.88
393.91	1057.92
394.10	1198.35
394.29	1135.16
394.49	1273.25
394.68	1181.97
394.88	1219.42
395.07	1273.25
395.26	1224.10
395.46	1238.14
395.65	1303.68
395.84	1270.91
396.04	1270.91
396.23	1200.69
396.42	1170.27
396.62	1296.66
396.81	1167.93
397.00	1259.21
397.19	1355.17
397.39	1355.17
397.58	1373.89
397.77	1336.45
397.97	1413.68
398.16	1462.83
398.35	1437.09
398.55	1523.69
398.74	1458.15
398.93	1596.25
399.12	1540.07
399.32	1519.01
399.51	1600.93
399.70	1563.48
399.90	1458.15
400.09	1680.50
400.28	1675.82
400.47	1586.88
400.67	1657.10
400.86	1598.59
401.05	1617.31
401.24	1727.32
401.44	1701.57
401.63	1809.23
401.82	1734.34
402.01	1748.38
402.21	1708.59
402.40	1818.60
402.59	1806.89
402.78	1839.66
402.97	1769.44
403.17	1799.87
403.36	1860.73
403.55	1867.75
403.74	1834.98
403.93	1926.26
404.13	1940.30
404.32	1898.17
404.51	1860.73
404.70	2092.44
404.89	1867.75
405.09	1996.48
405.28	2003.50
405.47	1975.41
405.66	2064.35
405.85	2080.74
406.05	2106.48
406.24	1989.46
406.43	2022.22
406.62	2125.21
406.81	2179.04
407.00	2218.83
407.20	2010.52
407.39	2115.84
407.58	2143.93
407.77	2237.55
407.96	2328.83
408.15	2324.15
408.34	2265.64
408.54	2260.96
408.73	2335.85
408.92	2331.17
409.11	2333.51
409.30	2399.05
409.49	2401.39
409.68	2303.09
409.87	2338.20
410.07	2399.05
410.26	2338.20
410.45	2431.82
410.64	2530.12
410.83	2572.25
411.02	2562.89
411.21	2665.87
411.40	2593.31
411.59	2586.29
411.78	2693.96
411.98	2654.17
412.17	2562.89
412.36	2619.06
412.55	2780.56
412.74	2764.17
412.93	2740.77
413.12	2712.68
413.31	2867.16
413.50	3002.91
413.69	2935.03
413.88	2977.16
414.07	3028.65
414.26	3028.65
414.45	2977.16
414.64	3026.31
414.83	3112.91
415.02	3073.12
415.22	3098.87
415.41	3239.30
415.60	3286.11
415.79	3218.24
415.98	3382.07
416.17	3258.03
416.36	3211.22
416.55	3377.39
416.74	3424.20
416.93	3379.73
417.12	3302.50
417.31	3377.39
417.50	3384.41
417.69	3485.06
417.88	3456.97
418.07	3377.39
418.26	3375.05
418.45	3545.91
418.64	3627.83
418.83	3543.57
419.02	3761.24
419.21	3606.77
419.39	3609.11
419.58	3536.55
419.77	3559.95
419.96	3688.68
420.15	3845.50
420.34	3772.94
420.53	3873.59
420.72	3913.38
420.91	3871.25
421.10	3918.06
421.29	3779.97
421.48	3868.91
421.67	3985.93
421.86	3810.39
422.05	3981.25
422.24	3868.91
422.43	3850.18
422.61	3817.41
422.80	4032.74
422.99	4042.11
423.18	3960.19
423.37	4060.83
423.56	3950.82
423.75	3988.27
423.94	3887.63
424.13	3801.03
424.32	3824.44
424.50	4049.13
424.69	4072.53
424.88	4060.83
425.07	4067.85
425.26	3854.86
425.45	4070.19
425.64	3988.27
425.83	4117.00
426.01	4091.26
426.20	4142.75
426.39	4131.05
426.58	3943.80
426.77	4023.38
426.96	4131.05
427.15	4095.94
427.33	4173.18
427.52	4114.66
427.71	4128.70
427.90	4259.78
428.09	4294.88
428.28	4297.22
428.46	4159.13
428.65	4051.47
428.84	4198.92
429.03	4264.46
429.22	4058.49
429.40	4234.03
429.59	4201.26
429.78	4105.30
429.97	4081.89
430.16	4056.15
430.34	4081.89
430.53	4140.41
430.72	4217.65
430.91	4259.78
431.10	4332.33
431.28	4669.37
431.47	4678.73
431.66	4814.48
431.85	4645.96
432.03	4739.58
432.22	4922.15
432.41	4608.51
432.60	4788.74
432.79	4798.10
432.97	4983.00
433.16	4739.58
433.35	4741.93
433.54	4561.70
433.72	4697.46
433.91	4730.22
434.10	4695.11
434.28	4973.64
434.47	4924.49
434.66	4929.17
434.85	5060.24
435.03	5085.98
435.22	5036.83
435.41	5071.94
435.59	4985.34
435.78	5135.14
435.97	5174.92
436.16	5231.10
436.34	5364.51
436.53	5200.67
436.72	5362.17
436.90	5128.11
437.09	5214.71
437.28	5401.96
437.46	5486.22
437.65	5144.50
437.84	5303.65
438.02	5263.86
438.21	5273.23
438.40	5142.16
438.58	5331.74
438.77	5544.73
438.96	5586.86
439.14	5706.23
439.33	5511.96
439.52	5586.86
439.70	5675.80
439.89	5806.87
440.08	5874.74
440.26	5820.91
440.45	5916.87
440.63	5942.62
440.82	6174.33
441.01	5956.66
441.19	6174.33
441.38	6361.58
441.57	6190.72
441.75	6211.78
441.94	6347.53
442.12	6373.28
442.31	6480.94
442.50	6525.41
442.68	6473.92
442.87	6342.85
443.05	6588.61
443.24	6502.01
443.43	6614.35
443.61	6661.16
443.80	6640.10
443.98	6345.19
444.17	6359.24
444.35	6604.99
444.54	6761.81
444.73	6597.97
444.91	6506.69
445.10	6705.63
445.28	6455.20
445.47	6441.15
445.65	6633.08
445.84	6633.08
446.02	6703.29
446.21	6715.00
446.39	6715.00
446.58	6799.26
446.77	6789.89
446.95	6642.44
447.14	6761.81
447.32	6796.92
447.51	6871.81
447.69	6909.26
447.88	6768.83
448.06	6698.61
448.25	6944.37
448.43	6911.60
448.62	6918.62
448.80	7033.31
448.99	6843.73
449.17	7005.22
449.36	7000.54
449.54	7176.08
449.73	7089.48
449.91	7276.73
450.10	7304.81
450.28	7365.67
450.46	7595.04
450.65	7328.22
450.83	7311.83
451.02	7442.90
451.20	7382.05
451.39	7400.77
451.57	7295.45
451.76	7400.77
451.94	7328.22
452.13	7328.22
452.31	7166.72
452.49	7178.42
452.68	7382.05
452.86	7342.26
453.05	7344.60
453.23	7618.44
453.42	7318.86
453.60	7485.03
453.78	7583.34
453.97	7414.82
454.15	7653.55
454.34	7494.40
454.52	7672.28
454.70	7545.89
454.89	7541.21
455.07	7859.52
455.26	7777.60
455.44	7941.44
455.62	7756.54
455.81	7831.43
455.99	7990.59
456.17	8042.08
456.36	7939.10
456.54	8091.23
456.73	8025.70
456.91	8159.11
457.09	8107.62
457.28	8641.26
457.46	8208.26
457.64	8315.92
457.83	8322.94
458.01	8236.35
458.19	8344.01
458.38	8397.84
458.56	8444.65
458.74	8283.16
458.93	8376.78
459.11	8486.78
459.29	8395.50
459.48	8409.54
459.66	8549.98
459.84	8580.40
460.03	8608.49
460.21	8608.49
460.39	8559.34
460.57	8456.36
460.76	8784.03
460.94	8889.35
461.12	8891.70
461.31	8887.01
461.49	8833.18
461.67	8676.37
461.85	9043.83
462.04	9132.77
462.22	9514.28
462.40	8961.91
462.59	8940.85
462.77	9020.42
462.95	9071.92
463.13	9029.79
463.32	9151.49
463.50	9069.58
463.68	9081.28
463.86	9097.66
464.05	9177.24
464.23	9048.51
464.41	9224.05
464.59	8966.59
464.78	9261.50
464.96	9186.60
465.14	9060.21
465.32	9380.87
465.50	9490.87
465.69	9664.07
465.87	9446.40
466.05	9298.95
466.23	9312.99
466.41	9415.98
466.60	9472.15
466.78	9268.52
466.96	9355.12
467.14	9376.19
467.32	9497.89
467.51	9565.77
467.69	9153.84
467.87	9626.62
468.05	9706.20
468.23	9715.56
468.41	9549.39
468.60	9769.40
468.78	9664.07
468.96	9706.20
469.14	9877.06
469.32	9961.32
469.50	9717.90
469.69	9802.16
469.87	10052.60
470.05	9706.20
470.23	10001.11
470.41	9912.17
470.59	10003.45
470.77	9928.55
470.95	10017.49
471.14	10319.42
471.32	10085.37
471.50	10485.60
471.68	10267.93
471.86	10452.83
472.04	10607.31
472.22	10750.08
472.40	10415.38
472.58	10551.14
472.77	10473.90
472.95	10757.10
473.13	11044.99
473.31	10714.97
473.49	10729.02
473.67	10846.04
473.85	10764.12
474.03	11192.44
474.21	11094.14
474.39	11356.28
474.57	11234.57
474.75	11150.31
474.93	11426.50
475.12	11140.95
475.30	11609.06
475.48	11236.91
475.66	11522.46
475.84	11396.07
476.02	11709.70
476.20	11442.88
476.38	11793.96
476.56	12091.21
476.74	12013.97
476.92	11913.33
477.10	11960.14
477.28	12304.20
477.46	12297.17
477.64	12449.31
477.82	12484.42
478.00	12713.79
478.18	12606.13
478.36	12592.08
478.54	12842.52
478.72	12769.96
478.90	13121.04
479.08	13322.33
479.26	13376.16
479.44	13319.99
479.62	13628.94
479.80	13401.91
479.98	13722.56
480.16	13947.25
480.34	13858.31
480.52	14164.92
480.70	13893.42
480.88	13769.37
481.06	14148.54
481.24	14162.58
481.41	14443.45
481.59	14576.86
481.77	14572.18
481.95	14698.56
482.13	14707.93
482.31	14618.99
482.49	14944.32
482.67	14995.81
482.85	15316.47
483.03	15314.13
483.21	15424.13
483.39	15606.69
483.57	15597.33
483.74	15606.69
483.92	15908.62
484.10	15676.91
484.28	16095.86
484.46	16271.40
484.64	16563.97
484.82	16390.77
485.00	16238.64
485.18	16556.95
485.35	16549.93
485.53	16549.93
485.71	16257.36
485.89	16549.93
486.07	16695.04
486.25	16791.00
486.43	16936.12
486.61	17289.54
486.78	17699.13
486.96	17614.87
487.14	17797.43
487.32	17804.46
487.50	18436.40
487.68	18501.93
487.85	18464.49
488.03	18759.39
488.21	18878.76
488.39	18686.84
488.57	18920.89
488.75	18843.65
488.92	19372.61
489.10	19407.72
489.28	19651.14
489.46	20098.18
489.64	19899.23
489.81	20491.39
489.99	20589.69
490.17	20730.12
490.35	20622.46
490.53	20594.37
490.70	20889.28
490.88	21142.06
491.06	21186.53
491.24	21198.23
491.41	20959.50
491.59	21013.33
491.77	21071.84
491.95	21223.98
492.13	21713.15
492.30	21965.93
492.48	21825.50
492.66	22256.15
492.84	21965.93
493.01	22654.05
493.19	22335.73
493.37	22450.42
493.54	22640.00
493.72	22668.09
493.90	22785.12
494.08	23194.71
494.25	23360.89
494.43	23543.45
494.61	23924.96
494.79	23763.46
494.96	23576.22
495.14	23873.46
495.32	23866.44
495.49	24142.63
495.67	24137.94
495.85	24315.83
496.02	24517.11
496.20	24556.90
496.38	24554.56
496.55	24666.91
496.73	25310.55
496.91	25053.09
497.09	25202.89
497.26	25612.48
497.44	25362.04
497.62	25832.49
497.79	25495.46
497.97	25455.67
498.14	25874.62
498.32	25954.20
498.50	25965.90
498.67	26085.27
498.85	26387.20
499.03	26307.62
499.20	26412.95
499.38	26375.50
499.56	26616.57
499.73	26597.85
499.91	26852.97
500.08	26831.90
500.26	26693.81
500.44	26969.99
500.61	27182.98
500.79	26710.19
500.97	27019.14
501.14	27562.15
501.32	27374.91
501.49	27520.02
501.67	27517.68
501.84	27484.91
502.02	27864.08
502.20	28077.07
502.37	28283.03
502.55	27852.38
502.72	28020.89
502.90	28524.11
503.07	28346.23
503.25	28489.00
503.43	28299.42
503.60	28566.24
503.78	28432.83
503.95	28369.63
504.13	28727.74
504.30	28554.54
504.48	28982.85
504.65	29406.49
504.83	29404.15
505.01	29207.55
505.18	29563.31
505.36	30141.42
505.53	29848.85
505.71	29940.13
505.88	29944.81
506.06	29706.08
506.23	30312.28
506.41	30120.35
506.58	29958.86
506.76	30342.70
506.93	30731.23
507.11	30052.48
507.28	30384.83
507.46	30096.95
507.63	30122.69
507.81	30925.50
507.98	30412.92
508.16	30691.44
508.33	31243.81
508.50	31126.78
508.68	31328.07
508.85	30969.97
509.03	31307.01
509.20	31365.52
509.38	31742.35
509.55	31428.71
509.73	31519.99
509.90	31325.73
510.08	31653.40
510.25	31391.26
510.42	31782.13
510.60	31594.89
510.77	32088.74
510.95	32453.87
511.12	31931.93
511.30	32659.84
511.47	32760.48
511.64	32486.64
511.82	32844.74
511.99	32570.90
512.17	33085.81
512.34	32421.10
512.51	32776.86
512.69	33010.92
512.86	33277.74
513.04	33312.84
513.21	32924.32
513.38	33170.07
513.56	33120.92
513.73	33104.54
513.90	33223.90
514.08	33289.44
514.25	33464.98
514.43	33490.73
514.60	33886.28
514.77	33626.48
514.95	34237.36
515.12	33523.49
515.29	33944.79
515.47	34499.50
515.64	34279.49
515.81	33926.07
515.99	34115.65
516.16	34513.54
516.33	34251.40
516.51	33663.93
516.68	33626.48
516.85	33619.46
517.03	33514.13
517.20	34263.10
517.37	34569.71
517.54	34569.71
517.72	34719.51
517.89	34246.72
518.06	33989.26
518.24	34323.96
518.41	34401.19
518.58	34946.54
518.75	34927.81
518.93	34988.67
519.10	35351.45
519.27	35208.68
519.45	35491.88
519.62	35978.72
519.79	35892.12
519.96	35573.80
520.14	35756.36
520.31	35512.95
520.48	35857.01
520.65	36065.31
520.83	36425.76
521.00	35920.20
521.17	36285.33
521.34	35831.26
521.52	36306.39
521.69	36559.17
521.86	36802.58
522.03	36964.08
522.20	36828.33
522.38	36343.84
522.55	36582.57
522.72	36538.10
522.89	36559.17
523.07	37172.39
523.24	36802.58
523.41	37193.45
523.58	37308.14
523.75	37912.00
523.92	37560.92
524.10	37532.83
524.27	37839.44
524.44	37865.19
524.61	37900.29
524.78	37865.19
524.96	37736.46
525.13	38092.22
525.30	38342.66
525.47	38471.39
525.64	37993.92
525.81	38043.07
525.98	37907.32
526.16	37881.57
526.33	37230.90
526.50	37947.11
526.67	37722.41
526.84	37399.42
527.01	37418.14
527.18	38387.13
527.36	38466.70
527.53	38597.77
527.70	38876.30
527.87	38892.68
528.04	38862.26
528.21	38916.09
528.38	38684.37
528.55	38712.46
528.72	38939.49
528.89	39243.76
529.07	39269.51
529.24	38895.02
529.41	39454.41
529.58	39173.55
529.75	39484.84
529.92	39524.63
530.09	39496.54
530.26	39739.96
530.43	39585.48
530.60	39253.12
530.77	39641.65
530.94	40219.77
531.11	39672.08
531.28	39707.19
531.46	39819.53
531.63	39868.69
531.80	39587.82
531.97	40084.01
532.14	39625.27
532.31	39459.09
532.48	39737.62
532.65	39983.37
532.82	39744.64
532.99	40320.41
533.16	40233.81
533.33	40163.59
533.50	40446.80
533.67	40275.94
533.84	40252.53
534.01	40814.26
534.18	40287.64
534.35	40823.62
534.52	40205.72
534.69	40603.61
534.86	40570.85
535.03	40561.48
535.20	40790.86
535.37	41385.35
535.54	41436.84
535.71	40875.12
535.88	41055.34
536.05	41060.02
536.22	41036.61
536.38	41294.07
536.55	41050.66
536.72	40844.69
536.89	40856.39
537.06	40931.29
537.23	41375.99
537.40	41354.93
537.57	41392.37
537.74	41291.73
537.91	42078.15
538.08	41659.20
538.25	41174.70
538.42	41696.64
538.59	42113.26
538.75	41507.06
538.92	41287.05
539.09	41902.61
539.26	41675.58
539.43	41837.08
539.60	41696.64
539.77	41200.45
539.94	41879.21
540.11	41378.33
540.28	41731.75
540.44	42162.41
540.61	41698.98
540.78	42021.98
540.95	41776.22
541.12	41528.13
541.29	42171.77
541.46	42178.79
541.62	42443.27
541.79	42604.77
541.96	41982.19
542.13	42253.69
542.30	42321.57
542.47	42511.15
542.63	42181.13
542.80	42244.33
542.97	42927.77
543.14	43283.53
543.31	42794.36
543.48	42983.94
543.64	42782.65
543.81	42995.64
543.98	43232.04
544.15	43168.84
544.32	43009.68
544.48	43742.27
544.65	43227.35
544.82	43632.27
544.99	42693.71
545.16	43133.73
545.32	42983.94
545.49	43519.92
545.66	44095.69
545.83	43538.65
546.00	43622.90
546.16	43295.23
546.33	43363.11
546.50	42848.19
546.67	44016.11
546.83	42651.58
547.00	43491.83
547.17	43531.62
547.34	43040.11
547.50	43297.57
547.67	44142.50
547.84	43580.78
548.00	44039.52
548.17	44329.75
548.34	44037.18
548.51	44357.83
548.67	44306.34
548.84	44301.66
549.01	43964.62
549.18	44311.02
549.34	44224.42
549.51	44322.72
549.68	44163.57
549.84	44444.43
550.01	44552.10
550.18	43910.79
550.34	44226.76
550.51	44086.33
550.68	44067.61
550.84	43962.28
551.01	44201.02
551.18	44091.01
551.34	43978.67
551.51	44428.05
551.68	44802.53
551.84	44636.36
552.01	44657.42
552.18	44608.27
552.34	44236.12
552.51	44362.51
552.68	44355.49
552.84	44809.56
553.01	44678.49
553.18	45027.23
553.34	44804.88
553.51	44404.64
553.67	44795.51
553.84	45059.99
554.01	45270.64
554.17	44900.84
554.34	44968.71
554.51	44800.19
554.67	45074.04
554.84	44755.72
555.00	44772.11
555.17	45113.83
555.33	44928.92
555.50	45109.14
555.67	45319.79
555.83	45045.95
556.00	44807.22
556.16	45752.79
556.33	45113.83
556.50	45179.36
556.66	45413.41
556.83	45130.21
556.99	44875.09
557.16	44706.57
557.32	45338.52
557.49	45476.61
557.65	45177.02
557.82	45392.35
557.98	45394.69
558.15	45544.48
558.32	45457.88
558.48	44886.79
558.65	45345.54
558.81	45745.77
558.98	45120.85
559.14	45277.66
559.31	45003.82
559.47	45240.21
559.64	45390.01
559.80	45062.33
559.97	45546.82
560.13	45610.02
560.30	45532.78
560.46	45350.22
560.63	45741.09
560.79	45792.58
560.96	45500.01
561.12	45722.37
561.29	45181.70
561.45	45787.90
561.61	45464.91
561.78	45621.72
561.94	45083.40
562.11	45722.37
562.27	45766.84
562.44	45539.80
562.60	45792.58
562.77	45705.98
562.93	45745.77
563.10	45837.05
563.26	45790.24
563.42	46003.23
563.59	45911.95
563.75	45668.53
563.92	45935.35
564.08	45944.72
564.24	45703.64
564.41	45942.38
564.57	45888.54
564.74	46047.70
564.90	45947.06
565.07	46237.28
565.23	45827.69
565.39	45734.07
565.56	46026.63
565.72	45617.04
565.88	45282.34
566.05	45542.14
566.21	45944.72
566.38	45748.11
566.54	46003.23
566.70	46176.43
566.87	46466.66
567.03	45846.41
567.19	46724.11
567.36	46305.16
567.52	45930.67
567.68	46183.45
567.85	45537.46
568.01	46246.65
568.17	46082.81
568.34	46106.21
568.50	45801.94
568.66	45886.20
568.83	46136.64
568.99	46129.62
569.15	46127.28
569.32	46248.99
569.48	45614.70
569.64	46281.75
569.81	46033.66
569.97	45996.21
570.13	45862.80
570.30	45823.01
570.46	45542.14
570.62	45661.51
570.78	45462.57
570.95	45930.67
571.11	46239.62
571.27	46120.26
571.43	45872.16
571.60	46216.22
571.76	45956.42
571.92	46160.05
572.09	46092.17
572.25	46087.49
572.41	46417.50
572.57	46284.09
572.74	46677.30
572.90	46443.25
573.06	46349.63
573.22	46309.84
573.38	46281.75
573.55	46323.88
573.71	46405.80
573.87	46546.23
574.03	46234.94
574.20	46155.36
574.36	46000.89
574.52	46066.42
574.68	46052.38
574.84	46136.64
575.01	46169.41
575.17	46487.72
575.33	45918.97
575.49	46000.89
575.65	46635.17
575.82	46279.41
575.98	46328.56
576.14	46660.92
576.30	46197.49
576.46	46541.55
576.62	45944.72
576.79	46305.16
576.95	46087.49
577.11	46258.35
577.27	46309.84
577.43	46270.05
577.59	46089.83
577.75	46134.30
577.92	46003.23
578.08	46075.79
578.24	45972.80
578.40	45659.17
578.56	46394.10
578.72	46204.52
578.88	46216.22
579.04	46871.57
579.21	45963.44
579.37	46110.89
579.53	46213.88
579.69	45741.09
579.85	46277.07
580.01	46426.87
580.17	46263.03
580.33	46443.25
580.49	46728.80
580.65	46131.96
580.82	46010.25
580.98	45989.19
581.14	45872.16
581.30	46681.98
581.46	46136.64
581.62	46361.33
581.78	45940.04
581.94	46791.99
582.10	46328.56
582.26	46305.16
582.42	46387.08
582.58	46614.11
582.74	46014.93
582.90	46408.14
583.06	46171.75
583.22	46607.09
583.38	46375.37
583.54	46780.29
583.70	46131.96
583.86	46567.30
584.02	46490.06
584.18	46298.14
584.34	46445.59
584.50	46195.15
584.66	46220.90
584.82	46527.51
584.98	46548.57
585.14	45933.01
585.30	46272.39
585.46	46492.40
585.62	46286.43
585.78	46122.60
585.94	46075.79
586.10	46337.93
586.26	46185.79
586.42	46794.33
586.58	46712.41
586.74	46541.55
586.90	46050.04
587.06	46080.47
587.22	46447.93
587.38	46644.54
587.54	46457.29
587.70	46550.91
587.86	46068.76
588.02	46607.09
588.18	46513.47
588.34	46110.89
588.49	46073.45
588.65	45525.76
588.81	45834.71
588.97	45883.86
589.13	45752.79
589.29	45373.63
589.45	46387.08
589.61	46148.34
589.77	46796.67
589.93	46267.71
