SpectraSuite Data File
++++++++++++++++++++++++++++++++++++
Date: Fri Oct 25 10:43:54 EDT 2013
User: price-jones
Dark Spectrum Present: No
Reference Spectrum Present: No
Number of Sampled Component Spectra: 1
Spectrometers: USB2+H05261
Integration Time (usec): 100000 (USB2+H05261)
Spectra Averaged: 1 (USB2+H05261)
Boxcar Smoothing: 0 (USB2+H05261)
Correct for Electrical Dark: No (USB2+H05261)
Strobe/Lamp Enabled: No (USB2+H05261)
Correct for Detector Non-linearity: No (USB2+H05261)
Correct for Stray Light: No (USB2+H05261)
Number of Pixels in Processed Spectrum: 2048
>>>>>Begin Processed Spectral Data<<<<<
365.73	147.45
365.92	147.45
366.12	147.45
366.32	42.13
366.52	28.09
366.72	0.00
366.91	0.00
367.11	30.43
367.31	46.81
367.51	30.43
367.70	81.92
367.90	46.81
368.10	0.00
368.30	23.41
368.49	46.81
368.69	77.24
368.89	60.85
369.09	37.45
369.28	53.83
369.48	105.32
369.68	56.17
369.87	84.26
370.07	65.54
370.27	114.69
370.47	201.29
370.66	423.64
370.86	433.00
371.06	475.13
371.25	421.30
371.45	456.40
371.65	528.96
371.84	440.02
372.04	500.87
372.24	451.72
372.44	528.96
372.63	543.00
372.83	517.26
373.03	489.17
373.22	566.41
373.42	571.09
373.62	519.60
373.81	566.41
374.01	557.05
374.21	531.30
374.40	552.37
374.60	638.97
374.79	573.43
374.99	554.71
375.19	606.20
375.38	589.82
375.58	594.50
375.78	510.24
375.97	575.77
376.17	657.69
376.37	624.92
376.56	575.77
376.76	603.86
376.95	589.82
377.15	622.58
377.35	676.41
377.54	657.69
377.74	613.22
377.93	657.69
378.13	660.03
378.33	683.44
378.52	645.99
378.72	674.07
378.91	763.01
379.11	592.16
379.31	660.03
379.50	594.50
379.70	727.91
379.89	685.78
380.09	650.67
380.28	671.73
380.48	737.27
380.68	706.84
380.87	760.67
381.07	676.41
381.26	718.54
381.46	830.89
381.65	781.74
381.85	716.20
382.04	690.46
382.24	739.61
382.43	629.60
382.63	748.97
382.83	751.31
383.02	711.52
383.22	763.01
383.41	788.76
383.61	688.12
383.80	770.04
384.00	765.36
384.19	791.10
384.39	847.27
384.58	763.01
384.78	767.70
384.97	833.23
385.17	770.04
385.36	884.72
385.56	821.53
385.75	755.99
385.95	866.00
386.14	884.72
386.34	772.38
386.53	882.38
386.72	784.08
386.92	896.43
387.11	793.44
387.31	959.62
387.50	777.06
387.70	947.92
387.89	873.02
388.09	849.61
388.28	901.11
388.48	936.21
388.67	968.98
388.86	931.53
389.06	1020.47
389.25	1020.47
389.45	971.32
389.64	1093.03
389.84	983.02
390.03	1015.79
390.22	1043.88
390.42	1081.33
390.61	1053.24
390.81	1064.94
391.00	1067.28
391.19	1062.60
391.39	985.37
391.58	1151.54
391.78	1186.65
391.97	1149.20
392.16	980.68
392.36	1100.05
392.55	1109.41
392.75	954.94
392.94	964.30
393.13	1020.47
393.33	980.68
393.52	1090.69
393.71	1086.01
393.91	1109.41
394.10	1158.57
394.29	1153.88
394.49	1261.55
394.68	1245.16
394.88	1263.89
395.07	1277.93
395.26	1200.69
395.46	1268.57
395.65	1345.81
395.84	1315.38
396.04	1324.74
396.23	1224.10
396.42	1181.97
396.62	1188.99
396.81	1174.95
397.00	1315.38
397.19	1404.32
397.39	1416.02
397.58	1425.39
397.77	1493.26
397.97	1437.09
398.16	1514.33
398.35	1523.69
398.55	1502.62
398.74	1603.27
398.93	1586.88
399.12	1591.56
399.32	1551.78
399.51	1607.95
399.70	1607.95
399.90	1636.03
400.09	1685.19
400.28	1732.00
400.47	1673.48
400.67	1802.21
400.86	1717.95
401.05	1762.42
401.24	1799.87
401.44	1771.79
401.63	1795.19
401.82	1839.66
402.01	1816.26
402.21	1708.59
402.40	1860.73
402.59	1881.79
402.78	1930.94
402.97	1877.11
403.17	1834.98
403.36	1984.77
403.55	2015.20
403.74	1980.09
403.93	1935.62
404.13	1914.56
404.32	1980.09
404.51	2005.84
404.70	1959.03
404.89	2047.97
405.09	2022.22
405.28	1980.09
405.47	2071.37
405.66	2083.08
405.85	1916.90
406.05	2038.61
406.24	2099.46
406.43	2047.97
406.62	2167.34
406.81	2347.56
407.00	2101.80
407.20	2209.47
407.39	2146.27
407.58	2197.76
407.77	2328.83
407.96	2345.22
408.15	2459.90
408.34	2221.17
408.54	2352.24
408.73	2417.77
408.92	2389.69
409.11	2516.08
409.30	2422.45
409.49	2448.20
409.68	2406.07
409.87	2403.73
410.07	2387.35
410.26	2555.86
410.45	2677.57
410.64	2640.12
410.83	2635.44
411.02	2670.55
411.21	2562.89
411.40	2614.38
411.59	2736.09
411.78	2724.38
411.98	2738.43
412.17	2747.79
412.36	2764.17
412.55	2766.51
412.74	2977.16
412.93	2944.39
413.12	2832.05
413.31	2967.80
413.50	2939.71
413.69	2935.03
413.88	3059.08
414.07	3026.31
414.26	3199.51
414.45	3089.51
414.64	3126.96
414.83	3171.43
415.02	3185.47
415.22	3112.91
415.41	3248.66
415.60	3276.75
415.79	3419.52
415.98	3384.41
416.17	3538.89
416.36	3459.31
416.55	3349.31
416.74	3482.72
416.93	3379.73
417.12	3473.36
417.31	3459.31
417.50	3557.61
417.69	3641.87
417.88	3639.53
418.07	3679.32
418.26	3691.02
418.45	3623.15
418.64	3775.28
418.83	3782.31
419.02	3639.53
419.21	3833.80
419.39	3646.55
419.58	3728.47
419.77	3763.58
419.96	3936.78
420.15	3854.86
420.34	3950.82
420.53	3885.29
420.72	4021.04
420.91	3985.93
421.10	4009.34
421.29	4107.64
421.48	3932.10
421.67	4201.26
421.86	4023.38
422.05	4086.58
422.24	3922.74
422.43	4037.42
422.61	3974.23
422.80	4145.09
422.99	4051.47
423.18	4081.89
423.37	4269.14
423.56	4021.04
423.75	4072.53
423.94	4056.15
424.13	3833.80
424.32	3908.69
424.50	4081.89
424.69	4215.30
424.88	4196.58
425.07	4016.36
425.26	4124.02
425.45	4072.53
425.64	4093.60
425.83	4191.90
426.01	4168.49
426.20	4147.43
426.39	4285.52
426.58	4124.02
426.77	4074.87
426.96	4088.92
427.15	4231.69
427.33	4271.48
427.52	4236.37
427.71	4329.99
427.90	4156.79
428.09	4248.07
428.28	4348.72
428.46	4299.56
428.65	4397.87
428.84	4440.00
429.03	4531.28
429.22	4376.80
429.40	4304.25
429.59	4231.69
429.78	4128.70
429.97	3918.06
430.16	4243.39
430.34	4231.69
430.53	4320.63
430.72	4250.41
430.91	4322.97
431.10	4341.69
431.28	4636.60
431.47	4929.17
431.66	4887.04
431.85	4748.95
432.03	4814.48
432.22	4877.68
432.41	4856.61
432.60	4779.37
432.79	4830.87
432.97	4809.80
433.16	4929.17
433.35	4854.27
433.54	4814.48
433.72	5067.26
433.91	4910.44
434.10	4983.00
434.28	5022.79
434.47	4936.19
434.66	5153.86
434.85	5100.03
435.03	5114.07
435.22	5224.08
435.41	5280.25
435.59	5261.52
435.78	5261.52
435.97	5373.87
436.16	5366.85
436.34	5235.78
436.53	5254.50
436.72	5394.93
436.90	5121.09
437.09	5366.85
437.28	5404.30
437.46	5516.64
437.65	5341.10
437.84	5273.23
438.02	5273.23
438.21	5490.90
438.40	5518.98
438.58	5425.36
438.77	5724.95
438.96	5675.80
439.14	5729.63
439.33	5767.08
439.52	5673.46
439.70	5872.40
439.89	5853.68
440.08	5851.34
440.26	5940.28
440.45	5951.98
440.63	6097.10
440.82	6169.65
441.01	6228.17
441.19	6249.23
441.38	6396.68
441.57	6286.68
441.75	6487.96
441.94	6619.04
442.12	6757.13
442.31	6642.44
442.50	6942.03
442.68	6647.12
442.87	6670.53
443.05	6752.45
443.24	6850.75
443.43	6686.91
443.61	6855.43
443.80	7002.88
443.98	6712.66
444.17	6621.38
444.35	6623.72
444.54	6911.60
444.73	6853.09
444.91	6789.89
445.10	6754.79
445.28	6738.40
445.47	6782.87
445.65	6612.01
445.84	6890.54
446.02	6707.98
446.21	6916.28
446.39	6808.62
446.58	6925.65
446.77	6897.56
446.95	6923.30
447.14	7037.99
447.32	7129.27
447.51	6944.37
447.69	6820.32
447.88	7143.32
448.06	7185.44
448.25	7082.46
448.43	7045.01
448.62	7087.14
448.80	7084.80
448.99	7096.50
449.17	7087.14
449.36	7117.57
449.54	7269.70
449.73	7145.66
449.91	7321.20
450.10	7534.18
450.28	7428.86
450.46	7463.97
450.65	7349.28
450.83	7562.27
451.02	7485.03
451.20	7487.37
451.39	7651.21
451.57	7482.69
451.76	7508.44
451.94	7658.23
452.13	7623.12
452.31	7508.44
452.49	7382.05
452.68	7655.89
452.86	7370.35
453.05	7501.42
453.23	7611.42
453.42	7637.17
453.60	7613.76
453.78	7801.01
453.97	7815.05
454.15	7756.54
454.34	7737.81
454.52	7719.09
454.70	7873.56
454.89	7885.26
455.07	7709.72
455.26	7840.79
455.44	8079.53
455.62	8138.04
455.81	8161.45
455.99	8107.62
456.17	8112.30
456.36	8166.13
456.54	8367.42
456.73	8285.50
456.91	8535.93
457.09	8411.89
457.28	8709.13
457.46	8475.08
457.64	8688.07
457.83	8418.91
458.01	8215.28
458.19	8624.87
458.38	8444.65
458.56	8580.40
458.74	8622.53
458.93	8575.72
459.11	8559.34
459.29	8449.33
459.48	8748.92
459.66	8500.83
459.84	8791.05
460.03	8814.46
460.21	8837.86
460.39	9006.38
460.57	8959.57
460.76	8940.85
460.94	8882.33
461.12	9027.45
461.31	9207.67
461.49	8990.00
461.67	8959.57
461.85	9277.88
462.04	9142.13
462.22	9373.85
462.40	9210.01
462.59	9263.84
462.77	9329.38
462.95	9277.88
463.13	9355.12
463.32	9448.74
463.50	9497.89
463.68	9570.45
463.86	9273.20
464.05	9350.44
464.23	9331.72
464.41	9128.09
464.59	9100.00
464.78	9467.47
464.96	9568.11
465.14	9242.78
465.32	9731.95
465.50	9591.52
465.69	9738.97
465.87	9481.51
466.05	9762.37
466.23	9561.09
466.41	9336.40
466.60	9558.75
466.78	9549.39
466.96	9586.83
467.14	9614.92
467.32	9617.26
467.51	9839.61
467.69	9528.32
467.87	9888.76
468.05	10036.22
468.23	9874.72
468.41	9958.98
468.60	9832.59
468.78	10012.81
468.96	10057.28
469.14	10012.81
469.32	10129.84
469.50	9757.69
469.69	9994.09
469.87	10251.55
470.05	10244.52
470.23	10216.44
470.41	10216.44
470.59	10424.75
470.77	10509.01
470.95	10396.66
471.14	10703.27
471.32	10399.00
471.50	10560.50
471.68	10752.42
471.86	10801.57
472.04	10696.25
472.22	10942.00
472.40	10574.54
472.58	10855.40
472.77	10934.98
472.95	11108.18
473.13	11269.68
473.31	10817.96
473.49	11002.86
473.67	10965.41
473.85	11047.33
474.03	11293.08
474.21	11576.29
474.39	11314.15
474.57	11620.76
474.75	11634.80
474.93	11648.85
475.12	11576.29
475.30	11833.75
475.48	11494.37
475.66	11822.05
475.84	11758.85
476.02	11756.51
476.20	11988.22
476.38	12006.95
476.56	12439.95
476.74	12554.63
476.92	12086.53
477.10	12372.07
477.28	12554.63
477.46	12730.17
477.64	12655.28
477.82	12833.16
478.00	13088.28
478.18	13317.65
478.36	13099.98
478.54	12982.95
478.72	13142.11
478.90	13586.81
479.08	13675.75
479.26	13940.23
479.44	13692.13
479.62	13687.45
479.80	13760.01
479.98	13844.27
480.16	14260.88
480.34	14087.68
480.52	14375.57
480.70	14356.85
480.88	14061.94
481.06	14560.47
481.24	14626.01
481.41	14703.25
481.59	15040.28
481.77	15253.27
481.95	14897.51
482.13	15002.83
482.31	15222.84
482.49	15459.24
482.67	15428.81
482.85	15534.14
483.03	15580.95
483.21	15761.17
483.39	15864.15
483.57	15742.44
483.74	16030.33
483.92	16226.93
484.10	16049.05
484.28	16350.98
484.46	16886.97
484.64	16856.54
484.82	16627.17
485.00	16884.62
485.18	16833.13
485.35	17109.32
485.53	16615.46
485.71	16673.98
485.89	17156.13
486.07	16809.73
486.25	17195.92
486.43	17596.15
486.61	17570.40
486.78	17853.61
486.96	18122.77
487.14	18473.85
487.32	18471.51
487.50	18740.67
487.68	18836.63
487.85	19040.26
488.03	19229.84
488.21	18972.38
488.39	19161.97
488.57	19293.04
488.75	19496.66
488.92	19552.84
489.10	20081.80
489.28	20044.35
489.46	20402.45
489.64	20402.45
489.81	20699.70
489.99	21092.91
490.17	21209.93
490.35	21205.25
490.53	20847.15
490.70	21158.44
490.88	21109.29
491.06	21326.96
491.24	21380.79
491.41	21518.89
491.59	21582.08
491.77	21502.50
491.95	21825.50
492.13	21996.35
492.30	22291.26
492.48	22632.98
492.66	22501.91
492.84	22569.79
493.01	22424.67
493.19	23021.51
493.37	23150.24
493.54	22995.76
493.72	23449.83
493.90	23374.93
494.08	23618.35
494.25	23887.51
494.43	23894.53
494.61	24107.52
494.79	24435.19
494.96	24678.61
495.14	24355.61
495.32	24547.54
495.49	24851.81
495.67	24517.11
495.85	24669.25
496.02	24844.79
496.20	25146.72
496.38	25315.23
496.55	25170.12
496.73	25752.91
496.91	25914.41
497.09	26059.52
497.26	25876.96
497.44	26370.82
497.62	26216.34
497.79	26455.08
497.97	26003.35
498.14	26359.11
498.32	26469.12
498.50	26569.76
498.67	26642.32
498.85	27028.51
499.03	27058.93
499.20	27171.28
499.38	27098.72
499.56	27527.04
499.73	27234.47
499.91	27215.75
500.08	27938.97
500.26	26883.39
500.44	27372.57
500.61	27679.18
500.79	27634.71
500.97	27608.96
501.14	27934.29
501.32	28261.97
501.49	27700.24
501.67	27859.40
501.84	28510.07
502.02	28395.38
502.20	28524.11
502.37	28800.29
502.55	28545.17
502.72	28800.29
502.90	28943.06
503.07	28886.89
503.25	29170.10
503.43	28989.88
503.60	28985.19
503.78	28996.90
503.95	29097.54
504.13	29118.60
504.30	29605.44
504.48	29738.85
504.65	29724.80
504.83	29879.28
505.01	29907.37
505.18	29986.94
505.36	30972.31
505.53	30134.40
505.71	30471.43
505.88	30331.00
506.06	30291.21
506.23	30492.50
506.41	30665.70
506.58	30976.99
506.76	30628.25
506.93	31033.16
507.11	31096.36
507.28	30958.27
507.46	30831.88
507.63	31571.49
507.81	31119.76
507.98	31494.25
508.16	31318.71
508.33	31630.00
508.50	31583.19
508.68	32006.83
508.85	32163.64
509.03	32114.49
509.20	32219.81
509.38	32268.97
509.55	32095.77
509.73	32205.77
509.90	32264.28
510.08	32505.36
510.25	32390.67
510.42	32425.78
510.60	32414.08
510.77	33078.79
510.95	33146.67
511.12	32903.25
511.30	33434.55
511.47	33567.96
511.64	33228.59
511.82	33752.87
511.99	33069.43
512.17	33287.10
512.34	33235.61
512.51	33483.70
512.69	33984.58
512.86	33603.07
513.04	34080.54
513.21	33881.60
513.38	33778.61
513.56	33956.49
513.73	33923.72
513.90	34047.77
514.08	33759.89
514.25	34195.23
514.43	34560.35
514.60	34129.69
514.77	34462.05
514.95	34438.64
515.12	34370.77
515.29	34677.38
515.47	35119.74
515.64	35079.95
515.81	35124.42
515.99	34675.04
516.16	34813.13
516.33	34225.65
516.51	34850.58
516.68	33799.68
516.85	34094.58
517.03	34302.89
517.20	34735.89
517.37	34864.62
517.54	35550.40
517.72	35353.79
517.89	34958.24
518.06	34944.20
518.24	35124.42
518.41	35321.02
518.58	35239.11
518.75	35470.82
518.93	35763.39
519.10	35805.52
519.27	36062.97
519.45	36219.79
519.62	36371.92
519.79	36306.39
519.96	36306.39
520.14	36339.16
520.31	36172.98
520.48	36554.49
520.65	36704.28
520.83	36730.03
521.00	37020.25
521.17	36863.44
521.34	36587.25
521.52	37383.04
521.69	36910.25
521.86	37179.41
522.03	37209.84
522.20	37289.42
522.38	37486.02
522.55	37614.75
522.72	37385.38
522.89	37333.89
523.07	37804.33
523.24	37570.28
523.41	38031.36
523.58	37748.16
523.75	38492.45
523.92	37839.44
524.10	38330.95
524.27	38490.11
524.44	38497.13
524.61	38225.63
524.78	38939.49
524.96	38387.13
525.13	38487.77
525.30	38522.88
525.47	39007.37
525.64	38724.16
525.81	38480.75
525.98	38473.73
526.16	38511.17
526.33	38094.56
526.50	38560.33
526.67	38335.63
526.84	38546.28
527.01	38550.96
527.18	38696.08
527.36	39215.68
527.53	39290.57
527.70	39824.22
527.87	39782.09
528.04	39477.82
528.21	39344.41
528.38	39711.87
528.55	39768.04
528.72	40074.65
528.89	39981.03
529.07	40278.28
529.24	40353.18
529.41	39962.31
529.58	39969.33
529.75	39985.71
529.92	40217.43
530.09	40257.21
530.26	40135.51
530.43	40568.51
530.60	40051.25
530.77	40430.41
530.94	40526.38
531.11	40346.15
531.28	40889.16
531.46	40552.12
531.63	40598.93
531.80	40360.20
531.97	40245.51
532.14	40495.95
532.31	39821.87
532.48	40343.81
532.65	40615.32
532.82	40526.38
532.99	40842.35
533.16	40882.14
533.33	41305.77
533.50	40886.82
533.67	41113.85
533.84	40751.07
534.01	40907.88
534.18	41078.74
534.35	41663.88
534.52	41474.29
534.69	41305.77
534.86	41371.31
535.03	41521.10
535.20	42089.85
535.37	42057.09
535.54	41528.13
535.71	41771.54
535.88	41808.99
536.05	41844.10
536.22	42068.79
536.38	41418.12
536.55	41806.65
536.72	41736.43
536.89	41731.75
537.06	41813.67
537.23	42171.77
537.40	42021.98
537.57	42625.84
537.74	42323.91
537.91	42211.56
538.08	41722.39
538.25	41977.51
538.42	42239.65
538.59	42462.00
538.75	42237.31
538.92	42131.98
539.09	42330.93
539.26	42426.89
539.43	42602.43
539.60	42218.58
539.77	42323.91
539.94	42234.97
540.11	42401.14
540.28	42440.93
540.44	42328.59
540.61	42602.43
540.78	41986.87
540.95	42469.02
541.12	42586.05
541.29	42780.31
541.46	42848.19
541.62	42721.80
541.79	42843.51
541.96	42387.10
542.13	42808.40
542.30	42916.06
542.47	42749.88
542.63	43014.37
542.80	43309.27
542.97	43175.86
543.14	43339.70
543.31	43372.47
543.48	43512.90
543.64	43702.48
543.81	44076.97
543.98	43985.69
544.15	43620.56
544.32	43716.53
544.48	44229.10
544.65	43849.94
544.82	44304.00
544.99	43749.29
545.16	43908.45
545.32	43786.74
545.49	44158.89
545.66	44629.34
545.83	44112.08
546.00	44083.99
546.16	44154.21
546.33	44072.29
546.50	43807.81
546.67	44364.85
546.83	43728.23
547.00	44086.33
547.17	44215.06
547.34	44301.66
547.50	44570.82
547.67	44610.61
547.84	44458.48
548.00	44683.17
548.17	44619.97
548.34	44392.94
548.51	44751.04
548.67	44474.86
548.84	44596.57
549.01	44587.21
549.18	44622.31
549.34	44896.16
549.51	44659.76
549.68	44971.05
549.84	45139.57
550.01	45165.32
550.18	44954.67
550.34	45083.40
550.51	44769.77
550.68	44903.18
550.84	44367.20
551.01	45308.09
551.18	44982.76
551.34	44933.60
551.51	45067.02
551.68	45397.03
551.84	45441.50
552.01	45120.85
552.18	45148.93
552.34	45165.32
552.51	45151.27
552.68	45315.11
552.84	45708.32
553.01	45202.77
553.18	45230.85
553.34	45464.91
553.51	45610.02
553.67	45783.22
553.84	45914.29
554.01	45862.80
554.17	45909.61
554.34	45514.06
554.51	46031.32
554.67	46089.83
554.84	45806.62
555.00	45720.02
555.17	45518.74
555.33	45846.41
555.50	46017.27
555.67	45418.10
555.83	45574.91
556.00	45937.69
556.16	46059.40
556.33	45956.42
556.50	45956.42
556.66	45270.64
556.83	45794.92
556.99	45792.58
557.16	46068.76
557.32	46185.79
557.49	45998.55
557.65	45811.31
557.82	46012.59
557.98	46197.49
558.15	46012.59
558.32	46272.39
558.48	45446.18
558.65	45837.05
558.81	45780.88
558.98	45792.58
559.14	45853.44
559.31	45640.45
559.47	46122.60
559.64	46059.40
559.80	46167.07
559.97	46012.59
560.13	45820.67
560.30	45738.75
560.46	46216.22
560.63	46401.12
560.79	46656.24
560.96	46487.72
561.12	45869.82
561.29	46295.80
561.45	46230.26
561.61	46213.88
561.78	46403.46
561.94	45965.78
562.11	46258.35
562.27	46284.09
562.44	46499.42
562.60	46937.10
562.77	46579.00
562.93	46473.68
563.10	46389.42
563.26	46148.34
563.42	46787.31
563.59	46225.58
563.75	46454.95
563.92	46483.04
564.08	46642.20
564.24	47210.95
564.41	46553.26
564.57	46653.90
564.74	46408.14
564.90	46625.81
565.07	46394.10
565.23	46651.56
565.39	46740.50
565.56	46534.53
565.72	45998.55
565.88	46602.41
566.05	46670.28
566.21	46817.74
566.38	46660.92
566.54	46440.91
566.70	46791.99
566.87	47147.75
567.03	46773.27
567.19	47334.99
567.36	46656.24
567.52	46604.75
567.68	46546.23
567.85	46658.58
568.01	46946.47
568.17	46597.73
568.34	47019.02
568.50	46703.05
568.66	46403.46
568.83	46653.90
568.99	46728.80
569.15	46611.77
569.32	46403.46
569.48	46616.45
569.64	46988.60
569.81	46850.50
569.97	46579.00
570.13	46813.05
570.30	46216.22
570.46	46527.51
570.62	46403.46
570.78	46263.03
570.95	46501.76
571.11	46813.05
571.27	46653.90
571.43	46630.49
571.60	46780.29
571.76	46330.90
571.92	46660.92
572.09	46583.68
572.25	46553.26
572.41	46918.38
572.57	46707.73
572.74	46918.38
572.90	46880.93
573.06	46976.89
573.22	46958.17
573.38	46876.25
573.55	46827.10
573.71	46859.87
573.87	46742.84
574.03	46712.41
574.20	46588.36
574.36	46913.70
574.52	47061.15
574.68	47012.00
574.84	46700.71
575.01	46876.25
575.17	46808.37
575.33	46609.43
575.49	46883.27
575.65	46983.91
575.82	46953.49
575.98	46562.62
576.14	46878.59
576.30	47004.98
576.46	46857.52
576.62	46569.64
576.79	46347.29
576.95	46637.51
577.11	46712.41
577.27	46918.38
577.43	46960.51
577.59	47199.24
577.75	46677.30
577.92	46354.31
578.08	46270.05
578.24	46546.23
578.40	46284.09
578.56	47035.41
578.72	47187.54
578.88	46941.78
579.04	47145.41
579.21	46873.91
579.37	47084.56
579.53	46885.61
579.69	46873.91
579.85	46742.84
580.01	46904.34
580.17	47276.48
580.33	46845.82
580.49	47040.09
580.65	47248.39
580.82	46927.74
580.98	46714.75
581.14	46979.23
581.30	47360.74
581.46	47044.77
581.62	47283.50
581.78	47051.79
581.94	47430.96
582.10	46859.87
582.26	47082.22
582.42	47065.83
582.58	46850.50
582.74	46784.97
582.90	47161.79
583.06	47239.03
583.22	46930.08
583.38	47136.05
583.54	47171.16
583.70	47140.73
583.86	47313.93
584.02	46555.60
584.18	47482.45
584.34	46777.95
584.50	46728.80
584.66	46885.61
584.82	46681.98
584.98	47311.59
585.14	47501.17
585.30	46857.52
585.46	47117.32
585.62	46461.97
585.78	46948.81
585.94	46700.71
586.10	46789.65
586.26	46770.93
586.42	47091.58
586.58	47243.71
586.74	47159.45
586.90	46927.74
587.06	46934.76
587.22	46897.31
587.38	46689.01
587.54	47030.72
587.70	47180.52
587.86	46948.81
588.02	46827.10
588.18	46763.90
588.34	46719.43
588.49	46824.76
588.65	46099.19
588.81	46600.07
588.97	46330.90
589.13	46085.15
589.29	46354.31
589.45	46733.48
589.61	46368.35
589.77	46859.87
