SpectraSuite Data File
++++++++++++++++++++++++++++++++++++
Date: Fri Oct 25 11:26:19 EDT 2013
User: price-jones
Dark Spectrum Present: No
Reference Spectrum Present: No
Number of Sampled Component Spectra: 1
Spectrometers: USB2+H05261
Integration Time (usec): 100000 (USB2+H05261)
Spectra Averaged: 1 (USB2+H05261)
Boxcar Smoothing: 0 (USB2+H05261)
Correct for Electrical Dark: No (USB2+H05261)
Strobe/Lamp Enabled: No (USB2+H05261)
Correct for Detector Non-linearity: No (USB2+H05261)
Correct for Stray Light: No (USB2+H05261)
Number of Pixels in Processed Spectrum: 2048
>>>>>Begin Processed Spectral Data<<<<<
365.73	241.08
365.92	241.08
366.12	241.08
366.32	227.03
366.52	124.05
366.72	168.52
366.91	86.60
367.11	149.79
367.31	159.16
367.51	81.92
367.70	67.88
367.90	93.62
368.10	147.45
368.30	133.41
368.49	168.52
368.69	142.77
368.89	191.92
369.09	161.50
369.28	159.16
369.48	191.92
369.68	208.31
369.87	184.90
370.07	217.67
370.27	255.12
370.47	304.27
370.66	596.84
370.86	671.73
371.06	697.48
371.25	730.25
371.45	624.92
371.65	695.14
371.84	641.31
372.04	709.18
372.24	660.03
372.44	732.59
372.63	772.38
372.83	746.63
373.03	774.72
373.22	718.54
373.42	812.17
373.62	788.76
373.81	777.06
374.01	772.38
374.21	861.32
374.40	800.46
374.60	821.53
374.79	866.00
374.99	744.29
375.19	812.17
375.38	802.80
375.58	856.64
375.78	807.48
375.97	849.61
376.17	971.32
376.37	842.59
376.56	905.79
376.76	805.14
376.95	884.72
377.15	802.80
377.35	868.34
377.54	901.11
377.74	863.66
377.93	931.53
378.13	936.21
378.33	896.43
378.52	889.40
378.72	821.53
378.91	1055.58
379.11	891.74
379.31	908.13
379.50	971.32
379.70	936.21
379.89	1011.11
380.09	971.32
380.28	952.60
380.48	1018.13
380.68	1001.75
380.87	1022.81
381.07	1013.45
381.26	1043.88
381.46	990.05
381.65	1008.77
381.85	1086.01
382.04	1097.71
382.24	1057.92
382.43	1167.93
382.63	1086.01
382.83	1088.35
383.02	1032.18
383.22	1015.79
383.41	1069.62
383.61	1039.20
383.80	1160.91
384.00	1088.35
384.19	1156.22
384.39	1125.80
384.58	1142.18
384.78	1205.38
384.97	1188.99
385.17	1156.22
385.36	1142.18
385.56	1221.76
385.75	1174.95
385.95	1310.70
386.14	1231.12
386.34	1273.25
386.53	1224.10
386.72	1224.10
386.92	1217.08
387.11	1217.08
387.31	1240.48
387.50	1170.27
387.70	1228.78
387.89	1193.67
388.09	1210.06
388.28	1284.95
388.48	1301.34
388.67	1247.51
388.86	1245.16
389.06	1289.64
389.25	1338.79
389.45	1334.11
389.64	1256.87
389.84	1369.21
390.03	1380.92
390.22	1430.07
390.42	1371.55
390.61	1343.47
390.81	1343.47
391.00	1413.68
391.19	1483.90
391.39	1437.09
391.58	1511.99
391.78	1476.88
391.97	1451.13
392.16	1439.43
392.36	1488.58
392.55	1462.83
392.75	1540.07
392.94	1558.80
393.13	1540.07
393.33	1640.72
393.52	1514.33
393.71	1617.31
393.91	1614.97
394.10	1542.41
394.29	1600.93
394.49	1535.39
394.68	1664.12
394.88	1638.38
395.07	1579.86
395.26	1647.74
395.46	1540.07
395.65	1792.85
395.84	1659.44
396.04	1743.70
396.23	1753.06
396.42	1753.06
396.62	1652.42
396.81	1825.62
397.00	1732.00
397.19	1820.94
397.39	1783.49
397.58	1839.66
397.77	1792.85
397.97	1877.11
398.16	1844.34
398.35	1820.94
398.55	1893.49
398.74	1902.86
398.93	1881.79
399.12	1963.71
399.32	1895.83
399.51	1909.88
399.70	2087.76
399.90	2064.35
400.09	2040.95
400.28	2017.54
400.47	2026.90
400.67	1968.39
400.86	2069.03
401.05	2078.40
401.24	2043.29
401.44	2106.48
401.63	2204.78
401.82	2057.33
402.01	2045.63
402.21	2080.74
402.40	2246.91
402.59	2253.94
402.78	2272.66
402.97	2204.78
403.17	2267.98
403.36	2312.45
403.55	2326.49
403.74	2368.62
403.93	2307.77
404.13	2382.67
404.32	2406.07
404.51	2387.35
404.70	2417.77
404.89	2382.67
405.09	2595.65
405.28	2420.11
405.47	2495.01
405.66	2462.24
405.85	2490.33
406.05	2523.10
406.24	2593.31
406.43	2471.61
406.62	2614.38
406.81	2588.63
407.00	2511.39
407.20	2581.61
407.39	2647.15
407.58	2724.38
407.77	2818.00
407.96	2775.88
408.15	2693.96
408.34	2803.96
408.54	2696.30
408.73	2897.58
408.92	2806.30
409.11	2862.48
409.30	2726.72
409.49	2960.78
409.68	2937.37
409.87	2841.41
410.07	3061.42
410.26	3002.91
410.45	2946.73
410.64	3035.67
410.83	3105.89
411.02	3007.59
411.21	3040.36
411.40	3103.55
411.59	3227.60
411.78	3131.64
411.98	3136.32
412.17	3258.03
412.36	3316.54
412.55	3258.03
412.74	3419.52
412.93	3368.03
413.12	3337.60
413.31	3524.85
413.50	3419.52
413.69	3459.31
413.88	3520.17
414.07	3599.74
414.26	3646.55
414.45	3770.60
414.64	3489.74
414.83	3651.24
415.02	3627.83
415.22	3784.65
415.41	3756.56
415.60	3971.89
415.79	3920.40
415.98	4018.70
416.17	3885.29
416.36	3885.29
416.55	4138.07
416.74	4018.70
416.93	4007.00
417.12	4011.68
417.31	4147.43
417.50	4231.69
417.69	4264.46
417.88	4407.23
418.07	4236.37
418.26	4404.89
418.45	4374.46
418.64	4421.27
418.83	4383.82
419.02	4470.42
419.21	4475.10
419.39	4339.35
419.58	4444.68
419.77	4365.10
419.96	4559.36
420.15	4421.27
420.34	4643.62
420.53	4634.26
420.72	4622.56
420.91	4720.86
421.10	4652.98
421.29	4791.08
421.48	4524.26
421.67	4746.61
421.86	4592.13
422.05	4830.87
422.24	4746.61
422.43	4800.44
422.61	4905.76
422.80	4952.57
422.99	4863.63
423.18	4830.87
423.37	5004.07
423.56	4905.76
423.75	4854.27
423.94	4847.25
424.13	4477.44
424.32	4762.99
424.50	5100.03
424.69	5139.82
424.88	5186.63
425.07	4774.69
425.26	4856.61
425.45	4992.36
425.64	4971.30
425.83	4924.49
426.01	4957.25
426.20	5018.11
426.39	4952.57
426.58	5036.83
426.77	5001.72
426.96	5125.77
427.15	5121.09
427.33	4997.04
427.52	5249.82
427.71	5289.61
427.90	5263.86
428.09	5404.30
428.28	5408.98
428.46	5294.29
428.65	5238.12
428.84	5465.15
429.03	5671.12
429.22	5291.95
429.40	5504.94
429.59	5444.09
429.78	5273.23
429.97	5224.08
430.16	5444.09
430.34	5518.98
430.53	5568.13
430.72	5619.63
430.91	5650.05
431.10	5488.56
431.28	5633.67
431.47	5776.44
431.66	5951.98
431.85	5689.84
432.03	5834.96
432.22	5802.19
432.41	5940.28
432.60	5996.45
432.79	6005.81
432.97	6071.35
433.16	5940.28
433.35	6125.18
433.54	6033.90
433.72	6164.97
433.91	6019.86
434.10	6106.46
434.28	6038.58
434.47	6064.33
434.66	6235.19
434.85	6270.30
435.03	6209.44
435.22	6246.89
435.41	6499.67
435.59	6382.64
435.78	6415.41
435.97	6387.32
436.16	6403.71
436.34	6356.90
436.53	6649.46
436.72	6534.78
436.90	6321.79
437.09	6509.03
437.28	6586.27
437.46	6555.84
437.65	6583.93
437.84	6686.91
438.02	6729.04
438.21	6864.79
438.40	6707.98
438.58	6899.90
438.77	7019.27
438.96	6963.09
439.14	7110.55
439.33	7119.91
439.52	7119.91
439.70	7222.89
439.89	7344.60
440.08	7255.66
440.26	7377.37
440.45	7384.39
440.63	7527.16
440.82	7480.35
441.01	7557.59
441.19	7435.88
441.38	7758.88
441.57	7597.38
441.75	7878.24
441.94	7782.28
442.12	7843.14
442.31	7840.79
442.50	8198.90
442.68	8006.97
442.87	8044.42
443.05	8067.83
443.24	8159.11
443.43	8079.53
443.61	8051.44
443.80	8395.50
443.98	7997.61
444.17	7789.30
444.35	8278.47
444.54	8390.82
444.73	8173.15
444.91	8234.00
445.10	8301.88
445.28	8205.92
445.47	8299.54
445.65	8329.97
445.84	8346.35
446.02	8425.93
446.21	8372.10
446.39	8346.35
446.58	8493.80
446.77	8559.34
446.95	8100.59
447.14	8407.20
447.32	8442.31
447.51	8528.91
447.69	8421.25
447.88	8578.06
448.06	8542.96
448.25	8484.44
448.43	8585.08
448.62	8454.02
448.80	8624.87
448.99	8458.70
449.17	8828.50
449.36	8613.17
449.54	8739.56
449.73	8903.40
449.91	8924.46
450.10	8826.16
450.28	9060.21
450.46	9057.87
450.65	9043.83
450.83	9100.00
451.02	8994.68
451.20	9167.88
451.39	9195.96
451.57	9207.67
451.76	9078.94
451.94	9121.07
452.13	9198.31
452.31	9373.85
452.49	9050.85
452.68	9207.67
452.86	9261.50
453.05	9273.20
453.23	9401.93
453.42	9198.31
453.60	9259.16
453.78	9603.22
453.97	9254.48
454.15	9432.36
454.34	9437.04
454.52	9717.90
454.70	9699.18
454.89	9703.86
455.07	9734.29
455.26	9769.40
455.44	9966.00
455.62	9844.29
455.81	10038.56
455.99	9963.66
456.17	10050.26
456.36	9860.68
456.54	10122.82
456.73	10005.79
456.91	10286.65
457.09	10342.83
457.28	10406.02
457.46	10373.25
457.64	10546.45
457.83	10427.09
458.01	10523.05
458.19	10616.67
458.38	10562.84
458.56	10424.75
458.74	10530.07
458.93	10588.58
459.11	10553.48
459.29	10455.17
459.48	10787.53
459.66	10602.63
459.84	10963.07
460.03	11037.97
460.21	10860.09
460.39	11068.39
460.57	10857.75
460.76	11056.69
460.94	11016.90
461.12	10974.77
461.31	11194.78
461.49	11150.31
461.67	11426.50
461.85	11442.88
462.04	11398.41
462.22	11587.99
462.40	11456.92
462.59	11534.16
462.77	11391.39
462.95	11550.54
463.13	11555.22
463.32	11543.52
463.50	11648.85
463.68	11520.12
463.86	11793.96
464.05	11679.27
464.23	11847.79
464.41	11875.88
464.59	11845.45
464.78	12131.00
464.96	11915.67
465.14	11747.15
465.32	11978.86
465.50	12070.14
465.69	11983.54
465.87	12252.70
466.05	12018.65
466.23	12187.17
466.41	12308.88
466.60	12320.58
466.78	12044.40
466.96	12126.32
467.14	12388.46
467.32	12294.83
467.51	12332.28
467.69	12238.66
467.87	12283.13
468.05	12713.79
468.23	12411.86
468.41	12407.18
468.60	12465.69
468.78	12725.49
468.96	12468.03
469.14	12741.88
469.32	12971.25
469.50	12491.44
469.69	12784.01
469.87	13156.15
470.05	13102.32
470.23	13263.82
470.41	13104.66
470.59	13165.51
470.77	13013.38
470.95	13233.39
471.14	13383.18
471.32	13125.72
471.50	13422.97
471.68	13474.46
471.86	13530.64
472.04	13635.96
472.22	13806.82
472.40	13755.33
472.58	13764.69
472.77	13806.82
472.95	14045.55
473.13	14363.87
473.31	14221.10
473.49	13877.04
473.67	14127.47
473.85	14415.36
474.03	14562.81
474.21	14560.47
474.39	14644.73
474.57	14623.67
474.75	14846.02
474.93	14862.40
475.12	15056.67
475.30	14974.75
475.48	14855.38
475.66	15227.53
475.84	15211.14
476.02	15351.57
476.20	15262.63
476.38	15393.70
476.56	15964.79
476.74	15768.19
476.92	15651.16
477.10	15445.20
477.28	15997.56
477.46	15934.37
477.64	16292.47
477.82	16479.71
478.00	16819.09
478.18	16964.20
478.36	16521.84
478.54	16961.86
478.72	17390.18
478.90	17259.11
479.08	17572.74
479.26	17724.88
479.44	17654.66
479.62	17542.32
479.80	18080.64
479.98	17769.35
480.16	18185.96
480.34	18373.21
480.52	18293.63
480.70	18710.24
480.88	18387.25
481.06	18572.15
481.24	18810.89
481.41	18862.38
481.59	19180.69
481.77	19215.80
481.95	19494.32
482.13	19555.18
482.31	19782.21
482.49	20215.21
482.67	20212.87
482.85	20411.81
483.03	20664.59
483.21	20512.46
483.39	20971.20
483.57	20847.15
483.74	20980.56
483.92	21443.99
484.10	21137.38
484.28	21678.04
484.46	21961.25
484.64	22312.33
484.82	21687.40
485.00	22295.94
485.18	22705.54
485.35	22632.98
485.53	22742.99
485.71	23030.87
485.89	23477.91
486.07	23480.25
486.25	23644.09
486.43	23536.43
486.61	23599.62
486.78	23931.98
486.96	24049.00
487.14	24577.97
487.32	24847.13
487.50	24833.08
487.68	24865.85
487.85	24828.40
488.03	25902.71
488.21	26064.21
488.39	25738.87
488.57	25937.82
488.75	26008.03
488.92	26167.19
489.10	26789.77
489.28	26436.35
489.46	26867.01
489.64	26625.93
489.81	27257.88
489.99	27325.75
490.17	27494.27
490.35	27718.96
490.53	27997.49
490.70	27777.48
490.88	27920.25
491.06	28596.67
491.24	28982.85
491.41	28879.87
491.59	28957.11
491.77	28744.12
491.95	29546.92
492.13	29783.32
492.30	29565.65
492.48	29998.65
492.66	29724.80
492.84	30408.24
493.01	30316.96
493.19	30057.16
493.37	30511.22
493.54	31433.39
493.72	31161.89
493.90	31417.01
494.08	31138.49
494.25	31992.78
494.43	32065.34
494.61	32503.02
494.79	32189.39
494.96	32259.60
495.14	32479.61
495.32	32730.05
495.49	32921.98
495.67	33090.49
495.85	33745.84
496.02	33450.94
496.20	33748.18
496.38	33951.81
496.55	33811.38
496.73	34483.11
496.91	34230.33
497.09	34710.14
497.26	34752.27
497.44	34717.17
497.62	35126.76
497.79	35487.20
497.97	35435.71
498.14	36037.23
498.32	35868.71
498.50	36109.78
498.67	36128.51
498.85	36456.18
499.03	36596.62
499.20	36325.11
499.38	36685.56
499.56	36636.41
499.73	36730.03
499.91	37148.98
500.08	37017.91
500.26	37027.28
500.44	37317.50
500.61	37860.51
500.79	37401.76
500.97	37993.92
501.14	38036.05
501.32	38485.43
501.49	38319.25
501.67	38436.28
501.84	38539.26
502.02	38728.84
502.20	38391.81
502.37	39419.30
502.55	39157.16
502.72	39096.31
502.90	39147.80
503.07	39461.43
503.25	39313.98
503.43	39475.48
503.60	39796.13
503.78	40233.81
503.95	39735.27
504.13	40079.33
504.30	40371.90
504.48	40641.06
504.65	40142.53
504.83	40737.02
505.01	41223.86
505.18	41008.53
505.36	41769.20
505.53	40767.45
505.71	41563.23
505.88	41422.80
506.06	40989.80
506.23	42101.56
506.41	41731.75
506.58	42054.75
506.76	41436.84
506.93	42176.45
507.11	42087.51
507.28	42340.29
507.46	42958.19
507.63	42696.05
507.81	43150.12
507.98	42593.07
508.16	42986.28
508.33	43304.59
508.50	43363.11
508.68	42958.19
508.85	43732.91
509.03	43487.15
509.20	43775.04
509.38	44030.16
509.55	44243.15
509.73	44016.11
509.90	44367.20
510.08	44259.53
510.25	44313.36
510.42	44364.85
510.60	45048.29
510.77	45137.23
510.95	45331.50
511.12	44942.97
511.30	45118.51
511.47	44870.41
511.64	45258.94
511.82	45682.58
511.99	45478.95
512.17	45607.68
512.34	45469.59
512.51	45448.52
512.69	46087.49
512.86	46373.03
513.04	46209.20
513.21	46408.14
513.38	46522.83
513.56	46955.83
513.73	46934.76
513.90	47019.02
514.08	46541.55
514.25	47178.18
514.43	47035.41
514.60	46939.44
514.77	46862.21
514.95	47627.56
515.12	47311.59
515.29	46733.48
515.47	47894.38
515.64	47543.30
515.81	48112.05
515.99	48158.86
516.16	48348.45
516.33	48065.24
516.51	48650.38
516.68	48456.11
516.85	48336.74
517.03	48612.93
517.20	48837.62
517.37	48664.42
517.54	48729.95
517.72	48760.38
517.89	48821.23
518.06	48882.09
518.24	49169.97
518.41	48926.56
518.58	49031.88
518.75	49151.25
518.93	49345.51
519.10	49420.41
519.27	49427.43
519.45	49289.34
519.62	49881.50
519.79	49434.45
519.96	49815.96
520.14	50094.49
520.31	50101.51
520.48	49872.14
520.65	50141.30
520.83	50265.34
521.00	50408.12
521.17	50344.92
521.34	50497.06
521.52	50506.42
521.69	50593.02
521.86	50988.57
522.03	51065.81
522.20	51346.67
522.38	51110.28
522.55	51164.11
522.72	50934.74
522.89	51021.34
523.07	51585.41
523.24	51538.60
523.41	51496.47
523.58	51344.33
523.75	51618.17
523.92	51547.96
524.10	51798.40
524.27	52133.09
524.44	51938.83
524.61	51901.38
524.78	52027.77
524.96	51744.56
525.13	52383.53
525.30	52093.30
525.47	52200.97
525.64	52287.57
525.81	52559.07
525.98	52472.47
526.16	52420.98
526.33	52470.13
526.50	52765.04
526.67	52671.42
526.84	52662.05
527.01	52631.63
527.18	52802.49
527.36	52968.66
527.53	52760.36
527.70	53127.82
527.87	53045.90
528.04	52800.15
528.21	53282.30
528.38	53226.12
528.55	53439.11
528.72	53160.59
528.89	53219.10
529.07	53073.99
529.24	53151.23
529.41	53586.57
529.58	53469.54
529.75	53598.27
529.92	53558.48
530.09	53689.55
530.26	53626.35
530.43	54085.10
530.60	53668.48
530.77	53584.22
530.94	53797.21
531.11	53612.31
531.28	54064.03
531.46	54134.25
531.63	53865.09
531.80	54087.44
531.97	53954.03
532.14	54241.92
532.31	54307.45
532.48	54365.96
532.65	54422.14
532.82	54293.41
532.99	54693.64
533.16	54365.96
533.33	54878.54
533.50	55042.38
533.67	54710.02
533.84	54555.55
534.01	54707.68
534.18	54639.81
534.35	55009.61
534.52	54873.86
534.69	55171.11
534.86	55348.99
535.03	54777.90
535.20	55210.90
535.37	55238.98
535.54	55297.50
535.71	54880.88
535.88	55224.94
536.05	55515.17
536.22	55447.29
536.38	55564.32
536.55	55613.47
536.72	55419.20
536.89	55306.86
537.06	55402.82
537.23	55739.86
537.40	55224.94
537.57	55463.67
537.74	55718.79
537.91	55873.27
538.08	55800.71
538.25	55688.37
538.42	55707.09
538.59	56009.02
538.75	55480.06
538.92	56112.00
539.09	56067.53
539.26	55868.59
539.43	56002.00
539.60	56140.09
539.77	56151.79
539.94	56144.77
540.11	56303.93
540.28	56313.29
540.44	56402.23
540.61	56294.56
540.78	56285.20
540.95	56474.79
541.12	56243.07
541.29	56212.65
541.46	56392.87
541.62	56343.72
541.79	56362.44
541.96	56048.81
542.13	56332.01
542.30	56720.54
542.47	56626.92
542.63	56844.59
542.80	56757.99
542.97	57193.33
543.14	57059.92
543.31	56844.59
543.48	57020.13
543.64	57336.10
543.81	57354.83
543.98	57120.77
544.15	57263.55
544.32	57277.59
544.48	57298.65
544.65	57132.48
544.82	57432.07
544.99	56970.98
545.16	57446.11
545.32	57312.70
545.49	57403.98
545.66	57675.48
545.83	57389.94
546.00	57577.18
546.16	57687.18
546.33	57460.15
546.50	57331.42
546.67	57530.37
546.83	57305.68
547.00	57628.67
547.17	57626.33
547.34	57488.24
547.50	57792.51
547.67	57932.94
547.84	57741.02
548.00	57792.51
548.17	58106.14
548.34	57921.24
548.51	58089.76
548.67	57986.77
548.84	58017.20
549.01	58040.60
549.18	58073.37
549.34	58003.16
549.51	58033.58
549.68	58209.12
549.84	58042.95
550.01	58384.66
550.18	58071.03
550.34	58218.49
550.51	58342.53
550.68	58225.51
550.84	57954.00
551.01	58461.90
551.18	58398.71
551.34	58323.81
551.51	58695.95
551.68	58433.81
551.84	58307.43
552.01	58396.37
552.18	58405.73
552.34	58445.52
552.51	58424.45
552.68	58246.57
552.84	58599.99
553.01	58852.77
553.18	58726.38
553.34	59021.29
553.51	58688.93
553.67	58724.04
553.84	58855.11
554.01	58836.39
554.17	58852.77
554.34	58878.52
554.51	58918.31
554.67	58763.83
554.84	58801.28
555.00	58962.78
555.17	58967.46
555.33	58955.75
555.50	58848.09
555.67	58843.41
555.83	58649.14
556.00	59199.17
556.16	59318.54
556.33	59180.45
556.50	59093.85
556.66	59199.17
556.83	58908.94
556.99	59290.45
557.16	59306.83
557.32	59447.27
557.49	59655.57
557.65	59164.06
557.82	59166.40
557.98	59138.32
558.15	59437.90
558.32	59456.63
558.48	59276.41
558.65	59400.46
558.81	59213.21
558.98	59407.48
559.14	59524.50
559.31	59370.03
559.47	59428.54
559.64	59788.98
559.80	59592.38
559.97	59723.45
560.13	59363.01
560.30	59517.48
560.46	59482.37
560.63	59702.38
560.79	59765.58
560.96	59678.98
561.12	59615.79
561.29	59561.95
561.45	59618.13
561.61	59742.17
561.78	59737.49
561.94	59543.23
562.11	59646.21
562.27	59695.36
562.44	59994.95
562.60	59828.77
562.77	59915.37
562.93	59788.98
563.10	59915.37
563.26	59819.41
563.42	60060.49
563.59	60074.53
563.75	59693.02
563.92	59812.39
564.08	59903.67
564.24	60046.44
564.41	60086.23
564.57	60013.68
564.74	59941.12
564.90	59910.69
565.07	59784.30
565.23	59896.65
565.39	60037.08
565.56	60158.79
565.72	59987.93
565.88	59971.55
566.05	59849.84
566.21	59936.44
566.38	60011.34
566.54	60102.62
566.70	60371.78
566.87	60341.35
567.03	59877.93
567.19	60245.39
567.36	60165.81
567.52	60226.66
567.68	60439.65
567.85	60177.51
568.01	60367.10
568.17	60200.92
568.34	60327.31
568.50	60245.39
568.66	60011.34
568.83	60135.38
568.99	60116.66
569.15	60051.12
569.32	60149.43
569.48	60285.18
569.64	60385.82
569.81	60261.77
569.97	60186.88
570.13	60369.44
570.30	60273.48
570.46	60294.54
570.62	60453.70
570.78	60477.10
570.95	60214.96
571.11	60395.18
571.27	60198.58
571.43	60299.22
571.60	60427.95
571.76	60453.70
571.92	60308.58
572.09	60418.59
572.25	60533.28
572.41	60278.16
572.57	60657.32
572.74	60563.70
572.90	60397.52
573.06	60477.10
573.22	60392.84
573.38	60385.82
573.55	60556.68
573.71	60537.96
573.87	60741.58
574.03	60500.51
574.20	60498.17
574.36	60346.03
574.52	60650.30
574.68	60402.21
574.84	60659.66
575.01	60701.79
575.17	60589.45
575.33	60608.17
575.49	60554.34
575.65	60748.60
575.82	60636.26
575.98	60657.32
576.14	60874.99
576.30	60629.24
576.46	60659.66
576.62	60477.10
576.79	60654.98
576.95	60406.89
577.11	60654.98
577.27	60626.90
577.43	60739.24
577.59	60533.28
577.75	60516.89
577.92	60552.00
578.08	60491.15
578.24	60636.26
578.40	60858.61
578.56	60678.39
578.72	60615.19
578.88	60889.04
579.04	60839.89
579.21	60835.20
579.37	60739.24
579.53	60781.37
579.69	60669.03
579.85	60584.77
580.01	60699.45
580.17	60533.28
580.33	60727.54
580.49	60753.29
580.65	60807.12
580.82	60837.54
580.98	60692.43
581.14	60788.39
581.30	60924.14
581.46	60713.50
581.62	60657.32
581.78	60575.40
581.94	60879.67
582.10	60795.42
582.26	60594.13
582.42	60736.90
582.58	60980.32
582.74	60764.99
582.90	60889.04
583.06	60940.53
583.22	60636.26
583.38	60800.10
583.54	60800.10
583.70	60788.39
583.86	60956.91
584.02	60755.63
584.18	61071.60
584.34	60853.93
584.50	60893.72
584.66	60797.76
584.82	60842.23
584.98	60931.17
585.14	60715.84
585.30	60713.50
585.46	60926.49
585.62	60889.04
585.78	61050.53
585.94	60704.13
586.10	60935.85
586.26	60952.23
586.42	60959.25
586.58	61045.85
586.74	61013.08
586.90	61017.77
587.06	61043.51
587.22	61001.38
587.38	60814.14
587.54	60977.98
587.70	61169.90
587.86	60999.04
588.02	60940.53
588.18	61102.03
588.34	60750.94
588.49	61010.74
