SpectraSuite Data File
++++++++++++++++++++++++++++++++++++
Date: Fri Oct 25 11:33:57 EDT 2013
User: price-jones
Dark Spectrum Present: No
Reference Spectrum Present: No
Number of Sampled Component Spectra: 1
Spectrometers: USB2+H05261
Integration Time (usec): 100000 (USB2+H05261)
Spectra Averaged: 1 (USB2+H05261)
Boxcar Smoothing: 0 (USB2+H05261)
Correct for Electrical Dark: No (USB2+H05261)
Strobe/Lamp Enabled: No (USB2+H05261)
Correct for Detector Non-linearity: No (USB2+H05261)
Correct for Stray Light: No (USB2+H05261)
Number of Pixels in Processed Spectrum: 2048
>>>>>Begin Processed Spectral Data<<<<<
365.73	292.57
365.92	292.57
366.12	292.57
366.32	203.63
366.52	114.69
366.72	215.33
366.91	191.92
367.11	177.88
367.31	156.82
367.51	243.42
367.70	159.16
367.90	222.35
368.10	51.49
368.30	208.31
368.49	229.37
368.69	203.63
368.89	215.33
369.09	264.48
369.28	196.60
369.48	205.97
369.68	198.95
369.87	252.78
370.07	231.71
370.27	243.42
370.47	290.23
370.66	395.55
370.86	505.56
371.06	531.30
371.25	575.77
371.45	557.05
371.65	568.75
371.84	505.56
372.04	564.07
372.24	557.05
372.44	510.24
372.63	610.88
372.83	657.69
373.03	578.11
373.22	627.26
373.42	624.92
373.62	571.09
373.81	543.00
374.01	678.76
374.21	667.05
374.40	648.33
374.60	678.76
374.79	746.63
374.99	676.41
375.19	692.80
375.38	720.88
375.58	667.05
375.78	629.60
375.97	716.20
376.17	730.25
376.37	683.44
376.56	718.54
376.76	746.63
376.95	706.84
377.15	709.18
377.35	716.20
377.54	699.82
377.74	627.26
377.93	648.33
378.13	681.10
378.33	697.48
378.52	741.95
378.72	795.78
378.91	748.97
379.11	667.05
379.31	748.97
379.50	702.16
379.70	772.38
379.89	748.97
380.09	753.65
380.28	723.23
380.48	716.20
380.68	784.08
380.87	695.14
381.07	706.84
381.26	774.72
381.46	765.36
381.65	760.67
381.85	737.27
382.04	816.85
382.24	777.06
382.43	777.06
382.63	767.70
382.83	751.31
383.02	744.29
383.22	828.55
383.41	816.85
383.61	751.31
383.80	823.87
384.00	837.91
384.19	819.19
384.39	821.53
384.58	744.29
384.78	793.44
384.97	837.91
385.17	870.68
385.36	929.19
385.56	746.63
385.75	816.85
385.95	837.91
386.14	866.00
386.34	844.93
386.53	912.81
386.72	856.64
386.92	882.38
387.11	898.77
387.31	929.19
387.50	875.36
387.70	868.34
387.89	861.32
388.09	959.62
388.28	898.77
388.48	933.87
388.67	945.58
388.86	983.02
389.06	912.81
389.25	964.30
389.45	940.90
389.64	901.11
389.84	877.70
390.03	987.71
390.22	966.64
390.42	957.28
390.61	959.62
390.81	908.13
391.00	947.92
391.19	980.68
391.39	1013.45
391.58	940.90
391.78	1020.47
391.97	1006.43
392.16	1034.52
392.36	1132.82
392.55	961.96
392.75	1062.60
392.94	1001.75
393.13	1069.62
393.33	954.94
393.52	1015.79
393.71	1116.44
393.91	992.39
394.10	1055.58
394.29	1135.16
394.49	1156.22
394.68	1097.71
394.88	1184.31
395.07	1107.07
395.26	1130.48
395.46	1172.61
395.65	1198.35
395.84	1196.01
396.04	1144.52
396.23	1151.54
396.42	1163.25
396.62	1212.40
396.81	1198.35
397.00	1142.18
397.19	1174.95
397.39	1273.25
397.58	1329.42
397.77	1249.85
397.97	1282.61
398.16	1156.22
398.35	1317.72
398.55	1355.17
398.74	1350.49
398.93	1247.51
399.12	1334.11
399.32	1270.91
399.51	1317.72
399.70	1364.53
399.90	1341.13
400.09	1362.19
400.28	1364.53
400.47	1369.21
400.67	1406.66
400.86	1406.66
401.05	1366.87
401.24	1385.60
401.44	1474.54
401.63	1488.58
401.82	1416.02
402.01	1411.34
402.21	1416.02
402.40	1476.88
402.59	1427.73
402.78	1460.49
402.97	1514.33
403.17	1547.09
403.36	1577.52
403.55	1514.33
403.74	1533.05
403.93	1586.88
404.13	1579.86
404.32	1605.61
404.51	1568.16
404.70	1619.65
404.89	1586.88
405.09	1678.16
405.28	1701.57
405.47	1579.86
405.66	1715.61
405.85	1603.27
406.05	1689.87
406.24	1703.91
406.43	1736.68
406.62	1673.48
406.81	1849.02
407.00	1743.70
407.20	1799.87
407.39	1788.17
407.58	1907.54
407.77	1842.00
407.96	1755.40
408.15	1830.30
408.34	1771.79
408.54	1842.00
408.73	1856.04
408.92	1968.39
409.11	1952.01
409.30	2003.50
409.49	1956.69
409.68	2024.56
409.87	1919.24
410.07	1987.11
410.26	2029.24
410.45	2033.93
410.64	2136.91
410.83	2031.58
411.02	1989.46
411.21	2087.76
411.40	2165.00
411.59	2122.87
411.78	2183.72
411.98	2186.06
412.17	2298.41
412.36	2204.78
412.55	2275.00
412.74	2305.43
412.93	2359.26
413.12	2286.70
413.31	2328.83
413.50	2345.22
413.69	2349.90
413.88	2469.27
414.07	2469.27
414.26	2567.57
414.45	2532.46
414.64	2469.27
414.83	2572.25
415.02	2597.99
415.22	2607.36
415.41	2560.55
415.60	2640.12
415.79	2794.60
415.98	2745.45
416.17	2644.81
416.36	2635.44
416.55	2717.36
416.74	2848.43
416.93	2752.47
417.12	2754.81
417.31	2752.47
417.50	2803.96
417.69	2960.78
417.88	2881.20
418.07	2902.26
418.26	2881.20
418.45	2951.42
418.64	3070.78
418.83	3009.93
419.02	3131.64
419.21	3094.19
419.39	3180.79
419.58	2977.16
419.77	2993.55
419.96	3080.14
420.15	3103.55
420.34	3105.89
420.53	3194.83
420.72	3243.98
420.91	3131.64
421.10	3162.06
421.29	3176.11
421.48	3258.03
421.67	3227.60
421.86	3279.09
422.05	3314.20
422.24	3356.33
422.43	3335.26
422.61	3433.57
422.80	3361.01
422.99	3321.22
423.18	3447.61
423.37	3433.57
423.56	3372.71
423.75	3353.99
423.94	3239.30
424.13	3185.47
424.32	3314.20
424.50	3375.05
424.69	3503.78
424.88	3482.72
425.07	3435.91
425.26	3370.37
425.45	3339.94
425.64	3468.67
425.83	3375.05
426.01	3424.20
426.20	3468.67
426.39	3442.93
426.58	3339.94
426.77	3384.41
426.96	3487.40
427.15	3466.33
427.33	3489.74
427.52	3396.12
427.71	3609.11
427.90	3555.27
428.09	3538.89
428.28	3648.90
428.46	3611.45
428.65	3564.64
428.84	3695.71
429.03	3705.07
429.22	3627.83
429.40	3728.47
429.59	3808.05
429.78	3754.22
429.97	3625.49
430.16	3667.62
430.34	3728.47
430.53	3845.50
430.72	3873.59
430.91	3819.75
431.10	3864.22
431.28	3913.38
431.47	3850.18
431.66	4058.49
431.85	3915.72
432.03	3992.95
432.22	4035.08
432.41	4032.74
432.60	4002.32
432.79	4114.66
432.97	4039.76
433.16	3997.64
433.35	4166.15
433.54	4011.68
433.72	4189.56
433.91	4140.41
434.10	4161.47
434.28	4128.70
434.47	4112.32
434.66	4393.19
434.85	4287.86
435.03	4374.46
435.22	4255.09
435.41	4388.50
435.59	4339.35
435.78	4283.18
435.97	4428.29
436.16	4332.33
436.34	4456.38
436.53	4390.84
436.72	4519.57
436.90	4283.18
437.09	4479.79
437.28	4308.93
437.46	4575.75
437.65	4456.38
437.84	4585.11
438.02	4421.27
438.21	4695.11
438.40	4402.55
438.58	4650.64
438.77	4723.20
438.96	4627.24
439.14	4706.82
439.33	4865.97
439.52	4730.22
439.70	4861.29
439.89	4968.96
440.08	5041.51
440.26	5020.45
440.45	4849.59
440.63	5053.22
440.82	5151.52
441.01	5200.67
441.19	5238.12
441.38	5088.32
441.57	5142.16
441.75	5268.55
441.94	5324.72
442.12	5383.23
442.31	5362.17
442.50	5416.00
442.68	5310.68
442.87	5259.18
443.05	5399.62
443.24	5626.65
443.43	5460.47
443.61	5460.47
443.80	5738.99
443.98	5540.05
444.17	5378.55
444.35	5617.29
444.54	5652.39
444.73	5561.11
444.91	5495.58
445.10	5631.33
445.28	5636.01
445.47	5462.81
445.65	5692.18
445.84	5596.22
446.02	5781.12
446.21	5743.67
446.39	5572.82
446.58	5614.95
446.77	5621.97
446.95	5568.13
447.14	5584.52
447.32	5797.51
447.51	5610.26
447.69	5734.31
447.88	5661.76
448.06	5640.69
448.25	5734.31
448.43	5706.23
448.62	5661.76
448.80	5708.57
448.99	5806.87
449.17	6024.54
449.36	5802.19
449.54	5881.77
449.73	5951.98
449.91	6045.60
450.10	6071.35
450.28	6146.25
450.46	6043.26
450.65	5902.83
450.83	5989.43
451.02	6239.87
451.20	6228.17
451.39	6050.28
451.57	6188.38
451.76	6134.54
451.94	6239.87
452.13	6230.51
452.31	6293.70
452.49	6303.06
452.68	6125.18
452.86	6354.55
453.05	6277.32
453.23	6282.00
453.42	6328.81
453.60	6270.30
453.78	6209.44
453.97	6338.17
454.15	6370.94
454.34	6326.47
454.52	6544.14
454.70	6349.87
454.89	6518.39
455.07	6548.82
455.26	6572.22
455.44	6649.46
455.62	6560.52
455.81	6665.85
455.99	6707.98
456.17	6712.66
456.36	6604.99
456.54	6906.92
456.73	6808.62
456.91	6799.26
457.09	7040.33
457.28	7115.23
457.46	6972.46
457.64	6960.75
457.83	7014.59
458.01	6944.37
458.19	7204.17
458.38	6970.12
458.56	7225.23
458.74	7063.74
458.93	7073.10
459.11	7267.36
459.29	7227.57
459.48	7225.23
459.66	7152.68
459.84	7218.21
460.03	7253.32
460.21	7346.94
460.39	7152.68
460.57	7220.55
460.76	7297.79
460.94	7515.46
461.12	7382.05
461.31	7503.76
461.49	7597.38
461.67	7475.67
461.85	7576.31
462.04	7424.18
462.22	7810.37
462.40	7672.28
462.59	7630.15
462.77	7674.62
462.95	7922.71
463.13	7815.05
463.32	7878.24
463.50	7777.60
463.68	7943.78
463.86	7714.41
464.05	7779.94
464.23	7592.70
464.41	7826.75
464.59	7768.24
464.78	8154.43
464.96	7791.64
465.14	7737.81
465.32	8105.28
465.50	8131.02
465.69	8187.19
465.87	7990.59
466.05	8077.19
466.23	8039.74
466.41	8156.77
466.60	8212.94
466.78	7997.61
466.96	8163.79
467.14	8334.65
467.32	8224.64
467.51	8226.98
467.69	8058.46
467.87	8589.77
468.05	8262.09
468.23	8500.83
468.41	8226.98
468.60	8390.82
468.78	8456.36
468.96	8351.03
469.14	8407.20
469.32	8760.63
469.50	8535.93
469.69	8526.57
469.87	8793.39
470.05	8601.47
470.23	8730.20
470.41	8744.24
470.59	8755.94
470.77	8753.60
470.95	8861.27
471.14	8894.04
471.32	8753.60
471.50	8788.71
471.68	8877.65
471.86	9057.87
472.04	9153.84
472.22	9254.48
472.40	8971.27
472.58	9041.49
472.77	9046.17
472.95	9305.97
473.13	9710.88
473.31	9205.33
473.49	9312.99
473.67	9261.50
473.85	9296.61
474.03	9626.62
474.21	9577.47
474.39	9654.71
474.57	9565.77
474.75	9692.16
474.93	10029.20
475.12	9825.57
475.30	10068.98
475.48	9797.48
475.66	10008.13
475.84	10076.01
476.02	10071.33
476.20	9975.36
476.38	10565.18
476.56	10597.95
476.74	10478.58
476.92	10410.70
477.10	10366.23
477.28	10736.04
477.46	10619.01
477.64	10684.55
477.82	10888.17
478.00	11171.38
478.18	10974.77
478.36	11101.16
478.54	11169.04
478.72	11190.10
478.90	11480.33
479.08	11480.33
479.26	11555.22
479.44	11419.47
479.62	11606.72
479.80	11946.09
479.98	11747.15
480.16	11934.39
480.34	12053.76
480.52	11747.15
480.70	12301.86
480.88	11894.60
481.06	12325.26
481.24	12294.83
481.41	12573.36
481.59	12482.08
481.77	12933.80
481.95	12730.17
482.13	12968.91
482.31	12910.40
482.49	13401.91
482.67	13245.09
482.85	13310.63
483.03	13497.87
483.21	13652.34
483.39	13781.07
483.57	13380.84
483.74	14064.28
483.92	13886.40
484.10	13870.01
484.28	14314.72
484.46	14408.34
484.64	14707.93
484.82	14494.94
485.00	14654.09
485.18	14831.97
485.35	14890.49
485.53	14827.29
485.71	14736.01
485.89	15506.05
486.07	15248.59
486.25	15403.07
486.43	15482.64
486.61	15704.99
486.78	15424.13
486.96	15496.69
487.14	15758.83
487.32	16219.91
487.50	16152.04
487.68	16407.16
487.85	16510.14
488.03	16517.16
488.21	16732.49
488.39	16531.20
488.57	16737.17
488.75	16718.45
488.92	17116.34
489.10	17376.14
489.28	17444.01
489.46	17474.44
489.64	17476.78
489.81	17743.60
489.99	18237.45
490.17	18237.45
490.35	18473.85
490.53	18251.50
490.70	18565.13
490.88	18038.51
491.06	18960.68
491.24	18745.35
491.41	18663.43
491.59	19070.68
491.77	19089.41
491.95	19126.86
492.13	19499.00
492.30	19248.57
492.48	19491.98
492.66	19580.92
492.84	19793.91
493.01	19971.79
493.19	19857.10
493.37	19985.83
493.54	20236.27
493.72	20407.13
493.90	20360.32
494.08	20634.16
494.25	20844.81
494.43	20917.37
494.61	21055.46
494.79	21177.17
494.96	20982.90
495.14	21245.04
495.32	21170.15
495.49	21741.24
495.67	21792.73
495.85	22043.17
496.02	21860.60
496.20	21930.82
496.38	22066.57
496.55	22305.31
496.73	22590.85
496.91	22476.16
497.09	22733.62
497.26	22647.02
497.44	22717.24
497.62	22789.80
497.79	23241.52
497.97	23047.26
498.14	23335.14
498.32	22965.34
498.50	23852.40
498.67	23828.99
498.85	23447.49
499.03	23777.50
499.20	23726.01
499.38	23978.79
499.56	24166.03
499.73	23913.25
499.91	24709.04
500.08	24404.77
500.26	24336.89
500.44	24629.46
500.61	24610.73
500.79	24514.77
500.97	24594.35
501.14	24999.26
501.32	24973.52
501.49	25034.37
501.67	25111.61
501.84	25310.55
502.02	25348.00
502.20	25090.54
502.37	25521.20
502.55	25898.03
502.72	25668.66
502.90	25848.88
503.07	25633.55
503.25	25876.96
503.43	25560.99
503.60	26274.85
503.78	26066.55
503.95	26382.52
504.13	26272.51
504.30	26726.58
504.48	26553.38
504.65	26426.99
504.83	26333.37
505.01	26850.63
505.18	26927.86
505.36	27105.74
505.53	26984.04
505.71	27119.79
505.88	27229.79
506.06	27241.50
506.23	27557.47
506.41	27398.31
506.58	27222.77
506.76	27807.90
506.93	27807.90
507.11	27651.09
507.28	27852.38
507.46	27981.10
507.63	28287.71
507.81	28261.97
507.98	28182.39
508.16	27892.16
508.33	28397.72
508.50	28437.51
508.68	28355.59
508.85	28924.34
509.03	28301.76
509.20	29118.60
509.38	29146.69
509.55	29127.97
509.73	29233.29
509.90	29034.35
510.08	29226.27
510.25	29006.26
510.42	29322.23
510.60	29387.77
510.77	29883.96
510.95	29729.48
511.12	29853.53
511.30	29947.15
511.47	29879.28
511.64	29813.74
511.82	30024.39
511.99	29949.50
512.17	30195.25
512.34	30218.66
512.51	30452.71
512.69	30771.02
512.86	30558.03
513.04	30558.03
513.21	31002.74
513.38	30742.94
513.56	30955.93
513.73	30558.03
513.90	30848.26
514.08	30595.48
514.25	31431.05
514.43	31145.51
514.60	31175.94
514.77	31447.44
514.95	31484.89
515.12	31229.77
515.29	31463.82
515.47	32011.51
515.64	31908.52
515.81	31505.95
515.99	31775.11
516.16	32278.33
516.33	31999.80
516.51	32133.21
516.68	32161.30
516.85	31892.14
517.03	32463.23
517.20	32418.76
517.37	32765.16
517.54	32528.77
517.72	32315.78
517.89	32301.73
518.06	32954.74
518.24	32760.48
518.41	32584.94
518.58	32746.44
518.75	32486.64
518.93	33001.55
519.10	33191.14
519.27	33151.35
519.45	33160.71
519.62	33450.94
519.79	33376.04
519.96	33064.75
520.14	33493.07
520.31	33181.77
520.48	33708.40
520.65	33729.46
520.83	34117.99
521.00	34295.87
521.17	34068.84
521.34	34307.57
521.52	34312.25
521.69	34354.38
521.86	34213.95
522.03	34518.22
522.20	34850.58
522.38	34553.33
522.55	34756.96
522.72	34899.73
522.89	34462.05
523.07	35232.08
523.24	34773.34
523.41	35171.23
523.58	34766.32
523.75	35421.67
523.92	35063.57
524.10	35196.98
524.27	35079.95
524.44	35405.28
524.61	35531.67
524.78	35194.64
524.96	35875.73
525.13	35618.27
525.30	35917.86
525.47	35768.07
525.64	35697.85
525.81	35882.75
525.98	36135.53
526.16	36079.36
526.33	36135.53
526.50	36563.85
526.67	35983.40
526.84	36542.78
527.01	35526.99
527.18	36126.17
527.36	36201.07
527.53	36407.03
527.70	36549.81
527.87	36708.96
528.04	36517.04
528.21	36968.76
528.38	36245.54
528.55	37064.72
528.72	36678.54
528.89	36865.78
529.07	36907.91
529.24	36622.36
529.41	37256.65
529.58	37294.10
529.75	37022.59
529.92	37130.26
530.09	37146.64
530.26	37319.84
530.43	37408.78
530.60	37165.37
530.77	37151.32
530.94	37343.25
531.11	37380.70
531.28	37762.20
531.46	37656.88
531.63	38106.26
531.80	37432.19
531.97	37998.60
532.14	37965.83
532.31	37940.08
532.48	38160.09
532.65	38431.60
532.82	38059.45
532.99	38721.82
533.16	37895.61
533.33	38199.88
533.50	38291.16
533.67	38469.04
533.84	37928.38
534.01	38143.71
534.18	38522.88
534.35	38632.88
534.52	38733.53
534.69	39210.99
534.86	39086.95
535.03	38885.66
535.20	39033.11
535.37	39349.09
535.54	39189.93
535.71	39421.64
535.88	39349.09
536.05	39260.15
536.22	39419.30
536.38	39344.41
536.55	39171.21
536.72	38988.64
536.89	39360.79
537.06	39765.70
537.23	40025.50
537.40	39725.91
537.57	39370.15
537.74	39667.40
537.91	40048.91
538.08	39494.20
538.25	39533.99
538.42	40013.80
538.59	40112.10
538.75	39655.70
538.92	40292.32
539.09	40128.48
539.26	39735.27
539.43	39770.38
539.60	40032.52
539.77	40430.41
539.94	40381.26
540.11	40524.04
540.28	40477.22
540.44	39756.34
540.61	40182.32
540.78	40196.36
540.95	40086.36
541.12	40268.92
541.29	40339.13
541.46	40208.06
541.62	40612.98
541.79	40783.83
541.96	40737.02
542.13	40973.42
542.30	40634.04
542.47	40755.75
542.63	41034.27
542.80	41476.63
542.97	41600.68
543.14	41001.50
543.31	41041.29
543.48	41511.74
543.64	42031.34
543.81	41633.45
543.98	41525.78
544.15	41668.56
544.32	41954.10
544.48	42026.66
544.65	41588.98
544.82	42405.83
544.99	41617.07
545.16	41352.58
545.32	41659.20
545.49	42209.22
545.66	42031.34
545.83	42061.77
546.00	42480.72
546.16	42321.57
546.33	41958.78
546.50	41694.30
546.67	42775.63
546.83	41902.61
547.00	42483.06
547.17	42394.12
547.34	42525.19
547.50	42813.08
547.67	42855.21
547.84	42422.21
548.00	42911.38
548.17	42513.49
548.34	42951.17
548.51	42747.54
548.67	43091.60
548.84	42740.52
549.01	42796.70
549.18	42761.59
549.34	42731.16
549.51	43047.13
549.68	43342.04
549.84	42927.77
550.01	43225.01
550.18	43072.88
550.34	43089.26
550.51	43470.77
550.68	42939.47
550.84	43185.22
551.01	43398.21
551.18	43161.82
551.34	43026.07
551.51	43658.01
551.68	43709.50
551.84	43941.22
552.01	43545.67
552.18	43625.25
552.34	43620.56
552.51	43952.92
552.68	43311.61
552.84	43758.66
553.01	44048.88
553.18	43526.94
553.34	43812.49
553.51	43723.55
553.67	43868.66
553.84	44224.42
554.01	44058.24
554.17	43693.12
554.34	44446.77
554.51	43746.95
554.67	44418.69
554.84	44458.48
555.00	44114.42
555.17	44318.04
555.33	44404.64
555.50	43833.55
555.67	44201.02
555.83	44446.77
556.00	44149.53
556.16	44395.28
556.33	44498.26
556.50	44559.12
556.66	44533.37
556.83	44245.49
556.99	44554.44
557.16	44708.91
557.32	44421.03
557.49	44772.11
557.65	44608.27
557.82	44692.53
557.98	44774.45
558.15	44479.54
558.32	44814.24
558.48	44509.97
558.65	45134.89
558.81	45062.33
558.98	44666.78
559.14	44809.56
559.31	44980.42
559.47	44828.28
559.64	45057.65
559.80	44793.17
559.97	44868.07
560.13	44753.38
560.30	44818.92
560.46	45439.16
560.63	45675.55
560.79	45240.21
560.96	45345.54
561.12	45251.92
561.29	45071.70
561.45	45324.47
561.61	45106.80
561.78	45387.67
561.94	45104.46
562.11	45036.59
562.27	45174.68
562.44	44910.20
562.60	45846.41
562.77	45193.40
562.93	45111.49
563.10	45670.87
563.26	45457.88
563.42	45766.84
563.59	45242.56
563.75	45511.72
563.92	45659.17
564.08	45588.95
564.24	45661.51
564.41	45265.96
564.57	45839.39
564.74	45853.44
564.90	45743.43
565.07	45497.67
565.23	45645.13
565.39	45734.07
565.56	45691.94
565.72	46129.62
565.88	45811.31
566.05	45883.86
566.21	45902.59
566.38	45794.92
566.54	45984.51
566.70	46092.17
566.87	45839.39
567.03	45727.05
567.19	46134.30
567.36	45464.91
567.52	45914.29
567.68	46349.63
567.85	46017.27
568.01	46073.45
568.17	45764.49
568.34	46103.87
568.50	46302.82
568.66	45918.97
568.83	45797.26
568.99	46101.53
569.15	45776.20
569.32	45930.67
569.48	46190.47
569.64	46375.37
569.81	45886.20
569.97	46021.95
570.13	46244.30
570.30	45818.33
570.46	46354.31
570.62	46553.26
570.78	46171.75
570.95	46422.19
571.11	46471.34
571.27	46078.13
571.43	46258.35
571.60	46028.98
571.76	46466.66
571.92	46358.99
572.09	46021.95
572.25	46099.19
572.41	46270.05
572.57	46663.26
572.74	46962.85
572.90	46120.26
573.06	46548.57
573.22	46667.94
573.38	46515.81
573.55	46284.09
573.71	46871.57
573.87	46335.59
574.03	46220.90
574.20	46714.75
574.36	46380.06
574.52	46752.20
574.68	46777.95
574.84	46445.59
575.01	46597.73
575.17	46487.72
575.33	46763.90
575.49	46555.60
575.65	46478.36
575.82	46473.68
575.98	46464.32
576.14	46820.08
576.30	46766.24
576.46	46677.30
576.62	46749.86
576.79	46513.47
576.95	46377.72
577.11	46408.14
577.27	46890.29
577.43	46759.22
577.59	46670.28
577.75	46206.86
577.92	46295.80
578.08	46759.22
578.24	46515.81
578.40	46681.98
578.56	46476.02
578.72	46923.06
578.88	46808.37
579.04	46777.95
579.21	46483.04
579.37	46733.48
579.53	46962.85
579.69	46768.58
579.85	46855.18
580.01	46997.96
580.17	46780.29
580.33	47014.34
580.49	46541.55
580.65	46689.01
580.82	46852.84
580.98	46866.89
581.14	46595.38
581.30	46522.83
581.46	46993.28
581.62	46735.82
581.78	46733.48
581.94	46749.86
582.10	46941.78
582.26	46857.52
582.42	47100.94
582.58	46803.69
582.74	47124.35
582.90	47040.09
583.06	46761.56
583.22	47082.22
583.38	47054.13
583.54	47009.66
583.70	47175.84
583.86	47269.46
584.02	46656.24
584.18	46923.06
584.34	46988.60
584.50	47065.83
584.66	46866.89
584.82	47161.79
584.98	47189.88
585.14	47175.84
585.30	47349.04
585.46	46894.97
585.62	46618.79
585.78	47234.35
585.94	46693.69
586.10	46906.68
586.26	46827.10
586.42	47044.77
586.58	47435.64
586.74	47157.11
586.90	46990.94
587.06	46913.70
587.22	47089.24
587.38	46815.40
587.54	47447.34
587.70	47175.84
587.86	46995.62
588.02	46597.73
588.18	47040.09
588.34	47173.50
588.49	46925.40
588.65	46796.67
588.81	47054.13
588.97	47250.74
589.13	47358.40
589.29	47430.96
589.45	47306.91
589.61	46880.93
589.77	47143.07
589.93	47112.64
590.08	47182.86
