SpectraSuite Data File
++++++++++++++++++++++++++++++++++++
Date: Fri Oct 25 11:23:56 EDT 2013
User: price-jones
Dark Spectrum Present: No
Reference Spectrum Present: No
Number of Sampled Component Spectra: 1
Spectrometers: USB2+H05261
Integration Time (usec): 100000 (USB2+H05261)
Spectra Averaged: 1 (USB2+H05261)
Boxcar Smoothing: 0 (USB2+H05261)
Correct for Electrical Dark: No (USB2+H05261)
Strobe/Lamp Enabled: No (USB2+H05261)
Correct for Detector Non-linearity: No (USB2+H05261)
Correct for Stray Light: No (USB2+H05261)
Number of Pixels in Processed Spectrum: 2048
>>>>>Begin Processed Spectral Data<<<<<
365.73	163.84
365.92	163.84
366.12	163.84
366.32	191.92
366.52	124.05
366.72	177.88
366.91	84.26
367.11	119.37
367.31	112.35
367.51	126.39
367.70	154.48
367.90	194.26
368.10	67.88
368.30	142.77
368.49	154.48
368.69	163.84
368.89	140.43
369.09	119.37
369.28	121.71
369.48	201.29
369.68	205.97
369.87	173.20
370.07	238.73
370.27	280.86
370.47	273.84
370.66	596.84
370.86	571.09
371.06	709.18
371.25	631.94
371.45	648.33
371.65	692.80
371.84	692.80
372.04	678.76
372.24	699.82
372.44	763.01
372.63	664.71
372.83	751.31
373.03	613.22
373.22	734.93
373.42	678.76
373.62	704.50
373.81	765.36
374.01	814.51
374.21	763.01
374.40	802.80
374.60	809.83
374.79	812.17
374.99	791.10
375.19	847.27
375.38	884.72
375.58	781.74
375.78	849.61
375.97	889.40
376.17	882.38
376.37	840.25
376.56	847.27
376.76	821.53
376.95	882.38
377.15	891.74
377.35	950.26
377.54	929.19
377.74	889.40
377.93	905.79
378.13	816.85
378.33	931.53
378.52	908.13
378.72	931.53
378.91	938.55
379.11	950.26
379.31	940.90
379.50	905.79
379.70	938.55
379.89	952.60
380.09	933.87
380.28	919.83
380.48	985.37
380.68	997.07
380.87	1004.09
381.07	1071.97
381.26	1025.15
381.46	980.68
381.65	1060.26
381.85	957.28
382.04	1046.22
382.24	1050.90
382.43	1022.81
382.63	1034.52
382.83	1025.15
383.02	1093.03
383.22	1053.24
383.41	1083.67
383.61	1102.39
383.80	1107.07
384.00	1158.57
384.19	1074.31
384.39	1086.01
384.58	1088.35
384.78	1188.99
384.97	1135.16
385.17	1135.16
385.36	1114.10
385.56	1160.91
385.75	1172.61
385.95	1170.27
386.14	1142.18
386.34	1289.64
386.53	1179.63
386.72	1181.97
386.92	1266.23
387.11	1231.12
387.31	1341.13
387.50	1114.10
387.70	1233.46
387.89	1214.74
388.09	1303.68
388.28	1324.74
388.48	1289.64
388.67	1252.19
388.86	1341.13
389.06	1235.80
389.25	1329.42
389.45	1376.24
389.64	1345.81
389.84	1425.39
390.03	1385.60
390.22	1371.55
390.42	1338.79
390.61	1371.55
390.81	1406.66
391.00	1472.20
391.19	1476.88
391.39	1462.83
391.58	1474.54
391.78	1423.05
391.97	1486.24
392.16	1371.55
392.36	1544.75
392.55	1621.99
392.75	1476.88
392.94	1563.48
393.13	1610.29
393.33	1614.97
393.52	1558.80
393.71	1619.65
393.91	1511.99
394.10	1626.67
394.29	1584.54
394.49	1593.90
394.68	1575.18
394.88	1605.61
395.07	1640.72
395.26	1596.25
395.46	1689.87
395.65	1657.10
395.84	1706.25
396.04	1788.17
396.23	1708.59
396.42	1694.55
396.62	1680.50
396.81	1818.60
397.00	1689.87
397.19	1750.72
397.39	1771.79
397.58	1863.07
397.77	1849.02
397.97	1757.74
398.16	1884.13
398.35	1813.92
398.55	1771.79
398.74	1839.66
398.93	1919.24
399.12	1865.41
399.32	1886.47
399.51	2008.18
399.70	1952.01
399.90	1935.62
400.09	2031.58
400.28	2134.57
400.47	2012.86
400.67	2162.66
400.86	2040.95
401.05	2150.95
401.24	2207.13
401.44	2139.25
401.63	2122.87
401.82	2146.27
402.01	2143.93
402.21	2179.04
402.40	2251.60
402.59	2225.85
402.78	2200.10
402.97	2296.07
403.17	2211.81
403.36	2298.41
403.55	2249.25
403.74	2363.94
403.93	2375.64
404.13	2389.69
404.32	2349.90
404.51	2347.56
404.70	2399.05
404.89	2305.43
405.09	2387.35
405.28	2441.18
405.47	2541.82
405.66	2509.05
405.85	2499.69
406.05	2626.08
406.24	2560.55
406.43	2654.17
406.62	2562.89
406.81	2677.57
407.00	2651.83
407.20	2597.99
407.39	2586.29
407.58	2635.44
407.77	2771.19
407.96	2764.17
408.15	2799.28
408.34	2801.62
408.54	2801.62
408.73	2930.35
408.92	2895.24
409.11	2834.39
409.30	2902.26
409.49	3019.29
409.68	2960.78
409.87	3016.95
410.07	2963.12
410.26	2958.44
410.45	3005.25
410.64	3002.91
410.83	3082.49
411.02	3183.13
411.21	3206.53
411.40	3115.25
411.59	3208.87
411.78	3190.15
411.98	3119.93
412.17	3351.65
412.36	3330.58
412.55	3379.73
412.74	3433.57
412.93	3496.76
413.12	3384.41
413.31	3571.66
413.50	3585.70
413.69	3485.06
413.88	3510.80
414.07	3545.91
414.26	3641.87
414.45	3726.13
414.64	3644.21
414.83	3679.32
415.02	3770.60
415.22	3894.65
415.41	3999.98
415.60	3941.46
415.79	4016.36
415.98	3943.80
416.17	3981.25
416.36	3861.88
416.55	4051.47
416.74	4088.92
416.93	4081.89
417.12	4184.88
417.31	4175.52
417.50	4049.13
417.69	4367.44
417.88	4222.33
418.07	4327.65
418.26	4334.67
418.45	4365.10
418.64	4463.40
418.83	4339.35
419.02	4463.40
419.21	4482.13
419.39	4374.46
419.58	4491.49
419.77	4538.30
419.96	4542.98
420.15	4533.62
420.34	4526.60
420.53	4727.88
420.72	4723.20
420.91	4662.35
421.10	4730.22
421.29	4873.00
421.48	4531.28
421.67	4805.12
421.86	4877.68
422.05	4671.71
422.24	4812.14
422.43	4784.06
422.61	4945.55
422.80	5053.22
422.99	4875.34
423.18	4884.70
423.37	4966.62
423.56	4812.14
423.75	4968.96
423.94	4809.80
424.13	4573.41
424.32	4730.22
424.50	4908.10
424.69	5200.67
424.88	5130.45
425.07	5013.43
425.26	4854.27
425.45	5076.62
425.64	4865.97
425.83	4905.76
426.01	5022.79
426.20	4938.53
426.39	4997.04
426.58	4990.02
426.77	4961.94
426.96	5027.47
427.15	5245.14
427.33	5249.82
427.52	5067.26
427.71	5228.76
427.90	5289.61
428.09	5352.81
428.28	5397.28
428.46	5455.79
428.65	5425.36
428.84	5420.68
429.03	5516.64
429.22	5334.08
429.40	5448.77
429.59	5500.26
429.78	5455.79
429.97	5160.88
430.16	5497.92
430.34	5678.14
430.53	5526.00
430.72	5813.89
430.91	5640.69
431.10	5467.49
431.28	5717.93
431.47	5975.39
431.66	5956.66
431.85	5818.57
432.03	5916.87
432.22	5956.66
432.41	5863.04
432.60	5916.87
432.79	6005.81
432.97	6085.39
433.16	6230.51
433.35	5930.92
433.54	6157.95
433.72	6260.93
433.91	6090.07
434.10	6207.10
434.28	5989.43
434.47	6186.04
434.66	6169.65
434.85	6431.79
435.03	6193.06
435.22	6349.87
435.41	6607.33
435.59	6403.71
435.78	6572.22
435.97	6483.28
436.16	6597.97
436.34	6392.00
436.53	6406.05
436.72	6661.16
436.90	6525.41
437.09	6672.87
437.28	6544.14
437.46	6757.13
437.65	6626.06
437.84	6878.83
438.02	6792.23
438.21	6827.34
438.40	6473.92
438.58	6820.32
438.77	6920.96
438.96	6895.22
439.14	7243.96
439.33	7300.13
439.52	7087.14
439.70	7227.57
439.89	7159.70
440.08	7428.86
440.26	7372.69
440.45	7370.35
440.63	7616.10
440.82	7576.31
441.01	7705.04
441.19	7604.40
441.38	7756.54
441.57	7992.93
441.75	7683.98
441.94	7932.08
442.12	8016.33
442.31	7868.88
442.50	8039.74
442.68	8121.66
442.87	8212.94
443.05	8121.66
443.24	8322.94
443.43	8131.02
443.61	8255.07
443.80	8528.91
443.98	8180.17
444.17	7859.52
444.35	8477.42
444.54	8243.37
444.73	8344.01
444.91	8304.22
445.10	8351.03
445.28	8269.11
445.47	8360.39
445.65	8365.07
445.84	8449.33
446.02	8582.74
446.21	8248.05
446.39	8528.91
446.58	8542.96
446.77	8545.30
446.95	8339.33
447.14	8334.65
447.32	8631.90
447.51	8571.04
447.69	8538.27
447.88	8482.10
448.06	8554.66
448.25	8585.08
448.43	8648.28
448.62	8676.37
448.80	8596.79
448.99	8706.79
449.17	8711.47
449.36	8821.48
449.54	8674.03
449.73	8872.97
449.91	9158.52
450.10	8889.35
450.28	8901.06
450.46	9158.52
450.65	8915.10
450.83	8992.34
451.02	9076.60
451.20	9228.73
451.39	9238.09
451.57	8980.64
451.76	8910.42
451.94	9076.60
452.13	9301.29
452.31	9298.95
452.49	9153.84
452.68	9483.85
452.86	9317.67
453.05	9511.94
453.23	9291.93
453.42	9315.33
453.60	9345.76
453.78	9544.70
453.97	9469.81
454.15	9565.77
454.34	9523.64
454.52	9811.53
454.70	9598.54
454.89	9806.84
455.07	9884.08
455.26	9731.95
455.44	10001.11
455.62	9820.89
455.81	9902.81
455.99	9872.38
456.17	9949.62
456.36	9820.89
456.54	10293.68
456.73	10221.12
456.91	10518.37
457.09	10349.85
457.28	10391.98
457.46	10602.63
457.64	10485.60
457.83	10471.56
458.01	10441.13
458.19	10710.29
458.38	10621.35
458.56	10649.44
458.74	10771.15
458.93	10743.06
459.11	10815.62
459.29	10817.96
459.48	10820.30
459.66	10899.87
459.84	10801.57
460.03	11171.38
460.21	11073.07
460.39	11138.61
460.57	11257.98
460.76	11358.62
460.94	11136.27
461.12	11136.27
461.31	11138.61
461.49	11208.83
461.67	11147.97
461.85	11400.75
462.04	11044.99
462.22	11660.55
462.40	11735.45
462.59	11456.92
462.77	11580.97
462.95	11592.67
463.13	11662.89
463.32	11705.02
463.50	11826.73
463.68	11833.75
463.86	11815.02
464.05	11520.12
464.23	11665.23
464.41	11768.21
464.59	11763.53
464.78	12081.85
464.96	12116.95
465.14	11672.25
465.32	12273.77
465.50	12238.66
465.69	12049.08
465.87	12098.23
466.05	12074.82
466.23	12294.83
466.41	12198.87
466.60	12603.78
466.78	12215.26
466.96	12112.27
467.14	12444.63
467.32	12304.20
467.51	12603.78
467.69	12086.53
467.87	12381.43
468.05	12641.23
468.23	12589.74
468.41	12475.06
468.60	12774.64
468.78	12814.43
468.96	12662.30
469.14	12945.50
469.32	12987.63
469.50	12704.43
469.69	13184.24
469.87	13095.30
470.05	13123.38
470.23	13036.78
470.41	13256.79
470.59	13392.55
470.77	13202.96
470.95	13109.34
471.14	13437.02
471.32	13135.09
471.50	13572.77
471.68	13610.22
471.86	13811.50
472.04	13877.04
472.22	13951.93
472.40	13701.50
472.58	13858.31
472.77	13839.59
472.95	14143.86
473.13	14607.28
473.31	14230.46
473.49	14003.43
473.67	14420.04
473.85	14300.67
474.03	14707.93
474.21	14757.08
474.39	14717.29
474.57	14766.44
474.75	14909.21
474.93	14740.69
475.12	14822.61
475.30	15068.37
475.48	15243.91
475.66	15370.30
475.84	15136.24
476.02	15365.62
476.20	15545.84
476.38	15688.61
476.56	15962.45
476.74	15903.94
476.92	15955.43
477.10	15772.87
477.28	16152.04
477.46	16037.35
477.64	16582.70
477.82	16512.48
478.00	17205.28
478.18	16765.26
478.36	17008.67
478.54	17198.26
478.72	17137.40
478.90	17273.15
479.08	17640.62
479.26	17341.03
479.44	17710.83
479.62	18066.60
479.80	18312.35
479.98	18305.33
480.16	18707.90
480.34	18677.48
480.52	18443.42
480.70	18661.09
480.88	18317.03
481.06	18525.34
481.24	18628.32
481.41	19154.94
481.59	19634.75
481.77	19653.48
481.95	19681.56
482.13	19789.23
482.31	19763.48
482.49	20264.36
482.67	20339.26
482.85	20372.02
483.03	20561.61
483.21	20872.90
483.39	20898.64
483.57	20795.66
483.74	21125.68
483.92	21385.47
484.10	21392.50
484.28	21893.37
484.46	22223.39
484.64	21979.97
484.82	21788.05
485.00	22534.68
485.18	22930.23
485.35	22897.46
485.53	22920.87
485.71	22902.14
485.89	23407.70
486.07	23491.96
486.25	23468.55
486.43	23445.15
486.61	23885.17
486.78	24020.92
486.96	24226.89
487.14	24636.48
487.32	24996.92
487.50	24896.28
487.68	25125.65
487.85	25228.63
488.03	25923.77
488.21	25722.49
488.39	25898.03
488.57	25891.01
488.75	25991.65
488.92	26534.65
489.10	26682.11
489.28	26710.19
489.46	27061.27
489.64	27199.37
489.81	27438.10
489.99	27974.08
490.17	27686.20
490.35	28280.69
490.53	28446.87
490.70	28259.63
490.88	28268.99
491.06	28790.93
491.24	28987.53
491.41	29207.55
491.59	29338.62
491.77	29383.09
491.95	29645.23
492.13	29628.84
492.30	30008.01
492.48	30181.21
492.66	30211.64
492.84	30286.53
493.01	31140.83
493.19	30672.72
493.37	31159.55
493.54	30820.17
493.72	31669.79
493.90	31803.20
494.08	31812.56
494.25	31974.06
494.43	31999.80
494.61	32449.19
494.79	32505.36
494.96	32734.73
495.14	32407.06
495.32	32961.76
495.49	33441.57
495.67	33795.00
495.85	33617.11
496.02	34071.18
496.20	34050.11
496.38	34029.05
496.55	34763.98
496.73	35157.19
496.91	34497.16
497.09	34967.60
497.26	35161.87
497.44	35122.08
497.62	35339.75
497.79	35805.52
497.97	35351.45
498.14	35576.14
498.32	36191.70
498.50	36292.35
498.67	36605.98
498.85	36229.15
499.03	37015.57
499.20	36629.38
499.38	36765.14
499.56	37221.54
499.73	37256.65
499.91	37139.62
500.08	37787.95
500.26	37504.74
500.44	37680.28
500.61	37912.00
500.79	37696.67
500.97	38211.59
501.14	38536.92
501.32	38672.67
501.49	38927.79
501.67	38841.19
501.84	39271.85
502.02	38780.34
502.20	39037.80
502.37	39358.45
502.55	39051.84
502.72	39466.11
502.90	39592.50
503.07	39379.51
503.25	39351.43
503.43	39648.68
503.60	40301.68
503.78	39995.07
503.95	40559.14
504.13	40451.48
504.30	40615.32
504.48	40715.96
504.65	41015.55
504.83	41226.20
505.01	41483.66
505.18	41130.23
505.36	41371.31
505.53	41481.31
505.71	41425.14
505.88	41790.27
506.06	41289.39
506.23	42356.67
506.41	41872.18
506.58	42263.05
506.76	41984.53
506.93	42450.30
507.11	42768.61
507.28	42927.77
507.46	42780.31
507.63	42927.77
507.81	43489.49
507.98	43356.08
508.16	43309.27
508.33	43374.81
508.50	43529.28
508.68	43646.31
508.85	43772.70
509.03	44156.55
509.20	44098.03
509.38	44463.16
509.55	44641.04
509.73	44561.46
509.90	44589.55
510.08	45357.24
510.25	44741.68
510.42	45113.83
510.60	44786.15
510.77	44774.45
510.95	45628.74
511.12	45111.49
511.30	45181.70
511.47	45474.27
511.64	45780.88
511.82	46024.29
511.99	45289.37
512.17	46370.69
512.34	45731.73
512.51	46370.69
512.69	46387.08
512.86	46080.47
513.04	46944.12
513.21	46916.04
513.38	47377.12
513.56	46953.49
513.73	46988.60
513.90	46894.97
514.08	46855.18
514.25	47337.33
514.43	47676.71
514.60	47753.95
514.77	47143.07
514.95	47620.54
515.12	47590.11
515.29	47707.14
515.47	48250.14
515.64	48315.68
515.81	48278.23
515.99	48177.59
516.16	48580.16
516.33	48720.59
516.51	48542.71
516.68	48542.71
516.85	48741.66
517.03	48638.67
517.20	48907.83
517.37	49055.29
517.54	49041.24
517.72	49162.95
517.89	49287.00
518.06	49123.16
518.24	49549.14
518.41	49432.11
518.58	49457.86
518.75	49139.55
518.93	49626.38
519.10	49801.92
519.27	49851.07
519.45	49998.52
519.62	50000.86
519.79	50089.80
519.96	49560.84
520.14	50333.22
520.31	50192.79
520.48	50354.29
520.65	50539.19
520.83	50932.40
521.00	50873.88
521.17	50770.90
521.34	50567.27
521.52	50981.55
521.69	50946.44
521.86	51269.43
522.03	51285.82
522.20	51309.22
522.38	51508.17
522.55	51412.21
522.72	51414.55
522.89	51246.03
523.07	51622.86
523.24	51480.08
523.41	51536.26
523.58	51819.46
523.75	52009.04
523.92	51653.28
524.10	52105.01
524.27	52032.45
524.44	52303.95
524.61	52245.44
524.78	52264.16
524.96	52364.81
525.13	52303.95
525.30	52289.91
525.47	52568.43
525.64	52268.84
525.81	52521.62
525.98	52636.31
526.16	52659.71
526.33	52828.23
526.50	52966.32
526.67	53008.45
526.84	52877.38
527.01	52835.25
527.18	52971.00
527.36	53221.44
527.53	53099.73
527.70	53258.89
527.87	53443.79
528.04	53284.64
528.21	53478.90
528.38	53301.02
528.55	53862.75
528.72	53284.64
528.89	53151.23
529.07	53506.99
529.24	53415.71
529.41	53738.70
529.58	53591.25
529.75	53684.87
529.92	53734.02
530.09	53806.58
530.26	53921.26
530.43	54174.04
530.60	53970.41
530.77	53982.12
530.94	54223.19
531.11	54068.72
531.28	54033.61
531.46	54365.96
531.63	54270.00
531.80	54253.62
531.97	54188.08
532.14	54571.93
532.31	54396.39
532.48	54822.37
532.65	54703.00
532.82	54609.38
532.99	54862.16
533.16	54831.73
533.33	54817.69
533.50	55030.68
533.67	55096.21
533.84	54656.19
534.01	54822.37
534.18	54672.57
534.35	55234.30
534.52	55021.31
534.69	55236.64
534.86	55430.91
535.03	55117.28
535.20	55267.07
535.37	55353.67
535.54	55412.18
535.71	55061.10
535.88	55573.68
536.05	55351.33
536.22	55458.99
536.38	55679.00
536.55	55770.28
536.72	55515.17
536.89	55599.43
537.06	55800.71
537.23	55735.18
537.40	55800.71
537.57	55718.79
537.74	55952.85
537.91	56306.27
538.08	55997.32
538.25	55817.10
538.42	55908.38
538.59	56210.31
538.75	55936.46
538.92	56163.50
539.09	56313.29
539.26	56243.07
539.43	56079.24
539.60	56278.18
539.77	56369.46
539.94	56343.72
540.11	56233.71
540.28	56509.89
540.44	56512.23
540.61	56601.18
540.78	56456.06
540.95	56446.70
541.12	56474.79
541.29	56446.70
541.46	56474.79
541.62	56568.41
541.79	56552.02
541.96	56493.51
542.13	56736.93
542.30	56636.28
542.47	57205.03
542.63	57109.07
542.80	57031.83
542.97	57151.20
543.14	57375.89
543.31	57219.08
543.48	57144.18
543.64	57464.83
543.81	57389.94
543.98	57207.37
544.15	57623.99
544.32	57518.67
544.48	57719.95
544.65	57425.04
544.82	57350.15
544.99	57221.42
545.16	57373.55
545.32	57504.62
545.49	57757.40
545.66	57904.85
545.83	57741.02
546.00	57703.57
546.16	57647.39
546.33	57481.22
546.50	57474.20
546.67	57993.79
546.83	57694.21
547.00	57806.55
547.17	57935.28
547.34	57731.65
547.50	58007.84
547.67	58056.99
547.84	57993.79
548.00	58274.66
548.17	58227.85
548.34	58272.32
548.51	58396.37
548.67	58445.52
548.84	58117.84
549.01	58113.16
549.18	58358.92
549.34	58473.60
549.51	58471.26
549.68	58307.43
549.84	58494.67
550.01	58368.28
550.18	58539.14
550.34	58267.64
550.51	58616.38
550.68	58599.99
550.84	58281.68
551.01	58670.21
551.18	58450.20
551.34	58663.19
551.51	58625.74
551.68	58557.86
551.84	58590.63
552.01	58394.03
552.18	58614.04
552.34	58642.12
552.51	58623.40
552.68	58731.06
552.84	58450.20
553.01	59049.38
553.18	58993.20
553.34	58962.78
553.51	58539.14
553.67	58789.58
553.84	59107.89
554.01	58876.18
554.17	59082.14
554.34	59037.67
554.51	58944.05
554.67	58871.49
554.84	59035.33
555.00	59065.76
555.17	59124.27
555.33	59178.10
555.50	58780.21
555.67	59037.67
555.83	59091.51
556.00	59007.25
556.16	59650.89
556.33	59285.77
556.50	59199.17
556.66	59587.70
556.83	59227.26
556.99	59379.39
557.16	59377.05
557.32	59367.69
557.49	59667.28
557.65	59278.75
557.82	59531.53
557.98	59475.35
558.15	59496.42
558.32	59494.08
558.48	59227.26
558.65	59257.68
558.81	59442.59
558.98	59639.19
559.14	59688.34
559.31	59578.34
559.47	59803.03
559.64	59725.79
559.80	59835.80
559.97	59845.16
560.13	59592.38
560.30	59676.64
560.46	59629.83
560.63	59784.30
560.79	59714.09
560.96	59927.08
561.12	60032.40
561.29	60130.70
561.45	60004.31
561.61	60011.34
561.78	59826.43
561.94	59758.56
562.11	59847.50
562.27	60027.72
562.44	59994.95
562.60	60111.98
562.77	60193.90
562.93	60135.38
563.10	60074.53
563.26	60170.49
563.42	60329.65
563.59	60165.81
563.75	60074.53
563.92	60205.60
564.08	60147.09
564.24	60093.25
564.41	60128.36
564.57	60147.09
564.74	60182.19
564.90	60032.40
565.07	60205.60
565.23	60182.19
565.39	60383.48
565.56	60144.75
565.72	60053.47
565.88	60355.39
566.05	59950.48
566.21	60294.54
566.38	60294.54
566.54	60413.91
566.70	60336.67
566.87	60437.31
567.03	60257.09
567.19	60392.84
567.36	60467.74
567.52	60219.64
567.68	60690.09
567.85	60385.82
568.01	60533.28
568.17	60353.05
568.34	60533.28
568.50	60364.76
568.66	60378.80
568.83	60500.51
568.99	60355.39
569.15	60647.96
569.32	60388.16
569.48	60247.73
569.64	60486.46
569.81	60610.51
569.97	60327.31
570.13	60631.58
570.30	60336.67
570.46	60589.45
570.62	60615.19
570.78	60577.75
570.95	60313.26
571.11	60748.60
571.27	60512.21
571.43	60692.43
571.60	60921.80
571.76	60697.11
571.92	60605.83
572.09	60643.28
572.25	60591.79
572.41	60477.10
572.57	60647.96
572.74	60935.85
572.90	60767.33
573.06	60853.93
573.22	60561.36
573.38	60755.63
573.55	60711.16
573.71	60755.63
573.87	60643.28
574.03	60552.00
574.20	60809.46
574.36	60601.15
574.52	60896.06
574.68	60938.19
574.84	60774.35
575.01	60725.20
575.17	60865.63
575.33	60615.19
575.49	60830.52
575.65	60874.99
575.82	60811.80
575.98	60811.80
576.14	60924.14
576.30	60865.63
576.46	60533.28
576.62	60879.67
576.79	60732.22
576.95	60561.36
577.11	60910.10
577.27	60898.40
577.43	60893.72
577.59	60774.35
577.75	60760.31
577.92	60729.88
578.08	60734.56
578.24	60863.29
578.40	60935.85
578.56	60835.20
578.72	60767.33
578.88	60910.10
579.04	61057.56
579.21	61076.28
579.37	61139.47
579.53	61078.62
579.69	60800.10
579.85	60741.58
580.01	60914.78
580.17	60669.03
580.33	61158.20
580.49	60935.85
580.65	60947.55
580.82	60893.72
580.98	61057.56
581.14	61029.47
581.30	61001.38
581.46	60949.89
581.62	60966.27
581.78	61045.85
581.94	61052.87
582.10	61034.15
582.26	60781.37
582.42	61186.28
582.58	60872.65
582.74	61050.53
582.90	60992.02
583.06	60874.99
583.22	60917.12
583.38	61073.94
583.54	61064.58
583.70	61041.17
583.86	61031.81
584.02	60935.85
584.18	61006.06
584.34	61069.26
584.50	60893.72
584.66	61001.38
584.82	60846.91
584.98	61226.07
585.14	61188.63
585.30	60898.40
585.46	60924.14
585.62	61167.56
585.78	61132.45
585.94	60970.96
586.10	61092.66
586.26	61123.09
586.42	61282.25
586.58	61275.22
586.74	61104.37
586.90	60851.59
587.06	60809.46
587.22	61188.63
587.38	61272.88
587.54	61188.63
587.70	61354.80
587.86	61256.50
588.02	61048.19
588.18	61251.82
588.34	61190.97
588.49	61015.43
