SpectraSuite Data File
++++++++++++++++++++++++++++++++++++
Date: Fri Oct 25 11:23:09 EDT 2013
User: price-jones
Dark Spectrum Present: No
Reference Spectrum Present: No
Number of Sampled Component Spectra: 1
Spectrometers: USB2+H05261
Integration Time (usec): 100000 (USB2+H05261)
Spectra Averaged: 1 (USB2+H05261)
Boxcar Smoothing: 0 (USB2+H05261)
Correct for Electrical Dark: No (USB2+H05261)
Strobe/Lamp Enabled: No (USB2+H05261)
Correct for Detector Non-linearity: No (USB2+H05261)
Correct for Stray Light: No (USB2+H05261)
Number of Pixels in Processed Spectrum: 2048
>>>>>Begin Processed Spectral Data<<<<<
365.73	241.08
365.92	241.08
366.12	241.08
366.32	149.79
366.52	86.60
366.72	138.09
366.91	156.82
367.11	124.05
367.31	138.09
367.51	145.11
367.70	98.30
367.90	140.43
368.10	198.95
368.30	86.60
368.49	44.47
368.69	112.35
368.89	145.11
369.09	126.39
369.28	156.82
369.48	191.92
369.68	161.50
369.87	205.97
370.07	170.86
370.27	203.63
370.47	334.70
370.66	603.86
370.86	622.58
371.06	620.24
371.25	559.39
371.45	599.18
371.65	676.41
371.84	709.18
372.04	653.01
372.24	723.23
372.44	720.88
372.63	713.86
372.83	760.67
373.03	713.86
373.22	826.21
373.42	802.80
373.62	739.61
373.81	744.29
374.01	760.67
374.21	814.51
374.40	873.02
374.60	880.04
374.79	784.08
374.99	830.89
375.19	788.76
375.38	828.55
375.58	866.00
375.78	873.02
375.97	851.96
376.17	851.96
376.37	950.26
376.56	873.02
376.76	877.70
376.95	889.40
377.15	837.91
377.35	875.36
377.54	819.19
377.74	835.57
377.93	884.72
378.13	983.02
378.33	936.21
378.52	898.77
378.72	947.92
378.91	922.17
379.11	922.17
379.31	938.55
379.50	957.28
379.70	936.21
379.89	1029.84
380.09	933.87
380.28	1032.18
380.48	1015.79
380.68	1015.79
380.87	973.66
381.07	1083.67
381.26	966.64
381.46	1011.11
381.65	1081.33
381.85	1067.28
382.04	1048.56
382.24	1043.88
382.43	1064.94
382.63	1081.33
382.83	1057.92
383.02	1097.71
383.22	1135.16
383.41	1198.35
383.61	1032.18
383.80	1121.12
384.00	1093.03
384.19	1083.67
384.39	1125.80
384.58	1111.75
384.78	1118.78
384.97	1200.69
385.17	1172.61
385.36	1177.29
385.56	1111.75
385.75	1144.52
385.95	1301.34
386.14	1254.53
386.34	1219.42
386.53	1261.55
386.72	1198.35
386.92	1268.57
387.11	1238.14
387.31	1320.06
387.50	1249.85
387.70	1294.32
387.89	1252.19
388.09	1196.01
388.28	1343.47
388.48	1338.79
388.67	1270.91
388.86	1380.92
389.06	1301.34
389.25	1235.80
389.45	1324.74
389.64	1352.83
389.84	1308.36
390.03	1458.15
390.22	1362.19
390.42	1369.21
390.61	1378.58
390.81	1366.87
391.00	1369.21
391.19	1455.81
391.39	1458.15
391.58	1413.68
391.78	1413.68
391.97	1502.62
392.16	1448.79
392.36	1542.41
392.55	1631.35
392.75	1516.67
392.94	1554.12
393.13	1617.31
393.33	1458.15
393.52	1645.40
393.71	1687.53
393.91	1666.46
394.10	1598.59
394.29	1671.14
394.49	1617.31
394.68	1633.69
394.88	1540.07
395.07	1586.88
395.26	1776.47
395.46	1685.19
395.65	1685.19
395.84	1680.50
396.04	1736.68
396.23	1694.55
396.42	1762.42
396.62	1792.85
396.81	1778.81
397.00	1762.42
397.19	1846.68
397.39	1816.26
397.58	1832.64
397.77	1895.83
397.97	1813.92
398.16	1905.20
398.35	1989.46
398.55	1907.54
398.74	1909.88
398.93	1907.54
399.12	1947.33
399.32	1867.75
399.51	2097.12
399.70	2045.63
399.90	1860.73
400.09	2052.65
400.28	2167.34
400.47	2064.35
400.67	2108.82
400.86	2094.78
401.05	2115.84
401.24	2122.87
401.44	2202.44
401.63	2125.21
401.82	2179.04
402.01	2246.91
402.21	2040.95
402.40	2193.08
402.59	2300.75
402.78	2193.08
402.97	2272.66
403.17	2181.38
403.36	2225.85
403.55	2349.90
403.74	2417.77
403.93	2275.00
404.13	2366.28
404.32	2415.43
404.51	2333.51
404.70	2459.90
404.89	2347.56
405.09	2445.86
405.28	2427.14
405.47	2567.57
405.66	2462.24
405.85	2511.39
406.05	2583.95
406.24	2668.21
406.43	2555.86
406.62	2679.91
406.81	2691.62
407.00	2544.16
407.20	2551.18
407.39	2630.76
407.58	2710.34
407.77	2752.47
407.96	2827.37
408.15	2668.21
408.34	2768.85
408.54	2754.81
408.73	2867.16
408.92	2869.50
409.11	2925.67
409.30	2878.86
409.49	2867.16
409.68	2970.14
409.87	2890.56
410.07	3038.02
410.26	2939.71
410.45	3112.91
410.64	3131.64
410.83	3007.59
411.02	3108.23
411.21	3063.76
411.40	3136.32
411.59	3159.72
411.78	3279.09
411.98	3229.94
412.17	3159.72
412.36	3241.64
412.55	3335.26
412.74	3440.59
412.93	3461.65
413.12	3459.31
413.31	3630.17
413.50	3569.32
413.69	3482.72
413.88	3740.18
414.07	3674.64
414.26	3716.77
414.45	3681.66
414.64	3700.39
414.83	3744.86
415.02	3794.01
415.22	3723.79
415.41	3744.86
415.60	3960.19
415.79	3969.55
415.98	3948.48
416.17	3946.14
416.36	4021.04
416.55	4100.62
416.74	4021.04
416.93	4084.23
417.12	4121.68
417.31	4229.35
417.50	4205.94
417.69	4306.59
417.88	4418.93
418.07	4318.29
418.26	4379.14
418.45	4430.63
418.64	4587.45
418.83	4554.68
419.02	4451.70
419.21	4468.08
419.39	4580.43
419.58	4388.50
419.77	4351.06
419.96	4624.90
420.15	4606.17
420.34	4594.47
420.53	4533.62
420.72	4702.14
420.91	4638.94
421.10	4685.75
421.29	4732.56
421.48	4777.03
421.67	4695.11
421.86	4938.53
422.05	4732.56
422.24	4767.67
422.43	4938.53
422.61	5008.75
422.80	4833.21
422.99	4880.02
423.18	4873.00
423.37	5128.11
423.56	4975.98
423.75	4884.70
423.94	4849.59
424.13	4681.07
424.32	4898.74
424.50	5111.73
424.69	5057.90
424.88	5064.92
425.07	5060.24
425.26	4980.66
425.45	4990.02
425.64	5097.69
425.83	5118.75
426.01	5179.61
426.20	5064.92
426.39	5195.99
426.58	5144.50
426.77	5104.71
426.96	5221.74
427.15	5228.76
427.33	5261.52
427.52	5226.42
427.71	5172.58
427.90	5247.48
428.09	5270.89
428.28	5572.82
428.46	5317.70
428.65	5481.53
428.84	5570.48
429.03	5376.21
429.22	5406.64
429.40	5474.51
429.59	5451.11
429.78	5289.61
429.97	5205.35
430.16	5444.09
430.34	5547.07
430.53	5804.53
430.72	5708.57
430.91	5708.57
431.10	5729.63
431.28	5837.30
431.47	5912.19
431.66	5970.71
431.85	5795.17
432.03	6005.81
432.22	6040.92
432.41	5914.53
432.60	5970.71
432.79	5984.75
432.97	6010.50
433.16	6050.28
433.35	5989.43
433.54	6099.44
433.72	6340.51
433.91	6015.18
434.10	6150.93
434.28	6197.74
434.47	6207.10
434.66	6216.46
434.85	6352.21
435.03	6230.51
435.22	6403.71
435.41	6471.58
435.59	6441.15
435.78	6384.98
435.97	6263.27
436.16	6394.34
436.34	6555.84
436.53	6490.31
436.72	6817.98
436.90	6614.35
437.09	6825.00
437.28	6502.01
437.46	6616.69
437.65	6672.87
437.84	6890.54
438.02	6846.07
438.21	6927.99
438.40	6944.37
438.58	7059.06
438.77	6963.09
438.96	7047.35
439.14	7110.55
439.33	7124.59
439.52	7103.53
439.70	7269.70
439.89	7461.63
440.08	7281.41
440.26	7344.60
440.45	7470.99
440.63	7730.79
440.82	7768.24
441.01	7536.52
441.19	7772.92
441.38	7822.07
441.57	7728.45
441.75	7840.79
441.94	7880.58
442.12	7946.12
442.31	8215.28
442.50	8126.34
442.68	7941.44
442.87	8236.35
443.05	8093.57
443.24	8390.82
443.43	8280.82
443.61	8301.88
443.80	8489.12
443.98	8145.06
444.17	7911.01
444.35	8393.16
444.54	8437.63
444.73	8404.86
444.91	8344.01
445.10	8355.71
445.28	8435.29
445.47	8552.32
445.65	8367.42
445.84	8601.47
446.02	8425.93
446.21	8571.04
446.39	8308.90
446.58	8575.72
446.77	8620.19
446.95	8329.97
447.14	8435.29
447.32	8477.42
447.51	8545.30
447.69	8711.47
447.88	8514.87
448.06	8514.87
448.25	8468.06
448.43	8725.52
448.62	8655.30
448.80	8561.68
448.99	8692.75
449.17	8819.14
449.36	8631.90
449.54	8978.30
449.73	8887.01
449.91	9067.24
450.10	9205.33
450.28	9214.69
450.46	9043.83
450.65	8980.64
450.83	9268.52
451.02	9032.13
451.20	9350.44
451.39	9245.12
451.57	9191.28
451.76	9076.60
451.94	9226.39
452.13	9462.79
452.31	9324.69
452.49	9315.33
452.68	9425.34
452.86	9338.74
453.05	9437.04
453.23	9694.50
453.42	9448.74
453.60	9493.21
453.78	9551.73
453.97	9448.74
454.15	9797.48
454.34	9415.98
454.52	9888.76
454.70	9820.89
454.89	9753.01
455.07	9973.02
455.26	9823.23
455.44	9996.43
455.62	9898.13
455.81	10200.05
455.99	10038.56
456.17	10005.79
456.36	10090.05
456.54	10202.40
456.73	10391.98
456.91	10434.11
457.09	10574.54
457.28	10853.06
457.46	10408.36
457.64	10918.60
457.83	10738.38
458.01	10574.54
458.19	10792.21
458.38	10684.55
458.56	10806.25
458.74	10808.59
458.93	10824.98
459.11	10977.11
459.29	10754.76
459.48	10841.36
459.66	11225.21
459.84	11023.92
460.03	11119.89
460.21	11215.85
460.39	11157.33
460.57	11080.10
460.76	11204.14
460.94	11302.45
461.12	11358.62
461.31	10981.79
461.49	11300.11
461.67	11321.17
461.85	11573.95
462.04	11295.43
462.22	11552.88
462.40	11515.44
462.59	11763.53
462.77	11531.82
462.95	11723.74
463.13	11639.48
463.32	11803.32
463.50	12046.74
463.68	11960.14
463.86	11751.83
464.05	11826.73
464.23	11847.79
464.41	11796.30
464.59	11765.87
464.78	11983.54
464.96	12006.95
465.14	12091.21
465.32	12372.07
465.50	12243.34
465.69	12262.07
465.87	12245.68
466.05	12393.14
466.23	12252.70
466.41	12463.35
466.60	12669.32
466.78	12318.24
466.96	12325.26
467.14	12585.06
467.32	12648.26
467.51	12568.68
467.69	12294.83
467.87	12526.55
468.05	12861.24
468.23	12383.77
468.41	12531.23
468.60	12732.51
468.78	13041.46
468.96	12851.88
469.14	12910.40
469.32	13219.35
469.50	12872.95
469.69	13336.37
469.87	13125.72
470.05	13212.32
470.23	13137.43
470.41	13085.94
470.59	13406.59
470.77	13308.29
470.95	13509.57
471.14	13429.99
471.32	13291.90
471.50	13741.29
471.68	13696.82
471.86	13745.97
472.04	13654.69
472.22	14043.21
472.40	13687.45
472.58	14148.54
472.77	14150.88
472.95	14106.41
473.13	14806.23
473.31	14134.50
473.49	14352.16
473.67	14267.91
473.85	14438.76
474.03	14778.14
474.21	14733.67
474.39	14899.85
474.57	14855.38
474.75	15169.01
474.93	15150.29
475.12	15124.54
475.30	15250.93
475.48	15325.83
475.66	15293.06
475.84	15510.73
476.02	15477.96
476.20	15597.33
476.38	15847.77
476.56	16224.59
476.74	16266.72
476.92	16051.39
477.10	16163.74
477.28	16346.30
477.46	16526.52
477.64	16458.65
477.82	16606.10
478.00	17039.10
478.18	17249.75
478.36	17193.58
478.54	17436.99
478.72	17486.14
478.90	17359.75
479.08	17694.45
479.26	17600.83
479.44	17788.07
479.62	17991.70
479.80	18171.92
479.98	18520.66
480.16	18895.14
480.34	18623.64
480.52	18682.16
480.70	18944.30
480.88	18487.89
481.06	18672.79
481.24	19084.73
481.41	19211.12
481.59	19513.05
481.77	19468.58
481.95	19793.91
482.13	20039.67
482.31	20229.25
482.49	20280.74
482.67	20418.83
482.85	20627.14
483.03	20870.56
483.21	21139.72
483.39	21083.55
483.57	21418.24
483.74	21553.99
483.92	21713.15
484.10	21436.97
484.28	21921.46
484.46	22127.42
484.64	22604.89
484.82	22143.81
485.00	22466.80
485.18	22902.14
485.35	23143.22
485.53	23201.73
485.71	23337.48
485.89	23620.69
486.07	23520.04
486.25	23800.91
486.43	23999.85
486.61	24070.07
486.78	24137.94
486.96	24306.46
487.14	24613.07
487.32	25010.96
487.50	25132.67
487.68	25659.29
487.85	25415.88
488.03	25713.13
488.21	26017.40
488.39	26202.30
488.57	26267.83
488.75	26623.59
488.92	26913.82
489.10	27150.21
489.28	27026.17
489.46	27241.50
489.64	27220.43
489.81	28107.49
489.99	27761.09
490.17	28133.24
490.35	28587.30
490.53	28498.36
490.70	28739.44
490.88	28285.37
491.06	29322.23
491.24	29345.64
491.41	29488.41
491.59	29626.50
491.77	29544.58
491.95	29989.28
492.13	30508.88
492.30	30270.15
492.48	30106.31
492.66	30639.95
492.84	30972.31
493.01	30808.47
493.19	30885.71
493.37	31456.80
493.54	31487.23
493.72	31779.79
493.90	31653.40
494.08	32376.63
494.25	32371.95
494.43	32496.00
494.61	32308.76
494.79	32994.53
494.96	32968.79
495.14	33106.88
495.32	33448.60
495.49	33436.89
495.67	33476.68
495.85	33846.49
496.02	34010.32
496.20	34508.86
496.38	34057.14
496.55	34607.16
496.73	35089.31
496.91	34656.31
497.09	35250.81
497.26	35365.49
497.44	35519.97
497.62	35573.80
497.79	36505.34
497.97	36044.25
498.14	36100.42
498.32	36346.18
498.50	36245.54
498.67	37102.17
498.85	36704.28
499.03	36910.25
499.20	37137.28
499.38	37195.79
499.56	37539.85
499.73	37476.66
499.91	37448.57
500.08	37982.21
500.26	38160.09
500.44	38218.61
500.61	38253.72
500.79	38022.00
500.97	38464.36
501.14	38766.29
501.32	38925.45
501.49	38845.87
501.67	39281.21
501.84	38824.81
502.02	39360.79
502.20	39789.11
502.37	39402.92
502.55	39496.54
502.72	39693.15
502.90	39646.33
503.07	40025.50
503.25	39901.45
503.43	40121.46
503.60	40449.14
503.78	40547.44
503.95	40713.62
504.13	40842.35
504.30	40753.41
504.48	40662.13
504.65	41134.92
504.83	41691.96
505.01	41516.42
505.18	41790.27
505.36	41949.42
505.53	41287.05
505.71	41738.77
505.88	41961.12
506.06	41823.03
506.23	42197.52
506.41	42307.52
506.58	42246.67
506.76	42504.13
506.93	42895.00
507.11	42962.87
507.28	43000.32
507.46	43150.12
507.63	43402.89
507.81	43702.48
507.98	43650.99
508.16	43758.66
508.33	43704.82
508.50	44039.52
508.68	44313.36
508.85	44453.79
509.03	44421.03
509.20	44294.64
509.38	44662.10
509.55	44367.20
509.73	44793.17
509.90	44968.71
510.08	44683.17
510.25	45031.91
510.42	44844.66
510.60	45748.11
510.77	45745.77
510.95	45741.09
511.12	45780.88
511.30	45537.46
511.47	45792.58
511.64	45645.13
511.82	46375.37
511.99	45904.93
512.17	46298.14
512.34	46241.96
512.51	46625.81
512.69	46880.93
512.86	46724.11
513.04	46990.94
513.21	46913.70
513.38	47349.04
513.56	47384.15
513.73	47009.66
513.90	47288.18
514.08	47480.11
514.25	47550.32
514.43	47852.25
514.60	47746.93
514.77	47627.56
514.95	48257.17
515.12	48320.36
515.29	48137.80
515.47	48179.93
515.64	48568.46
515.81	48336.74
515.99	48673.78
516.16	48928.90
516.33	49013.16
516.51	49230.83
516.68	48854.00
516.85	48994.43
517.03	49368.92
517.20	49331.47
517.37	49434.45
517.54	49422.75
517.72	49621.70
517.89	49495.31
518.06	49677.87
518.24	49631.06
518.41	49602.97
518.58	49673.19
518.75	49755.11
518.93	49577.23
519.10	49652.12
519.27	50251.30
519.45	49848.73
519.62	50153.00
519.79	50405.78
519.96	50241.94
520.14	50309.82
520.31	50120.23
520.48	50841.12
520.65	50803.67
520.83	50934.74
521.00	51185.18
521.17	50813.03
521.34	50934.74
521.52	51398.16
521.69	51203.90
521.86	51227.31
522.03	51498.81
522.20	51669.67
522.38	51648.60
522.55	51901.38
522.72	51796.06
522.89	51957.55
523.07	51812.44
523.24	51985.64
523.41	52121.39
523.58	51866.27
523.75	52355.44
523.92	52397.57
524.10	52336.72
524.27	52378.85
524.44	52156.50
524.61	52062.88
524.78	52236.08
524.96	52378.85
525.13	52640.99
525.30	52573.11
525.47	52465.45
525.64	52971.00
525.81	52816.53
525.98	53181.65
526.16	52779.08
526.33	52711.20
526.50	53169.95
526.67	52872.70
526.84	53294.00
527.01	53441.45
527.18	53249.53
527.36	53315.06
527.53	53310.38
527.70	53649.76
527.87	53532.73
528.04	53497.62
528.21	53708.27
528.38	53563.16
528.55	53881.47
528.72	53563.16
528.89	53977.43
529.07	53731.68
529.24	53600.61
529.41	53886.15
529.58	53956.37
529.75	53963.39
529.92	54288.73
530.09	54475.97
530.26	54387.03
530.43	54464.27
530.60	54206.81
530.77	54426.82
530.94	54562.57
531.11	54520.44
531.28	54314.47
531.46	54412.77
531.63	54602.36
531.80	54459.58
531.97	54672.57
532.14	54742.79
532.31	54705.34
532.48	54934.71
532.65	55161.75
532.82	54515.76
532.99	54705.34
533.16	54939.39
533.33	54955.78
533.50	55061.10
533.67	55206.22
533.84	54859.82
534.01	55358.35
534.18	55290.48
534.35	55447.29
534.52	55152.38
534.69	55414.52
534.86	55739.86
535.03	55143.02
535.20	55632.19
535.37	55835.82
535.54	55798.37
535.71	55636.87
535.88	55751.56
536.05	55838.16
536.22	55994.98
536.38	55863.91
536.55	55847.52
536.72	55948.17
536.89	55774.97
537.06	56004.34
537.23	56079.24
537.40	55812.41
537.57	55826.46
537.74	55835.82
537.91	56184.56
538.08	56016.04
538.25	55927.10
538.42	56203.28
538.59	56266.48
538.75	56240.73
538.92	56329.67
539.09	56463.08
539.26	56226.69
539.43	56547.34
539.60	56514.58
539.77	56442.02
539.94	56598.83
540.11	56446.70
540.28	56790.76
540.44	56552.02
540.61	56868.00
540.78	56821.19
540.95	56729.90
541.12	56797.78
541.29	56882.04
541.46	56821.19
541.62	56832.89
541.79	57193.33
541.96	56601.18
542.13	57027.15
542.30	56804.80
542.47	56985.02
542.63	56938.21
542.80	57277.59
542.97	57315.04
543.14	57485.90
543.31	57275.25
543.48	57549.09
543.64	57635.69
543.81	57549.09
543.98	57525.69
544.15	57607.61
544.32	57780.81
544.48	57869.75
544.65	57481.22
544.82	57609.95
544.99	57343.12
545.16	57750.38
545.32	57705.91
545.49	57724.63
545.66	57968.05
545.83	57991.45
546.00	58024.22
546.16	57888.47
546.33	57848.68
546.50	57762.08
546.67	57965.71
546.83	57708.25
547.00	58071.03
547.17	58094.44
547.34	58056.99
547.50	58171.67
547.67	58138.91
547.84	58134.23
548.00	58520.41
548.17	58307.43
548.34	58288.70
548.51	58511.05
548.67	58534.46
548.84	58405.73
549.01	58440.84
549.18	58625.74
549.34	58592.97
549.51	58686.59
549.68	58599.99
549.84	58707.66
550.01	58658.51
550.18	58602.33
550.34	58759.15
550.51	58759.15
550.68	58452.54
550.84	58372.96
551.01	58930.01
551.18	58740.42
551.34	58892.56
551.51	58705.32
551.68	58604.67
551.84	58791.92
552.01	58632.76
552.18	58862.13
552.34	58937.03
552.51	59028.31
552.68	58843.41
552.84	58712.34
553.01	59044.69
553.18	59068.10
553.34	59145.34
553.51	58944.05
553.67	59299.81
553.84	59096.19
554.01	59306.83
554.17	59512.80
554.34	59355.99
554.51	59133.63
554.67	59231.94
554.84	59028.31
555.00	59253.00
555.17	59145.34
555.33	59304.49
555.50	59161.72
555.67	59257.68
555.83	59297.47
556.00	59285.77
556.16	59576.00
556.33	59477.69
556.50	59501.10
556.66	59583.02
556.83	59309.18
556.99	59580.68
557.16	59889.63
557.32	59707.07
557.49	59854.52
557.65	59625.15
557.82	59517.48
557.98	59456.63
558.15	59746.86
558.32	59906.01
558.48	59800.69
558.65	59774.94
558.81	59608.76
558.98	59688.34
559.14	59796.01
559.31	59744.51
559.47	59931.76
559.64	60072.19
559.80	59819.41
559.97	60081.55
560.13	59849.84
560.30	60058.15
560.46	60147.09
560.63	60236.03
560.79	59978.57
560.96	60257.09
561.12	60027.72
561.29	59978.57
561.45	60252.41
561.61	59915.37
561.78	59924.74
561.94	59999.63
562.11	60107.30
562.27	59978.57
562.44	60196.24
562.60	60245.39
562.77	60259.43
562.93	60037.08
563.10	60020.70
563.26	60034.74
563.42	60390.50
563.59	60308.58
563.75	60032.40
563.92	60224.32
564.08	60161.13
564.24	60383.48
564.41	60236.03
564.57	60406.89
564.74	60250.07
564.90	60390.50
565.07	60264.11
565.23	60130.70
565.39	60261.77
565.56	60430.29
565.72	60245.39
565.88	60439.65
566.05	60257.09
566.21	60453.70
566.38	60413.91
566.54	60367.10
566.70	60617.53
566.87	60718.18
567.03	60310.92
567.19	60624.56
567.36	60432.63
567.52	60477.10
567.68	60786.05
567.85	60636.26
568.01	60673.71
568.17	60495.83
568.34	60568.38
568.50	60575.40
568.66	60608.17
568.83	60715.84
568.99	60647.96
569.15	60605.83
569.32	60774.35
569.48	60683.07
569.64	60846.91
569.81	60736.90
569.97	60547.32
570.13	60783.71
570.30	60699.45
570.46	60626.90
570.62	60968.61
570.78	60924.14
570.95	60526.25
571.11	60846.91
571.27	60528.59
571.43	60790.73
571.60	61020.11
571.76	60676.05
571.92	60975.64
572.09	60776.69
572.25	60757.97
572.41	60713.50
572.57	60804.78
572.74	61020.11
572.90	60910.10
573.06	60905.42
573.22	60884.36
573.38	60942.87
573.55	60886.70
573.71	61244.80
573.87	60942.87
574.03	60809.46
574.20	61015.43
574.36	60849.25
574.52	61055.21
574.68	61071.60
574.84	61214.37
575.01	61006.06
575.17	60940.53
575.33	61008.40
575.49	60926.49
575.65	61057.56
575.82	61034.15
575.98	61024.79
576.14	61235.44
576.30	61092.66
576.46	60940.53
576.62	60985.00
576.79	60980.32
576.95	60959.25
577.11	60956.91
577.27	61200.33
577.43	61006.06
577.59	60872.65
577.75	60989.68
577.92	61179.26
578.08	60968.61
578.24	60954.57
578.40	61165.22
578.56	61034.15
578.72	61024.79
578.88	61097.34
579.04	61118.41
579.21	61055.21
579.37	61174.58
579.53	61111.39
579.69	60924.14
579.85	61006.06
580.01	61062.24
580.17	61226.07
580.33	61097.34
580.49	61359.48
580.65	60945.21
580.82	60928.83
580.98	60893.72
581.14	61020.11
581.30	61216.71
581.46	61242.46
581.62	61080.96
581.78	61038.83
581.94	61300.97
582.10	61277.57
582.26	61237.78
582.42	61134.79
582.58	61186.28
582.74	61113.73
582.90	61073.94
583.06	61237.78
583.22	61003.72
583.38	61202.67
583.54	61104.37
583.70	61233.10
583.86	61137.13
584.02	61113.73
584.18	61378.21
584.34	61247.14
584.50	61172.24
584.66	61146.50
584.82	60912.44
584.98	61399.27
585.14	61275.22
585.30	61265.86
585.46	61315.01
585.62	61153.52
585.78	61373.53
585.94	61045.85
586.10	61155.86
586.26	61113.73
586.42	61595.88
586.58	61202.67
586.74	61242.46
586.90	61399.27
587.06	61043.51
587.22	61483.53
587.38	61193.31
587.54	61413.32
587.70	61427.36
587.86	61427.36
588.02	61361.82
588.18	61511.62
588.34	61422.68
588.49	61261.18
