SpectraSuite Data File
++++++++++++++++++++++++++++++++++++
Date: Fri Oct 25 11:25:03 EDT 2013
User: price-jones
Dark Spectrum Present: No
Reference Spectrum Present: No
Number of Sampled Component Spectra: 1
Spectrometers: USB2+H05261
Integration Time (usec): 100000 (USB2+H05261)
Spectra Averaged: 1 (USB2+H05261)
Boxcar Smoothing: 0 (USB2+H05261)
Correct for Electrical Dark: No (USB2+H05261)
Strobe/Lamp Enabled: No (USB2+H05261)
Correct for Detector Non-linearity: No (USB2+H05261)
Correct for Stray Light: No (USB2+H05261)
Number of Pixels in Processed Spectrum: 2048
>>>>>Begin Processed Spectral Data<<<<<
365.73	280.86
365.92	280.86
366.12	280.86
366.32	168.52
366.52	117.03
366.72	243.42
366.91	159.16
367.11	95.96
367.31	107.66
367.51	119.37
367.70	168.52
367.90	145.11
368.10	161.50
368.30	182.56
368.49	189.58
368.69	81.92
368.89	102.98
369.09	145.11
369.28	152.13
369.48	180.22
369.68	198.95
369.87	187.24
370.07	229.37
370.27	220.01
370.47	388.53
370.66	601.52
370.86	550.03
371.06	690.46
371.25	753.65
371.45	704.50
371.65	664.71
371.84	734.93
372.04	711.52
372.24	737.27
372.44	734.93
372.63	763.01
372.83	744.29
373.03	734.93
373.22	758.33
373.42	748.97
373.62	765.36
373.81	667.05
374.01	748.97
374.21	755.99
374.40	809.83
374.60	767.70
374.79	889.40
374.99	741.95
375.19	851.96
375.38	856.64
375.58	819.19
375.78	823.87
375.97	868.34
376.17	873.02
376.37	791.10
376.56	830.89
376.76	875.36
376.95	875.36
377.15	931.53
377.35	952.60
377.54	980.68
377.74	870.68
377.93	945.58
378.13	926.85
378.33	987.71
378.52	915.15
378.72	809.83
378.91	976.00
379.11	978.34
379.31	964.30
379.50	933.87
379.70	1067.28
379.89	985.37
380.09	1015.79
380.28	985.37
380.48	1053.24
380.68	915.15
380.87	1006.43
381.07	1050.90
381.26	966.64
381.46	1048.56
381.65	997.07
381.85	1118.78
382.04	1001.75
382.24	1025.15
382.43	1018.13
382.63	1004.09
382.83	1064.94
383.02	1139.84
383.22	1093.03
383.41	1128.14
383.61	1200.69
383.80	1123.46
384.00	1163.25
384.19	1118.78
384.39	1158.57
384.58	1174.95
384.78	1135.16
384.97	1081.33
385.17	1160.91
385.36	1149.20
385.56	1235.80
385.75	1233.46
385.95	1214.74
386.14	1226.44
386.34	1142.18
386.53	1144.52
386.72	1186.65
386.92	1181.97
387.11	1219.42
387.31	1217.08
387.50	1245.16
387.70	1228.78
387.89	1245.16
388.09	1296.66
388.28	1259.21
388.48	1306.02
388.67	1306.02
388.86	1350.49
389.06	1315.38
389.25	1371.55
389.45	1310.70
389.64	1245.16
389.84	1242.82
390.03	1439.43
390.22	1390.28
390.42	1324.74
390.61	1394.96
390.81	1416.02
391.00	1338.79
391.19	1392.62
391.39	1504.96
391.58	1460.49
391.78	1383.26
391.97	1467.52
392.16	1460.49
392.36	1528.37
392.55	1446.45
392.75	1521.35
392.94	1462.83
393.13	1521.35
393.33	1425.39
393.52	1474.54
393.71	1514.33
393.91	1586.88
394.10	1507.30
394.29	1629.01
394.49	1607.95
394.68	1666.46
394.88	1612.63
395.07	1647.74
395.26	1614.97
395.46	1706.25
395.65	1680.50
395.84	1764.76
396.04	1678.16
396.23	1755.40
396.42	1682.85
396.62	1783.49
396.81	1858.39
397.00	1760.08
397.19	1818.60
397.39	1827.96
397.58	1825.62
397.77	1792.85
397.97	1804.55
398.16	1893.49
398.35	1909.88
398.55	1935.62
398.74	1858.39
398.93	1961.37
399.12	2036.27
399.32	1888.81
399.51	1989.46
399.70	2047.97
399.90	2008.18
400.09	2015.20
400.28	2101.80
400.47	2059.67
400.67	2101.80
400.86	2111.16
401.05	2069.03
401.24	2092.44
401.44	2143.93
401.63	2218.83
401.82	2031.58
402.01	2038.61
402.21	2099.46
402.40	2076.06
402.59	2188.40
402.78	2232.87
402.97	2183.72
403.17	2228.19
403.36	2202.44
403.55	2228.19
403.74	2352.24
403.93	2427.14
404.13	2399.05
404.32	2424.80
404.51	2335.85
404.70	2354.58
404.89	2462.24
405.09	2586.29
405.28	2495.01
405.47	2518.42
405.66	2572.25
405.85	2558.21
406.05	2476.29
406.24	2569.91
406.43	2588.63
406.62	2677.57
406.81	2691.62
407.00	2656.51
407.20	2609.70
407.39	2548.84
407.58	2752.47
407.77	2612.04
407.96	2827.37
408.15	2722.04
408.34	2665.87
408.54	2827.37
408.73	2715.02
408.92	2792.26
409.11	2752.47
409.30	2958.44
409.49	2918.65
409.68	2869.50
409.87	2920.99
410.07	2911.63
410.26	3035.67
410.45	2970.14
410.64	3087.17
410.83	3023.97
411.02	3152.70
411.21	3042.70
411.40	3162.06
411.59	3246.32
411.78	3014.61
411.98	3279.09
412.17	3220.58
412.36	3309.52
412.55	3309.52
412.74	3435.91
412.93	3417.18
413.12	3440.59
413.31	3599.74
413.50	3375.05
413.69	3571.66
413.88	3627.83
414.07	3445.27
414.26	3728.47
414.45	3653.58
414.64	3639.53
414.83	3599.74
415.02	3798.69
415.22	3794.01
415.41	3770.60
415.60	3822.09
415.79	3859.54
415.98	3962.53
416.17	3983.59
416.36	3901.67
416.55	3885.29
416.74	4128.70
416.93	4074.87
417.12	4140.41
417.31	4248.07
417.50	4093.60
417.69	4334.67
417.88	4297.22
418.07	4266.80
418.26	4271.48
418.45	4297.22
418.64	4535.96
418.83	4454.04
419.02	4367.44
419.21	4423.61
419.39	4526.60
419.58	4447.02
419.77	4477.44
419.96	4531.28
420.15	4479.79
420.34	4528.94
420.53	4430.63
420.72	4645.96
420.91	4732.56
421.10	4681.07
421.29	4725.54
421.48	4704.48
421.67	4936.19
421.86	4737.24
422.05	4812.14
422.24	4760.65
422.43	4713.84
422.61	4830.87
422.80	4903.42
422.99	4952.57
423.18	5020.45
423.37	5032.15
423.56	4854.27
423.75	4999.38
423.94	4926.83
424.13	4498.51
424.32	4629.58
424.50	4887.04
424.69	4992.36
424.88	5046.20
425.07	4943.21
425.26	4910.44
425.45	5043.85
425.64	4877.68
425.83	5036.83
426.01	5069.60
426.20	5027.47
426.39	5039.17
426.58	4975.98
426.77	4894.06
426.96	5060.24
427.15	5165.56
427.33	5275.57
427.52	5165.56
427.71	5156.20
427.90	5167.90
428.09	5441.75
428.28	5303.65
428.46	5348.12
428.65	5371.53
428.84	5526.00
429.03	5596.22
429.22	5254.50
429.40	5331.74
429.59	5214.71
429.78	5376.21
429.97	5200.67
430.16	5502.60
430.34	5507.28
430.53	5710.91
430.72	5579.84
430.91	5537.71
431.10	5600.90
431.28	5893.47
431.47	5717.93
431.66	5884.11
431.85	5738.99
432.03	5750.70
432.22	5947.30
432.41	5806.87
432.60	5916.87
432.79	5809.21
432.97	5942.62
433.16	6118.16
433.35	5966.03
433.54	6188.38
433.72	6155.61
433.91	6078.37
434.10	6078.37
434.28	6209.44
434.47	6146.25
434.66	6338.17
434.85	6246.89
435.03	6171.99
435.22	6193.06
435.41	6445.84
435.59	6218.80
435.78	6359.24
435.97	6399.02
436.16	6331.15
436.34	6441.15
436.53	6562.86
436.72	6534.78
436.90	6277.32
437.09	6558.18
437.28	6490.31
437.46	6661.16
437.65	6509.03
437.84	6572.22
438.02	6717.34
438.21	6832.02
438.40	6686.91
438.58	6911.60
438.77	7021.61
438.96	7019.27
439.14	7014.59
439.33	6972.46
439.52	7124.59
439.70	7157.36
439.89	7342.26
440.08	7339.92
440.26	7166.72
440.45	7286.09
440.63	7487.37
440.82	7665.25
441.01	7531.84
441.19	7613.76
441.38	7801.01
441.57	7655.89
441.75	7599.72
441.94	7611.42
442.12	7901.65
442.31	7946.12
442.50	7990.59
442.68	7925.05
442.87	8095.91
443.05	7960.16
443.24	8170.81
443.43	7997.61
443.61	8191.88
443.80	8304.22
443.98	7985.91
444.17	7700.36
444.35	7964.84
444.54	8432.95
444.73	8201.24
444.91	8271.45
445.10	8470.40
445.28	8297.20
445.47	8325.29
445.65	8285.50
445.84	8456.36
446.02	8397.84
446.21	8222.30
446.39	8187.19
446.58	8388.48
446.77	8592.11
446.95	8271.45
447.14	8322.94
447.32	8475.08
447.51	8557.00
447.69	8432.95
447.88	8411.89
448.06	8344.01
448.25	8599.13
448.43	8608.49
448.62	8521.89
448.80	8458.70
448.99	8889.35
449.17	8568.70
449.36	8730.20
449.54	8697.43
449.73	8704.45
449.91	8919.78
450.10	8746.58
450.28	9074.26
450.46	9097.66
450.65	8819.14
450.83	9046.17
451.02	8987.66
451.20	9160.86
451.39	9111.71
451.57	9191.28
451.76	9069.58
451.94	8980.64
452.13	9322.35
452.31	9125.75
452.49	9074.26
452.68	9322.35
452.86	9240.44
453.05	9373.85
453.23	9535.34
453.42	9437.04
453.60	9378.53
453.78	9322.35
453.97	9366.82
454.15	9327.03
454.34	9451.08
454.52	9851.31
454.70	9724.93
454.89	9600.88
455.07	9680.46
455.26	9748.33
455.44	9944.94
455.62	9760.03
455.81	9696.84
455.99	9841.95
456.17	10136.86
456.36	9905.15
456.54	10237.50
456.73	10181.33
456.91	10410.70
457.09	10359.21
457.28	10478.58
457.46	10422.41
457.64	10647.10
457.83	10459.85
458.01	10516.03
458.19	10871.79
458.38	10717.31
458.56	10696.25
458.74	10621.35
458.93	10588.58
459.11	10740.72
459.29	10640.08
459.48	10721.99
459.66	10939.66
459.84	10932.64
460.03	11117.54
460.21	11028.60
460.39	10806.25
460.57	10902.22
460.76	11075.42
460.94	11101.16
461.12	11138.61
461.31	11220.53
461.49	10958.39
461.67	11286.06
461.85	11281.38
462.04	11178.40
462.22	11700.34
462.40	11335.21
462.59	11407.77
462.77	11353.94
462.95	11543.52
463.13	11480.33
463.32	11646.51
463.50	11686.29
463.68	11571.61
463.86	11868.86
464.05	11412.45
464.23	11740.13
464.41	11726.08
464.59	11688.64
464.78	11840.77
464.96	11866.52
465.14	11784.60
465.32	12016.31
465.50	11969.50
465.69	12203.55
465.87	12208.23
466.05	11915.67
466.23	12081.85
466.41	12187.17
466.60	12334.62
466.78	12084.19
466.96	12353.35
467.14	12411.86
467.32	12545.27
467.51	12313.56
467.69	12233.98
467.87	12334.62
468.05	12498.46
468.23	12353.35
468.41	12355.69
468.60	12346.33
468.78	12666.98
468.96	12500.80
469.14	12702.09
469.32	13060.19
469.50	12573.36
469.69	13029.76
469.87	12795.71
470.05	13090.62
470.23	12992.31
470.41	13041.46
470.59	13160.83
470.77	13163.17
470.95	12999.34
471.14	13612.56
471.32	12968.91
471.50	13654.69
471.68	13422.97
471.86	13605.53
472.04	13582.13
472.22	13987.04
472.40	13504.89
472.58	13668.73
472.77	13914.48
472.95	14127.47
473.13	14349.82
473.31	13980.02
473.49	13795.12
473.67	13816.18
473.85	14406.00
474.03	14593.24
474.21	14572.18
474.39	14731.33
474.57	14384.93
474.75	14656.43
474.93	14759.42
475.12	14768.78
475.30	14941.98
475.48	14827.29
475.66	15000.49
475.84	15131.56
476.02	15215.82
476.20	15463.92
476.38	15716.70
476.56	16009.26
476.74	15798.62
476.92	15719.04
477.10	15679.25
477.28	15791.59
477.46	16006.92
477.64	15988.20
477.82	16582.70
478.00	16610.78
478.18	16463.33
478.36	16856.54
478.54	17111.66
478.72	16922.07
478.90	17238.05
479.08	17547.00
479.26	17638.28
479.44	17617.21
479.62	17612.53
479.80	17980.00
479.98	18080.64
480.16	18349.80
480.34	18160.22
480.52	18553.43
480.70	18300.65
480.88	18211.71
481.06	18747.69
481.24	18743.01
481.41	19021.53
481.59	19070.68
481.77	19323.46
481.95	19513.05
482.13	19548.15
482.31	19328.14
482.49	20163.72
482.67	20372.02
482.85	20102.86
483.03	20463.30
483.21	20498.41
483.39	21008.65
483.57	20634.16
483.74	20931.41
483.92	21734.21
484.10	21109.29
484.28	21553.99
484.46	22029.12
484.64	21996.35
484.82	21867.63
485.00	22235.09
485.18	22745.33
485.35	22831.93
485.53	22712.56
485.71	22955.97
485.89	23508.34
486.07	23159.60
486.25	23168.96
486.43	23590.26
486.61	23665.16
486.78	23641.75
486.96	24231.57
487.14	24477.32
487.32	24680.95
487.50	25081.18
487.68	24760.53
487.85	24987.56
488.03	25216.93
488.21	25380.77
488.39	25436.94
488.57	25970.58
488.75	25958.88
488.92	26651.68
489.10	26391.88
489.28	26536.99
489.46	27168.94
489.64	26766.37
489.81	27417.04
489.99	27707.26
490.17	27613.64
490.35	28030.26
490.53	28584.96
490.70	28245.58
490.88	28287.71
491.06	28491.34
491.24	28891.57
491.41	29202.86
491.59	28819.02
491.77	28830.72
491.95	29532.88
492.13	29570.33
492.30	29638.20
492.48	29731.83
492.66	30181.21
492.84	30178.87
493.01	30661.02
493.19	30859.96
493.37	30869.33
493.54	30916.14
493.72	31271.90
493.90	30976.99
494.08	32252.58
494.25	31768.09
494.43	31576.17
494.61	32086.40
494.79	32275.99
494.96	32348.54
495.14	32716.01
495.32	33039.00
495.49	32699.62
495.67	33181.77
495.85	33221.56
496.02	34029.05
496.20	33553.92
496.38	33720.10
496.55	34352.04
496.73	34405.88
496.91	34256.08
497.09	34733.55
497.26	34876.32
497.44	34834.19
497.62	34822.49
497.79	35077.61
497.97	35503.59
498.14	35784.45
498.32	35681.47
498.50	36304.05
498.67	36512.36
498.85	36058.29
499.03	36407.03
499.20	36472.57
499.38	36498.31
499.56	37055.36
499.73	37076.43
499.91	37062.38
500.08	37368.99
500.26	37226.22
500.44	37413.46
500.61	37642.84
500.79	37535.17
500.97	38022.00
501.14	38368.40
501.32	38572.03
501.49	37844.12
501.67	38527.56
501.84	39372.49
502.02	38778.00
502.20	38522.88
502.37	38707.78
502.55	39407.60
502.72	39400.58
502.90	39580.80
503.07	39489.52
503.25	39391.22
503.43	39704.85
503.60	39978.69
503.78	39950.60
503.95	39821.87
504.13	40458.50
504.30	40559.14
504.48	40500.63
504.65	40446.80
504.83	40875.12
505.01	41123.21
505.18	40685.53
505.36	41043.63
505.53	41261.30
505.71	41006.19
505.88	41198.11
506.06	41263.64
506.23	41794.95
506.41	41570.25
506.58	41986.87
506.76	41975.17
506.93	42209.22
507.11	42131.98
507.28	42689.03
507.46	43058.84
507.63	42705.41
507.81	43030.75
507.98	42396.46
508.16	43122.03
508.33	43491.83
508.50	43569.07
508.68	43529.28
508.85	43475.45
509.03	43533.96
509.20	44259.53
509.38	44034.84
509.55	44135.48
509.73	44261.87
509.90	44292.30
510.08	44116.76
510.25	44526.35
510.42	44591.89
510.60	44397.62
510.77	44734.66
510.95	45324.47
511.12	44830.62
511.30	45076.38
511.47	45588.95
511.64	45221.49
511.82	45509.38
511.99	45869.82
512.17	45666.19
512.34	45933.01
512.51	46122.60
512.69	46410.48
512.86	46057.06
513.04	46358.99
513.21	45888.54
513.38	46625.81
513.56	47014.34
513.73	46461.97
513.90	46581.34
514.08	46581.34
514.25	47246.05
514.43	47129.03
514.60	47210.95
514.77	46995.62
514.95	47194.56
515.12	47290.52
515.29	47583.09
515.47	47746.93
515.64	47973.96
515.81	47599.47
515.99	47915.45
516.16	48332.06
516.33	48268.87
516.51	48406.96
516.68	48191.63
516.85	48318.02
517.03	49003.80
517.20	49083.37
517.37	48442.07
517.54	48610.59
517.72	48774.42
517.89	48846.98
518.06	48879.75
518.24	49006.14
518.41	49059.97
518.58	49579.57
518.75	48739.32
518.93	49418.07
519.10	49490.63
519.27	49734.04
519.45	49539.78
519.62	49865.11
519.79	49605.31
519.96	49591.27
520.14	49968.10
520.31	49996.18
520.48	50314.50
520.65	50066.40
520.83	50251.30
521.00	50604.72
521.17	50637.49
521.34	50525.14
521.52	50370.67
521.69	50646.85
521.86	50642.17
522.03	50845.80
522.20	50749.84
522.38	51217.94
522.55	50941.76
522.72	51021.34
522.89	51180.49
523.07	51529.23
523.24	51718.82
523.41	51634.56
523.58	51334.97
523.75	51601.79
523.92	51882.66
524.10	51814.78
524.27	51753.93
524.44	51849.89
524.61	52076.92
524.78	52147.14
524.96	52516.94
525.13	52086.28
525.30	52502.90
525.47	52292.25
525.64	52177.56
525.81	52582.48
525.98	52713.55
526.16	52163.52
526.33	52376.51
526.50	52961.64
526.67	52383.53
526.84	52938.24
527.01	52776.74
527.18	52846.96
527.36	52898.45
527.53	52926.53
527.70	53286.98
527.87	53216.76
528.04	53167.61
528.21	53205.06
528.38	52875.04
528.55	53614.65
528.72	53141.86
528.89	53432.09
529.07	53066.97
529.24	53621.67
529.41	53345.49
529.58	53144.20
529.75	53544.44
529.92	53717.64
530.09	53666.14
530.26	53628.69
530.43	53860.41
530.60	53607.63
530.77	53792.53
530.94	54131.91
531.11	53897.86
531.28	53958.71
531.46	54080.42
531.63	53951.69
531.80	54052.33
531.97	54548.53
532.14	54611.72
532.31	54380.01
532.48	54506.40
532.65	54426.82
532.82	54115.53
532.99	54560.23
533.16	54471.29
533.33	54618.74
533.50	54705.34
533.67	54787.26
533.84	54452.56
534.01	54389.37
534.18	54780.24
534.35	55035.36
534.52	54869.18
534.69	55002.59
534.86	55248.35
535.03	54927.69
535.20	55065.78
535.37	55182.81
535.54	54986.21
535.71	54946.42
535.88	55444.95
536.05	55173.45
536.22	55196.85
536.38	55381.76
536.55	55451.97
536.72	55238.98
536.89	55206.22
537.06	55318.56
537.23	55671.98
537.40	55512.83
537.57	55475.38
537.74	55718.79
537.91	55664.96
538.08	55704.75
538.25	55533.89
538.42	55791.35
538.59	55896.67
538.75	55737.52
538.92	55887.31
539.09	56011.36
539.26	56102.64
539.43	55880.29
539.60	55950.51
539.77	56224.35
539.94	56299.25
540.11	56402.23
540.28	56287.54
540.44	56275.84
540.61	56259.46
540.78	56147.11
540.95	56257.12
541.12	56034.77
541.29	56479.47
541.46	56390.53
541.62	56404.57
541.79	56554.36
541.96	56154.13
542.13	56502.87
542.30	56470.11
542.47	56769.69
542.63	56849.27
542.80	57088.01
542.97	56994.39
543.14	57179.29
543.31	56919.49
543.48	57116.09
543.64	57329.08
543.81	57069.28
543.98	57045.88
544.15	57169.93
544.32	57497.60
544.48	57361.85
544.65	57200.35
544.82	57254.18
544.99	57205.03
545.16	57366.53
545.32	57303.34
545.49	57553.77
545.66	57469.51
545.83	57373.55
546.00	57483.56
546.16	57535.05
546.33	57516.32
546.50	57036.51
546.67	57591.22
546.83	57425.04
547.00	57441.43
547.17	57551.43
547.34	57799.53
547.50	57858.04
547.67	58157.63
547.84	57815.91
548.00	57764.42
548.17	58007.84
548.34	57916.56
548.51	58171.67
548.67	57932.94
548.84	58239.55
549.01	57991.45
549.18	58059.33
549.34	58157.63
549.51	58300.40
549.68	58265.30
549.84	58316.79
550.01	58300.40
550.18	58035.92
550.34	58192.74
550.51	58253.59
550.68	58213.80
550.84	58045.29
551.01	58482.97
551.18	58504.03
551.34	58302.74
551.51	58553.18
551.68	58389.34
551.84	58525.10
552.01	58520.41
552.18	58426.79
552.34	58466.58
552.51	58777.87
552.68	58522.76
552.84	58560.20
553.01	58850.43
553.18	58590.63
553.34	58789.58
553.51	58679.57
553.67	58614.04
553.84	58920.65
554.01	58827.02
554.17	58728.72
554.34	58873.84
554.51	59082.14
554.67	58965.12
554.84	58976.82
555.00	58836.39
555.17	58845.75
555.33	58930.01
555.50	58859.79
555.67	58974.48
555.83	58873.84
556.00	59011.93
556.16	59058.74
556.33	59281.09
556.50	59267.05
556.66	58997.88
556.83	59098.53
556.99	59306.83
557.16	59426.20
557.32	59245.98
557.49	59372.37
557.65	59217.89
557.82	59285.77
557.98	59274.07
558.15	59334.92
558.32	59372.37
558.48	58920.65
558.65	59281.09
558.81	59512.80
558.98	59559.61
559.14	59557.27
559.31	59707.07
559.47	59496.42
559.64	59407.48
559.80	59358.33
559.97	59522.16
560.13	59615.79
560.30	59587.70
560.46	59728.13
560.63	59592.38
560.79	59678.98
560.96	59686.00
561.12	59714.09
561.29	59877.93
561.45	59896.65
561.61	59629.83
561.78	59898.99
561.94	59725.79
562.11	59831.11
562.27	59791.33
562.44	59620.47
562.60	59868.56
562.77	59618.13
562.93	59599.40
563.10	59924.74
563.26	59678.98
563.42	60154.11
563.59	59927.08
563.75	59753.88
563.92	59803.03
564.08	60011.34
564.24	60200.92
564.41	60179.85
564.57	60039.42
564.74	59896.65
564.90	59955.16
565.07	59980.91
565.23	59997.29
565.39	60055.81
565.56	60114.32
565.72	59875.58
565.88	60104.96
566.05	60114.32
566.21	60097.94
566.38	60102.62
566.54	60074.53
566.70	60280.50
566.87	60154.11
567.03	59931.76
567.19	60292.20
567.36	60343.69
567.52	60093.25
567.68	60437.31
567.85	60285.18
568.01	60573.06
568.17	60390.50
568.34	60306.24
568.50	60264.11
568.66	60252.41
568.83	60654.98
568.99	60140.07
569.15	60114.32
569.32	60317.95
569.48	60364.76
569.64	60236.03
569.81	60360.08
569.97	60214.96
570.13	60172.83
570.30	60119.00
570.46	60383.48
570.62	60554.34
570.78	60357.74
570.95	60434.97
571.11	60392.84
571.27	60083.89
571.43	60509.87
571.60	60512.21
571.76	60397.52
571.92	60580.09
572.09	60418.59
572.25	60474.76
572.41	60650.30
572.57	60446.68
572.74	60659.66
572.90	60512.21
573.06	60594.13
573.22	60495.83
573.38	60638.60
573.55	60720.52
573.71	60673.71
573.87	60645.62
574.03	60299.22
574.20	60500.51
574.36	60444.33
574.52	60615.19
574.68	60732.22
574.84	60685.41
575.01	60540.30
575.17	60727.54
575.33	60479.44
575.49	60596.47
575.65	60844.57
575.82	60715.84
575.98	60685.41
576.14	60931.17
576.30	60657.32
576.46	60626.90
576.62	60507.53
576.79	60683.07
576.95	60509.87
577.11	60631.58
577.27	60563.70
577.43	60940.53
577.59	60683.07
577.75	60580.09
577.92	60610.51
578.08	60713.50
578.24	60760.31
578.40	60701.79
578.56	60797.76
578.72	60746.26
578.88	60743.92
579.04	60977.98
579.21	60699.45
579.37	60886.70
579.53	60837.54
579.69	60526.25
579.85	60404.55
580.01	60645.62
580.17	60507.53
580.33	60849.25
580.49	60774.35
580.65	60926.49
580.82	60697.11
580.98	60760.31
581.14	60697.11
581.30	61300.97
581.46	60722.86
581.62	60814.14
581.78	60762.65
581.94	60837.54
582.10	60718.18
582.26	60746.26
582.42	60673.71
582.58	60980.32
582.74	60495.83
582.90	60956.91
583.06	60750.94
583.22	60626.90
583.38	60821.16
583.54	60643.28
583.70	60816.48
583.86	60959.25
584.02	60762.65
584.18	61034.15
584.34	60828.18
584.50	60734.56
584.66	60921.80
584.82	60753.29
584.98	61144.16
585.14	60828.18
585.30	60764.99
585.46	60968.61
585.62	60968.61
585.78	60980.32
585.94	60734.56
586.10	60903.08
586.26	61003.72
586.42	61052.87
586.58	60912.44
586.74	61071.60
586.90	60832.86
587.06	60926.49
587.22	61038.83
587.38	60853.93
587.54	60900.74
587.70	61186.28
587.86	61095.00
588.02	60896.06
588.18	61055.21
588.34	60992.02
588.49	60910.10
