SpectraSuite Data File
++++++++++++++++++++++++++++++++++++
Date: Fri Oct 25 11:33:39 EDT 2013
User: price-jones
Dark Spectrum Present: No
Reference Spectrum Present: No
Number of Sampled Component Spectra: 1
Spectrometers: USB2+H05261
Integration Time (usec): 100000 (USB2+H05261)
Spectra Averaged: 1 (USB2+H05261)
Boxcar Smoothing: 0 (USB2+H05261)
Correct for Electrical Dark: No (USB2+H05261)
Strobe/Lamp Enabled: No (USB2+H05261)
Correct for Detector Non-linearity: No (USB2+H05261)
Correct for Stray Light: No (USB2+H05261)
Number of Pixels in Processed Spectrum: 2048
>>>>>Begin Processed Spectral Data<<<<<
365.73	325.33
365.92	325.33
366.12	325.33
366.32	177.88
366.52	142.77
366.72	220.01
366.91	166.18
367.11	142.77
367.31	128.73
367.51	102.98
367.70	149.79
367.90	187.24
368.10	194.26
368.30	191.92
368.49	152.13
368.69	215.33
368.89	224.69
369.09	184.90
369.28	187.24
369.48	177.88
369.68	229.37
369.87	215.33
370.07	220.01
370.27	283.20
370.47	238.73
370.66	510.24
370.86	482.15
371.06	603.86
371.25	552.37
371.45	514.92
371.65	587.47
371.84	547.69
372.04	531.30
372.24	528.96
372.44	587.47
372.63	601.52
372.83	641.31
373.03	603.86
373.22	521.94
373.42	681.10
373.62	573.43
373.81	650.67
374.01	610.88
374.21	674.07
374.40	702.16
374.60	645.99
374.79	606.20
374.99	645.99
375.19	697.48
375.38	723.23
375.58	692.80
375.78	683.44
375.97	617.90
376.17	685.78
376.37	685.78
376.56	704.50
376.76	596.84
376.95	608.54
377.15	653.01
377.35	667.05
377.54	699.82
377.74	695.14
377.93	685.78
378.13	727.91
378.33	732.59
378.52	741.95
378.72	697.48
378.91	699.82
379.11	737.27
379.31	758.33
379.50	690.46
379.70	725.57
379.89	779.40
380.09	692.80
380.28	669.39
380.48	767.70
380.68	671.73
380.87	695.14
381.07	805.14
381.26	737.27
381.46	737.27
381.65	772.38
381.85	828.55
382.04	760.67
382.24	765.36
382.43	753.65
382.63	793.44
382.83	812.17
383.02	809.83
383.22	842.59
383.41	781.74
383.61	706.84
383.80	837.91
384.00	774.72
384.19	767.70
384.39	826.21
384.58	786.42
384.78	791.10
384.97	844.93
385.17	770.04
385.36	786.42
385.56	767.70
385.75	819.19
385.95	868.34
386.14	908.13
386.34	896.43
386.53	833.23
386.72	858.98
386.92	873.02
387.11	884.72
387.31	903.45
387.50	880.04
387.70	882.38
387.89	910.47
388.09	938.55
388.28	882.38
388.48	917.49
388.67	896.43
388.86	964.30
389.06	954.94
389.25	943.24
389.45	1008.77
389.64	936.21
389.84	983.02
390.03	1018.13
390.22	990.05
390.42	938.55
390.61	936.21
390.81	1011.11
391.00	1015.79
391.19	992.39
391.39	1004.09
391.58	1029.84
391.78	1097.71
391.97	1032.18
392.16	1046.22
392.36	1022.81
392.55	1071.97
392.75	999.41
392.94	1071.97
393.13	1116.44
393.33	1048.56
393.52	1104.73
393.71	1064.94
393.91	1050.90
394.10	1114.10
394.29	1125.80
394.49	1053.24
394.68	1151.54
394.88	1104.73
395.07	1097.71
395.26	1146.86
395.46	1177.29
395.65	1226.44
395.84	1053.24
396.04	1224.10
396.23	1151.54
396.42	1238.14
396.62	1273.25
396.81	1181.97
397.00	1252.19
397.19	1266.23
397.39	1231.12
397.58	1212.40
397.77	1174.95
397.97	1329.42
398.16	1291.98
398.35	1336.45
398.55	1249.85
398.74	1387.94
398.93	1362.19
399.12	1322.40
399.32	1287.29
399.51	1282.61
399.70	1380.92
399.90	1423.05
400.09	1345.81
400.28	1359.85
400.47	1455.81
400.67	1348.15
400.86	1352.83
401.05	1430.07
401.24	1352.83
401.44	1486.24
401.63	1387.94
401.82	1425.39
402.01	1474.54
402.21	1451.13
402.40	1458.15
402.59	1577.52
402.78	1460.49
402.97	1488.58
403.17	1568.16
403.36	1523.69
403.55	1568.16
403.74	1530.71
403.93	1535.39
404.13	1699.23
404.32	1619.65
404.51	1547.09
404.70	1629.01
404.89	1664.12
405.09	1619.65
405.28	1720.29
405.47	1666.46
405.66	1706.25
405.85	1682.85
406.05	1673.48
406.24	1753.06
406.43	1790.51
406.62	1778.81
406.81	1839.66
407.00	1788.17
407.20	1652.42
407.39	1809.23
407.58	1804.55
407.77	1802.21
407.96	1944.99
408.15	1813.92
408.34	1774.13
408.54	1872.43
408.73	1914.56
408.92	1870.09
409.11	1914.56
409.30	2003.50
409.49	1923.92
409.68	1966.05
409.87	2003.50
410.07	2115.84
410.26	1968.39
410.45	2045.63
410.64	2115.84
410.83	2024.56
411.02	2092.44
411.21	2122.87
411.40	2069.03
411.59	2209.47
411.78	2331.17
411.98	2139.25
412.17	2279.68
412.36	2258.62
412.55	2317.13
412.74	2333.51
412.93	2373.30
413.12	2356.92
413.31	2452.88
413.50	2385.01
413.69	2366.28
413.88	2546.50
414.07	2478.63
414.26	2504.37
414.45	2490.33
414.64	2574.59
414.83	2520.76
415.02	2560.55
415.22	2644.81
415.41	2745.45
415.60	2682.25
415.79	2628.42
415.98	2761.83
416.17	2747.79
416.36	2761.83
416.55	2572.25
416.74	2796.94
416.93	2647.15
417.12	2789.92
417.31	2810.98
417.50	2834.39
417.69	2925.67
417.88	3047.38
418.07	2993.55
418.26	2944.39
418.45	3038.02
418.64	3047.38
418.83	3047.38
419.02	3089.51
419.21	3122.27
419.39	3063.76
419.58	3201.85
419.77	3016.95
419.96	3098.87
420.15	3204.19
420.34	3197.17
420.53	3234.62
420.72	3239.30
420.91	3262.71
421.10	3342.28
421.29	3321.22
421.48	3248.66
421.67	3236.96
421.86	3318.88
422.05	3255.69
422.24	3344.63
422.43	3379.73
422.61	3361.01
422.80	3318.88
422.99	3534.21
423.18	3492.08
423.37	3363.35
423.56	3391.44
423.75	3316.54
423.94	3309.52
424.13	3176.11
424.32	3428.88
424.50	3480.38
424.69	3508.46
424.88	3489.74
425.07	3480.38
425.26	3342.28
425.45	3435.91
425.64	3489.74
425.83	3520.17
426.01	3506.12
426.20	3461.65
426.39	3517.83
426.58	3590.38
426.77	3585.70
426.96	3648.90
427.15	3564.64
427.33	3674.64
427.52	3520.17
427.71	3564.64
427.90	3688.68
428.09	3543.57
428.28	3749.54
428.46	3712.09
428.65	3648.90
428.84	3730.81
429.03	3836.14
429.22	3531.87
429.40	3730.81
429.59	3735.50
429.78	3595.06
429.97	3634.85
430.16	3859.54
430.34	3929.76
430.53	3950.82
430.72	3889.97
430.91	3934.44
431.10	3859.54
431.28	3934.44
431.47	4058.49
431.66	4037.42
431.85	3927.42
432.03	4138.07
432.22	4051.47
432.41	3929.76
432.60	4070.19
432.79	4086.58
432.97	4135.73
433.16	4086.58
433.35	4133.39
433.54	4163.81
433.72	4182.54
433.91	4198.92
434.10	4140.41
434.28	4245.73
434.47	4243.39
434.66	4159.13
434.85	4311.27
435.03	4205.94
435.22	4266.80
435.41	4449.36
435.59	4390.84
435.78	4444.68
435.97	4395.53
436.16	4505.53
436.34	4409.57
436.53	4425.95
436.72	4592.13
436.90	4374.46
437.09	4498.51
437.28	4535.96
437.46	4594.47
437.65	4547.66
437.84	4697.46
438.02	4561.70
438.21	4645.96
438.40	4660.01
438.58	4781.71
438.77	4863.63
438.96	4774.69
439.14	4945.55
439.33	4868.31
439.52	4882.36
439.70	4926.83
439.89	5151.52
440.08	5114.07
440.26	4966.62
440.45	5137.48
440.63	4975.98
440.82	5158.54
441.01	5170.24
441.19	5217.05
441.38	5193.65
441.57	5266.21
441.75	5188.97
441.94	5203.01
442.12	5352.81
442.31	5518.98
442.50	5394.93
442.68	5446.43
442.87	5591.54
443.05	5488.56
443.24	5647.71
443.43	5607.92
443.61	5472.17
443.80	5654.73
443.98	5547.07
444.17	5437.06
444.35	5556.43
444.54	5640.69
444.73	5554.09
444.91	5614.95
445.10	5549.41
445.28	5621.97
445.47	5504.94
445.65	5631.33
445.84	5692.18
446.02	5900.49
446.21	5720.27
446.39	5774.10
446.58	5841.98
446.77	5820.91
446.95	5621.97
447.14	5734.31
447.32	5781.12
447.51	5865.38
447.69	5715.59
447.88	5708.57
448.06	5710.91
448.25	5710.91
448.43	5736.65
448.62	5795.17
448.80	5724.95
448.99	5865.38
449.17	5987.09
449.36	6029.22
449.54	6118.16
449.73	6085.39
449.91	5951.98
450.10	6019.86
450.28	6038.58
450.46	6354.55
450.65	6230.51
450.83	6221.14
451.02	6125.18
451.20	6186.04
451.39	6129.86
451.57	6050.28
451.76	6047.94
451.94	6129.86
452.13	6305.40
452.31	6310.08
452.49	6333.49
452.68	6115.82
452.86	6188.38
453.05	6469.24
453.23	6502.01
453.42	6188.38
453.60	6244.55
453.78	6436.47
453.97	6270.30
454.15	6331.15
454.34	6384.98
454.52	6581.59
454.70	6520.73
454.89	6434.13
455.07	6548.82
455.26	6513.71
455.44	6768.83
455.62	6553.50
455.81	6609.67
455.99	6668.19
456.17	6722.02
456.36	6832.02
456.54	6857.77
456.73	6927.99
456.91	6925.65
457.09	7152.68
457.28	7157.36
457.46	7129.27
457.64	7241.62
457.83	7049.69
458.01	7068.42
458.19	7232.26
458.38	6993.52
458.56	7066.08
458.74	7162.04
458.93	7339.92
459.11	7276.73
459.29	7080.12
459.48	7157.36
459.66	7279.07
459.84	7346.94
460.03	7396.09
460.21	7573.97
460.39	7344.60
460.57	7400.77
460.76	7417.16
460.94	7485.03
461.12	7531.84
461.31	7719.09
461.49	7499.08
461.67	7489.71
461.85	7646.53
462.04	7545.89
462.22	8002.29
462.40	7751.85
462.59	7681.64
462.77	7686.32
462.95	7843.14
463.13	7822.07
463.32	7801.01
463.50	7981.23
463.68	7932.08
463.86	7826.75
464.05	7815.05
464.23	7978.89
464.41	7932.08
464.59	7688.66
464.78	8131.02
464.96	8131.02
465.14	7861.86
465.32	8124.00
465.50	8042.08
465.69	8215.28
465.87	8112.30
466.05	8182.51
466.23	8180.17
466.41	8313.58
466.60	8386.14
466.78	8238.69
466.96	8219.96
467.14	8159.11
467.32	8327.63
467.51	8430.61
467.69	7941.44
467.87	8056.12
468.05	8404.86
468.23	8367.42
468.41	8311.24
468.60	8486.78
468.78	8554.66
468.96	8503.17
469.14	8493.80
469.32	8702.11
469.50	8372.10
469.69	8730.20
469.87	8772.33
470.05	8697.43
470.23	8753.60
470.41	8889.35
470.59	8887.01
470.77	8709.13
470.95	8851.91
471.14	8926.80
471.32	8744.24
471.50	9121.07
471.68	8987.66
471.86	8961.91
472.04	9181.92
472.22	9233.41
472.40	9076.60
472.58	9179.58
472.77	9177.24
472.95	9301.29
473.13	9603.22
473.31	9488.53
473.49	9533.00
473.67	9261.50
473.85	9329.38
474.03	9645.35
474.21	9696.84
474.39	9619.60
474.57	9591.52
474.75	9811.53
474.93	10057.28
475.12	10052.60
475.30	10031.54
475.48	9806.84
475.66	10176.65
475.84	10071.33
476.02	10209.42
476.20	10160.27
476.38	10328.78
476.56	10651.78
476.74	10590.92
476.92	10558.16
477.10	10663.48
477.28	10841.36
477.46	10551.14
477.64	11101.16
477.82	10967.75
478.00	11131.59
478.18	11089.46
478.36	11262.66
478.54	11269.68
478.72	11070.73
478.90	11470.97
479.08	11676.93
479.26	11770.55
479.44	11571.61
479.62	11740.13
479.80	11826.73
479.98	11688.64
480.16	12210.57
480.34	12147.38
480.52	12432.93
480.70	12273.77
480.88	12219.94
481.06	12329.94
481.24	12432.93
481.41	12734.85
481.59	12571.02
481.77	12786.35
481.95	12875.29
482.13	12901.03
482.31	12989.97
482.49	13231.05
482.67	13453.40
482.85	13530.64
483.03	13579.79
483.21	13743.63
483.39	13909.80
483.57	13671.07
483.74	13785.76
483.92	13994.06
484.10	13893.42
484.28	14195.35
484.46	14492.60
484.64	14916.23
484.82	14476.21
485.00	14548.77
485.18	14829.63
485.35	15234.55
485.53	15023.90
485.71	15382.00
485.89	15524.77
486.07	15335.19
486.25	15552.86
486.43	15489.67
486.61	15742.44
486.78	15779.89
486.96	15946.07
487.14	15917.98
487.32	16318.22
487.50	16379.07
487.68	16580.36
487.85	16779.30
488.03	16601.42
488.21	17334.01
488.39	16929.09
488.57	17266.13
488.75	17114.00
488.92	17465.08
489.10	17839.56
489.28	17387.84
489.46	17661.68
489.64	17736.58
489.81	18235.11
489.99	18040.85
490.17	18024.47
490.35	18293.63
490.53	18452.78
490.70	18340.44
490.88	18728.97
491.06	19094.09
491.24	19080.05
491.41	18904.51
491.59	19119.84
491.77	19335.17
491.95	19381.98
492.13	19351.55
492.30	19735.40
492.48	19845.40
492.66	20252.66
492.84	19854.76
493.01	20175.42
493.19	20009.24
493.37	19988.18
493.54	20264.36
493.72	20547.56
493.90	20622.46
494.08	20915.03
494.25	20891.62
494.43	20898.64
494.61	21048.44
494.79	21427.60
494.96	21238.02
495.14	21467.39
495.32	21830.18
495.49	21865.28
495.67	21778.68
495.85	21872.31
496.02	22038.48
496.20	22174.24
496.38	22485.53
496.55	22714.90
496.73	22925.55
496.91	22513.61
497.09	22984.06
497.26	22946.61
497.44	22808.52
497.62	23452.17
497.79	23655.79
497.97	23344.50
498.14	23370.25
498.32	23648.77
498.50	23714.31
498.67	23754.10
498.85	23480.25
499.03	24233.91
499.20	23805.59
499.38	24311.14
499.56	24409.45
499.73	24404.77
499.91	24589.67
500.08	24730.10
500.26	24685.63
500.44	24542.86
500.61	24833.08
500.79	24793.29
500.97	25301.19
501.14	25102.25
501.32	25392.47
501.49	25692.06
501.67	25621.84
501.84	25366.73
502.02	25352.68
502.20	25799.73
502.37	25717.81
502.55	25893.35
502.72	25893.35
502.90	26024.42
503.07	26169.53
503.25	25848.88
503.43	26125.06
503.60	26324.01
503.78	26267.83
503.95	26597.85
504.13	26569.76
504.30	26815.52
504.48	27016.80
504.65	26810.84
504.83	27016.80
505.01	27070.64
505.18	27112.77
505.36	27459.16
505.53	27019.14
505.71	27475.55
505.88	27445.12
506.06	27538.74
506.23	27414.69
506.41	27772.80
506.58	27915.57
506.76	27789.18
506.93	27824.29
507.11	28128.56
507.28	27943.66
507.46	28510.07
507.63	28348.57
507.81	28599.01
507.98	28411.76
508.16	28400.06
508.33	28573.26
508.50	28943.06
508.68	28552.20
508.85	29130.31
509.03	28521.77
509.20	28744.12
509.38	29275.42
509.55	29202.86
509.73	29296.49
509.90	29764.59
510.08	29312.87
510.25	29350.32
510.42	29160.73
510.60	29575.01
510.77	29687.36
510.95	30382.49
511.12	29902.68
511.30	29858.21
511.47	30433.99
511.64	29909.71
511.82	30139.08
511.99	30476.12
512.17	30433.99
512.34	30441.01
512.51	30918.48
512.69	31040.18
512.86	30995.71
513.04	31075.29
513.21	30998.06
513.38	30911.46
513.56	31248.49
513.73	31110.40
513.90	31227.43
514.08	31243.81
514.25	31648.72
514.43	31962.36
514.60	31845.33
514.77	31522.34
514.95	31824.26
515.12	31737.66
515.29	31938.95
515.47	31908.52
515.64	32158.96
515.81	31910.86
515.99	32149.60
516.16	32385.99
516.33	32517.06
516.51	32837.72
516.68	32442.17
516.85	32687.92
517.03	32790.91
517.20	32648.13
517.37	32765.16
517.54	32531.11
517.72	32868.14
517.89	33081.13
518.06	33074.11
518.24	33172.41
518.41	33163.05
518.58	33207.52
518.75	33109.22
518.93	33301.14
519.10	33017.94
519.27	33670.95
519.45	33493.07
519.62	33560.94
519.79	33806.70
519.96	33787.97
520.14	33792.65
520.31	33570.30
520.48	33907.34
520.65	33729.46
520.83	34469.07
521.00	34408.22
521.17	34511.20
521.34	34506.52
521.52	34536.94
521.69	34628.23
521.86	34600.14
522.03	34857.60
522.20	35159.53
522.38	34948.88
522.55	35101.01
522.72	34668.02
522.89	34827.17
523.07	35110.38
523.24	35297.62
523.41	35618.27
523.58	35030.80
523.75	35615.93
523.92	35321.02
524.10	35564.44
524.27	35480.18
524.44	35826.58
524.61	35393.58
524.78	35908.50
524.96	35995.10
525.13	35716.58
525.30	36231.49
525.47	35976.37
525.64	35896.80
525.81	36416.40
525.98	36247.88
526.16	36067.66
526.33	36271.28
526.50	36912.59
526.67	35796.15
526.84	36708.96
527.01	36435.12
527.18	36662.15
527.36	36629.38
527.53	36877.48
527.70	36971.10
527.87	36786.20
528.04	36989.83
528.21	37230.90
528.38	37165.37
528.55	37532.83
528.72	37165.37
528.89	37406.44
529.07	36971.10
529.24	37132.60
529.41	37387.72
529.58	37720.07
529.75	37230.90
529.92	37553.90
530.09	37589.00
530.26	37780.93
530.43	37947.11
530.60	37502.40
530.77	38127.33
530.94	37780.93
531.11	37460.27
531.28	37900.29
531.46	38150.73
531.63	38562.67
531.80	38309.89
531.97	38258.40
532.14	38232.65
532.31	38305.21
532.48	38574.37
532.65	38391.81
532.82	38260.74
532.99	38433.94
533.16	38586.07
533.33	38443.30
533.50	38834.17
533.67	38590.75
533.84	38340.32
534.01	38567.35
534.18	38993.32
534.35	39421.64
534.52	39044.82
534.69	39164.18
534.86	39182.91
535.03	39477.82
535.20	39325.68
535.37	39295.25
535.54	39533.99
535.71	39669.74
535.88	39763.36
536.05	39655.70
536.22	40081.67
536.38	39409.94
536.55	39445.05
536.72	39751.66
536.89	39672.08
537.06	39641.65
537.23	40402.33
537.40	39388.88
537.57	39833.58
537.74	40060.61
537.91	40025.50
538.08	39880.39
538.25	40048.91
538.42	40067.63
538.59	40304.02
538.75	40332.11
538.92	40390.62
539.09	40355.52
539.26	40399.99
539.43	40208.06
539.60	40477.22
539.77	40556.80
539.94	41095.13
540.11	40779.15
540.28	41181.73
540.44	40818.94
540.61	40875.12
540.78	40524.04
540.95	40751.07
541.12	40666.81
541.29	40591.91
541.46	40886.82
541.62	41081.08
541.79	41034.27
541.96	40837.67
542.13	40952.35
542.30	41076.40
542.47	41050.66
542.63	41141.94
542.80	41698.98
542.97	42080.49
543.14	42064.11
543.31	41600.68
543.48	41935.38
543.64	42174.11
543.81	42007.94
543.98	42131.98
544.15	41944.74
544.32	41991.55
544.48	42440.93
544.65	42017.30
544.82	42534.56
544.99	41846.44
545.16	42368.38
545.32	42265.39
545.49	42780.31
545.66	42408.17
545.83	42293.48
546.00	42719.46
546.16	42679.67
546.33	41991.55
546.50	42389.44
546.67	43239.06
546.83	42609.45
547.00	42726.48
547.17	42534.56
547.34	42300.50
547.50	43058.84
547.67	43037.77
547.84	42658.60
548.00	43391.19
548.17	43393.53
548.34	43189.91
548.51	43550.35
548.67	43313.95
548.84	42969.90
549.01	43292.89
549.18	43098.62
549.34	43522.26
549.51	43583.12
549.68	43571.41
549.84	43358.42
550.01	43552.69
550.18	43435.66
550.34	43660.35
550.51	43658.01
550.68	43292.89
550.84	43604.18
551.01	44053.56
551.18	43281.19
551.34	44217.40
551.51	43391.19
551.68	43955.26
551.84	43976.33
552.01	44109.74
552.18	43789.08
552.34	43578.43
552.51	43985.69
552.68	43639.29
552.84	44025.48
553.01	44095.69
553.18	43641.63
553.34	44411.67
553.51	44198.68
553.67	44065.27
553.84	44435.07
554.01	44170.59
554.17	44460.82
554.34	44748.70
554.51	44669.12
554.67	44626.99
554.84	44488.90
555.00	44498.26
555.17	44554.44
555.33	44512.31
555.50	44795.51
555.67	44751.04
555.83	44657.42
556.00	44737.00
556.16	45315.11
556.33	44856.37
556.50	44825.94
556.66	44863.39
556.83	44428.05
556.99	44926.58
557.16	45130.21
557.32	45069.36
557.49	45038.93
557.65	45151.27
557.82	44704.23
557.98	45036.59
558.15	45228.51
558.32	45198.09
558.48	45088.08
558.65	45148.93
558.81	45331.50
558.98	45322.13
559.14	45120.85
559.31	45219.15
559.47	45139.57
559.64	45708.32
559.80	45221.49
559.97	45467.25
560.13	45291.71
560.30	46101.53
560.46	45612.36
560.63	45567.89
560.79	45844.07
560.96	45787.90
561.12	45654.49
561.29	45902.59
561.45	45497.67
561.61	45404.05
561.78	45357.24
561.94	45666.19
562.11	45436.82
562.27	46014.93
562.44	45546.82
562.60	45993.87
562.77	46232.60
562.93	45883.86
563.10	46012.59
563.26	45897.91
563.42	46335.59
563.59	45640.45
563.75	45879.18
563.92	45734.07
564.08	46064.08
564.24	46078.13
564.41	45970.46
564.57	45940.04
564.74	46511.13
564.90	46096.85
565.07	45851.09
565.23	45930.67
565.39	46061.74
565.56	46052.38
565.72	46178.77
565.88	45998.55
566.05	46356.65
566.21	46178.77
566.38	46094.51
566.54	46167.07
566.70	46607.09
566.87	46330.90
567.03	46103.87
567.19	46286.43
567.36	46014.93
567.52	46241.96
567.68	46461.97
567.85	46445.59
568.01	46330.90
568.17	46316.86
568.34	46691.35
568.50	46595.38
568.66	46148.34
568.83	46752.20
568.99	46248.99
569.15	46429.21
569.32	46932.42
569.48	46349.63
569.64	47051.79
569.81	46644.54
569.97	46747.52
570.13	46990.94
570.30	46342.61
570.46	46466.66
570.62	46239.62
570.78	46864.55
570.95	46555.60
571.11	46726.46
571.27	46483.04
571.43	46536.87
571.60	46536.87
571.76	46508.79
571.92	46923.06
572.09	46485.38
572.25	46749.86
572.41	46965.19
572.57	46782.63
572.74	47138.39
572.90	46822.42
573.06	46686.67
573.22	46902.00
573.38	47180.52
573.55	46897.31
573.71	47304.57
573.87	47049.45
574.03	47103.28
574.20	46878.59
574.36	47175.84
574.52	46735.82
574.68	46684.33
574.84	47313.93
575.01	46752.20
575.17	47316.27
575.33	46972.21
575.49	46684.33
575.65	46925.40
575.82	47232.01
575.98	47098.60
576.14	47339.68
576.30	47147.75
576.46	47388.83
576.62	47037.75
576.79	46990.94
576.95	46571.98
577.11	46780.29
577.27	47016.68
577.43	47044.77
577.59	46960.51
577.75	46934.76
577.92	46272.39
578.08	46869.23
578.24	47084.56
578.40	47386.49
578.56	47157.11
578.72	46904.34
578.88	47236.69
579.04	46841.14
579.21	46824.76
579.37	47131.37
579.53	47075.19
579.69	46759.22
579.85	46880.93
580.01	46892.63
580.17	46784.97
580.33	47082.22
580.49	47332.65
580.65	47356.06
580.82	46850.50
580.98	47122.01
581.14	46930.08
581.30	47136.05
581.46	47002.64
581.62	47056.47
581.78	47112.64
581.94	47068.17
582.10	46939.44
582.26	47292.86
582.42	47257.76
582.58	47154.77
582.74	47124.35
582.90	47372.44
583.06	47964.60
583.22	46920.72
583.38	47508.19
583.54	47281.16
583.70	47349.04
583.86	47243.71
584.02	46913.70
584.18	47505.85
584.34	47388.83
584.50	47517.56
584.66	47503.51
584.82	47421.59
584.98	47445.00
585.14	47409.89
585.30	47136.05
585.46	47246.05
585.62	47065.83
585.78	47419.25
585.94	46855.18
586.10	47723.52
586.26	47033.07
586.42	47253.08
586.58	47758.63
586.74	47342.02
586.90	46796.67
587.06	47440.32
587.22	47519.90
587.38	47140.73
587.54	47789.06
587.70	47854.59
587.86	47459.04
588.02	47253.08
588.18	47217.97
588.34	47477.77
588.49	47356.06
588.65	47159.45
588.81	47318.61
588.97	47283.50
589.13	47473.09
589.29	47739.91
589.45	47327.97
589.61	47562.03
589.77	47800.76
589.93	47700.12
