SpectraSuite Data File
++++++++++++++++++++++++++++++++++++
Date: Fri Oct 25 10:43:15 EDT 2013
User: price-jones
Dark Spectrum Present: No
Reference Spectrum Present: No
Number of Sampled Component Spectra: 1
Spectrometers: USB2+H05261
Integration Time (usec): 100000 (USB2+H05261)
Spectra Averaged: 1 (USB2+H05261)
Boxcar Smoothing: 0 (USB2+H05261)
Correct for Electrical Dark: No (USB2+H05261)
Strobe/Lamp Enabled: No (USB2+H05261)
Correct for Detector Non-linearity: No (USB2+H05261)
Correct for Stray Light: No (USB2+H05261)
Number of Pixels in Processed Spectrum: 2048
>>>>>Begin Processed Spectral Data<<<<<
365.73	107.66
365.92	107.66
366.12	107.66
366.32	7.02
366.52	14.04
366.72	0.00
366.91	18.72
367.11	18.72
367.31	18.72
367.51	39.79
367.70	11.70
367.90	44.47
368.10	0.00
368.30	0.00
368.49	0.00
368.69	77.24
368.89	53.83
369.09	39.79
369.28	23.41
369.48	70.22
369.68	91.28
369.87	117.03
370.07	105.32
370.27	161.50
370.47	175.54
370.66	341.72
370.86	411.93
371.06	414.27
371.25	486.83
371.45	320.65
371.65	496.19
371.84	351.08
372.04	468.11
372.24	393.21
372.44	463.43
372.63	468.11
372.83	456.40
373.03	423.64
373.22	475.13
373.42	437.68
373.62	585.13
373.81	526.62
374.01	606.20
374.21	543.00
374.40	531.30
374.60	557.05
374.79	463.43
374.99	585.13
375.19	606.20
375.38	580.45
375.58	561.73
375.78	596.84
375.97	606.20
376.17	657.69
376.37	557.05
376.56	631.94
376.76	526.62
376.95	601.52
377.15	580.45
377.35	681.10
377.54	744.29
377.74	716.20
377.93	620.24
378.13	643.65
378.33	664.71
378.52	674.07
378.72	653.01
378.91	664.71
379.11	622.58
379.31	594.50
379.50	622.58
379.70	709.18
379.89	669.39
380.09	667.05
380.28	610.88
380.48	664.71
380.68	692.80
380.87	765.36
381.07	774.72
381.26	643.65
381.46	638.97
381.65	683.44
381.85	650.67
382.04	718.54
382.24	720.88
382.43	758.33
382.63	734.93
382.83	772.38
383.02	657.69
383.22	753.65
383.41	718.54
383.61	662.37
383.80	781.74
384.00	755.99
384.19	830.89
384.39	812.17
384.58	821.53
384.78	821.53
384.97	786.42
385.17	826.21
385.36	718.54
385.56	746.63
385.75	772.38
385.95	828.55
386.14	840.25
386.34	816.85
386.53	842.59
386.72	898.77
386.92	880.04
387.11	889.40
387.31	873.02
387.50	866.00
387.70	915.15
387.89	791.10
388.09	959.62
388.28	877.70
388.48	840.25
388.67	973.66
388.86	943.24
389.06	961.96
389.25	936.21
389.45	1053.24
389.64	952.60
389.84	994.73
390.03	997.07
390.22	1062.60
390.42	1020.47
390.61	980.68
390.81	1114.10
391.00	983.02
391.19	1128.14
391.39	1074.31
391.58	1104.73
391.78	943.24
391.97	1001.75
392.16	938.55
392.36	990.05
392.55	1036.86
392.75	1029.84
392.94	952.60
393.13	1027.50
393.33	943.24
393.52	1067.28
393.71	1062.60
393.91	1062.60
394.10	1123.46
394.29	1111.75
394.49	1153.88
394.68	1238.14
394.88	1228.78
395.07	1320.06
395.26	1245.16
395.46	1179.63
395.65	1203.04
395.84	1266.23
396.04	1315.38
396.23	1247.51
396.42	1151.54
396.62	1228.78
396.81	1186.65
397.00	1203.04
397.19	1303.68
397.39	1273.25
397.58	1383.26
397.77	1416.02
397.97	1465.18
398.16	1568.16
398.35	1509.65
398.55	1469.86
398.74	1497.94
398.93	1476.88
399.12	1486.24
399.32	1409.00
399.51	1591.56
399.70	1640.72
399.90	1455.81
400.09	1589.22
400.28	1739.02
400.47	1659.44
400.67	1661.78
400.86	1617.31
401.05	1640.72
401.24	1732.00
401.44	1717.95
401.63	1736.68
401.82	1774.13
402.01	1767.10
402.21	1830.30
402.40	1661.78
402.59	1708.59
402.78	1647.74
402.97	1844.34
403.17	1776.47
403.36	1832.64
403.55	1797.53
403.74	1813.92
403.93	1858.39
404.13	1881.79
404.32	1877.11
404.51	1933.28
404.70	1856.04
404.89	1961.37
405.09	2026.90
405.28	1937.96
405.47	2043.29
405.66	1973.07
405.85	1970.73
406.05	1982.43
406.24	2040.95
406.43	2026.90
406.62	2059.67
406.81	2172.02
407.00	2024.56
407.20	2094.78
407.39	1989.46
407.58	2232.87
407.77	2230.53
407.96	2204.78
408.15	2279.68
408.34	2232.87
408.54	2321.81
408.73	2223.51
408.92	2270.32
409.11	2291.38
409.30	2277.34
409.49	2209.47
409.68	2258.62
409.87	2312.45
410.07	2207.13
410.26	2361.60
410.45	2324.15
410.64	2438.84
410.83	2544.16
411.02	2438.84
411.21	2513.74
411.40	2525.44
411.59	2597.99
411.78	2583.95
411.98	2562.89
412.17	2651.83
412.36	2712.68
412.55	2754.81
412.74	2778.22
412.93	2743.11
413.12	2661.19
413.31	2920.99
413.50	2810.98
413.69	2710.34
413.88	2972.48
414.07	2836.73
414.26	2857.79
414.45	3045.04
414.64	3059.08
414.83	3019.29
415.02	3000.57
415.22	3192.49
415.41	3108.23
415.60	3110.57
415.79	3227.60
415.98	3286.11
416.17	3293.13
416.36	3222.92
416.55	3171.43
416.74	3215.90
416.93	3225.26
417.12	3215.90
417.31	3330.58
417.50	3314.20
417.69	3522.51
417.88	3431.23
418.07	3496.76
418.26	3487.40
418.45	3508.46
418.64	3702.73
418.83	3555.27
419.02	3496.76
419.21	3637.19
419.39	3555.27
419.58	3508.46
419.77	3426.54
419.96	3644.21
420.15	3639.53
420.34	3714.43
420.53	3707.41
420.72	3868.91
420.91	3782.31
421.10	3950.82
421.29	3868.91
421.48	3899.33
421.67	3868.91
421.86	3758.90
422.05	3866.56
422.24	3796.35
422.43	3815.07
422.61	3803.37
422.80	3929.76
422.99	3899.33
423.18	4046.79
423.37	4044.45
423.56	3911.04
423.75	3913.38
423.94	3817.41
424.13	3609.11
424.32	3885.29
424.50	3908.69
424.69	3887.63
424.88	4035.08
425.07	3918.06
425.26	3882.95
425.45	3927.42
425.64	3971.89
425.83	3957.85
426.01	4018.70
426.20	4044.45
426.39	3981.25
426.58	3946.14
426.77	3999.98
426.96	3882.95
427.15	3962.53
427.33	3974.23
427.52	4149.77
427.71	4173.18
427.90	4245.73
428.09	4201.26
428.28	4184.88
428.46	4217.65
428.65	3988.27
428.84	4285.52
429.03	4250.41
429.22	4032.74
429.40	4145.09
429.59	4112.32
429.78	3971.89
429.97	4032.74
430.16	3978.91
430.34	4063.17
430.53	4091.26
430.72	4093.60
430.91	4161.47
431.10	4327.65
431.28	4531.28
431.47	4545.32
431.66	4695.11
431.85	4699.80
432.03	4542.98
432.22	4613.20
432.41	4627.24
432.60	4765.33
432.79	4575.75
432.97	4709.16
433.16	4887.04
433.35	4720.86
433.54	4648.30
433.72	4667.03
433.91	4528.94
434.10	4765.33
434.28	4795.76
434.47	4823.84
434.66	4840.23
434.85	4884.70
435.03	4954.91
435.22	4798.10
435.41	5156.20
435.59	4947.89
435.78	5191.31
435.97	5256.84
436.16	5097.69
436.34	5137.48
436.53	5310.68
436.72	5097.69
436.90	5032.15
437.09	5221.74
437.28	5114.07
437.46	5238.12
437.65	4997.04
437.84	5116.41
438.02	5256.84
438.21	5240.46
438.40	5160.88
438.58	5397.28
438.77	5291.95
438.96	5455.79
439.14	5650.05
439.33	5523.66
439.52	5612.60
439.70	5652.39
439.89	5675.80
440.08	5605.58
440.26	5736.65
440.45	5628.99
440.63	5851.34
440.82	5916.87
441.01	5863.04
441.19	5886.45
441.38	6176.67
441.57	6090.07
441.75	6125.18
441.94	6188.38
442.12	6260.93
442.31	6352.21
442.50	6438.81
442.68	6286.68
442.87	6160.29
443.05	6326.47
443.24	6516.05
443.43	6534.78
443.61	6441.15
443.80	6649.46
443.98	6370.94
444.17	6162.63
444.35	6459.88
444.54	6621.38
444.73	6487.96
444.91	6492.65
445.10	6434.13
445.28	6497.33
445.47	6368.60
445.65	6363.92
445.84	6607.33
446.02	6663.51
446.21	6630.74
446.39	6520.73
446.58	6684.57
446.77	6635.42
446.95	6623.72
447.14	6637.76
447.32	6860.11
447.51	6726.70
447.69	6686.91
447.88	6630.74
448.06	6761.81
448.25	6705.63
448.43	6834.36
448.62	6773.51
448.80	6806.28
448.99	6764.15
449.17	6733.72
449.36	6693.93
449.54	7157.36
449.73	7176.08
449.91	7155.02
450.10	7267.36
450.28	7339.92
450.46	7295.45
450.65	7178.42
450.83	7201.83
451.02	7164.38
451.20	7358.64
451.39	7162.04
451.57	7220.55
451.76	7332.90
451.94	7070.76
452.13	7201.83
452.31	7101.19
452.49	7164.38
452.68	7283.75
452.86	7096.50
453.05	7232.26
453.23	7456.95
453.42	7335.24
453.60	7386.73
453.78	7456.95
453.97	7438.22
454.15	7288.43
454.34	7384.39
454.52	7562.27
454.70	7569.29
454.89	7576.31
455.07	7494.40
455.26	7417.16
455.44	7740.15
455.62	7723.77
455.81	7681.64
455.99	7667.60
456.17	7761.22
456.36	7829.09
456.54	7925.05
456.73	7974.21
456.91	8011.65
457.09	7988.25
457.28	8418.91
457.46	7960.16
457.64	8126.34
457.83	7978.89
458.01	8102.93
458.19	8154.43
458.38	8126.34
458.56	8170.81
458.74	8234.00
458.93	8306.56
459.11	8161.45
459.29	8231.66
459.48	8276.13
459.66	8428.27
459.84	8475.08
460.03	8643.60
460.21	8608.49
460.39	8587.43
460.57	8449.33
460.76	8641.26
460.94	8500.83
461.12	8587.43
461.31	8711.47
461.49	8837.86
461.67	8657.64
461.85	8767.65
462.04	8851.91
462.22	9233.41
462.40	8903.40
462.59	9008.72
462.77	8954.89
462.95	8872.97
463.13	8786.37
463.32	9027.45
463.50	9111.71
463.68	8971.27
463.86	9100.00
464.05	8882.33
464.23	8973.61
464.41	9041.49
464.59	8739.56
464.78	9273.20
464.96	9165.54
465.14	9121.07
465.32	9252.14
465.50	9430.02
465.69	9390.23
465.87	9186.60
466.05	9085.96
466.23	9062.55
466.41	9284.91
466.60	9249.80
466.78	9240.44
466.96	9095.32
467.14	9254.48
467.32	9554.07
467.51	9764.72
467.69	9294.27
467.87	9294.27
468.05	9621.94
468.23	9420.66
468.41	9453.42
468.60	9476.83
468.78	9591.52
468.96	9525.98
469.14	9743.65
469.32	9827.91
469.50	9530.66
469.69	9790.46
469.87	9900.47
470.05	9870.04
470.23	9804.50
470.41	9858.34
470.59	10005.79
470.77	9781.10
470.95	9870.04
471.14	9848.97
471.32	9947.28
471.50	10483.26
471.68	10200.05
471.86	10382.62
472.04	10560.50
472.22	10326.44
472.40	10099.41
472.58	10347.51
472.77	10427.09
472.95	10497.30
473.13	10890.51
473.31	10537.09
473.49	10427.09
473.67	10448.15
473.85	10810.93
474.03	10782.85
474.21	10953.71
474.39	11019.24
474.57	10949.03
474.75	11084.78
474.93	11206.48
475.12	10860.09
475.30	10995.84
475.48	11073.07
475.66	11316.49
475.84	11213.51
476.02	11463.94
476.20	11342.24
476.38	11765.87
476.56	11925.03
476.74	11812.68
476.92	11733.11
477.10	11894.60
477.28	11960.14
477.46	11864.18
477.64	12397.82
477.82	12386.12
478.00	12585.06
478.18	12514.84
478.36	12636.55
478.54	12762.94
478.72	12753.58
478.90	12823.80
479.08	13071.89
479.26	12915.08
479.44	13191.26
479.62	13078.91
479.80	13226.37
479.98	13249.77
480.16	13540.00
480.34	13666.39
480.52	13722.56
480.70	13727.24
480.88	13607.87
481.06	13790.44
481.24	14068.96
481.41	14368.55
481.59	14532.39
481.77	14354.51
481.95	14422.38
482.13	14497.28
482.31	14710.27
482.49	14869.42
482.67	14677.50
482.85	14998.15
483.03	15108.16
483.21	15166.67
483.39	15358.60
483.57	15262.63
483.74	15569.24
483.92	15370.30
484.10	15419.45
484.28	16046.71
484.46	16002.24
484.64	16390.77
484.82	15995.22
485.00	16194.17
485.18	16294.81
485.35	16376.73
485.53	16322.90
485.71	15978.84
485.89	16276.09
486.07	16168.42
486.25	16449.28
486.43	16793.34
486.61	17020.38
486.78	17294.22
486.96	17118.68
487.14	17792.75
487.32	17633.60
487.50	18010.42
487.68	18298.31
487.85	18401.29
488.03	18752.37
488.21	18768.76
488.39	18520.66
488.57	18862.38
488.75	18813.23
488.92	18836.63
489.10	18888.12
489.28	19267.29
489.46	19704.97
489.64	19576.24
489.81	19957.75
489.99	20067.75
490.17	20126.27
490.35	20182.44
490.53	20336.91
490.70	20776.94
490.88	20456.28
491.06	20680.97
491.24	20863.54
491.41	20573.31
491.59	20695.02
491.77	20744.17
491.95	20980.56
492.13	21350.37
492.30	21472.07
492.48	21607.83
492.66	21876.99
492.84	21755.28
493.01	22328.71
493.19	21933.16
493.37	22073.59
493.54	22595.53
493.72	22115.72
493.90	22682.13
494.08	22871.72
494.25	23073.00
494.43	22995.76
494.61	23337.48
494.79	23278.97
494.96	23403.02
495.14	23037.89
495.32	23569.19
495.49	23906.23
495.67	23765.80
495.85	23850.06
496.02	24397.74
496.20	24379.02
496.38	24655.20
496.55	24542.86
496.73	24856.49
496.91	24592.01
497.09	24409.45
497.26	24795.64
497.44	25144.38
497.62	25177.14
497.79	25256.72
497.97	25008.62
498.14	25326.94
498.32	25666.31
498.50	25879.30
498.67	25666.31
498.85	25972.92
499.03	26216.34
499.20	26080.59
499.38	26419.97
499.56	26338.05
499.73	26520.61
499.91	26476.14
500.08	26621.25
500.26	26281.88
500.44	26614.23
500.61	26600.19
500.79	26466.78
500.97	26637.64
501.14	27292.99
501.32	26972.33
501.49	27269.58
501.67	27232.13
501.84	27264.90
502.02	27309.37
502.20	27599.60
502.37	27452.14
502.55	27674.49
502.72	27974.08
502.90	27721.30
503.07	27969.40
503.25	27777.48
503.43	28245.58
503.60	28240.90
503.78	28093.45
503.95	27910.89
504.13	28479.64
504.30	28662.20
504.48	28287.71
504.65	28561.56
504.83	28980.51
505.01	28788.59
505.18	29256.70
505.36	29514.16
505.53	29502.45
505.71	29930.77
505.88	29701.40
506.06	29317.55
506.23	29759.91
506.41	29593.73
506.58	29575.01
506.76	29965.88
506.93	29853.53
507.11	29745.87
507.28	30169.51
507.46	29738.85
507.63	30038.44
507.81	29823.11
507.98	30019.71
508.16	30855.28
508.33	30525.27
508.50	30316.96
508.68	30909.11
508.85	30768.68
509.03	30937.20
509.20	30953.58
509.38	31232.11
509.55	31463.82
509.73	31360.84
509.90	31302.32
510.08	31363.18
510.25	31613.62
510.42	31168.91
510.60	31791.50
510.77	31803.20
510.95	31910.86
511.12	32252.58
511.30	32051.30
511.47	32086.40
511.64	32151.94
511.82	32252.58
511.99	32128.53
512.17	32222.16
512.34	31885.12
512.51	32442.17
512.69	32575.58
512.86	32662.18
513.04	32727.71
513.21	32790.91
513.38	32453.87
513.56	32690.26
513.73	32444.51
513.90	33048.36
514.08	32912.61
514.25	33273.06
514.43	33088.15
514.60	33174.75
514.77	33060.07
514.95	33715.42
515.12	33153.69
515.29	33565.62
515.47	33631.16
515.64	33743.50
515.81	33762.23
515.99	33603.07
516.16	33483.70
516.33	33593.71
516.51	33589.03
516.68	32999.21
516.85	33425.19
517.03	33731.80
517.20	34143.74
517.37	34045.43
517.54	34204.59
517.72	34171.82
517.89	33741.16
518.06	33684.99
518.24	33907.34
518.41	34080.54
518.58	34368.43
518.75	34550.99
518.93	34492.47
519.10	34717.17
519.27	35103.35
519.45	34808.45
519.62	35557.42
519.79	35480.18
519.96	35119.74
520.14	35400.60
520.31	35033.14
520.48	35332.73
520.65	35812.54
520.83	35875.73
521.00	35791.47
521.17	35929.56
521.34	35557.42
521.52	35978.72
521.69	35908.50
521.86	36098.08
522.03	36769.82
522.20	36243.20
522.38	36093.40
522.55	36070.00
522.72	35992.76
522.89	36261.92
523.07	36589.59
523.24	36952.38
523.41	36879.82
523.58	36753.43
523.75	36870.46
523.92	37008.55
524.10	37139.62
524.27	37219.20
524.44	36830.67
524.61	37453.25
524.78	37282.39
524.96	37148.98
525.13	37797.31
525.30	37495.38
525.47	37773.91
525.64	37425.17
525.81	37354.95
525.98	37249.63
526.16	37141.96
526.33	37118.56
526.50	37502.40
526.67	36987.49
526.84	37282.39
527.01	37317.50
527.18	37694.33
527.36	38029.02
527.53	38265.42
527.70	38649.27
527.87	38038.39
528.04	38146.05
528.21	38202.22
528.38	38160.09
528.55	38604.80
528.72	38873.96
528.89	38782.68
529.07	38850.55
529.24	38419.89
529.41	38822.47
529.58	38541.60
529.75	38691.40
529.92	38672.67
530.09	39044.82
530.26	39147.80
530.43	39274.19
530.60	38768.63
530.77	39082.27
530.94	39386.54
531.11	38785.02
531.28	39164.18
531.46	39023.75
531.63	39337.38
531.80	39306.96
531.97	39674.42
532.14	39328.02
532.31	39267.17
532.48	39405.26
532.65	39199.29
532.82	39243.76
532.99	39519.95
533.16	39725.91
533.33	39697.83
533.50	40053.59
533.67	39646.33
533.84	39887.41
534.01	40041.88
534.18	39955.29
534.35	40144.87
534.52	40048.91
534.69	40444.46
534.86	40285.30
535.03	40294.66
535.20	40942.99
535.37	40797.88
535.54	40545.10
535.71	40612.98
535.88	40287.64
536.05	40746.39
536.22	40732.34
536.38	40463.18
536.55	40884.48
536.72	40594.25
536.89	40254.87
537.06	40437.44
537.23	40942.99
537.40	40921.93
537.57	41038.95
537.74	41280.03
537.91	41085.76
538.08	41240.24
538.25	40879.80
538.42	40847.03
538.59	41062.36
538.75	40521.69
538.92	41268.33
539.09	41146.62
539.26	41265.99
539.43	41422.80
539.60	41509.40
539.77	40907.88
539.94	41429.82
540.11	41277.69
540.28	41572.60
540.44	41158.32
540.61	41975.17
540.78	41387.69
540.95	41656.85
541.12	41385.35
541.29	41319.82
541.46	41853.46
541.62	41748.14
541.79	41792.61
541.96	41195.77
542.13	41675.58
542.30	41998.57
542.47	41982.19
542.63	41734.09
542.80	42253.69
542.97	42185.82
543.14	42464.34
543.31	42462.00
543.48	42705.41
543.64	42639.88
543.81	42508.81
543.98	42539.24
544.15	42541.58
544.32	42604.77
544.48	43042.45
544.65	42878.61
544.82	42784.99
544.99	42653.92
545.16	42749.88
545.32	42583.71
545.49	43119.69
545.66	43257.78
545.83	43112.67
546.00	43246.08
546.16	42859.89
546.33	42850.53
546.50	42363.70
546.67	42859.89
546.83	42480.72
547.00	43159.48
547.17	43089.26
547.34	43143.09
547.50	43374.81
547.67	43276.51
547.84	43318.64
548.00	43330.34
548.17	43199.27
548.34	43386.51
548.51	43763.34
548.67	43625.25
548.84	43711.84
549.01	43496.52
549.18	43564.39
549.34	43409.92
549.51	43592.48
549.68	43466.09
549.84	43730.57
550.01	43749.29
550.18	43309.27
550.34	43622.90
550.51	43660.35
550.68	43976.33
550.84	43428.64
551.01	44062.93
551.18	43564.39
551.34	43522.26
551.51	44137.82
551.68	43901.43
551.84	44025.48
552.01	43803.13
552.18	43880.36
552.34	44179.95
552.51	44224.42
552.68	44086.33
552.84	44275.91
553.01	44509.97
553.18	44259.53
553.34	44509.97
553.51	44151.87
553.67	44282.94
553.84	44769.77
554.01	44779.13
554.17	44320.38
554.34	44355.49
554.51	44535.71
554.67	44486.56
554.84	44641.04
555.00	44587.21
555.17	44381.24
555.33	44266.55
555.50	44718.28
555.67	44472.52
555.83	44573.16
556.00	44737.00
556.16	44996.80
556.33	44842.32
556.50	44680.83
556.66	44617.63
556.83	44217.40
556.99	44882.11
557.16	44669.12
557.32	44858.71
557.49	44619.97
557.65	44954.67
557.82	44626.99
557.98	44821.26
558.15	45003.82
558.32	45287.03
558.48	44779.13
558.65	44378.90
558.81	44683.17
558.98	44954.67
559.14	44982.76
559.31	44687.85
559.47	45123.19
559.64	45038.93
559.80	45125.53
559.97	44694.87
560.13	45015.52
560.30	45291.71
560.46	45212.13
560.63	45483.63
560.79	45357.24
560.96	45090.42
561.12	45284.68
561.29	44994.46
561.45	45411.07
561.61	45174.68
561.78	45036.59
561.94	44931.26
562.11	45261.28
562.27	45120.85
562.44	45640.45
562.60	45216.81
562.77	45462.57
562.93	45315.11
563.10	45689.60
563.26	45090.42
563.42	45542.14
563.59	45284.68
563.75	45347.88
563.92	45799.60
564.08	45680.24
564.24	45722.37
564.41	45425.12
564.57	45354.90
564.74	45790.24
564.90	45062.33
565.07	45298.73
565.23	45336.18
565.39	45436.82
565.56	45900.25
565.72	44870.41
565.88	45364.26
566.05	45317.45
566.21	45553.85
566.38	45155.96
566.54	45153.62
566.70	45668.53
566.87	45797.26
567.03	45460.23
567.19	46082.81
567.36	45893.22
567.52	45539.80
567.68	46045.36
567.85	45434.48
568.01	45640.45
568.17	45900.25
568.34	45867.48
568.50	45588.95
568.66	45420.44
568.83	45560.87
568.99	45387.67
569.15	45668.53
569.32	45797.26
569.48	45549.17
569.64	45881.52
569.81	45485.97
569.97	45490.65
570.13	45949.40
570.30	45125.53
570.46	45294.05
570.62	45090.42
570.78	45237.87
570.95	45237.87
571.11	45357.24
571.27	45682.58
571.43	45191.06
571.60	45610.02
571.76	45607.68
571.92	45425.12
572.09	45731.73
572.25	45947.06
572.41	45853.44
572.57	45904.93
572.74	46078.13
572.90	45694.28
573.06	46279.41
573.22	45954.08
573.38	46239.62
573.55	45495.33
573.71	46078.13
573.87	46211.54
574.03	45542.14
574.20	45893.22
574.36	45830.03
574.52	45785.56
574.68	45823.01
574.84	45823.01
575.01	45801.94
575.17	45710.66
575.33	45500.01
575.49	45670.87
575.65	46017.27
575.82	45518.74
575.98	45677.90
576.14	45717.68
576.30	45853.44
576.46	45684.92
576.62	45794.92
576.79	45326.81
576.95	45485.97
577.11	45909.61
577.27	45783.22
577.43	45675.55
577.59	45387.67
577.75	45654.49
577.92	45572.57
578.08	45621.72
578.24	45411.07
578.40	45766.84
578.56	45598.32
578.72	45453.20
578.88	46059.40
579.04	46057.06
579.21	45741.09
579.37	45834.71
579.53	45764.49
579.69	45319.79
579.85	45708.32
580.01	45907.27
580.17	46012.59
580.33	46040.68
580.49	46089.83
580.65	45755.13
580.82	45776.20
580.98	45794.92
581.14	45628.74
581.30	46012.59
581.46	46204.52
581.62	46220.90
581.78	45806.62
581.94	45834.71
582.10	46155.36
582.26	46120.26
582.42	46014.93
582.58	45492.99
582.74	45731.73
582.90	46103.87
583.06	45942.38
583.22	46286.43
583.38	46075.79
583.54	45881.52
583.70	46087.49
583.86	46003.23
584.02	45439.16
584.18	45633.42
584.34	45694.28
584.50	45888.54
584.66	46211.54
584.82	46085.15
584.98	45713.00
585.14	46370.69
585.30	45998.55
585.46	45677.90
585.62	45701.30
585.78	45603.00
585.94	45755.13
586.10	46050.04
586.26	45539.80
586.42	45895.56
586.58	46129.62
586.74	45925.99
586.90	45881.52
587.06	46216.22
587.22	45855.78
587.38	45909.61
587.54	46382.40
587.70	45907.27
587.86	45724.71
588.02	46052.38
588.18	46007.91
588.34	45640.45
588.49	45371.28
588.65	45612.36
588.81	45464.91
588.97	45326.81
589.13	45256.60
589.29	45464.91
589.45	45956.42
589.61	45846.41
589.77	45778.54
589.93	46068.76
590.08	46007.91
