SpectraSuite Data File
++++++++++++++++++++++++++++++++++++
Date: Fri Oct 25 10:46:53 EDT 2013
User: price-jones
Dark Spectrum Present: No
Reference Spectrum Present: No
Number of Sampled Component Spectra: 1
Spectrometers: USB2+H05261
Integration Time (usec): 100000 (USB2+H05261)
Spectra Averaged: 1 (USB2+H05261)
Boxcar Smoothing: 0 (USB2+H05261)
Correct for Electrical Dark: No (USB2+H05261)
Strobe/Lamp Enabled: No (USB2+H05261)
Correct for Detector Non-linearity: No (USB2+H05261)
Correct for Stray Light: No (USB2+H05261)
Number of Pixels in Processed Spectrum: 2048
>>>>>Begin Processed Spectral Data<<<<<
365.73	147.45
365.92	147.45
366.12	147.45
366.32	0.00
366.52	53.83
366.72	86.60
366.91	16.38
367.11	58.51
367.31	7.02
367.51	9.36
367.70	9.36
367.90	0.00
368.10	14.04
368.30	0.00
368.49	0.00
368.69	11.70
368.89	65.54
369.09	2.34
369.28	58.51
369.48	84.26
369.68	51.49
369.87	72.56
370.07	107.66
370.27	105.32
370.47	156.82
370.66	442.36
370.86	500.87
371.06	533.64
371.25	482.15
371.45	449.38
371.65	447.04
371.84	437.68
372.04	461.09
372.24	507.90
372.44	463.43
372.63	554.71
372.83	547.69
373.03	503.22
373.22	475.13
373.42	631.94
373.62	526.62
373.81	535.98
374.01	585.13
374.21	568.75
374.40	559.39
374.60	657.69
374.79	550.03
374.99	573.43
375.19	650.67
375.38	543.00
375.58	564.07
375.78	620.24
375.97	620.24
376.17	671.73
376.37	608.54
376.56	636.63
376.76	566.41
376.95	554.71
377.15	681.10
377.35	643.65
377.54	704.50
377.74	660.03
377.93	615.56
378.13	564.07
378.33	662.37
378.52	615.56
378.72	685.78
378.91	655.35
379.11	653.01
379.31	667.05
379.50	631.94
379.70	664.71
379.89	617.90
380.09	608.54
380.28	730.25
380.48	709.18
380.68	734.93
380.87	690.46
381.07	657.69
381.26	692.80
381.46	685.78
381.65	746.63
381.85	737.27
382.04	690.46
382.24	723.23
382.43	784.08
382.63	692.80
382.83	723.23
383.02	699.82
383.22	784.08
383.41	674.07
383.61	767.70
383.80	758.33
384.00	823.87
384.19	835.57
384.39	788.76
384.58	788.76
384.78	732.59
384.97	821.53
385.17	807.48
385.36	798.12
385.56	746.63
385.75	755.99
385.95	877.70
386.14	854.30
386.34	821.53
386.53	922.17
386.72	774.72
386.92	840.25
387.11	875.36
387.31	936.21
387.50	898.77
387.70	854.30
387.89	800.46
388.09	877.70
388.28	990.05
388.48	947.92
388.67	950.26
388.86	917.49
389.06	943.24
389.25	896.43
389.45	978.34
389.64	919.83
389.84	1006.43
390.03	978.34
390.22	973.66
390.42	1004.09
390.61	976.00
390.81	983.02
391.00	1041.54
391.19	966.64
391.39	1022.81
391.58	1074.31
391.78	1071.97
391.97	1086.01
392.16	1039.20
392.36	1104.73
392.55	1055.58
392.75	1081.33
392.94	964.30
393.13	1022.81
393.33	987.71
393.52	1151.54
393.71	1055.58
393.91	1088.35
394.10	1069.62
394.29	1172.61
394.49	1191.33
394.68	1196.01
394.88	1217.08
395.07	1254.53
395.26	1322.40
395.46	1116.44
395.65	1184.31
395.84	1160.91
396.04	1217.08
396.23	1252.19
396.42	1102.39
396.62	1287.29
396.81	1224.10
397.00	1249.85
397.19	1261.55
397.39	1256.87
397.58	1355.17
397.77	1369.21
397.97	1507.30
398.16	1369.21
398.35	1530.71
398.55	1425.39
398.74	1401.98
398.93	1448.79
399.12	1465.18
399.32	1425.39
399.51	1479.22
399.70	1533.05
399.90	1504.96
400.09	1607.95
400.28	1593.90
400.47	1661.78
400.67	1685.19
400.86	1533.05
401.05	1551.78
401.24	1600.93
401.44	1633.69
401.63	1748.38
401.82	1570.50
402.01	1631.35
402.21	1650.08
402.40	1699.23
402.59	1734.34
402.78	1647.74
402.97	1783.49
403.17	1849.02
403.36	1753.06
403.55	1839.66
403.74	1877.11
403.93	1891.15
404.13	1771.79
404.32	1727.32
404.51	1832.64
404.70	1774.13
404.89	1816.26
405.09	2012.86
405.28	1975.41
405.47	1966.05
405.66	1963.71
405.85	1959.03
406.05	1919.24
406.24	2033.93
406.43	1879.45
406.62	2085.42
406.81	2019.88
407.00	2012.86
407.20	2057.33
407.39	1998.82
407.58	2108.82
407.77	2120.53
407.96	2071.37
408.15	2167.34
408.34	2115.84
408.54	2200.10
408.73	2150.95
408.92	2176.70
409.11	2211.81
409.30	2181.38
409.49	2237.55
409.68	2239.89
409.87	2211.81
410.07	2279.68
410.26	2284.36
410.45	2377.98
410.64	2356.92
410.83	2394.37
411.02	2392.03
411.21	2530.12
411.40	2448.20
411.59	2502.03
411.78	2527.78
411.98	2597.99
412.17	2499.69
412.36	2459.90
412.55	2548.84
412.74	2579.27
412.93	2635.44
413.12	2759.49
413.31	2696.30
413.50	2775.88
413.69	2693.96
413.88	2951.42
414.07	2818.00
414.26	2963.12
414.45	2853.11
414.64	2986.52
414.83	2991.20
415.02	2981.84
415.22	3042.70
415.41	3021.63
415.60	3007.59
415.79	3096.53
415.98	3190.15
416.17	3178.45
416.36	3187.81
416.55	3089.51
416.74	3169.09
416.93	3243.98
417.12	3269.73
417.31	3253.34
417.50	3314.20
417.69	3286.11
417.88	3297.81
418.07	3370.37
418.26	3431.23
418.45	3370.37
418.64	3562.30
418.83	3452.29
419.02	3461.65
419.21	3471.01
419.39	3566.98
419.58	3412.50
419.77	3375.05
419.96	3555.27
420.15	3609.11
420.34	3637.19
420.53	3728.47
420.72	3681.66
420.91	3705.07
421.10	3623.15
421.29	3688.68
421.48	3728.47
421.67	3679.32
421.86	3602.08
422.05	3733.15
422.24	3707.41
422.43	3665.28
422.61	3742.52
422.80	3873.59
422.99	3871.25
423.18	3815.07
423.37	3826.78
423.56	3918.06
423.75	3880.61
423.94	3847.84
424.13	3679.32
424.32	3550.59
424.50	3836.14
424.69	3974.23
424.88	3992.95
425.07	3812.73
425.26	3866.56
425.45	3779.97
425.64	3915.72
425.83	3911.04
426.01	4011.68
426.20	3861.88
426.39	3925.08
426.58	3957.85
426.77	3684.00
426.96	3829.12
427.15	3904.01
427.33	4009.34
427.52	3801.03
427.71	4081.89
427.90	4011.68
428.09	4007.00
428.28	4021.04
428.46	4208.28
428.65	4051.47
428.84	4035.08
429.03	4074.87
429.22	4105.30
429.40	4177.86
429.59	4112.32
429.78	3896.99
429.97	3836.14
430.16	3920.40
430.34	4051.47
430.53	4107.64
430.72	4088.92
430.91	4133.39
431.10	4355.74
431.28	4425.95
431.47	4514.89
431.66	4517.23
431.85	4507.87
432.03	4451.70
432.22	4521.92
432.41	4512.55
432.60	4613.20
432.79	4589.79
432.97	4592.13
433.16	4620.22
433.35	4559.36
433.54	4561.70
433.72	4526.60
433.91	4615.54
434.10	4685.75
434.28	4652.98
434.47	4800.44
434.66	4713.84
434.85	4692.77
435.03	5008.75
435.22	4865.97
435.41	5020.45
435.59	4812.14
435.78	4828.53
435.97	4966.62
436.16	4929.17
436.34	4929.17
436.53	4978.32
436.72	5032.15
436.90	5137.48
437.09	5064.92
437.28	4905.76
437.46	5078.96
437.65	5097.69
437.84	5041.51
438.02	5050.88
438.21	5074.28
438.40	4990.02
438.58	5174.92
438.77	5247.48
438.96	5214.71
439.14	5488.56
439.33	5399.62
439.52	5411.32
439.70	5380.89
439.89	5556.43
440.08	5575.16
440.26	5544.73
440.45	5661.76
440.63	5638.35
440.82	5760.06
441.01	5736.65
441.19	5940.28
441.38	5980.07
441.57	5933.26
441.75	5956.66
441.94	6125.18
442.12	6090.07
442.31	6218.80
442.50	6099.44
442.68	6136.88
442.87	6150.93
443.05	6040.92
443.24	6368.60
443.43	6347.53
443.61	6382.64
443.80	6396.68
443.98	6132.20
444.17	6036.24
444.35	6441.15
444.54	6567.54
444.73	6389.66
444.91	6319.45
445.10	6396.68
445.28	6370.94
445.47	6242.21
445.65	6303.06
445.84	6258.59
446.02	6469.24
446.21	6455.20
446.39	6441.15
446.58	6436.47
446.77	6539.46
446.95	6338.17
447.14	6483.28
447.32	6553.50
447.51	6600.31
447.69	6483.28
447.88	6562.86
448.06	6551.16
448.25	6612.01
448.43	6633.08
448.62	6565.20
448.80	6520.73
448.99	6668.19
449.17	6590.95
449.36	6544.14
449.54	6825.00
449.73	6874.15
449.91	7026.29
450.10	6995.86
450.28	7049.69
450.46	7131.61
450.65	7042.67
450.83	6916.28
451.02	6942.03
451.20	7033.31
451.39	7229.91
451.57	7016.93
451.76	6995.86
451.94	7073.10
452.13	7229.91
452.31	6967.77
452.49	7007.56
452.68	7185.44
452.86	7033.31
453.05	7213.53
453.23	7187.79
453.42	7115.23
453.60	7157.36
453.78	7405.46
453.97	7309.49
454.15	7407.80
454.34	7239.28
454.52	7241.62
454.70	7227.57
454.89	7407.80
455.07	7375.03
455.26	7248.64
455.44	7588.02
455.62	7473.33
455.81	7566.95
455.99	7609.08
456.17	7496.74
456.36	7653.55
456.54	7866.54
456.73	7880.58
456.91	7985.91
457.09	7974.21
457.28	8205.92
457.46	7999.95
457.64	8046.76
457.83	7901.65
458.01	7957.82
458.19	8079.53
458.38	8049.10
458.56	8121.66
458.74	7971.86
458.93	7889.95
459.11	8065.49
459.29	8109.96
459.48	8325.29
459.66	8236.35
459.84	8046.76
460.03	8395.50
460.21	8374.44
460.39	8381.46
460.57	8255.07
460.76	8297.20
460.94	8482.10
461.12	8425.93
461.31	8571.04
461.49	8325.29
461.67	8479.76
461.85	8517.21
462.04	8535.93
462.22	9018.08
462.40	8566.36
462.59	8720.84
462.77	8695.09
462.95	8608.49
463.13	8816.80
463.32	8730.20
463.50	8835.52
463.68	8709.13
463.86	8908.08
464.05	8676.37
464.23	8737.22
464.41	9025.11
464.59	8793.39
464.78	8919.78
464.96	8929.14
465.14	8835.52
465.32	9170.22
465.50	9006.38
465.69	9109.36
465.87	8924.46
466.05	9083.62
466.23	8854.25
466.41	8910.42
466.60	9240.44
466.78	8994.68
466.96	9046.17
467.14	9027.45
467.32	9156.18
467.51	9172.56
467.69	8865.95
467.87	9350.44
468.05	9186.60
468.23	9046.17
468.41	9336.40
468.60	9212.35
468.78	9249.80
468.96	9406.61
469.14	9490.87
469.32	9593.86
469.50	9444.06
469.69	9490.87
469.87	9568.11
470.05	9563.43
470.23	9776.42
470.41	9745.99
470.59	9511.94
470.77	9710.88
470.95	9743.65
471.14	10057.28
471.32	9671.09
471.50	10036.22
471.68	10043.24
471.86	10092.39
472.04	10209.42
472.22	10291.34
472.40	10169.63
472.58	10293.68
472.77	10232.82
472.95	10223.46
473.13	10654.12
473.31	10221.12
473.49	10174.31
473.67	10387.30
473.85	10471.56
474.03	10937.32
474.21	10965.41
474.39	10808.59
474.57	10658.80
474.75	10691.57
474.93	10998.18
475.12	11080.10
475.30	10902.22
475.48	11136.27
475.66	11119.89
475.84	10890.51
476.02	11096.48
476.20	11171.38
476.38	11520.12
476.56	11660.55
476.74	11566.93
476.92	11592.67
477.10	11602.04
477.28	11882.90
477.46	11602.04
477.64	12252.70
477.82	12070.14
478.00	12465.69
478.18	12264.41
478.36	12266.75
478.54	12533.57
478.72	12451.65
478.90	12648.26
479.08	12699.75
479.26	13018.06
479.44	12996.99
479.62	12891.67
479.80	13092.96
479.98	13069.55
480.16	13170.19
480.34	13406.59
480.52	13453.40
480.70	13577.45
480.88	13549.36
481.06	13530.64
481.24	13448.72
481.41	14132.15
481.59	14050.24
481.77	14185.99
481.95	14059.60
482.13	14377.91
482.31	14438.76
482.49	14663.46
482.67	14504.30
482.85	14733.67
483.03	14885.81
483.21	15126.88
483.39	15222.84
483.57	15190.08
483.74	15190.08
483.92	15145.61
484.10	15475.62
484.28	15688.61
484.46	15985.86
484.64	16088.84
484.82	15758.83
485.00	15941.39
485.18	16205.87
485.35	16468.01
485.53	16112.25
485.71	15939.05
485.89	16233.96
486.07	16280.77
486.25	16203.53
486.43	16638.87
486.61	16599.08
486.78	16975.91
486.96	17256.77
487.14	17563.38
487.32	17514.23
487.50	17771.69
487.68	17769.35
487.85	18216.39
488.03	18270.22
488.21	18405.97
488.39	18307.67
488.57	18031.49
488.75	18574.49
488.92	18801.52
489.10	18750.03
489.28	19007.49
489.46	19391.34
489.64	19218.14
489.81	19850.08
489.99	19711.99
490.17	19859.45
490.35	20107.54
490.53	19868.81
490.70	20116.90
490.88	20152.01
491.06	20269.04
491.24	20458.62
491.41	20362.66
491.59	20489.05
491.77	20475.01
491.95	20514.80
492.13	20812.04
492.30	21223.98
492.48	21546.97
492.66	21479.10
492.84	21738.90
493.01	21664.00
493.19	21724.85
493.37	21661.66
493.54	21598.46
493.72	22136.79
493.90	22033.80
494.08	22841.29
494.25	22874.06
494.43	22677.45
494.61	22955.97
494.79	23110.45
494.96	22902.14
495.14	23232.16
495.32	23218.11
495.49	23171.30
495.67	23466.21
495.85	23784.52
496.02	24077.09
496.20	23913.25
496.38	23704.95
496.55	24023.26
496.73	24568.60
496.91	24292.42
497.09	24524.13
497.26	24521.79
497.44	24409.45
497.62	24713.72
497.79	24985.22
497.97	24952.45
498.14	25268.42
498.32	25373.75
498.50	25184.16
498.67	25446.30
498.85	25511.84
499.03	25926.11
499.20	25930.80
499.38	25572.69
499.56	25942.50
499.73	26005.69
499.91	26073.57
500.08	26260.81
500.26	25713.13
500.44	26478.48
500.61	26354.43
500.79	26263.15
500.97	26611.89
501.14	27082.34
501.32	26829.56
501.49	26522.95
501.67	26487.84
501.84	26904.46
502.02	26977.01
502.20	27405.33
502.37	27791.52
502.55	27274.26
502.72	27730.67
502.90	27442.78
503.07	27803.22
503.25	27718.96
503.43	27606.62
503.60	27931.95
503.78	27735.35
503.95	27873.44
504.13	27777.48
504.30	28273.67
504.48	28025.57
504.65	28498.36
504.83	28961.79
505.01	28924.34
505.18	28678.58
505.36	28910.30
505.53	28919.66
505.71	28903.28
505.88	29453.30
506.06	28910.30
506.23	29282.44
506.41	29268.40
506.58	29347.98
506.76	29722.46
506.93	29860.55
507.11	29743.53
507.28	29860.55
507.46	29411.17
507.63	29144.35
507.81	29640.54
507.98	29556.28
508.16	29968.22
508.33	29933.11
508.50	30387.18
508.68	30394.20
508.85	30836.56
509.03	30831.88
509.20	31091.68
509.38	30649.32
509.55	30464.41
509.73	30820.17
509.90	30988.69
510.08	30913.80
510.25	30946.56
510.42	31215.72
510.60	31225.09
510.77	31529.36
510.95	31868.73
511.12	31395.95
511.30	31503.61
511.47	31960.02
511.64	31957.67
511.82	32081.72
511.99	31793.84
512.17	31948.31
512.34	31721.28
512.51	32423.44
512.69	32723.03
512.86	32254.92
513.04	32327.48
513.21	32374.29
513.38	32627.07
513.56	32240.88
513.73	32393.01
513.90	32744.09
514.08	32931.34
514.25	32315.78
514.43	32891.55
514.60	32575.58
514.77	32781.54
514.95	33219.22
515.12	33048.36
515.29	33053.05
515.47	33675.63
515.64	33792.65
515.81	33589.03
515.99	33329.23
516.16	33450.94
516.33	33317.53
516.51	33427.53
516.68	33249.65
516.85	33095.18
517.03	33472.00
517.20	33797.34
517.37	33956.49
517.54	34115.65
517.72	34253.74
517.89	33481.36
518.06	34291.19
518.24	33411.15
518.41	33937.77
518.58	34382.47
518.75	34396.51
518.93	34527.58
519.10	34398.85
519.27	34546.31
519.45	34249.06
519.62	34962.92
519.79	34637.59
519.96	34794.40
520.14	35201.66
520.31	34904.41
520.48	35459.12
520.65	34953.56
520.83	35456.78
521.00	35672.10
521.17	35246.13
521.34	35611.25
521.52	35959.99
521.69	36133.19
521.86	35798.49
522.03	36048.93
522.20	36072.34
522.38	36271.28
522.55	36175.32
522.72	36191.70
522.89	35889.77
523.07	36102.76
523.24	36325.11
523.41	36348.52
523.58	36472.57
523.75	36905.57
523.92	36678.54
524.10	37024.93
524.27	37446.23
524.44	36900.89
524.61	36940.68
524.78	37366.65
524.96	37226.22
525.13	37251.97
525.30	37647.52
525.47	37186.43
525.64	37022.59
525.81	37244.94
525.98	37230.90
526.16	36961.74
526.33	36694.92
526.50	37560.92
526.67	37284.73
526.84	37368.99
527.01	36933.65
527.18	37586.66
527.36	37970.51
527.53	38010.30
527.70	38452.66
527.87	38146.05
528.04	37724.75
528.21	38103.92
528.38	38040.73
528.55	38560.33
528.72	38424.57
528.89	38373.08
529.07	38946.51
529.24	37881.57
529.41	38761.61
529.58	38300.53
529.75	38515.86
529.92	38382.45
530.09	38572.03
530.26	38731.18
530.43	38976.94
530.60	38607.14
530.77	38703.10
530.94	38911.41
531.11	38857.57
531.28	38766.29
531.46	39264.83
531.63	39580.80
531.80	38918.43
531.97	39526.97
532.14	39201.63
532.31	38766.29
532.48	39145.46
532.65	39311.64
532.82	39828.90
532.99	39629.95
533.16	39393.56
533.33	39491.86
533.50	39917.84
533.67	39681.44
533.84	39159.50
534.01	39784.43
534.18	39768.04
534.35	39896.77
534.52	39683.78
534.69	40332.11
534.86	40016.14
535.03	40268.92
535.20	40341.47
535.37	40165.93
535.54	40690.21
535.71	40247.85
535.88	40294.66
536.05	40442.12
536.22	40297.00
536.38	40374.24
536.55	40687.87
536.72	40835.33
536.89	40388.28
537.06	40304.02
537.23	41265.99
537.40	40526.38
537.57	40781.49
537.74	40437.44
537.91	41230.88
538.08	41015.55
538.25	40685.53
538.42	40807.24
538.59	41020.23
538.75	40596.59
538.92	40942.99
539.09	40931.29
539.26	41301.09
539.43	41048.32
539.60	41137.26
539.77	41001.50
539.94	41312.80
540.11	41041.29
540.28	41057.68
540.44	41298.75
540.61	41486.00
540.78	41256.62
540.95	41053.00
541.12	41340.88
541.29	41312.80
541.46	41359.61
541.62	41869.84
541.79	41734.09
541.96	41317.48
542.13	41441.53
542.30	41478.97
542.47	41783.24
542.63	42014.96
542.80	41691.96
542.97	41996.23
543.14	42731.16
543.31	42344.97
543.48	42775.63
543.64	42866.91
543.81	42735.84
543.98	42691.37
544.15	42323.91
544.32	43178.20
544.48	42677.33
544.65	42557.96
544.82	43054.15
544.99	42621.16
545.16	42873.93
545.32	42639.88
545.49	43421.62
545.66	43374.81
545.83	42724.14
546.00	43168.84
546.16	42806.06
546.33	42513.49
546.50	42497.11
546.67	43079.90
546.83	42731.16
547.00	42958.19
547.17	42782.65
547.34	43014.37
547.50	42951.17
547.67	43290.55
547.84	43372.47
548.00	43278.85
548.17	44027.82
548.34	43264.80
548.51	43768.02
548.67	43892.07
548.84	44009.09
549.01	43391.19
549.18	43763.34
549.34	43697.80
549.51	43693.12
549.68	43990.37
549.84	44055.90
550.01	43676.74
550.18	43688.44
550.34	43725.89
550.51	43990.37
550.68	43779.72
550.84	43632.27
551.01	44156.55
551.18	43707.16
551.34	43807.81
551.51	43913.13
551.68	44130.80
551.84	44313.36
552.01	43571.41
552.18	44208.04
552.34	43531.62
552.51	44404.64
552.68	44172.93
552.84	44170.59
553.01	44313.36
553.18	44205.70
553.34	44144.84
553.51	44472.52
553.67	44449.11
553.84	45029.57
554.01	44121.44
554.17	44659.76
554.34	44994.46
554.51	44318.04
554.67	44961.69
554.84	44552.10
555.00	44390.60
555.17	44528.69
555.33	44491.24
555.50	44872.75
555.67	44821.26
555.83	44643.38
556.00	44727.64
556.16	45036.59
556.33	44882.11
556.50	44549.76
556.66	45464.91
556.83	44746.36
556.99	45219.15
557.16	45146.59
557.32	44891.48
557.49	45055.31
557.65	44664.44
557.82	44832.96
557.98	45001.48
558.15	44701.89
558.32	44980.42
558.48	44575.50
558.65	45043.61
558.81	45137.23
558.98	44900.84
559.14	44835.30
559.31	44692.53
559.47	45317.45
559.64	45415.76
559.80	45691.94
559.97	45230.85
560.13	44975.73
560.30	45036.59
560.46	45373.63
560.63	45233.19
560.79	44947.65
560.96	45460.23
561.12	45654.49
561.29	45715.34
561.45	45581.93
561.61	45242.56
561.78	44924.24
561.94	44968.71
562.11	45123.19
562.27	45705.98
562.44	45551.51
562.60	45642.79
562.77	45893.22
562.93	45684.92
563.10	45762.15
563.26	44992.12
563.42	45776.20
563.59	45694.28
563.75	45549.17
563.92	46124.94
564.08	45425.12
564.24	45612.36
564.41	45823.01
564.57	45713.00
564.74	45390.01
564.90	45485.97
565.07	46045.36
565.23	45607.68
565.39	45691.94
565.56	45666.19
565.72	45460.23
565.88	45827.69
566.05	45661.51
566.21	45588.95
566.38	45443.84
566.54	45162.98
566.70	46017.27
566.87	46019.61
567.03	45935.35
567.19	45975.14
567.36	46129.62
567.52	46127.28
567.68	45888.54
567.85	45717.68
568.01	45933.01
568.17	45471.93
568.34	46234.94
568.50	45619.38
568.66	45675.55
568.83	46071.10
568.99	45752.79
569.15	45680.24
569.32	45755.13
569.48	45659.17
569.64	46473.68
569.81	45968.12
569.97	45895.56
570.13	45874.50
570.30	45666.19
570.46	45357.24
570.62	45460.23
570.78	45434.48
570.95	45666.19
571.11	45776.20
571.27	45626.40
571.43	45631.08
571.60	46080.47
571.76	45928.33
571.92	45401.71
572.09	46232.60
572.25	45853.44
572.41	45581.93
572.57	45968.12
572.74	46328.56
572.90	46377.72
573.06	45907.27
573.22	45631.08
573.38	46038.34
573.55	45600.66
573.71	45979.82
573.87	46113.23
574.03	46043.02
574.20	45806.62
574.36	45457.88
574.52	46010.25
574.68	46164.73
574.84	46143.66
575.01	45815.99
575.17	46047.70
575.33	45825.35
575.49	45741.09
575.65	46347.29
575.82	46307.50
575.98	45977.48
576.14	46192.81
576.30	46480.70
576.46	45867.48
576.62	45998.55
576.79	45713.00
576.95	45675.55
577.11	45937.69
577.27	46066.42
577.43	46010.25
577.59	46314.52
577.75	46021.95
577.92	45759.81
578.08	45701.30
578.24	46230.26
578.40	45724.71
578.56	45876.84
578.72	46251.33
578.88	46218.56
579.04	46436.23
579.21	46101.53
579.37	46277.07
579.53	45914.29
579.69	45776.20
579.85	45867.48
580.01	46284.09
580.17	46436.23
580.33	45933.01
580.49	46230.26
580.65	46300.48
580.82	45911.95
580.98	46230.26
581.14	45986.85
581.30	46579.00
581.46	46141.32
581.62	46064.08
581.78	45902.59
581.94	46447.93
582.10	46354.31
582.26	46115.58
582.42	45890.88
582.58	46167.07
582.74	45993.87
582.90	46363.67
583.06	46529.85
583.22	46515.81
583.38	46480.70
583.54	46588.36
583.70	46583.68
583.86	46064.08
584.02	46183.45
584.18	45989.19
584.34	46590.70
584.50	46689.01
584.66	46064.08
584.82	45879.18
584.98	46356.65
585.14	46202.18
585.30	46267.71
585.46	46113.23
585.62	45837.05
585.78	46473.68
585.94	45818.33
586.10	45902.59
586.26	46237.28
586.42	46714.75
586.58	46160.05
586.74	46218.56
586.90	46110.89
587.06	46007.91
587.22	46429.21
587.38	46005.57
587.54	46740.50
587.70	46417.50
587.86	46141.32
588.02	46431.55
588.18	46569.64
588.34	46068.76
588.49	46010.25
588.65	46033.66
588.81	46330.90
588.97	45993.87
589.13	46003.23
589.29	45645.13
589.45	45586.61
589.61	46295.80
589.77	46256.01
589.93	46501.76
590.08	46429.21
