SpectraSuite Data File
++++++++++++++++++++++++++++++++++++
Date: Fri Oct 25 11:25:37 EDT 2013
User: price-jones
Dark Spectrum Present: No
Reference Spectrum Present: No
Number of Sampled Component Spectra: 1
Spectrometers: USB2+H05261
Integration Time (usec): 100000 (USB2+H05261)
Spectra Averaged: 1 (USB2+H05261)
Boxcar Smoothing: 0 (USB2+H05261)
Correct for Electrical Dark: No (USB2+H05261)
Strobe/Lamp Enabled: No (USB2+H05261)
Correct for Detector Non-linearity: No (USB2+H05261)
Correct for Stray Light: No (USB2+H05261)
Number of Pixels in Processed Spectrum: 2048
>>>>>Begin Processed Spectral Data<<<<<
365.73	273.84
365.92	273.84
366.12	273.84
366.32	161.50
366.52	79.58
366.72	107.66
366.91	105.32
367.11	133.41
367.31	117.03
367.51	163.84
367.70	105.32
367.90	100.64
368.10	112.35
368.30	86.60
368.49	107.66
368.69	173.20
368.89	177.88
369.09	124.05
369.28	142.77
369.48	84.26
369.68	212.99
369.87	224.69
370.07	184.90
370.27	229.37
370.47	334.70
370.66	566.41
370.86	641.31
371.06	664.71
371.25	737.27
371.45	662.37
371.65	653.01
371.84	697.48
372.04	645.99
372.24	711.52
372.44	744.29
372.63	732.59
372.83	699.82
373.03	777.06
373.22	723.23
373.42	774.72
373.62	786.42
373.81	777.06
374.01	821.53
374.21	894.08
374.40	695.14
374.60	833.23
374.79	809.83
374.99	809.83
375.19	788.76
375.38	763.01
375.58	833.23
375.78	833.23
375.97	779.40
376.17	877.70
376.37	873.02
376.56	877.70
376.76	931.53
376.95	856.64
377.15	842.59
377.35	912.81
377.54	957.28
377.74	898.77
377.93	889.40
378.13	912.81
378.33	912.81
378.52	971.32
378.72	898.77
378.91	929.19
379.11	929.19
379.31	980.68
379.50	983.02
379.70	1013.45
379.89	887.06
380.09	997.07
380.28	945.58
380.48	936.21
380.68	978.34
380.87	959.62
381.07	1029.84
381.26	994.73
381.46	1116.44
381.65	1055.58
381.85	973.66
382.04	992.39
382.24	947.92
382.43	1029.84
382.63	1027.50
382.83	1022.81
383.02	1109.41
383.22	1158.57
383.41	1039.20
383.61	1013.45
383.80	1193.67
384.00	1132.82
384.19	1036.86
384.39	1095.37
384.58	1177.29
384.78	1170.27
384.97	1142.18
385.17	1095.37
385.36	1212.40
385.56	1252.19
385.75	1224.10
385.95	1153.88
386.14	1203.04
386.34	1219.42
386.53	1156.22
386.72	1179.63
386.92	1301.34
387.11	1303.68
387.31	1217.08
387.50	1228.78
387.70	1291.98
387.89	1224.10
388.09	1231.12
388.28	1221.76
388.48	1301.34
388.67	1366.87
388.86	1324.74
389.06	1275.59
389.25	1331.76
389.45	1376.24
389.64	1306.02
389.84	1423.05
390.03	1331.76
390.22	1303.68
390.42	1280.27
390.61	1256.87
390.81	1359.85
391.00	1425.39
391.19	1451.13
391.39	1383.26
391.58	1479.22
391.78	1366.87
391.97	1446.45
392.16	1418.36
392.36	1502.62
392.55	1603.27
392.75	1547.09
392.94	1535.39
393.13	1483.90
393.33	1544.75
393.52	1519.01
393.71	1600.93
393.91	1598.59
394.10	1568.16
394.29	1551.78
394.49	1584.54
394.68	1561.14
394.88	1593.90
395.07	1769.44
395.26	1692.21
395.46	1732.00
395.65	1699.23
395.84	1703.91
396.04	1764.76
396.23	1713.27
396.42	1736.68
396.62	1806.89
396.81	1870.09
397.00	1748.38
397.19	1809.23
397.39	1736.68
397.58	1757.74
397.77	1877.11
397.97	1877.11
398.16	1823.28
398.35	1937.96
398.55	1769.44
398.74	1909.88
398.93	1963.71
399.12	1870.09
399.32	1879.45
399.51	1930.94
399.70	1959.03
399.90	2026.90
400.09	1966.05
400.28	2001.16
400.47	1973.07
400.67	2054.99
400.86	1984.77
401.05	2047.97
401.24	2127.55
401.44	2003.50
401.63	2223.51
401.82	2029.24
402.01	2078.40
402.21	2064.35
402.40	2085.42
402.59	2291.38
402.78	2216.49
402.97	2246.91
403.17	2284.36
403.36	2237.55
403.55	2303.09
403.74	2377.98
403.93	2277.34
404.13	2356.92
404.32	2331.17
404.51	2291.38
404.70	2370.96
404.89	2399.05
405.09	2338.20
405.28	2497.35
405.47	2445.86
405.66	2509.05
405.85	2499.69
406.05	2499.69
406.24	2593.31
406.43	2551.18
406.62	2630.76
406.81	2630.76
407.00	2590.97
407.20	2619.06
407.39	2628.42
407.58	2731.41
407.77	2719.70
407.96	2743.11
408.15	2719.70
408.34	2736.09
408.54	2794.60
408.73	2724.38
408.92	2862.48
409.11	2932.69
409.30	2841.41
409.49	2904.60
409.68	2925.67
409.87	2883.54
410.07	2885.88
410.26	2923.33
410.45	3038.02
410.64	3091.85
410.83	3155.04
411.02	3047.38
411.21	3199.51
411.40	3117.59
411.59	3199.51
411.78	3157.38
411.98	3269.73
412.17	3248.66
412.36	3283.77
412.55	3325.90
412.74	3496.76
412.93	3321.22
413.12	3426.54
413.31	3559.95
413.50	3494.42
413.69	3524.85
413.88	3557.61
414.07	3517.83
414.26	3599.74
414.45	3698.05
414.64	3653.58
414.83	3695.71
415.02	3728.47
415.22	3871.25
415.41	3772.94
415.60	3847.84
415.79	3838.48
415.98	3857.20
416.17	4053.81
416.36	3999.98
416.55	4147.43
416.74	4065.51
416.93	3997.64
417.12	4149.77
417.31	4049.13
417.50	4175.52
417.69	4264.46
417.88	4423.61
418.07	4264.46
418.26	4236.37
418.45	4283.18
418.64	4285.52
418.83	4416.59
419.02	4383.82
419.21	4416.59
419.39	4491.49
419.58	4657.67
419.77	4472.76
419.96	4397.87
420.15	4599.15
420.34	4545.32
420.53	4573.41
420.72	4863.63
420.91	4669.37
421.10	4863.63
421.29	4875.34
421.48	4713.84
421.67	4774.69
421.86	4746.61
422.05	4744.27
422.24	4685.75
422.43	4795.76
422.61	4837.89
422.80	4882.36
422.99	4784.06
423.18	4961.94
423.37	4975.98
423.56	4940.87
423.75	4833.21
423.94	4891.72
424.13	4655.33
424.32	4779.37
424.50	4898.74
424.69	5095.35
424.88	5128.11
425.07	4992.36
425.26	4940.87
425.45	4987.68
425.64	4990.02
425.83	4992.36
426.01	4992.36
426.20	4985.34
426.39	5198.33
426.58	5013.43
426.77	4992.36
426.96	5252.16
427.15	4990.02
427.33	5193.65
427.52	5053.22
427.71	5177.26
427.90	5217.05
428.09	5249.82
428.28	5158.54
428.46	5345.78
428.65	5287.27
428.84	5320.04
429.03	5568.13
429.22	5252.16
429.40	5408.98
429.59	5364.51
429.78	5128.11
429.97	5315.36
430.16	5528.35
430.34	5483.88
430.53	5708.57
430.72	5533.03
430.91	5603.24
431.10	5753.04
431.28	5584.52
431.47	5738.99
431.66	5830.27
431.85	5769.42
432.03	5914.53
432.22	5909.85
432.41	5734.31
432.60	5930.92
432.79	5942.62
432.97	5858.36
433.16	5914.53
433.35	6029.22
433.54	6010.50
433.72	6127.52
433.91	6069.01
434.10	6312.42
434.28	6253.91
434.47	6125.18
434.66	6155.61
434.85	6148.59
435.03	6211.78
435.22	6282.00
435.41	6523.07
435.59	6251.57
435.78	6239.87
435.97	6415.41
436.16	6272.64
436.34	6160.29
436.53	6532.44
436.72	6597.97
436.90	6270.30
437.09	6523.07
437.28	6537.12
437.46	6448.18
437.65	6623.72
437.84	6780.53
438.02	6733.72
438.21	6612.01
438.40	6677.55
438.58	6979.48
438.77	7005.22
438.96	6862.45
439.14	7052.03
439.33	7159.70
439.52	7213.53
439.70	7243.96
439.89	7199.49
440.08	7407.80
440.26	7360.98
440.45	7328.22
440.63	7382.05
440.82	7648.87
441.01	7494.40
441.19	7789.30
441.38	7798.66
441.57	7611.42
441.75	7744.83
441.94	7911.01
442.12	8060.80
442.31	8063.15
442.50	8037.40
442.68	7887.61
442.87	8018.68
443.05	8152.09
443.24	8266.77
443.43	7992.93
443.61	8044.42
443.80	8191.88
443.98	8035.06
444.17	7754.19
444.35	8236.35
444.54	8154.43
444.73	8416.57
444.91	8234.00
445.10	8463.38
445.28	8161.45
445.47	8215.28
445.65	8395.50
445.84	8521.89
446.02	8549.98
446.21	8278.47
446.39	8318.26
446.58	8505.51
446.77	8636.58
446.95	8241.03
447.14	8430.61
447.32	8491.46
447.51	8468.06
447.69	8280.82
447.88	8514.87
448.06	8571.04
448.25	8423.59
448.43	8587.43
448.62	8549.98
448.80	8596.79
448.99	8826.16
449.17	8809.78
449.36	8748.92
449.54	8908.08
449.73	8819.14
449.91	8997.02
450.10	8961.91
450.28	9041.49
450.46	9130.43
450.65	8961.91
450.83	8889.35
451.02	9036.81
451.20	9118.73
451.39	9195.96
451.57	8903.40
451.76	9050.85
451.94	9107.02
452.13	9336.40
452.31	9294.27
452.49	9249.80
452.68	9280.22
452.86	9378.53
453.05	9469.81
453.23	9570.45
453.42	9401.93
453.60	9364.48
453.78	9617.26
453.97	9394.91
454.15	9455.76
454.34	9591.52
454.52	9830.25
454.70	9521.30
454.89	9710.88
455.07	9666.41
455.26	9771.74
455.44	9825.57
455.62	9900.47
455.81	9902.81
455.99	10040.90
456.17	9895.78
456.36	10008.13
456.54	10129.84
456.73	10251.55
456.91	10399.00
457.09	10312.40
457.28	10544.11
457.46	10539.43
457.64	10668.16
457.83	10452.83
458.01	10359.21
458.19	10857.75
458.38	10394.32
458.56	10686.89
458.74	10670.50
458.93	10635.39
459.11	10677.52
459.29	10696.25
459.48	10785.19
459.66	10485.60
459.84	10899.87
460.03	11185.42
460.21	10890.51
460.39	11068.39
460.57	11197.12
460.76	10993.50
460.94	11166.70
461.12	11122.23
461.31	11318.83
461.49	11047.33
461.67	11190.10
461.85	11485.01
462.04	11136.27
462.22	11679.27
462.40	11763.53
462.59	11379.68
462.77	11321.17
462.95	11618.42
463.13	11667.57
463.32	11644.17
463.50	11555.22
463.68	11836.09
463.86	11728.42
464.05	11461.60
464.23	11854.81
464.41	11875.88
464.59	11522.46
464.78	12060.78
464.96	11903.96
465.14	11721.40
465.32	11927.37
465.50	11899.28
465.69	12072.48
465.87	12212.92
466.05	12142.70
466.23	12102.91
466.41	12348.67
466.60	12292.49
466.78	12372.07
466.96	12255.04
467.14	12346.33
467.32	12266.75
467.51	12451.65
467.69	12205.89
467.87	12358.03
468.05	12369.73
468.23	12355.69
468.41	12229.30
468.60	12685.70
468.78	12769.96
468.96	12510.16
469.14	12798.05
469.32	12996.99
469.50	12596.76
469.69	13057.85
469.87	13046.15
470.05	13053.17
470.23	12959.55
470.41	13041.46
470.59	13015.72
470.77	13053.17
470.95	13188.92
471.14	13200.62
471.32	13095.30
471.50	13523.62
471.68	13626.60
471.86	13556.38
472.04	13944.91
472.22	14237.48
472.40	13479.15
472.58	13633.62
472.77	13877.04
472.95	13961.30
473.13	14850.70
473.31	14129.81
473.49	14141.52
473.67	14384.93
473.85	14136.84
474.03	14752.40
474.21	14516.00
474.39	14707.93
474.57	14471.53
474.75	14761.76
474.93	14534.73
475.12	14981.77
475.30	15080.07
475.48	14862.40
475.66	15272.00
475.84	15098.80
476.02	15555.20
476.20	15321.15
476.38	15641.80
476.56	15707.34
476.74	15721.38
476.92	15889.90
477.10	15840.75
477.28	16397.79
477.46	16081.82
477.64	16346.30
477.82	16479.71
478.00	16814.41
478.18	16844.84
478.36	16833.13
478.54	17039.10
478.72	17046.12
478.90	17422.95
479.08	17614.87
479.26	17591.47
479.44	17610.19
479.62	17937.87
479.80	18029.15
479.98	18047.87
480.16	18204.69
480.34	18197.67
480.52	18518.32
480.70	18588.53
480.88	18218.73
481.06	18958.34
481.24	18771.10
481.41	18895.14
481.59	19445.17
481.77	19058.98
481.95	19449.85
482.13	19716.67
482.31	19594.96
482.49	20245.63
482.67	20318.19
482.85	20229.25
483.03	20538.20
483.21	20521.82
483.39	20992.26
483.57	20753.53
483.74	21071.84
483.92	21425.26
484.10	21177.17
484.28	21958.91
484.46	21961.25
484.64	22377.86
484.82	21879.33
485.00	22017.42
485.18	22534.68
485.35	22813.20
485.53	22995.76
485.71	22951.29
485.89	23119.81
486.07	23377.27
486.25	23601.96
486.43	23473.23
486.61	23625.37
486.78	24156.67
486.96	24140.29
487.14	24645.84
487.32	24720.74
487.50	24779.25
487.68	24891.60
487.85	24936.07
488.03	25458.01
488.21	25511.84
488.39	25745.89
488.57	26057.18
488.75	26026.76
488.92	26342.73
489.10	26412.95
489.28	26504.23
489.46	26771.05
489.64	27136.17
489.81	27513.00
489.99	27431.08
490.17	27723.65
490.35	28046.64
490.53	27803.22
490.70	28114.52
490.88	28166.01
491.06	28636.45
491.24	28360.27
491.41	29247.33
491.59	28929.02
491.77	29347.98
491.95	29420.53
492.13	30010.35
492.30	30101.63
492.48	30061.84
492.66	30197.59
492.84	30148.44
493.01	30546.33
493.19	30754.64
493.37	30658.68
493.54	31091.68
493.72	31250.83
493.90	31599.57
494.08	32020.87
494.25	31618.30
494.43	31896.82
494.61	32229.18
494.79	32428.12
494.96	32444.51
495.14	32505.36
495.32	32954.74
495.49	32989.85
495.67	33301.14
495.85	33560.94
496.02	33736.48
496.20	34024.37
496.38	34043.09
496.55	34338.00
496.73	34646.95
496.91	34380.13
497.09	34873.98
497.26	35028.46
497.44	34738.23
497.62	35098.67
497.79	35419.33
497.97	35295.28
498.14	35594.87
498.32	35917.86
498.50	35812.54
498.67	36002.12
498.85	36404.69
499.03	36437.46
499.20	36261.92
499.38	37090.47
499.56	36858.76
499.73	36957.06
499.91	37160.69
500.08	37184.09
500.26	37006.21
500.44	37521.13
500.61	37720.07
500.79	37338.57
500.97	37979.87
501.14	38546.28
501.32	38389.47
501.49	38307.55
501.67	38960.56
501.84	38726.50
502.02	38593.09
502.20	39168.87
502.37	39091.63
502.55	39072.90
502.72	39412.28
502.90	39445.05
503.07	39463.77
503.25	39372.49
503.43	39716.55
503.60	39466.11
503.78	40304.02
503.95	40329.77
504.13	40559.14
504.30	40882.14
504.48	40278.28
504.65	40762.77
504.83	41085.76
505.01	40896.18
505.18	41141.94
505.36	41577.28
505.53	41163.00
505.71	41523.44
505.88	41947.08
506.06	41336.20
506.23	41846.44
506.41	41558.55
506.58	41986.87
506.76	42234.97
506.93	42508.81
507.11	42181.13
507.28	42373.06
507.46	42841.17
507.63	43005.00
507.81	43164.16
507.98	42667.97
508.16	43428.64
508.33	43627.59
508.50	43232.04
508.68	43428.64
508.85	43793.76
509.03	43433.32
509.20	43697.80
509.38	44224.42
509.55	44196.34
509.73	44177.61
509.90	44577.84
510.08	44275.91
510.25	44947.65
510.42	44369.54
510.60	45272.98
510.77	45036.59
510.95	45177.02
511.12	44854.03
511.30	44964.03
511.47	45237.87
511.64	45474.27
511.82	45705.98
511.99	45579.59
512.17	45928.33
512.34	46082.81
512.51	46012.59
512.69	46227.92
512.86	46384.74
513.04	46995.62
513.21	46506.44
513.38	46831.78
513.56	46588.36
513.73	46616.45
513.90	47131.37
514.08	46471.34
514.25	47122.01
514.43	47051.79
514.60	47351.38
514.77	47051.79
514.95	47646.29
515.12	47229.67
515.29	47365.42
515.47	47716.50
515.64	48027.79
515.81	47908.43
515.99	48156.52
516.16	48215.04
516.33	48250.14
516.51	48741.66
516.68	48193.97
516.85	48751.02
517.03	49055.29
517.20	48701.87
517.37	48596.54
517.54	48673.78
517.72	49116.14
517.89	48498.24
518.06	49057.63
518.24	48940.60
518.41	49174.66
518.58	49174.66
518.75	49066.99
518.93	49251.89
519.10	49443.82
519.27	49879.16
519.45	49425.09
519.62	49600.63
519.79	49741.06
519.96	49598.29
520.14	49855.75
520.31	49860.43
520.48	49951.71
520.65	50153.00
520.83	50408.12
521.00	50955.80
521.17	50220.87
521.34	50518.12
521.52	50761.54
521.69	50728.77
521.86	50642.17
522.03	50836.44
522.20	51173.47
522.38	51423.91
522.55	51222.62
522.72	51133.68
522.89	51388.80
523.07	51767.97
523.24	51510.51
523.41	51679.03
523.58	51414.55
523.75	51728.18
523.92	51442.63
524.10	51648.60
524.27	51934.15
524.44	52018.41
524.61	51915.42
524.78	52205.65
524.96	52144.80
525.13	52128.41
525.30	52292.25
525.47	52612.90
525.64	52273.52
525.81	52512.26
525.98	52458.43
526.16	52193.95
526.33	52456.09
526.50	52748.65
526.67	52711.20
526.84	52776.74
527.01	52762.70
527.18	52746.31
527.36	52872.70
527.53	53043.56
527.70	53183.99
527.87	53195.70
528.04	52900.79
528.21	53336.13
528.38	53588.91
528.55	53404.00
528.72	53399.32
528.89	53382.94
529.07	53223.78
529.24	53382.94
529.41	53715.29
529.58	53703.59
529.75	53638.06
529.92	53879.13
530.09	53799.55
530.26	53801.89
530.43	53862.75
530.60	53797.21
530.77	53633.38
530.94	54017.22
531.11	54066.38
531.28	53895.52
531.46	54061.69
531.63	54035.95
531.80	54075.74
531.97	54049.99
532.14	54237.23
532.31	54508.74
532.48	54204.47
532.65	54394.05
532.82	54302.77
532.99	54522.78
533.16	54644.49
533.33	54567.25
533.50	54871.52
533.67	54714.70
533.84	54665.55
534.01	54707.68
534.18	55009.61
534.35	55075.15
534.52	54770.88
534.69	55096.21
534.86	55260.05
535.03	54944.08
535.20	55056.42
535.37	55398.14
535.54	55430.91
535.71	55274.09
535.88	55449.63
536.05	55238.98
536.22	55491.76
536.38	55269.41
536.55	55456.65
536.72	55531.55
536.89	55451.97
537.06	55580.70
537.23	55828.80
537.40	55332.60
537.57	55625.17
537.74	55540.91
537.91	55667.30
538.08	55643.90
538.25	55646.24
538.42	55957.53
538.59	55992.64
538.75	55767.94
538.92	55927.10
539.09	56002.00
539.26	56137.75
539.43	56048.81
539.60	55854.54
539.77	56102.64
539.94	56442.02
540.11	56196.26
540.28	56364.78
540.44	56292.22
540.61	56271.16
540.78	56222.01
540.95	56413.93
541.12	56193.92
541.29	56313.29
541.46	56509.89
541.62	56718.20
541.79	56563.73
541.96	56182.22
542.13	56467.76
542.30	56528.62
542.47	56685.43
542.63	56884.38
542.80	56669.05
542.97	56949.92
543.14	56961.62
543.31	57116.09
543.48	56959.28
543.64	57221.42
543.81	57303.34
543.98	57092.69
544.15	57190.99
544.32	57205.03
544.48	57565.48
544.65	57132.48
544.82	57326.74
544.99	57148.86
545.16	57256.53
545.32	57303.34
545.49	57385.25
545.66	57680.16
545.83	57483.56
546.00	57591.22
546.16	57897.83
546.33	57322.06
546.50	57485.90
546.67	57701.23
546.83	57474.20
547.00	57778.46
547.17	57748.04
547.34	57551.43
547.50	57984.43
547.67	58096.78
547.84	58106.14
548.00	57954.00
548.17	58155.29
548.34	57963.37
548.51	58131.89
548.67	57918.90
548.84	58017.20
549.01	57958.69
549.18	58054.65
549.34	58178.70
549.51	58054.65
549.68	58267.64
549.84	58267.64
550.01	58267.64
550.18	58234.87
550.34	58298.06
550.51	58553.18
550.68	58248.91
550.84	58218.49
551.01	58576.59
551.18	58300.40
551.34	58288.70
551.51	58550.84
551.68	58520.41
551.84	58557.86
552.01	58309.77
552.18	58529.78
552.34	58344.87
552.51	58555.52
552.68	58508.71
552.84	58557.86
553.01	58822.34
553.18	58700.64
553.34	58710.00
553.51	58782.55
553.67	58677.23
553.84	58693.61
554.01	58592.97
554.17	58892.56
554.34	58934.69
554.51	58922.99
554.67	59072.78
554.84	58913.62
555.00	58845.75
555.17	59037.67
555.33	58855.11
555.50	58848.09
555.67	58918.31
555.83	58841.07
556.00	58922.99
556.16	59224.92
556.33	59135.98
556.50	59032.99
556.66	59058.74
556.83	59014.27
556.99	59222.58
557.16	59377.05
557.32	59435.56
557.49	59449.61
557.65	59264.70
557.82	59325.56
557.98	59096.19
558.15	59131.29
558.32	59531.53
558.48	59367.69
558.65	59339.60
558.81	59320.88
558.98	59601.74
559.14	59618.13
559.31	59491.74
559.47	59587.70
559.64	59533.87
559.80	59615.79
559.97	59770.26
560.13	59458.97
560.30	59538.55
560.46	59760.90
560.63	59774.94
560.79	59456.63
560.96	59678.98
561.12	59704.73
561.29	59842.82
561.45	59889.63
561.61	59667.28
561.78	59683.66
561.94	59744.51
562.11	59667.28
562.27	59845.16
562.44	60018.36
562.60	59980.91
562.77	59707.07
562.93	59831.11
563.10	60013.68
563.26	59859.20
563.42	60116.66
563.59	59990.27
563.75	60018.36
563.92	59917.71
564.08	59824.09
564.24	60095.60
564.41	60151.77
564.57	60069.85
564.74	59915.37
564.90	60261.77
565.07	60004.31
565.23	60076.87
565.39	60095.60
565.56	60135.38
565.72	60257.09
565.88	60013.68
566.05	60140.07
566.21	60095.60
566.38	60186.88
566.54	59929.42
566.70	60221.98
566.87	60240.71
567.03	60154.11
567.19	60339.01
567.36	60177.51
567.52	60236.03
567.68	60636.26
567.85	60280.50
568.01	60547.32
568.17	60030.06
568.34	60306.24
568.50	60287.52
568.66	60367.10
568.83	60474.76
568.99	60257.09
569.15	60418.59
569.32	60406.89
569.48	60144.75
569.64	60488.80
569.81	60226.66
569.97	60369.44
570.13	60570.72
570.30	60289.86
570.46	60250.07
570.62	60491.15
570.78	60441.99
570.95	60441.99
571.11	60568.38
571.27	60409.23
571.43	60512.21
571.60	60385.82
571.76	60640.94
571.92	60528.59
572.09	60505.19
572.25	60411.57
572.41	60404.55
572.57	60360.08
572.74	60772.01
572.90	60434.97
573.06	60544.98
573.22	60615.19
573.38	60633.92
573.55	60355.39
573.71	60800.10
573.87	60783.71
574.03	60441.99
574.20	60615.19
574.36	60348.37
574.52	60750.94
574.68	60704.13
574.84	60823.50
575.01	60701.79
575.17	60718.18
575.33	60540.30
575.49	60507.53
575.65	60790.73
575.82	60671.37
575.98	60802.44
576.14	60846.91
576.30	60608.17
576.46	60657.32
576.62	60666.69
576.79	60629.24
576.95	60631.58
577.11	60940.53
577.27	60540.30
577.43	60704.13
577.59	60739.24
577.75	60673.71
577.92	60425.61
578.08	60554.34
578.24	60793.07
578.40	61022.45
578.56	60949.89
578.72	60851.59
578.88	60903.08
579.04	60926.49
579.21	60811.80
579.37	60853.93
579.53	60713.50
579.69	60540.30
579.85	60603.49
580.01	60685.41
580.17	60603.49
580.33	60886.70
580.49	60729.88
580.65	60896.06
580.82	60907.76
580.98	60804.78
581.14	60802.44
581.30	60893.72
581.46	60683.07
581.62	60743.92
581.78	60633.92
581.94	60816.48
582.10	60779.03
582.26	60982.66
582.42	60825.84
582.58	60755.63
582.74	60800.10
582.90	60928.83
583.06	60800.10
583.22	60781.37
583.38	60743.92
583.54	60903.08
583.70	60905.42
583.86	61034.15
584.02	60783.71
584.18	60844.57
584.34	60860.95
584.50	60942.87
584.66	60809.46
584.82	60804.78
584.98	61160.54
585.14	61087.98
585.30	60846.91
585.46	60980.32
585.62	60900.74
585.78	61059.90
585.94	60800.10
586.10	60987.34
586.26	60924.14
586.42	60980.32
586.58	60975.64
586.74	61003.72
586.90	60985.00
587.06	60947.55
587.22	61104.37
587.38	60797.76
587.54	61144.16
587.70	61146.50
587.86	60975.64
588.02	60912.44
588.18	61062.24
588.34	60938.19
588.49	61031.81
