SpectraSuite Data File
++++++++++++++++++++++++++++++++++++
Date: Fri Oct 25 10:48:12 EDT 2013
User: price-jones
Dark Spectrum Present: No
Reference Spectrum Present: No
Number of Sampled Component Spectra: 1
Spectrometers: USB2+H05261
Integration Time (usec): 100000 (USB2+H05261)
Spectra Averaged: 1 (USB2+H05261)
Boxcar Smoothing: 0 (USB2+H05261)
Correct for Electrical Dark: No (USB2+H05261)
Strobe/Lamp Enabled: No (USB2+H05261)
Correct for Detector Non-linearity: No (USB2+H05261)
Correct for Stray Light: No (USB2+H05261)
Number of Pixels in Processed Spectrum: 2048
>>>>>Begin Processed Spectral Data<<<<<
365.73	102.98
365.92	102.98
366.12	102.98
366.32	72.56
366.52	32.77
366.72	100.64
366.91	51.49
367.11	42.13
367.31	93.62
367.51	9.36
367.70	44.47
367.90	30.43
368.10	88.94
368.30	44.47
368.49	9.36
368.69	88.94
368.89	0.00
369.09	81.92
369.28	81.92
369.48	63.19
369.68	84.26
369.87	119.37
370.07	56.17
370.27	133.41
370.47	166.18
370.66	362.78
370.86	425.98
371.06	369.80
371.25	484.49
371.45	407.25
371.65	444.70
371.84	444.70
372.04	496.19
372.24	507.90
372.44	444.70
372.63	571.09
372.83	411.93
373.03	440.02
373.22	559.39
373.42	561.73
373.62	484.49
373.81	479.81
374.01	578.11
374.21	533.64
374.40	552.37
374.60	559.39
374.79	594.50
374.99	535.98
375.19	601.52
375.38	601.52
375.58	662.37
375.78	608.54
375.97	653.01
376.17	606.20
376.37	512.58
376.56	575.77
376.76	615.56
376.95	620.24
377.15	627.26
377.35	521.94
377.54	641.31
377.74	596.84
377.93	627.26
378.13	634.29
378.33	681.10
378.52	667.05
378.72	589.82
378.91	571.09
379.11	629.60
379.31	645.99
379.50	620.24
379.70	671.73
379.89	599.18
380.09	627.26
380.28	568.75
380.48	753.65
380.68	594.50
380.87	599.18
381.07	725.57
381.26	744.29
381.46	702.16
381.65	662.37
381.85	702.16
382.04	702.16
382.24	706.84
382.43	702.16
382.63	674.07
382.83	674.07
383.02	685.78
383.22	758.33
383.41	697.48
383.61	643.65
383.80	777.06
384.00	741.95
384.19	791.10
384.39	781.74
384.58	657.69
384.78	730.25
384.97	692.80
385.17	765.36
385.36	676.41
385.56	692.80
385.75	784.08
385.95	798.12
386.14	821.53
386.34	795.78
386.53	851.96
386.72	786.42
386.92	863.66
387.11	805.14
387.31	800.46
387.50	847.27
387.70	737.27
387.89	840.25
388.09	816.85
388.28	751.31
388.48	870.68
388.67	912.81
388.86	903.45
389.06	830.89
389.25	912.81
389.45	950.26
389.64	903.45
389.84	933.87
390.03	959.62
390.22	854.30
390.42	947.92
390.61	931.53
390.81	1020.47
391.00	933.87
391.19	880.04
391.39	945.58
391.58	926.85
391.78	980.68
391.97	917.49
392.16	922.17
392.36	922.17
392.55	983.02
392.75	945.58
392.94	964.30
393.13	1004.09
393.33	898.77
393.52	903.45
393.71	1144.52
393.91	1057.92
394.10	1060.26
394.29	1064.94
394.49	1076.65
394.68	1151.54
394.88	1074.31
395.07	1111.75
395.26	1130.48
395.46	1111.75
395.65	1191.33
395.84	1137.50
396.04	1177.29
396.23	1193.67
396.42	1088.35
396.62	1050.90
396.81	1238.14
397.00	1167.93
397.19	1181.97
397.39	1196.01
397.58	1268.57
397.77	1247.51
397.97	1362.19
398.16	1324.74
398.35	1385.60
398.55	1331.76
398.74	1291.98
398.93	1465.18
399.12	1289.64
399.32	1313.04
399.51	1345.81
399.70	1474.54
399.90	1411.34
400.09	1483.90
400.28	1432.41
400.47	1366.87
400.67	1502.62
400.86	1404.32
401.05	1483.90
401.24	1519.01
401.44	1427.73
401.63	1600.93
401.82	1507.30
402.01	1519.01
402.21	1488.58
402.40	1671.14
402.59	1542.41
402.78	1589.22
402.97	1542.41
403.17	1577.52
403.36	1554.12
403.55	1596.25
403.74	1652.42
403.93	1732.00
404.13	1568.16
404.32	1626.67
404.51	1668.80
404.70	1661.78
404.89	1629.01
405.09	1736.68
405.28	1680.50
405.47	1720.29
405.66	1717.95
405.85	1706.25
406.05	1743.70
406.24	1675.82
406.43	1762.42
406.62	1823.28
406.81	1916.90
407.00	1827.96
407.20	1895.83
407.39	1783.49
407.58	1886.47
407.77	1816.26
407.96	1930.94
408.15	1942.64
408.34	1891.15
408.54	2003.50
408.73	2045.63
408.92	1973.07
409.11	2073.71
409.30	1970.73
409.49	2017.54
409.68	2047.97
409.87	2094.78
410.07	2118.18
410.26	2225.85
410.45	2157.97
410.64	2148.61
410.83	2165.00
411.02	2176.70
411.21	2263.30
411.40	2218.83
411.59	2256.28
411.78	2345.22
411.98	2197.76
412.17	2445.86
412.36	2401.39
412.55	2434.16
412.74	2438.84
412.93	2408.41
413.12	2345.22
413.31	2511.39
413.50	2569.91
413.69	2427.14
413.88	2649.49
414.07	2626.08
414.26	2595.65
414.45	2633.10
414.64	2731.41
414.83	2722.04
415.02	2768.85
415.22	2626.08
415.41	2803.96
415.60	2668.21
415.79	2888.22
415.98	2815.66
416.17	2942.05
416.36	2808.64
416.55	2815.66
416.74	2963.12
416.93	2888.22
417.12	2998.23
417.31	2960.78
417.50	2963.12
417.69	3080.14
417.88	3028.65
418.07	3049.72
418.26	3110.57
418.45	3061.42
418.64	3199.51
418.83	3124.62
419.02	3206.53
419.21	3276.75
419.39	3424.20
419.58	3122.27
419.77	3197.17
419.96	3353.99
420.15	3241.64
420.34	3372.71
420.53	3478.04
420.72	3379.73
420.91	3417.18
421.10	3407.82
421.29	3452.29
421.48	3501.44
421.67	3386.76
421.86	3384.41
422.05	3471.01
422.24	3346.97
422.43	3311.86
422.61	3471.01
422.80	3391.44
422.99	3449.95
423.18	3653.58
423.37	3581.02
423.56	3576.34
423.75	3485.06
423.94	3501.44
424.13	3445.27
424.32	3398.46
424.50	3562.30
424.69	3714.43
424.88	3566.98
425.07	3482.72
425.26	3471.01
425.45	3531.87
425.64	3641.87
425.83	3571.66
426.01	3557.61
426.20	3702.73
426.39	3534.21
426.58	3625.49
426.77	3515.48
426.96	3702.73
427.15	3676.98
427.33	3634.85
427.52	3637.19
427.71	3723.79
427.90	3653.58
428.09	3749.54
428.28	3765.92
428.46	3756.56
428.65	3850.18
428.84	3866.56
429.03	3943.80
429.22	3728.47
429.40	3875.93
429.59	3908.69
429.78	3709.75
429.97	3634.85
430.16	3698.05
430.34	3772.94
430.53	3765.92
430.72	3833.80
430.91	3875.93
431.10	3932.10
431.28	4053.81
431.47	4011.68
431.66	4212.96
431.85	4049.13
432.03	4131.05
432.22	4210.62
432.41	4327.65
432.60	4142.75
432.79	4292.54
432.97	4198.92
433.16	4322.97
433.35	4297.22
433.54	4168.49
433.72	4353.40
433.91	4238.71
434.10	4301.90
434.28	4231.69
434.47	4271.48
434.66	4346.37
434.85	4388.50
435.03	4568.73
435.22	4491.49
435.41	4643.62
435.59	4519.57
435.78	4599.15
435.97	4554.68
436.16	4681.07
436.34	4524.26
436.53	4629.58
436.72	4690.43
436.90	4568.73
437.09	4737.24
437.28	4652.98
437.46	4652.98
437.65	4695.11
437.84	4685.75
438.02	4664.69
438.21	4737.24
438.40	4620.22
438.58	4968.96
438.77	4830.87
438.96	4805.12
439.14	4894.06
439.33	5125.77
439.52	5020.45
439.70	4936.19
439.89	5064.92
440.08	5060.24
440.26	5334.08
440.45	5149.18
440.63	5341.10
440.82	5366.85
441.01	5336.42
441.19	5334.08
441.38	5551.75
441.57	5430.04
441.75	5446.43
441.94	5617.29
442.12	5650.05
442.31	5748.36
442.50	5650.05
442.68	5738.99
442.87	5792.83
443.05	5727.29
443.24	5907.51
443.43	5778.78
443.61	5884.11
443.80	5900.49
443.98	5839.64
444.17	5556.43
444.35	5769.42
444.54	5727.29
444.73	5884.11
444.91	5870.06
445.10	6033.90
445.28	5912.19
445.47	5792.83
445.65	5832.62
445.84	5792.83
446.02	5928.58
446.21	5867.72
446.39	5942.62
446.58	5966.03
446.77	5844.32
446.95	5874.74
447.14	6120.50
447.32	5982.41
447.51	6094.76
447.69	6118.16
447.88	6015.18
448.06	5977.73
448.25	5998.79
448.43	6211.78
448.62	6008.16
448.80	6059.65
448.99	6019.86
449.17	6087.73
449.36	6076.03
449.54	6382.64
449.73	6237.53
449.91	6443.49
450.10	6335.83
450.28	6572.22
450.46	6459.88
450.65	6511.37
450.83	6361.58
451.02	6473.92
451.20	6443.49
451.39	6579.25
451.57	6546.48
451.76	6450.52
451.94	6476.26
452.13	6600.31
452.31	6478.60
452.49	6457.54
452.68	6445.84
452.86	6572.22
453.05	6574.56
453.23	6810.96
453.42	6520.73
453.60	6487.96
453.78	6677.55
453.97	6698.61
454.15	6511.37
454.34	6579.25
454.52	6672.87
454.70	6843.73
454.89	6817.98
455.07	6939.69
455.26	6998.20
455.44	7082.46
455.62	7054.37
455.81	6988.84
455.99	7047.35
456.17	7054.37
456.36	7094.16
456.54	7087.14
456.73	7112.89
456.91	7187.79
457.09	7372.69
457.28	7384.39
457.46	7218.21
457.64	7204.17
457.83	7138.63
458.01	7206.51
458.19	7314.17
458.38	7449.93
458.56	7585.68
458.74	7449.93
458.93	7470.99
459.11	7480.35
459.29	7653.55
459.48	7620.78
459.66	7482.69
459.84	7719.09
460.03	7714.41
460.21	7705.04
460.39	7733.13
460.57	7618.44
460.76	7763.56
460.94	7698.02
461.12	7681.64
461.31	7857.18
461.49	7915.69
461.67	7772.92
461.85	8187.19
462.04	7908.67
462.22	8280.82
462.40	8044.42
462.59	7943.78
462.77	7988.25
462.95	8142.72
463.13	8257.41
463.32	8011.65
463.50	8058.46
463.68	8222.30
463.86	7948.46
464.05	8091.23
464.23	8058.46
464.41	8095.91
464.59	8053.78
464.78	8465.72
464.96	8133.36
465.14	8126.34
465.32	8435.29
465.50	8320.60
465.69	8439.97
465.87	8226.98
466.05	8442.31
466.23	8362.73
466.41	8409.54
466.60	8575.72
466.78	8446.99
466.96	8442.31
467.14	8517.21
467.32	8439.97
467.51	8753.60
467.69	8297.20
467.87	8512.53
468.05	8631.90
468.23	8566.36
468.41	8608.49
468.60	8510.19
468.78	8798.07
468.96	8720.84
469.14	9001.70
469.32	8936.17
469.50	8615.51
469.69	8957.23
469.87	9088.30
470.05	9067.24
470.23	9078.94
470.41	9050.85
470.59	9064.89
470.77	8807.44
470.95	9064.89
471.14	9399.59
471.32	9256.82
471.50	9430.02
471.68	9111.71
471.86	9352.78
472.04	9504.92
472.22	9434.70
472.40	9338.74
472.58	9469.81
472.77	9624.28
472.95	9603.22
473.13	9745.99
473.31	9661.73
473.49	9652.37
473.67	9600.88
473.85	9542.36
474.03	9881.74
474.21	10118.14
474.39	9884.08
474.57	10359.21
474.75	10071.33
474.93	10230.48
475.12	10024.51
475.30	10394.32
475.48	10228.14
475.66	10083.03
475.84	10246.87
476.02	10370.91
476.20	10497.30
476.38	10499.64
476.56	10822.64
476.74	10721.99
476.92	10689.23
477.10	10883.49
477.28	11105.84
477.46	11105.84
477.64	10939.66
477.82	11346.92
478.00	11531.82
478.18	11166.70
478.36	11412.45
478.54	11365.64
478.72	11824.39
478.90	11882.90
479.08	11962.48
479.26	11845.45
479.44	11913.33
479.62	12035.03
479.80	12205.89
479.98	12028.01
480.16	12477.40
480.34	12376.75
480.52	12475.06
480.70	12435.27
480.88	12351.01
481.06	12636.55
481.24	12554.63
481.41	12769.96
481.59	13240.41
481.77	13083.59
481.95	13130.41
482.13	13135.09
482.31	13146.79
482.49	13621.92
482.67	13846.61
482.85	13603.19
483.03	13774.05
483.21	14068.96
483.39	14019.81
483.57	13954.27
483.74	14260.88
483.92	14286.63
484.10	14181.31
484.28	14757.08
484.46	14796.87
484.64	15171.35
484.82	14476.21
485.00	14853.04
485.18	14925.60
485.35	15002.83
485.53	15232.21
485.71	14944.32
485.89	15414.77
486.07	15410.09
486.25	15391.36
486.43	15283.70
486.61	15859.47
486.78	15901.60
486.96	15960.11
487.14	16346.30
487.32	16231.62
487.50	16610.78
487.68	16870.58
487.85	16795.68
488.03	17001.65
488.21	17305.92
488.39	16994.63
488.57	16954.84
488.75	17383.16
488.92	17661.68
489.10	17895.74
489.28	17848.93
489.46	18274.90
489.64	17930.84
489.81	18466.83
489.99	18471.51
490.17	18614.28
490.35	18834.29
490.53	18757.05
490.70	18735.99
490.88	19014.51
491.06	18995.79
491.24	18981.74
491.41	19194.73
491.59	19447.51
491.77	19208.78
491.95	19110.47
492.13	19749.44
492.30	20025.62
492.48	19910.94
492.66	20039.67
492.84	20238.61
493.01	20575.65
493.19	20264.36
493.37	20418.83
493.54	20776.94
493.72	20929.07
493.90	20938.43
494.08	20886.94
494.25	21425.26
494.43	21542.29
494.61	21584.42
494.79	21209.93
494.96	21572.72
495.14	21755.28
495.32	22050.19
495.49	21797.41
495.67	22108.70
495.85	21944.86
496.02	22551.06
496.20	22672.77
496.38	22686.81
496.55	22623.62
496.73	22941.93
496.91	23110.45
497.09	22703.20
497.26	23321.10
497.44	22951.29
497.62	23035.55
497.79	23372.59
497.97	23250.88
498.14	23676.86
498.32	23817.29
498.50	23765.80
498.67	24060.71
498.85	23831.33
499.03	24299.44
499.20	23941.34
499.38	24416.47
499.56	24430.51
499.73	24575.62
499.91	24369.66
500.08	24615.41
500.26	24805.00
500.44	24905.64
500.61	24783.93
500.79	24615.41
500.97	24624.78
501.14	25333.96
501.32	25207.57
501.49	25193.53
501.67	25256.72
501.84	25500.14
502.02	25453.33
502.20	25621.84
502.37	25759.94
502.55	25818.45
502.72	25523.54
502.90	25879.30
503.07	25986.97
503.25	26237.41
503.43	25865.26
503.60	26487.84
503.78	26534.65
503.95	26441.03
504.13	26333.37
504.30	26349.75
504.48	26356.77
504.65	26834.24
504.83	26946.59
505.01	27211.07
505.18	27002.76
505.36	27229.79
505.53	27377.25
505.71	27690.88
505.88	27229.79
506.06	27211.07
506.23	27363.20
506.41	27358.52
506.58	27557.47
506.76	27974.08
506.93	28182.39
507.11	27688.54
507.28	27665.13
507.46	28025.57
507.63	28189.41
507.81	28276.01
507.98	28065.36
508.16	28484.32
508.33	28467.94
508.50	28505.38
508.68	28081.75
508.85	28582.62
509.03	28952.43
509.20	28896.25
509.38	29074.13
509.55	29240.31
509.73	29261.38
509.90	29467.34
510.08	29179.46
510.25	29345.64
510.42	29890.98
510.60	29820.77
510.77	29420.53
510.95	30176.53
511.12	29582.03
511.30	30197.59
511.47	30143.76
511.64	30555.69
511.82	30354.41
511.99	30019.71
512.17	30274.83
512.34	30000.99
512.51	30389.52
512.69	30480.80
512.86	30754.64
513.04	31159.55
513.21	30937.20
513.38	30684.42
513.56	30974.65
513.73	30576.76
513.90	30934.86
514.08	30785.07
514.25	31307.01
514.43	31290.62
514.60	31407.65
514.77	30906.77
514.95	31278.92
515.12	31534.04
515.29	31349.14
515.47	31679.15
515.64	31604.25
515.81	32109.81
515.99	31756.39
516.16	31798.52
516.33	32105.13
516.51	32018.53
516.68	31945.97
516.85	31688.51
517.03	32100.45
517.20	31761.07
517.37	32233.86
517.54	32510.04
517.72	32046.62
517.89	32119.17
518.06	32430.46
518.24	32339.18
518.41	32477.27
518.58	32540.47
518.75	32472.59
518.93	32868.14
519.10	32664.52
519.27	32961.76
519.45	33092.83
519.62	32678.56
519.79	33450.94
519.96	33280.08
520.14	33607.75
520.31	33677.97
520.48	33839.47
520.65	33413.49
520.83	33820.74
521.00	33984.58
521.17	33675.63
521.34	33488.38
521.52	34125.01
521.69	34536.94
521.86	34302.89
522.03	34431.62
522.20	34139.05
522.38	34361.40
522.55	34857.60
522.72	34375.45
522.89	34349.70
523.07	34759.30
523.24	33991.60
523.41	34810.79
523.58	34625.89
523.75	35086.97
523.92	34721.85
524.10	35297.62
524.27	34789.72
524.44	35049.52
524.61	35393.58
524.78	35384.22
524.96	35222.72
525.13	35421.67
525.30	35775.09
525.47	35608.91
525.64	36081.70
525.81	35791.47
525.98	35583.16
526.16	35351.45
526.33	35564.44
526.50	35924.88
526.67	35976.37
526.84	35899.14
527.01	35548.06
527.18	35871.05
527.36	35955.31
527.53	35814.88
527.70	36168.30
527.87	36701.94
528.04	36261.92
528.21	36425.76
528.38	36060.63
528.55	36297.03
528.72	36474.91
528.89	36423.42
529.07	36891.52
529.24	36285.33
529.41	36760.45
529.58	36425.76
529.75	36364.90
529.92	36741.73
530.09	36996.85
530.26	37284.73
530.43	37156.00
530.60	37060.04
530.77	36982.80
530.94	37202.82
531.11	37626.45
531.28	37500.06
531.46	37408.78
531.63	37237.92
531.80	37670.92
531.97	37354.95
532.14	37446.23
532.31	37188.77
532.48	37537.51
532.65	38038.39
532.82	37813.70
532.99	37839.44
533.16	37743.48
533.33	37553.90
533.50	37970.51
533.67	38213.93
533.84	37907.32
534.01	37902.64
534.18	38555.64
534.35	38494.79
534.52	38061.79
534.69	38148.39
534.86	38286.48
535.03	38043.07
535.20	38838.85
535.37	38637.56
535.54	38696.08
535.71	38773.31
535.88	38520.54
536.05	38689.06
536.22	38712.46
536.38	38789.70
536.55	38726.50
536.72	38616.50
536.89	38621.18
537.06	38670.33
537.23	38990.98
537.40	38646.93
537.57	39182.91
537.74	39019.07
537.91	39243.76
538.08	39227.38
538.25	39213.34
538.42	38824.81
538.59	39915.50
538.75	39218.02
538.92	39306.96
539.09	39161.84
539.26	39023.75
539.43	39189.93
539.60	39210.99
539.77	39360.79
539.94	39442.71
540.11	39512.92
540.28	39253.12
540.44	39208.65
540.61	39854.64
540.78	39365.47
540.95	39779.74
541.12	39831.24
541.29	39545.69
541.46	39428.66
541.62	40030.18
541.79	40301.68
541.96	39775.06
542.13	40098.06
542.30	39985.71
542.47	40179.98
542.63	39838.26
542.80	40414.03
542.97	40584.89
543.14	40786.18
543.31	40547.44
543.48	40545.10
543.64	41198.11
543.81	40814.26
543.98	40549.78
544.15	40566.16
544.32	40514.67
544.48	41198.11
544.65	41074.06
544.82	40797.88
544.99	40741.71
545.16	41125.55
545.32	40926.61
545.49	40856.39
545.66	41427.48
545.83	41289.39
546.00	41364.29
546.16	41209.81
546.33	41476.63
546.50	40715.96
546.67	41240.24
546.83	40465.52
547.00	41811.33
547.17	41120.87
547.34	41537.49
547.50	41790.27
547.67	41549.19
547.84	41319.82
548.00	41706.01
548.17	41670.90
548.34	41684.94
548.51	42103.90
548.67	42234.97
548.84	41942.40
549.01	41865.16
549.18	41626.43
549.34	41942.40
549.51	42218.58
549.68	42197.52
549.84	42148.37
550.01	42204.54
550.18	41951.76
550.34	42106.24
550.51	41998.57
550.68	42099.22
550.84	41570.25
551.01	42220.92
551.18	42160.07
551.34	42230.29
551.51	42230.29
551.68	42719.46
551.84	42260.71
552.01	42092.19
552.18	42415.19
552.34	42026.66
552.51	42377.74
552.68	42415.19
552.84	42628.18
553.01	42653.92
553.18	42576.69
553.34	42632.86
553.51	42459.66
553.67	42501.79
553.84	42600.09
554.01	42953.51
554.17	43026.07
554.34	43000.32
554.51	43447.36
554.67	43063.52
554.84	43061.18
555.00	43173.52
555.17	42976.92
555.33	42927.77
555.50	43234.38
555.67	42677.33
555.83	43175.86
556.00	43005.00
556.16	43421.62
556.33	43407.58
556.50	43487.15
556.66	43346.72
556.83	42740.52
556.99	43271.82
557.16	43559.71
557.32	43304.59
557.49	43672.06
557.65	43145.44
557.82	43042.45
557.98	43239.06
558.15	43407.58
558.32	43569.07
558.48	43302.25
558.65	43335.02
558.81	43072.88
558.98	43491.83
559.14	43391.19
559.31	43452.05
559.47	43597.16
559.64	44130.80
559.80	43782.06
559.97	43735.25
560.13	43777.38
560.30	43756.32
560.46	43536.30
560.63	43742.27
560.79	43739.93
560.96	44048.88
561.12	43538.65
561.29	43964.62
561.45	43662.69
561.61	44058.24
561.78	43791.42
561.94	43367.79
562.11	43999.73
562.27	43700.14
562.44	43789.08
562.60	43964.62
562.77	44186.97
562.93	44051.22
563.10	43943.56
563.26	43789.08
563.42	43999.73
563.59	43863.98
563.75	43765.68
563.92	44191.65
564.08	44392.94
564.24	44151.87
564.41	44123.78
564.57	43934.20
564.74	44224.42
564.90	44362.51
565.07	44226.76
565.23	44268.89
565.39	44250.17
565.56	44559.12
565.72	43838.23
565.88	44172.93
566.05	44486.56
566.21	44385.92
566.38	44058.24
566.54	44341.45
566.70	44652.74
566.87	44678.49
567.03	44594.23
567.19	44287.62
567.36	44650.40
567.52	44165.91
567.68	44390.60
567.85	44105.06
568.01	44421.03
568.17	43899.09
568.34	44299.32
568.50	44215.06
568.66	43990.37
568.83	44240.81
568.99	43934.20
569.15	44294.64
569.32	44507.63
569.48	44121.44
569.64	44634.02
569.81	44694.87
569.97	44105.06
570.13	44732.32
570.30	44350.81
570.46	44378.90
570.62	44229.10
570.78	44500.61
570.95	44282.94
571.11	44439.75
571.27	43847.60
571.43	44577.84
571.60	44746.36
571.76	44706.57
571.92	44477.20
572.09	44355.49
572.25	44425.71
572.41	44406.98
572.57	44474.86
572.74	45134.89
572.90	44414.01
573.06	45013.18
573.22	44741.68
573.38	44732.32
573.55	44301.66
573.71	44760.40
573.87	44847.00
574.03	44406.98
574.20	44563.80
574.36	44931.26
574.52	44982.76
574.68	44315.70
574.84	44589.55
575.01	44715.93
575.17	44697.21
575.33	44444.43
575.49	44100.37
575.65	44954.67
575.82	44987.44
575.98	44580.18
576.14	44809.56
576.30	44699.55
576.46	44552.10
576.62	44587.21
576.79	44739.34
576.95	44479.54
577.11	44481.88
577.27	44348.47
577.43	44774.45
577.59	44435.07
577.75	44505.29
577.92	44165.91
578.08	44711.25
578.24	44271.23
578.40	44561.46
578.56	44409.32
578.72	44847.00
578.88	44708.91
579.04	44715.93
579.21	44261.87
579.37	44828.28
579.53	45137.23
579.69	44605.93
579.85	44729.98
580.01	44442.09
580.17	44779.13
580.33	45141.91
580.49	44715.93
580.65	44634.02
580.82	44786.15
580.98	44720.62
581.14	45024.89
581.30	44910.20
581.46	45006.16
581.62	44870.41
581.78	44928.92
581.94	45497.67
582.10	44753.38
582.26	45467.25
582.42	44385.92
582.58	44800.19
582.74	44910.20
582.90	44837.64
583.06	44598.91
583.22	45310.43
583.38	44779.13
583.54	45303.41
583.70	45270.64
583.86	44776.79
584.02	44608.27
584.18	44905.52
584.34	44797.85
584.50	44893.82
584.66	44524.01
584.82	45118.51
584.98	45336.18
585.14	44746.36
585.30	45020.20
585.46	44816.58
585.62	44921.90
585.78	44788.49
585.94	44208.04
586.10	44844.66
586.26	44605.93
586.42	44643.38
586.58	45413.41
586.74	45284.68
586.90	44502.95
587.06	45165.32
587.22	45221.49
587.38	44753.38
587.54	45120.85
587.70	45441.50
587.86	45036.59
588.02	44994.46
588.18	45006.16
588.34	44804.88
588.49	44715.93
588.65	44355.49
588.81	44641.04
588.97	45130.21
589.13	45216.81
589.29	44800.19
589.45	44554.44
589.61	45221.49
589.77	45511.72
589.93	45198.09
590.08	45092.76
590.24	45303.41
