SpectraSuite Data File
++++++++++++++++++++++++++++++++++++
Date: Fri Oct 25 10:43:51 EDT 2013
User: price-jones
Dark Spectrum Present: No
Reference Spectrum Present: No
Number of Sampled Component Spectra: 1
Spectrometers: USB2+H05261
Integration Time (usec): 100000 (USB2+H05261)
Spectra Averaged: 1 (USB2+H05261)
Boxcar Smoothing: 0 (USB2+H05261)
Correct for Electrical Dark: No (USB2+H05261)
Strobe/Lamp Enabled: No (USB2+H05261)
Correct for Detector Non-linearity: No (USB2+H05261)
Correct for Stray Light: No (USB2+H05261)
Number of Pixels in Processed Spectrum: 2048
>>>>>Begin Processed Spectral Data<<<<<
365.73	81.92
365.92	81.92
366.12	81.92
366.32	44.47
366.52	9.36
366.72	42.13
366.91	28.09
367.11	49.15
367.31	37.45
367.51	18.72
367.70	37.45
367.90	84.26
368.10	0.00
368.30	100.64
368.49	65.54
368.69	93.62
368.89	49.15
369.09	7.02
369.28	7.02
369.48	72.56
369.68	46.81
369.87	112.35
370.07	121.71
370.27	63.19
370.47	112.35
370.66	400.23
370.86	421.30
371.06	430.66
371.25	500.87
371.45	475.13
371.65	433.00
371.84	477.47
372.04	458.74
372.24	472.79
372.44	470.45
372.63	582.79
372.83	514.92
373.03	566.41
373.22	510.24
373.42	608.54
373.62	585.13
373.81	557.05
374.01	599.18
374.21	585.13
374.40	564.07
374.60	606.20
374.79	601.52
374.99	552.37
375.19	603.86
375.38	671.73
375.58	664.71
375.78	594.50
375.97	552.37
376.17	692.80
376.37	594.50
376.56	594.50
376.76	528.96
376.95	566.41
377.15	608.54
377.35	674.07
377.54	631.94
377.74	676.41
377.93	627.26
378.13	638.97
378.33	589.82
378.52	578.11
378.72	795.78
378.91	664.71
379.11	624.92
379.31	732.59
379.50	725.57
379.70	819.19
379.89	704.50
380.09	697.48
380.28	716.20
380.48	753.65
380.68	660.03
380.87	643.65
381.07	739.61
381.26	791.10
381.46	791.10
381.65	763.01
381.85	650.67
382.04	615.56
382.24	709.18
382.43	676.41
382.63	664.71
382.83	702.16
383.02	744.29
383.22	763.01
383.41	685.78
383.61	695.14
383.80	763.01
384.00	760.67
384.19	858.98
384.39	765.36
384.58	826.21
384.78	805.14
384.97	793.44
385.17	868.34
385.36	819.19
385.56	777.06
385.75	835.57
385.95	802.80
386.14	903.45
386.34	844.93
386.53	887.06
386.72	833.23
386.92	777.06
387.11	875.36
387.31	840.25
387.50	905.79
387.70	887.06
387.89	875.36
388.09	847.27
388.28	894.08
388.48	826.21
388.67	910.47
388.86	877.70
389.06	1020.47
389.25	980.68
389.45	971.32
389.64	1036.86
389.84	954.94
390.03	1027.50
390.22	1050.90
390.42	1046.22
390.61	1048.56
390.81	1022.81
391.00	1149.20
391.19	1137.50
391.39	1078.99
391.58	1128.14
391.78	1081.33
391.97	971.32
392.16	931.53
392.36	1132.82
392.55	1062.60
392.75	1008.77
392.94	971.32
393.13	1032.18
393.33	1048.56
393.52	1090.69
393.71	1130.48
393.91	1032.18
394.10	1130.48
394.29	1128.14
394.49	1188.99
394.68	1196.01
394.88	1266.23
395.07	1282.61
395.26	1238.14
395.46	1306.02
395.65	1310.70
395.84	1226.44
396.04	1341.13
396.23	1100.05
396.42	1221.76
396.62	1170.27
396.81	1247.51
397.00	1186.65
397.19	1320.06
397.39	1242.82
397.58	1385.60
397.77	1411.34
397.97	1434.75
398.16	1301.34
398.35	1514.33
398.55	1432.41
398.74	1476.88
398.93	1561.14
399.12	1542.41
399.32	1502.62
399.51	1514.33
399.70	1617.31
399.90	1542.41
400.09	1558.80
400.28	1659.44
400.47	1701.57
400.67	1781.15
400.86	1692.21
401.05	1673.48
401.24	1732.00
401.44	1645.40
401.63	1832.64
401.82	1710.93
402.01	1743.70
402.21	1809.23
402.40	1739.02
402.59	1778.81
402.78	1806.89
402.97	1898.17
403.17	1802.21
403.36	1834.98
403.55	1893.49
403.74	1961.37
403.93	1804.55
404.13	1842.00
404.32	1930.94
404.51	1930.94
404.70	1996.48
404.89	1980.09
405.09	1987.11
405.28	1944.99
405.47	1921.58
405.66	2122.87
405.85	2036.27
406.05	2017.54
406.24	2062.01
406.43	2099.46
406.62	2115.84
406.81	2111.16
407.00	2150.95
407.20	2043.29
407.39	2104.14
407.58	2207.13
407.77	2183.72
407.96	2275.00
408.15	2165.00
408.34	2200.10
408.54	2312.45
408.73	2239.89
408.92	2239.89
409.11	2333.51
409.30	2352.24
409.49	2272.66
409.68	2312.45
409.87	2340.54
410.07	2246.91
410.26	2340.54
410.45	2403.73
410.64	2553.52
410.83	2441.18
411.02	2649.49
411.21	2602.68
411.40	2656.51
411.59	2658.85
411.78	2686.94
411.98	2588.63
412.17	2710.34
412.36	2597.99
412.55	2668.21
412.74	2855.45
412.93	2679.91
413.12	2780.56
413.31	2993.55
413.50	2876.52
413.69	2895.24
413.88	2970.14
414.07	2867.16
414.26	2995.89
414.45	3016.95
414.64	3136.32
414.83	3103.55
415.02	3089.51
415.22	3115.25
415.41	3094.19
415.60	3103.55
415.79	3199.51
415.98	3220.58
416.17	3272.07
416.36	3276.75
416.55	3272.07
416.74	3129.30
416.93	3349.31
417.12	3342.28
417.31	3396.12
417.50	3461.65
417.69	3419.52
417.88	3454.63
418.07	3461.65
418.26	3496.76
418.45	3545.91
418.64	3566.98
418.83	3527.19
419.02	3571.66
419.21	3632.51
419.39	3765.92
419.58	3641.87
419.77	3737.84
419.96	3581.02
420.15	3557.61
420.34	3695.71
420.53	3840.82
420.72	3878.27
420.91	3779.97
421.10	3894.65
421.29	3990.61
421.48	3911.04
421.67	3819.75
421.86	3843.16
422.05	3953.16
422.24	3805.71
422.43	3765.92
422.61	3941.46
422.80	3999.98
422.99	3857.20
423.18	3960.19
423.37	3920.40
423.56	4021.04
423.75	3929.76
423.94	3950.82
424.13	3812.73
424.32	3831.46
424.50	4053.81
424.69	4072.53
424.88	4049.13
425.07	3922.74
425.26	3920.40
425.45	4065.51
425.64	4119.34
425.83	3990.61
426.01	3960.19
426.20	4042.11
426.39	3941.46
426.58	4004.66
426.77	3880.61
426.96	4044.45
427.15	4112.32
427.33	4021.04
427.52	4196.58
427.71	4133.39
427.90	4182.54
428.09	4318.29
428.28	4180.20
428.46	4318.29
428.65	4248.07
428.84	4390.84
429.03	4236.37
429.22	4112.32
429.40	4231.69
429.59	4189.56
429.78	4025.72
429.97	3960.19
430.16	4058.49
430.34	4100.62
430.53	4196.58
430.72	4238.71
430.91	4238.71
431.10	4325.31
431.28	4587.45
431.47	4671.71
431.66	4772.35
431.85	4596.81
432.03	4702.14
432.22	4828.53
432.41	4613.20
432.60	4739.58
432.79	4858.95
432.97	4926.83
433.16	4823.84
433.35	4723.20
433.54	4641.28
433.72	4746.61
433.91	4704.48
434.10	4833.21
434.28	4798.10
434.47	4858.95
434.66	5006.41
434.85	4917.47
435.03	5088.32
435.22	5078.96
435.41	5158.54
435.59	5160.88
435.78	5205.35
435.97	5303.65
436.16	5308.34
436.34	5252.16
436.53	5336.42
436.72	5500.26
436.90	5132.79
437.09	5280.25
437.28	5200.67
437.46	5303.65
437.65	5327.06
437.84	5254.50
438.02	5280.25
438.21	5275.57
438.40	5331.74
438.58	5315.36
438.77	5706.23
438.96	5444.09
439.14	5593.88
439.33	5748.36
439.52	5654.73
439.70	5692.18
439.89	5753.04
440.08	5795.17
440.26	5870.06
440.45	5790.49
440.63	6008.16
440.82	6073.69
441.01	5870.06
441.19	6076.03
441.38	6059.65
441.57	6052.63
441.75	6197.74
441.94	6291.36
442.12	6417.75
442.31	6345.19
442.50	6401.37
442.68	6415.41
442.87	6434.13
443.05	6427.11
443.24	6494.99
443.43	6534.78
443.61	6471.58
443.80	6785.21
443.98	6401.37
444.17	6366.26
444.35	6612.01
444.54	6904.58
444.73	6672.87
444.91	6546.48
445.10	6637.76
445.28	6532.44
445.47	6567.54
445.65	6406.05
445.84	6380.30
446.02	6626.06
446.21	6703.29
446.39	6590.95
446.58	6663.51
446.77	6703.29
446.95	6572.22
447.14	6726.70
447.32	6860.11
447.51	6679.89
447.69	6771.17
447.88	6775.85
448.06	6726.70
448.25	6757.13
448.43	6892.88
448.62	6750.10
448.80	6773.51
448.99	6949.05
449.17	6927.99
449.36	6991.18
449.54	6909.26
449.73	7077.78
449.91	7307.15
450.10	7239.28
450.28	7349.28
450.46	7496.74
450.65	7201.83
450.83	7194.81
451.02	7283.75
451.20	7283.75
451.39	7447.58
451.57	7145.66
451.76	7234.60
451.94	7274.38
452.13	7297.79
452.31	7283.75
452.49	7218.21
452.68	7302.47
452.86	7307.15
453.05	7468.65
453.23	7358.64
453.42	7529.50
453.60	7382.05
453.78	7571.63
453.97	7372.69
454.15	7403.11
454.34	7412.48
454.52	7639.51
454.70	7590.36
454.89	7655.89
455.07	7700.36
455.26	7679.30
455.44	7815.05
455.62	7805.69
455.81	7836.11
455.99	8074.85
456.17	7880.58
456.36	7981.23
456.54	7899.31
456.73	8028.04
456.91	8175.49
457.09	8273.79
457.28	8287.84
457.46	8058.46
457.64	8411.89
457.83	8409.54
458.01	8072.51
458.19	8362.73
458.38	8231.66
458.56	8315.92
458.74	8322.94
458.93	8224.64
459.11	8255.07
459.29	8327.63
459.48	8697.43
459.66	8379.12
459.84	8503.17
460.03	8624.87
460.21	8709.13
460.39	8557.00
460.57	8674.03
460.76	8685.73
460.94	8739.56
461.12	8786.37
461.31	8929.14
461.49	8915.10
461.67	8648.28
461.85	8879.99
462.04	8985.32
462.22	9125.75
462.40	9064.89
462.59	9046.17
462.77	8919.78
462.95	9085.96
463.13	8945.53
463.32	8957.23
463.50	9191.28
463.68	9240.44
463.86	9184.26
464.05	8879.99
464.23	9231.07
464.41	9114.05
464.59	8952.55
464.78	9341.08
464.96	9027.45
465.14	9048.51
465.32	9247.46
465.50	9327.03
465.69	9458.10
465.87	9462.79
466.05	9156.18
466.23	9097.66
466.41	9397.25
466.60	9577.47
466.78	9238.09
466.96	9320.01
467.14	9188.94
467.32	9589.17
467.51	9530.66
467.69	9275.54
467.87	9453.42
468.05	9743.65
468.23	9568.11
468.41	9643.01
468.60	9598.54
468.78	9673.43
468.96	9813.87
469.14	9909.83
469.32	10113.45
469.50	9631.30
469.69	9802.16
469.87	9804.50
470.05	9940.26
470.23	10090.05
470.41	10043.24
470.59	10071.33
470.77	9832.59
470.95	10022.17
471.14	10356.87
471.32	9989.41
471.50	10417.72
471.68	10459.85
471.86	10544.11
472.04	10593.26
472.22	10738.38
472.40	10370.91
472.58	10473.90
472.77	10560.50
472.95	10560.50
473.13	11105.84
473.31	10558.16
473.49	10644.76
473.67	10705.61
473.85	10651.78
474.03	11087.12
474.21	11173.72
474.39	11250.96
474.57	11300.11
474.75	11157.33
474.93	11199.46
475.12	11267.34
475.30	11461.60
475.48	11290.74
475.66	11482.67
475.84	11407.77
476.02	11344.58
476.20	11660.55
476.38	11765.87
476.56	12163.76
476.74	11847.79
476.92	12053.76
477.10	11981.20
477.28	12332.28
477.46	12077.16
477.64	12531.23
477.82	12470.37
478.00	12835.50
478.18	12599.10
478.36	12755.92
478.54	12849.54
478.72	12863.58
478.90	12980.61
479.08	13399.57
479.26	13146.79
479.44	13139.77
479.62	13483.83
479.80	13518.93
479.98	13530.64
480.16	13680.43
480.34	13731.92
480.52	13928.53
480.70	14054.92
480.88	14040.87
481.06	14008.11
481.24	14181.31
481.41	14127.47
481.59	14946.66
481.77	14356.85
481.95	14267.91
482.13	14787.50
482.31	14733.67
482.49	15164.33
482.67	14953.68
482.85	15279.02
483.03	15274.34
483.21	15531.80
483.39	15339.87
483.57	15733.08
483.74	15367.96
483.92	15899.26
484.10	15819.68
484.28	15700.31
484.46	16439.92
484.64	16372.05
484.82	16208.21
485.00	16114.59
485.18	16706.74
485.35	16624.83
485.53	16587.38
485.71	16306.51
485.89	16446.94
486.07	16561.63
486.25	16744.19
486.43	17104.64
486.61	17287.20
486.78	17198.26
486.96	17495.50
487.14	18001.06
487.32	17916.80
487.50	17951.91
487.68	18319.37
487.85	18511.30
488.03	18684.50
488.21	18799.18
488.39	18747.69
488.57	18890.46
488.75	18764.07
488.92	19372.61
489.10	19363.25
489.28	19733.06
489.46	19756.46
489.64	19791.57
489.81	20098.18
489.99	20250.32
490.17	20568.63
490.35	20554.58
490.53	20409.47
490.70	20718.42
490.88	20545.22
491.06	21132.70
491.24	21018.01
491.41	20947.79
491.59	21256.75
491.77	21081.21
491.95	21099.93
492.13	21755.28
492.30	21593.78
492.48	21673.36
492.66	21811.45
492.84	21785.71
493.01	22279.56
493.19	21951.88
493.37	22366.16
493.54	22286.58
493.72	22801.50
493.90	23005.13
494.08	23154.92
494.25	23339.82
494.43	23447.49
494.61	23709.63
494.79	24056.03
494.96	23889.85
495.14	23861.76
495.32	24280.72
495.49	24102.84
495.67	24203.48
495.85	24254.97
496.02	24547.54
496.20	24704.35
496.38	24638.82
496.55	24744.14
496.73	24781.59
496.91	25223.95
497.09	25408.86
497.26	24959.47
497.44	25544.61
497.62	25696.74
497.79	25738.87
497.97	25207.57
498.14	25757.60
498.32	25776.32
498.50	25900.37
498.67	25872.28
498.85	26054.84
499.03	26562.74
499.20	26387.20
499.38	26384.86
499.56	26623.59
499.73	26904.46
499.91	27145.53
500.08	26742.96
500.26	26885.73
500.44	27026.17
500.61	27012.12
500.79	26682.11
500.97	27119.79
501.14	27400.65
501.32	27080.00
501.49	27175.96
501.67	27072.98
501.84	27740.03
502.02	27964.72
502.20	27962.38
502.37	27751.73
502.55	28037.28
502.72	28233.88
502.90	28671.56
503.07	28074.73
503.25	28556.88
503.43	28790.93
503.60	28322.82
503.78	28332.18
503.95	28254.95
504.13	28795.61
504.30	28929.02
504.48	28992.22
504.65	29200.52
504.83	29247.33
505.01	29331.59
505.18	29069.45
505.36	29495.43
505.53	29933.11
505.71	29930.77
505.88	29862.90
506.06	29762.25
506.23	30066.52
506.41	29888.64
506.58	30132.06
506.76	29830.13
506.93	30178.87
507.11	30235.04
507.28	30206.95
507.46	30139.08
507.63	30190.57
507.81	30328.66
507.98	30127.38
508.16	30892.73
508.33	30944.22
508.50	30866.98
508.68	31030.82
508.85	31440.42
509.03	31150.19
509.20	31321.05
509.38	31522.34
509.55	31850.01
509.73	31419.35
509.90	31693.19
510.08	31992.78
510.25	31805.54
510.42	32044.27
510.60	31875.76
510.77	31899.16
510.95	32224.50
511.12	31852.35
511.30	32385.99
511.47	32865.80
511.64	32570.90
511.82	32385.99
511.99	32474.93
512.17	32692.60
512.34	33167.73
512.51	32982.83
512.69	32924.32
512.86	33109.22
513.04	33596.05
513.21	33354.97
513.38	33069.43
513.56	33429.87
513.73	33020.28
513.90	33301.14
514.08	33530.51
514.25	33528.17
514.43	33570.30
514.60	33654.56
514.77	33457.96
514.95	34057.14
515.12	33921.38
515.29	33804.36
515.47	34384.81
515.64	34665.67
515.81	34211.61
515.99	34043.09
516.16	34033.73
516.33	34153.10
516.51	34338.00
516.68	33479.02
516.85	33399.44
517.03	33771.59
517.20	34256.08
517.37	34588.44
517.54	34583.76
517.72	34852.92
517.89	34300.55
518.06	34452.69
518.24	34394.17
518.41	34749.93
518.58	34637.59
518.75	34726.53
518.93	35084.63
519.10	35206.34
519.27	35409.96
519.45	35295.28
519.62	35784.45
519.79	35693.17
519.96	35477.84
520.14	35498.91
520.31	35519.97
520.48	35653.38
520.65	35772.75
520.83	35772.75
521.00	36765.14
521.17	36107.44
521.34	36027.87
521.52	36364.90
521.69	36479.59
521.86	36856.42
522.03	36690.24
522.20	36500.65
522.38	36664.49
522.55	36617.68
522.72	36704.28
522.89	36989.83
523.07	37202.82
523.24	36673.85
523.41	37371.33
523.58	37186.43
523.75	37888.59
523.92	37390.06
524.10	37717.73
524.27	37542.19
524.44	37235.58
524.61	37675.60
524.78	37883.91
524.96	38272.44
525.13	37769.22
525.30	38115.62
525.47	37851.14
525.64	37837.10
525.81	37982.21
525.98	37855.82
526.16	37380.70
526.33	37413.46
526.50	37865.19
526.67	37537.51
526.84	37521.13
527.01	37600.71
527.18	38347.34
527.36	38656.29
527.53	38698.42
527.70	38581.39
527.87	38773.31
528.04	38462.02
528.21	38719.48
528.38	38625.86
528.55	39433.35
528.72	39360.79
528.89	39058.86
529.07	38829.49
529.24	38724.16
529.41	38862.26
529.58	39299.94
529.75	39098.65
529.92	39498.88
530.09	39302.28
530.26	38969.92
530.43	39288.23
530.60	39571.44
530.77	39545.69
530.94	40065.29
531.11	39459.09
531.28	40034.86
531.46	40142.53
531.63	40224.45
531.80	39931.88
531.97	39438.03
532.14	39679.10
532.31	39496.54
532.48	39648.68
532.65	39938.90
532.82	39735.27
532.99	39751.66
533.16	40126.14
533.33	40444.46
533.50	40250.19
533.67	40807.24
533.84	40067.63
534.01	40627.02
534.18	40355.52
534.35	41064.70
534.52	40383.60
534.69	40470.20
534.86	40968.74
535.03	40657.45
535.20	40957.03
535.37	41109.17
535.54	41450.89
535.71	40966.40
535.88	40994.48
536.05	40896.18
536.22	40900.86
536.38	40655.11
536.55	40737.02
536.72	41041.29
536.89	41261.30
537.06	41141.94
537.23	41911.97
537.40	41235.56
537.57	40903.20
537.74	41626.43
537.91	41881.55
538.08	41509.40
538.25	41184.07
538.42	41696.64
538.59	41869.84
538.75	41497.70
538.92	41294.07
539.09	41710.69
539.26	41624.09
539.43	41710.69
539.60	41605.36
539.77	41631.11
539.94	41654.51
540.11	41661.54
540.28	41794.95
540.44	41549.19
540.61	41820.69
540.78	42078.15
540.95	42033.68
541.12	42029.00
541.29	42014.96
541.46	42220.92
541.62	41816.01
541.79	42202.20
541.96	41687.28
542.13	42522.85
542.30	42293.48
542.47	42693.71
542.63	42419.87
542.80	42515.83
542.97	43049.47
543.14	43196.93
543.31	42808.40
543.48	42508.81
543.64	43037.77
543.81	43313.95
543.98	42948.83
544.15	42653.92
544.32	43412.26
544.48	43674.40
544.65	43157.14
544.82	43601.84
544.99	43161.82
545.16	43269.48
545.32	43185.22
545.49	43583.12
545.66	43683.76
545.83	43842.92
546.00	43435.66
546.16	43487.15
546.33	43704.82
546.50	43370.13
546.67	43957.60
546.83	42993.30
547.00	43690.78
547.17	43409.92
547.34	43414.60
547.50	43831.21
547.67	43981.01
547.84	44065.27
548.00	43765.68
548.17	44072.29
548.34	44189.31
548.51	44425.71
548.67	43957.60
548.84	43875.68
549.01	43952.92
549.18	44502.95
549.34	44060.58
549.51	44121.44
549.68	44404.64
549.84	44622.31
550.01	44053.56
550.18	44313.36
550.34	44060.58
550.51	44552.10
550.68	44254.85
550.84	43658.01
551.01	44311.02
551.18	44224.42
551.34	44395.28
551.51	45174.68
551.68	44526.35
551.84	44397.62
552.01	44357.83
552.18	44783.81
552.34	44194.00
552.51	45015.52
552.68	44907.86
552.84	44713.59
553.01	44505.29
553.18	44673.81
553.34	44781.47
553.51	45434.48
553.67	44821.26
553.84	45153.62
554.01	44910.20
554.17	45207.45
554.34	45556.19
554.51	45027.23
554.67	45319.79
554.84	44856.37
555.00	44641.04
555.17	45055.31
555.33	45305.75
555.50	45422.78
555.67	44488.90
555.83	45373.63
556.00	44954.67
556.16	45654.49
556.33	45088.08
556.50	45514.06
556.66	44858.71
556.83	44978.07
556.99	45029.57
557.16	45387.67
557.32	45453.20
557.49	45518.74
557.65	45125.53
557.82	45247.24
557.98	45443.84
558.15	45455.54
558.32	45317.45
558.48	45371.28
558.65	45345.54
558.81	45052.97
558.98	45153.62
559.14	45366.60
559.31	45645.13
559.47	45682.58
559.64	45624.06
559.80	45848.75
559.97	45801.94
560.13	45673.21
560.30	45612.36
560.46	45361.92
560.63	45619.38
560.79	45975.14
560.96	45900.25
561.12	45387.67
561.29	45640.45
561.45	45841.73
561.61	45923.65
561.78	45736.41
561.94	45209.79
562.11	45382.99
562.27	45825.35
562.44	45535.12
562.60	46064.08
562.77	46033.66
562.93	45811.31
563.10	46281.75
563.26	45525.76
563.42	45904.93
563.59	45862.80
563.75	45769.18
563.92	45907.27
564.08	45865.14
564.24	46129.62
564.41	45940.04
564.57	46204.52
564.74	45350.22
564.90	45647.47
565.07	46253.67
565.23	45937.69
565.39	45818.33
565.56	45914.29
565.72	45441.50
565.88	46092.17
566.05	45698.96
566.21	45869.82
566.38	45984.51
566.54	45942.38
566.70	46218.56
566.87	46230.26
567.03	46122.60
567.19	46679.64
567.36	46405.80
567.52	45998.55
567.68	46534.53
567.85	45968.12
568.01	46497.08
568.17	46153.02
568.34	46101.53
568.50	46272.39
568.66	45769.18
568.83	46256.01
568.99	45914.29
569.15	46195.15
569.32	46466.66
569.48	45989.19
569.64	46223.24
569.81	46309.84
569.97	46277.07
570.13	46377.72
570.30	46232.60
570.46	46028.98
570.62	45500.01
570.78	46120.26
570.95	45806.62
571.11	45855.78
571.27	45799.60
571.43	46195.15
571.60	46218.56
571.76	45928.33
571.92	46375.37
572.09	46316.86
572.25	46473.68
572.41	46347.29
572.57	46286.43
572.74	46356.65
572.90	46117.92
573.06	46473.68
573.22	46349.63
573.38	46258.35
573.55	46124.94
573.71	45944.72
573.87	46183.45
574.03	46326.22
574.20	46635.17
574.36	46237.28
574.52	46316.86
574.68	46028.98
574.84	46223.24
575.01	45916.63
575.17	46171.75
575.33	45979.82
575.49	46082.81
575.65	45815.99
575.82	46457.29
575.98	46216.22
576.14	46440.91
576.30	46490.06
576.46	46075.79
576.62	46010.25
576.79	46218.56
576.95	46131.96
577.11	46246.65
577.27	46373.03
577.43	45904.93
577.59	46122.60
577.75	46375.37
577.92	45778.54
578.08	46036.00
578.24	46679.64
578.40	46021.95
578.56	46330.90
578.72	46309.84
578.88	46597.73
579.04	46267.71
579.21	46206.86
579.37	46213.88
579.53	46307.50
579.69	46539.21
579.85	46529.85
580.01	46632.83
580.17	46576.66
580.33	46080.47
580.49	46602.41
580.65	46347.29
580.82	46127.28
580.98	46569.64
581.14	46005.57
581.30	46293.46
581.46	46267.71
581.62	46710.07
581.78	46323.88
581.94	46649.22
582.10	46354.31
582.26	46277.07
582.42	46602.41
582.58	46564.96
582.74	46396.44
582.90	46138.98
583.06	46642.20
583.22	46461.97
583.38	46986.25
583.54	46328.56
583.70	46499.42
583.86	46391.76
584.02	46595.38
584.18	46593.04
584.34	46492.40
584.50	46401.12
584.66	46791.99
584.82	46370.69
584.98	46307.50
585.14	46784.97
585.30	46033.66
585.46	46817.74
585.62	46471.34
585.78	46429.21
585.94	45879.18
586.10	46328.56
586.26	46153.02
586.42	46663.26
586.58	46309.84
586.74	46490.06
586.90	46153.02
587.06	46560.28
587.22	46588.36
587.38	46536.87
587.54	46859.87
587.70	46354.31
587.86	46492.40
588.02	46241.96
588.18	46525.17
588.34	46153.02
588.49	46087.49
588.65	45607.68
588.81	45785.56
588.97	46073.45
589.13	45982.16
589.29	46241.96
589.45	46204.52
589.61	46234.94
589.77	46562.62
589.93	46869.23
