SpectraSuite Data File
++++++++++++++++++++++++++++++++++++
Date: Fri Oct 25 10:47:15 EDT 2013
User: price-jones
Dark Spectrum Present: No
Reference Spectrum Present: No
Number of Sampled Component Spectra: 1
Spectrometers: USB2+H05261
Integration Time (usec): 100000 (USB2+H05261)
Spectra Averaged: 1 (USB2+H05261)
Boxcar Smoothing: 0 (USB2+H05261)
Correct for Electrical Dark: No (USB2+H05261)
Strobe/Lamp Enabled: No (USB2+H05261)
Correct for Detector Non-linearity: No (USB2+H05261)
Correct for Stray Light: No (USB2+H05261)
Number of Pixels in Processed Spectrum: 2048
>>>>>Begin Processed Spectral Data<<<<<
365.73	175.54
365.92	175.54
366.12	175.54
366.32	37.45
366.52	86.60
366.72	18.72
366.91	23.41
367.11	100.64
367.31	65.54
367.51	9.36
367.70	23.41
367.90	95.96
368.10	30.43
368.30	9.36
368.49	39.79
368.69	149.79
368.89	58.51
369.09	7.02
369.28	63.19
369.48	11.70
369.68	32.77
369.87	114.69
370.07	65.54
370.27	159.16
370.47	224.69
370.66	435.34
370.86	440.02
371.06	400.23
371.25	416.62
371.45	440.02
371.65	486.83
371.84	437.68
372.04	489.17
372.24	486.83
372.44	449.38
372.63	430.66
372.83	500.87
373.03	507.90
373.22	414.27
373.42	470.45
373.62	479.81
373.81	550.03
374.01	482.15
374.21	538.32
374.40	535.98
374.60	503.22
374.79	540.66
374.99	505.56
375.19	552.37
375.38	486.83
375.58	592.16
375.78	599.18
375.97	571.09
376.17	540.66
376.37	620.24
376.56	557.05
376.76	587.47
376.95	564.07
377.15	596.84
377.35	620.24
377.54	601.52
377.74	554.71
377.93	526.62
378.13	589.82
378.33	674.07
378.52	615.56
378.72	685.78
378.91	543.00
379.11	641.31
379.31	685.78
379.50	543.00
379.70	653.01
379.89	671.73
380.09	566.41
380.28	667.05
380.48	603.86
380.68	650.67
380.87	629.60
381.07	702.16
381.26	655.35
381.46	650.67
381.65	629.60
381.85	620.24
382.04	622.58
382.24	741.95
382.43	596.84
382.63	662.37
382.83	709.18
383.02	732.59
383.22	725.57
383.41	678.76
383.61	699.82
383.80	753.65
384.00	741.95
384.19	690.46
384.39	706.84
384.58	660.03
384.78	770.04
384.97	727.91
385.17	779.40
385.36	676.41
385.56	725.57
385.75	667.05
385.95	784.08
386.14	692.80
386.34	786.42
386.53	699.82
386.72	723.23
386.92	798.12
387.11	816.85
387.31	891.74
387.50	807.48
387.70	800.46
387.89	723.23
388.09	819.19
388.28	828.55
388.48	800.46
388.67	849.61
388.86	788.76
389.06	898.77
389.25	844.93
389.45	833.23
389.64	830.89
389.84	835.57
390.03	875.36
390.22	894.08
390.42	814.51
390.61	746.63
390.81	835.57
391.00	819.19
391.19	940.90
391.39	837.91
391.58	959.62
391.78	954.94
391.97	875.36
392.16	912.81
392.36	966.64
392.55	896.43
392.75	856.64
392.94	917.49
393.13	821.53
393.33	919.83
393.52	1071.97
393.71	968.98
393.91	1095.37
394.10	1011.11
394.29	1011.11
394.49	990.05
394.68	1036.86
394.88	1071.97
395.07	1107.07
395.26	1076.65
395.46	1057.92
395.65	1121.12
395.84	1125.80
396.04	1123.46
396.23	1078.99
396.42	1032.18
396.62	1142.18
396.81	1163.25
397.00	1093.03
397.19	1214.74
397.39	1165.59
397.58	1188.99
397.77	1196.01
397.97	1118.78
398.16	1240.48
398.35	1228.78
398.55	1219.42
398.74	1247.51
398.93	1282.61
399.12	1299.00
399.32	1193.67
399.51	1280.27
399.70	1273.25
399.90	1362.19
400.09	1322.40
400.28	1334.11
400.47	1303.68
400.67	1404.32
400.86	1427.73
401.05	1423.05
401.24	1364.53
401.44	1469.86
401.63	1385.60
401.82	1444.11
402.01	1387.94
402.21	1411.34
402.40	1441.77
402.59	1514.33
402.78	1394.96
402.97	1437.09
403.17	1497.94
403.36	1476.88
403.55	1493.26
403.74	1568.16
403.93	1551.78
404.13	1523.69
404.32	1547.09
404.51	1533.05
404.70	1703.91
404.89	1666.46
405.09	1678.16
405.28	1570.50
405.47	1565.82
405.66	1664.12
405.85	1687.53
406.05	1654.76
406.24	1724.97
406.43	1692.21
406.62	1671.14
406.81	1818.60
407.00	1753.06
407.20	1696.89
407.39	1708.59
407.58	1858.39
407.77	1856.04
407.96	1865.41
408.15	1900.52
408.34	1853.70
408.54	1863.07
408.73	1926.26
408.92	1830.30
409.11	1898.17
409.30	2050.31
409.49	1928.60
409.68	2005.84
409.87	1865.41
410.07	1930.94
410.26	2026.90
410.45	1954.35
410.64	2106.48
410.83	2071.37
411.02	2031.58
411.21	2197.76
411.40	2141.59
411.59	2230.53
411.78	2289.04
411.98	2083.08
412.17	2197.76
412.36	2235.21
412.55	2375.64
412.74	2232.87
412.93	2424.80
413.12	2230.53
413.31	2300.75
413.50	2310.11
413.69	2422.45
413.88	2385.01
414.07	2434.16
414.26	2532.46
414.45	2392.03
414.64	2544.16
414.83	2576.93
415.02	2609.70
415.22	2679.91
415.41	2614.38
415.60	2679.91
415.79	2698.64
415.98	2705.66
416.17	2766.51
416.36	2766.51
416.55	2710.34
416.74	2696.30
416.93	2740.77
417.12	2726.72
417.31	2827.37
417.50	2895.24
417.69	2988.86
417.88	3075.46
418.07	2911.63
418.26	3021.63
418.45	2949.08
418.64	3075.46
418.83	3014.61
419.02	2949.08
419.21	3096.53
419.39	2986.52
419.58	2963.12
419.77	3096.53
419.96	3220.58
420.15	3145.68
420.34	3061.42
420.53	3117.59
420.72	3243.98
420.91	3267.39
421.10	3276.75
421.29	3293.13
421.48	3148.02
421.67	3239.30
421.86	3251.00
422.05	3206.53
422.24	3307.18
422.43	3318.88
422.61	3384.41
422.80	3302.50
422.99	3377.39
423.18	3279.09
423.37	3431.23
423.56	3372.71
423.75	3286.11
423.94	3288.45
424.13	3080.14
424.32	3218.24
424.50	3438.25
424.69	3424.20
424.88	3499.10
425.07	3307.18
425.26	3398.46
425.45	3316.54
425.64	3342.28
425.83	3375.05
426.01	3398.46
426.20	3426.54
426.39	3456.97
426.58	3391.44
426.77	3412.50
426.96	3330.58
427.15	3445.27
427.33	3384.41
427.52	3604.42
427.71	3604.42
427.90	3520.17
428.09	3536.55
428.28	3698.05
428.46	3555.27
428.65	3630.17
428.84	3679.32
429.03	3681.66
429.22	3611.45
429.40	3719.11
429.59	3672.30
429.78	3581.02
429.97	3454.63
430.16	3548.25
430.34	3693.37
430.53	3840.82
430.72	3691.02
430.91	3747.20
431.10	3763.58
431.28	3894.65
431.47	4021.04
431.66	3992.95
431.85	3829.12
432.03	3997.64
432.22	3967.21
432.41	4042.11
432.60	4105.30
432.79	4042.11
432.97	4119.34
433.16	4105.30
433.35	4124.02
433.54	4177.86
433.72	4042.11
433.91	4117.00
434.10	4044.45
434.28	4060.83
434.47	4109.98
434.66	4222.33
434.85	4191.90
435.03	4196.58
435.22	4156.79
435.41	4276.16
435.59	4404.89
435.78	4322.97
435.97	4437.66
436.16	4299.56
436.34	4273.82
436.53	4542.98
436.72	4585.11
436.90	4437.66
437.09	4442.34
437.28	4229.35
437.46	4554.68
437.65	4327.65
437.84	4571.07
438.02	4463.40
438.21	4564.04
438.40	4489.15
438.58	4629.58
438.77	4660.01
438.96	4608.51
439.14	4697.46
439.33	4685.75
439.52	4856.61
439.70	4959.60
439.89	4891.72
440.08	4856.61
440.26	4947.89
440.45	4905.76
440.63	5170.24
440.82	5088.32
441.01	5149.18
441.19	5170.24
441.38	5219.39
441.57	5355.15
441.75	5275.57
441.94	5373.87
442.12	5303.65
442.31	5444.09
442.50	5511.96
442.68	5343.44
442.87	5423.02
443.05	5308.34
443.24	5528.35
443.43	5481.53
443.61	5516.64
443.80	5792.83
443.98	5490.90
444.17	5270.89
444.35	5561.11
444.54	5626.65
444.73	5659.42
444.91	5598.56
445.10	5502.60
445.28	5544.73
445.47	5600.90
445.65	5533.03
445.84	5575.16
446.02	5729.63
446.21	5465.15
446.39	5561.11
446.58	5757.72
446.77	5692.18
446.95	5425.36
447.14	5619.63
447.32	5781.12
447.51	5540.05
447.69	5689.84
447.88	5605.58
448.06	5708.57
448.25	5535.37
448.43	5696.86
448.62	5593.88
448.80	5820.91
448.99	5607.92
449.17	5834.96
449.36	5874.74
449.54	5907.51
449.73	6080.71
449.91	6045.60
450.10	6071.35
450.28	6127.52
450.46	6092.41
450.65	6038.58
450.83	6076.03
451.02	6249.23
451.20	6263.27
451.39	6171.99
451.57	6186.04
451.76	6134.54
451.94	6181.35
452.13	6253.91
452.31	6188.38
452.49	6024.54
452.68	6242.21
452.86	6305.40
453.05	6253.91
453.23	6424.77
453.42	6354.55
453.60	6377.96
453.78	6558.18
453.97	6155.61
454.15	6406.05
454.34	6347.53
454.52	6544.14
454.70	6548.82
454.89	6370.94
455.07	6427.11
455.26	6602.65
455.44	6623.72
455.62	6668.19
455.81	6567.54
455.99	6612.01
456.17	6691.59
456.36	6853.09
456.54	6808.62
456.73	6988.84
456.91	7019.27
457.09	7049.69
457.28	7206.51
457.46	6923.30
457.64	6810.96
457.83	7019.27
458.01	6963.09
458.19	7066.08
458.38	7019.27
458.56	7075.44
458.74	7061.40
458.93	7176.08
459.11	7178.42
459.29	7157.36
459.48	7243.96
459.66	7262.68
459.84	7321.20
460.03	7419.50
460.21	7370.35
460.39	7426.52
460.57	7494.40
460.76	7276.73
460.94	7400.77
461.12	7375.03
461.31	7499.08
461.49	7482.69
461.67	7522.48
461.85	7632.49
462.04	7510.78
462.22	7871.22
462.40	7793.98
462.59	7817.39
462.77	7623.12
462.95	7658.23
463.13	7812.71
463.32	7747.17
463.50	7784.62
463.68	7887.61
463.86	7770.58
464.05	7733.13
464.23	7779.94
464.41	7873.56
464.59	7632.49
464.78	8002.29
464.96	7875.90
465.14	7730.79
465.32	7852.50
465.50	8011.65
465.69	7943.78
465.87	7896.97
466.05	8196.56
466.23	8013.99
466.41	8091.23
466.60	8243.37
466.78	8030.38
466.96	7971.86
467.14	8168.47
467.32	8180.17
467.51	8217.62
467.69	7943.78
467.87	8145.06
468.05	8372.10
468.23	8257.41
468.41	8238.69
468.60	8299.54
468.78	8477.42
468.96	8329.97
469.14	8280.82
469.32	8557.00
469.50	8322.94
469.69	8606.15
469.87	8732.54
470.05	8528.91
470.23	8430.61
470.41	8367.42
470.59	8655.30
470.77	8753.60
470.95	8861.27
471.14	8769.99
471.32	8816.80
471.50	9062.55
471.68	8828.50
471.86	8875.31
472.04	8889.35
472.22	9102.34
472.40	8765.31
472.58	9041.49
472.77	9132.77
472.95	9315.33
473.13	9647.69
473.31	9228.73
473.49	9104.68
473.67	9219.37
473.85	9462.79
474.03	9439.38
474.21	9624.28
474.39	9628.96
474.57	9575.13
474.75	9596.20
474.93	9727.27
475.12	9743.65
475.30	9956.64
475.48	9738.97
475.66	9762.37
475.84	9914.51
476.02	9856.00
476.20	10047.92
476.38	10284.31
476.56	10490.28
476.74	10279.63
476.92	10127.50
477.10	10377.94
477.28	10665.82
477.46	10668.16
477.64	10593.26
477.82	10874.13
478.00	10934.98
478.18	11077.76
478.36	11063.71
478.54	11105.84
478.72	11335.21
478.90	11023.92
479.08	11358.62
479.26	11452.24
479.44	11545.86
479.62	11702.68
479.80	11747.15
479.98	11908.65
480.16	11913.33
480.34	11868.86
480.52	11843.11
480.70	12142.70
480.88	11887.58
481.06	12180.15
481.24	12156.74
481.41	12400.16
481.59	12578.04
481.77	12657.62
481.95	12730.17
482.13	13069.55
482.31	12535.91
482.49	13078.91
482.67	12774.64
482.85	13144.45
483.03	13261.48
483.21	13390.20
483.39	13603.19
483.57	13540.00
483.74	13664.05
483.92	13675.75
484.10	13528.30
484.28	13980.02
484.46	14148.54
484.64	14396.64
484.82	13846.61
485.00	14312.38
485.18	14647.07
485.35	14668.14
485.53	14778.14
485.71	14623.67
485.89	14855.38
486.07	14895.17
486.25	14918.57
486.43	15002.83
486.61	14977.09
486.78	15335.19
486.96	15712.02
487.14	15604.35
487.32	15723.72
487.50	15782.23
487.68	16025.65
487.85	16493.76
488.03	16472.69
488.21	16369.71
488.39	16652.91
488.57	16758.24
488.75	16802.71
488.92	16875.26
489.10	17142.08
489.28	17055.48
489.46	17355.07
489.64	17013.35
489.81	17532.95
489.99	17666.36
490.17	17788.07
490.35	18260.86
490.53	17921.48
490.70	18104.04
490.88	18256.18
491.06	18483.21
491.24	18682.16
491.41	18782.80
491.59	18700.88
491.77	18663.43
491.95	18817.91
492.13	18822.59
492.30	18998.13
492.48	19377.30
492.66	19250.91
492.84	19318.78
493.01	19599.65
493.19	19845.40
493.37	19906.26
493.54	19943.70
493.72	20203.50
493.90	20067.75
494.08	20219.89
494.25	20730.12
494.43	20409.47
494.61	20774.60
494.79	20704.38
494.96	20828.43
495.14	20924.39
495.32	20865.88
495.49	21125.68
495.67	21345.69
495.85	21221.64
496.02	21539.95
496.20	21387.82
496.38	21991.67
496.55	21848.90
496.73	22356.80
496.91	21790.39
497.09	22228.07
497.26	22307.65
497.44	22429.35
497.62	22466.80
497.79	22562.76
497.97	22567.45
498.14	22916.19
498.32	22892.78
498.50	23068.32
498.67	22988.74
498.85	23194.71
499.03	23342.16
499.20	23300.03
499.38	23342.16
499.56	23786.86
499.73	23616.01
499.91	23651.11
500.08	23831.33
500.26	23466.21
500.44	24177.73
500.61	24084.11
500.79	24208.16
500.97	24168.37
501.14	24137.94
501.32	24540.52
501.49	24219.86
501.67	24725.42
501.84	24638.82
502.02	24449.24
502.20	24996.92
502.37	24870.53
502.55	24868.19
502.72	25032.03
502.90	25104.59
503.07	24819.04
503.25	25366.73
503.43	25434.60
503.60	25481.41
503.78	25624.18
503.95	25666.31
504.13	25736.53
504.30	25783.34
504.48	25750.57
504.65	26068.89
504.83	26164.85
505.01	26246.77
505.18	25867.60
505.36	26583.80
505.53	26277.19
505.71	26377.84
505.88	26576.78
506.06	26218.68
506.23	26874.03
506.41	26600.19
506.58	26513.59
506.76	26904.46
506.93	26906.80
507.11	27103.40
507.28	27166.60
507.46	27037.87
507.63	27072.98
507.81	27601.94
507.98	27402.99
508.16	27433.42
508.33	27449.80
508.50	27821.95
508.68	28060.68
508.85	28189.41
509.03	27985.79
509.20	27999.83
509.38	27922.59
509.55	28290.06
509.73	27681.52
509.90	28540.49
510.08	28027.92
510.25	28521.77
510.42	28559.22
510.60	28865.83
510.77	28863.49
510.95	28851.78
511.12	28814.34
511.30	28898.59
511.47	29167.76
511.64	29078.82
511.82	29350.32
511.99	29027.32
512.17	29401.81
512.34	29230.95
512.51	29696.72
512.69	29605.44
512.86	29429.90
513.04	29675.65
513.21	29670.97
513.38	29769.27
513.56	30045.46
513.73	29415.85
513.90	30092.27
514.08	30183.55
514.25	30291.21
514.43	30153.12
514.60	30291.21
514.77	30157.80
514.95	30382.49
515.12	30426.96
515.29	30478.46
515.47	30719.53
515.64	30789.75
515.81	30689.10
515.99	30717.19
516.16	30749.96
516.33	31077.63
516.51	31075.29
516.68	30986.35
516.85	30675.06
517.03	30843.58
517.20	31136.15
517.37	31119.76
517.54	31360.84
517.72	31339.77
517.89	31248.49
518.06	31552.76
518.24	31370.20
518.41	31756.39
518.58	31398.29
518.75	31655.75
518.93	31903.84
519.10	31964.70
519.27	32266.63
519.45	31934.27
519.62	32027.89
519.79	32290.03
519.96	32266.63
520.14	32884.53
520.31	32098.11
520.48	32657.49
520.65	32442.17
520.83	32844.74
521.00	32655.15
521.17	32723.03
521.34	33172.41
521.52	33149.01
521.69	33076.45
521.86	32723.03
522.03	33170.07
522.20	32957.08
522.38	32964.10
522.55	33680.31
522.72	33537.54
522.89	33289.44
523.07	33319.87
523.24	33219.22
523.41	33752.87
523.58	33748.18
523.75	33982.24
523.92	33802.02
524.10	34150.76
524.27	34120.33
524.44	33858.19
524.61	34106.29
524.78	34618.86
524.96	33954.15
525.13	34586.10
525.30	34553.33
525.47	34632.91
525.64	34330.98
525.81	34342.68
525.98	34873.98
526.16	34288.85
526.33	34389.49
526.50	34904.41
526.67	34448.00
526.84	34286.51
527.01	34401.19
527.18	34803.77
527.36	35049.52
527.53	35569.12
527.70	35372.52
527.87	35292.94
528.04	35283.58
528.21	35213.36
528.38	35119.74
528.55	35269.53
528.72	35498.91
528.89	35700.19
529.07	35400.60
529.24	35299.96
529.41	35683.81
529.58	35459.12
529.75	35665.08
529.92	35625.29
530.09	35503.59
530.26	35892.12
530.43	36374.27
530.60	35901.48
530.77	36086.38
530.94	36364.90
531.11	35957.65
531.28	35903.82
531.46	36547.47
531.63	36559.17
531.80	36367.24
531.97	36119.15
532.14	36196.38
532.31	36594.28
532.48	36905.57
532.65	36804.92
532.82	36638.75
532.99	37022.59
533.16	36580.23
533.33	36786.20
533.50	36694.92
533.67	37071.75
533.84	36919.61
534.01	36858.76
534.18	37165.37
534.35	37181.75
534.52	36943.02
534.69	37085.79
534.86	37626.45
535.03	37392.40
535.20	37570.28
535.37	37457.93
535.54	37912.00
535.71	37493.04
535.88	37691.99
536.05	37434.53
536.22	37902.64
536.38	37699.01
536.55	37907.32
536.72	37876.89
536.89	37373.67
537.06	37565.60
537.23	38213.93
537.40	38036.05
537.57	38014.98
537.74	37673.26
537.91	38464.36
538.08	38192.86
538.25	38176.48
538.42	38050.09
538.59	38359.04
538.75	38052.43
538.92	38225.63
539.09	38354.36
539.26	38094.56
539.43	38249.03
539.60	38405.85
539.77	38363.72
539.94	38897.36
540.11	38536.92
540.28	38607.14
540.44	38522.88
540.61	38380.10
540.78	38452.66
540.95	38859.91
541.12	38433.94
541.29	38609.48
541.46	38440.96
541.62	39292.91
541.79	39075.24
541.96	38742.89
542.13	38967.58
542.30	38948.85
542.47	39243.76
542.63	39009.71
542.80	39234.40
542.97	39522.29
543.14	39426.32
543.31	39426.32
543.48	39833.58
543.64	40095.72
543.81	40093.38
543.98	39887.41
544.15	39423.98
544.32	39854.64
544.48	40343.81
544.65	40009.12
544.82	39594.84
544.99	39714.21
545.16	40194.02
545.32	39608.89
545.49	40584.89
545.66	40105.08
545.83	40067.63
546.00	40334.45
546.16	40062.95
546.33	39894.43
546.50	39950.60
546.67	40184.66
546.83	39981.03
547.00	40205.72
547.17	40133.17
547.34	40306.37
547.50	40837.67
547.67	40486.59
547.84	40458.50
548.00	40856.39
548.17	40891.50
548.34	40620.00
548.51	40982.78
548.67	41055.34
548.84	40828.30
549.01	40851.71
549.18	41242.58
549.34	40765.11
549.51	41205.13
549.68	41139.60
549.84	41486.00
550.01	41069.38
550.18	40989.80
550.34	41186.41
550.51	41214.49
550.68	41350.24
550.84	41163.00
551.01	41336.20
551.18	41132.57
551.34	41214.49
551.51	40842.35
551.68	41036.61
551.84	41148.96
552.01	41406.42
552.18	41226.20
552.34	41141.94
552.51	41600.68
552.68	41303.43
552.84	41736.43
553.01	41708.35
553.18	41565.57
553.34	41446.21
553.51	41631.11
553.67	41544.51
553.84	41804.31
554.01	41979.85
554.17	42209.22
554.34	42075.81
554.51	42005.59
554.67	41860.48
554.84	42082.83
555.00	41956.44
555.17	41883.89
555.33	42244.33
555.50	42117.94
555.67	42295.82
555.83	41773.88
556.00	42169.43
556.16	42499.45
556.33	42220.92
556.50	42277.10
556.66	42059.43
556.83	42178.79
556.99	42333.27
557.16	42471.36
557.32	42167.09
557.49	42286.46
557.65	42410.51
557.82	42099.22
557.98	42686.69
558.15	42469.02
558.32	42408.17
558.48	42342.63
558.65	42616.47
558.81	42710.10
558.98	42185.82
559.14	42609.45
559.31	42356.67
559.47	42543.92
559.64	42689.03
559.80	42574.34
559.97	42866.91
560.13	42518.17
560.30	42621.16
560.46	42359.02
560.63	42377.74
560.79	42960.53
560.96	43278.85
561.12	42520.51
561.29	42721.80
561.45	42923.08
561.61	42705.41
561.78	42995.64
561.94	42337.95
562.11	43393.53
562.27	42890.32
562.44	43096.28
562.60	42815.42
562.77	42990.96
562.93	43323.32
563.10	43227.35
563.26	42761.59
563.42	42953.51
563.59	43070.54
563.75	42784.99
563.92	43445.02
564.08	43068.20
564.24	43276.51
564.41	43227.35
564.57	43168.84
564.74	43311.61
564.90	43435.66
565.07	43131.39
565.23	43056.50
565.39	43056.50
565.56	43306.93
565.72	43372.47
565.88	43545.67
566.05	43002.66
566.21	43012.02
566.38	43143.09
566.54	42857.55
566.70	43323.32
566.87	43667.37
567.03	43468.43
567.19	43789.08
567.36	43466.09
567.52	43374.81
567.68	43393.53
567.85	42993.30
568.01	43421.62
568.17	43344.38
568.34	43842.92
568.50	43356.08
568.66	43370.13
568.83	43702.48
568.99	43178.20
569.15	43508.22
569.32	43306.93
569.48	43288.21
569.64	43690.78
569.81	43709.50
569.97	43861.64
570.13	43323.32
570.30	43374.81
570.46	43484.81
570.62	43271.82
570.78	43159.48
570.95	43021.39
571.11	43903.77
571.27	43622.90
571.43	43250.76
571.60	43622.90
571.76	43250.76
571.92	43180.54
572.09	43931.86
572.25	43522.26
572.41	43339.70
572.57	43653.33
572.74	43782.06
572.90	43353.74
573.06	43473.11
573.22	43892.07
573.38	43243.74
573.55	43538.65
573.71	43819.51
573.87	43737.59
574.03	43484.81
574.20	43896.75
574.36	43496.52
574.52	43550.35
574.68	43966.96
574.84	43917.81
575.01	43658.01
575.17	43749.29
575.33	43667.37
575.49	43667.37
575.65	44369.54
575.82	44406.98
575.98	43622.90
576.14	43861.64
576.30	43765.68
576.46	43641.63
576.62	43971.64
576.79	44055.90
576.95	43470.77
577.11	43929.51
577.27	43739.93
577.43	43566.73
577.59	43903.77
577.75	44093.35
577.92	43929.51
578.08	43655.67
578.24	43597.16
578.40	43807.81
578.56	44048.88
578.72	44385.92
578.88	44069.95
579.04	43814.83
579.21	43793.76
579.37	43814.83
579.53	43735.25
579.69	43440.34
579.85	44247.83
580.01	44107.40
580.17	44163.57
580.33	44198.68
580.49	43931.86
580.65	43833.55
580.82	43831.21
580.98	43814.83
581.14	43807.81
581.30	43786.74
581.46	44210.38
581.62	44320.38
581.78	43999.73
581.94	44453.79
582.10	43966.96
582.26	43950.58
582.42	44140.16
582.58	43856.96
582.74	43452.05
582.90	44226.76
583.06	44144.84
583.22	44282.94
583.38	44280.60
583.54	43908.45
583.70	43936.54
583.86	43906.11
584.02	43756.32
584.18	44360.17
584.34	43564.39
584.50	44451.45
584.66	44364.85
584.82	43353.74
584.98	44261.87
585.14	44292.30
585.30	44357.83
585.46	43920.15
585.62	43948.24
585.78	44329.75
585.94	43445.02
586.10	43779.72
586.26	43978.67
586.42	43882.70
586.58	44229.10
586.74	44367.20
586.90	43782.06
587.06	44301.66
587.22	44240.81
587.38	43714.19
587.54	44020.80
587.70	44355.49
587.86	44411.67
588.02	43880.36
588.18	44273.57
588.34	43934.20
588.49	44072.29
588.65	43959.94
588.81	44114.42
588.97	43990.37
589.13	44020.80
589.29	44353.15
589.45	43887.39
589.61	44055.90
589.77	44341.45
589.93	44463.16
590.08	44430.39
590.24	44371.88
590.40	44067.61
