SpectraSuite Data File
++++++++++++++++++++++++++++++++++++
Date: Fri Oct 25 11:22:52 EDT 2013
User: price-jones
Dark Spectrum Present: No
Reference Spectrum Present: No
Number of Sampled Component Spectra: 1
Spectrometers: USB2+H05261
Integration Time (usec): 100000 (USB2+H05261)
Spectra Averaged: 1 (USB2+H05261)
Boxcar Smoothing: 0 (USB2+H05261)
Correct for Electrical Dark: No (USB2+H05261)
Strobe/Lamp Enabled: No (USB2+H05261)
Correct for Detector Non-linearity: No (USB2+H05261)
Correct for Stray Light: No (USB2+H05261)
Number of Pixels in Processed Spectrum: 2048
>>>>>Begin Processed Spectral Data<<<<<
365.73	250.44
365.92	250.44
366.12	250.44
366.32	135.75
366.52	222.35
366.72	161.50
366.91	91.28
367.11	184.90
367.31	187.24
367.51	135.75
367.70	135.75
367.90	95.96
368.10	72.56
368.30	131.07
368.49	74.90
368.69	161.50
368.89	124.05
369.09	145.11
369.28	194.26
369.48	166.18
369.68	131.07
369.87	220.01
370.07	196.60
370.27	220.01
370.47	332.36
370.66	603.86
370.86	671.73
371.06	638.97
371.25	660.03
371.45	634.29
371.65	727.91
371.84	655.35
372.04	671.73
372.24	760.67
372.44	702.16
372.63	671.73
372.83	755.99
373.03	702.16
373.22	807.48
373.42	720.88
373.62	814.51
373.81	730.25
374.01	798.12
374.21	781.74
374.40	800.46
374.60	844.93
374.79	863.66
374.99	706.84
375.19	826.21
375.38	821.53
375.58	760.67
375.78	863.66
375.97	887.06
376.17	908.13
376.37	847.27
376.56	870.68
376.76	795.78
376.95	873.02
377.15	908.13
377.35	896.43
377.54	964.30
377.74	947.92
377.93	940.90
378.13	882.38
378.33	947.92
378.52	980.68
378.72	908.13
378.91	926.85
379.11	990.05
379.31	976.00
379.50	971.32
379.70	1013.45
379.89	1039.20
380.09	1050.90
380.28	1001.75
380.48	945.58
380.68	938.55
380.87	985.37
381.07	964.30
381.26	990.05
381.46	980.68
381.65	1039.20
381.85	999.41
382.04	1013.45
382.24	1048.56
382.43	1062.60
382.63	945.58
382.83	1109.41
383.02	1142.18
383.22	1046.22
383.41	1050.90
383.61	1034.52
383.80	1142.18
384.00	1109.41
384.19	1158.57
384.39	1125.80
384.58	1074.31
384.78	1118.78
384.97	1158.57
385.17	1163.25
385.36	1177.29
385.56	1088.35
385.75	1121.12
385.95	1118.78
386.14	1102.39
386.34	1128.14
386.53	1181.97
386.72	1200.69
386.92	1224.10
387.11	1233.46
387.31	1299.00
387.50	1221.76
387.70	1200.69
387.89	1282.61
388.09	1289.64
388.28	1341.13
388.48	1355.17
388.67	1383.26
388.86	1352.83
389.06	1306.02
389.25	1273.25
389.45	1366.87
389.64	1406.66
389.84	1446.45
390.03	1376.24
390.22	1362.19
390.42	1301.34
390.61	1289.64
390.81	1315.38
391.00	1371.55
391.19	1476.88
391.39	1441.77
391.58	1504.96
391.78	1378.58
391.97	1575.18
392.16	1413.68
392.36	1540.07
392.55	1497.94
392.75	1516.67
392.94	1493.26
393.13	1542.41
393.33	1598.59
393.52	1490.92
393.71	1633.69
393.91	1603.27
394.10	1528.37
394.29	1680.50
394.49	1614.97
394.68	1579.86
394.88	1624.33
395.07	1636.03
395.26	1736.68
395.46	1636.03
395.65	1708.59
395.84	1732.00
396.04	1839.66
396.23	1846.68
396.42	1764.76
396.62	1776.47
396.81	1823.28
397.00	1905.20
397.19	1881.79
397.39	1739.02
397.58	1809.23
397.77	1937.96
397.97	1874.77
398.16	1877.11
398.35	1884.13
398.55	1849.02
398.74	1928.60
398.93	2015.20
399.12	1907.54
399.32	1933.28
399.51	1916.90
399.70	1893.49
399.90	2115.84
400.09	2001.16
400.28	2015.20
400.47	2008.18
400.67	2146.27
400.86	2022.22
401.05	2139.25
401.24	2167.34
401.44	2071.37
401.63	2188.40
401.82	2230.53
402.01	2134.57
402.21	2083.08
402.40	2162.66
402.59	2235.21
402.78	2150.95
402.97	2139.25
403.17	2174.36
403.36	2317.13
403.55	2373.30
403.74	2342.88
403.93	2352.24
404.13	2401.39
404.32	2464.58
404.51	2279.68
404.70	2394.37
404.89	2345.22
405.09	2516.08
405.28	2513.74
405.47	2462.24
405.66	2457.56
405.85	2574.59
406.05	2483.31
406.24	2464.58
406.43	2569.91
406.62	2700.98
406.81	2696.30
407.00	2623.74
407.20	2607.36
407.39	2499.69
407.58	2675.23
407.77	2792.26
407.96	2682.25
408.15	2855.45
408.34	2808.64
408.54	2818.00
408.73	2794.60
408.92	2876.52
409.11	2841.41
409.30	2902.26
409.49	2930.35
409.68	2930.35
409.87	3047.38
410.07	3000.57
410.26	2923.33
410.45	3035.67
410.64	3016.95
410.83	3141.00
411.02	3068.44
411.21	3143.34
411.40	3061.42
411.59	3248.66
411.78	3363.35
411.98	3187.81
412.17	3328.24
412.36	3445.27
412.55	3344.63
412.74	3318.88
412.93	3487.40
413.12	3499.10
413.31	3620.81
413.50	3463.99
413.69	3503.78
413.88	3662.94
414.07	3494.42
414.26	3660.60
414.45	3658.26
414.64	3756.56
414.83	3672.30
415.02	3779.97
415.22	3918.06
415.41	3997.64
415.60	3852.52
415.79	3896.99
415.98	3976.57
416.17	4039.76
416.36	3892.31
416.55	3946.14
416.74	4058.49
416.93	3988.27
417.12	4140.41
417.31	4236.37
417.50	4170.83
417.69	4353.40
417.88	4236.37
418.07	4386.16
418.26	4346.37
418.45	4344.03
418.64	4507.87
418.83	4428.29
419.02	4468.08
419.21	4540.64
419.39	4540.64
419.58	4402.55
419.77	4564.04
419.96	4770.01
420.15	4587.45
420.34	4622.56
420.53	4678.73
420.72	4657.67
420.91	4662.35
421.10	4861.29
421.29	4919.81
421.48	4674.05
421.67	4870.65
421.86	4884.70
422.05	4882.36
422.24	4837.89
422.43	4889.38
422.61	5069.60
422.80	4912.78
422.99	4961.94
423.18	5025.13
423.37	4959.60
423.56	4999.38
423.75	4971.30
423.94	4814.48
424.13	4657.67
424.32	4800.44
424.50	5050.88
424.69	5156.20
424.88	5097.69
425.07	4875.34
425.26	4842.57
425.45	4940.87
425.64	4917.47
425.83	5093.01
426.01	5050.88
426.20	5034.49
426.39	5132.79
426.58	5043.85
426.77	5048.54
426.96	5210.03
427.15	5046.20
427.33	5289.61
427.52	5341.10
427.71	5137.48
427.90	5240.46
428.09	5359.83
428.28	5420.68
428.46	5434.72
428.65	5355.15
428.84	5509.62
429.03	5657.07
429.22	5334.08
429.40	5493.24
429.59	5518.98
429.78	5313.02
429.97	5313.02
430.16	5481.53
430.34	5657.07
430.53	5666.44
430.72	5734.31
430.91	5647.71
431.10	5624.31
431.28	5802.19
431.47	5867.72
431.66	5867.72
431.85	5877.09
432.03	5898.15
432.22	5991.77
432.41	5935.60
432.60	5959.00
432.79	6155.61
432.97	6087.73
433.16	5942.62
433.35	6122.84
433.54	6134.54
433.72	6211.78
433.91	6200.08
434.10	6202.42
434.28	6024.54
434.47	6176.67
434.66	6258.59
434.85	6277.32
435.03	6333.49
435.22	6211.78
435.41	6633.08
435.59	6333.49
435.78	6445.84
435.97	6565.20
436.16	6408.39
436.34	6235.19
436.53	6471.58
436.72	6745.42
436.90	6436.47
437.09	6487.96
437.28	6712.66
437.46	6743.08
437.65	6822.66
437.84	6806.28
438.02	6729.04
438.21	6871.81
438.40	6707.98
438.58	6984.16
438.77	7052.03
438.96	7084.80
439.14	7030.97
439.33	7281.41
439.52	7265.02
439.70	7190.13
439.89	7190.13
440.08	7346.94
440.26	7478.01
440.45	7309.49
440.63	7475.67
440.82	7662.91
441.01	7513.12
441.19	7606.74
441.38	7655.89
441.57	7903.99
441.75	7920.37
441.94	7967.18
442.12	7896.97
442.31	8105.28
442.50	8004.63
442.68	8049.10
442.87	8128.68
443.05	8369.76
443.24	8053.78
443.43	7953.14
443.61	8133.36
443.80	8461.04
443.98	8088.89
444.17	7833.77
444.35	8187.19
444.54	8411.89
444.73	8409.54
444.91	8493.80
445.10	8372.10
445.28	8351.03
445.47	8454.02
445.65	8346.35
445.84	8400.18
446.02	8650.62
446.21	8355.71
446.39	8498.49
446.58	8496.14
446.77	8727.86
446.95	8432.95
447.14	8507.85
447.32	8461.04
447.51	8573.38
447.69	8423.59
447.88	8730.20
448.06	8397.84
448.25	8402.52
448.43	8716.16
448.62	8688.07
448.80	8486.78
448.99	8762.97
449.17	8786.37
449.36	8737.22
449.54	9027.45
449.73	9025.11
449.91	9172.56
450.10	9013.40
450.28	9095.32
450.46	9191.28
450.65	8922.12
450.83	8975.95
451.02	9165.54
451.20	9364.48
451.39	9352.78
451.57	9366.82
451.76	9160.86
451.94	9198.31
452.13	9277.88
452.31	9399.59
452.49	9399.59
452.68	9652.37
452.86	9310.65
453.05	9348.10
453.23	9472.15
453.42	9336.40
453.60	9338.74
453.78	9385.55
453.97	9577.47
454.15	9486.19
454.34	9823.23
454.52	9942.60
454.70	9935.57
454.89	9710.88
455.07	9891.10
455.26	9930.89
455.44	10101.75
455.62	9926.21
455.81	10106.43
455.99	10169.63
456.17	10190.69
456.36	10024.51
456.54	10352.19
456.73	10387.30
456.91	10441.13
457.09	10399.00
457.28	10759.44
457.46	10574.54
457.64	10729.02
457.83	10509.01
458.01	10431.77
458.19	10609.65
458.38	10532.41
458.56	10539.43
458.74	10743.06
458.93	10820.30
459.11	10839.02
459.29	10883.49
459.48	11009.88
459.66	11124.57
459.84	10813.28
460.03	11021.58
460.21	11044.99
460.39	10981.79
460.57	11077.76
460.76	11047.33
460.94	11454.58
461.12	11129.25
461.31	11220.53
461.49	11112.86
461.67	11293.08
461.85	11557.57
462.04	11482.67
462.22	11815.02
462.40	11686.29
462.59	11473.31
462.77	11620.76
462.95	11723.74
463.13	11714.38
463.32	11463.94
463.50	11779.92
463.68	11971.84
463.86	11815.02
464.05	11784.60
464.23	11910.99
464.41	11988.22
464.59	11676.93
464.78	12521.87
464.96	12198.87
465.14	12058.44
465.32	12163.76
465.50	12154.40
465.69	12292.49
465.87	12456.33
466.05	12245.68
466.23	12051.42
466.41	12241.00
466.60	12613.15
466.78	12435.27
466.96	12203.55
467.14	12287.81
467.32	12606.13
467.51	12533.57
467.69	12250.36
467.87	12580.38
468.05	12709.11
468.23	12486.76
468.41	12461.01
468.60	12706.77
468.78	12716.13
468.96	12776.98
469.14	12982.95
469.32	13064.87
469.50	12655.28
469.69	13099.98
469.87	12999.34
470.05	12966.57
470.23	13425.31
470.41	13188.92
470.59	13408.93
470.77	13156.15
470.95	13275.52
471.14	13509.57
471.32	13308.29
471.50	13591.49
471.68	13596.17
471.86	13888.74
472.04	13727.24
472.22	14284.29
472.40	13767.03
472.58	13998.74
472.77	14195.35
472.95	14232.80
473.13	14387.27
473.31	14384.93
473.49	14408.34
473.67	14214.07
473.85	14363.87
474.03	14759.42
474.21	14782.82
474.39	14773.46
474.57	14827.29
474.75	14651.75
474.93	14892.83
475.12	15145.61
475.30	15222.84
475.48	15007.52
475.66	15496.69
475.84	15056.67
476.02	15412.43
476.20	15503.71
476.38	15655.84
476.56	16173.10
476.74	15941.39
476.92	16166.08
477.10	16189.49
477.28	16107.57
477.46	16250.34
477.64	16442.26
477.82	16692.70
478.00	16826.11
478.18	17109.32
478.36	17099.95
478.54	17121.02
478.72	17018.04
478.90	17453.37
479.08	17472.10
479.26	17886.37
479.44	17640.62
479.62	18122.77
479.80	18167.24
479.98	18525.34
480.16	18780.46
480.34	18565.13
480.52	18827.27
480.70	18944.30
480.88	18920.89
481.06	18768.76
481.24	19035.58
481.41	19321.12
481.59	19527.09
481.77	19978.81
481.95	19623.05
482.13	20105.20
482.31	19789.23
482.49	20208.19
482.67	20514.80
482.85	20746.51
483.03	20875.24
483.21	20713.74
483.39	20968.86
483.57	20931.41
483.74	21301.22
483.92	21556.33
484.10	21308.24
484.28	21380.79
484.46	22300.62
484.64	22452.76
484.82	22036.14
485.00	22228.07
485.18	22773.41
485.35	23012.15
485.53	23084.70
485.71	23136.20
485.89	23683.88
486.07	23405.36
486.25	23700.26
486.43	23868.78
486.61	24070.07
486.78	24390.72
486.96	24421.15
487.14	24659.88
487.32	24851.81
487.50	25369.07
487.68	25163.10
487.85	25586.74
488.03	25425.24
488.21	25743.55
488.39	25834.83
488.57	26389.54
488.75	26501.89
488.92	26426.99
489.10	26883.39
489.28	27030.85
489.46	27335.12
489.64	27037.87
489.81	27583.21
489.99	27721.30
490.17	27826.63
490.35	28402.40
490.53	28711.35
490.70	28716.03
490.88	28367.29
491.06	28807.31
491.24	29209.89
491.41	29310.53
491.59	29116.26
491.77	29717.78
491.95	29720.12
492.13	29979.92
492.30	30228.02
492.48	30307.60
492.66	30340.36
492.84	30632.93
493.01	30806.13
493.19	30841.24
493.37	31157.21
493.54	31463.82
493.72	31835.97
493.90	31276.58
494.08	32184.71
494.25	32114.49
494.43	32224.50
494.61	32671.54
494.79	32847.08
494.96	32844.74
495.14	33139.65
495.32	33237.95
495.49	33282.42
495.67	33780.95
495.85	33446.26
496.02	33670.95
496.20	34150.76
496.38	34148.42
496.55	34125.01
496.73	35098.67
496.91	34635.25
497.09	34925.47
497.26	35370.18
497.44	35716.58
497.62	35587.85
497.79	36006.80
497.97	35648.70
498.14	36208.09
498.32	36247.88
498.50	36254.90
498.67	36680.88
498.85	36470.23
499.03	37156.00
499.20	36865.78
499.38	37109.19
499.56	37570.28
499.73	37394.74
499.91	37773.91
500.08	37827.74
500.26	37493.04
500.44	37991.58
500.61	37916.68
500.79	37844.12
500.97	38403.51
501.14	38705.44
501.32	39035.45
501.49	38913.75
501.67	38848.21
501.84	39246.10
502.02	39009.71
502.20	39419.30
502.37	39562.08
502.55	39449.73
502.72	39260.15
502.90	39763.36
503.07	39456.75
503.25	39746.98
503.43	40016.14
503.60	40350.84
503.78	40608.29
503.95	39910.82
504.13	40584.89
504.30	40830.65
504.48	40732.34
504.65	40837.67
504.83	41291.73
505.01	41378.33
505.18	41427.48
505.36	41921.34
505.53	41331.52
505.71	42342.63
505.88	42178.79
506.06	41963.46
506.23	42239.65
506.41	42295.82
506.58	42026.66
506.76	42569.66
506.93	43091.60
507.11	42443.27
507.28	42583.71
507.46	43260.12
507.63	42838.83
507.81	43562.05
507.98	43241.40
508.16	43629.93
508.33	44292.30
508.50	44011.43
508.68	43922.49
508.85	44055.90
509.03	44053.56
509.20	44722.96
509.38	44507.63
509.55	45067.02
509.73	44580.18
509.90	45055.31
510.08	44889.13
510.25	44919.56
510.42	45134.89
510.60	45240.21
510.77	45249.58
510.95	45478.95
511.12	45530.44
511.30	45441.50
511.47	45876.84
511.64	46148.34
511.82	45762.15
511.99	46000.89
512.17	46525.17
512.34	46394.10
512.51	46567.30
512.69	46274.73
512.86	46438.57
513.04	47187.54
513.21	46990.94
513.38	47110.30
513.56	47351.38
513.73	47147.75
513.90	47473.09
514.08	47171.16
514.25	47643.94
514.43	47913.11
514.60	47838.21
514.77	47763.31
514.95	47929.49
515.12	48018.43
515.29	47604.16
515.47	48254.82
515.64	48397.60
515.81	48168.22
515.99	48348.45
516.16	48526.33
516.33	48315.68
516.51	49097.42
516.68	48650.38
516.85	48992.09
517.03	49258.91
517.20	48861.02
517.37	49099.76
517.54	49146.57
517.72	49113.80
517.89	49588.93
518.06	49530.42
518.24	49495.31
518.41	49455.52
518.58	49724.68
518.75	49851.07
518.93	49860.43
519.10	49661.49
519.27	50021.93
519.45	49895.54
519.62	50319.18
519.79	50155.34
519.96	49951.71
520.14	50436.20
520.31	50356.63
520.48	50621.11
520.65	50440.89
520.83	51173.47
521.00	50738.13
521.17	50728.77
521.34	50700.68
521.52	51374.76
521.69	50700.68
521.86	51194.54
522.03	51454.34
522.20	51351.35
522.38	51739.88
522.55	51679.03
522.72	51587.75
522.89	51756.27
523.07	51791.37
523.24	51742.22
523.41	51959.89
523.58	51484.76
523.75	52247.78
523.92	52142.45
524.10	52282.89
524.27	52310.97
524.44	52746.31
524.61	52217.35
524.78	52259.48
524.96	52509.92
525.13	52612.90
525.30	52846.96
525.47	52732.27
525.64	52580.13
525.81	52842.27
525.98	52938.24
526.16	52725.25
526.33	53034.20
526.50	53282.30
526.67	52989.73
526.84	53308.04
527.01	52907.81
527.18	53127.82
527.36	53277.61
527.53	53123.14
527.70	53357.19
527.87	53464.86
528.04	53027.18
528.21	53516.35
528.38	53542.10
528.55	53619.33
528.72	53619.33
528.89	53588.91
529.07	53710.61
529.24	53818.28
529.41	54106.16
529.58	53872.11
529.75	53876.79
529.92	53904.88
530.09	53729.34
530.26	54176.38
530.43	54328.52
530.60	53858.07
530.77	54213.83
530.94	54323.83
531.11	54188.08
531.28	54204.47
531.46	54281.70
531.63	54305.11
531.80	54363.62
531.97	54923.01
532.14	54801.30
532.31	54651.51
532.48	54738.11
532.65	54639.81
532.82	54920.67
532.99	55103.23
533.16	54878.54
533.33	54864.50
533.50	55246.00
533.67	55079.83
533.84	54962.80
534.01	55107.91
534.18	55388.78
534.35	55580.70
534.52	55238.98
534.69	55569.00
534.86	55468.36
535.03	55231.96
535.20	55400.48
535.37	55669.64
535.54	55477.72
535.71	55316.22
535.88	55765.60
536.05	55707.09
536.22	55917.74
536.38	55955.19
536.55	55458.99
536.72	55901.36
536.89	55709.43
537.06	55711.77
537.23	55835.82
537.40	55751.56
537.57	55899.01
537.74	55994.98
537.91	56186.90
538.08	56186.90
538.25	55744.54
538.42	55983.27
538.59	56427.98
538.75	55978.59
538.92	56343.72
539.09	56292.22
539.26	56343.72
539.43	56285.20
539.60	56296.91
539.77	56512.23
539.94	56846.93
540.11	56435.00
540.28	56580.11
540.44	56610.54
540.61	56537.98
540.78	56399.89
540.95	56652.67
541.12	56463.08
541.29	56746.29
541.46	56662.03
541.62	56809.48
541.79	56615.22
541.96	56676.07
542.13	56837.57
542.30	56858.63
542.47	57076.30
542.63	57209.71
542.80	57233.12
542.97	57219.08
543.14	57310.36
543.31	57298.65
543.48	57439.09
543.64	57516.32
543.81	57733.99
543.98	57310.36
544.15	57483.56
544.32	57722.29
544.48	57619.31
544.65	57420.36
544.82	57659.10
544.99	57528.03
545.16	57939.96
545.32	57785.49
545.49	57951.66
545.66	58064.01
545.83	57897.83
546.00	57998.48
546.16	57883.79
546.33	57712.93
546.50	57675.48
546.67	58056.99
546.83	57701.23
547.00	58117.84
547.17	57982.09
547.34	57886.13
547.50	58113.16
547.67	58445.52
547.84	58059.33
548.00	58375.30
548.17	58482.97
548.34	58190.40
548.51	58377.64
548.67	58644.46
548.84	58468.92
549.01	58305.09
549.18	58646.80
549.34	58433.81
549.51	58330.83
549.68	58361.26
549.84	58213.80
550.01	58717.02
550.18	58644.46
550.34	58281.68
550.51	58660.85
550.68	58791.92
550.84	58459.56
551.01	58752.13
551.18	58614.04
551.34	58691.27
551.51	58700.64
551.68	58857.45
551.84	58550.84
552.01	58632.76
552.18	58946.39
552.34	58777.87
552.51	58983.84
552.68	58803.62
552.84	58843.41
553.01	59040.01
553.18	58880.86
553.34	59011.93
553.51	58965.12
553.67	59028.31
553.84	59180.45
554.01	59065.76
554.17	59166.40
554.34	59157.04
554.51	59161.72
554.67	59285.77
554.84	59014.27
555.00	59222.58
555.17	59044.69
555.33	59206.19
555.50	59241.30
555.67	59327.90
555.83	59203.85
556.00	59360.67
556.16	59442.59
556.33	59515.14
556.50	59592.38
556.66	59494.08
556.83	59407.48
556.99	59554.93
557.16	59578.34
557.32	59732.81
557.49	59889.63
557.65	59465.99
557.82	59817.07
557.98	59437.90
558.15	59543.23
558.32	59728.13
558.48	59608.76
558.65	59634.51
558.81	59838.14
558.98	59702.38
559.14	59608.76
559.31	59805.37
559.47	59812.39
559.64	59824.09
559.80	60025.38
559.97	60107.30
560.13	59744.51
560.30	59971.55
560.46	60119.00
560.63	60128.36
560.79	60041.76
560.96	60044.10
561.12	59976.23
561.29	59817.07
561.45	60168.15
561.61	60058.15
561.78	60191.56
561.94	59908.35
562.11	60093.25
562.27	60051.12
562.44	60121.34
562.60	60100.28
562.77	60205.60
562.93	60196.24
563.10	60306.24
563.26	60034.74
563.42	60210.28
563.59	60324.97
563.75	60130.70
563.92	60095.60
564.08	60156.45
564.24	60360.08
564.41	60336.67
564.57	60196.24
564.74	60191.56
564.90	60226.66
565.07	60322.63
565.23	60315.61
565.39	60413.91
565.56	60278.16
565.72	60378.80
565.88	60420.93
566.05	60268.79
566.21	60456.04
566.38	60484.12
566.54	60420.93
566.70	60486.46
566.87	60364.76
567.03	60282.84
567.19	60664.35
567.36	60530.93
567.52	60294.54
567.68	60750.94
567.85	60514.55
568.01	60521.57
568.17	60554.34
568.34	60650.30
568.50	60587.11
568.66	60465.40
568.83	60526.25
568.99	60453.70
569.15	60554.34
569.32	60610.51
569.48	60617.53
569.64	60921.80
569.81	60598.81
569.97	60294.54
570.13	60795.42
570.30	60563.70
570.46	60762.65
570.62	60725.20
570.78	60631.58
570.95	60540.30
571.11	60729.88
571.27	60582.43
571.43	60722.86
571.60	60907.76
571.76	60591.79
571.92	60772.01
572.09	60746.26
572.25	60917.12
572.41	60720.52
572.57	60809.46
572.74	61003.72
572.90	60692.43
573.06	60802.44
573.22	60786.05
573.38	60762.65
573.55	60643.28
573.71	60867.97
573.87	61141.81
574.03	60814.14
574.20	60849.25
574.36	60680.73
574.52	60814.14
574.68	60898.40
574.84	61001.38
575.01	60898.40
575.17	60821.16
575.33	60736.90
575.49	60729.88
575.65	60903.08
575.82	61013.08
575.98	60903.08
576.14	61092.66
576.30	61034.15
576.46	60893.72
576.62	60889.04
576.79	60900.74
576.95	61029.47
577.11	61106.71
577.27	60935.85
577.43	60919.46
577.59	60708.82
577.75	60973.30
577.92	61052.87
578.08	60837.54
578.24	61153.52
578.40	61109.05
578.56	61064.58
578.72	61083.30
578.88	61144.16
579.04	61235.44
579.21	61111.39
579.37	61022.45
579.53	61071.60
579.69	60877.33
579.85	61017.77
580.01	60970.96
580.17	60914.78
580.33	61031.81
580.49	61003.72
580.65	61240.12
580.82	60893.72
580.98	61099.68
581.14	61020.11
581.30	61235.44
581.46	61095.00
581.62	61076.28
581.78	60872.65
581.94	61087.98
582.10	61153.52
582.26	60889.04
582.42	61125.43
582.58	61207.35
582.74	61242.46
582.90	61013.08
583.06	60996.70
583.22	60865.63
583.38	61296.29
583.54	61174.58
583.70	61123.09
583.86	61226.07
584.02	60938.19
584.18	61167.56
584.34	60996.70
584.50	61153.52
584.66	60989.68
584.82	60987.34
584.98	61144.16
585.14	61265.86
585.30	61092.66
585.46	61319.70
585.62	61279.91
585.78	61354.80
585.94	61162.88
586.10	61235.44
586.26	61132.45
586.42	61174.58
586.58	61403.95
586.74	61212.03
586.90	61062.24
587.06	61181.60
587.22	61296.29
587.38	61160.54
587.54	61240.12
587.70	61202.67
587.86	61230.75
588.02	61282.25
588.18	61509.28
588.34	61080.96
588.49	61043.51
