SpectraSuite Data File
++++++++++++++++++++++++++++++++++++
Date: Fri Oct 25 11:26:27 EDT 2013
User: price-jones
Dark Spectrum Present: No
Reference Spectrum Present: No
Number of Sampled Component Spectra: 1
Spectrometers: USB2+H05261
Integration Time (usec): 100000 (USB2+H05261)
Spectra Averaged: 1 (USB2+H05261)
Boxcar Smoothing: 0 (USB2+H05261)
Correct for Electrical Dark: No (USB2+H05261)
Strobe/Lamp Enabled: No (USB2+H05261)
Correct for Detector Non-linearity: No (USB2+H05261)
Correct for Stray Light: No (USB2+H05261)
Number of Pixels in Processed Spectrum: 2048
>>>>>Begin Processed Spectral Data<<<<<
365.73	184.90
365.92	184.90
366.12	184.90
366.32	177.88
366.52	163.84
366.72	170.86
366.91	170.86
367.11	84.26
367.31	117.03
367.51	175.54
367.70	79.58
367.90	152.13
368.10	98.30
368.30	133.41
368.49	86.60
368.69	138.09
368.89	170.86
369.09	88.94
369.28	166.18
369.48	140.43
369.68	227.03
369.87	212.99
370.07	250.44
370.27	224.69
370.47	306.61
370.66	596.84
370.86	620.24
371.06	636.63
371.25	720.88
371.45	683.44
371.65	688.12
371.84	681.10
372.04	653.01
372.24	753.65
372.44	732.59
372.63	655.35
372.83	753.65
373.03	760.67
373.22	758.33
373.42	763.01
373.62	842.59
373.81	784.08
374.01	779.40
374.21	854.30
374.40	802.80
374.60	826.21
374.79	835.57
374.99	830.89
375.19	821.53
375.38	847.27
375.58	873.02
375.78	807.48
375.97	877.70
376.17	940.90
376.37	819.19
376.56	833.23
376.76	830.89
376.95	828.55
377.15	950.26
377.35	912.81
377.54	945.58
377.74	922.17
377.93	912.81
378.13	908.13
378.33	968.98
378.52	973.66
378.72	961.96
378.91	957.28
379.11	954.94
379.31	933.87
379.50	997.07
379.70	987.71
379.89	978.34
380.09	978.34
380.28	1039.20
380.48	1004.09
380.68	976.00
380.87	997.07
381.07	1053.24
381.26	1062.60
381.46	1036.86
381.65	1013.45
381.85	1093.03
382.04	1018.13
382.24	1015.79
382.43	1097.71
382.63	1114.10
382.83	1081.33
383.02	1125.80
383.22	1137.50
383.41	1064.94
383.61	1107.07
383.80	1135.16
384.00	1151.54
384.19	1074.31
384.39	1179.63
384.58	1191.33
384.78	1083.67
384.97	1121.12
385.17	1146.86
385.36	1205.38
385.56	1158.57
385.75	1184.31
385.95	1214.74
386.14	1130.48
386.34	1221.76
386.53	1291.98
386.72	1184.31
386.92	1252.19
387.11	1214.74
387.31	1270.91
387.50	1280.27
387.70	1284.95
387.89	1331.76
388.09	1228.78
388.28	1240.48
388.48	1294.32
388.67	1334.11
388.86	1275.59
389.06	1338.79
389.25	1238.14
389.45	1277.93
389.64	1366.87
389.84	1310.70
390.03	1411.34
390.22	1350.49
390.42	1324.74
390.61	1416.02
390.81	1448.79
391.00	1392.62
391.19	1472.20
391.39	1504.96
391.58	1409.00
391.78	1474.54
391.97	1413.68
392.16	1369.21
392.36	1516.67
392.55	1420.71
392.75	1404.32
392.94	1472.20
393.13	1568.16
393.33	1453.47
393.52	1591.56
393.71	1596.25
393.91	1652.42
394.10	1629.01
394.29	1549.43
394.49	1577.52
394.68	1603.27
394.88	1619.65
395.07	1645.40
395.26	1671.14
395.46	1699.23
395.65	1748.38
395.84	1689.87
396.04	1842.00
396.23	1818.60
396.42	1750.72
396.62	1785.83
396.81	1839.66
397.00	1727.32
397.19	1820.94
397.39	1739.02
397.58	1834.98
397.77	1802.21
397.97	1863.07
398.16	1842.00
398.35	1895.83
398.55	1980.09
398.74	1933.28
398.93	1872.43
399.12	1919.24
399.32	1923.92
399.51	1963.71
399.70	1895.83
399.90	1966.05
400.09	2001.16
400.28	2101.80
400.47	2026.90
400.67	2059.67
400.86	2052.65
401.05	2115.84
401.24	2083.08
401.44	2221.17
401.63	2134.57
401.82	2134.57
402.01	2115.84
402.21	2108.82
402.40	2141.59
402.59	2300.75
402.78	2270.32
402.97	2244.57
403.17	2186.06
403.36	2235.21
403.55	2246.91
403.74	2382.67
403.93	2438.84
404.13	2300.75
404.32	2349.90
404.51	2345.22
404.70	2314.79
404.89	2504.37
405.09	2497.35
405.28	2548.84
405.47	2429.48
405.66	2415.43
405.85	2452.88
406.05	2530.12
406.24	2480.97
406.43	2551.18
406.62	2700.98
406.81	2630.76
407.00	2537.14
407.20	2558.21
407.39	2597.99
407.58	2708.00
407.77	2677.57
407.96	2736.09
408.15	2738.43
408.34	2600.34
408.54	2796.94
408.73	2825.03
408.92	2820.35
409.11	2883.54
409.30	2881.20
409.49	2850.77
409.68	2874.18
409.87	3030.99
410.07	3012.27
410.26	3068.44
410.45	3049.72
410.64	2958.44
410.83	3148.02
411.02	3150.36
411.21	3087.17
411.40	3103.55
411.59	3204.19
411.78	3204.19
411.98	3199.51
412.17	3133.98
412.36	3187.81
412.55	3431.23
412.74	3421.86
412.93	3487.40
413.12	3323.56
413.31	3592.72
413.50	3538.89
413.69	3459.31
413.88	3590.38
414.07	3634.85
414.26	3592.72
414.45	3585.70
414.64	3712.09
414.83	3691.02
415.02	3740.18
415.22	3868.91
415.41	3815.07
415.60	3728.47
415.79	3843.16
415.98	3859.54
416.17	4023.38
416.36	3911.04
416.55	3941.46
416.74	4133.39
416.93	4198.92
417.12	4187.22
417.31	4091.26
417.50	4285.52
417.69	4325.31
417.88	4194.24
418.07	4297.22
418.26	4287.86
418.45	4173.18
418.64	4477.44
418.83	4334.67
419.02	4437.66
419.21	4582.77
419.39	4620.22
419.58	4535.96
419.77	4374.46
419.96	4657.67
420.15	4491.49
420.34	4404.89
420.53	4533.62
420.72	4624.90
420.91	4704.48
421.10	4615.54
421.29	4734.90
421.48	4685.75
421.67	4702.14
421.86	4945.55
422.05	4856.61
422.24	4798.10
422.43	4774.69
422.61	4896.40
422.80	4964.28
422.99	4931.51
423.18	4877.68
423.37	4985.34
423.56	4868.31
423.75	4968.96
423.94	4882.36
424.13	4524.26
424.32	4767.67
424.50	4896.40
424.69	4994.70
424.88	5118.75
425.07	4891.72
425.26	4880.02
425.45	4940.87
425.64	4959.60
425.83	4898.74
426.01	5006.41
426.20	5043.85
426.39	5001.72
426.58	5032.15
426.77	4961.94
426.96	5074.28
427.15	5022.79
427.33	5144.50
427.52	5102.37
427.71	5191.31
427.90	5179.61
428.09	5259.18
428.28	5451.11
428.46	5193.65
428.65	5313.02
428.84	5568.13
429.03	5558.77
429.22	5259.18
429.40	5416.00
429.59	5465.15
429.78	5341.10
429.97	5231.10
430.16	5334.08
430.34	5589.20
430.53	5671.12
430.72	5671.12
430.91	5504.94
431.10	5549.41
431.28	5715.59
431.47	5809.21
431.66	5823.25
431.85	5816.23
432.03	6005.81
432.22	6061.99
432.41	5804.53
432.60	5783.46
432.79	5959.00
432.97	6038.58
433.16	5980.07
433.35	5973.05
433.54	6001.13
433.72	6052.63
433.91	6171.99
434.10	6181.35
434.28	6040.92
434.47	6190.72
434.66	6246.89
434.85	6200.08
435.03	6125.18
435.22	6211.78
435.41	6509.03
435.59	6326.47
435.78	6363.92
435.97	6420.09
436.16	6305.40
436.34	6244.55
436.53	6441.15
436.72	6787.55
436.90	6452.86
437.09	6661.16
437.28	6448.18
437.46	6619.04
437.65	6590.95
437.84	6895.22
438.02	6869.47
438.21	6745.42
438.40	6635.42
438.58	6970.12
438.77	6944.37
438.96	6775.85
439.14	6981.82
439.33	7112.89
439.52	7328.22
439.70	7087.14
439.89	7248.64
440.08	7283.75
440.26	7360.98
440.45	7279.07
440.63	7482.69
440.82	7456.95
441.01	7662.91
441.19	7515.46
441.38	7627.81
441.57	7798.66
441.75	7768.24
441.94	7955.48
442.12	7793.98
442.31	7934.42
442.50	7911.01
442.68	7992.93
442.87	7953.14
443.05	8046.76
443.24	8222.30
443.43	7868.88
443.61	8229.32
443.80	8231.66
443.98	7896.97
444.17	7681.64
444.35	8145.06
444.54	8404.86
444.73	8344.01
444.91	8180.17
445.10	8234.00
445.28	8306.56
445.47	8156.77
445.65	8229.32
445.84	8362.73
446.02	8547.64
446.21	8170.81
446.39	8369.76
446.58	8372.10
446.77	8344.01
446.95	8175.49
447.14	8512.53
447.32	8468.06
447.51	8512.53
447.69	8346.35
447.88	8386.14
448.06	8568.70
448.25	8634.24
448.43	8395.50
448.62	8631.90
448.80	8580.40
448.99	8624.87
449.17	8751.26
449.36	8723.18
449.54	8833.18
449.73	9046.17
449.91	9149.15
450.10	8938.51
450.28	8957.23
450.46	9165.54
450.65	9097.66
450.83	9043.83
451.02	9102.34
451.20	9210.01
451.39	8975.95
451.57	9034.47
451.76	8950.21
451.94	9085.96
452.13	9357.46
452.31	9181.92
452.49	8968.93
452.68	9172.56
452.86	9212.35
453.05	9331.72
453.23	9467.47
453.42	9329.38
453.60	9320.01
453.78	9619.60
453.97	9383.21
454.15	9408.95
454.34	9565.77
454.52	9755.35
454.70	9628.96
454.89	9626.62
455.07	9818.55
455.26	9846.63
455.44	9661.73
455.62	9811.53
455.81	9886.42
455.99	9823.23
456.17	9935.57
456.36	10076.01
456.54	10003.45
456.73	10118.14
456.91	10403.68
457.09	10399.00
457.28	10494.96
457.46	10370.91
457.64	10497.30
457.83	10249.21
458.01	10333.47
458.19	10588.58
458.38	10422.41
458.56	10726.68
458.74	10733.70
458.93	10616.67
459.11	10663.48
459.29	10820.30
459.48	10670.50
459.66	10710.29
459.84	10757.10
460.03	10878.81
460.21	11103.50
460.39	10897.53
460.57	11023.92
460.76	10995.84
460.94	11101.16
461.12	11229.89
461.31	10977.11
461.49	11145.63
461.67	11073.07
461.85	11508.41
462.04	11208.83
462.22	11810.34
462.40	11693.32
462.59	11239.25
462.77	11276.70
462.95	11459.26
463.13	11655.87
463.32	11763.53
463.50	11683.95
463.68	11709.70
463.86	11646.51
464.05	11564.59
464.23	11672.25
464.41	11737.79
464.59	11655.87
464.78	11999.93
464.96	11768.21
465.14	11763.53
465.32	11854.81
465.50	12049.08
465.69	12025.67
465.87	12182.49
466.05	12145.04
466.23	12236.32
466.41	12116.95
466.60	12280.79
466.78	12053.76
466.96	12318.24
467.14	12280.79
467.32	12168.45
467.51	12379.09
467.69	12051.42
467.87	12336.96
468.05	12669.32
468.23	12519.53
468.41	12554.63
468.60	12566.34
468.78	12636.55
468.96	12507.82
469.14	12786.35
469.32	12996.99
469.50	12566.34
469.69	12788.69
469.87	13074.23
470.05	12905.71
470.23	13074.23
470.41	12973.59
470.59	13181.90
470.77	13018.06
470.95	13193.60
471.14	13429.99
471.32	13191.26
471.50	13605.53
471.68	13846.61
471.86	13673.41
472.04	13610.22
472.22	14134.50
472.40	13551.70
472.58	13954.27
472.77	13998.74
472.95	14045.55
473.13	14623.67
473.31	13895.76
473.49	14141.52
473.67	14256.20
473.85	14270.25
474.03	14721.97
474.21	14541.75
474.39	14565.15
474.57	14682.18
474.75	14766.44
474.93	14883.47
475.12	15133.90
475.30	14813.25
475.48	15152.63
475.66	15166.67
475.84	15056.67
476.02	15492.01
476.20	15527.11
476.38	15531.80
476.56	15976.50
476.74	15852.45
476.92	15566.90
477.10	15779.89
477.28	16142.67
477.46	15880.53
477.64	16016.29
477.82	16505.46
478.00	16645.89
478.18	16500.78
478.36	16835.47
478.54	17125.70
478.72	16671.64
478.90	17539.97
479.08	17617.21
479.26	17591.47
479.44	17844.24
479.62	17895.74
479.80	17888.71
479.98	17994.04
480.16	18354.48
480.34	18136.81
480.52	18305.33
480.70	18312.35
480.88	18164.90
481.06	18679.82
481.24	18705.56
481.41	19037.92
481.59	19009.83
481.77	19302.40
481.95	19283.67
482.13	19688.59
482.31	19770.51
482.49	20350.96
482.67	20112.22
482.85	20327.55
483.03	20545.22
483.21	20538.20
483.39	20910.35
483.57	20753.53
483.74	21170.15
483.92	21329.30
484.10	21181.85
484.28	21270.79
484.46	22293.60
484.64	22300.62
484.82	21909.75
485.00	22375.52
485.18	22829.59
485.35	22632.98
485.53	22773.41
485.71	22745.33
485.89	23466.21
486.07	23042.57
486.25	23143.22
486.43	23688.56
486.61	23749.42
486.78	24025.60
486.96	24044.32
487.14	24482.00
487.32	24463.28
487.50	24739.46
487.68	24877.55
487.85	25200.55
488.03	25397.15
488.21	25853.56
488.39	25790.36
488.57	25472.05
488.75	26054.84
488.92	26331.03
489.10	26553.38
489.28	26436.35
489.46	26939.57
489.64	27016.80
489.81	27391.29
489.99	27660.45
490.17	27660.45
490.35	27920.25
490.53	27740.03
490.70	28128.56
490.88	27999.83
491.06	28470.28
491.24	28772.21
491.41	28814.34
491.59	29165.42
491.77	29319.89
491.95	29439.26
492.13	29743.53
492.30	29867.58
492.48	29528.20
492.66	29813.74
492.84	30087.59
493.01	30408.24
493.19	30342.70
493.37	30799.11
493.54	31257.85
493.72	31215.72
493.90	31098.70
494.08	31433.39
494.25	31669.79
494.43	31725.96
494.61	32161.30
494.79	32287.69
494.96	32044.27
495.14	32521.74
495.32	32851.76
495.49	32423.44
495.67	33605.41
495.85	33518.81
496.02	33455.62
496.20	33673.29
496.38	33802.02
496.55	33645.20
496.73	34581.42
496.91	34335.66
497.09	34539.29
497.26	34754.61
497.44	34621.20
497.62	35255.49
497.79	35424.01
497.97	35398.26
498.14	35424.01
498.32	36034.89
498.50	36126.17
498.67	36563.85
498.85	36488.95
499.03	36414.05
499.20	36720.66
499.38	36367.24
499.56	36896.20
499.73	36919.61
499.91	37343.25
500.08	37462.61
500.26	37296.44
500.44	37158.34
500.61	37724.75
500.79	37261.33
500.97	38043.07
501.14	37982.21
501.32	38330.95
501.49	38382.45
501.67	38274.78
501.84	38550.96
502.02	38775.66
502.20	38766.29
502.37	38876.30
502.55	39283.55
502.72	39505.90
502.90	39269.51
503.07	38962.90
503.25	39758.68
503.43	39728.25
503.60	40048.91
503.78	40231.47
503.95	39791.45
504.13	40495.95
504.30	40182.32
504.48	39966.99
504.65	40172.96
504.83	40928.95
505.01	41516.42
505.18	40987.46
505.36	41010.87
505.53	40907.88
505.71	41418.12
505.88	41837.08
506.06	41221.52
506.23	41680.26
506.41	41757.50
506.58	42066.45
506.76	41830.05
506.93	42646.90
507.11	42050.06
507.28	42181.13
507.46	42574.34
507.63	42579.03
507.81	42719.46
507.98	42572.00
508.16	42852.87
508.33	43262.46
508.50	43016.71
508.68	43239.06
508.85	43906.11
509.03	43772.70
509.20	44273.57
509.38	43962.28
509.55	44346.13
509.73	44105.06
509.90	44619.97
510.08	44098.03
510.25	44095.69
510.42	44369.54
510.60	44587.21
510.77	44905.52
510.95	45064.67
511.12	45268.30
511.30	45137.23
511.47	45471.93
511.64	45329.16
511.82	45317.45
511.99	45525.76
512.17	45937.69
512.34	45492.99
512.51	46471.34
512.69	45904.93
512.86	46251.33
513.04	46494.74
513.21	46766.24
513.38	46246.65
513.56	46845.82
513.73	46953.49
513.90	46426.87
514.08	46674.96
514.25	47269.46
514.43	46677.30
514.60	47580.75
514.77	47126.69
514.95	47657.99
515.12	46958.17
515.29	47538.62
515.47	47934.17
515.64	47473.09
515.81	47578.41
515.99	47620.54
516.16	47999.71
516.33	48184.61
516.51	48437.39
516.68	48362.49
516.85	48514.62
517.03	48903.15
517.20	48591.86
517.37	48566.12
517.54	48514.62
517.72	48772.08
517.89	48961.67
518.06	48928.90
518.24	49059.97
518.41	49052.95
518.58	49359.56
518.75	49027.20
518.93	49539.78
519.10	48846.98
519.27	49504.67
519.45	49553.82
519.62	49443.82
519.79	49769.15
519.96	49881.50
520.14	50110.87
520.31	49741.06
520.48	50202.15
520.65	50206.83
520.83	50511.10
521.00	50422.16
521.17	50342.58
521.34	50464.29
521.52	50560.25
521.69	50611.74
521.86	50705.37
522.03	51007.29
522.20	51000.27
522.38	51421.57
522.55	51187.52
522.72	50859.84
522.89	51175.81
523.07	51428.59
523.24	51636.90
523.41	51604.13
523.58	51419.23
523.75	51461.36
523.92	51437.95
524.10	51800.74
524.27	51877.97
524.44	52032.45
524.61	51587.75
524.78	52069.90
524.96	51969.26
525.13	52030.11
525.30	52172.88
525.47	52224.37
525.64	52222.03
525.81	52561.41
525.98	52505.24
526.16	52231.40
526.33	52722.91
526.50	52746.31
526.67	52327.36
526.84	52870.36
527.01	52905.47
527.18	52725.25
527.36	52428.00
527.53	52519.28
527.70	53230.80
527.87	53055.26
528.04	53212.08
528.21	53338.47
528.38	53652.10
528.55	53326.77
528.72	53375.92
528.89	53286.98
529.07	53174.63
529.24	53329.11
529.41	53694.23
529.58	53670.82
529.75	53675.51
529.92	53380.60
530.09	53471.88
530.26	53729.34
530.43	53691.89
530.60	53628.69
530.77	53570.18
530.94	53844.02
531.11	53932.96
531.28	54131.91
531.46	53996.16
531.63	53954.03
531.80	54031.27
531.97	54232.55
532.14	54454.90
532.31	54241.92
532.48	54497.03
532.65	54593.00
532.82	54286.39
532.99	54639.81
533.16	54394.05
533.33	54532.14
533.50	54775.56
533.67	54808.32
533.84	54681.94
534.01	54735.77
534.18	54803.64
534.35	55004.93
534.52	54667.89
534.69	55117.28
534.86	54857.48
535.03	54695.98
535.20	55070.46
535.37	55133.66
535.54	55262.39
535.71	55215.58
535.88	55068.12
536.05	55428.57
536.22	55241.32
536.38	55313.88
536.55	55543.25
536.72	55348.99
536.89	55238.98
537.06	55437.93
537.23	55866.25
537.40	55215.58
537.57	55585.38
537.74	55671.98
537.91	55971.57
538.08	55770.28
538.25	55508.14
538.42	55639.22
538.59	56058.17
538.75	55695.39
538.92	55835.82
539.09	55915.40
539.26	56090.94
539.43	55945.83
539.60	56048.81
539.77	56090.94
539.94	56376.48
540.11	56484.15
540.28	56397.55
540.44	56409.25
540.61	56186.90
540.78	56198.60
540.95	56273.50
541.12	56231.37
541.29	56245.41
541.46	56596.49
541.62	56472.45
541.79	56488.83
541.96	56247.75
542.13	56516.92
542.30	56619.90
542.47	56451.38
542.63	56556.70
542.80	56582.45
542.97	56804.80
543.14	57020.13
543.31	56788.42
543.48	57059.92
543.64	57315.04
543.81	57371.21
543.98	57240.14
544.15	57207.37
544.32	57385.25
544.48	57176.95
544.65	57155.88
544.82	57130.14
544.99	57193.33
545.16	57441.43
545.32	57403.98
545.49	57605.26
545.66	57591.22
545.83	57125.46
546.00	57502.28
546.16	57354.83
546.33	57392.28
546.50	57305.68
546.67	57396.96
546.83	57361.85
547.00	57581.86
547.17	57635.69
547.34	57645.05
547.50	57710.59
547.67	57989.11
547.84	57951.66
548.00	58052.31
548.17	57836.98
548.34	57883.79
548.51	57785.49
548.67	58106.14
548.84	58080.39
549.01	58007.84
549.18	58056.99
549.34	58106.14
549.51	58396.37
549.68	58232.53
549.84	58223.17
550.01	58220.83
550.18	58005.50
550.34	58288.70
550.51	58127.20
550.68	58211.46
550.84	58066.35
551.01	58429.13
551.18	58244.23
551.34	58347.21
551.51	58379.98
551.68	58759.15
551.84	58471.26
552.01	58333.17
552.18	58644.46
552.34	58412.75
552.51	58557.86
552.68	58480.63
552.84	58440.84
553.01	58789.58
553.18	58686.59
553.34	58904.26
553.51	58644.46
553.67	58653.82
553.84	59100.87
554.01	58876.18
554.17	58855.11
554.34	58824.68
554.51	58855.11
554.67	58803.62
554.84	58815.32
555.00	58745.11
555.17	58932.35
555.33	58899.58
555.50	58920.65
555.67	58712.34
555.83	58965.12
556.00	58988.52
556.16	59405.14
556.33	59110.23
556.50	58908.94
556.66	59168.74
556.83	59058.74
556.99	59154.70
557.16	59267.05
557.32	59470.67
557.49	59442.59
557.65	59079.80
557.82	59416.84
557.98	59372.37
558.15	59302.15
558.32	59363.01
558.48	59327.90
558.65	59388.75
558.81	59517.48
558.98	59119.59
559.14	59540.89
559.31	59557.27
559.47	59498.76
559.64	59456.63
559.80	59662.60
559.97	59763.24
560.13	59515.14
560.30	59601.74
560.46	59742.17
560.63	59660.26
560.79	59550.25
560.96	59636.85
561.12	59898.99
561.29	59646.21
561.45	59770.26
561.61	59674.30
561.78	59671.96
561.94	59784.30
562.11	59714.09
562.27	59669.62
562.44	59908.35
562.60	59882.61
562.77	59707.07
562.93	59826.43
563.10	59985.59
563.26	59742.17
563.42	60053.47
563.59	59997.29
563.75	59924.74
563.92	59856.86
564.08	59686.00
564.24	60041.76
564.41	59896.65
564.57	60210.28
564.74	60018.36
564.90	59767.92
565.07	59966.87
565.23	59936.44
565.39	59966.87
565.56	60102.62
565.72	59952.82
565.88	59910.69
566.05	59999.63
566.21	59980.91
566.38	60119.00
566.54	60172.83
566.70	60154.11
566.87	60198.58
567.03	60081.55
567.19	60528.59
567.36	60013.68
567.52	60074.53
567.68	60406.89
567.85	60388.16
568.01	60310.92
568.17	60034.74
568.34	60271.14
568.50	60140.07
568.66	60247.73
568.83	60278.16
568.99	60292.20
569.15	60313.26
569.32	60221.98
569.48	60147.09
569.64	60381.14
569.81	60275.82
569.97	60334.33
570.13	60383.48
570.30	60327.31
570.46	60479.44
570.62	60390.50
570.78	60374.12
570.95	60315.61
571.11	60456.04
571.27	60301.56
571.43	60451.36
571.60	60530.93
571.76	60385.82
571.92	60547.32
572.09	60619.88
572.25	60285.18
572.41	60460.72
572.57	60360.08
572.74	60512.21
572.90	60418.59
573.06	60537.96
573.22	60500.51
573.38	60619.88
573.55	60544.98
573.71	60603.49
573.87	60629.24
574.03	60542.64
574.20	60685.41
574.36	60626.90
574.52	60559.02
574.68	60573.06
574.84	60605.83
575.01	60790.73
575.17	60437.31
575.33	60498.17
575.49	60488.80
575.65	60505.19
575.82	60594.13
575.98	60610.51
576.14	60968.61
576.30	60631.58
576.46	60505.19
576.62	60631.58
576.79	60772.01
576.95	60512.21
577.11	60643.28
577.27	60662.00
577.43	60837.54
577.59	60367.10
577.75	60608.17
577.92	60596.47
578.08	60849.25
578.24	60594.13
578.40	60769.67
578.56	60889.04
578.72	60755.63
578.88	61008.40
579.04	60818.82
579.21	60638.60
579.37	60823.50
579.53	60961.59
579.69	60631.58
579.85	60722.86
580.01	60739.24
580.17	60481.78
580.33	60664.35
580.49	60842.23
580.65	60767.33
580.82	60860.95
580.98	60713.50
581.14	60650.30
581.30	60949.89
581.46	60755.63
581.62	60800.10
581.78	60610.51
581.94	60748.60
582.10	60823.50
582.26	60800.10
582.42	60484.12
582.58	60720.52
582.74	60800.10
582.90	60725.20
583.06	60823.50
583.22	60645.62
583.38	60853.93
583.54	60856.27
583.70	60779.03
583.86	60835.20
584.02	60748.60
584.18	61066.92
584.34	60727.54
584.50	60849.25
584.66	60718.18
584.82	60734.56
584.98	60952.23
585.14	60933.51
585.30	60825.84
585.46	61123.09
585.62	60879.67
585.78	60832.86
585.94	60722.86
586.10	60856.27
586.26	60631.58
586.42	61017.77
586.58	61048.19
586.74	60900.74
586.90	60975.64
587.06	60858.61
587.22	61085.64
587.38	60877.33
587.54	60980.32
587.70	60956.91
587.86	61111.39
588.02	61008.40
588.18	61076.28
588.34	60860.95
588.49	60949.89
