SpectraSuite Data File
++++++++++++++++++++++++++++++++++++
Date: Fri Oct 25 10:43:20 EDT 2013
User: price-jones
Dark Spectrum Present: No
Reference Spectrum Present: No
Number of Sampled Component Spectra: 1
Spectrometers: USB2+H05261
Integration Time (usec): 100000 (USB2+H05261)
Spectra Averaged: 1 (USB2+H05261)
Boxcar Smoothing: 0 (USB2+H05261)
Correct for Electrical Dark: No (USB2+H05261)
Strobe/Lamp Enabled: No (USB2+H05261)
Correct for Detector Non-linearity: No (USB2+H05261)
Correct for Stray Light: No (USB2+H05261)
Number of Pixels in Processed Spectrum: 2048
>>>>>Begin Processed Spectral Data<<<<<
365.73	145.11
365.92	145.11
366.12	145.11
366.32	0.00
366.52	0.00
366.72	46.81
366.91	11.70
367.11	4.68
367.31	2.34
367.51	58.51
367.70	91.28
367.90	0.00
368.10	30.43
368.30	0.00
368.49	63.19
368.69	107.66
368.89	2.34
369.09	51.49
369.28	84.26
369.48	0.00
369.68	102.98
369.87	173.20
370.07	100.64
370.27	131.07
370.47	177.88
370.66	393.21
370.86	411.93
371.06	526.62
371.25	503.22
371.45	372.15
371.65	535.98
371.84	407.25
372.04	440.02
372.24	482.15
372.44	451.72
372.63	526.62
372.83	568.75
373.03	491.51
373.22	498.53
373.42	479.81
373.62	507.90
373.81	519.60
374.01	535.98
374.21	550.03
374.40	493.85
374.60	582.79
374.79	538.32
374.99	617.90
375.19	535.98
375.38	552.37
375.58	596.84
375.78	589.82
375.97	582.79
376.17	610.88
376.37	601.52
376.56	655.35
376.76	638.97
376.95	620.24
377.15	636.63
377.35	510.24
377.54	627.26
377.74	669.39
377.93	667.05
378.13	608.54
378.33	739.61
378.52	634.29
378.72	704.50
378.91	634.29
379.11	624.92
379.31	685.78
379.50	650.67
379.70	645.99
379.89	699.82
380.09	650.67
380.28	603.86
380.48	676.41
380.68	725.57
380.87	723.23
381.07	720.88
381.26	751.31
381.46	657.69
381.65	664.71
381.85	702.16
382.04	681.10
382.24	676.41
382.43	695.14
382.63	711.52
382.83	730.25
383.02	692.80
383.22	720.88
383.41	730.25
383.61	685.78
383.80	748.97
384.00	755.99
384.19	725.57
384.39	716.20
384.58	826.21
384.78	847.27
384.97	847.27
385.17	774.72
385.36	730.25
385.56	816.85
385.75	791.10
385.95	821.53
386.14	858.98
386.34	767.70
386.53	816.85
386.72	812.17
386.92	863.66
387.11	858.98
387.31	875.36
387.50	875.36
387.70	821.53
387.89	861.32
388.09	978.34
388.28	964.30
388.48	875.36
388.67	992.39
388.86	887.06
389.06	980.68
389.25	987.71
389.45	987.71
389.64	961.96
389.84	1015.79
390.03	950.26
390.22	980.68
390.42	903.45
390.61	973.66
390.81	997.07
391.00	1060.26
391.19	1067.28
391.39	1100.05
391.58	1139.84
391.78	994.73
391.97	1048.56
392.16	1015.79
392.36	987.71
392.55	1048.56
392.75	1001.75
392.94	959.62
393.13	978.34
393.33	964.30
393.52	1039.20
393.71	1097.71
393.91	1144.52
394.10	1036.86
394.29	1149.20
394.49	1062.60
394.68	1191.33
394.88	1226.44
395.07	1289.64
395.26	1210.06
395.46	1263.89
395.65	1203.04
395.84	1270.91
396.04	1275.59
396.23	1132.82
396.42	1123.46
396.62	1142.18
396.81	1156.22
397.00	1153.88
397.19	1214.74
397.39	1263.89
397.58	1416.02
397.77	1287.29
397.97	1423.05
398.16	1355.17
398.35	1533.05
398.55	1458.15
398.74	1465.18
398.93	1486.24
399.12	1509.65
399.32	1636.03
399.51	1565.82
399.70	1586.88
399.90	1523.69
400.09	1533.05
400.28	1516.67
400.47	1483.90
400.67	1612.63
400.86	1626.67
401.05	1624.33
401.24	1689.87
401.44	1746.04
401.63	1664.12
401.82	1720.29
402.01	1699.23
402.21	1675.82
402.40	1795.19
402.59	1739.02
402.78	1746.04
402.97	1736.68
403.17	1783.49
403.36	1767.10
403.55	1778.81
403.74	1909.88
403.93	1827.96
404.13	1980.09
404.32	1844.34
404.51	1806.89
404.70	1900.52
404.89	1851.36
405.09	2017.54
405.28	2033.93
405.47	2017.54
405.66	1944.99
405.85	1900.52
406.05	2024.56
406.24	2115.84
406.43	2026.90
406.62	2122.87
406.81	2087.76
407.00	2125.21
407.20	1984.77
407.39	2083.08
407.58	2090.10
407.77	2064.35
407.96	2223.51
408.15	2197.76
408.34	2054.99
408.54	2293.72
408.73	2317.13
408.92	2300.75
409.11	2162.66
409.30	2277.34
409.49	2270.32
409.68	2256.28
409.87	2246.91
410.07	2406.07
410.26	2417.77
410.45	2324.15
410.64	2406.07
410.83	2495.01
411.02	2548.84
411.21	2595.65
411.40	2684.59
411.59	2586.29
411.78	2588.63
411.98	2602.68
412.17	2672.89
412.36	2689.28
412.55	2602.68
412.74	2808.64
412.93	2719.70
413.12	2649.49
413.31	2815.66
413.50	2848.43
413.69	2862.48
413.88	2846.09
414.07	2949.08
414.26	2944.39
414.45	2881.20
414.64	2883.54
414.83	3014.61
415.02	3080.14
415.22	2998.23
415.41	3068.44
415.60	3068.44
415.79	3148.02
415.98	3220.58
416.17	3213.56
416.36	3176.11
416.55	3218.24
416.74	3307.18
416.93	3286.11
417.12	3255.69
417.31	3353.99
417.50	3300.16
417.69	3428.88
417.88	3536.55
418.07	3517.83
418.26	3461.65
418.45	3440.59
418.64	3562.30
418.83	3417.18
419.02	3609.11
419.21	3482.72
419.39	3655.92
419.58	3489.74
419.77	3529.53
419.96	3604.42
420.15	3639.53
420.34	3688.68
420.53	3698.05
420.72	3817.41
420.91	3712.09
421.10	3756.56
421.29	3859.54
421.48	3791.67
421.67	3726.13
421.86	3700.39
422.05	3822.09
422.24	3571.66
422.43	3786.99
422.61	3721.45
422.80	3911.04
422.99	4011.68
423.18	3854.86
423.37	3967.21
423.56	3957.85
423.75	4049.13
423.94	3861.88
424.13	3791.67
424.32	3775.28
424.50	3957.85
424.69	4030.40
424.88	3969.55
425.07	4032.74
425.26	3779.97
425.45	3941.46
425.64	4044.45
425.83	3960.19
426.01	3941.46
426.20	3948.48
426.39	3999.98
426.58	3967.21
426.77	4028.06
426.96	4039.76
427.15	3995.29
427.33	4021.04
427.52	4028.06
427.71	4070.19
427.90	4189.56
428.09	4180.20
428.28	4140.41
428.46	4135.73
428.65	4002.32
428.84	4248.07
429.03	4159.13
429.22	4147.43
429.40	4243.39
429.59	4060.83
429.78	4109.98
429.97	3927.42
430.16	4011.68
430.34	4021.04
430.53	4280.84
430.72	4182.54
430.91	4280.84
431.10	4280.84
431.28	4624.90
431.47	4674.05
431.66	4505.53
431.85	4617.88
432.03	4608.51
432.22	4589.79
432.41	4655.33
432.60	4580.43
432.79	4716.18
432.97	4821.50
433.16	4812.14
433.35	4739.58
433.54	4613.20
433.72	4622.56
433.91	4770.01
434.10	4681.07
434.28	4849.59
434.47	4791.08
434.66	4823.84
434.85	5085.98
435.03	5018.11
435.22	4882.36
435.41	5109.39
435.59	5004.07
435.78	5144.50
435.97	5118.75
436.16	5207.69
436.34	5249.82
436.53	5116.41
436.72	5116.41
436.90	5181.95
437.09	5156.20
437.28	5064.92
437.46	5343.44
437.65	5116.41
437.84	5064.92
438.02	5165.56
438.21	5275.57
438.40	5090.67
438.58	5280.25
438.77	5301.31
438.96	5280.25
439.14	5692.18
439.33	5479.19
439.52	5678.14
439.70	5593.88
439.89	5483.88
440.08	5572.82
440.26	5762.40
440.45	5640.69
440.63	5753.04
440.82	5940.28
441.01	5870.06
441.19	5851.34
441.38	6134.54
441.57	6045.60
441.75	5996.45
441.94	6277.32
442.12	6001.13
442.31	6354.55
442.50	6286.68
442.68	6066.67
442.87	6349.87
443.05	6256.25
443.24	6410.73
443.43	6396.68
443.61	6558.18
443.80	6665.85
443.98	6296.04
444.17	6359.24
444.35	6595.63
444.54	6705.63
444.73	6562.86
444.91	6480.94
445.10	6377.96
445.28	6246.89
445.47	6368.60
445.65	6541.80
445.84	6459.88
446.02	6609.67
446.21	6619.04
446.39	6448.18
446.58	6614.35
446.77	6366.26
446.95	6637.76
447.14	6810.96
447.32	6874.15
447.51	6534.78
447.69	6583.93
447.88	6757.13
448.06	6604.99
448.25	6705.63
448.43	6745.42
448.62	6658.82
448.80	6801.60
448.99	6827.34
449.17	6885.86
449.36	6937.35
449.54	6825.00
449.73	6916.28
449.91	7276.73
450.10	7030.97
450.28	7339.92
450.46	7218.21
450.65	7110.55
450.83	7232.26
451.02	7063.74
451.20	7187.79
451.39	7129.27
451.57	7159.70
451.76	7110.55
451.94	7253.32
452.13	7470.99
452.31	7164.38
452.49	7136.29
452.68	7140.97
452.86	7295.45
453.05	7286.09
453.23	7454.61
453.42	7178.42
453.60	7290.77
453.78	7513.12
453.97	7325.88
454.15	7363.33
454.34	7229.91
454.52	7337.58
454.70	7571.63
454.89	7302.47
455.07	7564.61
455.26	7702.70
455.44	7681.64
455.62	7686.32
455.81	7611.42
455.99	7768.24
456.17	7847.82
456.36	7744.83
456.54	7873.56
456.73	8002.29
456.91	8060.80
457.09	7999.95
457.28	8299.54
457.46	7915.69
457.64	7990.59
457.83	7843.14
458.01	8025.70
458.19	8365.07
458.38	8112.30
458.56	8212.94
458.74	8341.67
458.93	8252.73
459.11	8278.47
459.29	8299.54
459.48	8486.78
459.66	8430.61
459.84	8486.78
460.03	8496.14
460.21	8372.10
460.39	8437.63
460.57	8524.23
460.76	8510.19
460.94	8685.73
461.12	8540.61
461.31	8617.85
461.49	8716.16
461.67	8456.36
461.85	8643.60
462.04	8648.28
462.22	9261.50
462.40	8741.90
462.59	8798.07
462.77	8982.98
462.95	8887.01
463.13	8905.74
463.32	9004.04
463.50	8943.19
463.68	8980.64
463.86	8809.78
464.05	9001.70
464.23	8645.94
464.41	9053.19
464.59	8872.97
464.78	9261.50
464.96	9125.75
465.14	8912.76
465.32	9132.77
465.50	9467.47
465.69	9195.96
465.87	9270.86
466.05	9142.13
466.23	9050.85
466.41	9034.47
466.60	9305.97
466.78	9167.88
466.96	9111.71
467.14	9327.03
467.32	9308.31
467.51	9411.29
467.69	9327.03
467.87	9572.79
468.05	9589.17
468.23	9259.16
468.41	9401.93
468.60	9469.81
468.78	9423.00
468.96	9448.74
469.14	9582.15
469.32	9741.31
469.50	9327.03
469.69	9710.88
469.87	9762.37
470.05	9528.32
470.23	9652.37
470.41	9717.90
470.59	9966.00
470.77	9823.23
470.95	10085.37
471.14	10045.58
471.32	10129.84
471.50	10452.83
471.68	10445.81
471.86	10326.44
472.04	10459.85
472.22	10406.02
472.40	10125.16
472.58	10441.13
472.77	10525.39
472.95	10452.83
473.13	10651.78
473.31	10485.60
473.49	10588.58
473.67	10707.95
473.85	10630.71
474.03	10916.26
474.21	10740.72
474.39	10862.43
474.57	10998.18
474.75	11194.78
474.93	11309.47
475.12	11054.35
475.30	11316.49
475.48	11208.83
475.66	11243.93
475.84	11105.84
476.02	11637.14
476.20	11440.54
476.38	11639.48
476.56	11824.39
476.74	11683.95
476.92	11943.75
477.10	11716.72
477.28	12332.28
477.46	12126.32
477.64	12123.98
477.82	12409.52
478.00	12456.33
478.18	12381.43
478.36	12568.68
478.54	12835.50
478.72	12781.67
478.90	12894.01
479.08	12994.65
479.26	12966.57
479.44	13004.02
479.62	13130.41
479.80	13434.68
479.98	13228.71
480.16	13619.58
480.34	13336.37
480.52	13802.14
480.70	13575.11
480.88	13310.63
481.06	13886.40
481.24	14019.81
481.41	14031.51
481.59	14607.28
481.77	14288.97
481.95	14129.81
482.13	14581.54
482.31	14473.87
482.49	14443.45
482.67	14876.44
482.85	15077.73
483.03	15000.49
483.21	14970.07
483.39	15164.33
483.57	15066.03
483.74	15426.47
483.92	15695.63
484.10	15304.76
484.28	15545.84
484.46	16004.58
484.64	16315.87
484.82	15920.32
485.00	15964.79
485.18	16269.06
485.35	16594.40
485.53	16037.35
485.71	16341.62
485.89	16456.31
486.07	16283.11
486.25	16683.34
486.43	16968.88
486.61	16931.44
486.78	17034.42
486.96	17277.83
487.14	17486.14
487.32	17696.79
487.50	17907.44
487.68	17804.46
487.85	18167.24
488.03	18420.02
488.21	18485.55
488.39	18590.88
488.57	18707.90
488.75	18651.73
488.92	19122.18
489.10	19344.53
489.28	19007.49
489.46	19592.62
489.64	19850.08
489.81	20009.24
489.99	20100.52
490.17	20278.40
490.35	20381.38
490.53	20128.61
490.70	20493.73
490.88	20453.94
491.06	20931.41
491.24	20589.69
491.41	20573.31
491.59	20594.37
491.77	20570.97
491.95	20936.09
492.13	20968.86
492.30	21390.16
492.48	21462.71
492.66	21640.59
492.84	21830.18
493.01	22033.80
493.19	22043.17
493.37	22125.08
493.54	22286.58
493.72	22464.46
493.90	22455.10
494.08	23000.44
494.25	22991.08
494.43	23183.01
494.61	23143.22
494.79	23459.19
494.96	23328.12
495.14	23360.89
495.32	23545.79
495.49	23697.92
495.67	23756.44
495.85	23894.53
496.02	24250.29
496.20	24374.34
496.38	24364.98
496.55	24299.44
496.73	24945.43
496.91	24716.06
497.09	25179.48
497.26	24957.13
497.44	24877.55
497.62	25088.20
497.79	25130.33
497.97	25200.55
498.14	25076.50
498.32	25415.88
498.50	25764.62
498.67	25839.51
498.85	26167.19
499.03	26171.87
499.20	26057.18
499.38	26382.52
499.56	26476.14
499.73	26373.16
499.91	26298.26
500.08	26256.13
500.26	25989.31
500.44	26370.82
500.61	26703.17
500.79	26656.36
500.97	26621.25
501.14	26888.07
501.32	26953.61
501.49	27147.87
501.67	27042.55
501.84	27190.00
502.02	27175.96
502.20	27709.60
502.37	27768.12
502.55	27445.12
502.72	27594.92
502.90	27960.04
503.07	27922.59
503.25	28493.68
503.43	28158.99
503.60	28025.57
503.78	28395.38
503.95	28114.52
504.13	28425.81
504.30	28498.36
504.48	28467.94
504.65	28542.83
504.83	28706.67
505.01	28999.24
505.18	28823.70
505.36	29394.79
505.53	29483.73
505.71	29621.82
505.88	29715.44
506.06	29195.84
506.23	29834.81
506.41	29357.34
506.58	29949.50
506.76	29722.46
506.93	29703.74
507.11	30029.07
507.28	29642.88
507.46	29717.78
507.63	29593.73
507.81	30291.21
507.98	30029.07
508.16	30565.06
508.33	30202.27
508.50	30565.06
508.68	30637.61
508.85	31143.17
509.03	30888.05
509.20	30946.56
509.38	30862.30
509.55	31119.76
509.73	31587.87
509.90	31143.17
510.08	31304.67
510.25	31501.27
510.42	31297.64
510.60	31798.52
510.77	31674.47
510.95	31960.02
511.12	31559.78
511.30	32088.74
511.47	32346.20
511.64	31765.75
511.82	32575.58
511.99	32470.25
512.17	32086.40
512.34	32224.50
512.51	32435.14
512.69	32404.72
512.86	32573.24
513.04	32723.03
513.21	32561.53
513.38	32481.95
513.56	32369.61
513.73	32741.75
513.90	32858.78
514.08	33219.22
514.25	32905.59
514.43	32996.87
514.60	33221.56
514.77	32926.66
514.95	33656.90
515.12	33254.33
515.29	33560.94
515.47	33893.30
515.64	33811.38
515.81	33338.59
515.99	33670.95
516.16	33706.05
516.33	33394.76
516.51	33443.91
516.68	33146.67
516.85	33315.19
517.03	33366.68
517.20	33963.51
517.37	34253.74
517.54	34080.54
517.72	33900.32
517.89	33235.61
518.06	34019.69
518.24	34080.54
518.41	34515.88
518.58	34330.98
518.75	34330.98
518.93	34581.42
519.10	34553.33
519.27	34572.05
519.45	34738.23
519.62	35136.12
519.79	34909.09
519.96	35136.12
520.14	35255.49
520.31	34960.58
520.48	35220.38
520.65	34780.36
520.83	35611.25
521.00	35878.07
521.17	35854.67
521.34	35772.75
521.52	36287.67
521.69	35894.46
521.86	35543.38
522.03	36320.43
522.20	36275.96
522.38	36210.43
522.55	36608.32
522.72	36444.48
522.89	36306.39
523.07	36711.30
523.24	36311.07
523.41	37022.59
523.58	36453.84
523.75	36861.10
523.92	36891.52
524.10	36980.46
524.27	37109.19
524.44	36821.31
524.61	37266.01
524.78	37181.75
524.96	37383.04
525.13	37560.92
525.30	37610.07
525.47	37273.03
525.64	37233.24
525.81	37380.70
525.98	37301.12
526.16	36905.57
526.33	37254.31
526.50	37308.14
526.67	36711.30
526.84	37146.64
527.01	37549.21
527.18	37497.72
527.36	37809.01
527.53	37904.98
527.70	38635.22
527.87	38639.90
528.04	37991.58
528.21	38490.11
528.38	38548.62
528.55	38583.73
528.72	38473.73
528.89	38536.92
529.07	38543.94
529.24	38520.54
529.41	38527.56
529.58	38550.96
529.75	38691.40
529.92	38857.57
530.09	39075.24
530.26	38918.43
530.43	39070.56
530.60	38902.04
530.77	39117.37
530.94	39288.23
531.11	39012.05
531.28	39070.56
531.46	39309.30
531.63	39459.09
531.80	38782.68
531.97	39026.09
532.14	39056.52
532.31	38895.02
532.48	39175.89
532.65	39313.98
532.82	39622.93
532.99	39199.29
533.16	39353.77
533.33	39990.39
533.50	39613.57
533.67	39587.82
533.84	39945.92
534.01	40009.12
534.18	39613.57
534.35	40549.78
534.52	39899.11
534.69	40268.92
534.86	40086.36
535.03	40425.73
535.20	40760.43
535.37	40720.64
535.54	40783.83
535.71	40652.76
535.88	40697.24
536.05	40325.09
536.22	40610.64
536.38	40872.78
536.55	40704.26
536.72	40680.85
536.89	40802.56
537.06	40491.27
537.23	41319.82
537.40	41172.36
537.57	40521.69
537.74	40893.84
537.91	41368.97
538.08	41525.78
538.25	40657.45
538.42	40748.73
538.59	41172.36
538.75	40673.83
538.92	41106.83
539.09	41036.61
539.26	41212.15
539.43	41228.54
539.60	41195.77
539.77	41205.13
539.94	41174.70
540.11	40964.06
540.28	41387.69
540.44	41118.53
540.61	41247.26
540.78	41064.70
540.95	41284.71
541.12	41635.79
541.29	41270.67
541.46	41743.45
541.62	41626.43
541.79	41841.76
541.96	41743.45
542.13	41539.83
542.30	41696.64
542.47	41823.03
542.63	41769.20
542.80	41837.08
542.97	42321.57
543.14	42344.97
543.31	42176.45
543.48	42415.19
543.64	42841.17
543.81	42504.13
543.98	42377.74
544.15	42323.91
544.32	42387.10
544.48	43180.54
544.65	42775.63
544.82	42361.36
544.99	42543.92
545.16	42436.25
545.32	42564.98
545.49	43220.33
545.66	42918.40
545.83	43140.75
546.00	43119.69
546.16	42756.91
546.33	42508.81
546.50	42958.19
546.67	43512.90
546.83	42333.27
547.00	43194.59
547.17	43044.79
547.34	42993.30
547.50	42976.92
547.67	43325.66
547.84	43276.51
548.00	43688.44
548.17	43899.09
548.34	43604.18
548.51	43856.96
548.67	43636.95
548.84	43695.46
549.01	43260.12
549.18	43782.06
549.34	43110.33
549.51	43400.55
549.68	43372.47
549.84	43852.28
550.01	43768.02
550.18	43302.25
550.34	43573.75
550.51	43833.55
550.68	43566.73
550.84	43271.82
551.01	43880.36
551.18	43728.23
551.34	43622.90
551.51	43917.81
551.68	44175.27
551.84	44020.80
552.01	43744.61
552.18	44179.95
552.34	43583.12
552.51	44404.64
552.68	44322.72
552.84	44451.45
553.01	44224.42
553.18	44264.21
553.34	44395.28
553.51	44481.88
553.67	44395.28
553.84	45120.85
554.01	44411.67
554.17	44626.99
554.34	44526.35
554.51	44479.54
554.67	44388.26
554.84	44257.19
555.00	44442.09
555.17	44304.00
555.33	44559.12
555.50	44844.66
555.67	44872.75
555.83	44275.91
556.00	44554.44
556.16	44603.59
556.33	44957.01
556.50	44851.69
556.66	44458.48
556.83	44573.16
556.99	44772.11
557.16	44980.42
557.32	44479.54
557.49	44577.84
557.65	44598.91
557.82	44886.79
557.98	45099.78
558.15	45151.27
558.32	44954.67
558.48	44456.14
558.65	44673.81
558.81	44912.54
558.98	44802.53
559.14	44814.24
559.31	44392.94
559.47	45092.76
559.64	45277.66
559.80	44659.76
559.97	44608.27
560.13	44758.06
560.30	44678.49
560.46	45071.70
560.63	45137.23
560.79	45408.73
560.96	45514.06
561.12	44807.22
561.29	45104.46
561.45	44601.25
561.61	45200.43
561.78	45214.47
561.94	45034.25
562.11	45038.93
562.27	44800.19
562.44	45361.92
562.60	45490.65
562.77	45371.28
562.93	45340.86
563.10	45738.75
563.26	45202.77
563.42	45652.15
563.59	45158.30
563.75	45272.98
563.92	45567.89
564.08	45715.34
564.24	45734.07
564.41	45319.79
564.57	45551.51
564.74	45127.87
564.90	45455.54
565.07	45205.11
565.23	45687.26
565.39	45200.43
565.56	45731.73
565.72	45310.43
565.88	45382.99
566.05	45319.79
566.21	45148.93
566.38	45640.45
566.54	45436.82
566.70	45755.13
566.87	45717.68
567.03	45701.30
567.19	46059.40
567.36	45324.47
567.52	45682.58
567.68	45670.87
567.85	45385.33
568.01	45652.15
568.17	45696.62
568.34	45937.69
568.50	45104.46
568.66	45614.70
568.83	45256.60
568.99	45158.30
569.15	45743.43
569.32	45394.69
569.48	45368.94
569.64	45853.44
569.81	45883.86
569.97	45855.78
570.13	45708.32
570.30	45177.02
570.46	45139.57
570.62	45392.35
570.78	45092.76
570.95	45345.54
571.11	46040.68
571.27	45427.46
571.43	45523.42
571.60	45713.00
571.76	45476.61
571.92	45790.24
572.09	45661.51
572.25	45867.48
572.41	45717.68
572.57	45698.96
572.74	46387.08
572.90	45947.06
573.06	46131.96
573.22	45771.52
573.38	45883.86
573.55	45806.62
573.71	45865.14
573.87	45654.49
574.03	45275.32
574.20	45748.11
574.36	45385.33
574.52	45684.92
574.68	45579.59
574.84	45839.39
575.01	45553.85
575.17	45610.02
575.33	45331.50
575.49	45776.20
575.65	45532.78
575.82	45909.61
575.98	45467.25
576.14	45537.46
576.30	46279.41
576.46	46087.49
576.62	45923.65
576.79	45588.95
576.95	45764.49
577.11	45722.37
577.27	45272.98
577.43	45652.15
577.59	45675.55
577.75	46078.13
577.92	45298.73
578.08	45420.44
578.24	45226.17
578.40	45879.18
578.56	45738.75
578.72	45961.10
578.88	45743.43
579.04	46071.10
579.21	45551.51
579.37	45764.49
579.53	45441.50
579.69	45696.62
579.85	46007.91
580.01	45724.71
580.17	45893.22
580.33	45977.48
580.49	45645.13
580.65	45860.46
580.82	45563.21
580.98	45387.67
581.14	45474.27
581.30	46038.34
581.46	45879.18
581.62	45977.48
581.78	45832.37
581.94	45925.99
582.10	45867.48
582.26	45628.74
582.42	46057.06
582.58	45968.12
582.74	45729.39
582.90	46000.89
583.06	46164.73
583.22	45921.31
583.38	45855.78
583.54	46424.53
583.70	46047.70
583.86	46143.66
584.02	46061.74
584.18	46384.74
584.34	46433.89
584.50	45776.20
584.66	46054.72
584.82	46078.13
584.98	45996.21
585.14	45954.08
585.30	45202.77
585.46	46036.00
585.62	45659.17
585.78	45495.33
585.94	45624.06
586.10	45490.65
586.26	45921.31
586.42	46405.80
586.58	46164.73
586.74	46171.75
586.90	45839.39
587.06	45565.55
587.22	46206.86
587.38	45544.48
587.54	46061.74
587.70	45928.33
587.86	45794.92
588.02	45696.62
588.18	45883.86
588.34	45361.92
588.49	45511.72
588.65	45214.47
588.81	45272.98
588.97	45514.06
589.13	45483.63
589.29	45474.27
589.45	45502.35
589.61	45523.42
589.77	45839.39
589.93	45890.88
590.08	45942.38
