SpectraSuite Data File
++++++++++++++++++++++++++++++++++++
Date: Fri Oct 25 11:23:02 EDT 2013
User: price-jones
Dark Spectrum Present: No
Reference Spectrum Present: No
Number of Sampled Component Spectra: 1
Spectrometers: USB2+H05261
Integration Time (usec): 100000 (USB2+H05261)
Spectra Averaged: 1 (USB2+H05261)
Boxcar Smoothing: 0 (USB2+H05261)
Correct for Electrical Dark: No (USB2+H05261)
Strobe/Lamp Enabled: No (USB2+H05261)
Correct for Detector Non-linearity: No (USB2+H05261)
Correct for Stray Light: No (USB2+H05261)
Number of Pixels in Processed Spectrum: 2048
>>>>>Begin Processed Spectral Data<<<<<
365.73	264.48
365.92	264.48
366.12	264.48
366.32	84.26
366.52	163.84
366.72	110.01
366.91	81.92
367.11	126.39
367.31	121.71
367.51	189.58
367.70	102.98
367.90	135.75
368.10	102.98
368.30	102.98
368.49	37.45
368.69	133.41
368.89	203.63
369.09	98.30
369.28	145.11
369.48	203.63
369.68	140.43
369.87	147.45
370.07	236.39
370.27	236.39
370.47	325.33
370.66	580.45
370.86	648.33
371.06	610.88
371.25	711.52
371.45	709.18
371.65	695.14
371.84	615.56
372.04	706.84
372.24	648.33
372.44	767.70
372.63	737.27
372.83	709.18
373.03	725.57
373.22	711.52
373.42	758.33
373.62	716.20
373.81	772.38
374.01	858.98
374.21	870.68
374.40	795.78
374.60	880.04
374.79	821.53
374.99	849.61
375.19	805.14
375.38	866.00
375.58	802.80
375.78	842.59
375.97	821.53
376.17	863.66
376.37	849.61
376.56	816.85
376.76	826.21
376.95	889.40
377.15	922.17
377.35	896.43
377.54	957.28
377.74	844.93
377.93	929.19
378.13	891.74
378.33	912.81
378.52	959.62
378.72	997.07
378.91	950.26
379.11	945.58
379.31	901.11
379.50	940.90
379.70	929.19
379.89	924.51
380.09	1006.43
380.28	936.21
380.48	1001.75
380.68	957.28
380.87	976.00
381.07	1039.20
381.26	1001.75
381.46	1013.45
381.65	1022.81
381.85	1006.43
382.04	947.92
382.24	1011.11
382.43	1057.92
382.63	1053.24
382.83	1114.10
383.02	1071.97
383.22	1057.92
383.41	1139.84
383.61	1125.80
383.80	1123.46
384.00	1109.41
384.19	1128.14
384.39	1109.41
384.58	1125.80
384.78	1224.10
384.97	1078.99
385.17	1121.12
385.36	1170.27
385.56	1184.31
385.75	1188.99
385.95	1153.88
386.14	1226.44
386.34	1156.22
386.53	1270.91
386.72	1233.46
386.92	1383.26
387.11	1266.23
387.31	1238.14
387.50	1282.61
387.70	1210.06
387.89	1303.68
388.09	1256.87
388.28	1336.45
388.48	1364.53
388.67	1364.53
388.86	1390.28
389.06	1287.29
389.25	1343.47
389.45	1369.21
389.64	1472.20
389.84	1420.71
390.03	1397.30
390.22	1432.41
390.42	1296.66
390.61	1416.02
390.81	1306.02
391.00	1376.24
391.19	1423.05
391.39	1411.34
391.58	1446.45
391.78	1481.56
391.97	1448.79
392.16	1521.35
392.36	1504.96
392.55	1488.58
392.75	1554.12
392.94	1469.86
393.13	1542.41
393.33	1533.05
393.52	1481.56
393.71	1614.97
393.91	1561.14
394.10	1568.16
394.29	1568.16
394.49	1657.10
394.68	1633.69
394.88	1643.06
395.07	1734.34
395.26	1636.03
395.46	1750.72
395.65	1610.29
395.84	1767.10
396.04	1710.93
396.23	1851.36
396.42	1727.32
396.62	1804.55
396.81	1879.45
397.00	1863.07
397.19	1764.76
397.39	1811.57
397.58	1863.07
397.77	1722.63
397.97	1870.09
398.16	1907.54
398.35	1937.96
398.55	1987.11
398.74	1930.94
398.93	1900.52
399.12	1879.45
399.32	1987.11
399.51	2005.84
399.70	1940.30
399.90	1898.17
400.09	2010.52
400.28	2090.10
400.47	2050.31
400.67	2071.37
400.86	2087.76
401.05	2139.25
401.24	2242.23
401.44	2087.76
401.63	2200.10
401.82	2174.36
402.01	2125.21
402.21	2225.85
402.40	2282.02
402.59	2160.31
402.78	2193.08
402.97	2272.66
403.17	2275.00
403.36	2314.79
403.55	2352.24
403.74	2385.01
403.93	2335.85
404.13	2417.77
404.32	2347.56
404.51	2487.99
404.70	2424.80
404.89	2284.36
405.09	2553.52
405.28	2410.75
405.47	2513.74
405.66	2445.86
405.85	2710.34
406.05	2448.20
406.24	2597.99
406.43	2597.99
406.62	2726.72
406.81	2705.66
407.00	2654.17
407.20	2691.62
407.39	2602.68
407.58	2799.28
407.77	2703.32
407.96	2780.56
408.15	2841.41
408.34	2773.53
408.54	2895.24
408.73	2724.38
408.92	2843.75
409.11	2967.80
409.30	2925.67
409.49	2890.56
409.68	2916.31
409.87	2946.73
410.07	3052.06
410.26	3105.89
410.45	2897.58
410.64	3117.59
410.83	3159.72
411.02	3176.11
411.21	3136.32
411.40	3150.36
411.59	3246.32
411.78	3222.92
411.98	3159.72
412.17	3253.34
412.36	3283.77
412.55	3251.00
412.74	3419.52
412.93	3447.61
413.12	3349.31
413.31	3562.30
413.50	3433.57
413.69	3501.44
413.88	3611.45
414.07	3658.26
414.26	3595.06
414.45	3576.34
414.64	3618.47
414.83	3765.92
415.02	3728.47
415.22	3861.88
415.41	3985.93
415.60	3896.99
415.79	3826.78
415.98	3957.85
416.17	3920.40
416.36	4011.68
416.55	3915.72
416.74	4102.96
416.93	4021.04
417.12	4124.02
417.31	4243.39
417.50	4250.41
417.69	4432.97
417.88	4395.53
418.07	4229.35
418.26	4372.12
418.45	4444.68
418.64	4535.96
418.83	4465.74
419.02	4496.17
419.21	4535.96
419.39	4582.77
419.58	4571.07
419.77	4535.96
419.96	4634.26
420.15	4519.57
420.34	4617.88
420.53	4613.20
420.72	4718.52
420.91	4716.18
421.10	4655.33
421.29	4870.65
421.48	4713.84
421.67	4844.91
421.86	4645.96
422.05	4791.08
422.24	4896.40
422.43	5067.26
422.61	4966.62
422.80	5041.51
422.99	5036.83
423.18	5039.17
423.37	5132.79
423.56	4983.00
423.75	4961.94
423.94	4896.40
424.13	4561.70
424.32	4861.29
424.50	5081.30
424.69	5053.22
424.88	5081.30
425.07	4901.08
425.26	5118.75
425.45	4901.08
425.64	5015.77
425.83	5050.88
426.01	5025.13
426.20	5135.14
426.39	5144.50
426.58	5046.20
426.77	4891.72
426.96	5268.55
427.15	5242.80
427.33	5231.10
427.52	5055.56
427.71	5322.38
427.90	5296.63
428.09	5362.17
428.28	5378.55
428.46	5317.70
428.65	5397.28
428.84	5490.90
429.03	5556.43
429.22	5364.51
429.40	5575.16
429.59	5633.67
429.78	5387.91
429.97	5228.76
430.16	5493.24
430.34	5633.67
430.53	5764.74
430.72	5731.97
430.91	5713.25
431.10	5701.54
431.28	5678.14
431.47	5792.83
431.66	5898.15
431.85	5923.90
432.03	6024.54
432.22	6108.80
432.41	6040.92
432.60	5874.74
432.79	6033.90
432.97	6003.47
433.16	5966.03
433.35	6061.99
433.54	6176.67
433.72	6345.19
433.91	6157.95
434.10	6300.72
434.28	6218.80
434.47	6235.19
434.66	6361.58
434.85	6284.34
435.03	6452.86
435.22	6431.79
435.41	6509.03
435.59	6429.45
435.78	6532.44
435.97	6700.95
436.16	6448.18
436.34	6356.90
436.53	6464.56
436.72	6794.58
436.90	6607.33
437.09	6813.30
437.28	6420.09
437.46	6712.66
437.65	6518.39
437.84	6881.18
438.02	6782.87
438.21	6707.98
438.40	6677.55
438.58	6974.80
438.77	7152.68
438.96	6958.41
439.14	7140.97
439.33	7255.66
439.52	7297.79
439.70	7129.27
439.89	7363.33
440.08	7276.73
440.26	7438.22
440.45	7463.97
440.63	7581.00
440.82	7728.45
441.01	7534.18
441.19	7735.47
441.38	7555.25
441.57	7901.65
441.75	7896.97
441.94	8219.96
442.12	7805.69
442.31	8163.79
442.50	8028.04
442.68	7941.44
442.87	8074.85
443.05	8173.15
443.24	8070.17
443.43	8149.75
443.61	8376.78
443.80	8627.21
443.98	8184.85
444.17	8074.85
444.35	8348.69
444.54	8535.93
444.73	8299.54
444.91	8449.33
445.10	8468.06
445.28	8603.81
445.47	8360.39
445.65	8400.18
445.84	8432.95
446.02	8629.56
446.21	8400.18
446.39	8461.04
446.58	8411.89
446.77	8507.85
446.95	8381.46
447.14	8411.89
447.32	8449.33
447.51	8542.96
447.69	8542.96
447.88	8461.04
448.06	8425.93
448.25	8458.70
448.43	8720.84
448.62	8636.58
448.80	8566.36
448.99	8821.48
449.17	8821.48
449.36	8627.21
449.54	8973.61
449.73	8961.91
449.91	9011.06
450.10	8994.68
450.28	9266.18
450.46	9191.28
450.65	9205.33
450.83	8982.98
451.02	9181.92
451.20	9401.93
451.39	9231.07
451.57	9348.10
451.76	9142.13
451.94	9107.02
452.13	9434.70
452.31	9415.98
452.49	9291.93
452.68	9474.49
452.86	9577.47
453.05	9518.96
453.23	9495.55
453.42	9289.59
453.60	9210.01
453.78	9675.77
453.97	9385.55
454.15	9596.20
454.34	9371.50
454.52	9795.14
454.70	9624.28
454.89	9680.46
455.07	9774.08
455.26	9914.51
455.44	10113.45
455.62	10073.67
455.81	9987.07
455.99	10228.14
456.17	10265.59
456.36	10186.01
456.54	10310.06
456.73	10221.12
456.91	10462.19
457.09	10448.15
457.28	10600.29
457.46	10429.43
457.64	10721.99
457.83	10642.42
458.01	10544.11
458.19	10785.19
458.38	10558.16
458.56	10628.37
458.74	10700.93
458.93	10752.42
459.11	10984.13
459.29	10895.19
459.48	10738.38
459.66	10888.17
459.84	10754.76
460.03	11150.31
460.21	11138.61
460.39	11164.36
460.57	10946.69
460.76	11274.36
460.94	11335.21
461.12	11094.14
461.31	11108.18
461.49	11318.83
461.67	11286.06
461.85	11426.50
462.04	11580.97
462.22	11384.37
462.40	11667.57
462.59	11709.70
462.77	11564.59
462.95	11719.06
463.13	11698.00
463.32	11676.93
463.50	11796.30
463.68	11927.37
463.86	11936.73
464.05	11822.05
464.23	11688.64
464.41	12123.98
464.59	11707.36
464.78	12475.06
464.96	11882.90
465.14	12091.21
465.32	12161.42
465.50	12278.45
465.69	12379.09
465.87	12304.20
466.05	11880.56
466.23	12189.51
466.41	12383.77
466.60	12465.69
466.78	12156.74
466.96	12315.90
467.14	12369.73
467.32	12503.14
467.51	12535.91
467.69	12489.10
467.87	12599.10
468.05	12662.30
468.23	12505.48
468.41	12582.72
468.60	12816.77
468.78	12922.10
468.96	12678.68
469.14	12791.03
469.32	13083.59
469.50	12805.07
469.69	12947.84
469.87	13193.60
470.05	13020.40
470.23	13233.39
470.41	13472.12
470.59	13586.81
470.77	13107.00
470.95	13429.99
471.14	13591.49
471.32	13310.63
471.50	13542.34
471.68	13645.32
471.86	13565.74
472.04	13989.38
472.22	14057.26
472.40	13657.03
472.58	13965.98
472.77	13802.14
472.95	14340.46
473.13	14658.78
473.31	14181.31
473.49	14347.48
473.67	14413.02
473.85	14595.58
474.03	14881.13
474.21	14644.73
474.39	14618.99
474.57	14611.96
474.75	15246.25
474.93	15061.35
475.12	14960.70
475.30	15377.32
475.48	15131.56
475.66	15403.07
475.84	15229.87
476.02	15665.21
476.20	15396.04
476.38	15644.14
476.56	16177.78
476.74	16208.21
476.92	16006.92
477.10	16086.50
477.28	16580.36
477.46	16297.15
477.64	16528.86
477.82	16716.11
478.00	17102.29
478.18	17006.33
478.36	16987.61
478.54	17027.40
478.72	17291.88
478.90	17736.58
479.08	17699.13
479.26	17717.86
479.44	17687.43
479.62	17839.56
479.80	18108.72
479.98	18342.78
480.16	18656.41
480.34	18410.65
480.52	18628.32
480.70	18717.26
480.88	18492.57
481.06	18771.10
481.24	18960.68
481.41	19077.71
481.59	19206.44
481.77	19805.61
481.95	19819.66
482.13	19733.06
482.31	19941.36
482.49	20329.89
482.67	20421.17
482.85	20456.28
483.03	20795.66
483.21	21294.19
483.39	21366.75
483.57	21034.39
483.74	21160.78
483.92	21769.32
484.10	21502.50
484.28	21818.47
484.46	22293.60
484.64	22478.50
484.82	22331.05
485.00	22270.20
485.18	22785.12
485.35	23278.97
485.53	22677.45
485.71	23613.66
485.89	23758.78
486.07	23496.64
486.25	23484.94
486.43	23931.98
486.61	24163.69
486.78	24489.03
486.96	24292.42
487.14	24402.43
487.32	24774.57
487.50	25165.44
487.68	24980.54
487.85	25446.30
488.03	25827.81
488.21	26288.90
488.39	25916.75
488.57	26368.48
488.75	26309.96
488.92	26803.82
489.10	26761.69
489.28	26759.34
489.46	27374.91
489.64	27473.21
489.81	27749.39
489.99	27798.54
490.17	27899.19
490.35	28236.22
490.53	28442.19
490.70	28687.95
490.88	28540.49
491.06	28929.02
491.24	28987.53
491.41	29228.61
491.59	29539.90
491.77	29074.13
491.95	29748.21
492.13	30340.36
492.30	30185.89
492.48	30239.72
492.66	30071.20
492.84	30693.79
493.01	31068.27
493.19	30925.50
493.37	31452.12
493.54	31143.17
493.72	31747.03
493.90	31494.25
494.08	32194.07
494.25	31950.65
494.43	32283.01
494.61	32751.12
494.79	32690.26
494.96	32929.00
495.14	32842.40
495.32	33151.35
495.49	33329.23
495.67	33270.72
495.85	33921.38
496.02	34139.05
496.20	34169.48
496.38	34059.48
496.55	34429.28
496.73	35150.17
496.91	34993.35
497.09	35051.86
497.26	35342.09
497.44	35344.43
497.62	35332.73
497.79	36339.16
497.97	36208.09
498.14	36208.09
498.32	36493.63
498.50	36781.52
498.67	36903.23
498.85	36575.55
499.03	36797.90
499.20	36959.40
499.38	36662.15
499.56	37106.85
499.73	37230.90
499.91	37542.19
500.08	37862.85
500.26	37928.38
500.44	37848.80
500.61	38054.77
500.79	37933.06
500.97	38415.21
501.14	38754.59
501.32	38785.02
501.49	38859.91
501.67	38862.26
501.84	39461.43
502.02	39297.59
502.20	39782.09
502.37	39428.66
502.55	39655.70
502.72	39957.63
502.90	39896.77
503.07	40163.59
503.25	40278.28
503.43	40165.93
503.60	40608.29
503.78	40289.98
503.95	40612.98
504.13	40285.30
504.30	41181.73
504.48	40797.88
504.65	41017.89
504.83	41603.02
505.01	41476.63
505.18	41701.32
505.36	41696.64
505.53	42071.13
505.71	41808.99
505.88	42047.72
506.06	42057.09
506.23	42583.71
506.41	41881.55
506.58	42602.43
506.76	42682.01
506.93	42747.54
507.11	42546.26
507.28	42415.19
507.46	43033.09
507.63	43096.28
507.81	43423.96
507.98	43124.37
508.16	43548.01
508.33	43456.73
508.50	43604.18
508.68	43828.87
508.85	44329.75
509.03	43875.68
509.20	44083.99
509.38	44825.94
509.55	44952.33
509.73	44891.48
509.90	44949.99
510.08	44938.29
510.25	44645.72
510.42	45116.17
510.60	45305.75
510.77	45497.67
510.95	45591.30
511.12	45375.97
511.30	45492.99
511.47	45605.34
511.64	45682.58
511.82	45947.06
511.99	46108.55
512.17	46291.12
512.34	46174.09
512.51	46855.18
512.69	46415.16
512.86	46546.23
513.04	46813.05
513.21	46920.72
513.38	46974.55
513.56	47222.65
513.73	47129.03
513.90	46829.44
514.08	47253.08
514.25	47433.30
514.43	47805.44
514.60	47714.16
514.77	47922.47
514.95	47976.30
515.12	47449.68
515.29	48027.79
515.47	48568.46
515.64	48341.42
515.81	47976.30
515.99	48470.15
516.16	49015.50
516.33	48596.54
516.51	49088.06
516.68	48790.81
516.85	48903.15
517.03	49312.75
517.20	49062.31
517.37	48982.73
517.54	49345.51
517.72	49069.33
517.89	49439.14
518.06	49612.34
518.24	49361.90
518.41	49717.66
518.58	49666.17
518.75	49780.85
518.93	50115.55
519.10	49399.35
519.27	50155.34
519.45	50040.65
519.62	50005.55
519.79	50089.80
519.96	49851.07
520.14	50623.45
520.31	50583.66
520.48	50454.93
520.65	50588.34
520.83	50969.85
521.00	50897.29
521.17	50808.35
521.34	50717.07
521.52	50838.78
521.69	51365.40
521.86	51133.68
522.03	51515.19
522.20	51662.64
522.38	51812.44
522.55	51770.31
522.72	51606.47
522.89	51407.53
523.07	51950.53
523.24	51653.28
523.41	51903.72
523.58	51672.01
523.75	52011.38
523.92	52041.81
524.10	52481.83
524.27	52355.44
524.44	52381.19
524.61	52467.79
524.78	52444.38
524.96	52357.78
525.13	52718.23
525.30	52743.97
525.47	52928.87
525.64	52755.68
525.81	53066.97
525.98	53048.24
526.16	52582.48
526.33	52877.38
526.50	53223.78
526.67	53102.07
526.84	53441.45
527.01	53167.61
527.18	53216.76
527.36	52835.25
527.53	53380.60
527.70	53436.77
527.87	53652.10
528.04	53268.25
528.21	53542.10
528.38	53413.37
528.55	53867.43
528.72	53352.51
528.89	53670.82
529.07	53558.48
529.24	53652.10
529.41	54190.42
529.58	53881.47
529.75	53837.00
529.92	54007.86
530.09	54017.22
530.26	54206.81
530.43	54129.57
530.60	53961.05
530.77	54197.44
530.94	54468.95
531.11	54078.08
531.28	54426.82
531.46	54581.29
531.63	54562.57
531.80	54529.80
531.97	54574.27
532.14	54810.67
532.31	54876.20
532.48	54899.61
532.65	54852.80
532.82	54691.30
532.99	55143.02
533.16	54611.72
533.33	55150.04
533.50	55180.47
533.67	54990.89
533.84	55004.93
534.01	54995.57
534.18	54913.65
534.35	55367.71
534.52	55407.50
534.69	55341.97
534.86	55372.39
535.03	55444.95
535.20	55360.69
535.37	55655.60
535.54	55627.51
535.71	55344.31
535.88	55826.46
536.05	55606.45
536.22	55950.51
536.38	55915.40
536.55	55732.84
536.72	55798.37
536.89	55964.55
537.06	55819.44
537.23	56193.92
537.40	55791.35
537.57	56030.08
537.74	55786.67
537.91	56451.38
538.08	56128.39
538.25	55999.66
538.42	56044.13
538.59	56493.51
538.75	55983.27
538.92	56224.35
539.09	56486.49
539.26	56498.19
539.43	56140.09
539.60	56268.82
539.77	56420.95
539.94	56736.93
540.11	56631.60
540.28	56474.79
540.44	56404.57
540.61	56638.62
540.78	56708.84
540.95	56626.92
541.12	56591.81
541.29	56512.23
541.46	56673.73
541.62	56774.37
541.79	56931.19
541.96	56615.22
542.13	56884.38
542.30	56797.78
542.47	57078.64
542.63	57116.09
542.80	57017.79
542.97	56978.00
543.14	57333.76
543.31	57118.43
543.48	57347.81
543.64	57483.56
543.81	57565.48
543.98	57539.73
544.15	57668.46
544.32	57790.17
544.48	57879.11
544.65	57645.05
544.82	57670.80
544.99	57343.12
545.16	57443.77
545.32	57640.37
545.49	58007.84
545.66	57944.64
545.83	58089.76
546.00	57928.26
546.16	57836.98
546.33	57813.57
546.50	57696.55
546.67	57975.07
546.83	57544.41
547.00	57846.34
547.17	58089.76
547.34	57834.64
547.50	58176.36
547.67	58234.87
547.84	58174.02
548.00	58241.89
548.17	58286.36
548.34	58389.34
548.51	58403.39
548.67	58344.87
548.84	58408.07
549.01	58286.36
549.18	58347.21
549.34	58344.87
549.51	58576.59
549.68	58372.96
549.84	58520.41
550.01	58555.52
550.18	58466.58
550.34	58761.49
550.51	58728.72
550.68	58695.95
550.84	58562.54
551.01	58944.05
551.18	58738.08
551.34	58588.29
551.51	58869.15
551.68	59068.10
551.84	58702.98
552.01	58719.36
552.18	58901.92
552.34	58667.87
552.51	59042.35
552.68	58550.84
552.84	58719.36
553.01	59157.04
553.18	59021.29
553.34	59011.93
553.51	58939.37
553.67	59068.10
553.84	59185.13
554.01	59194.49
554.17	59262.36
554.34	59182.79
554.51	59348.96
554.67	59358.33
554.84	59304.49
555.00	59072.78
555.17	59114.91
555.33	59241.30
555.50	59178.10
555.67	59185.13
555.83	59079.80
556.00	59386.41
556.16	59643.87
556.33	59597.06
556.50	59533.87
556.66	59725.79
556.83	59231.94
556.99	59545.57
557.16	59749.20
557.32	59524.50
557.49	60009.00
557.65	59695.36
557.82	59732.81
557.98	59473.01
558.15	59597.06
558.32	59646.21
558.48	59671.96
558.65	59690.68
558.81	59463.65
558.98	59636.85
559.14	59906.01
559.31	59870.90
559.47	59868.56
559.64	59854.52
559.80	59739.83
559.97	60051.12
560.13	59721.11
560.30	59840.48
560.46	59891.97
560.63	59884.95
560.79	60018.36
560.96	60275.82
561.12	60076.87
561.29	59920.05
561.45	59973.89
561.61	59910.69
561.78	60069.85
561.94	60102.62
562.11	60128.36
562.27	59964.52
562.44	60430.29
562.60	60147.09
562.77	60327.31
562.93	59987.93
563.10	60275.82
563.26	60137.72
563.42	60320.29
563.59	60193.90
563.75	60226.66
563.92	60343.69
564.08	60179.85
564.24	60392.84
564.41	60214.96
564.57	60378.80
564.74	60378.80
564.90	60413.91
565.07	60175.17
565.23	60348.37
565.39	60292.20
565.56	60423.27
565.72	60458.38
565.88	60481.78
566.05	60451.36
566.21	60353.05
566.38	60247.73
566.54	60449.02
566.70	60502.85
566.87	60638.60
567.03	60460.72
567.19	60568.38
567.36	60519.23
567.52	60439.65
567.68	60734.56
567.85	60657.32
568.01	60584.77
568.17	60456.04
568.34	60439.65
568.50	60519.23
568.66	60355.39
568.83	60547.32
568.99	60573.06
569.15	60636.26
569.32	60507.53
569.48	60439.65
569.64	60715.84
569.81	60474.76
569.97	60905.42
570.13	60694.77
570.30	60626.90
570.46	60664.35
570.62	60776.69
570.78	60601.15
570.95	60687.75
571.11	60722.86
571.27	60631.58
571.43	60748.60
571.60	60610.51
571.76	60905.42
571.92	60912.44
572.09	60825.84
572.25	60776.69
572.41	60685.41
572.57	60788.39
572.74	60886.70
572.90	60753.29
573.06	61031.81
573.22	60774.35
573.38	60867.97
573.55	60874.99
573.71	60917.12
573.87	60720.52
574.03	60769.67
574.20	60837.54
574.36	60673.71
574.52	60912.44
574.68	61052.87
574.84	61090.32
575.01	61024.79
575.17	60931.17
575.33	60800.10
575.49	60884.36
575.65	60980.32
575.82	61125.43
575.98	61092.66
576.14	61242.46
576.30	61071.60
576.46	60711.16
576.62	60900.74
576.79	60832.86
576.95	60975.64
577.11	60992.02
577.27	61062.24
577.43	60989.68
577.59	60877.33
577.75	60912.44
577.92	61071.60
578.08	61043.51
578.24	60987.34
578.40	61048.19
578.56	61216.71
578.72	60797.76
578.88	61104.37
579.04	61261.18
579.21	60933.51
579.37	61162.88
579.53	61195.65
579.69	61087.98
579.85	61043.51
580.01	61169.90
580.17	60940.53
580.33	61167.56
580.49	61270.54
580.65	60884.36
580.82	61144.16
580.98	61153.52
581.14	60973.30
581.30	61029.47
581.46	61141.81
581.62	60982.66
581.78	61102.03
581.94	61066.92
582.10	60938.19
582.26	61078.62
582.42	61162.88
582.58	61123.09
582.74	61015.43
582.90	61073.94
583.06	61219.05
583.22	61230.75
583.38	61343.10
583.54	61296.29
583.70	61146.50
583.86	61317.35
584.02	60931.17
584.18	61188.63
584.34	61263.52
584.50	61188.63
584.66	61249.48
584.82	61219.05
584.98	61293.95
585.14	61167.56
585.30	61111.39
585.46	61006.06
585.62	61233.10
585.78	61268.20
585.94	61048.19
586.10	61413.32
586.26	61139.47
586.42	61118.41
586.58	61300.97
586.74	61155.86
586.90	61296.29
587.06	61118.41
587.22	61183.94
587.38	61134.79
587.54	61389.91
587.70	61567.79
587.86	61247.14
588.02	61235.44
588.18	61394.59
588.34	61109.05
588.49	61078.62
