SpectraSuite Data File
++++++++++++++++++++++++++++++++++++
Date: Fri Oct 25 11:22:51 EDT 2013
User: price-jones
Dark Spectrum Present: No
Reference Spectrum Present: No
Number of Sampled Component Spectra: 1
Spectrometers: USB2+H05261
Integration Time (usec): 100000 (USB2+H05261)
Spectra Averaged: 1 (USB2+H05261)
Boxcar Smoothing: 0 (USB2+H05261)
Correct for Electrical Dark: No (USB2+H05261)
Strobe/Lamp Enabled: No (USB2+H05261)
Correct for Detector Non-linearity: No (USB2+H05261)
Correct for Stray Light: No (USB2+H05261)
Number of Pixels in Processed Spectrum: 2048
>>>>>Begin Processed Spectral Data<<<<<
365.73	187.24
365.92	187.24
366.12	187.24
366.32	149.79
366.52	65.54
366.72	175.54
366.91	140.43
367.11	159.16
367.31	51.49
367.51	156.82
367.70	124.05
367.90	110.01
368.10	81.92
368.30	117.03
368.49	124.05
368.69	91.28
368.89	140.43
369.09	126.39
369.28	149.79
369.48	163.84
369.68	121.71
369.87	163.84
370.07	159.16
370.27	133.41
370.47	301.93
370.66	587.47
370.86	589.82
371.06	653.01
371.25	690.46
371.45	678.76
371.65	608.54
371.84	648.33
372.04	610.88
372.24	683.44
372.44	725.57
372.63	648.33
372.83	702.16
373.03	664.71
373.22	727.91
373.42	758.33
373.62	814.51
373.81	795.78
374.01	723.23
374.21	847.27
374.40	812.17
374.60	819.19
374.79	821.53
374.99	868.34
375.19	828.55
375.38	931.53
375.58	854.30
375.78	863.66
375.97	828.55
376.17	847.27
376.37	816.85
376.56	823.87
376.76	786.42
376.95	791.10
377.15	894.08
377.35	950.26
377.54	924.51
377.74	847.27
377.93	898.77
378.13	922.17
378.33	966.64
378.52	929.19
378.72	910.47
378.91	894.08
379.11	896.43
379.31	887.06
379.50	940.90
379.70	1025.15
379.89	999.41
380.09	891.74
380.28	1069.62
380.48	880.04
380.68	1081.33
380.87	1048.56
381.07	1027.50
381.26	1025.15
381.46	1011.11
381.65	987.71
381.85	950.26
382.04	1018.13
382.24	1088.35
382.43	1102.39
382.63	1078.99
382.83	1076.65
383.02	1170.27
383.22	1151.54
383.41	1057.92
383.61	1055.58
383.80	1132.82
384.00	1104.73
384.19	1046.22
384.39	1071.97
384.58	1198.35
384.78	1256.87
384.97	1160.91
385.17	1198.35
385.36	1137.50
385.56	1184.31
385.75	1221.76
385.95	1153.88
386.14	1165.59
386.34	1137.50
386.53	1238.14
386.72	1100.05
386.92	1287.29
387.11	1266.23
387.31	1256.87
387.50	1308.36
387.70	1280.27
387.89	1273.25
388.09	1186.65
388.28	1275.59
388.48	1306.02
388.67	1327.08
388.86	1268.57
389.06	1338.79
389.25	1287.29
389.45	1310.70
389.64	1341.13
389.84	1411.34
390.03	1383.26
390.22	1481.56
390.42	1317.72
390.61	1425.39
390.81	1465.18
391.00	1341.13
391.19	1310.70
391.39	1462.83
391.58	1383.26
391.78	1500.28
391.97	1411.34
392.16	1462.83
392.36	1547.09
392.55	1479.22
392.75	1516.67
392.94	1540.07
393.13	1563.48
393.33	1516.67
393.52	1610.29
393.71	1577.52
393.91	1502.62
394.10	1549.43
394.29	1561.14
394.49	1607.95
394.68	1579.86
394.88	1605.61
395.07	1610.29
395.26	1715.61
395.46	1631.35
395.65	1746.04
395.84	1638.38
396.04	1722.63
396.23	1706.25
396.42	1760.08
396.62	1739.02
396.81	1703.91
397.00	1792.85
397.19	1865.41
397.39	1872.43
397.58	1865.41
397.77	1921.58
397.97	1825.62
398.16	1865.41
398.35	1774.13
398.55	1849.02
398.74	1898.17
398.93	2015.20
399.12	1863.07
399.32	2022.22
399.51	1907.54
399.70	2029.24
399.90	2050.31
400.09	1984.77
400.28	2029.24
400.47	1933.28
400.67	2010.52
400.86	2073.71
401.05	2125.21
401.24	2008.18
401.44	2087.76
401.63	2148.61
401.82	2160.31
402.01	2083.08
402.21	2225.85
402.40	2111.16
402.59	2090.10
402.78	2141.59
402.97	2218.83
403.17	2202.44
403.36	2326.49
403.55	2228.19
403.74	2328.83
403.93	2380.32
404.13	2380.32
404.32	2422.45
404.51	2317.13
404.70	2424.80
404.89	2366.28
405.09	2534.80
405.28	2464.58
405.47	2392.03
405.66	2511.39
405.85	2511.39
406.05	2525.44
406.24	2541.82
406.43	2609.70
406.62	2593.31
406.81	2581.61
407.00	2588.63
407.20	2633.10
407.39	2684.59
407.58	2766.51
407.77	2775.88
407.96	2836.73
408.15	2810.98
408.34	2839.07
408.54	2771.19
408.73	2740.77
408.92	2892.90
409.11	2846.09
409.30	2986.52
409.49	2904.60
409.68	2904.60
409.87	2846.09
410.07	2981.84
410.26	2949.08
410.45	3023.97
410.64	3126.96
410.83	3173.77
411.02	2956.10
411.21	3133.98
411.40	3166.74
411.59	3311.86
411.78	3199.51
411.98	3342.28
412.17	3246.32
412.36	3339.94
412.55	3346.97
412.74	3377.39
412.93	3562.30
413.12	3405.48
413.31	3529.53
413.50	3442.93
413.69	3426.54
413.88	3674.64
414.07	3588.04
414.26	3588.04
414.45	3714.43
414.64	3737.84
414.83	3829.12
415.02	3779.97
415.22	3906.35
415.41	3812.73
415.60	3906.35
415.79	3868.91
415.98	3992.95
416.17	3967.21
416.36	4051.47
416.55	3906.35
416.74	4102.96
416.93	4152.11
417.12	4248.07
417.31	4161.47
417.50	4217.65
417.69	4409.57
417.88	4320.63
418.07	4329.99
418.26	4255.09
418.45	4423.61
418.64	4477.44
418.83	4414.25
419.02	4463.40
419.21	4493.83
419.39	4540.64
419.58	4542.98
419.77	4423.61
419.96	4566.39
420.15	4631.92
420.34	4568.73
420.53	4723.20
420.72	4674.05
420.91	4746.61
421.10	4826.18
421.29	4887.04
421.48	4690.43
421.67	4884.70
421.86	4880.02
422.05	4777.03
422.24	4812.14
422.43	4830.87
422.61	5025.13
422.80	4973.64
422.99	4999.38
423.18	4929.17
423.37	5083.64
423.56	5032.15
423.75	5046.20
423.94	4863.63
424.13	4610.86
424.32	4585.11
424.50	4947.89
424.69	5188.97
424.88	5060.24
425.07	4781.71
425.26	4990.02
425.45	5064.92
425.64	5036.83
425.83	5055.56
426.01	5081.30
426.20	4978.32
426.39	5081.30
426.58	5060.24
426.77	5069.60
426.96	5111.73
427.15	5160.88
427.33	5240.46
427.52	5132.79
427.71	5305.99
427.90	5214.71
428.09	5369.19
428.28	5427.70
428.46	5259.18
428.65	5261.52
428.84	5621.97
429.03	5427.70
429.22	5401.96
429.40	5493.24
429.59	5486.22
429.78	5387.91
429.97	5394.93
430.16	5554.09
430.34	5621.97
430.53	5640.69
430.72	5650.05
430.91	5762.40
431.10	5734.31
431.28	5856.02
431.47	5736.65
431.66	5827.93
431.85	5982.41
432.03	5851.34
432.22	5984.75
432.41	5916.87
432.60	6010.50
432.79	5858.36
432.97	6073.69
433.16	6094.76
433.35	6040.92
433.54	6005.81
433.72	6221.14
433.91	6078.37
434.10	6069.01
434.28	6190.72
434.47	6314.77
434.66	6181.35
434.85	6237.53
435.03	6291.36
435.22	6167.31
435.41	6370.94
435.59	6359.24
435.78	6544.14
435.97	6436.47
436.16	6494.99
436.34	6326.47
436.53	6656.48
436.72	6794.58
436.90	6438.81
437.09	6574.56
437.28	6574.56
437.46	6595.63
437.65	6403.71
437.84	6860.11
438.02	6836.70
438.21	6836.70
438.40	6579.25
438.58	6986.50
438.77	7037.99
438.96	7066.08
439.14	7150.34
439.33	7337.58
439.52	7403.11
439.70	7190.13
439.89	7283.75
440.08	7456.95
440.26	7421.84
440.45	7302.47
440.63	7494.40
440.82	7758.88
441.01	7508.44
441.19	7564.61
441.38	7695.68
441.57	7543.55
441.75	7714.41
441.94	7981.23
442.12	7932.08
442.31	8133.36
442.50	8098.25
442.68	8009.31
442.87	8011.65
443.05	8271.45
443.24	8168.47
443.43	8170.81
443.61	8135.70
443.80	8566.36
443.98	8175.49
444.17	8018.68
444.35	8369.76
444.54	8418.91
444.73	8449.33
444.91	8411.89
445.10	8379.12
445.28	8383.80
445.47	8203.58
445.65	8381.46
445.84	8372.10
446.02	8662.32
446.21	8489.12
446.39	8341.67
446.58	8655.30
446.77	8482.10
446.95	8341.67
447.14	8542.96
447.32	8702.11
447.51	8659.98
447.69	8531.25
447.88	8456.36
448.06	8620.19
448.25	8472.74
448.43	8720.84
448.62	8627.21
448.80	8699.77
448.99	8615.51
449.17	8912.76
449.36	8901.06
449.54	8887.01
449.73	8898.72
449.91	9144.47
450.10	8917.44
450.28	9067.24
450.46	9069.58
450.65	9198.31
450.83	9116.39
451.02	9139.79
451.20	9277.88
451.39	9128.09
451.57	9202.99
451.76	9144.47
451.94	9252.14
452.13	9334.06
452.31	9392.57
452.49	9378.53
452.68	9516.62
452.86	9390.23
453.05	9724.93
453.23	9404.27
453.42	9497.89
453.60	9404.27
453.78	9633.64
453.97	9680.46
454.15	9425.34
454.34	9659.39
454.52	9851.31
454.70	9914.51
454.89	9593.86
455.07	9762.37
455.26	9804.50
455.44	10115.80
455.62	9858.34
455.81	9884.08
455.99	10111.11
456.17	10155.58
456.36	10068.98
456.54	10176.65
456.73	10094.73
456.91	10480.92
457.09	10616.67
457.28	10857.75
457.46	10471.56
457.64	10630.71
457.83	10504.32
458.01	10623.69
458.19	10817.96
458.38	10705.61
458.56	10782.85
458.74	10581.56
458.93	10939.66
459.11	10775.83
459.29	10874.13
459.48	10843.70
459.66	10782.85
459.84	10902.22
460.03	11056.69
460.21	10979.45
460.39	11197.12
460.57	11145.63
460.76	11012.22
460.94	11447.56
461.12	11147.97
461.31	11159.67
461.49	11396.07
461.67	11096.48
461.85	11499.05
462.04	11337.56
462.22	11871.20
462.40	11625.44
462.59	11576.29
462.77	11435.86
462.95	11779.92
463.13	11868.86
463.32	11805.66
463.50	11819.71
463.68	11808.00
463.86	12088.87
464.05	11995.25
464.23	11618.42
464.41	12222.28
464.59	12145.04
464.78	12287.81
464.96	12123.98
465.14	11969.50
465.32	12224.62
465.50	12294.83
465.69	12191.85
465.87	12292.49
466.05	12255.04
466.23	12353.35
466.41	12297.17
466.60	12475.06
466.78	12224.62
466.96	12407.18
467.14	12486.76
467.32	12280.79
467.51	12725.49
467.69	12299.52
467.87	12554.63
468.05	12627.19
468.23	12674.00
468.41	12472.71
468.60	12676.34
468.78	12849.54
468.96	12690.38
469.14	12966.57
469.32	12884.65
469.50	12919.76
469.69	13015.72
469.87	12959.55
470.05	13214.66
470.23	13277.86
470.41	13195.94
470.59	13551.70
470.77	13263.82
470.95	13397.23
471.14	13579.79
471.32	13193.60
471.50	13724.90
471.68	13638.30
471.86	13790.44
472.04	13965.98
472.22	14394.29
472.40	13813.84
472.58	14003.43
472.77	14136.84
472.95	14265.57
473.13	14602.60
473.31	14279.61
473.49	14148.54
473.67	14338.12
473.85	14420.04
474.03	14738.35
474.21	14768.78
474.39	14895.17
474.57	14949.00
474.75	14853.04
474.93	15115.18
475.12	15021.56
475.30	15274.34
475.48	14979.43
475.66	15499.03
475.84	15311.78
476.02	15180.71
476.20	15573.92
476.38	15810.32
476.56	15953.09
476.74	16102.89
476.92	15985.86
477.10	15800.96
477.28	16109.91
477.46	16245.66
477.64	16545.25
477.82	16601.42
478.00	17165.49
478.18	16781.64
478.36	17202.94
478.54	17259.11
478.72	17408.90
478.90	17617.21
479.08	17900.42
479.26	17872.33
479.44	17493.16
479.62	17942.55
479.80	18242.14
479.98	18520.66
480.16	18829.61
480.34	18541.72
480.52	18740.67
480.70	18785.14
480.88	18537.04
481.06	18946.64
481.24	18836.63
481.41	19183.03
481.59	19620.71
481.77	19536.45
481.95	19927.32
482.13	19962.43
482.31	19822.00
482.49	20273.72
482.67	20194.14
482.85	20732.47
483.03	20952.48
483.21	20917.37
483.39	21099.93
483.57	20889.28
483.74	21310.58
483.92	21488.46
484.10	21776.34
484.28	21837.20
484.46	22075.93
484.64	22663.41
484.82	22106.36
485.00	22492.55
485.18	23063.64
485.35	23075.34
485.53	23005.13
485.71	23297.69
485.89	23620.69
486.07	23838.36
486.25	23433.44
486.43	23901.55
486.61	24095.82
486.78	24140.29
486.96	24201.14
487.14	24926.71
487.32	25006.28
487.50	25032.03
487.68	25226.29
487.85	25589.08
488.03	25785.68
488.21	26111.02
488.39	26195.28
488.57	26422.31
488.75	26272.51
488.92	26710.19
489.10	27175.96
489.28	26941.91
489.46	27087.02
489.64	27438.10
489.81	27789.18
489.99	28011.53
490.17	27735.35
490.35	28311.12
490.53	28414.10
490.70	28996.90
490.88	28535.81
491.06	28907.96
491.24	29460.32
491.41	29158.39
491.59	29521.18
491.77	29509.47
491.95	29827.79
492.13	29956.52
492.30	30160.14
492.48	30066.52
492.66	30618.89
492.84	30773.36
493.01	30883.37
493.19	30707.83
493.37	31192.32
493.54	31531.70
493.72	31714.26
493.90	31740.00
494.08	32006.83
494.25	32077.04
494.43	32004.49
494.61	32465.57
494.79	32884.53
494.96	32992.19
495.14	33263.69
495.32	33673.29
495.49	33542.22
495.67	33673.29
495.85	33661.58
496.02	33961.17
496.20	34026.71
496.38	34096.92
496.55	34445.66
496.73	35187.61
496.91	34789.72
497.09	35054.20
497.26	34955.90
497.44	35482.52
497.62	35070.59
497.79	36400.01
497.97	36023.19
498.14	36002.12
498.32	36425.76
498.50	36201.07
498.67	36706.62
498.85	36879.82
499.03	37296.44
499.20	36837.69
499.38	37420.48
499.56	37340.91
499.73	37837.10
499.91	37818.38
500.08	38124.99
500.26	37722.41
500.44	38157.75
500.61	38211.59
500.79	37816.04
500.97	38199.88
501.14	39086.95
501.32	39033.11
501.49	39035.45
501.67	38813.10
501.84	39480.16
502.02	39545.69
502.20	39564.42
502.37	39658.04
502.55	39014.39
502.72	39849.96
502.90	40004.44
503.07	39409.94
503.25	40264.24
503.43	39849.96
503.60	40687.87
503.78	40699.58
503.95	40701.92
504.13	40959.38
504.30	40804.90
504.48	40659.79
504.65	40889.16
504.83	41375.99
505.01	41720.05
505.18	41364.29
505.36	41853.46
505.53	41764.52
505.71	41855.80
505.88	41888.57
506.06	41469.61
506.23	41935.38
506.41	42174.11
506.58	42342.63
506.76	42548.60
506.93	42864.57
507.11	42946.49
507.28	42684.35
507.46	42902.02
507.63	42997.98
507.81	43395.87
507.98	43152.46
508.16	43449.70
508.33	43882.70
508.50	43828.87
508.68	44423.37
508.85	44051.22
509.03	44285.28
509.20	44477.20
509.38	44928.92
509.55	44275.91
509.73	44605.93
509.90	45076.38
510.08	45221.49
510.25	45148.93
510.42	45127.87
510.60	45158.30
510.77	45497.67
510.95	45818.33
511.12	45691.94
511.30	45551.51
511.47	46075.79
511.64	45759.81
511.82	46431.55
511.99	46080.47
512.17	46609.43
512.34	45998.55
512.51	46712.41
512.69	46564.96
512.86	46473.68
513.04	47117.32
513.21	46983.91
513.38	47203.92
513.56	47194.56
513.73	46752.20
513.90	47522.24
514.08	47049.45
514.25	47463.72
514.43	47903.74
514.60	47690.76
514.77	47760.97
514.95	48299.30
515.12	48088.65
515.29	48098.01
515.47	48348.45
515.64	48294.61
515.81	48549.73
515.99	48308.66
516.16	48645.69
516.33	48636.33
516.51	49195.72
516.68	48846.98
516.85	48870.39
517.03	49069.33
517.20	49216.78
517.37	49031.88
517.54	49392.33
517.72	49399.35
517.89	49244.87
518.06	49338.49
518.24	49624.04
518.41	49441.48
518.58	49734.04
518.75	49851.07
518.93	49811.28
519.10	49911.92
519.27	49970.44
519.45	50007.89
519.62	50380.03
519.79	50508.76
519.96	50120.23
520.14	50518.12
520.31	50417.48
520.48	50883.25
520.65	50586.00
520.83	50993.25
521.00	51105.60
521.17	50876.22
521.34	50981.55
521.52	51126.66
521.69	51262.41
521.86	51365.40
522.03	51332.63
522.20	51770.31
522.38	51789.03
522.55	51632.22
522.72	51599.45
522.89	51672.01
523.07	52055.85
523.24	51817.12
523.41	52020.75
523.58	51620.52
523.75	52140.11
523.92	52027.77
524.10	52404.59
524.27	52306.29
524.44	52713.55
524.61	52418.64
524.78	52158.84
524.96	52453.75
525.13	52729.93
525.30	52907.81
525.47	52903.13
525.64	52701.84
525.81	52708.86
525.98	52832.91
526.16	52779.08
526.33	52917.17
526.50	53223.78
526.67	53041.22
526.84	53155.91
527.01	53336.13
527.18	53167.61
527.36	53191.01
527.53	53347.83
527.70	53675.51
527.87	53570.18
528.04	53443.79
528.21	53783.17
528.38	53729.34
528.55	53916.58
528.72	53588.91
528.89	53968.07
529.07	53401.66
529.24	53951.69
529.41	54087.44
529.58	53663.80
529.75	54005.52
529.92	53839.34
530.09	54127.23
530.26	54206.81
530.43	54244.26
530.60	54047.65
530.77	54157.66
530.94	54384.69
531.11	54286.39
531.28	54213.83
531.46	54670.23
531.63	54485.33
531.80	54457.24
531.97	54780.24
532.14	55018.97
532.31	55030.68
532.48	54836.41
532.65	54948.76
532.82	54827.05
532.99	55007.27
533.16	54897.27
533.33	55367.71
533.50	55302.18
533.67	55131.32
533.84	55070.46
534.01	55110.25
534.18	55051.74
534.35	55505.80
534.52	55082.17
534.69	55269.41
534.86	55466.02
535.03	55285.79
535.20	55316.22
535.37	55566.66
535.54	55770.28
535.71	55613.47
535.88	55620.49
536.05	55786.67
536.22	55707.09
536.38	55798.37
536.55	55880.29
536.72	55781.99
536.89	55707.09
537.06	56009.02
537.23	55835.82
537.40	55955.19
537.57	56104.98
537.74	55987.95
537.91	56212.65
538.08	56196.26
538.25	55899.01
538.42	56156.47
538.59	56463.08
538.75	56158.81
538.92	56231.37
539.09	56374.14
539.26	56472.45
539.43	56474.79
539.60	56306.27
539.77	56631.60
539.94	56722.88
540.11	56584.79
540.28	56673.73
540.44	56872.68
540.61	56535.64
540.78	56495.85
540.95	56624.58
541.12	56715.86
541.29	56676.07
541.46	56783.74
541.62	57071.62
541.79	56608.20
541.96	56678.41
542.13	56580.11
542.30	56765.01
542.47	56992.04
542.63	56914.81
542.80	57207.37
542.97	57162.90
543.14	57375.89
543.31	57574.84
543.48	57326.74
543.64	57715.27
543.81	57675.48
543.98	57399.30
544.15	57558.45
544.32	57528.03
544.48	57930.60
544.65	57598.24
544.82	57434.41
544.99	57684.84
545.16	57497.60
545.32	57588.88
545.49	57993.79
545.66	57935.28
545.83	57797.19
546.00	58103.80
546.16	57872.09
546.33	57792.51
546.50	57731.65
546.67	57977.41
546.83	57677.82
547.00	57954.00
547.17	58094.44
547.34	57867.40
547.50	58291.04
547.67	58333.17
547.84	58253.59
548.00	58319.13
548.17	58422.11
548.34	58429.13
548.51	58298.06
548.67	58419.77
548.84	58199.76
549.01	58511.05
549.18	58344.87
549.34	58309.77
549.51	58576.59
549.68	58653.82
549.84	58527.44
550.01	58616.38
550.18	58534.46
550.34	58763.83
550.51	59056.40
550.68	58681.91
550.84	58506.37
551.01	58827.02
551.18	58632.76
551.34	58812.98
551.51	58714.68
551.68	58660.85
551.84	58702.98
552.01	58665.53
552.18	58939.37
552.34	58815.32
552.51	59030.65
552.68	58857.45
552.84	58922.99
553.01	59255.34
553.18	58880.86
553.34	59007.25
553.51	58679.57
553.67	59150.02
553.84	59105.55
554.01	59206.19
554.17	59292.79
554.34	59267.05
554.51	59105.55
554.67	59236.62
554.84	58983.84
555.00	59297.47
555.17	59306.83
555.33	59217.89
555.50	59051.72
555.67	59007.25
555.83	59393.43
556.00	59182.79
556.16	59430.88
556.33	59554.93
556.50	59276.41
556.66	59416.84
556.83	59440.24
556.99	59812.39
557.16	59774.94
557.32	59861.54
557.49	59831.11
557.65	59505.78
557.82	59859.20
557.98	59606.42
558.15	59585.36
558.32	59669.62
558.48	59491.74
558.65	59707.07
558.81	59732.81
558.98	59716.43
559.14	59913.03
559.31	59894.31
559.47	59817.07
559.64	59938.78
559.80	59976.23
559.97	59957.50
560.13	59751.54
560.30	59824.09
560.46	59877.93
560.63	60097.94
560.79	59934.10
560.96	60016.02
561.12	59913.03
561.29	59927.08
561.45	59973.89
561.61	60163.47
561.78	59922.40
561.94	59987.93
562.11	60044.10
562.27	60135.38
562.44	60151.77
562.60	60420.93
562.77	60378.80
562.93	59985.59
563.10	60240.71
563.26	60030.06
563.42	60315.61
563.59	60203.26
563.75	60111.98
563.92	60116.66
564.08	60275.82
564.24	60315.61
564.41	60252.41
564.57	60427.95
564.74	60371.78
564.90	60303.90
565.07	60317.95
565.23	60367.10
565.39	60133.04
565.56	60444.33
565.72	60341.35
565.88	60636.26
566.05	60388.16
566.21	60179.85
566.38	60395.18
566.54	60636.26
566.70	60357.74
566.87	60580.09
567.03	60289.86
567.19	60757.97
567.36	60355.39
567.52	60526.25
567.68	60631.58
567.85	60512.21
568.01	60493.49
568.17	60378.80
568.34	60540.30
568.50	60556.68
568.66	60390.50
568.83	60772.01
568.99	60486.46
569.15	60491.15
569.32	60425.61
569.48	60640.94
569.64	60711.16
569.81	60577.75
569.97	60657.32
570.13	60533.28
570.30	60659.66
570.46	60608.17
570.62	60654.98
570.78	60680.73
570.95	60512.21
571.11	60846.91
571.27	60687.75
571.43	60729.88
571.60	60837.54
571.76	60685.41
571.92	60860.95
572.09	60617.53
572.25	60636.26
572.41	60762.65
572.57	60865.63
572.74	61038.83
572.90	60676.05
573.06	60924.14
573.22	60940.53
573.38	60954.57
573.55	60779.03
573.71	61015.43
573.87	60973.30
574.03	60802.44
574.20	60762.65
574.36	60825.84
574.52	60921.80
574.68	60963.93
574.84	60970.96
575.01	60860.95
575.17	60870.31
575.33	61073.94
575.49	61036.49
575.65	61095.00
575.82	60886.70
575.98	60931.17
576.14	61207.35
576.30	61003.72
576.46	60987.34
576.62	60992.02
576.79	61029.47
576.95	61024.79
577.11	61064.58
577.27	61078.62
577.43	60966.27
577.59	60858.61
577.75	60921.80
577.92	60790.73
578.08	60891.38
578.24	60910.10
578.40	61120.75
578.56	61254.16
578.72	61017.77
578.88	61212.03
579.04	61219.05
579.21	61109.05
579.37	61207.35
579.53	61151.18
579.69	61076.28
579.85	61062.24
580.01	61146.50
580.17	61041.17
580.33	61024.79
580.49	61148.84
580.65	61083.30
580.82	60914.78
580.98	61083.30
581.14	61099.68
581.30	61125.43
581.46	60959.25
581.62	61162.88
581.78	61137.13
581.94	61303.31
582.10	61062.24
582.26	61144.16
582.42	60889.04
582.58	61410.98
582.74	61006.06
582.90	60940.53
583.06	60970.96
583.22	61062.24
583.38	61324.38
583.54	61134.79
583.70	61270.54
583.86	61439.06
584.02	61092.66
584.18	61230.75
584.34	61284.59
584.50	61167.56
584.66	61059.90
584.82	61008.40
584.98	61336.08
585.14	61148.84
585.30	60921.80
585.46	61205.01
585.62	61078.62
585.78	61247.14
585.94	61139.47
586.10	61174.58
586.26	61291.61
586.42	61193.31
586.58	61385.23
586.74	61141.81
586.90	61228.41
587.06	61066.92
587.22	61530.34
587.38	61300.97
587.54	61488.21
587.70	61609.92
587.86	61226.07
588.02	61361.82
588.18	61322.04
588.34	61375.87
588.49	61050.53
