SpectraSuite Data File
++++++++++++++++++++++++++++++++++++
Date: Fri Oct 25 11:24:06 EDT 2013
User: price-jones
Dark Spectrum Present: No
Reference Spectrum Present: No
Number of Sampled Component Spectra: 1
Spectrometers: USB2+H05261
Integration Time (usec): 100000 (USB2+H05261)
Spectra Averaged: 1 (USB2+H05261)
Boxcar Smoothing: 0 (USB2+H05261)
Correct for Electrical Dark: No (USB2+H05261)
Strobe/Lamp Enabled: No (USB2+H05261)
Correct for Detector Non-linearity: No (USB2+H05261)
Correct for Stray Light: No (USB2+H05261)
Number of Pixels in Processed Spectrum: 2048
>>>>>Begin Processed Spectral Data<<<<<
365.73	280.86
365.92	280.86
366.12	280.86
366.32	124.05
366.52	107.66
366.72	114.69
366.91	128.73
367.11	166.18
367.31	112.35
367.51	114.69
367.70	173.20
367.90	95.96
368.10	161.50
368.30	170.86
368.49	86.60
368.69	128.73
368.89	177.88
369.09	201.29
369.28	117.03
369.48	189.58
369.68	205.97
369.87	264.48
370.07	149.79
370.27	168.52
370.47	320.65
370.66	540.66
370.86	671.73
371.06	699.82
371.25	695.14
371.45	657.69
371.65	683.44
371.84	648.33
372.04	709.18
372.24	582.79
372.44	671.73
372.63	671.73
372.83	779.40
373.03	767.70
373.22	704.50
373.42	732.59
373.62	819.19
373.81	737.27
374.01	784.08
374.21	889.40
374.40	727.91
374.60	854.30
374.79	744.29
374.99	833.23
375.19	779.40
375.38	788.76
375.58	868.34
375.78	844.93
375.97	854.30
376.17	915.15
376.37	929.19
376.56	889.40
376.76	840.25
376.95	791.10
377.15	931.53
377.35	959.62
377.54	933.87
377.74	882.38
377.93	917.49
378.13	842.59
378.33	954.94
378.52	929.19
378.72	926.85
378.91	854.30
379.11	999.41
379.31	863.66
379.50	912.81
379.70	950.26
379.89	1032.18
380.09	968.98
380.28	1015.79
380.48	891.74
380.68	1018.13
380.87	959.62
381.07	1036.86
381.26	1020.47
381.46	931.53
381.65	1048.56
381.85	1055.58
382.04	1004.09
382.24	1027.50
382.43	1057.92
382.63	1022.81
382.83	1076.65
383.02	1132.82
383.22	1097.71
383.41	1006.43
383.61	1046.22
383.80	1071.97
384.00	1086.01
384.19	1090.69
384.39	1203.04
384.58	1170.27
384.78	1116.44
384.97	1179.63
385.17	1125.80
385.36	1146.86
385.56	1273.25
385.75	1217.08
385.95	1296.66
386.14	1210.06
386.34	1252.19
386.53	1174.95
386.72	1214.74
386.92	1219.42
387.11	1179.63
387.31	1263.89
387.50	1240.48
387.70	1254.53
387.89	1303.68
388.09	1245.16
388.28	1252.19
388.48	1369.21
388.67	1299.00
388.86	1320.06
389.06	1345.81
389.25	1282.61
389.45	1416.02
389.64	1277.93
389.84	1313.04
390.03	1364.53
390.22	1345.81
390.42	1406.66
390.61	1392.62
390.81	1383.26
391.00	1369.21
391.19	1364.53
391.39	1394.96
391.58	1394.96
391.78	1446.45
391.97	1547.09
392.16	1455.81
392.36	1420.71
392.55	1497.94
392.75	1416.02
392.94	1519.01
393.13	1589.22
393.33	1561.14
393.52	1645.40
393.71	1547.09
393.91	1605.61
394.10	1614.97
394.29	1556.46
394.49	1638.38
394.68	1682.85
394.88	1563.48
395.07	1647.74
395.26	1703.91
395.46	1699.23
395.65	1715.61
395.84	1647.74
396.04	1696.89
396.23	1785.83
396.42	1795.19
396.62	1781.15
396.81	1797.53
397.00	1795.19
397.19	1806.89
397.39	1764.76
397.58	1886.47
397.77	1736.68
397.97	1900.52
398.16	1806.89
398.35	1923.92
398.55	1839.66
398.74	1820.94
398.93	1879.45
399.12	1959.03
399.32	1825.62
399.51	1949.67
399.70	1956.69
399.90	1963.71
400.09	2029.24
400.28	2003.50
400.47	2036.27
400.67	2073.71
400.86	2113.50
401.05	2099.46
401.24	2094.78
401.44	2258.62
401.63	2172.02
401.82	2165.00
402.01	2108.82
402.21	2197.76
402.40	2073.71
402.59	2207.13
402.78	2319.47
402.97	2153.29
403.17	2277.34
403.36	2272.66
403.55	2317.13
403.74	2335.85
403.93	2328.83
404.13	2413.09
404.32	2438.84
404.51	2279.68
404.70	2354.58
404.89	2298.41
405.09	2445.86
405.28	2417.77
405.47	2399.05
405.66	2593.31
405.85	2548.84
406.05	2553.52
406.24	2576.93
406.43	2626.08
406.62	2546.50
406.81	2750.13
407.00	2567.57
407.20	2672.89
407.39	2717.36
407.58	2602.68
407.77	2583.95
407.96	2825.03
408.15	2712.68
408.34	2764.17
408.54	2757.15
408.73	2937.37
408.92	2843.75
409.11	2932.69
409.30	2813.32
409.49	2839.07
409.68	2972.48
409.87	2930.35
410.07	2855.45
410.26	2984.18
410.45	3002.91
410.64	3077.80
410.83	3110.57
411.02	3009.93
411.21	3183.13
411.40	3162.06
411.59	3173.77
411.78	3201.85
411.98	3279.09
412.17	3225.26
412.36	3342.28
412.55	3435.91
412.74	3463.99
412.93	3323.56
413.12	3262.71
413.31	3538.89
413.50	3370.37
413.69	3531.87
413.88	3534.21
414.07	3590.38
414.26	3623.15
414.45	3665.28
414.64	3602.08
414.83	3684.00
415.02	3667.62
415.22	3772.94
415.41	3925.08
415.60	3847.84
415.79	3878.27
415.98	3927.42
416.17	4051.47
416.36	4032.74
416.55	4065.51
416.74	4067.85
416.93	4056.15
417.12	4138.07
417.31	4098.28
417.50	4259.78
417.69	4170.83
417.88	4292.54
418.07	4266.80
418.26	4234.03
418.45	4278.50
418.64	4498.51
418.83	4306.59
419.02	4329.99
419.21	4681.07
419.39	4496.17
419.58	4601.49
419.77	4327.65
419.96	4339.35
420.15	4437.66
420.34	4585.11
420.53	4580.43
420.72	4770.01
420.91	4746.61
421.10	4718.52
421.29	4873.00
421.48	4674.05
421.67	4727.88
421.86	4692.77
422.05	4781.71
422.24	4744.27
422.43	4842.57
422.61	4816.82
422.80	4816.82
422.99	4901.08
423.18	5132.79
423.37	5048.54
423.56	4947.89
423.75	4910.44
423.94	4877.68
424.13	4507.87
424.32	4730.22
424.50	4847.25
424.69	5107.05
424.88	5198.33
425.07	4978.32
425.26	5121.09
425.45	4994.70
425.64	4999.38
425.83	5057.90
426.01	5132.79
426.20	5146.84
426.39	5088.32
426.58	5057.90
426.77	5088.32
426.96	5226.42
427.15	5095.35
427.33	5226.42
427.52	5097.69
427.71	5179.61
427.90	5172.58
428.09	5203.01
428.28	5329.40
428.46	5350.46
428.65	5411.32
428.84	5542.39
429.03	5495.58
429.22	5343.44
429.40	5565.79
429.59	5638.35
429.78	5214.71
429.97	5413.66
430.16	5465.15
430.34	5675.80
430.53	5530.69
430.72	5617.29
430.91	5572.82
431.10	5640.69
431.28	5643.03
431.47	5654.73
431.66	5827.93
431.85	5771.76
432.03	5937.94
432.22	5966.03
432.41	5863.04
432.60	5970.71
432.79	5879.43
432.97	5954.32
433.16	6071.35
433.35	6092.41
433.54	6033.90
433.72	6183.70
433.91	6092.41
434.10	6260.93
434.28	6218.80
434.47	6169.65
434.66	6263.27
434.85	6420.09
435.03	6530.09
435.22	6434.13
435.41	6382.64
435.59	6417.75
435.78	6544.14
435.97	6450.52
436.16	6420.09
436.34	6492.65
436.53	6633.08
436.72	6551.16
436.90	6637.76
437.09	6682.23
437.28	6305.40
437.46	6656.48
437.65	6722.02
437.84	6665.85
438.02	6637.76
438.21	6637.76
438.40	6604.99
438.58	6977.14
438.77	6932.67
438.96	6892.88
439.14	7112.89
439.33	7220.55
439.52	7248.64
439.70	7398.43
439.89	7171.40
440.08	7433.54
440.26	7293.11
440.45	7410.14
440.63	7428.86
440.82	7508.44
441.01	7419.50
441.19	7424.18
441.38	7691.00
441.57	7723.77
441.75	7892.29
441.94	7978.89
442.12	8070.17
442.31	8051.44
442.50	7913.35
442.68	7894.63
442.87	8182.51
443.05	8063.15
443.24	8322.94
443.43	8231.66
443.61	8439.97
443.80	8451.67
443.98	8088.89
444.17	7824.41
444.35	8243.37
444.54	8538.27
444.73	8280.82
444.91	8390.82
445.10	8428.27
445.28	8463.38
445.47	8290.18
445.65	8184.85
445.84	8507.85
446.02	8561.68
446.21	8339.33
446.39	8294.86
446.58	8655.30
446.77	8643.60
446.95	8390.82
447.14	8409.54
447.32	8667.00
447.51	8688.07
447.69	8362.73
447.88	8645.94
448.06	8468.06
448.25	8624.87
448.43	8734.88
448.62	8601.47
448.80	8636.58
448.99	8844.88
449.17	8734.88
449.36	8517.21
449.54	8917.44
449.73	8889.35
449.91	8954.89
450.10	9057.87
450.28	8980.64
450.46	8945.53
450.65	9001.70
450.83	8929.14
451.02	8877.65
451.20	9310.65
451.39	9245.12
451.57	9043.83
451.76	9114.05
451.94	9324.69
452.13	9320.01
452.31	9212.35
452.49	9233.41
452.68	9488.53
452.86	9387.89
453.05	9596.20
453.23	9554.07
453.42	9387.89
453.60	9336.40
453.78	9687.48
453.97	9533.00
454.15	9525.98
454.34	9474.49
454.52	9710.88
454.70	9963.66
454.89	9811.53
455.07	9743.65
455.26	9774.08
455.44	9893.44
455.62	9987.07
455.81	9970.68
455.99	9963.66
456.17	10113.45
456.36	9928.55
456.54	9973.02
456.73	10415.38
456.91	10462.19
457.09	10546.45
457.28	10572.20
457.46	10279.63
457.64	10551.14
457.83	10572.20
458.01	10532.41
458.19	10888.17
458.38	10565.18
458.56	10843.70
458.74	10817.96
458.93	10663.48
459.11	10794.55
459.29	11002.86
459.48	10956.05
459.66	10792.21
459.84	11019.24
460.03	11152.65
460.21	10991.16
460.39	10855.40
460.57	11098.82
460.76	11044.99
460.94	11190.10
461.12	11325.85
461.31	11283.72
461.49	11307.13
461.67	11260.32
461.85	11485.01
462.04	11204.14
462.22	11384.37
462.40	11850.13
462.59	11597.35
462.77	11555.22
462.95	11676.93
463.13	11492.03
463.32	11655.87
463.50	11775.24
463.68	12084.19
463.86	11971.84
464.05	11653.53
464.23	11796.30
464.41	11754.17
464.59	11721.40
464.78	12329.94
464.96	12145.04
465.14	11836.09
465.32	12416.54
465.50	12166.10
465.69	12250.36
465.87	12262.07
466.05	12166.10
466.23	12374.41
466.41	12409.52
466.60	12217.60
466.78	12196.53
466.96	12217.60
467.14	12262.07
467.32	12571.02
467.51	12589.74
467.69	12287.81
467.87	12313.56
468.05	12723.15
468.23	12697.41
468.41	12493.78
468.60	12842.52
468.78	12793.37
468.96	12531.23
469.14	12886.99
469.32	13092.96
469.50	12547.61
469.69	12947.84
469.87	13064.87
470.05	12910.40
470.23	13186.58
470.41	13371.48
470.59	13385.52
470.77	13252.11
470.95	13518.93
471.14	13521.27
471.32	13259.13
471.50	13556.38
471.68	13799.80
471.86	13813.84
472.04	14080.66
472.22	14087.68
472.40	13642.98
472.58	14008.11
472.77	13919.17
472.95	14380.25
473.13	14637.71
473.31	14136.84
473.49	14373.23
473.67	13970.66
473.85	14139.18
474.03	14707.93
474.21	14513.66
474.39	14939.64
474.57	14834.32
474.75	15016.88
474.93	14988.79
475.12	14799.21
475.30	15307.10
475.48	15030.92
475.66	15531.80
475.84	15145.61
476.02	15632.44
476.20	15473.28
476.38	15653.50
476.56	15960.11
476.74	16016.29
476.92	15925.00
477.10	16049.05
477.28	16318.22
477.46	16425.88
477.64	16608.44
477.82	16676.32
478.00	17053.14
478.18	17001.65
478.36	16671.64
478.54	17039.10
478.72	17202.94
478.90	17373.80
479.08	17745.94
479.26	17610.19
479.44	17617.21
479.62	18153.20
479.80	18181.28
479.98	18132.13
480.16	18686.84
480.34	18274.90
480.52	18693.86
480.70	18593.22
480.88	18464.49
481.06	18831.95
481.24	18970.04
481.41	19136.22
481.59	19367.93
481.77	19711.99
481.95	19822.00
482.13	19967.11
482.31	19758.80
482.49	20273.72
482.67	20336.91
482.85	20292.44
483.03	20615.44
483.21	20744.17
483.39	21001.63
483.57	20961.84
483.74	21392.50
483.92	21146.74
484.10	21355.05
484.28	21860.60
484.46	22057.21
484.64	22319.35
484.82	22059.55
485.00	22471.48
485.18	22597.87
485.35	23194.71
485.53	22899.80
485.71	22897.46
485.89	23782.18
486.07	23541.11
486.25	23695.58
486.43	23857.08
486.61	23969.43
486.78	24360.30
486.96	24327.53
487.14	24786.27
487.32	24716.06
487.50	25127.99
487.68	25003.94
487.85	25715.47
488.03	25781.00
488.21	25879.30
488.39	26150.81
488.57	25961.22
488.75	26228.04
488.92	26464.44
489.10	26892.76
489.28	27014.46
489.46	27115.11
489.64	27204.05
489.81	27796.20
489.99	27669.81
490.17	27882.80
490.35	27931.95
490.53	28067.70
490.70	28411.76
490.88	28458.57
491.06	29170.10
491.24	28919.66
491.41	29205.20
491.59	29591.39
491.77	29050.73
491.95	29977.58
492.13	30003.33
492.30	30155.46
492.48	30230.36
492.66	30649.32
492.84	30569.74
493.01	30635.27
493.19	30782.73
493.37	31201.68
493.54	31260.20
493.72	31660.43
493.90	31454.46
494.08	31847.67
494.25	31854.69
494.43	31737.66
494.61	32397.70
494.79	32617.71
494.96	32694.94
495.14	33043.68
495.32	33315.19
495.49	33209.86
495.67	33125.60
495.85	33362.00
496.02	33846.49
496.20	33694.35
496.38	34204.59
496.55	34342.68
496.73	34780.36
496.91	34588.44
497.09	35058.88
497.26	34981.65
497.44	35072.93
497.62	35395.92
497.79	36093.40
497.97	35466.14
498.14	36016.16
498.32	36126.17
498.50	36112.13
498.67	36933.65
498.85	36566.19
499.03	36699.60
499.20	37104.51
499.38	36957.06
499.56	37209.84
499.73	37216.86
499.91	37598.37
500.08	37724.75
500.26	37350.27
500.44	37745.82
500.61	37921.36
500.79	37436.87
500.97	37827.74
501.14	38866.94
501.32	38314.57
501.49	38314.57
501.67	39337.38
501.84	39278.87
502.02	39105.67
502.20	39419.30
502.37	39091.63
502.55	39030.77
502.72	39901.45
502.90	39934.22
503.07	39587.82
503.25	40051.25
503.43	39899.11
503.60	40297.00
503.78	40701.92
503.95	40472.54
504.13	41273.01
504.30	40861.07
504.48	40502.97
504.65	41006.19
504.83	41024.91
505.01	41172.36
505.18	41769.20
505.36	41680.26
505.53	41235.56
505.71	41694.30
505.88	42162.41
506.06	41881.55
506.23	41935.38
506.41	41881.55
506.58	42270.08
506.76	42490.09
506.93	42677.33
507.11	42373.06
507.28	42490.09
507.46	43007.34
507.63	43208.63
507.81	42981.60
507.98	43007.34
508.16	43157.14
508.33	43735.25
508.50	43728.23
508.68	43835.89
508.85	44201.02
509.03	43658.01
509.20	44123.78
509.38	44095.69
509.55	44444.43
509.73	44865.73
509.90	44968.71
510.08	44933.60
510.25	44531.03
510.42	44823.60
510.60	45350.22
510.77	45584.27
510.95	45537.46
511.12	45076.38
511.30	45418.10
511.47	45684.92
511.64	45663.85
511.82	45979.82
511.99	45933.01
512.17	46059.40
512.34	46150.68
512.51	46066.42
512.69	46574.32
512.86	46513.47
513.04	46927.74
513.21	46628.15
513.38	46532.19
513.56	47283.50
513.73	46602.41
513.90	47292.86
514.08	47440.32
514.25	47501.17
514.43	47538.62
514.60	47320.95
514.77	47327.97
514.95	47889.70
515.12	47852.25
515.29	47683.73
515.47	47646.29
515.64	48549.73
515.81	48142.48
515.99	48392.92
516.16	48090.99
516.33	48680.80
516.51	48790.81
516.68	48413.98
516.85	48769.74
517.03	49177.00
517.20	48924.22
517.37	49109.12
517.54	49003.80
517.72	49172.31
517.89	49509.35
518.06	49233.17
518.24	49502.33
518.41	49551.48
518.58	49579.57
518.75	49581.91
518.93	49659.15
519.10	49361.90
519.27	49902.56
519.45	49703.62
519.62	50239.60
519.79	49846.39
519.96	50263.00
520.14	50174.06
520.31	50253.64
520.48	50658.56
520.65	50663.24
520.83	50824.73
521.00	50756.86
521.17	50684.30
521.34	50665.58
521.52	50934.74
521.69	50836.44
521.86	51253.05
522.03	51323.27
522.20	51707.12
522.38	51772.65
522.55	51349.01
522.72	51484.76
522.89	51625.20
523.07	51480.08
523.24	51725.84
523.41	52023.09
523.58	51482.42
523.75	52093.30
523.92	52147.14
524.10	52065.22
524.27	52161.18
524.44	52123.73
524.61	52165.86
524.78	52229.05
524.96	52299.27
525.13	52547.37
525.30	52865.68
525.47	52596.52
525.64	52530.98
525.81	52809.51
525.98	52921.85
526.16	52523.96
526.33	52566.09
526.50	52889.09
526.67	52853.98
526.84	52779.08
527.01	52711.20
527.18	53132.50
527.36	52954.62
527.53	53048.24
527.70	53460.18
527.87	53303.36
528.04	53483.58
528.21	53085.69
528.38	53577.20
528.55	53509.33
528.72	53506.99
528.89	53495.28
529.07	53778.49
529.24	53352.51
529.41	53499.97
529.58	53790.19
529.75	53722.32
529.92	53684.87
530.09	54183.40
530.26	53961.05
530.43	54356.60
530.60	53956.37
530.77	54047.65
530.94	54092.12
531.11	54054.67
531.28	54113.19
531.46	54209.15
531.63	54527.46
531.80	54068.72
531.97	54660.87
532.14	54520.44
532.31	54721.72
532.48	54937.05
532.65	54625.76
532.82	54408.09
532.99	54855.14
533.16	54834.07
533.33	54915.99
533.50	54988.55
533.67	54644.49
533.84	54639.81
534.01	54885.56
534.18	54990.89
534.35	55353.67
534.52	55107.91
534.69	55238.98
534.86	55246.00
535.03	55133.66
535.20	55337.29
535.37	55583.04
535.54	55646.24
535.71	55187.49
535.88	55510.49
536.05	55732.84
536.22	55735.18
536.38	55697.73
536.55	55679.00
536.72	55688.37
536.89	55576.02
537.06	55842.84
537.23	56093.28
537.40	55482.40
537.57	55842.84
537.74	56133.07
537.91	55929.44
538.08	56013.70
538.25	55781.99
538.42	56086.26
538.59	56292.22
538.75	56266.48
538.92	56182.22
539.09	56245.41
539.26	56310.95
539.43	56147.11
539.60	56526.28
539.77	56416.27
539.94	56582.45
540.11	56456.06
540.28	56395.21
540.44	56556.70
540.61	56406.91
540.78	56554.36
540.95	56746.29
541.12	56650.33
541.29	56596.49
541.46	56612.88
541.62	56540.32
541.79	56692.46
541.96	56470.11
542.13	56650.33
542.30	56818.84
542.47	56779.06
542.63	56898.42
542.80	57090.35
542.97	57050.56
543.14	57223.76
543.31	57357.17
543.48	57261.21
543.64	57689.52
543.81	57399.30
543.98	57563.14
544.15	57207.37
544.32	57581.86
544.48	57382.91
544.65	57364.19
544.82	57387.60
544.99	57364.19
545.16	57528.03
545.32	57598.24
545.49	57900.17
545.66	57881.45
545.83	57701.23
546.00	57635.69
546.16	57750.38
546.33	57614.63
546.50	57649.74
546.67	57914.22
546.83	57640.37
547.00	57684.84
547.17	58045.29
547.34	57883.79
547.50	57876.77
547.67	58269.98
547.84	58075.71
548.00	58403.39
548.17	58365.94
548.34	58148.27
548.51	58356.58
548.67	58230.19
548.84	58131.89
549.01	58286.36
549.18	58387.00
549.34	58377.64
549.51	58417.43
549.68	58520.41
549.84	58454.88
550.01	58319.13
550.18	58302.74
550.34	58433.81
550.51	58457.22
550.68	58595.31
550.84	58396.37
551.01	58625.74
551.18	58674.89
551.34	58553.18
551.51	58742.77
551.68	58513.39
551.84	58595.31
552.01	58607.01
552.18	58705.32
552.34	58677.23
552.51	58862.13
552.68	58698.30
552.84	58827.02
553.01	59302.15
553.18	58864.47
553.34	58904.26
553.51	58719.36
553.67	59084.48
553.84	58817.66
554.01	59075.12
554.17	59206.19
554.34	59093.85
554.51	59093.85
554.67	59150.02
554.84	59079.80
555.00	59236.62
555.17	59112.57
555.33	59213.21
555.50	58883.20
555.67	59105.55
555.83	58993.20
556.00	59196.83
556.16	59547.91
556.33	59391.09
556.50	59363.01
556.66	59491.74
556.83	59285.77
556.99	59316.20
557.16	59367.69
557.32	59779.62
557.49	59615.79
557.65	59330.24
557.82	59325.56
557.98	59370.03
558.15	59447.27
558.32	59622.81
558.48	59547.91
558.65	59695.36
558.81	59524.50
558.98	59763.24
559.14	59838.14
559.31	59709.41
559.47	59835.80
559.64	59861.54
559.80	59786.64
559.97	59590.04
560.13	59826.43
560.30	59676.64
560.46	59580.68
560.63	59810.05
560.79	59643.87
560.96	60104.96
561.12	59934.10
561.29	60018.36
561.45	59971.55
561.61	59901.33
561.78	59945.80
561.94	59875.58
562.11	59866.22
562.27	59992.61
562.44	60095.60
562.60	60060.49
562.77	60158.79
562.93	59969.21
563.10	60142.41
563.26	59812.39
563.42	60343.69
563.59	59957.50
563.75	60264.11
563.92	60158.79
564.08	60268.79
564.24	60369.44
564.41	60250.07
564.57	60219.64
564.74	60299.22
564.90	60154.11
565.07	60191.56
565.23	60060.49
565.39	60259.43
565.56	60355.39
565.72	60301.56
565.88	60451.36
566.05	60369.44
566.21	60254.75
566.38	60371.78
566.54	60392.84
566.70	60577.75
566.87	60441.99
567.03	60018.36
567.19	60559.02
567.36	60467.74
567.52	60385.82
567.68	60718.18
567.85	60392.84
568.01	60816.48
568.17	60336.67
568.34	60601.15
568.50	60472.42
568.66	60423.27
568.83	60458.38
568.99	60374.12
569.15	60364.76
569.32	60566.04
569.48	60449.02
569.64	60603.49
569.81	60465.40
569.97	60418.59
570.13	60654.98
570.30	60570.72
570.46	60568.38
570.62	60561.36
570.78	60500.51
570.95	60481.78
571.11	60465.40
571.27	60446.68
571.43	60786.05
571.60	60561.36
571.76	60767.33
571.92	60692.43
572.09	60708.82
572.25	60722.86
572.41	60615.19
572.57	60587.11
572.74	60851.59
572.90	60729.88
573.06	60823.50
573.22	60605.83
573.38	60736.90
573.55	60715.84
573.71	60720.52
573.87	60722.86
574.03	60519.23
574.20	60647.96
574.36	60601.15
574.52	60757.97
574.68	60839.89
574.84	60952.23
575.01	60832.86
575.17	60835.20
575.33	60678.39
575.49	60783.71
575.65	60811.80
575.82	61092.66
575.98	60924.14
576.14	61024.79
576.30	60896.06
576.46	60905.42
576.62	60774.35
576.79	60945.21
576.95	60673.71
577.11	61057.56
577.27	60982.66
577.43	60917.12
577.59	60816.48
577.75	60692.43
577.92	60835.20
578.08	61048.19
578.24	60938.19
578.40	61095.00
578.56	60973.30
578.72	60884.36
578.88	61048.19
579.04	61080.96
579.21	60954.57
579.37	61254.16
579.53	61073.94
579.69	60734.56
579.85	60779.03
580.01	60947.55
580.17	60739.24
580.33	61151.18
580.49	60961.59
580.65	61251.82
580.82	60940.53
580.98	60942.87
581.14	61052.87
581.30	61013.08
581.46	60935.85
581.62	60914.78
581.78	60949.89
581.94	61190.97
582.10	60863.29
582.26	60945.21
582.42	61069.26
582.58	61137.13
582.74	60956.91
582.90	61069.26
583.06	61125.43
583.22	60764.99
583.38	60959.25
583.54	61109.05
583.70	61212.03
583.86	61132.45
584.02	60935.85
584.18	61261.18
584.34	61001.38
584.50	60968.61
584.66	61006.06
584.82	60631.58
584.98	61160.54
585.14	61181.60
585.30	60949.89
585.46	61216.71
585.62	61066.92
585.78	61375.87
585.94	60935.85
586.10	61181.60
586.26	61207.35
586.42	61024.79
586.58	61153.52
586.74	61015.43
586.90	61087.98
587.06	60914.78
587.22	61490.55
587.38	61085.64
587.54	61165.22
587.70	61270.54
587.86	61240.12
588.02	61116.07
588.18	61326.72
588.34	61102.03
588.49	61188.63
