SpectraSuite Data File
++++++++++++++++++++++++++++++++++++
Date: Fri Oct 25 11:33:47 EDT 2013
User: price-jones
Dark Spectrum Present: No
Reference Spectrum Present: No
Number of Sampled Component Spectra: 1
Spectrometers: USB2+H05261
Integration Time (usec): 100000 (USB2+H05261)
Spectra Averaged: 1 (USB2+H05261)
Boxcar Smoothing: 0 (USB2+H05261)
Correct for Electrical Dark: No (USB2+H05261)
Strobe/Lamp Enabled: No (USB2+H05261)
Correct for Detector Non-linearity: No (USB2+H05261)
Correct for Stray Light: No (USB2+H05261)
Number of Pixels in Processed Spectrum: 2048
>>>>>Begin Processed Spectral Data<<<<<
365.73	236.39
365.92	236.39
366.12	236.39
366.32	191.92
366.52	128.73
366.72	194.26
366.91	203.63
367.11	220.01
367.31	161.50
367.51	220.01
367.70	238.73
367.90	201.29
368.10	163.84
368.30	168.52
368.49	210.65
368.69	227.03
368.89	191.92
369.09	112.35
369.28	222.35
369.48	229.37
369.68	266.82
369.87	250.44
370.07	264.48
370.27	306.61
370.47	374.49
370.66	470.45
370.86	507.90
371.06	540.66
371.25	470.45
371.45	472.79
371.65	594.50
371.84	472.79
372.04	514.92
372.24	564.07
372.44	657.69
372.63	564.07
372.83	599.18
373.03	641.31
373.22	603.86
373.42	575.77
373.62	568.75
373.81	587.47
374.01	688.12
374.21	725.57
374.40	627.26
374.60	610.88
374.79	631.94
374.99	613.22
375.19	674.07
375.38	692.80
375.58	657.69
375.78	653.01
375.97	664.71
376.17	784.08
376.37	730.25
376.56	664.71
376.76	573.43
376.95	720.88
377.15	674.07
377.35	695.14
377.54	643.65
377.74	662.37
377.93	688.12
378.13	683.44
378.33	727.91
378.52	716.20
378.72	830.89
378.91	709.18
379.11	767.70
379.31	739.61
379.50	763.01
379.70	734.93
379.89	690.46
380.09	791.10
380.28	711.52
380.48	688.12
380.68	718.54
380.87	741.95
381.07	641.31
381.26	730.25
381.46	779.40
381.65	774.72
381.85	758.33
382.04	858.98
382.24	793.44
382.43	788.76
382.63	741.95
382.83	807.48
383.02	767.70
383.22	798.12
383.41	814.51
383.61	748.97
383.80	880.04
384.00	802.80
384.19	882.38
384.39	800.46
384.58	901.11
384.78	835.57
384.97	784.08
385.17	798.12
385.36	814.51
385.56	800.46
385.75	877.70
385.95	882.38
386.14	940.90
386.34	828.55
386.53	828.55
386.72	856.64
386.92	910.47
387.11	959.62
387.31	840.25
387.50	882.38
387.70	887.06
387.89	938.55
388.09	908.13
388.28	868.34
388.48	940.90
388.67	912.81
388.86	943.24
389.06	903.45
389.25	980.68
389.45	926.85
389.64	938.55
389.84	926.85
390.03	959.62
390.22	1086.01
390.42	976.00
390.61	950.26
390.81	945.58
391.00	1043.88
391.19	1039.20
391.39	1043.88
391.58	999.41
391.78	990.05
391.97	1088.35
392.16	1060.26
392.36	1086.01
392.55	1128.14
392.75	1015.79
392.94	1025.15
393.13	1032.18
393.33	1086.01
393.52	1135.16
393.71	1071.97
393.91	1111.75
394.10	983.02
394.29	1090.69
394.49	1170.27
394.68	1107.07
394.88	1163.25
395.07	1188.99
395.26	1107.07
395.46	1146.86
395.65	1153.88
395.84	1167.93
396.04	1224.10
396.23	1282.61
396.42	1235.80
396.62	1261.55
396.81	1191.33
397.00	1256.87
397.19	1181.97
397.39	1177.29
397.58	1259.21
397.77	1146.86
397.97	1238.14
398.16	1259.21
398.35	1313.04
398.55	1336.45
398.74	1341.13
398.93	1334.11
399.12	1303.68
399.32	1348.15
399.51	1409.00
399.70	1315.38
399.90	1364.53
400.09	1366.87
400.28	1441.77
400.47	1472.20
400.67	1420.71
400.86	1446.45
401.05	1558.80
401.24	1441.77
401.44	1446.45
401.63	1530.71
401.82	1591.56
402.01	1458.15
402.21	1453.47
402.40	1380.92
402.59	1458.15
402.78	1551.78
402.97	1497.94
403.17	1568.16
403.36	1542.41
403.55	1554.12
403.74	1570.50
403.93	1671.14
404.13	1629.01
404.32	1638.38
404.51	1586.88
404.70	1640.72
404.89	1596.25
405.09	1664.12
405.28	1668.80
405.47	1715.61
405.66	1629.01
405.85	1762.42
406.05	1743.70
406.24	1685.19
406.43	1849.02
406.62	1846.68
406.81	1837.32
407.00	1820.94
407.20	1668.80
407.39	1732.00
407.58	1863.07
407.77	1785.83
407.96	1823.28
408.15	1987.11
408.34	1813.92
408.54	1973.07
408.73	1923.92
408.92	1956.69
409.11	1909.88
409.30	1947.33
409.49	1863.07
409.68	1987.11
409.87	2050.31
410.07	2050.31
410.26	2008.18
410.45	2040.95
410.64	2136.91
410.83	2085.42
411.02	2165.00
411.21	2225.85
411.40	2134.57
411.59	2125.21
411.78	2120.53
411.98	2200.10
412.17	2195.42
412.36	2221.17
412.55	2246.91
412.74	2310.11
412.93	2300.75
413.12	2490.33
413.31	2335.85
413.50	2532.46
413.69	2373.30
413.88	2487.99
414.07	2476.29
414.26	2520.76
414.45	2593.31
414.64	2609.70
414.83	2626.08
415.02	2537.14
415.22	2619.06
415.41	2626.08
415.60	2640.12
415.79	2616.72
415.98	2757.15
416.17	2771.19
416.36	2644.81
416.55	2801.62
416.74	2803.96
416.93	2768.85
417.12	2874.18
417.31	2848.43
417.50	2899.92
417.69	2888.22
417.88	3000.57
418.07	2918.65
418.26	2897.58
418.45	2995.89
418.64	3084.83
418.83	3112.91
419.02	2970.14
419.21	3133.98
419.39	3169.09
419.58	3014.61
419.77	3068.44
419.96	3150.36
420.15	3061.42
420.34	3211.22
420.53	3126.96
420.72	3173.77
420.91	3229.94
421.10	3138.66
421.29	3328.24
421.48	3248.66
421.67	3283.77
421.86	3349.31
422.05	3258.03
422.24	3241.64
422.43	3391.44
422.61	3365.69
422.80	3375.05
422.99	3454.63
423.18	3428.88
423.37	3375.05
423.56	3400.80
423.75	3473.36
423.94	3265.05
424.13	3239.30
424.32	3225.26
424.50	3403.14
424.69	3592.72
424.88	3644.21
425.07	3353.99
425.26	3475.70
425.45	3410.16
425.64	3356.33
425.83	3375.05
426.01	3361.01
426.20	3503.78
426.39	3506.12
426.58	3433.57
426.77	3529.53
426.96	3534.21
427.15	3534.21
427.33	3648.90
427.52	3733.15
427.71	3791.67
427.90	3646.55
428.09	3637.19
428.28	3822.09
428.46	3644.21
428.65	3604.42
428.84	3875.93
429.03	3791.67
429.22	3630.17
429.40	3873.59
429.59	3824.44
429.78	3583.36
429.97	3726.13
430.16	3770.60
430.34	3744.86
430.53	3864.22
430.72	3868.91
430.91	3913.38
431.10	3836.14
431.28	3985.93
431.47	3929.76
431.66	4067.85
431.85	3983.59
432.03	4131.05
432.22	4025.72
432.41	4025.72
432.60	4056.15
432.79	4007.00
432.97	4004.66
433.16	4133.39
433.35	4086.58
433.54	4262.12
433.72	4215.30
433.91	4224.67
434.10	4322.97
434.28	4224.67
434.47	4152.11
434.66	4287.86
434.85	4301.90
435.03	4341.69
435.22	4229.35
435.41	4395.53
435.59	4425.95
435.78	4463.40
435.97	4402.55
436.16	4383.82
436.34	4372.12
436.53	4521.92
436.72	4442.34
436.90	4479.79
437.09	4540.64
437.28	4519.57
437.46	4353.40
437.65	4470.42
437.84	4535.96
438.02	4617.88
438.21	4681.07
438.40	4528.94
438.58	4807.46
438.77	4875.34
438.96	4753.63
439.14	4788.74
439.33	4983.00
439.52	4973.64
439.70	4971.30
439.89	4917.47
440.08	4954.91
440.26	5020.45
440.45	4994.70
440.63	5149.18
440.82	5331.74
441.01	5085.98
441.19	5228.76
441.38	5252.16
441.57	5287.27
441.75	5308.34
441.94	5247.48
442.12	5259.18
442.31	5432.38
442.50	5462.81
442.68	5502.60
442.87	5441.75
443.05	5603.24
443.24	5605.58
443.43	5526.00
443.61	5535.37
443.80	5678.14
443.98	5511.96
444.17	5408.98
444.35	5444.09
444.54	5504.94
444.73	5713.25
444.91	5633.67
445.10	5598.56
445.28	5708.57
445.47	5423.02
445.65	5703.89
445.84	5841.98
446.02	5792.83
446.21	5734.31
446.39	5685.16
446.58	5767.08
446.77	5846.66
446.95	5682.82
447.14	5675.80
447.32	5881.77
447.51	5699.20
447.69	5760.06
447.88	5811.55
448.06	5930.92
448.25	5881.77
448.43	5893.47
448.62	5785.80
448.80	5731.97
448.99	5968.37
449.17	5858.36
449.36	5853.68
449.54	6104.12
449.73	6181.35
449.91	6101.78
450.10	6059.65
450.28	6153.27
450.46	6211.78
450.65	6258.59
450.83	6272.64
451.02	6092.41
451.20	6303.06
451.39	6244.55
451.57	6305.40
451.76	6457.54
451.94	6251.57
452.13	6349.87
452.31	6183.70
452.49	6167.31
452.68	6237.53
452.86	6284.34
453.05	6466.90
453.23	6373.28
453.42	6445.84
453.60	6298.38
453.78	6392.00
453.97	6349.87
454.15	6480.94
454.34	6436.47
454.52	6338.17
454.70	6593.29
454.89	6614.35
455.07	6743.08
455.26	6509.03
455.44	6679.89
455.62	6642.44
455.81	6864.79
455.99	6778.19
456.17	6803.94
456.36	6820.32
456.54	6864.79
456.73	6918.62
456.91	6986.50
457.09	6951.39
457.28	7028.63
457.46	7045.01
457.64	7208.85
457.83	7056.72
458.01	7108.21
458.19	7405.46
458.38	7030.97
458.56	7229.91
458.74	7283.75
458.93	7260.34
459.11	7176.08
459.29	7155.02
459.48	7318.86
459.66	7225.23
459.84	7403.11
460.03	7372.69
460.21	7407.80
460.39	7412.48
460.57	7508.44
460.76	7459.29
460.94	7447.58
461.12	7545.89
461.31	7756.54
461.49	7581.00
461.67	7386.73
461.85	7679.30
462.04	7742.49
462.22	8023.36
462.40	7735.47
462.59	7831.43
462.77	7740.15
462.95	7939.10
463.13	7695.68
463.32	7852.50
463.50	7726.11
463.68	8011.65
463.86	7981.23
464.05	7808.03
464.23	7957.82
464.41	7864.20
464.59	7838.45
464.78	8056.12
464.96	8032.72
465.14	7939.10
465.32	7875.90
465.50	8224.64
465.69	8102.93
465.87	8018.68
466.05	8358.05
466.23	8116.98
466.41	8241.03
466.60	8442.31
466.78	8318.26
466.96	8273.79
467.14	8222.30
467.32	8430.61
467.51	8500.83
467.69	8180.17
467.87	8425.93
468.05	8531.25
468.23	8271.45
468.41	8219.96
468.60	8643.60
468.78	8486.78
468.96	8428.27
469.14	8437.63
469.32	8608.49
469.50	8386.14
469.69	8795.73
469.87	8777.01
470.05	8746.58
470.23	8938.51
470.41	8589.77
470.59	8898.72
470.77	8891.70
470.95	8821.48
471.14	9252.14
471.32	8835.52
471.50	9137.45
471.68	8975.95
471.86	9172.56
472.04	9067.24
472.22	9350.44
472.40	8943.19
472.58	9231.07
472.77	9252.14
472.95	9390.23
473.13	9657.05
473.31	9312.99
473.49	9355.12
473.67	9315.33
473.85	9500.23
474.03	9846.63
474.21	9895.78
474.39	9699.18
474.57	9762.37
474.75	9900.47
474.93	9928.55
475.12	10104.09
475.30	10136.86
475.48	10214.10
475.66	9933.23
475.84	10045.58
476.02	10183.67
476.20	10289.00
476.38	10331.12
476.56	10640.08
476.74	10555.82
476.92	10644.76
477.10	10710.29
477.28	10689.23
477.46	10733.70
477.64	10656.46
477.82	10965.41
478.00	11094.14
478.18	11122.23
478.36	11178.40
478.54	11375.00
478.72	11424.15
478.90	11555.22
479.08	11775.24
479.26	11531.82
479.44	11620.76
479.62	11826.73
479.80	11866.52
479.98	12107.59
480.16	12074.82
480.34	11894.60
480.52	12255.04
480.70	12482.08
480.88	12414.20
481.06	12287.81
481.24	12538.25
481.41	12655.28
481.59	12886.99
481.77	12919.76
481.95	12894.01
482.13	13235.73
482.31	13156.15
482.49	13336.37
482.67	13099.98
482.85	13504.89
483.03	13516.59
483.21	13722.56
483.39	13755.33
483.57	13738.94
483.74	14012.79
483.92	13860.65
484.10	14036.19
484.28	14237.48
484.46	14724.31
484.64	14635.37
484.82	14913.89
485.00	14600.26
485.18	14867.08
485.35	15211.14
485.53	15040.28
485.71	15236.89
485.89	15417.11
486.07	15300.08
486.25	15599.67
486.43	15653.50
486.61	15707.34
486.78	15719.04
486.96	15967.13
487.14	16079.48
487.32	16383.75
487.50	16594.40
487.68	16552.27
487.85	16554.61
488.03	16961.86
488.21	17013.35
488.39	17020.38
488.57	17359.75
488.75	17221.66
488.92	17518.91
489.10	17397.20
489.28	17661.68
489.46	17900.42
489.64	17729.56
489.81	18185.96
489.99	18492.57
490.17	18118.09
490.35	18494.91
490.53	18459.81
490.70	18696.20
490.88	18675.13
491.06	18932.59
491.24	18925.57
491.41	19211.12
491.59	19328.14
491.77	19009.83
491.95	19473.26
492.13	19646.46
492.30	19477.94
492.48	19894.55
492.66	19871.15
492.84	20133.29
493.01	20212.87
493.19	19992.86
493.37	20545.22
493.54	20421.17
493.72	20720.76
493.90	20950.14
494.08	20570.97
494.25	21263.77
494.43	21198.23
494.61	20971.20
494.79	21102.27
494.96	21324.62
495.14	21376.11
495.32	21645.27
495.49	21848.90
495.67	22132.11
495.85	21893.37
496.02	22022.10
496.20	22143.81
496.38	22335.73
496.55	22602.55
496.73	22813.20
496.91	22817.88
497.09	22885.76
497.26	23023.85
497.44	22927.89
497.62	22754.69
497.79	23372.59
497.97	23316.42
498.14	23608.98
498.32	23789.20
498.50	23793.89
498.67	24093.47
498.85	23999.85
499.03	24318.17
499.20	24315.83
499.38	23943.68
499.56	24285.40
499.73	24664.57
499.91	24690.31
500.08	24751.17
500.26	24849.47
500.44	24819.04
500.61	24800.32
500.79	25092.88
500.97	25060.12
501.14	25532.90
501.32	25511.84
501.49	25312.89
501.67	25310.55
501.84	25937.82
502.02	25528.22
502.20	26267.83
502.37	25956.54
502.55	26183.57
502.72	26185.91
502.90	25909.73
503.07	26178.89
503.25	26366.13
503.43	26071.23
503.60	26354.43
503.78	26625.93
503.95	26909.14
504.13	26778.07
504.30	26740.62
504.48	26544.02
504.65	26855.31
504.83	27054.25
505.01	27182.98
505.18	27283.62
505.36	27417.04
505.53	27037.87
505.71	27594.92
505.88	27426.40
506.06	27227.45
506.23	27667.47
506.41	27866.42
506.58	27793.86
506.76	27969.40
506.93	27990.47
507.11	27667.47
507.28	27999.83
507.46	28238.56
507.63	28599.01
507.81	28823.70
507.98	28463.25
508.16	28453.89
508.33	28718.37
508.50	28741.78
508.68	28877.53
508.85	29102.22
509.03	28783.91
509.20	29125.63
509.38	29420.53
509.55	29120.95
509.73	29741.19
509.90	29326.91
510.08	29366.70
510.25	29610.12
510.42	29610.12
510.60	29893.32
510.77	29879.28
510.95	29907.37
511.12	30153.12
511.30	29652.25
511.47	30525.27
511.64	30242.06
511.82	30125.04
511.99	30548.67
512.17	30668.04
512.34	30272.49
512.51	30862.30
512.69	31147.85
512.86	30841.24
513.04	31307.01
513.21	30862.30
513.38	30941.88
513.56	31274.24
513.73	31058.91
513.90	30899.75
514.08	31220.41
514.25	31674.47
514.43	31676.81
514.60	31754.05
514.77	31899.16
514.95	31737.66
515.12	31475.52
515.29	31887.46
515.47	32432.80
515.64	32123.85
515.81	32114.49
515.99	32119.17
516.16	32247.90
516.33	32112.15
516.51	32744.09
516.68	32311.10
516.85	32514.72
517.03	32606.00
517.20	32308.76
517.37	33020.28
517.54	32996.87
517.72	32617.71
517.89	32788.56
518.06	33139.65
518.24	33036.66
518.41	32924.32
518.58	33081.13
518.75	33024.96
518.93	33429.87
519.10	33427.53
519.27	33453.28
519.45	33876.91
519.62	33727.12
519.79	33703.71
519.96	33582.01
520.14	33736.48
520.31	33991.60
520.48	34195.23
520.65	34218.63
520.83	34462.05
521.00	34724.19
521.17	34178.84
521.34	34541.63
521.52	34644.61
521.69	34410.56
521.86	34696.10
522.03	34876.32
522.20	35098.67
522.38	35089.31
522.55	34604.82
522.72	34792.06
522.89	35040.16
523.07	35503.59
523.24	35159.53
523.41	35665.08
523.58	35037.82
523.75	35445.07
523.92	35550.40
524.10	35508.27
524.27	35573.80
524.44	35700.19
524.61	35681.47
524.78	35892.12
524.96	36116.81
525.13	36306.39
525.30	36664.49
525.47	36488.95
525.64	35894.46
525.81	36182.34
525.98	36353.20
526.16	36416.40
526.33	36123.83
526.50	36868.12
526.67	36219.79
526.84	36584.91
527.01	36837.69
527.18	36987.49
527.36	36786.20
527.53	37518.79
527.70	37312.82
527.87	37242.60
528.04	37378.36
528.21	37228.56
528.38	36896.20
528.55	37165.37
528.72	37404.10
528.89	37031.96
529.07	37345.59
529.24	37415.80
529.41	37195.79
529.58	37251.97
529.75	37752.84
529.92	37610.07
530.09	38167.12
530.26	37710.71
530.43	37666.24
530.60	37818.38
530.77	37825.40
530.94	37851.14
531.11	37680.28
531.28	38529.90
531.46	38389.47
531.63	38181.16
531.80	38136.69
531.97	38888.00
532.14	38927.79
532.31	38270.10
532.48	38349.68
532.65	38553.30
532.82	38429.26
532.99	38394.15
533.16	38305.21
533.33	38944.17
533.50	38635.22
533.67	38981.62
533.84	38658.63
534.01	38983.96
534.18	38960.56
534.35	39161.84
534.52	39098.65
534.69	39276.53
534.86	39276.53
535.03	38974.60
535.20	39491.86
535.37	39555.05
535.54	39721.23
535.71	39590.16
535.88	39777.40
536.05	39922.52
536.22	40156.57
536.38	39653.36
536.55	39632.29
536.72	39889.75
536.89	39693.15
537.06	39578.46
537.23	40259.55
537.40	39966.99
537.57	39974.01
537.74	39985.71
537.91	40292.32
538.08	40119.12
538.25	39859.32
538.42	39983.37
538.59	40727.66
538.75	39885.07
538.92	40229.13
539.09	40727.66
539.26	40467.86
539.43	40158.91
539.60	40414.03
539.77	40437.44
539.94	40851.71
540.11	40830.65
540.28	41137.26
540.44	40964.06
540.61	41109.17
540.78	40847.03
540.95	41153.64
541.12	40563.82
541.29	40989.80
541.46	40989.80
541.62	41282.37
541.79	41399.40
541.96	40737.02
542.13	40641.06
542.30	41514.08
542.47	41071.72
542.63	41240.24
542.80	41818.35
542.97	42047.72
543.14	42171.77
543.31	41851.12
543.48	41696.64
543.64	41862.82
543.81	41825.37
543.98	41902.61
544.15	42017.30
544.32	42295.82
544.48	42689.03
544.65	42321.57
544.82	42106.24
544.99	42181.13
545.16	42239.65
545.32	42150.71
545.49	42653.92
545.66	42438.59
545.83	42890.32
546.00	42511.15
546.16	42766.27
546.33	42244.33
546.50	42607.11
546.67	42946.49
546.83	42459.66
547.00	42597.75
547.17	42906.70
547.34	42623.50
547.50	42965.21
547.67	43311.61
547.84	42705.41
548.00	43040.11
548.17	43587.80
548.34	43131.39
548.51	43335.02
548.67	43208.63
548.84	43477.79
549.01	43643.97
549.18	43206.29
549.34	43281.19
549.51	43278.85
549.68	43606.52
549.84	43276.51
550.01	43700.14
550.18	43351.40
550.34	43707.16
550.51	44098.03
550.68	43831.21
550.84	43426.30
551.01	44069.95
551.18	43597.16
551.34	43604.18
551.51	43931.86
551.68	43662.69
551.84	43578.43
552.01	44095.69
552.18	44215.06
552.34	43992.71
552.51	43875.68
552.68	43978.67
552.84	44346.13
553.01	43735.25
553.18	44404.64
553.34	44177.61
553.51	43871.00
553.67	44428.05
553.84	44392.94
554.01	44493.58
554.17	44648.06
554.34	45008.50
554.51	44304.00
554.67	45017.86
554.84	44767.43
555.00	44524.01
555.17	44650.40
555.33	44570.82
555.50	44601.25
555.67	44341.45
555.83	44708.91
556.00	45024.89
556.16	44996.80
556.33	45172.34
556.50	45095.10
556.66	44706.57
556.83	44683.17
556.99	44964.03
557.16	45312.77
557.32	45380.65
557.49	45698.96
557.65	45017.86
557.82	44739.34
557.98	45088.08
558.15	44898.50
558.32	45390.01
558.48	45366.60
558.65	45382.99
558.81	45029.57
558.98	45069.36
559.14	45141.91
559.31	45277.66
559.47	45198.09
559.64	45427.46
559.80	45464.91
559.97	45593.64
560.13	45394.69
560.30	45434.48
560.46	45783.22
560.63	45560.87
560.79	45794.92
560.96	45558.53
561.12	45612.36
561.29	45429.80
561.45	45963.44
561.61	45647.47
561.78	45549.17
561.94	45797.26
562.11	45844.07
562.27	45731.73
562.44	45790.24
562.60	45806.62
562.77	46038.34
562.93	45970.46
563.10	46031.32
563.26	45801.94
563.42	46417.50
563.59	45797.26
563.75	45656.83
563.92	45904.93
564.08	46014.93
564.24	46071.10
564.41	45937.69
564.57	46258.35
564.74	46021.95
564.90	45862.80
565.07	46071.10
565.23	46272.39
565.39	46251.33
565.56	46358.99
565.72	46291.12
565.88	46546.23
566.05	46457.29
566.21	46244.30
566.38	46017.27
566.54	46543.89
566.70	46300.48
566.87	46546.23
567.03	45942.38
567.19	46436.23
567.36	46354.31
567.52	46401.12
567.68	46075.79
567.85	46607.09
568.01	46094.51
568.17	46471.34
568.34	46298.14
568.50	46630.49
568.66	46721.77
568.83	46583.68
568.99	46656.24
569.15	46213.88
569.32	46733.48
569.48	46429.21
569.64	46864.55
569.81	46445.59
569.97	46724.11
570.13	46672.62
570.30	46169.41
570.46	46742.84
570.62	46586.02
570.78	46616.45
570.95	46590.70
571.11	46775.61
571.27	46553.26
571.43	46387.08
571.60	47210.95
571.76	46632.83
571.92	46878.59
572.09	46469.00
572.25	46916.04
572.41	46424.53
572.57	46766.24
572.74	47194.56
572.90	46546.23
573.06	46614.11
573.22	47035.41
573.38	46904.34
573.55	46904.34
573.71	47330.31
573.87	47012.00
574.03	47213.29
574.20	47100.94
574.36	46806.03
574.52	47164.14
574.68	46862.21
574.84	47192.22
575.01	47433.30
575.17	46749.86
575.33	46995.62
575.49	47201.58
575.65	46813.05
575.82	47002.64
575.98	47119.66
576.14	47147.75
576.30	46838.80
576.46	46852.84
576.62	47056.47
576.79	47065.83
576.95	46710.07
577.11	46930.08
577.27	47042.43
577.43	47026.04
577.59	46972.21
577.75	46791.99
577.92	46789.65
578.08	47276.48
578.24	47248.39
578.40	47166.48
578.56	47084.56
578.72	46857.52
578.88	47107.96
579.04	47681.39
579.21	46787.31
579.37	47100.94
579.53	47313.93
579.69	47107.96
579.85	46761.56
580.01	47173.50
580.17	47154.77
580.33	47339.68
580.49	47093.92
580.65	47435.64
580.82	47182.86
580.98	46822.42
581.14	47393.51
581.30	47346.70
581.46	47243.71
581.62	47508.19
581.78	47056.47
581.94	47124.35
582.10	47056.47
582.26	47395.85
582.42	47419.25
582.58	47316.27
582.74	46946.47
582.90	47461.38
583.06	47262.44
583.22	47035.41
583.38	47058.81
583.54	47468.40
583.70	47454.36
583.86	47657.99
584.02	47000.30
584.18	47831.19
584.34	47826.51
584.50	47812.46
584.66	47571.39
584.82	47250.74
584.98	47669.69
585.14	47473.09
585.30	47215.63
585.46	47430.96
585.62	47285.84
585.78	47276.48
585.94	47407.55
586.10	47019.02
586.26	46827.10
586.42	47189.88
586.58	47611.18
586.74	47459.04
586.90	47194.56
587.06	47407.55
587.22	47643.94
587.38	47023.70
587.54	47824.17
587.70	47711.82
587.86	47955.24
588.02	47325.63
588.18	47393.51
588.34	47344.36
588.49	47580.75
588.65	47697.78
588.81	47611.18
588.97	47477.77
589.13	47281.16
589.29	47662.67
589.45	47723.52
589.61	47990.34
589.77	47812.46
589.93	47711.82
590.08	47730.54
