SpectraSuite Data File
++++++++++++++++++++++++++++++++++++
Date: Fri Oct 25 11:33:16 EDT 2013
User: price-jones
Dark Spectrum Present: No
Reference Spectrum Present: No
Number of Sampled Component Spectra: 1
Spectrometers: USB2+H05261
Integration Time (usec): 100000 (USB2+H05261)
Spectra Averaged: 1 (USB2+H05261)
Boxcar Smoothing: 0 (USB2+H05261)
Correct for Electrical Dark: No (USB2+H05261)
Strobe/Lamp Enabled: No (USB2+H05261)
Correct for Detector Non-linearity: No (USB2+H05261)
Correct for Stray Light: No (USB2+H05261)
Number of Pixels in Processed Spectrum: 2048
>>>>>Begin Processed Spectral Data<<<<<
365.73	250.44
365.92	250.44
366.12	250.44
366.32	138.09
366.52	145.11
366.72	138.09
366.91	182.56
367.11	196.60
367.31	175.54
367.51	119.37
367.70	168.52
367.90	166.18
368.10	168.52
368.30	163.84
368.49	121.71
368.69	212.99
368.89	217.67
369.09	220.01
369.28	177.88
369.48	217.67
369.68	208.31
369.87	220.01
370.07	205.97
370.27	264.48
370.47	332.36
370.66	514.92
370.86	526.62
371.06	507.90
371.25	587.47
371.45	500.87
371.65	575.77
371.84	535.98
372.04	493.85
372.24	578.11
372.44	643.65
372.63	627.26
372.83	601.52
373.03	603.86
373.22	596.84
373.42	620.24
373.62	620.24
373.81	655.35
374.01	617.90
374.21	559.39
374.40	678.76
374.60	610.88
374.79	667.05
374.99	653.01
375.19	697.48
375.38	655.35
375.58	594.50
375.78	692.80
375.97	695.14
376.17	732.59
376.37	629.60
376.56	702.16
376.76	669.39
376.95	748.97
377.15	765.36
377.35	772.38
377.54	732.59
377.74	643.65
377.93	653.01
378.13	737.27
378.33	781.74
378.52	676.41
378.72	657.69
378.91	730.25
379.11	690.46
379.31	706.84
379.50	648.33
379.70	758.33
379.89	795.78
380.09	770.04
380.28	669.39
380.48	748.97
380.68	713.86
380.87	732.59
381.07	835.57
381.26	760.67
381.46	734.93
381.65	770.04
381.85	770.04
382.04	807.48
382.24	812.17
382.43	786.42
382.63	802.80
382.83	779.40
383.02	805.14
383.22	812.17
383.41	739.61
383.61	866.00
383.80	898.77
384.00	774.72
384.19	781.74
384.39	760.67
384.58	793.44
384.78	868.34
384.97	847.27
385.17	823.87
385.36	800.46
385.56	842.59
385.75	866.00
385.95	910.47
386.14	840.25
386.34	798.12
386.53	844.93
386.72	882.38
386.92	917.49
387.11	901.11
387.31	844.93
387.50	912.81
387.70	903.45
387.89	816.85
388.09	816.85
388.28	908.13
388.48	884.72
388.67	898.77
388.86	887.06
389.06	915.15
389.25	903.45
389.45	915.15
389.64	954.94
389.84	952.60
390.03	997.07
390.22	901.11
390.42	880.04
390.61	924.51
390.81	983.02
391.00	1053.24
391.19	1067.28
391.39	1046.22
391.58	976.00
391.78	1104.73
391.97	990.05
392.16	990.05
392.36	1062.60
392.55	1008.77
392.75	1020.47
392.94	1107.07
393.13	1050.90
393.33	1015.79
393.52	1062.60
393.71	1078.99
393.91	1170.27
394.10	1032.18
394.29	1179.63
394.49	1074.31
394.68	1123.46
394.88	1011.11
395.07	1139.84
395.26	1203.04
395.46	1198.35
395.65	1224.10
395.84	1247.51
396.04	1249.85
396.23	1238.14
396.42	1294.32
396.62	1299.00
396.81	1149.20
397.00	1249.85
397.19	1165.59
397.39	1221.76
397.58	1277.93
397.77	1203.04
397.97	1249.85
398.16	1261.55
398.35	1268.57
398.55	1228.78
398.74	1207.72
398.93	1291.98
399.12	1235.80
399.32	1231.12
399.51	1296.66
399.70	1350.49
399.90	1329.42
400.09	1406.66
400.28	1448.79
400.47	1336.45
400.67	1418.36
400.86	1437.09
401.05	1411.34
401.24	1493.26
401.44	1458.15
401.63	1423.05
401.82	1549.43
402.01	1413.68
402.21	1446.45
402.40	1547.09
402.59	1453.47
402.78	1430.07
402.97	1509.65
403.17	1554.12
403.36	1547.09
403.55	1533.05
403.74	1455.81
403.93	1582.20
404.13	1600.93
404.32	1556.46
404.51	1610.29
404.70	1678.16
404.89	1633.69
405.09	1701.57
405.28	1636.03
405.47	1755.40
405.66	1682.85
405.85	1764.76
406.05	1680.50
406.24	1783.49
406.43	1778.81
406.62	1753.06
406.81	1895.83
407.00	1778.81
407.20	1699.23
407.39	1771.79
407.58	1884.13
407.77	1842.00
407.96	1874.77
408.15	1980.09
408.34	1877.11
408.54	1832.64
408.73	1944.99
408.92	1879.45
409.11	1963.71
409.30	1968.39
409.49	2031.58
409.68	1984.77
409.87	1919.24
410.07	2047.97
410.26	2038.61
410.45	2069.03
410.64	2097.12
410.83	2115.84
411.02	2148.61
411.21	2162.66
411.40	2143.93
411.59	2176.70
411.78	2214.15
411.98	2225.85
412.17	2183.72
412.36	2230.53
412.55	2258.62
412.74	2377.98
412.93	2413.09
413.12	2188.40
413.31	2410.75
413.50	2506.71
413.69	2366.28
413.88	2483.31
414.07	2452.88
414.26	2466.92
414.45	2583.95
414.64	2476.29
414.83	2595.65
415.02	2619.06
415.22	2623.74
415.41	2696.30
415.60	2623.74
415.79	2764.17
415.98	2855.45
416.17	2691.62
416.36	2771.19
416.55	2787.58
416.74	2885.88
416.93	2722.04
417.12	2848.43
417.31	2953.76
417.50	2923.33
417.69	2925.67
417.88	3009.93
418.07	2932.69
418.26	2974.82
418.45	3028.65
418.64	3101.21
418.83	3155.04
419.02	3038.02
419.21	3269.73
419.39	3077.80
419.58	3108.23
419.77	3075.46
419.96	3183.13
420.15	3283.77
420.34	3190.15
420.53	3169.09
420.72	3215.90
420.91	3265.05
421.10	3318.88
421.29	3269.73
421.48	3323.56
421.67	3307.18
421.86	3307.18
422.05	3290.79
422.24	3468.67
422.43	3337.60
422.61	3456.97
422.80	3375.05
422.99	3419.52
423.18	3449.95
423.37	3431.23
423.56	3520.17
423.75	3368.03
423.94	3454.63
424.13	3141.00
424.32	3225.26
424.50	3501.44
424.69	3452.29
424.88	3506.12
425.07	3400.80
425.26	3405.48
425.45	3454.63
425.64	3445.27
425.83	3496.76
426.01	3487.40
426.20	3606.77
426.39	3515.48
426.58	3456.97
426.77	3480.38
426.96	3449.95
427.15	3375.05
427.33	3578.68
427.52	3562.30
427.71	3648.90
427.90	3667.62
428.09	3632.51
428.28	3794.01
428.46	3751.88
428.65	3779.97
428.84	3988.27
429.03	3894.65
429.22	3737.84
429.40	3791.67
429.59	3747.20
429.78	3674.64
429.97	3655.92
430.16	3779.97
430.34	3843.16
430.53	3824.44
430.72	3957.85
430.91	3913.38
431.10	3920.40
431.28	3953.16
431.47	3953.16
431.66	4121.68
431.85	4009.34
432.03	4102.96
432.22	4180.20
432.41	4002.32
432.60	4109.98
432.79	4093.60
432.97	4147.43
433.16	4236.37
433.35	4088.92
433.54	4142.75
433.72	4238.71
433.91	4182.54
434.10	4351.06
434.28	4168.49
434.47	4264.46
434.66	4219.99
434.85	4444.68
435.03	4301.90
435.22	4425.95
435.41	4423.61
435.59	4573.41
435.78	4486.81
435.97	4505.53
436.16	4472.76
436.34	4496.17
436.53	4542.98
436.72	4664.69
436.90	4423.61
437.09	4365.10
437.28	4629.58
437.46	4521.92
437.65	4573.41
437.84	4610.86
438.02	4514.89
438.21	4744.27
438.40	4669.37
438.58	4741.93
438.77	4786.40
438.96	4737.24
439.14	4755.97
439.33	4856.61
439.52	4910.44
439.70	4940.87
439.89	4999.38
440.08	5118.75
440.26	4959.60
440.45	5198.33
440.63	5146.84
440.82	5476.85
441.01	5095.35
441.19	5195.99
441.38	5362.17
441.57	5238.12
441.75	5336.42
441.94	5408.98
442.12	5394.93
442.31	5460.47
442.50	5530.69
442.68	5490.90
442.87	5371.53
443.05	5448.77
443.24	5668.78
443.43	5423.02
443.61	5488.56
443.80	5682.82
443.98	5490.90
444.17	5266.21
444.35	5636.01
444.54	5748.36
444.73	5694.52
444.91	5774.10
445.10	5722.61
445.28	5741.33
445.47	5699.20
445.65	5699.20
445.84	5640.69
446.02	5823.25
446.21	5703.89
446.39	5638.35
446.58	5781.12
446.77	5734.31
446.95	5500.26
447.14	5870.06
447.32	5940.28
447.51	5781.12
447.69	5762.40
447.88	5874.74
448.06	5774.10
448.25	5865.38
448.43	5930.92
448.62	5954.32
448.80	5823.25
448.99	5996.45
449.17	5909.85
449.36	5916.87
449.54	6078.37
449.73	6017.52
449.91	6078.37
450.10	6157.95
450.28	6265.61
450.46	6200.08
450.65	6328.81
450.83	6209.44
451.02	6155.61
451.20	6361.58
451.39	6345.19
451.57	6008.16
451.76	6204.76
451.94	6164.97
452.13	6312.42
452.31	6296.04
452.49	6197.74
452.68	6422.43
452.86	6415.41
453.05	6565.20
453.23	6431.79
453.42	6279.66
453.60	6202.42
453.78	6555.84
453.97	6286.68
454.15	6511.37
454.34	6579.25
454.52	6649.46
454.70	6530.09
454.89	6731.38
455.07	6686.91
455.26	6597.97
455.44	6789.89
455.62	6670.53
455.81	6628.40
455.99	6839.05
456.17	6848.41
456.36	6757.13
456.54	7049.69
456.73	6892.88
456.91	7201.83
457.09	7091.82
457.28	7143.32
457.46	6979.48
457.64	7119.91
457.83	7037.99
458.01	7000.54
458.19	7309.49
458.38	7131.61
458.56	7197.15
458.74	7370.35
458.93	7283.75
459.11	7410.14
459.29	7225.23
459.48	7339.92
459.66	7222.89
459.84	7428.86
460.03	7665.25
460.21	7527.16
460.39	7407.80
460.57	7536.52
460.76	7522.48
460.94	7478.01
461.12	7609.08
461.31	7632.49
461.49	7644.19
461.67	7562.27
461.85	7768.24
462.04	7627.81
462.22	8131.02
462.40	8011.65
462.59	7817.39
462.77	7859.52
462.95	7882.92
463.13	7691.00
463.32	7819.73
463.50	7885.26
463.68	7920.37
463.86	8004.63
464.05	7889.95
464.23	7950.80
464.41	8177.83
464.59	7747.17
464.78	8205.92
464.96	8173.15
465.14	7911.01
465.32	8156.77
465.50	8135.70
465.69	8299.54
465.87	8163.79
466.05	8407.20
466.23	8409.54
466.41	8142.72
466.60	8568.70
466.78	8271.45
466.96	8088.89
467.14	8205.92
467.32	8372.10
467.51	8606.15
467.69	8278.47
467.87	8423.59
468.05	8390.82
468.23	8369.76
468.41	8531.25
468.60	8585.08
468.78	8631.90
468.96	8573.38
469.14	8601.47
469.32	8557.00
469.50	8573.38
469.69	8718.50
469.87	8681.05
470.05	8774.67
470.23	8919.78
470.41	8781.69
470.59	8994.68
470.77	8917.44
470.95	8894.04
471.14	9064.89
471.32	8643.60
471.50	9198.31
471.68	9088.30
471.86	9188.94
472.04	9312.99
472.22	9472.15
472.40	9167.88
472.58	9298.95
472.77	9432.36
472.95	9411.29
473.13	9624.28
473.31	9420.66
473.49	9537.68
473.67	9607.90
473.85	9537.68
474.03	9682.80
474.21	10068.98
474.39	10050.26
474.57	10031.54
474.75	10087.71
474.93	10045.58
475.12	9905.15
475.30	10162.61
475.48	10010.47
475.66	10281.97
475.84	10457.51
476.02	10132.18
476.20	10326.44
476.38	10504.32
476.56	10731.36
476.74	10602.63
476.92	10787.53
477.10	10548.79
477.28	10888.17
477.46	10803.91
477.64	10913.92
477.82	11023.92
478.00	11419.47
478.18	11152.65
478.36	11456.92
478.54	11508.41
478.72	11311.81
478.90	11808.00
479.08	11784.60
479.26	11831.41
479.44	11742.47
479.62	11789.28
479.80	11964.82
479.98	11955.46
480.16	12580.38
480.34	12166.10
480.52	12339.30
480.70	12229.30
480.88	12215.26
481.06	12578.04
481.24	12491.44
481.41	12465.69
481.59	12819.11
481.77	13018.06
481.95	12919.76
482.13	13146.79
482.31	13001.68
482.49	13451.06
482.67	13312.97
482.85	13577.45
483.03	13846.61
483.21	13813.84
483.39	13783.41
483.57	13799.80
483.74	14024.49
483.92	14324.08
484.10	14129.81
484.28	14277.27
484.46	14661.12
484.64	14995.81
484.82	14743.03
485.00	14874.10
485.18	15023.90
485.35	15218.16
485.53	15379.66
485.71	15494.35
485.89	15461.58
486.07	15576.27
486.25	15506.05
486.43	15569.24
486.61	15714.36
486.78	15925.00
486.96	16393.11
487.14	16383.75
487.32	16554.61
487.50	16341.62
487.68	16683.34
487.85	16807.39
488.03	16725.47
488.21	17144.42
488.39	17338.69
488.57	17528.27
488.75	17371.46
488.92	17383.16
489.10	17715.51
489.28	17771.69
489.46	18090.00
489.64	18092.34
489.81	18380.23
489.99	18288.95
490.17	18279.58
490.35	18511.30
490.53	18595.56
490.70	18633.00
490.88	18792.16
491.06	19007.49
491.24	19302.40
491.41	19374.95
491.59	19599.65
491.77	19215.80
491.95	19651.14
492.13	19613.69
492.30	19997.54
492.48	19711.99
492.66	19824.34
492.84	20140.31
493.01	20397.77
493.19	20510.11
493.37	20666.93
493.54	20924.39
493.72	20943.11
493.90	20732.47
494.08	21207.59
494.25	21256.75
494.43	21511.86
494.61	21472.07
494.79	21516.54
494.96	21413.56
495.14	21884.01
495.32	22040.82
495.49	22139.13
495.67	22038.48
495.85	22286.58
496.02	22324.03
496.20	22391.91
496.38	22668.09
496.55	22731.28
496.73	22958.31
496.91	22785.12
497.09	23215.77
497.26	23019.17
497.44	23199.39
497.62	23536.43
497.79	23662.82
497.97	23484.94
498.14	23529.41
498.32	24360.30
498.50	23690.90
498.67	24247.95
498.85	23981.13
499.03	24332.21
499.20	24830.74
499.38	24425.83
499.56	24779.25
499.73	24510.09
499.91	25003.94
500.08	24886.92
500.26	24608.39
500.44	25043.73
500.61	25041.39
500.79	24893.94
500.97	25184.16
501.14	25869.94
501.32	25535.24
501.49	25317.57
501.67	25778.66
501.84	25933.14
502.02	25579.71
502.20	26167.19
502.37	25881.64
502.55	26239.75
502.72	26129.74
502.90	26305.28
503.07	26113.36
503.25	26363.79
503.43	26064.21
503.60	26663.38
503.78	26536.99
503.95	26642.32
504.13	26780.41
504.30	26984.04
504.48	27049.57
504.65	27215.75
504.83	27267.24
505.01	27199.37
505.18	27798.54
505.36	27470.87
505.53	27248.52
505.71	27517.68
505.88	27611.30
506.06	27447.46
506.23	27754.07
506.41	27835.99
506.58	28004.51
506.76	27955.36
506.93	28264.31
507.11	28243.24
507.28	28203.46
507.46	28664.54
507.63	28762.84
507.81	28863.49
507.98	28489.00
508.16	28903.28
508.33	28987.53
508.50	29050.73
508.68	28840.08
508.85	29411.17
509.03	28982.85
509.20	29340.96
509.38	29408.83
509.55	29776.30
509.73	29422.87
509.90	29851.19
510.08	30096.95
510.25	29982.26
510.42	29858.21
510.60	30073.54
510.77	30338.02
510.95	30270.15
511.12	30239.72
511.30	30064.18
511.47	30225.68
511.64	30754.64
511.82	30621.23
511.99	30625.91
512.17	30817.83
512.34	31285.94
512.51	30892.73
512.69	31615.96
512.86	31321.05
513.04	31721.28
513.21	31278.92
513.38	31138.49
513.56	31152.53
513.73	31101.04
513.90	31578.51
514.08	31838.31
514.25	31821.92
514.43	31852.35
514.60	31852.35
514.77	32243.22
514.95	32041.93
515.12	31903.84
515.29	32086.40
515.47	32456.21
515.64	32823.67
515.81	32037.25
515.99	32507.70
516.16	32582.60
516.33	32500.68
516.51	32797.93
516.68	33034.32
516.85	32856.44
517.03	33242.63
517.20	33230.93
517.37	33191.14
517.54	33193.48
517.72	33282.42
517.89	32987.51
518.06	33340.93
518.24	33125.60
518.41	33235.61
518.58	33387.74
518.75	33436.89
518.93	33610.09
519.10	33755.21
519.27	33591.37
519.45	33956.49
519.62	34057.14
519.79	33776.27
519.96	33968.19
520.14	33928.41
520.31	34279.49
520.48	34448.00
520.65	34314.59
520.83	34190.55
521.00	34473.75
521.17	34644.61
521.34	34878.66
521.52	34621.20
521.69	34848.24
521.86	34836.53
522.03	35299.96
522.20	35676.79
522.38	35597.21
522.55	35119.74
522.72	35384.22
522.89	35019.10
523.07	35697.85
523.24	35608.91
523.41	36013.82
523.58	35775.09
523.75	35669.76
523.92	35651.04
524.10	36292.35
524.27	36048.93
524.44	36079.36
524.61	36229.15
524.78	36212.77
524.96	36226.81
525.13	36217.45
525.30	36264.26
525.47	36526.40
525.64	36404.69
525.81	36741.73
525.98	36788.54
526.16	36643.43
526.33	36594.28
526.50	37069.40
526.67	37069.40
526.84	37095.15
527.01	37296.44
527.18	37067.06
527.36	37088.13
527.53	37373.67
527.70	37439.21
527.87	37717.73
528.04	37266.01
528.21	37532.83
528.38	37287.07
528.55	37731.78
528.72	37553.90
528.89	37551.56
529.07	37130.26
529.24	37652.20
529.41	37759.86
529.58	37413.46
529.75	37851.14
529.92	37979.87
530.09	38019.66
530.26	38211.59
530.43	38335.63
530.60	37797.31
530.77	38068.81
530.94	38284.14
531.11	38213.93
531.28	38368.40
531.46	38471.39
531.63	38562.67
531.80	38756.93
531.97	38700.76
532.14	38838.85
532.31	38597.77
532.48	38880.98
532.65	39105.67
532.82	38878.64
532.99	38932.47
533.16	39304.62
533.33	39302.28
533.50	39152.48
533.67	39133.76
533.84	38925.45
534.01	39363.13
534.18	39084.61
534.35	39552.71
534.52	39229.72
534.69	39718.89
534.86	39775.06
535.03	39461.43
535.20	39498.88
535.37	39704.85
535.54	39807.83
535.71	39880.39
535.88	39936.56
536.05	39754.00
536.22	39978.69
536.38	40215.08
536.55	39976.35
536.72	39938.90
536.89	40322.75
537.06	40170.61
537.23	40575.53
537.40	40179.98
537.57	40144.87
537.74	40341.47
537.91	40327.43
538.08	40371.90
538.25	40741.71
538.42	40472.54
538.59	40910.22
538.75	40783.83
538.92	40737.02
539.09	40744.05
539.26	41361.95
539.43	40779.15
539.60	41263.64
539.77	40739.36
539.94	41312.80
540.11	41642.81
540.28	41254.28
540.44	41394.71
540.61	40636.38
540.78	41053.00
540.95	41191.09
541.12	41401.74
541.29	41050.66
541.46	41572.60
541.62	41350.24
541.79	41567.91
541.96	41315.14
542.13	41366.63
542.30	41551.53
542.47	41579.62
542.63	41675.58
542.80	42094.53
542.97	42316.89
543.14	42232.63
543.31	42031.34
543.48	42040.70
543.64	42672.65
543.81	42665.63
543.98	42157.73
544.15	42288.80
544.32	42965.21
544.48	42918.40
544.65	42265.39
544.82	42974.58
544.99	42497.11
545.16	42796.70
545.32	42717.12
545.49	43161.82
545.66	43119.69
545.83	43079.90
546.00	43028.41
546.16	42920.74
546.33	43107.99
546.50	43005.00
546.67	43501.20
546.83	42642.22
547.00	42876.27
547.17	42532.22
547.34	42897.34
547.50	43332.68
547.67	43648.65
547.84	43330.34
548.00	43650.99
548.17	44009.09
548.34	44334.43
548.51	43627.59
548.67	43388.85
548.84	43491.83
549.01	43763.34
549.18	44004.41
549.34	44009.09
549.51	43618.22
549.68	44247.83
549.84	43885.04
550.01	44135.48
550.18	43608.86
550.34	43889.73
550.51	44102.71
550.68	44201.02
550.84	43707.16
551.01	44177.61
551.18	44158.89
551.34	44037.18
551.51	44114.42
551.68	44502.95
551.84	44116.76
552.01	43999.73
552.18	44556.78
552.34	44266.55
552.51	44364.85
552.68	43894.41
552.84	44271.23
553.01	44428.05
553.18	44748.70
553.34	44439.75
553.51	44706.57
553.67	44573.16
553.84	44692.53
554.01	44835.30
554.17	45212.13
554.34	45085.74
554.51	44776.79
554.67	44940.63
554.84	45071.70
555.00	45329.16
555.17	45062.33
555.33	45443.84
555.50	45160.64
555.67	45153.62
555.83	45457.88
556.00	45322.13
556.16	45804.28
556.33	45324.47
556.50	45137.23
556.66	45137.23
556.83	45432.14
556.99	45727.05
557.16	45464.91
557.32	45661.51
557.49	45750.45
557.65	45282.34
557.82	45724.71
557.98	45586.61
558.15	45640.45
558.32	45689.60
558.48	45216.81
558.65	45371.28
558.81	45521.08
558.98	45790.24
559.14	45490.65
559.31	45865.14
559.47	45518.74
559.64	45776.20
559.80	45797.26
559.97	46342.61
560.13	45617.04
560.30	45724.71
560.46	45972.80
560.63	46094.51
560.79	46569.64
560.96	46351.97
561.12	46260.69
561.29	46501.76
561.45	46136.64
561.61	46211.54
561.78	46028.98
561.94	45804.28
562.11	45888.54
562.27	46148.34
562.44	46012.59
562.60	46429.21
562.77	45942.38
562.93	46340.27
563.10	46354.31
563.26	46511.13
563.42	46684.33
563.59	46651.56
563.75	45736.41
563.92	46410.48
564.08	45855.78
564.24	46380.06
564.41	46019.61
564.57	46110.89
564.74	46232.60
564.90	46281.75
565.07	46656.24
565.23	46366.01
565.39	46202.18
565.56	46941.78
565.72	46494.74
565.88	46827.10
566.05	46698.37
566.21	46239.62
566.38	46597.73
566.54	46752.20
566.70	46707.73
566.87	46827.10
567.03	46548.57
567.19	46866.89
567.36	46852.84
567.52	46862.21
567.68	46902.00
567.85	46850.50
568.01	47070.51
568.17	46103.87
568.34	47068.17
568.50	46590.70
568.66	46815.40
568.83	46754.54
568.99	46267.71
569.15	46424.53
569.32	46766.24
569.48	46384.74
569.64	46923.06
569.81	47281.16
569.97	47290.52
570.13	47267.12
570.30	46808.37
570.46	47171.16
570.62	46923.06
570.78	46834.12
570.95	47360.74
571.11	47299.89
571.27	46564.96
571.43	46890.29
571.60	47356.06
571.76	46667.94
571.92	47044.77
572.09	46829.44
572.25	47398.19
572.41	47213.29
572.57	47531.60
572.74	47456.70
572.90	47154.77
573.06	47269.46
573.22	46972.21
573.38	47564.37
573.55	47276.48
573.71	47709.48
573.87	47562.03
574.03	47288.18
574.20	47517.56
574.36	47306.91
574.52	47374.78
574.68	47475.43
574.84	47791.40
575.01	47594.79
575.17	47569.05
575.33	47445.00
575.49	47255.42
575.65	47697.78
575.82	47625.22
575.98	47426.28
576.14	47730.54
576.30	47353.72
576.46	47473.09
576.62	47182.86
576.79	47393.51
576.95	47091.58
577.11	47412.23
577.27	47353.72
577.43	47662.67
577.59	47344.36
577.75	47239.03
577.92	47201.58
578.08	47760.97
578.24	47269.46
578.40	47452.02
578.56	47267.12
578.72	47702.46
578.88	47311.59
579.04	47683.73
579.21	47325.63
579.37	48144.82
579.53	47749.27
579.69	47618.20
579.85	47264.78
580.01	47683.73
580.17	47526.92
580.33	47463.72
580.49	47470.75
580.65	47632.24
580.82	47318.61
580.98	47105.62
581.14	47311.59
581.30	47613.52
581.46	47171.16
581.62	47210.95
581.78	47665.01
581.94	47657.99
582.10	47590.11
582.26	47901.40
582.42	47711.82
582.58	47812.46
582.74	48154.18
582.90	47889.70
583.06	48168.22
583.22	47421.59
583.38	48275.89
583.54	47714.16
583.70	47686.07
583.86	47845.23
584.02	47344.36
584.18	47908.43
584.34	48002.05
584.50	47920.13
584.66	47817.14
584.82	47957.58
584.98	47992.68
585.14	48222.06
585.30	47934.17
585.46	48016.09
585.62	47571.39
585.78	47906.08
585.94	47620.54
586.10	47636.92
586.26	48083.97
586.42	47381.80
586.58	48044.18
586.74	47620.54
586.90	47964.60
587.06	47913.11
587.22	47767.99
587.38	48039.50
587.54	48079.28
587.70	47955.24
587.86	47737.57
588.02	47625.22
588.18	48062.90
588.34	47838.21
588.49	47739.91
588.65	47515.22
588.81	47690.76
588.97	47969.28
589.13	48048.86
589.29	47739.91
589.45	47952.90
589.61	48163.54
589.77	48231.42
589.93	48268.87
