SpectraSuite Data File
++++++++++++++++++++++++++++++++++++
Date: Fri Oct 25 11:23:19 EDT 2013
User: price-jones
Dark Spectrum Present: No
Reference Spectrum Present: No
Number of Sampled Component Spectra: 1
Spectrometers: USB2+H05261
Integration Time (usec): 100000 (USB2+H05261)
Spectra Averaged: 1 (USB2+H05261)
Boxcar Smoothing: 0 (USB2+H05261)
Correct for Electrical Dark: No (USB2+H05261)
Strobe/Lamp Enabled: No (USB2+H05261)
Correct for Detector Non-linearity: No (USB2+H05261)
Correct for Stray Light: No (USB2+H05261)
Number of Pixels in Processed Spectrum: 2048
>>>>>Begin Processed Spectral Data<<<<<
365.73	203.63
365.92	203.63
366.12	203.63
366.32	107.66
366.52	95.96
366.72	142.77
366.91	140.43
367.11	70.22
367.31	30.43
367.51	95.96
367.70	135.75
367.90	117.03
368.10	133.41
368.30	166.18
368.49	159.16
368.69	191.92
368.89	180.22
369.09	152.13
369.28	147.45
369.48	138.09
369.68	224.69
369.87	187.24
370.07	229.37
370.27	229.37
370.47	376.83
370.66	526.62
370.86	587.47
371.06	650.67
371.25	730.25
371.45	608.54
371.65	706.84
371.84	660.03
372.04	613.22
372.24	702.16
372.44	798.12
372.63	725.57
372.83	746.63
373.03	720.88
373.22	741.95
373.42	763.01
373.62	748.97
373.81	774.72
374.01	847.27
374.21	784.08
374.40	837.91
374.60	844.93
374.79	826.21
374.99	807.48
375.19	765.36
375.38	854.30
375.58	835.57
375.78	863.66
375.97	880.04
376.17	919.83
376.37	805.14
376.56	849.61
376.76	966.64
376.95	919.83
377.15	947.92
377.35	847.27
377.54	992.39
377.74	912.81
377.93	877.70
378.13	856.64
378.33	943.24
378.52	889.40
378.72	917.49
378.91	924.51
379.11	952.60
379.31	926.85
379.50	917.49
379.70	901.11
379.89	842.59
380.09	1008.77
380.28	999.41
380.48	959.62
380.68	1008.77
380.87	1008.77
381.07	1086.01
381.26	1071.97
381.46	999.41
381.65	1015.79
381.85	1050.90
382.04	1032.18
382.24	1123.46
382.43	1095.37
382.63	1081.33
382.83	1039.20
383.02	1156.22
383.22	1074.31
383.41	1064.94
383.61	1095.37
383.80	1200.69
384.00	1116.44
384.19	1123.46
384.39	1114.10
384.58	1174.95
384.78	1114.10
384.97	1100.05
385.17	1086.01
385.36	1170.27
385.56	1153.88
385.75	1128.14
385.95	1254.53
386.14	1203.04
386.34	1163.25
386.53	1205.38
386.72	1231.12
386.92	1238.14
387.11	1242.82
387.31	1266.23
387.50	1172.61
387.70	1303.68
387.89	1277.93
388.09	1242.82
388.28	1334.11
388.48	1308.36
388.67	1341.13
388.86	1373.89
389.06	1352.83
389.25	1380.92
389.45	1383.26
389.64	1355.17
389.84	1345.81
390.03	1425.39
390.22	1387.94
390.42	1413.68
390.61	1434.75
390.81	1371.55
391.00	1453.47
391.19	1345.81
391.39	1441.77
391.58	1558.80
391.78	1469.86
391.97	1549.43
392.16	1547.09
392.36	1589.22
392.55	1497.94
392.75	1554.12
392.94	1476.88
393.13	1516.67
393.33	1544.75
393.52	1540.07
393.71	1619.65
393.91	1556.46
394.10	1586.88
394.29	1530.71
394.49	1605.61
394.68	1643.06
394.88	1598.59
395.07	1607.95
395.26	1629.01
395.46	1657.10
395.65	1813.92
395.84	1673.48
396.04	1851.36
396.23	1678.16
396.42	1743.70
396.62	1816.26
396.81	1753.06
397.00	1799.87
397.19	1928.60
397.39	1844.34
397.58	1863.07
397.77	1846.68
397.97	1930.94
398.16	1753.06
398.35	1851.36
398.55	1874.77
398.74	1933.28
398.93	1966.05
399.12	1888.81
399.32	1944.99
399.51	2031.58
399.70	2026.90
399.90	1984.77
400.09	2005.84
400.28	1891.15
400.47	2162.66
400.67	2033.93
400.86	2087.76
401.05	2087.76
401.24	2139.25
401.44	2146.27
401.63	2090.10
401.82	2113.50
402.01	2218.83
402.21	2256.28
402.40	2211.81
402.59	2204.78
402.78	2284.36
402.97	2366.28
403.17	2382.67
403.36	2277.34
403.55	2275.00
403.74	2450.54
403.93	2394.37
404.13	2354.58
404.32	2363.94
404.51	2382.67
404.70	2534.80
404.89	2464.58
405.09	2574.59
405.28	2539.48
405.47	2527.78
405.66	2513.74
405.85	2590.97
406.05	2668.21
406.24	2567.57
406.43	2623.74
406.62	2682.25
406.81	2773.53
407.00	2635.44
407.20	2658.85
407.39	2609.70
407.58	2693.96
407.77	2759.49
407.96	2820.35
408.15	2738.43
408.34	2722.04
408.54	2705.66
408.73	2717.36
408.92	2874.18
409.11	2801.62
409.30	2860.13
409.49	2841.41
409.68	3005.25
409.87	2878.86
410.07	3073.12
410.26	3061.42
410.45	3030.99
410.64	3035.67
410.83	3066.10
411.02	3108.23
411.21	3103.55
411.40	3164.40
411.59	3173.77
411.78	3159.72
411.98	3101.21
412.17	3220.58
412.36	3290.79
412.55	3435.91
412.74	3368.03
412.93	3389.10
413.12	3405.48
413.31	3459.31
413.50	3400.80
413.69	3480.38
413.88	3613.79
414.07	3646.55
414.26	3763.58
414.45	3632.51
414.64	3681.66
414.83	3808.05
415.02	3758.90
415.22	3836.14
415.41	3878.27
415.60	3857.20
415.79	3955.51
415.98	4011.68
416.17	3999.98
416.36	3950.82
416.55	3999.98
416.74	4081.89
416.93	4175.52
417.12	4215.30
417.31	4037.42
417.50	4140.41
417.69	4227.01
417.88	4376.80
418.07	4285.52
418.26	4498.51
418.45	4358.08
418.64	4568.73
418.83	4573.41
419.02	4440.00
419.21	4503.19
419.39	4402.55
419.58	4486.81
419.77	4496.17
419.96	4535.96
420.15	4606.17
420.34	4634.26
420.53	4608.51
420.72	4762.99
420.91	4734.90
421.10	4823.84
421.29	4720.86
421.48	4669.37
421.67	4823.84
421.86	5008.75
422.05	4990.02
422.24	4814.48
422.43	4791.08
422.61	4844.91
422.80	4891.72
422.99	4964.28
423.18	4915.12
423.37	5018.11
423.56	4842.57
423.75	4877.68
423.94	4973.64
424.13	4681.07
424.32	4777.03
424.50	5043.85
424.69	5123.43
424.88	5102.37
425.07	4868.31
425.26	4990.02
425.45	4922.15
425.64	4954.91
425.83	4997.04
426.01	5060.24
426.20	5373.87
426.39	5102.37
426.58	5088.32
426.77	5123.43
426.96	5195.99
427.15	5430.04
427.33	5401.96
427.52	5210.03
427.71	5345.78
427.90	5167.90
428.09	5434.72
428.28	5406.64
428.46	5554.09
428.65	5408.98
428.84	5537.71
429.03	5516.64
429.22	5359.83
429.40	5568.13
429.59	5523.66
429.78	5425.36
429.97	5362.17
430.16	5540.05
430.34	5624.31
430.53	5502.60
430.72	5734.31
430.91	5720.27
431.10	5760.06
431.28	5746.02
431.47	5888.79
431.66	5849.00
431.85	5715.59
432.03	5947.30
432.22	6029.22
432.41	5851.34
432.60	6069.01
432.79	5865.38
432.97	5898.15
433.16	5998.79
433.35	5984.75
433.54	6026.88
433.72	6253.91
433.91	6094.76
434.10	6160.29
434.28	6118.16
434.47	6200.08
434.66	6326.47
434.85	6324.13
435.03	6352.21
435.22	6342.85
435.41	6490.31
435.59	6476.26
435.78	6530.09
435.97	6403.71
436.16	6586.27
436.34	6429.45
436.53	6586.27
436.72	6722.02
436.90	6534.78
437.09	6612.01
437.28	6572.22
437.46	6494.99
437.65	6544.14
437.84	6848.41
438.02	6878.83
438.21	6705.63
438.40	6588.61
438.58	7033.31
438.77	7045.01
438.96	7082.46
439.14	7227.57
439.33	7112.89
439.52	7414.82
439.70	7295.45
439.89	7487.37
440.08	7499.08
440.26	7571.63
440.45	7391.41
440.63	7393.75
440.82	7756.54
441.01	7602.06
441.19	7768.24
441.38	7824.41
441.57	7878.24
441.75	7864.20
441.94	8079.53
442.12	7962.50
442.31	7992.93
442.50	8276.13
442.68	8124.00
442.87	7918.03
443.05	8210.60
443.24	8432.95
443.43	8269.11
443.61	8229.32
443.80	8266.77
443.98	8159.11
444.17	7843.14
444.35	8484.44
444.54	8365.07
444.73	8280.82
444.91	8484.44
445.10	8344.01
445.28	8313.58
445.47	8411.89
445.65	8416.57
445.84	8505.51
446.02	8624.87
446.21	8390.82
446.39	8561.68
446.58	8713.81
446.77	8636.58
446.95	8432.95
447.14	8369.76
447.32	8702.11
447.51	8592.11
447.69	8486.78
447.88	8842.54
448.06	8533.59
448.25	8564.02
448.43	8739.56
448.62	8734.88
448.80	8704.45
448.99	8769.99
449.17	8739.56
449.36	8566.36
449.54	8849.57
449.73	8971.27
449.91	9142.13
450.10	9029.79
450.28	9224.05
450.46	9104.68
450.65	9160.86
450.83	9357.46
451.02	9125.75
451.20	9266.18
451.39	9174.90
451.57	9207.67
451.76	9294.27
451.94	9310.65
452.13	9336.40
452.31	9282.56
452.49	9275.54
452.68	9390.23
452.86	9621.94
453.05	9490.87
453.23	9666.41
453.42	9397.25
453.60	9614.92
453.78	9603.22
453.97	9427.68
454.15	9570.45
454.34	9530.66
454.52	9802.16
454.70	9687.48
454.89	9886.42
455.07	9809.19
455.26	9856.00
455.44	10005.79
455.62	10029.20
455.81	10026.86
455.99	10001.11
456.17	10026.86
456.36	9966.00
456.54	10459.85
456.73	10312.40
456.91	10630.71
457.09	10340.49
457.28	10492.62
457.46	10518.37
457.64	10574.54
457.83	10443.47
458.01	10328.78
458.19	10988.82
458.38	10691.57
458.56	10691.57
458.74	10911.58
458.93	10733.70
459.11	10698.59
459.29	10752.42
459.48	10984.13
459.66	10927.96
459.84	10977.11
460.03	11227.55
460.21	11124.57
460.39	11052.01
460.57	11147.97
460.76	11325.85
460.94	11171.38
461.12	11213.51
461.31	11302.45
461.49	11389.05
461.67	11337.56
461.85	11515.44
462.04	11524.80
462.22	11719.06
462.40	11562.25
462.59	11637.14
462.77	11580.97
462.95	11754.17
463.13	11665.23
463.32	11686.29
463.50	12063.12
463.68	11819.71
463.86	11946.09
464.05	11782.26
464.23	11616.08
464.41	11943.75
464.59	11751.83
464.78	12257.39
464.96	11922.69
465.14	12095.89
465.32	12259.73
465.50	12100.57
465.69	12430.59
465.87	12334.62
466.05	11988.22
466.23	12329.94
466.41	12510.16
466.60	12566.34
466.78	12348.67
466.96	12376.75
467.14	12231.64
467.32	12629.53
467.51	12676.34
467.69	12140.36
467.87	12641.23
468.05	12851.88
468.23	12645.91
468.41	12758.26
468.60	12784.01
468.78	12828.48
468.96	12540.59
469.14	13011.04
469.32	12851.88
469.50	12903.37
469.69	12994.65
469.87	13214.66
470.05	13235.73
470.23	13343.39
470.41	13490.85
470.59	13586.81
470.77	13500.21
470.95	13535.32
471.14	13535.32
471.32	13224.03
471.50	13872.36
471.68	13612.56
471.86	13858.31
472.04	13664.05
472.22	14242.16
472.40	13764.69
472.58	13914.48
472.77	14209.39
472.95	14164.92
473.13	14588.56
473.31	14193.01
473.49	14403.66
473.67	14438.76
473.85	14394.29
474.03	14572.18
474.21	14700.90
474.39	14874.10
474.57	14850.70
474.75	14937.30
474.93	15267.31
475.12	15260.29
475.30	15246.25
475.48	15016.88
475.66	15307.10
475.84	15194.76
476.02	15709.68
476.20	15704.99
476.38	16086.50
476.56	16070.12
476.74	16152.04
476.92	15768.19
477.10	15943.73
477.28	16238.64
477.46	16306.51
477.64	16629.51
477.82	16407.16
478.00	17041.44
478.18	16753.55
478.36	17149.11
478.54	17352.73
478.72	17280.18
478.90	17343.37
479.08	17661.68
479.26	17713.17
479.44	17895.74
479.62	18228.09
479.80	18284.26
479.98	18279.58
480.16	18899.83
480.34	18457.46
480.52	18719.60
480.70	18593.22
480.88	18860.04
481.06	18909.19
481.24	19241.54
481.41	19527.09
481.59	19484.96
481.77	19709.65
481.95	19707.31
482.13	19756.46
482.31	19740.08
482.49	20500.75
482.67	20287.76
482.85	20664.59
483.03	20727.78
483.21	20929.07
483.39	21305.90
483.57	21149.08
483.74	21212.28
483.92	21750.60
484.10	21446.33
484.28	21827.84
484.46	22258.49
484.64	22354.46
484.82	22026.78
485.00	22525.32
485.18	22792.14
485.35	23257.90
485.53	23271.95
485.71	23108.11
485.89	24020.92
486.07	23571.54
486.25	23924.96
486.43	23754.10
486.61	24175.39
486.78	24093.47
486.96	24196.46
487.14	24732.44
487.32	24704.35
487.50	25085.86
487.68	24945.43
487.85	25249.70
488.03	25874.62
488.21	26064.21
488.39	25926.11
488.57	26316.98
488.75	26658.70
488.92	26642.32
489.10	27133.83
489.28	26871.69
489.46	27410.01
489.64	27187.66
489.81	27733.01
489.99	27953.02
490.17	27929.61
490.35	28666.88
490.53	28493.68
490.70	28760.50
490.88	28311.12
491.06	29209.89
491.24	29010.94
491.41	29457.98
491.59	29603.10
491.77	29139.67
491.95	29970.56
492.13	29977.58
492.30	30546.33
492.48	30560.37
492.66	30508.88
492.84	30761.66
493.01	31051.89
493.19	30934.86
493.37	31672.13
493.54	31325.73
493.72	31960.02
493.90	31910.86
494.08	31978.74
494.25	32271.31
494.43	32622.39
494.61	32395.35
494.79	32842.40
494.96	32790.91
495.14	33439.23
495.32	33432.21
495.49	33675.63
495.67	33198.16
495.85	33778.61
496.02	33998.62
496.20	34314.59
496.38	34319.28
496.55	34492.47
496.73	35344.43
496.91	35051.86
497.09	34920.79
497.26	35419.33
497.44	34965.26
497.62	35405.28
497.79	36278.30
497.97	35927.22
498.14	36451.50
498.32	36435.12
498.50	36088.72
498.67	37338.57
498.85	36713.64
499.03	36825.99
499.20	37127.92
499.38	37394.74
499.56	37495.38
499.73	37432.19
499.91	37642.84
500.08	37460.27
500.26	38059.45
500.44	38003.28
500.61	38199.88
500.79	37797.31
500.97	38522.88
501.14	39007.37
501.32	39278.87
501.49	38876.30
501.67	39126.74
501.84	39409.94
502.02	39583.14
502.20	39496.54
502.37	40095.72
502.55	39924.86
502.72	39416.96
502.90	40123.80
503.07	39978.69
503.25	40294.66
503.43	40194.02
503.60	40086.36
503.78	40402.33
503.95	40641.06
504.13	40823.62
504.30	40701.92
504.48	40837.67
504.65	40999.16
504.83	41483.66
505.01	41523.44
505.18	40968.74
505.36	41965.81
505.53	41823.03
505.71	41916.65
505.88	42078.15
506.06	41858.14
506.23	42658.60
506.41	41918.99
506.58	42445.62
506.76	42462.00
506.93	43189.91
507.11	42941.81
507.28	43257.78
507.46	43250.76
507.63	43435.66
507.81	43297.57
507.98	43189.91
508.16	43456.73
508.33	43686.10
508.50	44414.01
508.68	43737.59
508.85	44243.15
509.03	44147.18
509.20	44554.44
509.38	44397.62
509.55	44194.00
509.73	44971.05
509.90	45085.74
510.08	45237.87
510.25	44851.69
510.42	45052.97
510.60	45481.29
510.77	45631.08
510.95	45865.14
511.12	45450.86
511.30	46087.49
511.47	46277.07
511.64	45741.09
511.82	45993.87
511.99	45996.21
512.17	46375.37
512.34	45759.81
512.51	47014.34
512.69	47051.79
512.86	46894.97
513.04	46820.08
513.21	46967.53
513.38	47391.17
513.56	47285.84
513.73	47295.21
513.90	47210.95
514.08	47344.36
514.25	47772.67
514.43	47941.19
514.60	47599.47
514.77	47880.34
514.95	48200.99
515.12	48109.71
515.29	47693.10
515.47	48367.17
515.64	48641.01
515.81	48252.48
515.99	48858.68
516.16	48872.73
516.33	48554.41
516.51	49017.84
516.68	48561.44
516.85	49326.79
517.03	49148.91
517.20	49556.16
517.37	49277.64
517.54	49247.21
517.72	49050.61
517.89	49411.05
518.06	49371.26
518.24	49514.03
518.41	49581.91
518.58	49743.41
518.75	49631.06
518.93	50270.03
519.10	50033.63
519.27	50117.89
519.45	50019.59
519.62	50478.33
519.79	49996.18
519.96	50248.96
520.14	50277.05
520.31	50515.78
520.48	50686.64
520.65	50389.39
520.83	51269.43
521.00	50960.48
521.17	50845.80
521.34	51206.24
521.52	51271.78
521.69	51121.98
521.86	51386.46
522.03	51353.69
522.20	51587.75
522.38	51679.03
522.55	51676.69
522.72	51667.33
522.89	51852.23
523.07	51601.79
523.24	51995.00
523.41	52133.09
523.58	51770.31
523.75	51957.55
523.92	52315.65
524.10	52484.17
524.27	52341.40
524.44	52397.57
524.61	52428.00
524.78	52341.40
524.96	52369.49
525.13	52404.59
525.30	52776.74
525.47	53062.29
525.64	52720.57
525.81	52985.05
525.98	52804.83
526.16	52615.24
526.33	53036.54
526.50	53839.34
526.67	53188.67
526.84	53106.76
527.01	53146.54
527.18	53078.67
527.36	53174.63
527.53	53598.27
527.70	53666.14
527.87	53619.33
528.04	53380.60
528.21	53717.64
528.38	53584.22
528.55	53984.46
528.72	53804.24
528.89	53752.74
529.07	53923.60
529.24	53801.89
529.41	54028.93
529.58	53886.15
529.75	54035.95
529.92	54204.47
530.09	54209.15
530.26	54234.89
530.43	54387.03
530.60	53907.22
530.77	54113.19
530.94	54017.22
531.11	54424.48
531.28	54368.30
531.46	54330.86
531.63	54494.69
531.80	54621.08
531.97	54555.55
532.14	55056.42
532.31	54773.22
532.48	54829.39
532.65	55126.64
532.82	54749.81
532.99	54955.78
533.16	54883.22
533.33	55213.24
533.50	55250.69
533.67	54918.33
533.84	54813.01
534.01	54885.56
534.18	55246.00
534.35	55550.27
534.52	55470.70
534.69	55381.76
534.86	55419.20
535.03	55334.95
535.20	55774.97
535.37	55494.10
535.54	55756.24
535.71	55576.02
535.88	55634.53
536.05	55882.63
536.22	55854.54
536.38	55976.25
536.55	55842.84
536.72	55763.26
536.89	56018.38
537.06	56002.00
537.23	56210.31
537.40	55838.16
537.57	56191.58
537.74	55847.52
537.91	56467.76
538.08	56198.60
538.25	55959.87
538.42	56217.33
538.59	56212.65
538.75	56027.74
538.92	56418.61
539.09	56439.68
539.26	56343.72
539.43	56250.09
539.60	56446.70
539.77	56378.82
539.94	56769.69
540.11	56495.85
540.28	56835.23
540.44	56659.69
540.61	56619.90
540.78	56458.40
540.95	56942.89
541.12	56418.61
541.29	56865.66
541.46	56732.25
541.62	56952.26
541.79	56743.95
541.96	56640.96
542.13	56788.42
542.30	56882.04
542.47	57095.03
542.63	57146.52
542.80	56954.60
542.97	57214.40
543.14	57628.67
543.31	57535.05
543.48	57411.00
543.64	57750.38
543.81	57551.43
543.98	57460.15
544.15	57443.77
544.32	57836.98
544.48	57881.45
544.65	57729.31
544.82	57680.16
544.99	57439.09
545.16	57661.44
545.32	57506.96
545.49	58103.80
545.66	58024.22
545.83	57715.27
546.00	58195.08
546.16	57939.96
546.33	57888.47
546.50	57748.04
546.67	57939.96
546.83	57609.95
547.00	58099.12
547.17	58047.63
547.34	58099.12
547.50	58211.46
547.67	58265.30
547.84	58277.00
548.00	58342.53
548.17	58323.81
548.34	58251.25
548.51	58649.14
548.67	58513.39
548.84	58417.43
549.01	58347.21
549.18	58309.77
549.34	58492.33
549.51	58513.39
549.68	58595.31
549.84	58794.26
550.01	58700.64
550.18	58410.41
550.34	58679.57
550.51	58820.00
550.68	58663.19
550.84	58457.22
551.01	58850.43
551.18	58791.92
551.34	58784.90
551.51	58721.70
551.68	58993.20
551.84	58838.73
552.01	58583.61
552.18	58904.26
552.34	58913.62
552.51	59187.47
552.68	58710.00
552.84	58911.28
553.01	59075.12
553.18	58911.28
553.34	59171.08
553.51	58974.48
553.67	59063.42
553.84	59318.54
554.01	59185.13
554.17	59121.93
554.34	59150.02
554.51	59297.47
554.67	59292.79
554.84	59248.32
555.00	59063.42
555.17	59178.10
555.33	59334.92
555.50	59224.92
555.67	59339.60
555.83	59423.86
556.00	59484.72
556.16	59604.08
556.33	59297.47
556.50	59606.42
556.66	59505.78
556.83	59419.18
556.99	59561.95
557.16	59700.04
557.32	60048.78
557.49	59765.58
557.65	59508.12
557.82	59620.47
557.98	59646.21
558.15	59690.68
558.32	59725.79
558.48	59634.51
558.65	59924.74
558.81	59690.68
558.98	59910.69
559.14	59845.16
559.31	59877.93
559.47	60037.08
559.64	60130.70
559.80	59938.78
559.97	60009.00
560.13	59913.03
560.30	59803.03
560.46	60004.31
560.63	59969.21
560.79	59840.48
560.96	60006.65
561.12	59959.84
561.29	60142.41
561.45	60067.51
561.61	59978.57
561.78	60081.55
561.94	60016.02
562.11	60046.44
562.27	60165.81
562.44	60116.66
562.60	60275.82
562.77	60210.28
562.93	59985.59
563.10	60250.07
563.26	60189.22
563.42	60346.03
563.59	60231.35
563.75	60245.39
563.92	60275.82
564.08	60229.01
564.24	60308.58
564.41	60388.16
564.57	60226.66
564.74	60355.39
564.90	60399.86
565.07	60214.96
565.23	60427.95
565.39	60383.48
565.56	60294.54
565.72	60350.71
565.88	60257.09
566.05	60229.01
566.21	60315.61
566.38	60413.91
566.54	60458.38
566.70	60669.03
566.87	60685.41
567.03	60416.25
567.19	60652.64
567.36	60500.51
567.52	60306.24
567.68	60722.86
567.85	60549.66
568.01	60722.86
568.17	60683.07
568.34	60645.62
568.50	60636.26
568.66	60589.45
568.83	60652.64
568.99	60364.76
569.15	60650.30
569.32	60594.13
569.48	60540.30
569.64	60690.09
569.81	60711.16
569.97	60486.46
570.13	60708.82
570.30	60383.48
570.46	60743.92
570.62	60952.23
570.78	60807.12
570.95	60769.67
571.11	60977.98
571.27	60769.67
571.43	60619.88
571.60	60814.14
571.76	60830.52
571.92	60931.17
572.09	60837.54
572.25	60994.36
572.41	60809.46
572.57	60924.14
572.74	61048.19
572.90	60867.97
573.06	61080.96
573.22	60800.10
573.38	60961.59
573.55	60940.53
573.71	60938.19
573.87	61022.45
574.03	60800.10
574.20	60739.24
574.36	60783.71
574.52	60999.04
574.68	61195.65
574.84	60968.61
575.01	60996.70
575.17	60889.04
575.33	60739.24
575.49	60741.58
575.65	61055.21
575.82	60994.36
575.98	61099.68
576.14	61307.99
576.30	61031.81
576.46	61087.98
576.62	60896.06
576.79	61045.85
576.95	60729.88
577.11	61055.21
577.27	60935.85
577.43	61113.73
577.59	61050.53
577.75	61031.81
577.92	60982.66
578.08	61013.08
578.24	61050.53
578.40	61153.52
578.56	61190.97
578.72	61139.47
578.88	61277.57
579.04	61226.07
579.21	61132.45
579.37	61242.46
579.53	61413.32
579.69	61022.45
579.85	60989.68
580.01	61038.83
580.17	60977.98
580.33	61123.09
580.49	61352.46
580.65	61270.54
580.82	61041.17
580.98	61102.03
581.14	60996.70
581.30	61165.22
581.46	61181.60
581.62	61158.20
581.78	61169.90
581.94	60963.93
582.10	61265.86
582.26	61123.09
582.42	61228.41
582.58	61219.05
582.74	61188.63
582.90	61062.24
583.06	61205.01
583.22	60931.17
583.38	61139.47
583.54	61389.91
583.70	61052.87
583.86	61275.22
584.02	61113.73
584.18	61226.07
584.34	61083.30
584.50	61179.26
584.66	61141.81
584.82	60804.78
584.98	61240.12
585.14	61420.34
585.30	61041.17
585.46	61284.59
585.62	61289.27
585.78	61476.51
585.94	61212.03
586.10	61331.40
586.26	61352.46
586.42	61291.61
586.58	61319.70
586.74	61385.23
586.90	61207.35
587.06	61181.60
587.22	61394.59
587.38	61387.57
587.54	61261.18
587.70	61324.38
587.86	61371.19
588.02	61270.54
588.18	61525.66
588.34	61240.12
588.49	61289.27
