SpectraSuite Data File
++++++++++++++++++++++++++++++++++++
Date: Fri Oct 25 11:23:23 EDT 2013
User: price-jones
Dark Spectrum Present: No
Reference Spectrum Present: No
Number of Sampled Component Spectra: 1
Spectrometers: USB2+H05261
Integration Time (usec): 100000 (USB2+H05261)
Spectra Averaged: 1 (USB2+H05261)
Boxcar Smoothing: 0 (USB2+H05261)
Correct for Electrical Dark: No (USB2+H05261)
Strobe/Lamp Enabled: No (USB2+H05261)
Correct for Detector Non-linearity: No (USB2+H05261)
Correct for Stray Light: No (USB2+H05261)
Number of Pixels in Processed Spectrum: 2048
>>>>>Begin Processed Spectral Data<<<<<
365.73	217.67
365.92	217.67
366.12	217.67
366.32	124.05
366.52	149.79
366.72	51.49
366.91	81.92
367.11	107.66
367.31	107.66
367.51	156.82
367.70	128.73
367.90	166.18
368.10	81.92
368.30	124.05
368.49	135.75
368.69	196.60
368.89	145.11
369.09	154.48
369.28	114.69
369.48	161.50
369.68	133.41
369.87	187.24
370.07	205.97
370.27	182.56
370.47	330.02
370.66	519.60
370.86	662.37
371.06	643.65
371.25	709.18
371.45	697.48
371.65	711.52
371.84	653.01
372.04	744.29
372.24	620.24
372.44	732.59
372.63	730.25
372.83	795.78
373.03	753.65
373.22	709.18
373.42	748.97
373.62	739.61
373.81	779.40
374.01	809.83
374.21	767.70
374.40	725.57
374.60	777.06
374.79	837.91
374.99	858.98
375.19	798.12
375.38	847.27
375.58	798.12
375.78	882.38
375.97	999.41
376.17	952.60
376.37	870.68
376.56	905.79
376.76	800.46
376.95	844.93
377.15	816.85
377.35	905.79
377.54	926.85
377.74	905.79
377.93	922.17
378.13	952.60
378.33	945.58
378.52	926.85
378.72	1067.28
378.91	968.98
379.11	929.19
379.31	1034.52
379.50	858.98
379.70	943.24
379.89	964.30
380.09	980.68
380.28	943.24
380.48	940.90
380.68	1043.88
380.87	1013.45
381.07	1001.75
381.26	1118.78
381.46	980.68
381.65	1039.20
381.85	1048.56
382.04	1036.86
382.24	968.98
382.43	1088.35
382.63	1006.43
382.83	1039.20
383.02	1172.61
383.22	1128.14
383.41	1160.91
383.61	1006.43
383.80	1153.88
384.00	1121.12
384.19	1055.58
384.39	1125.80
384.58	1041.54
384.78	1151.54
384.97	1270.91
385.17	1102.39
385.36	1205.38
385.56	1151.54
385.75	1074.31
385.95	1235.80
386.14	1174.95
386.34	1193.67
386.53	1252.19
386.72	1212.40
386.92	1317.72
387.11	1273.25
387.31	1259.21
387.50	1165.59
387.70	1254.53
387.89	1263.89
388.09	1294.32
388.28	1273.25
388.48	1242.82
388.67	1406.66
388.86	1425.39
389.06	1306.02
389.25	1327.08
389.45	1299.00
389.64	1397.30
389.84	1366.87
390.03	1352.83
390.22	1406.66
390.42	1348.15
390.61	1376.24
390.81	1418.36
391.00	1331.76
391.19	1486.24
391.39	1472.20
391.58	1357.51
391.78	1497.94
391.97	1519.01
392.16	1509.65
392.36	1565.82
392.55	1535.39
392.75	1523.69
392.94	1554.12
393.13	1500.28
393.33	1551.78
393.52	1495.60
393.71	1577.52
393.91	1584.54
394.10	1572.84
394.29	1533.05
394.49	1537.73
394.68	1614.97
394.88	1636.03
395.07	1682.85
395.26	1657.10
395.46	1685.19
395.65	1610.29
395.84	1736.68
396.04	1760.08
396.23	1680.50
396.42	1804.55
396.62	1797.53
396.81	1755.40
397.00	1743.70
397.19	1846.68
397.39	1858.39
397.58	1788.17
397.77	1891.15
397.97	1834.98
398.16	1844.34
398.35	1832.64
398.55	1823.28
398.74	1895.83
398.93	1919.24
399.12	1867.75
399.32	1991.80
399.51	1928.60
399.70	1963.71
399.90	2024.56
400.09	2066.69
400.28	2104.14
400.47	2092.44
400.67	2005.84
400.86	2090.10
401.05	2022.22
401.24	2134.57
401.44	2066.69
401.63	2207.13
401.82	2129.89
402.01	2094.78
402.21	2202.44
402.40	2200.10
402.59	2260.96
402.78	2258.62
402.97	2200.10
403.17	2312.45
403.36	2216.49
403.55	2179.04
403.74	2333.51
403.93	2249.25
404.13	2370.96
404.32	2352.24
404.51	2368.62
404.70	2385.01
404.89	2256.28
405.09	2455.22
405.28	2555.86
405.47	2438.84
405.66	2499.69
405.85	2511.39
406.05	2478.63
406.24	2567.57
406.43	2562.89
406.62	2710.34
406.81	2705.66
407.00	2544.16
407.20	2637.78
407.39	2656.51
407.58	2757.15
407.77	2586.29
407.96	2647.15
408.15	2700.98
408.34	2724.38
408.54	2731.41
408.73	2808.64
408.92	2789.92
409.11	2904.60
409.30	2785.24
409.49	2862.48
409.68	2953.76
409.87	2857.79
410.07	3014.61
410.26	2984.18
410.45	2946.73
410.64	3101.21
410.83	3047.38
411.02	3021.63
411.21	3206.53
411.40	3159.72
411.59	3318.88
411.78	3255.69
411.98	3117.59
412.17	3286.11
412.36	3300.16
412.55	3304.84
412.74	3346.97
412.93	3438.25
413.12	3389.10
413.31	3562.30
413.50	3478.04
413.69	3555.27
413.88	3648.90
414.07	3445.27
414.26	3602.08
414.45	3721.45
414.64	3655.92
414.83	3742.52
415.02	3808.05
415.22	3822.09
415.41	3927.42
415.60	3845.50
415.79	3829.12
415.98	4070.19
416.17	4053.81
416.36	3964.87
416.55	4030.40
416.74	4070.19
416.93	4044.45
417.12	4046.79
417.31	4238.71
417.50	4231.69
417.69	4365.10
417.88	4306.59
418.07	4280.84
418.26	4498.51
418.45	4365.10
418.64	4638.94
418.83	4421.27
419.02	4322.97
419.21	4358.08
419.39	4505.53
419.58	4440.00
419.77	4449.36
419.96	4461.06
420.15	4702.14
420.34	4723.20
420.53	4755.97
420.72	4753.63
420.91	4557.02
421.10	4699.80
421.29	4748.95
421.48	4634.26
421.67	4835.55
421.86	4854.27
422.05	4835.55
422.24	4800.44
422.43	4905.76
422.61	4943.21
422.80	4870.65
422.99	5111.73
423.18	4997.04
423.37	5036.83
423.56	4990.02
423.75	4924.49
423.94	4894.06
424.13	4641.28
424.32	4809.80
424.50	4919.81
424.69	5034.49
424.88	5006.41
425.07	4968.96
425.26	5020.45
425.45	5060.24
425.64	4821.50
425.83	5137.48
426.01	5083.64
426.20	5095.35
426.39	5132.79
426.58	5043.85
426.77	4950.23
426.96	5027.47
427.15	5263.86
427.33	5394.93
427.52	5123.43
427.71	5252.16
427.90	5327.06
428.09	5259.18
428.28	5488.56
428.46	5355.15
428.65	5366.85
428.84	5610.26
429.03	5544.73
429.22	5308.34
429.40	5640.69
429.59	5462.81
429.78	5247.48
429.97	5315.36
430.16	5530.69
430.34	5694.52
430.53	5736.65
430.72	5614.95
430.91	5746.02
431.10	5638.35
431.28	5795.17
431.47	5839.64
431.66	5851.34
431.85	5975.39
432.03	5959.00
432.22	6171.99
432.41	6033.90
432.60	6050.28
432.79	5921.56
432.97	6146.25
433.16	6069.01
433.35	5970.71
433.54	6207.10
433.72	6260.93
433.91	6249.23
434.10	6003.47
434.28	6050.28
434.47	6270.30
434.66	6228.17
434.85	6375.62
435.03	6375.62
435.22	6450.52
435.41	6450.52
435.59	6530.09
435.78	6469.24
435.97	6345.19
436.16	6434.13
436.34	6317.11
436.53	6579.25
436.72	6780.53
436.90	6396.68
437.09	6656.48
437.28	6574.56
437.46	6733.72
437.65	6904.58
437.84	6895.22
438.02	6663.51
438.21	6724.36
438.40	6719.68
438.58	6981.82
438.77	7021.61
438.96	7082.46
439.14	7103.53
439.33	7199.49
439.52	7241.62
439.70	7145.66
439.89	7391.41
440.08	7372.69
440.26	7382.05
440.45	7337.58
440.63	7557.59
440.82	7499.08
441.01	7592.70
441.19	7625.47
441.38	7754.19
441.57	7592.70
441.75	7894.63
441.94	7955.48
442.12	8102.93
442.31	8077.19
442.50	8252.73
442.68	7946.12
442.87	8079.53
443.05	8140.38
443.24	8035.06
443.43	8128.68
443.61	8051.44
443.80	8308.90
443.98	7988.25
444.17	7964.84
444.35	8124.00
444.54	8367.42
444.73	8126.34
444.91	8121.66
445.10	8381.46
445.28	8510.19
445.47	8241.03
445.65	8425.93
445.84	8463.38
446.02	8617.85
446.21	8437.63
446.39	8454.02
446.58	8655.30
446.77	8306.56
446.95	8308.90
447.14	8678.71
447.32	8755.94
447.51	8512.53
447.69	8521.89
447.88	8491.46
448.06	8645.94
448.25	8444.65
448.43	8856.59
448.62	8894.04
448.80	8711.47
448.99	8697.43
449.17	8861.27
449.36	8667.00
449.54	8898.72
449.73	8982.98
449.91	8947.87
450.10	8950.21
450.28	9125.75
450.46	9137.45
450.65	8847.22
450.83	9039.15
451.02	8957.23
451.20	9273.20
451.39	9437.04
451.57	9153.84
451.76	9156.18
451.94	9366.82
452.13	9352.78
452.31	9301.29
452.49	9092.98
452.68	9589.17
452.86	9495.55
453.05	9259.16
453.23	9638.33
453.42	9350.44
453.60	9397.25
453.78	9495.55
453.97	9320.01
454.15	9610.24
454.34	9455.76
454.52	9699.18
454.70	9703.86
454.89	9799.82
455.07	9753.01
455.26	9933.23
455.44	10078.35
455.62	9865.36
455.81	9774.08
455.99	9998.77
456.17	10122.82
456.36	10239.84
456.54	10080.69
456.73	10040.90
456.91	10511.35
457.09	10588.58
457.28	10558.16
457.46	10352.19
457.64	10476.24
457.83	10527.73
458.01	10630.71
458.19	10705.61
458.38	10794.55
458.56	10951.37
458.74	10782.85
458.93	10679.86
459.11	10846.04
459.29	10628.37
459.48	10892.85
459.66	10761.78
459.84	11131.59
460.03	11255.64
460.21	11126.91
460.39	11211.17
460.57	10960.73
460.76	11183.08
460.94	11246.27
461.12	11040.31
461.31	11213.51
461.49	11239.25
461.67	11410.11
461.85	11585.65
462.04	11169.04
462.22	11548.20
462.40	11501.39
462.59	11620.76
462.77	11604.38
462.95	11873.54
463.13	11660.55
463.32	11611.40
463.50	11850.13
463.68	11838.43
463.86	11852.47
464.05	11604.38
464.23	11962.48
464.41	11955.46
464.59	11611.40
464.78	12222.28
464.96	11915.67
465.14	11850.13
465.32	12173.13
465.50	12189.51
465.69	12332.28
465.87	12241.00
466.05	12212.92
466.23	12173.13
466.41	12283.13
466.60	12425.90
466.78	12262.07
466.96	12203.55
467.14	12432.93
467.32	12547.61
467.51	12416.54
467.69	12112.27
467.87	12521.87
468.05	12681.02
468.23	12428.24
468.41	12383.77
468.60	12692.73
468.78	12994.65
468.96	12912.74
469.14	12854.22
469.32	12844.86
469.50	12727.83
469.69	13020.40
469.87	13132.75
470.05	13242.75
470.23	13156.15
470.41	12985.29
470.59	13404.25
470.77	13256.79
470.95	13355.10
471.14	13453.40
471.32	13390.20
471.50	13706.18
471.68	13624.26
471.86	13540.00
472.04	13743.63
472.22	14132.15
472.40	13956.61
472.58	13846.61
472.77	14066.62
472.95	14090.02
473.13	14637.71
473.31	14225.78
473.49	14473.87
473.67	14059.60
473.85	14539.41
474.03	14693.88
474.21	14981.77
474.39	14815.59
474.57	14806.23
474.75	14939.64
474.93	15192.42
475.12	15119.86
475.30	15164.33
475.48	15215.82
475.66	15190.08
475.84	15115.18
476.02	15353.91
476.20	15215.82
476.38	15609.03
476.56	16046.71
476.74	16056.08
476.92	15985.86
477.10	15826.70
477.28	16292.47
477.46	16231.62
477.64	16507.80
477.82	16634.19
478.00	16699.72
478.18	16903.35
478.36	17015.69
478.54	17305.92
478.72	17261.45
478.90	17357.41
479.08	17429.97
479.26	17563.38
479.44	17823.18
479.62	17715.51
479.80	18045.53
479.98	18349.80
480.16	18782.80
480.34	18200.01
480.52	18635.35
480.70	18785.14
480.88	18450.44
481.06	18810.89
481.24	18869.40
481.41	19204.10
481.59	19302.40
481.77	19585.60
481.95	19660.50
482.13	19974.13
482.31	19929.66
482.49	20456.28
482.67	20414.15
482.85	20631.82
483.03	21025.03
483.21	20840.13
483.39	21303.56
483.57	20872.90
483.74	21319.94
483.92	21446.33
484.10	21631.23
484.28	21703.79
484.46	22066.57
484.64	22541.70
484.82	22352.12
485.00	22185.94
485.18	22698.52
485.35	23253.22
485.53	22843.63
485.71	23208.75
485.89	23599.62
486.07	23480.25
486.25	23461.53
486.43	23693.24
486.61	24123.90
486.78	24081.77
486.96	24329.87
487.14	24737.12
487.32	25041.39
487.50	25247.36
487.68	25340.98
487.85	25432.26
488.03	25586.74
488.21	25600.78
488.39	26089.95
488.57	26221.02
488.75	26328.69
488.92	26668.06
489.10	26719.56
489.28	26972.33
489.46	27241.50
489.64	27089.36
489.81	27941.32
489.99	28142.60
490.17	27910.89
490.35	28421.13
490.53	28294.74
490.70	28697.31
490.88	28577.94
491.06	28718.37
491.24	29071.79
491.41	29591.39
491.59	29181.80
491.77	29062.43
491.95	29860.55
492.13	30160.14
492.30	30221.00
492.48	30110.99
492.66	30361.43
492.84	30714.85
493.01	30803.79
493.19	30965.29
493.37	31161.89
493.54	31201.68
493.72	31573.83
493.90	31592.55
494.08	31906.18
494.25	32004.49
494.43	32381.31
494.61	32694.94
494.79	32800.27
494.96	32451.53
495.14	33223.90
495.32	32982.83
495.49	33289.44
495.67	33565.62
495.85	33853.51
496.02	33570.30
496.20	34026.71
496.38	34370.77
496.55	34572.05
496.73	35084.63
496.91	34918.45
497.09	34948.88
497.26	34843.56
497.44	35473.16
497.62	35545.72
497.79	35763.39
497.97	35737.64
498.14	36177.66
498.32	36119.15
498.50	35950.63
498.67	36783.86
498.85	36727.69
499.03	36821.31
499.20	36928.97
499.38	37303.46
499.56	37326.86
499.73	37507.08
499.91	37699.01
500.08	37769.22
500.26	37193.45
500.44	37830.08
500.61	38122.65
500.79	38312.23
500.97	38232.65
501.14	38946.51
501.32	38871.62
501.49	38883.32
501.67	38841.19
501.84	39288.23
502.02	39201.63
502.20	38885.66
502.37	39274.19
502.55	39536.33
502.72	39927.20
502.90	39695.49
503.07	39672.08
503.25	39655.70
503.43	40081.67
503.60	40315.73
503.78	40381.26
503.95	40615.32
504.13	40821.28
504.30	41125.55
504.48	40905.54
504.65	40940.65
504.83	41317.48
505.01	41516.42
505.18	41668.56
505.36	41635.79
505.53	41867.50
505.71	42171.77
505.88	41820.69
506.06	41455.57
506.23	42153.05
506.41	42260.71
506.58	42705.41
506.76	42672.65
506.93	42607.11
507.11	42564.98
507.28	43140.75
507.46	42768.61
507.63	43021.39
507.81	43618.22
507.98	43026.07
508.16	43679.08
508.33	44154.21
508.50	43859.30
508.68	43721.21
508.85	44254.85
509.03	43959.94
509.20	44456.14
509.38	44641.04
509.55	44659.76
509.73	44849.35
509.90	45008.50
510.08	45006.16
510.25	44545.08
510.42	44959.35
510.60	45113.83
510.77	45797.26
510.95	45663.85
511.12	44996.80
511.30	45492.99
511.47	45881.52
511.64	45469.59
511.82	46429.21
511.99	46167.07
512.17	46075.79
512.34	46054.72
512.51	46361.33
512.69	46560.28
512.86	46611.77
513.04	46593.04
513.21	47096.26
513.38	47196.90
513.56	47119.66
513.73	47129.03
513.90	47526.92
514.08	47428.62
514.25	47599.47
514.43	47618.20
514.60	47477.77
514.77	47641.60
514.95	47999.71
515.12	47882.68
515.29	48163.54
515.47	47901.40
515.64	47988.00
515.81	48198.65
515.99	48470.15
516.16	48846.98
516.33	48685.48
516.51	49268.28
516.68	48849.32
516.85	48821.23
517.03	49064.65
517.20	49338.49
517.37	49195.72
517.54	49216.78
517.72	49364.24
517.89	49048.27
518.06	49434.45
518.24	49130.19
518.41	49483.61
518.58	49581.91
518.75	49605.31
518.93	49979.80
519.10	49755.11
519.27	49893.20
519.45	50017.25
519.62	50263.00
519.79	50284.07
519.96	50019.59
520.14	50527.48
520.31	50234.92
520.48	50831.75
520.65	50438.54
520.83	51114.96
521.00	50993.25
521.17	50831.75
521.34	50878.57
521.52	51290.50
521.69	51049.42
521.86	51447.32
522.03	51386.46
522.20	51751.59
522.38	51669.67
522.55	51667.33
522.72	51608.81
522.89	51372.42
523.07	51920.10
523.24	51899.04
523.41	52154.16
523.58	51800.74
523.75	52285.23
523.92	52100.32
524.10	52229.05
524.27	52126.07
524.44	52282.89
524.61	52252.46
524.78	52102.67
524.96	52783.76
525.13	52650.35
525.30	52547.37
525.47	52846.96
525.64	52575.45
525.81	52758.02
525.98	53015.47
526.16	52959.30
526.33	52839.93
526.50	53488.26
526.67	53055.26
526.84	53078.67
527.01	53172.29
527.18	52921.85
527.36	53111.44
527.53	53305.70
527.70	53586.57
527.87	53436.77
528.04	53427.41
528.21	53352.51
528.38	53191.01
528.55	53741.04
528.72	53691.89
528.89	53778.49
529.07	53631.04
529.24	53663.80
529.41	54014.88
529.58	53909.56
529.75	53881.47
529.92	53717.64
530.09	53844.02
530.26	54075.74
530.43	54005.52
530.60	53982.12
530.77	53832.32
530.94	54335.54
531.11	54262.98
531.28	54499.37
531.46	54557.89
531.63	54408.09
531.80	54410.43
531.97	54775.56
532.14	54747.47
532.31	54546.18
532.48	54803.64
532.65	54798.96
532.82	54660.87
532.99	54632.78
533.16	54990.89
533.33	54761.51
533.50	55098.55
533.67	54965.14
533.84	54899.61
534.01	55145.36
534.18	55178.13
534.35	55554.96
534.52	55316.22
534.69	55178.13
534.86	55379.42
535.03	55253.03
535.20	55531.55
535.37	55681.34
535.54	55707.09
535.71	55370.05
535.88	55688.37
536.05	55487.08
536.22	55641.56
536.38	55842.84
536.55	55803.05
536.72	55791.35
536.89	55646.24
537.06	55870.93
537.23	55824.12
537.40	55852.20
537.57	55973.91
537.74	55805.39
537.91	56107.32
538.08	56179.88
538.25	55842.84
538.42	55880.29
538.59	56453.72
538.75	56081.58
538.92	56088.60
539.09	56427.98
539.26	56313.29
539.43	56266.48
539.60	56177.54
539.77	56507.55
539.94	56650.33
540.11	56444.36
540.28	56362.44
540.44	56757.99
540.61	56526.28
540.78	56376.48
540.95	56486.49
541.12	56612.88
541.29	56423.29
541.46	56697.14
541.62	56795.44
541.79	56708.84
541.96	56657.35
542.13	56694.80
542.30	56889.06
542.47	56933.53
542.63	57059.92
542.80	57146.52
542.97	57057.58
543.14	57504.62
543.31	57237.80
543.48	57209.71
543.64	57738.68
543.81	57635.69
543.98	57668.46
544.15	57502.28
544.32	57600.58
544.48	57703.57
544.65	57511.64
544.82	57523.35
544.99	57193.33
545.16	57902.51
545.32	57684.84
545.49	57813.57
545.66	57879.11
545.83	58000.82
546.00	58061.67
546.16	58066.35
546.33	57616.97
546.50	57518.67
546.67	57937.62
546.83	57645.05
547.00	58096.78
547.17	57958.69
547.34	57954.00
547.50	58054.65
547.67	58162.31
547.84	58288.70
548.00	58288.70
548.17	58389.34
548.34	58225.51
548.51	58506.37
548.67	58436.16
548.84	58277.00
549.01	58351.90
549.18	58368.28
549.34	58447.86
549.51	58394.03
549.68	58312.11
549.84	58574.25
550.01	58527.44
550.18	58555.52
550.34	58614.04
550.51	58770.85
550.68	58614.04
550.84	58560.20
551.01	58726.38
551.18	58618.72
551.34	58913.62
551.51	58731.06
551.68	58866.81
551.84	58810.64
552.01	58649.14
552.18	58941.71
552.34	58719.36
552.51	58857.45
552.68	58733.40
552.84	58834.05
553.01	59138.32
553.18	58981.50
553.34	58951.07
553.51	58808.30
553.67	59025.97
553.84	59194.49
554.01	59100.87
554.17	59292.79
554.34	59110.23
554.51	59105.55
554.67	59281.09
554.84	59107.89
555.00	59199.17
555.17	58974.48
555.33	59112.57
555.50	59171.08
555.67	59194.49
555.83	59409.82
556.00	59250.66
556.16	59447.27
556.33	59601.74
556.50	59503.44
556.66	59568.97
556.83	59355.99
556.99	59508.12
557.16	59611.10
557.32	59676.64
557.49	59681.32
557.65	59498.76
557.82	59473.01
557.98	59571.32
558.15	59526.84
558.32	59746.86
558.48	59295.13
558.65	59650.89
558.81	59606.42
558.98	59702.38
559.14	59798.35
559.31	59831.11
559.47	59805.37
559.64	59807.71
559.80	59732.81
559.97	59840.48
560.13	59777.28
560.30	59927.08
560.46	59819.41
560.63	59910.69
560.79	59920.05
560.96	60236.03
561.12	60011.34
561.29	60081.55
561.45	60027.72
561.61	60076.87
561.78	59917.71
561.94	60051.12
562.11	59952.82
562.27	60081.55
562.44	60067.51
562.60	60261.77
562.77	60275.82
562.93	59943.46
563.10	60357.74
563.26	59884.95
563.42	60278.16
563.59	60111.98
563.75	60037.08
563.92	60020.70
564.08	60086.23
564.24	60418.59
564.41	60163.47
564.57	60353.05
564.74	60245.39
564.90	60287.52
565.07	60331.99
565.23	60397.52
565.39	60245.39
565.56	60488.80
565.72	60360.08
565.88	60514.55
566.05	60210.28
566.21	60329.65
566.38	60432.63
566.54	60498.17
566.70	60437.31
566.87	60624.56
567.03	60133.04
567.19	60624.56
567.36	60432.63
567.52	60362.42
567.68	60706.47
567.85	60481.78
568.01	60559.02
568.17	60479.44
568.34	60441.99
568.50	60374.12
568.66	60477.10
568.83	60542.64
568.99	60554.34
569.15	60413.91
569.32	60502.85
569.48	60608.17
569.64	60573.06
569.81	60537.96
569.97	60542.64
570.13	60533.28
570.30	60327.31
570.46	60748.60
570.62	60844.57
570.78	60720.52
570.95	60544.98
571.11	60671.37
571.27	60481.78
571.43	60554.34
571.60	60912.44
571.76	60757.97
571.92	60786.05
572.09	60589.45
572.25	60729.88
572.41	60622.22
572.57	60757.97
572.74	60970.96
572.90	60612.85
573.06	60879.67
573.22	60786.05
573.38	60746.26
573.55	60954.57
573.71	61120.75
573.87	60851.59
574.03	60793.07
574.20	60856.27
574.36	60636.26
574.52	60882.02
574.68	61066.92
574.84	60975.64
575.01	60858.61
575.17	60903.08
575.33	60746.26
575.49	60893.72
575.65	60870.31
575.82	61092.66
575.98	60924.14
576.14	61111.39
576.30	60952.23
576.46	61104.37
576.62	61024.79
576.79	60863.29
576.95	60786.05
577.11	60886.70
577.27	60949.89
577.43	60849.25
577.59	60999.04
577.75	60924.14
577.92	60992.02
578.08	60898.40
578.24	60874.99
578.40	61169.90
578.56	61022.45
578.72	61066.92
578.88	61020.11
579.04	61132.45
579.21	61066.92
579.37	61474.17
579.53	61202.67
579.69	60999.04
579.85	61071.60
580.01	60919.46
580.17	61038.83
580.33	61254.16
580.49	61102.03
580.65	61073.94
580.82	61057.56
580.98	60896.06
581.14	61045.85
581.30	61034.15
581.46	61092.66
581.62	61123.09
581.78	60947.55
581.94	61242.46
582.10	61195.65
582.26	60961.59
582.42	60926.49
582.58	61078.62
582.74	61013.08
582.90	61219.05
583.06	61200.33
583.22	60970.96
583.38	61233.10
583.54	61062.24
583.70	61078.62
583.86	61125.43
584.02	61095.00
584.18	61015.43
584.34	61078.62
584.50	61212.03
584.66	61066.92
584.82	60982.66
584.98	61394.59
585.14	61137.13
585.30	60839.89
585.46	61127.77
585.62	61214.37
585.78	61382.89
585.94	61041.17
586.10	61141.81
586.26	61008.40
586.42	61155.86
586.58	61310.33
586.74	61277.57
586.90	61015.43
587.06	60942.87
587.22	61265.86
587.38	61333.74
587.54	61476.51
587.70	61331.40
587.86	61303.31
588.02	61209.69
588.18	61413.32
588.34	61333.74
588.49	61003.72
