SpectraSuite Data File
++++++++++++++++++++++++++++++++++++
Date: Fri Oct 25 11:26:24 EDT 2013
User: price-jones
Dark Spectrum Present: No
Reference Spectrum Present: No
Number of Sampled Component Spectra: 1
Spectrometers: USB2+H05261
Integration Time (usec): 100000 (USB2+H05261)
Spectra Averaged: 1 (USB2+H05261)
Boxcar Smoothing: 0 (USB2+H05261)
Correct for Electrical Dark: No (USB2+H05261)
Strobe/Lamp Enabled: No (USB2+H05261)
Correct for Detector Non-linearity: No (USB2+H05261)
Correct for Stray Light: No (USB2+H05261)
Number of Pixels in Processed Spectrum: 2048
>>>>>Begin Processed Spectral Data<<<<<
365.73	271.50
365.92	271.50
366.12	271.50
366.32	191.92
366.52	156.82
366.72	138.09
366.91	107.66
367.11	100.64
367.31	102.98
367.51	161.50
367.70	156.82
367.90	135.75
368.10	65.54
368.30	126.39
368.49	112.35
368.69	205.97
368.89	142.77
369.09	124.05
369.28	234.05
369.48	147.45
369.68	173.20
369.87	227.03
370.07	184.90
370.27	224.69
370.47	299.59
370.66	554.71
370.86	638.97
371.06	690.46
371.25	716.20
371.45	697.48
371.65	664.71
371.84	631.94
372.04	711.52
372.24	688.12
372.44	723.23
372.63	704.50
372.83	716.20
373.03	760.67
373.22	713.86
373.42	770.04
373.62	828.55
373.81	812.17
374.01	772.38
374.21	826.21
374.40	753.65
374.60	926.85
374.79	833.23
374.99	779.40
375.19	891.74
375.38	854.30
375.58	889.40
375.78	858.98
375.97	830.89
376.17	805.14
376.37	887.06
376.56	922.17
376.76	952.60
376.95	802.80
377.15	903.45
377.35	861.32
377.54	889.40
377.74	950.26
377.93	915.15
378.13	945.58
378.33	952.60
378.52	943.24
378.72	1029.84
378.91	1027.50
379.11	966.64
379.31	929.19
379.50	968.98
379.70	973.66
379.89	938.55
380.09	973.66
380.28	940.90
380.48	973.66
380.68	1004.09
380.87	938.55
381.07	968.98
381.26	938.55
381.46	954.94
381.65	1055.58
381.85	1123.46
382.04	1018.13
382.24	1100.05
382.43	1095.37
382.63	1071.97
382.83	1025.15
383.02	1156.22
383.22	1132.82
383.41	1086.01
383.61	1121.12
383.80	1207.72
384.00	1123.46
384.19	1053.24
384.39	1123.46
384.58	1121.12
384.78	1118.78
384.97	1163.25
385.17	1090.69
385.36	1231.12
385.56	1205.38
385.75	1144.52
385.95	1235.80
386.14	1245.16
386.34	1214.74
386.53	1245.16
386.72	1207.72
386.92	1287.29
387.11	1313.04
387.31	1172.61
387.50	1277.93
387.70	1308.36
387.89	1226.44
388.09	1245.16
388.28	1263.89
388.48	1249.85
388.67	1303.68
388.86	1329.42
389.06	1228.78
389.25	1341.13
389.45	1411.34
389.64	1322.40
389.84	1406.66
390.03	1378.58
390.22	1411.34
390.42	1268.57
390.61	1366.87
390.81	1448.79
391.00	1455.81
391.19	1439.43
391.39	1453.47
391.58	1519.01
391.78	1500.28
391.97	1350.49
392.16	1446.45
392.36	1495.60
392.55	1406.66
392.75	1502.62
392.94	1549.43
393.13	1511.99
393.33	1448.79
393.52	1556.46
393.71	1563.48
393.91	1607.95
394.10	1565.82
394.29	1554.12
394.49	1558.80
394.68	1586.88
394.88	1598.59
395.07	1647.74
395.26	1699.23
395.46	1689.87
395.65	1715.61
395.84	1717.95
396.04	1724.97
396.23	1797.53
396.42	1741.36
396.62	1823.28
396.81	1809.23
397.00	1750.72
397.19	1753.06
397.39	1811.57
397.58	1736.68
397.77	1816.26
397.97	1900.52
398.16	1692.21
398.35	1874.77
398.55	1849.02
398.74	1898.17
398.93	1865.41
399.12	2022.22
399.32	2012.86
399.51	1888.81
399.70	2054.99
399.90	1975.41
400.09	1998.82
400.28	2029.24
400.47	1928.60
400.67	2106.48
400.86	2038.61
401.05	2120.53
401.24	2005.84
401.44	2118.18
401.63	2092.44
401.82	2183.72
402.01	2108.82
402.21	2146.27
402.40	2197.76
402.59	2073.71
402.78	2132.23
402.97	2120.53
403.17	2186.06
403.36	2267.98
403.55	2307.77
403.74	2326.49
403.93	2345.22
404.13	2267.98
404.32	2324.15
404.51	2307.77
404.70	2385.01
404.89	2338.20
405.09	2492.67
405.28	2530.12
405.47	2448.20
405.66	2452.88
405.85	2483.31
406.05	2588.63
406.24	2579.27
406.43	2544.16
406.62	2574.59
406.81	2693.96
407.00	2684.59
407.20	2647.15
407.39	2502.03
407.58	2759.49
407.77	2731.41
407.96	2754.81
408.15	2773.53
408.34	2670.55
408.54	2733.75
408.73	2768.85
408.92	2796.94
409.11	2708.00
409.30	2871.84
409.49	2916.31
409.68	2906.95
409.87	2794.60
410.07	2888.22
410.26	2920.99
410.45	2916.31
410.64	3038.02
410.83	3126.96
411.02	3019.29
411.21	3124.62
411.40	3115.25
411.59	3286.11
411.78	3098.87
411.98	3220.58
412.17	3243.98
412.36	3225.26
412.55	3403.14
412.74	3424.20
412.93	3417.18
413.12	3218.24
413.31	3489.74
413.50	3410.16
413.69	3592.72
413.88	3655.92
414.07	3538.89
414.26	3590.38
414.45	3653.58
414.64	3641.87
414.83	3705.07
415.02	3779.97
415.22	3936.78
415.41	3950.82
415.60	3889.97
415.79	3824.44
415.98	4018.70
416.17	3899.33
416.36	4007.00
416.55	3913.38
416.74	4128.70
416.93	4079.55
417.12	4095.94
417.31	4229.35
417.50	4170.83
417.69	4325.31
417.88	4285.52
418.07	4322.97
418.26	4344.03
418.45	4369.78
418.64	4400.21
418.83	4404.89
419.02	4355.74
419.21	4568.73
419.39	4491.49
419.58	4414.25
419.77	4423.61
419.96	4517.23
420.15	4519.57
420.34	4594.47
420.53	4610.86
420.72	4767.67
420.91	4608.51
421.10	4636.60
421.29	4723.20
421.48	4713.84
421.67	4819.16
421.86	4685.75
422.05	4660.01
422.24	4706.82
422.43	4823.84
422.61	4950.23
422.80	4894.06
422.99	4891.72
423.18	4910.44
423.37	5011.09
423.56	5004.07
423.75	4891.72
423.94	4889.38
424.13	4545.32
424.32	4784.06
424.50	4865.97
424.69	5060.24
424.88	4961.94
425.07	4723.20
425.26	4760.65
425.45	4950.23
425.64	4992.36
425.83	4863.63
426.01	5090.67
426.20	5001.72
426.39	5057.90
426.58	5060.24
426.77	5055.56
426.96	5114.07
427.15	4968.96
427.33	5186.63
427.52	5163.22
427.71	5088.32
427.90	5181.95
428.09	5320.04
428.28	5322.38
428.46	5200.67
428.65	5404.30
428.84	5469.83
429.03	5380.89
429.22	5322.38
429.40	5500.26
429.59	5434.72
429.78	5128.11
429.97	5439.40
430.16	5451.11
430.34	5558.77
430.53	5296.63
430.72	5701.54
430.91	5535.37
431.10	5586.86
431.28	5579.84
431.47	5797.51
431.66	5795.17
431.85	5575.16
432.03	5844.32
432.22	5966.03
432.41	6008.16
432.60	5923.90
432.79	5741.33
432.97	5905.17
433.16	5827.93
433.35	5977.73
433.54	5802.19
433.72	6050.28
433.91	6031.56
434.10	6036.24
434.28	6057.31
434.47	6071.35
434.66	6328.81
434.85	6305.40
435.03	6200.08
435.22	6244.55
435.41	6506.69
435.59	6293.70
435.78	6387.32
435.97	6492.65
436.16	6277.32
436.34	6401.37
436.53	6429.45
436.72	6637.76
436.90	6174.33
437.09	6576.91
437.28	6462.22
437.46	6532.44
437.65	6586.27
437.84	6719.68
438.02	6878.83
438.21	6792.23
438.40	6651.80
438.58	6920.96
438.77	6991.18
438.96	6923.30
439.14	7143.32
439.33	6839.05
439.52	7201.83
439.70	7105.87
439.89	7152.68
440.08	7075.44
440.26	7524.82
440.45	7330.56
440.63	7414.82
440.82	7772.92
441.01	7651.21
441.19	7693.34
441.38	7824.41
441.57	7609.08
441.75	7639.51
441.94	7810.37
442.12	7892.29
442.31	8018.68
442.50	7885.26
442.68	7824.41
442.87	7803.35
443.05	8028.04
443.24	8266.77
443.43	8322.94
443.61	8063.15
443.80	8376.78
443.98	7974.21
444.17	7791.64
444.35	8126.34
444.54	8198.90
444.73	8236.35
444.91	8203.58
445.10	8278.47
445.28	8262.09
445.47	8248.05
445.65	8229.32
445.84	8552.32
446.02	8477.42
446.21	8109.96
446.39	8231.66
446.58	8276.13
446.77	8346.35
446.95	8161.45
447.14	8318.26
447.32	8603.81
447.51	8458.70
447.69	8566.36
447.88	8664.66
448.06	8287.84
448.25	8458.70
448.43	8606.15
448.62	8777.01
448.80	8493.80
448.99	8636.58
449.17	8561.68
449.36	8552.32
449.54	8849.57
449.73	8805.10
449.91	8896.38
450.10	8856.59
450.28	8919.78
450.46	9001.70
450.65	9123.41
450.83	9043.83
451.02	8812.12
451.20	9015.74
451.39	9235.75
451.57	9078.94
451.76	8959.57
451.94	9233.41
452.13	9493.21
452.31	9242.78
452.49	9116.39
452.68	9371.50
452.86	9235.75
453.05	9149.15
453.23	9376.19
453.42	9607.90
453.60	9404.27
453.78	9329.38
453.97	9411.29
454.15	9392.57
454.34	9397.25
454.52	9479.17
454.70	9380.87
454.89	9694.50
455.07	9673.43
455.26	9884.08
455.44	10029.20
455.62	9797.48
455.81	9792.80
455.99	10010.47
456.17	10218.78
456.36	10036.22
456.54	10087.71
456.73	10368.57
456.91	10321.76
457.09	10305.38
457.28	10523.05
457.46	10274.95
457.64	10401.34
457.83	10340.49
458.01	10583.90
458.19	10597.95
458.38	10499.64
458.56	10700.93
458.74	10768.80
458.93	10565.18
459.11	10595.61
459.29	10672.84
459.48	10974.77
459.66	10462.19
459.84	10789.87
460.03	11000.52
460.21	11103.50
460.39	10988.82
460.57	10946.69
460.76	10916.26
460.94	11183.08
461.12	11187.76
461.31	11133.93
461.49	11112.86
461.67	11133.93
461.85	11435.86
462.04	11393.73
462.22	11627.78
462.40	11407.77
462.59	11447.56
462.77	11452.24
462.95	11545.86
463.13	11538.84
463.32	11487.35
463.50	11681.61
463.68	11733.11
463.86	11990.56
464.05	11569.27
464.23	11779.92
464.41	11772.89
464.59	11421.81
464.78	11922.69
464.96	11784.60
465.14	11786.94
465.32	11932.05
465.50	11829.07
465.69	12159.08
465.87	11929.71
466.05	12140.36
466.23	12100.57
466.41	12339.30
466.60	12453.99
466.78	12102.91
466.96	12245.68
467.14	12107.59
467.32	12414.20
467.51	12552.29
467.69	11957.80
467.87	12430.59
468.05	12400.16
468.23	12500.80
468.41	12556.97
468.60	12416.54
468.78	12926.78
468.96	12451.65
469.14	12800.39
469.32	12943.16
469.50	12582.72
469.69	12999.34
469.87	12931.46
470.05	13053.17
470.23	13200.62
470.41	12931.46
470.59	13163.17
470.77	13085.94
470.95	13008.70
471.14	13535.32
471.32	13181.90
471.50	13460.42
471.68	13558.72
471.86	13858.31
472.04	13544.68
472.22	13921.51
472.40	13460.42
472.58	13785.76
472.77	13804.48
472.95	14108.75
473.13	14518.34
473.31	14061.94
473.49	14111.09
473.67	14211.73
473.85	14319.40
474.03	14464.51
474.21	14413.02
474.39	14532.39
474.57	14546.43
474.75	14810.91
474.93	14792.19
475.12	15040.28
475.30	15012.20
475.48	14923.26
475.66	15080.07
475.84	15054.33
476.02	15276.68
476.20	15061.35
476.38	15484.98
476.56	16025.65
476.74	15704.99
476.92	15882.88
477.10	15625.42
477.28	16159.06
477.46	16201.19
477.64	16229.27
477.82	16428.22
478.00	16493.76
478.18	16528.86
478.36	17025.06
478.54	16992.29
478.72	16884.62
478.90	17324.65
479.08	17547.00
479.26	17886.37
479.44	17479.12
479.62	17614.87
479.80	17767.01
479.98	17921.48
480.16	18312.35
480.34	18359.16
480.52	18530.02
480.70	18499.59
480.88	18192.98
481.06	18649.39
481.24	18761.73
481.41	19066.00
481.59	19058.98
481.77	19550.49
481.95	19552.84
482.13	19583.26
482.31	19199.41
482.49	20325.21
482.67	20208.19
482.85	20292.44
483.03	20175.42
483.21	20624.80
483.39	20861.19
483.57	20659.91
483.74	20912.69
483.92	21345.69
484.10	20807.36
484.28	21326.96
484.46	21701.45
484.64	22274.88
484.82	21909.75
485.00	22253.81
485.18	22724.26
485.35	22857.67
485.53	22614.26
485.71	22806.18
485.89	23075.34
486.07	23351.52
486.25	23087.04
486.43	23456.85
486.61	23864.10
486.78	23824.31
486.96	24201.14
487.14	24451.58
487.32	24554.56
487.50	24531.15
487.68	24758.19
487.85	24900.96
488.03	25390.13
488.21	25799.73
488.39	25408.86
488.57	25851.22
488.75	25968.24
488.92	26340.39
489.10	26586.15
489.28	26354.43
489.46	27033.19
489.64	26829.56
489.81	27517.68
489.99	27311.71
490.17	27885.14
490.35	28390.70
490.53	27679.18
490.70	28339.21
490.88	27866.42
491.06	28641.14
491.24	28739.44
491.41	28753.48
491.59	29013.28
491.77	29106.90
491.95	29404.15
492.13	29633.52
492.30	29631.18
492.48	30026.73
492.66	29986.94
492.84	30094.61
493.01	30377.81
493.19	30464.41
493.37	30398.88
493.54	30951.24
493.72	31182.96
493.90	31587.87
494.08	31622.98
494.25	31704.90
494.43	31742.35
494.61	32009.17
494.79	31999.80
494.96	32257.26
495.14	32844.74
495.32	33156.03
495.49	32765.16
495.67	33095.18
495.85	33401.79
496.02	33612.43
496.20	33890.96
496.38	33635.84
496.55	33844.15
496.73	34508.86
496.91	34101.61
497.09	34703.12
497.26	34293.53
497.44	34656.31
497.62	34731.21
497.79	35644.02
497.97	35309.32
498.14	35445.07
498.32	36091.06
498.50	35873.39
498.67	36383.63
498.85	35929.56
499.03	36549.81
499.20	36666.83
499.38	37006.21
499.56	36594.28
499.73	37102.17
499.91	37113.87
500.08	37343.25
500.26	37132.60
500.44	37542.19
500.61	37904.98
500.79	37780.93
500.97	38120.31
501.14	38464.36
501.32	38249.03
501.49	37993.92
501.67	37940.08
501.84	38848.21
502.02	38422.23
502.20	39030.77
502.37	39236.74
502.55	38869.28
502.72	39222.70
502.90	39414.62
503.07	39175.89
503.25	39271.85
503.43	39349.09
503.60	40072.31
503.78	40011.46
503.95	40261.90
504.13	40091.04
504.30	40034.86
504.48	40098.06
504.65	40250.19
504.83	40900.86
505.01	41071.72
505.18	41001.50
505.36	40776.81
505.53	41226.20
505.71	41551.53
505.88	41205.13
506.06	41132.57
506.23	41780.90
506.41	41139.60
506.58	41830.05
506.76	41862.82
506.93	42270.08
507.11	41982.19
507.28	42536.90
507.46	42375.40
507.63	42384.76
507.81	42726.48
507.98	42726.48
508.16	42782.65
508.33	43192.25
508.50	43463.75
508.68	43264.80
508.85	44006.75
509.03	43477.79
509.20	43667.37
509.38	43796.10
509.55	44065.27
509.73	44177.61
509.90	44446.77
510.08	44233.78
510.25	44561.46
510.42	44865.73
510.60	44954.67
510.77	44994.46
510.95	45221.49
511.12	44811.90
511.30	44954.67
511.47	45003.82
511.64	45422.78
511.82	45315.11
511.99	45631.08
512.17	45785.56
512.34	46052.38
512.51	45895.56
512.69	45766.84
512.86	46122.60
513.04	46546.23
513.21	46466.66
513.38	46440.91
513.56	46576.66
513.73	46485.38
513.90	47206.26
514.08	46714.75
514.25	46981.57
514.43	47239.03
514.60	47100.94
514.77	46960.51
514.95	47339.68
515.12	47264.78
515.29	47241.37
515.47	47590.11
515.64	47922.47
515.81	47543.30
515.99	47398.19
516.16	48449.09
516.33	48030.13
516.51	48921.88
516.68	48133.12
516.85	48369.51
517.03	48563.78
517.20	48828.26
517.37	48589.52
517.54	48301.64
517.72	49064.65
517.89	48636.33
518.06	48945.28
518.24	48926.56
518.41	49120.82
518.58	48942.94
518.75	49123.16
518.93	49614.68
519.10	49151.25
519.27	49469.56
519.45	49535.10
519.62	49794.90
519.79	49450.84
519.96	49923.63
520.14	50204.49
520.31	49509.35
520.48	49972.78
520.65	50010.23
520.83	50387.05
521.00	50576.64
521.17	49900.22
521.34	50454.93
521.52	50635.15
521.69	50094.49
521.86	50974.53
522.03	50796.65
522.20	51248.37
522.38	50974.53
522.55	51229.65
522.72	50948.78
522.89	51168.79
523.07	51503.49
523.24	51157.09
523.41	51360.72
523.58	51363.06
523.75	51782.01
523.92	51325.61
524.10	51784.35
524.27	52034.79
524.44	51838.18
524.61	51810.10
524.78	52079.26
524.96	52226.71
525.13	52016.07
525.30	52299.27
525.47	52472.47
525.64	52142.45
525.81	52552.05
525.98	52439.70
526.16	52203.31
526.33	52694.82
526.50	52905.47
526.67	52732.27
526.84	53249.53
527.01	52772.06
527.18	52566.09
527.36	52870.36
527.53	52830.57
527.70	53179.31
527.87	53045.90
528.04	52898.45
528.21	53118.46
528.38	53275.27
528.55	53186.33
528.72	53385.28
528.89	53394.64
529.07	53120.80
529.24	53214.42
529.41	53326.77
529.58	53563.16
529.75	53712.95
529.92	53584.22
530.09	53773.81
530.26	53624.01
530.43	53703.59
530.60	53467.20
530.77	53752.74
530.94	54035.95
531.11	53780.83
531.28	53886.15
531.46	54185.74
531.63	54131.91
531.80	54148.29
531.97	54358.94
532.14	54152.97
532.31	54328.52
532.48	54176.38
532.65	54387.03
532.82	54398.73
532.99	54672.57
533.16	54195.10
533.33	54506.40
533.50	54913.65
533.67	54923.01
533.84	54347.24
534.01	54614.06
534.18	54585.97
534.35	55306.86
534.52	55079.83
534.69	55091.53
534.86	54990.89
535.03	55112.59
535.20	55018.97
535.37	55180.47
535.54	55253.03
535.71	54923.01
535.88	55437.93
536.05	55143.02
536.22	55501.12
536.38	55320.90
536.55	55400.48
536.72	55299.84
536.89	55381.76
537.06	55243.66
537.23	55433.25
537.40	55372.39
537.57	55611.13
537.74	55608.79
537.91	55767.94
538.08	55585.38
538.25	55480.06
538.42	55739.86
538.59	55807.73
538.75	55702.41
538.92	55814.76
539.09	56076.90
539.26	56062.85
539.43	56002.00
539.60	56041.79
539.77	55952.85
539.94	56313.29
540.11	56067.53
540.28	56292.22
540.44	56500.53
540.61	56065.19
540.78	56123.71
540.95	56151.79
541.12	56549.68
541.29	56135.41
541.46	56465.42
541.62	56523.94
541.79	56626.92
541.96	56376.48
542.13	56458.40
542.30	56746.29
542.47	56563.73
542.63	56636.28
542.80	56743.95
542.97	57024.81
543.14	57172.27
543.31	56884.38
543.48	57069.28
543.64	57399.30
543.81	57106.73
543.98	56982.68
544.15	57148.86
544.32	57256.53
544.48	57331.42
544.65	57289.29
544.82	57176.95
544.99	57169.93
545.16	57352.49
545.32	57251.84
545.49	57450.79
545.66	57361.85
545.83	57563.14
546.00	57670.80
546.16	57504.62
546.33	57389.94
546.50	57013.11
546.67	57668.46
546.83	57364.19
547.00	57413.34
547.17	57546.75
547.34	57448.45
547.50	57834.64
547.67	57902.51
547.84	57851.02
548.00	57951.66
548.17	58148.27
548.34	57998.48
548.51	58014.86
548.67	58085.07
548.84	57991.45
549.01	57858.04
549.18	57815.91
549.34	58012.52
549.51	58080.39
549.68	58452.54
549.84	58136.57
550.01	58354.24
550.18	57975.07
550.34	58443.18
550.51	58300.40
550.68	58213.80
550.84	58286.36
551.01	58468.92
551.18	58368.28
551.34	58323.81
551.51	58459.56
551.68	58183.38
551.84	58368.28
552.01	58216.14
552.18	58464.24
552.34	58562.54
552.51	58602.33
552.68	58354.24
552.84	58597.65
553.01	58812.98
553.18	58440.84
553.34	58894.90
553.51	58632.76
553.67	58679.57
553.84	58983.84
554.01	58822.34
554.17	58787.24
554.34	58988.52
554.51	58841.07
554.67	58845.75
554.84	59089.16
555.00	58974.48
555.17	58915.96
555.33	58735.74
555.50	58822.34
555.67	58857.45
555.83	58838.73
556.00	58848.09
556.16	59311.52
556.33	59276.41
556.50	59042.35
556.66	59168.74
556.83	59011.93
556.99	59428.54
557.16	59229.60
557.32	59267.05
557.49	59512.80
557.65	59178.10
557.82	58990.86
557.98	59194.49
558.15	59189.81
558.32	59489.40
558.48	59426.20
558.65	59297.47
558.81	59400.46
558.98	59440.24
559.14	59585.36
559.31	59395.77
559.47	59379.39
559.64	59477.69
559.80	59730.47
559.97	59550.25
560.13	59409.82
560.30	59304.49
560.46	59578.34
560.63	59697.70
560.79	59765.58
560.96	59838.14
561.12	59463.65
561.29	59758.56
561.45	59674.30
561.61	59559.61
561.78	59746.86
561.94	59632.17
562.11	59728.13
562.27	59798.35
562.44	59700.04
562.60	59889.63
562.77	59985.59
562.93	59854.52
563.10	60006.65
563.26	59657.91
563.42	60133.04
563.59	59868.56
563.75	59648.55
563.92	59711.75
564.08	59831.11
564.24	59894.31
564.41	60114.32
564.57	59803.03
564.74	59812.39
564.90	59770.26
565.07	60069.85
565.23	60062.83
565.39	60032.40
565.56	60149.43
565.72	60020.70
565.88	60046.44
566.05	60123.68
566.21	60200.92
566.38	59983.25
566.54	60109.64
566.70	60203.26
566.87	60303.90
567.03	59805.37
567.19	60371.78
567.36	60018.36
567.52	60172.83
567.68	60348.37
567.85	60378.80
568.01	60168.15
568.17	60107.30
568.34	60360.08
568.50	60168.15
568.66	60193.90
568.83	60238.37
568.99	60163.47
569.15	60233.69
569.32	60137.72
569.48	60360.08
569.64	60451.36
569.81	60367.10
569.97	60154.11
570.13	60381.14
570.30	60165.81
570.46	60336.67
570.62	60591.79
570.78	60285.18
570.95	60346.03
571.11	60533.28
571.27	60271.14
571.43	60320.29
571.60	60678.39
571.76	60507.53
571.92	60605.83
572.09	60324.97
572.25	60495.83
572.41	60357.74
572.57	60430.29
572.74	60388.16
572.90	60313.26
573.06	60671.37
573.22	60463.06
573.38	60535.62
573.55	60423.27
573.71	60823.50
573.87	60596.47
574.03	60509.87
574.20	60690.09
574.36	60477.10
574.52	60685.41
574.68	60381.14
574.84	60711.16
575.01	60561.36
575.17	60472.42
575.33	60491.15
575.49	60589.45
575.65	60584.77
575.82	60582.43
575.98	60828.18
576.14	60821.16
576.30	60554.34
576.46	60507.53
576.62	60559.02
576.79	60299.22
576.95	60390.50
577.11	60725.20
577.27	60739.24
577.43	60666.69
577.59	60397.52
577.75	60486.46
577.92	60537.96
578.08	60636.26
578.24	60591.79
578.40	60942.87
578.56	60666.69
578.72	60772.01
578.88	60823.50
579.04	60931.17
579.21	60795.42
579.37	60832.86
579.53	60816.48
579.69	60388.16
579.85	60657.32
580.01	60767.33
580.17	60673.71
580.33	60769.67
580.49	60685.41
580.65	60764.99
580.82	60741.58
580.98	60690.09
581.14	60760.31
581.30	60683.07
581.46	60629.24
581.62	60748.60
581.78	60739.24
581.94	60741.58
582.10	60739.24
582.26	60755.63
582.42	60608.17
582.58	60704.13
582.74	60662.00
582.90	60669.03
583.06	60711.16
583.22	60619.88
583.38	60708.82
583.54	60842.23
583.70	60591.79
583.86	60914.78
584.02	60631.58
584.18	60781.37
584.34	60877.33
584.50	61027.13
584.66	60818.82
584.82	60828.18
584.98	61045.85
585.14	60839.89
585.30	60687.75
585.46	60917.12
585.62	60821.16
585.78	60947.55
585.94	60645.62
586.10	60708.82
586.26	60781.37
586.42	60893.72
586.58	60858.61
586.74	60912.44
586.90	60631.58
587.06	60867.97
587.22	60931.17
587.38	60896.06
587.54	60970.96
587.70	61169.90
587.86	60870.31
588.02	60823.50
588.18	61151.18
588.34	60699.45
588.49	60762.65
