SpectraSuite Data File
++++++++++++++++++++++++++++++++++++
Date: Fri Oct 25 11:26:06 EDT 2013
User: price-jones
Dark Spectrum Present: No
Reference Spectrum Present: No
Number of Sampled Component Spectra: 1
Spectrometers: USB2+H05261
Integration Time (usec): 100000 (USB2+H05261)
Spectra Averaged: 1 (USB2+H05261)
Boxcar Smoothing: 0 (USB2+H05261)
Correct for Electrical Dark: No (USB2+H05261)
Strobe/Lamp Enabled: No (USB2+H05261)
Correct for Detector Non-linearity: No (USB2+H05261)
Correct for Stray Light: No (USB2+H05261)
Number of Pixels in Processed Spectrum: 2048
>>>>>Begin Processed Spectral Data<<<<<
365.73	229.37
365.92	229.37
366.12	229.37
366.32	191.92
366.52	154.48
366.72	133.41
366.91	128.73
367.11	102.98
367.31	112.35
367.51	91.28
367.70	77.24
367.90	91.28
368.10	131.07
368.30	166.18
368.49	182.56
368.69	126.39
368.89	220.01
369.09	138.09
369.28	208.31
369.48	163.84
369.68	170.86
369.87	205.97
370.07	196.60
370.27	212.99
370.47	395.55
370.66	580.45
370.86	716.20
371.06	664.71
371.25	709.18
371.45	669.39
371.65	744.29
371.84	751.31
372.04	638.97
372.24	671.73
372.44	699.82
372.63	732.59
372.83	748.97
373.03	809.83
373.22	730.25
373.42	809.83
373.62	835.57
373.81	833.23
374.01	863.66
374.21	837.91
374.40	774.72
374.60	823.87
374.79	720.88
374.99	884.72
375.19	814.51
375.38	828.55
375.58	814.51
375.78	887.06
375.97	851.96
376.17	840.25
376.37	882.38
376.56	880.04
376.76	882.38
376.95	795.78
377.15	936.21
377.35	908.13
377.54	915.15
377.74	894.08
377.93	987.71
378.13	966.64
378.33	870.68
378.52	889.40
378.72	884.72
378.91	936.21
379.11	926.85
379.31	884.72
379.50	952.60
379.70	1020.47
379.89	999.41
380.09	959.62
380.28	1008.77
380.48	966.64
380.68	1013.45
380.87	866.00
381.07	994.73
381.26	1036.86
381.46	1046.22
381.65	1013.45
381.85	1095.37
382.04	1088.35
382.24	1100.05
382.43	1071.97
382.63	1001.75
382.83	1111.75
383.02	1174.95
383.22	1116.44
383.41	1095.37
383.61	1116.44
383.80	1109.41
384.00	968.98
384.19	1158.57
384.39	1224.10
384.58	1165.59
384.78	1191.33
384.97	1170.27
385.17	1179.63
385.36	1184.31
385.56	1249.85
385.75	1184.31
385.95	1163.25
386.14	1249.85
386.34	1200.69
386.53	1128.14
386.72	1186.65
386.92	1263.89
387.11	1294.32
387.31	1280.27
387.50	1373.89
387.70	1226.44
387.89	1266.23
388.09	1146.86
388.28	1294.32
388.48	1317.72
388.67	1331.76
388.86	1409.00
389.06	1336.45
389.25	1394.96
389.45	1369.21
389.64	1299.00
389.84	1345.81
390.03	1348.15
390.22	1394.96
390.42	1308.36
390.61	1343.47
390.81	1303.68
391.00	1437.09
391.19	1476.88
391.39	1516.67
391.58	1460.49
391.78	1514.33
391.97	1476.88
392.16	1458.15
392.36	1481.56
392.55	1544.75
392.75	1540.07
392.94	1526.03
393.13	1509.65
393.33	1537.73
393.52	1586.88
393.71	1598.59
393.91	1600.93
394.10	1554.12
394.29	1715.61
394.49	1633.69
394.68	1598.59
394.88	1671.14
395.07	1607.95
395.26	1577.52
395.46	1696.89
395.65	1652.42
395.84	1689.87
396.04	1727.32
396.23	1792.85
396.42	1739.02
396.62	1757.74
396.81	1771.79
397.00	1823.28
397.19	1785.83
397.39	1839.66
397.58	1764.76
397.77	1856.04
397.97	1961.37
398.16	1827.96
398.35	1923.92
398.55	1879.45
398.74	1834.98
398.93	1959.03
399.12	1947.33
399.32	1863.07
399.51	1937.96
399.70	1912.22
399.90	1989.46
400.09	1982.43
400.28	2097.12
400.47	2062.01
400.67	2076.06
400.86	2062.01
401.05	2036.27
401.24	2113.50
401.44	2211.81
401.63	2064.35
401.82	2214.15
402.01	2237.55
402.21	2160.31
402.40	2256.28
402.59	2031.58
402.78	2141.59
402.97	2190.74
403.17	2200.10
403.36	2218.83
403.55	2298.41
403.74	2312.45
403.93	2345.22
404.13	2373.30
404.32	2303.09
404.51	2377.98
404.70	2452.88
404.89	2471.61
405.09	2516.08
405.28	2382.67
405.47	2406.07
405.66	2394.37
405.85	2537.14
406.05	2492.67
406.24	2532.46
406.43	2607.36
406.62	2628.42
406.81	2593.31
407.00	2504.37
407.20	2513.74
407.39	2600.34
407.58	2616.72
407.77	2775.88
407.96	2752.47
408.15	2663.53
408.34	2782.90
408.54	2759.49
408.73	2696.30
408.92	2834.39
409.11	2832.05
409.30	2937.37
409.49	3021.63
409.68	2993.55
409.87	2780.56
410.07	2963.12
410.26	2902.26
410.45	2942.05
410.64	3042.70
410.83	3157.38
411.02	3049.72
411.21	3033.33
411.40	3126.96
411.59	3206.53
411.78	3082.49
411.98	3220.58
412.17	3342.28
412.36	3138.66
412.55	3251.00
412.74	3414.84
412.93	3433.57
413.12	3407.82
413.31	3606.77
413.50	3396.12
413.69	3520.17
413.88	3529.53
414.07	3566.98
414.26	3616.13
414.45	3660.60
414.64	3684.00
414.83	3747.20
415.02	3616.13
415.22	3801.03
415.41	3815.07
415.60	3896.99
415.79	3880.61
415.98	3983.59
416.17	3894.65
416.36	4030.40
416.55	4063.17
416.74	4011.68
416.93	4079.55
417.12	4156.79
417.31	4177.86
417.50	4173.18
417.69	4084.23
417.88	4269.14
418.07	4395.53
418.26	4292.54
418.45	4423.61
418.64	4404.89
418.83	4379.14
419.02	4547.66
419.21	4491.49
419.39	4627.24
419.58	4468.08
419.77	4353.40
419.96	4564.04
420.15	4671.71
420.34	4608.51
420.53	4564.04
420.72	4772.35
420.91	4746.61
421.10	4692.77
421.29	4844.91
421.48	4795.76
421.67	4704.48
421.86	4599.15
422.05	4706.82
422.24	4762.99
422.43	4919.81
422.61	4922.15
422.80	4964.28
422.99	4936.19
423.18	4926.83
423.37	4964.28
423.56	4908.10
423.75	4821.50
423.94	4777.03
424.13	4713.84
424.32	4681.07
424.50	4945.55
424.69	5146.84
424.88	5221.74
425.07	4868.31
425.26	4877.68
425.45	4980.66
425.64	5036.83
425.83	5153.86
426.01	5057.90
426.20	5055.56
426.39	5060.24
426.58	5015.77
426.77	5015.77
426.96	5107.05
427.15	5107.05
427.33	5198.33
427.52	5048.54
427.71	5247.48
427.90	5228.76
428.09	5210.03
428.28	5502.60
428.46	5427.70
428.65	5296.63
428.84	5483.88
429.03	5432.38
429.22	5233.44
429.40	5472.17
429.59	5420.68
429.78	5224.08
429.97	5303.65
430.16	5291.95
430.34	5600.90
430.53	5614.95
430.72	5472.17
430.91	5720.27
431.10	5678.14
431.28	5696.86
431.47	5659.42
431.66	5722.61
431.85	5753.04
432.03	5898.15
432.22	5788.14
432.41	5905.17
432.60	6024.54
432.79	6010.50
432.97	5816.23
433.16	6012.84
433.35	5959.00
433.54	5987.09
433.72	6099.44
433.91	6104.12
434.10	6136.88
434.28	6069.01
434.47	6171.99
434.66	6141.57
434.85	6246.89
435.03	6331.15
435.22	6214.12
435.41	6291.36
435.59	6445.84
435.78	6366.26
435.97	6455.20
436.16	6359.24
436.34	6408.39
436.53	6509.03
436.72	6684.57
436.90	6347.53
437.09	6401.37
437.28	6494.99
437.46	6537.12
437.65	6612.01
437.84	6761.81
438.02	6651.80
438.21	6892.88
438.40	6719.68
438.58	6841.39
438.77	6906.92
438.96	6925.65
439.14	7173.74
439.33	7052.03
439.52	7145.66
439.70	7192.47
439.89	7534.18
440.08	7365.67
440.26	7407.80
440.45	7358.64
440.63	7480.35
440.82	7616.10
441.01	7419.50
441.19	7597.38
441.38	7655.89
441.57	7737.81
441.75	7868.88
441.94	8093.57
442.12	7674.62
442.31	8105.28
442.50	7934.42
442.68	7962.50
442.87	7971.86
443.05	8173.15
443.24	8018.68
443.43	8201.24
443.61	8236.35
443.80	8329.97
443.98	8116.98
444.17	7742.49
444.35	8159.11
444.54	8498.49
444.73	8334.65
444.91	8329.97
445.10	8294.86
445.28	8547.64
445.47	8283.16
445.65	8313.58
445.84	8456.36
446.02	8608.49
446.21	8238.69
446.39	8439.97
446.58	8533.59
446.77	8526.57
446.95	8255.07
447.14	8397.84
447.32	8517.21
447.51	8383.80
447.69	8376.78
447.88	8374.44
448.06	8147.40
448.25	8407.20
448.43	8617.85
448.62	8592.11
448.80	8461.04
448.99	8734.88
449.17	8641.26
449.36	8613.17
449.54	8762.97
449.73	8945.53
449.91	9097.66
450.10	8872.97
450.28	9217.03
450.46	9111.71
450.65	9174.90
450.83	9018.08
451.02	8908.08
451.20	9219.37
451.39	9146.81
451.57	9062.55
451.76	9046.17
451.94	9074.26
452.13	9408.95
452.31	9284.91
452.49	9008.72
452.68	9371.50
452.86	9249.80
453.05	9518.96
453.23	9465.13
453.42	9242.78
453.60	9261.50
453.78	9638.33
453.97	9348.10
454.15	9235.75
454.34	9401.93
454.52	9696.84
454.70	9720.24
454.89	9589.17
455.07	9715.56
455.26	9797.48
455.44	9905.15
455.62	9841.95
455.81	9886.42
455.99	10061.96
456.17	9942.60
456.36	9874.72
456.54	10094.73
456.73	10431.77
456.91	10422.41
457.09	10291.34
457.28	10401.34
457.46	10129.84
457.64	10361.55
457.83	10509.01
458.01	10399.00
458.19	10504.32
458.38	10527.73
458.56	10654.12
458.74	10597.95
458.93	10691.57
459.11	10675.18
459.29	10686.89
459.48	10782.85
459.66	10801.57
459.84	10731.36
460.03	10942.00
460.21	10815.62
460.39	11138.61
460.57	10995.84
460.76	11194.78
460.94	11103.50
461.12	11166.70
461.31	11054.35
461.49	11206.48
461.67	11208.83
461.85	11314.15
462.04	11257.98
462.22	11686.29
462.40	11541.18
462.59	11559.91
462.77	11253.30
462.95	11576.29
463.13	11503.73
463.32	11351.60
463.50	11709.70
463.68	11573.95
463.86	11850.13
464.05	11707.36
464.23	11433.52
464.41	11983.54
464.59	11702.68
464.78	12177.81
464.96	12140.36
465.14	11836.09
465.32	12018.65
465.50	11887.58
465.69	12074.82
465.87	12063.12
466.05	12016.31
466.23	12049.08
466.41	12266.75
466.60	12379.09
466.78	12238.66
466.96	12049.08
467.14	12203.55
467.32	12259.73
467.51	12472.71
467.69	12243.34
467.87	12425.90
468.05	12617.83
468.23	12287.81
468.41	12418.88
468.60	12779.32
468.78	12833.16
468.96	12571.02
469.14	12933.80
469.32	12877.63
469.50	12587.40
469.69	12919.76
469.87	13055.51
470.05	13053.17
470.23	13118.70
470.41	13167.85
470.59	13240.41
470.77	13020.40
470.95	13275.52
471.14	13528.30
471.32	13011.04
471.50	13561.06
471.68	13582.13
471.86	13678.09
472.04	13680.43
472.22	13855.97
472.40	13837.25
472.58	13703.84
472.77	14085.34
472.95	14153.22
473.13	14607.28
473.31	13982.36
473.49	13626.60
473.67	13937.89
473.85	14171.94
474.03	14581.54
474.21	14630.69
474.39	14574.52
474.57	14490.26
474.75	14902.19
474.93	14834.32
475.12	14813.25
475.30	15089.43
475.48	15028.58
475.66	15164.33
475.84	15073.05
476.02	15218.16
476.20	15236.89
476.38	15756.49
476.56	15758.83
476.74	15880.53
476.92	15857.13
477.10	15569.24
477.28	15838.41
477.46	16306.51
477.64	16142.67
477.82	16528.86
478.00	16776.96
478.18	16795.68
478.36	16723.13
478.54	17287.20
478.72	17275.49
478.90	17242.73
479.08	17591.47
479.26	17528.27
479.44	17848.93
479.62	17837.22
479.80	18043.19
479.98	18286.61
480.16	18195.32
480.34	18452.78
480.52	18237.45
480.70	18733.65
480.88	18293.63
481.06	18941.96
481.24	18895.14
481.41	19094.09
481.59	19372.61
481.77	19304.74
481.95	19314.10
482.13	19545.81
482.31	19515.39
482.49	20205.84
482.67	20152.01
482.85	20802.68
483.03	20418.83
483.21	20702.04
483.39	20575.65
483.57	20830.77
483.74	20933.75
483.92	21130.36
484.10	20936.09
484.28	21509.52
484.46	21783.37
484.64	22354.46
484.82	22309.99
485.00	22239.77
485.18	22412.97
485.35	22977.04
485.53	22801.50
485.71	22642.34
485.89	23255.56
486.07	23215.77
486.25	23367.91
486.43	23264.92
486.61	23882.83
486.78	24077.09
486.96	24079.43
487.14	24353.27
487.32	24435.19
487.50	24945.43
487.68	24737.12
487.85	25525.88
488.03	25415.88
488.21	25596.10
488.39	25883.98
488.57	25703.76
488.75	25991.65
488.92	26286.56
489.10	26525.29
489.28	26621.25
489.46	27019.14
489.64	26574.44
489.81	27056.59
489.99	27463.85
490.17	27662.79
490.35	27974.08
490.53	28175.37
490.70	28339.21
490.88	27941.32
491.06	28528.79
491.24	28683.27
491.41	28615.39
491.59	29195.84
491.77	29315.21
491.95	29551.60
492.13	29788.00
492.30	30029.07
492.48	29989.28
492.66	30326.32
492.84	30525.27
493.01	30401.22
493.19	30579.10
493.37	30735.92
493.54	30869.33
493.72	31473.18
493.90	31335.09
494.08	31889.80
494.25	31990.44
494.43	31573.83
494.61	32079.38
494.79	32112.15
494.96	32393.01
495.14	32566.21
495.32	33219.22
495.49	33053.05
495.67	33312.84
495.85	33551.58
496.02	33551.58
496.20	33949.47
496.38	33823.08
496.55	34000.96
496.73	34642.27
496.91	34448.00
497.09	34642.27
497.26	34349.70
497.44	35058.88
497.62	35269.53
497.79	35658.06
497.97	35070.59
498.14	35955.31
498.32	35702.53
498.50	36238.51
498.67	36856.42
498.85	36627.04
499.03	36713.64
499.20	36652.79
499.38	36217.45
499.56	37003.87
499.73	36854.08
499.91	37067.06
500.08	37322.18
500.26	37102.17
500.44	37724.75
500.61	37886.25
500.79	37324.52
500.97	37837.10
501.14	38576.71
501.32	38651.61
501.49	38066.47
501.67	38609.48
501.84	39182.91
502.02	38864.60
502.20	39070.56
502.37	39040.14
502.55	39072.90
502.72	39187.59
502.90	39297.59
503.07	39131.42
503.25	39452.07
503.43	39693.15
503.60	39798.47
503.78	40048.91
503.95	40217.43
504.13	39845.28
504.30	40727.66
504.48	40254.87
504.65	40524.04
504.83	40751.07
505.01	41081.08
505.18	41343.22
505.36	41228.54
505.53	40914.90
505.71	41631.11
505.88	41631.11
506.06	41823.03
506.23	41773.88
506.41	41666.22
506.58	41715.37
506.76	42192.84
506.93	42120.28
507.11	42176.45
507.28	42534.56
507.46	42258.37
507.63	42770.95
507.81	42806.06
507.98	42726.48
508.16	42663.28
508.33	43040.11
508.50	43201.61
508.68	43768.02
508.85	43756.32
509.03	43620.56
509.20	43702.48
509.38	43889.73
509.55	44191.65
509.73	44315.70
509.90	44179.95
510.08	44744.02
510.25	44570.82
510.42	44713.59
510.60	44524.01
510.77	44926.58
510.95	45059.99
511.12	44748.70
511.30	44942.97
511.47	44945.31
511.64	45511.72
511.82	45581.93
511.99	45502.35
512.17	45965.78
512.34	46122.60
512.51	46071.10
512.69	46148.34
512.86	46195.15
513.04	46642.20
513.21	46518.15
513.38	46307.50
513.56	46593.04
513.73	46731.14
513.90	47250.74
514.08	46452.61
514.25	46735.82
514.43	46576.66
514.60	47281.16
514.77	47264.78
514.95	47562.03
515.12	47435.64
515.29	47536.28
515.47	47442.66
515.64	47852.25
515.81	47632.24
515.99	48055.88
516.16	47990.34
516.33	47833.53
516.51	48491.22
516.68	48378.87
516.85	48161.20
517.03	48814.21
517.20	48704.21
517.37	48793.15
517.54	48825.92
517.72	48456.11
517.89	48619.95
518.06	49069.33
518.24	48996.77
518.41	49268.28
518.58	49329.13
518.75	48767.40
518.93	49406.37
519.10	49602.97
519.27	49532.76
519.45	49387.64
519.62	49923.63
519.79	50038.31
519.96	49556.16
520.14	49942.35
520.31	50136.62
520.48	50181.09
520.65	50169.38
520.83	50618.77
521.00	50525.14
521.17	50567.27
521.34	50960.48
521.52	50834.10
521.69	50609.40
521.86	51213.26
522.03	51014.32
522.20	50890.27
522.38	51449.66
522.55	51365.40
522.72	51173.47
522.89	51164.11
523.07	51320.93
523.24	51040.06
523.41	51491.79
523.58	51161.77
523.75	51742.22
523.92	51559.66
524.10	51753.93
524.27	51887.34
524.44	51800.74
524.61	52039.47
524.78	52261.82
524.96	52121.39
525.13	51995.00
525.30	51929.47
525.47	52374.17
525.64	52205.65
525.81	52479.49
525.98	52193.95
526.16	52650.35
526.33	52638.65
526.50	52898.45
526.67	52676.10
526.84	52961.64
527.01	52636.31
527.18	52612.90
527.36	52898.45
527.53	52837.59
527.70	52996.75
527.87	53223.78
528.04	53015.47
528.21	53172.29
528.38	53413.37
528.55	53343.15
528.72	53352.51
528.89	53546.78
529.07	53116.12
529.24	53113.78
529.41	53757.42
529.58	53368.90
529.75	53593.59
529.92	53521.03
530.09	53757.42
530.26	53935.30
530.43	54068.72
530.60	53631.04
530.77	53640.40
530.94	54000.84
531.11	53900.20
531.28	54047.65
531.46	54307.45
531.63	54199.79
531.80	53886.15
531.97	54197.44
532.14	54260.64
532.31	54298.09
532.48	54316.81
532.65	54408.09
532.82	54195.10
532.99	54735.77
533.16	54600.02
533.33	54539.16
533.50	54742.79
533.67	54686.62
533.84	54794.28
534.01	54782.58
534.18	54738.11
534.35	55292.82
534.52	54899.61
534.69	55051.74
534.86	55213.24
535.03	55159.41
535.20	54923.01
535.37	55164.09
535.54	55262.39
535.71	55217.92
535.88	55262.39
536.05	55426.23
536.22	55451.97
536.38	55494.10
536.55	55484.74
536.72	55606.45
536.89	55302.18
537.06	55381.76
537.23	55463.67
537.40	55646.24
537.57	55613.47
537.74	55674.32
537.91	55955.19
538.08	55779.65
538.25	55721.13
538.42	55962.21
538.59	56135.41
538.75	55723.47
538.92	55868.59
539.09	56069.87
539.26	55866.25
539.43	55938.80
539.60	56168.18
539.77	56238.39
539.94	56184.56
540.11	56287.54
540.28	56320.31
540.44	56224.35
540.61	56442.02
540.78	56385.85
540.95	56371.80
541.12	56179.88
541.29	56186.90
541.46	56486.49
541.62	56427.98
541.79	56631.60
541.96	56310.95
542.13	56507.55
542.30	56849.27
542.47	56800.12
542.63	57015.45
542.80	56732.25
542.97	56722.88
543.14	56973.32
543.31	56968.64
543.48	57017.79
543.64	57382.91
543.81	57385.25
543.98	57134.82
544.15	57364.19
544.32	57113.75
544.48	57483.56
544.65	57226.10
544.82	57429.72
544.99	57244.82
545.16	57464.83
545.32	57212.06
545.49	57565.48
545.66	57701.23
545.83	57558.45
546.00	57478.88
546.16	57513.98
546.33	57382.91
546.50	57144.18
546.67	57705.91
546.83	57542.07
547.00	57633.35
547.17	57556.11
547.34	57715.27
547.50	57698.89
547.67	58033.58
547.84	57897.83
548.00	58047.63
548.17	57935.28
548.34	58068.69
548.51	58164.65
548.67	58085.07
548.84	58078.05
549.01	58103.80
549.18	58073.37
549.34	58234.87
549.51	58291.04
549.68	58024.22
549.84	58288.70
550.01	58143.59
550.18	58192.74
550.34	58497.01
550.51	58244.23
550.68	58284.02
550.84	58284.02
551.01	58618.72
551.18	58309.77
551.34	58370.62
551.51	58328.49
551.68	58656.17
551.84	58574.25
552.01	58213.80
552.18	58782.55
552.34	58356.58
552.51	58684.25
552.68	58527.44
552.84	58424.45
553.01	58803.62
553.18	58726.38
553.34	58930.01
553.51	58595.31
553.67	58745.11
553.84	58983.84
554.01	58894.90
554.17	58817.66
554.34	58901.92
554.51	58993.20
554.67	58852.77
554.84	59079.80
555.00	58843.41
555.17	58981.50
555.33	58976.82
555.50	58876.18
555.67	58848.09
555.83	58918.31
556.00	59044.69
556.16	59264.70
556.33	59150.02
556.50	58967.46
556.66	59330.24
556.83	58953.41
556.99	59281.09
557.16	59299.81
557.32	59330.24
557.49	59505.78
557.65	59423.86
557.82	59161.72
557.98	59236.62
558.15	59540.89
558.32	59377.05
558.48	59447.27
558.65	59480.03
558.81	59419.18
558.98	59494.08
559.14	59461.31
559.31	59437.90
559.47	59590.04
559.64	59611.10
559.80	59704.73
559.97	59781.96
560.13	59531.53
560.30	59454.29
560.46	59728.13
560.63	59508.12
560.79	59671.96
560.96	59711.75
561.12	59620.47
561.29	59573.66
561.45	59700.04
561.61	59774.94
561.78	59653.23
561.94	59636.85
562.11	59704.73
562.27	59751.54
562.44	60039.42
562.60	60034.74
562.77	60076.87
562.93	59639.19
563.10	60149.43
563.26	59868.56
563.42	59945.80
563.59	59777.28
563.75	59840.48
563.92	59906.01
564.08	59971.55
564.24	60137.72
564.41	60140.07
564.57	60151.77
564.74	60133.04
564.90	60126.02
565.07	60097.94
565.23	59994.95
565.39	60168.15
565.56	60261.77
565.72	60030.06
565.88	59999.63
566.05	60060.49
566.21	60018.36
566.38	60247.73
566.54	60331.99
566.70	60163.47
566.87	60243.05
567.03	59964.52
567.19	60346.03
567.36	60149.43
567.52	60198.58
567.68	60507.53
567.85	60343.69
568.01	60341.35
568.17	60212.62
568.34	60200.92
568.50	60090.91
568.66	60163.47
568.83	60278.16
568.99	60348.37
569.15	60296.88
569.32	60430.29
569.48	60292.20
569.64	60383.48
569.81	60240.71
569.97	60273.48
570.13	60221.98
570.30	60191.56
570.46	60404.55
570.62	60463.06
570.78	60261.77
570.95	60486.46
571.11	60683.07
571.27	60116.66
571.43	60493.49
571.60	60441.99
571.76	60397.52
571.92	60577.75
572.09	60399.86
572.25	60647.96
572.41	60587.11
572.57	60650.30
572.74	60626.90
572.90	60247.73
573.06	60596.47
573.22	60516.89
573.38	60676.05
573.55	60528.59
573.71	60685.41
573.87	60552.00
574.03	60383.48
574.20	60669.03
574.36	60559.02
574.52	60734.56
574.68	60563.70
574.84	60865.63
575.01	60598.81
575.17	60711.16
575.33	60566.04
575.49	60666.69
575.65	60774.35
575.82	60734.56
575.98	60463.06
576.14	61022.45
576.30	60598.81
576.46	60629.24
576.62	60739.24
576.79	60678.39
576.95	60460.72
577.11	60631.58
577.27	60849.25
577.43	60818.82
577.59	60680.73
577.75	60636.26
577.92	60507.53
578.08	60640.94
578.24	60865.63
578.40	61041.17
578.56	60821.16
578.72	60729.88
578.88	60914.78
579.04	60802.44
579.21	60835.20
579.37	60809.46
579.53	60788.39
579.69	60673.71
579.85	60612.85
580.01	60856.27
580.17	60596.47
580.33	60800.10
580.49	60867.97
580.65	60949.89
580.82	60828.18
580.98	60842.23
581.14	60650.30
581.30	60760.31
581.46	60786.05
581.62	60853.93
581.78	60587.11
581.94	60889.04
582.10	60544.98
582.26	60786.05
582.42	60769.67
582.58	61050.53
582.74	60671.37
582.90	60856.27
583.06	60687.75
583.22	60788.39
583.38	60865.63
583.54	60872.65
583.70	60870.31
583.86	61008.40
584.02	60980.32
584.18	60928.83
584.34	60849.25
584.50	60874.99
584.66	60638.60
584.82	60762.65
584.98	60977.98
585.14	61003.72
585.30	60860.95
585.46	61052.87
585.62	60945.21
585.78	61169.90
585.94	60573.06
586.10	60774.35
586.26	60837.54
586.42	60954.57
586.58	61132.45
586.74	61031.81
586.90	60832.86
587.06	60760.31
587.22	61041.17
587.38	60919.46
587.54	60973.30
587.70	61118.41
587.86	60741.58
588.02	61052.87
588.18	61064.58
588.34	61085.64
588.49	61162.88
