SpectraSuite Data File
++++++++++++++++++++++++++++++++++++
Date: Fri Oct 25 11:26:23 EDT 2013
User: price-jones
Dark Spectrum Present: No
Reference Spectrum Present: No
Number of Sampled Component Spectra: 1
Spectrometers: USB2+H05261
Integration Time (usec): 100000 (USB2+H05261)
Spectra Averaged: 1 (USB2+H05261)
Boxcar Smoothing: 0 (USB2+H05261)
Correct for Electrical Dark: No (USB2+H05261)
Strobe/Lamp Enabled: No (USB2+H05261)
Correct for Detector Non-linearity: No (USB2+H05261)
Correct for Stray Light: No (USB2+H05261)
Number of Pixels in Processed Spectrum: 2048
>>>>>Begin Processed Spectral Data<<<<<
365.73	231.71
365.92	231.71
366.12	231.71
366.32	154.48
366.52	184.90
366.72	126.39
366.91	100.64
367.11	147.45
367.31	187.24
367.51	194.26
367.70	126.39
367.90	140.43
368.10	18.72
368.30	149.79
368.49	201.29
368.69	168.52
368.89	168.52
369.09	220.01
369.28	142.77
369.48	205.97
369.68	154.48
369.87	135.75
370.07	227.03
370.27	175.54
370.47	252.78
370.66	568.75
370.86	667.05
371.06	645.99
371.25	725.57
371.45	723.23
371.65	650.67
371.84	662.37
372.04	739.61
372.24	725.57
372.44	720.88
372.63	734.93
372.83	744.29
373.03	713.86
373.22	772.38
373.42	723.23
373.62	791.10
373.81	833.23
374.01	823.87
374.21	896.43
374.40	842.59
374.60	891.74
374.79	851.96
374.99	791.10
375.19	826.21
375.38	891.74
375.58	819.19
375.78	856.64
375.97	866.00
376.17	940.90
376.37	805.14
376.56	833.23
376.76	922.17
376.95	912.81
377.15	940.90
377.35	854.30
377.54	922.17
377.74	959.62
377.93	971.32
378.13	844.93
378.33	973.66
378.52	917.49
378.72	926.85
378.91	971.32
379.11	884.72
379.31	896.43
379.50	966.64
379.70	877.70
379.89	901.11
380.09	938.55
380.28	926.85
380.48	985.37
380.68	976.00
380.87	947.92
381.07	1029.84
381.26	1137.50
381.46	1086.01
381.65	1027.50
381.85	1050.90
382.04	1074.31
382.24	1093.03
382.43	1139.84
382.63	1090.69
382.83	1121.12
383.02	1118.78
383.22	1142.18
383.41	1022.81
383.61	1081.33
383.80	1086.01
384.00	1151.54
384.19	1100.05
384.39	1111.75
384.58	1137.50
384.78	1151.54
384.97	1116.44
385.17	1081.33
385.36	1139.84
385.56	1125.80
385.75	1107.07
385.95	1118.78
386.14	1254.53
386.34	1151.54
386.53	1200.69
386.72	1193.67
386.92	1270.91
387.11	1193.67
387.31	1217.08
387.50	1233.46
387.70	1280.27
387.89	1142.18
388.09	1205.38
388.28	1308.36
388.48	1228.78
388.67	1296.66
388.86	1345.81
389.06	1355.17
389.25	1308.36
389.45	1287.29
389.64	1357.51
389.84	1409.00
390.03	1350.49
390.22	1427.73
390.42	1399.64
390.61	1383.26
390.81	1371.55
391.00	1411.34
391.19	1427.73
391.39	1413.68
391.58	1488.58
391.78	1444.11
391.97	1493.26
392.16	1430.07
392.36	1540.07
392.55	1427.73
392.75	1549.43
392.94	1483.90
393.13	1497.94
393.33	1540.07
393.52	1535.39
393.71	1572.84
393.91	1568.16
394.10	1533.05
394.29	1598.59
394.49	1540.07
394.68	1706.25
394.88	1629.01
395.07	1689.87
395.26	1685.19
395.46	1703.91
395.65	1750.72
395.84	1687.53
396.04	1785.83
396.23	1715.61
396.42	1694.55
396.62	1806.89
396.81	1722.63
397.00	1802.21
397.19	1827.96
397.39	1736.68
397.58	1858.39
397.77	1785.83
397.97	1851.36
398.16	1870.09
398.35	1834.98
398.55	1795.19
398.74	1916.90
398.93	1909.88
399.12	1905.20
399.32	1935.62
399.51	1970.73
399.70	2017.54
399.90	2094.78
400.09	1973.07
400.28	1989.46
400.47	2040.95
400.67	2090.10
400.86	2069.03
401.05	2172.02
401.24	2073.71
401.44	2092.44
401.63	2083.08
401.82	2090.10
402.01	2113.50
402.21	2122.87
402.40	2136.91
402.59	2143.93
402.78	2249.25
402.97	2211.81
403.17	2186.06
403.36	2249.25
403.55	2260.96
403.74	2331.17
403.93	2338.20
404.13	2450.54
404.32	2363.94
404.51	2324.15
404.70	2317.13
404.89	2389.69
405.09	2466.92
405.28	2373.30
405.47	2534.80
405.66	2548.84
405.85	2462.24
406.05	2459.90
406.24	2455.22
406.43	2513.74
406.62	2583.95
406.81	2710.34
407.00	2499.69
407.20	2544.16
407.39	2616.72
407.58	2651.83
407.77	2616.72
407.96	2722.04
408.15	2719.70
408.34	2689.28
408.54	2820.35
408.73	2785.24
408.92	2883.54
409.11	2808.64
409.30	2925.67
409.49	2860.13
409.68	2895.24
409.87	2949.08
410.07	2883.54
410.26	2841.41
410.45	3098.87
410.64	2963.12
410.83	2960.78
411.02	3021.63
411.21	3143.34
411.40	3283.77
411.59	3197.17
411.78	3208.87
411.98	3243.98
412.17	3206.53
412.36	3234.62
412.55	3253.34
412.74	3358.67
412.93	3384.41
413.12	3384.41
413.31	3431.23
413.50	3368.03
413.69	3442.93
413.88	3499.10
414.07	3492.08
414.26	3597.40
414.45	3641.87
414.64	3555.27
414.83	3749.54
415.02	3700.39
415.22	3803.37
415.41	3803.37
415.60	3838.48
415.79	3740.18
415.98	3939.12
416.17	4030.40
416.36	3997.64
416.55	3840.82
416.74	4011.68
416.93	4093.60
417.12	4079.55
417.31	4126.36
417.50	4259.78
417.69	4341.69
417.88	4257.43
418.07	4236.37
418.26	4315.95
418.45	4266.80
418.64	4395.53
418.83	4425.95
419.02	4435.32
419.21	4500.85
419.39	4484.47
419.58	4423.61
419.77	4477.44
419.96	4475.10
420.15	4631.92
420.34	4482.13
420.53	4634.26
420.72	4613.20
420.91	4683.41
421.10	4800.44
421.29	4732.56
421.48	4526.60
421.67	4744.27
421.86	4657.67
422.05	4704.48
422.24	4851.93
422.43	4720.86
422.61	4791.08
422.80	4800.44
422.99	4896.40
423.18	4744.27
423.37	4971.30
423.56	4830.87
423.75	4964.28
423.94	4861.29
424.13	4678.73
424.32	4716.18
424.50	4943.21
424.69	5076.62
424.88	5039.17
425.07	4788.74
425.26	5001.72
425.45	4847.25
425.64	4858.95
425.83	4947.89
426.01	5071.94
426.20	4999.38
426.39	5015.77
426.58	5102.37
426.77	4985.34
426.96	5071.94
427.15	5029.81
427.33	5294.29
427.52	5043.85
427.71	5160.88
427.90	4994.70
428.09	5186.63
428.28	5331.74
428.46	5387.91
428.65	5341.10
428.84	5558.77
429.03	5565.79
429.22	5355.15
429.40	5362.17
429.59	5430.04
429.78	5217.05
429.97	5093.01
430.16	5533.03
430.34	5614.95
430.53	5664.10
430.72	5575.16
430.91	5600.90
431.10	5659.42
431.28	5717.93
431.47	5795.17
431.66	5809.21
431.85	5727.29
432.03	6040.92
432.22	5989.43
432.41	6047.94
432.60	5853.68
432.79	6061.99
432.97	5872.40
433.16	5902.83
433.35	5841.98
433.54	6076.03
433.72	6012.84
433.91	5980.07
434.10	6047.94
434.28	6094.76
434.47	5980.07
434.66	6052.63
434.85	6303.06
435.03	6291.36
435.22	6361.58
435.41	6548.82
435.59	6513.71
435.78	6443.49
435.97	6455.20
436.16	6345.19
436.34	6319.45
436.53	6579.25
436.72	6574.56
436.90	6537.12
437.09	6640.10
437.28	6569.88
437.46	6569.88
437.65	6441.15
437.84	6604.99
438.02	6607.33
438.21	6715.00
438.40	6597.97
438.58	7056.72
438.77	6930.33
438.96	6836.70
439.14	6815.64
439.33	7105.87
439.52	7119.91
439.70	6993.52
439.89	7318.86
440.08	7229.91
440.26	7368.01
440.45	7360.98
440.63	7506.10
440.82	7557.59
441.01	7370.35
441.19	7648.87
441.38	7576.31
441.57	7735.47
441.75	7520.14
441.94	7850.16
442.12	7859.52
442.31	7796.32
442.50	7812.71
442.68	7803.35
442.87	7920.37
443.05	7985.91
443.24	8234.00
443.43	8093.57
443.61	8184.85
443.80	8276.13
443.98	7988.25
444.17	7681.64
444.35	8100.59
444.54	8194.22
444.73	8009.31
444.91	8093.57
445.10	8299.54
445.28	8107.62
445.47	8243.37
445.65	8250.39
445.84	8549.98
446.02	8353.37
446.21	8301.88
446.39	8336.99
446.58	8348.69
446.77	8552.32
446.95	8219.96
447.14	8395.50
447.32	8496.14
447.51	8475.08
447.69	8376.78
447.88	8442.31
448.06	8500.83
448.25	8187.19
448.43	8414.23
448.62	8645.94
448.80	8606.15
448.99	8540.61
449.17	8718.50
449.36	8564.02
449.54	8821.48
449.73	8936.17
449.91	9022.77
450.10	8901.06
450.28	9088.30
450.46	8781.69
450.65	9057.87
450.83	9011.06
451.02	9158.52
451.20	9163.20
451.39	9156.18
451.57	9210.01
451.76	9022.77
451.94	9025.11
452.13	9057.87
452.31	9266.18
452.49	9067.24
452.68	9165.54
452.86	9224.05
453.05	9479.17
453.23	9483.85
453.42	9308.31
453.60	9345.76
453.78	9362.14
453.97	9202.99
454.15	9324.69
454.34	9369.16
454.52	9568.11
454.70	9713.22
454.89	9411.29
455.07	9572.79
455.26	9495.55
455.44	10085.37
455.62	9682.80
455.81	9811.53
455.99	10073.67
456.17	9811.53
456.36	9837.27
456.54	10015.15
456.73	10094.73
456.91	10188.35
457.09	10197.71
457.28	10455.17
457.46	10284.31
457.64	10658.80
457.83	10413.04
458.01	10207.08
458.19	10677.52
458.38	10499.64
458.56	10689.23
458.74	10387.30
458.93	10396.66
459.11	10904.56
459.29	10490.28
459.48	10586.24
459.66	10745.40
459.84	10654.12
460.03	10899.87
460.21	10895.19
460.39	11002.86
460.57	11089.46
460.76	10920.94
460.94	11143.29
461.12	10993.50
461.31	11019.24
461.49	11012.22
461.67	11133.93
461.85	11679.27
462.04	11087.12
462.22	11843.11
462.40	11552.88
462.59	11480.33
462.77	11489.69
462.95	11510.75
463.13	11487.35
463.32	11389.05
463.50	11784.60
463.68	11908.65
463.86	11784.60
464.05	11655.87
464.23	11775.24
464.41	11690.98
464.59	11487.35
464.78	12042.06
464.96	11889.92
465.14	11641.82
465.32	11995.25
465.50	11716.72
465.69	12231.64
465.87	11997.59
466.05	11995.25
466.23	12011.63
466.41	12255.04
466.60	12351.01
466.78	12020.99
466.96	11861.84
467.14	12084.19
467.32	12248.02
467.51	12400.16
467.69	11934.39
467.87	12327.60
468.05	12468.03
468.23	12449.31
468.41	12446.97
468.60	12397.82
468.78	12678.68
468.96	12233.98
469.14	12645.91
469.32	12884.65
469.50	12718.47
469.69	12734.85
469.87	12999.34
470.05	13174.88
470.23	13125.72
470.41	13001.68
470.59	13308.29
470.77	13217.01
470.95	13198.28
471.14	13399.57
471.32	12919.76
471.50	13547.02
471.68	13558.72
471.86	13582.13
472.04	13666.39
472.22	14073.64
472.40	13282.54
472.58	13591.49
472.77	13790.44
472.95	13865.33
473.13	14384.93
473.31	14083.00
473.49	14263.22
473.67	13860.65
473.85	14483.24
474.03	14513.66
474.21	14644.73
474.39	14527.71
474.57	14633.03
474.75	14773.46
474.93	14878.79
475.12	14813.25
475.30	14827.29
475.48	14979.43
475.66	14927.94
475.84	14759.42
476.02	15190.08
476.20	15147.95
476.38	15492.01
476.56	15953.09
476.74	15793.94
476.92	15871.17
477.10	15714.36
477.28	15756.49
477.46	16091.18
477.64	16011.60
477.82	16409.50
478.00	16725.47
478.18	16465.67
478.36	16645.89
478.54	17020.38
478.72	16826.11
478.90	17301.24
479.08	17249.75
479.26	17317.62
479.44	17539.97
479.62	18047.87
479.80	17982.34
479.98	18424.70
480.16	18300.65
480.34	18171.92
480.52	18412.99
480.70	18164.90
480.88	18370.86
481.06	18401.29
481.24	18513.64
481.41	18967.70
481.59	19379.64
481.77	19302.40
481.95	19180.69
482.13	19660.50
482.31	19480.28
482.49	20002.22
482.67	19985.83
482.85	20259.68
483.03	20421.17
483.21	20652.89
483.39	20709.06
483.57	20585.01
483.74	20727.78
483.92	21125.68
484.10	21331.64
484.28	21490.80
484.46	21682.72
484.64	22057.21
484.82	21804.43
485.00	22305.31
485.18	22717.24
485.35	22609.58
485.53	22551.06
485.71	22960.66
485.89	23229.82
486.07	23049.60
486.25	23283.65
486.43	23487.28
486.61	23740.05
486.78	23946.02
486.96	23742.39
487.14	24460.94
487.32	24421.15
487.50	24823.72
487.68	24442.21
487.85	25165.44
488.03	25289.49
488.21	25436.94
488.39	25593.76
488.57	25617.16
488.75	26223.36
488.92	26316.98
489.10	26562.74
489.28	26525.29
489.46	27023.83
489.64	26693.81
489.81	27398.31
489.99	27330.44
490.17	27328.10
490.35	27896.85
490.53	27857.06
490.70	28409.42
490.88	28444.53
491.06	28844.76
491.24	28709.01
491.41	28774.55
491.59	29434.58
491.77	29186.48
491.95	29495.43
492.13	29673.31
492.30	29628.84
492.48	29797.36
492.66	30150.78
492.84	30036.09
493.01	30352.07
493.19	30457.39
493.37	30803.79
493.54	30874.01
493.72	31147.85
493.90	31012.10
494.08	31225.09
494.25	31725.96
494.43	31807.88
494.61	31922.57
494.79	31817.24
494.96	32226.84
495.14	32411.74
495.32	32882.19
495.49	33132.62
495.67	32989.85
495.85	33486.04
496.02	33462.64
496.20	34206.93
496.38	33120.92
496.55	34099.26
496.73	34113.31
496.91	34232.68
497.09	34642.27
497.26	34649.29
497.44	34501.84
497.62	34932.50
497.79	35400.60
497.97	35016.75
498.14	35828.92
498.32	36020.84
498.50	36070.00
498.67	36231.49
498.85	36238.51
499.03	36519.38
499.20	36442.14
499.38	36788.54
499.56	36605.98
499.73	36641.09
499.91	36875.14
500.08	37266.01
500.26	37146.64
500.44	37017.91
500.61	37436.87
500.79	37069.40
500.97	37734.12
501.14	38363.72
501.32	38064.13
501.49	37734.12
501.67	38415.21
501.84	38412.87
502.02	38550.96
502.20	38852.89
502.37	39358.45
502.55	38948.85
502.72	39089.29
502.90	39058.86
503.07	39386.54
503.25	39213.34
503.43	39463.77
503.60	39503.56
503.78	39842.94
503.95	40072.31
504.13	40156.57
504.30	40095.72
504.48	39908.47
504.65	40577.87
504.83	40950.01
505.01	40978.10
505.18	40975.76
505.36	41537.49
505.53	41125.55
505.71	40975.76
505.88	41581.96
506.06	41317.48
506.23	41626.43
506.41	41930.70
506.58	41790.27
506.76	42178.79
506.93	41640.47
507.11	41956.44
507.28	42024.32
507.46	42014.96
507.63	42108.58
507.81	42951.17
507.98	42651.58
508.16	42696.05
508.33	43096.28
508.50	42958.19
508.68	42895.00
508.85	43658.01
509.03	43456.73
509.20	43737.59
509.38	43924.83
509.55	44041.86
509.73	44549.76
509.90	43985.69
510.08	44076.97
510.25	44154.21
510.42	44790.83
510.60	44610.61
510.77	45148.93
510.95	45207.45
511.12	44982.76
511.30	44823.60
511.47	45214.47
511.64	45207.45
511.82	45469.59
511.99	45640.45
512.17	45500.01
512.34	45511.72
512.51	46117.92
512.69	46131.96
512.86	45701.30
513.04	46176.43
513.21	46003.23
513.38	46337.93
513.56	46541.55
513.73	46241.96
513.90	46712.41
514.08	46330.90
514.25	46894.97
514.43	47051.79
514.60	47107.96
514.77	46927.74
514.95	47604.16
515.12	46981.57
515.29	47342.02
515.47	47725.86
515.64	47988.00
515.81	47821.83
515.99	47653.31
516.16	48142.48
516.33	48098.01
516.51	48563.78
516.68	48222.06
516.85	47999.71
517.03	48535.69
517.20	48758.04
517.37	48519.31
517.54	48582.50
517.72	48491.22
517.89	48727.61
518.06	49027.20
518.24	48926.56
518.41	48989.75
518.58	48921.88
518.75	48729.95
518.93	48931.24
519.10	49076.35
519.27	49256.57
519.45	49663.83
519.62	49483.61
519.79	49565.52
519.96	49415.73
520.14	50204.49
520.31	49631.06
520.48	50026.61
520.65	49923.63
520.83	50356.63
521.00	50340.24
521.17	50134.28
521.34	50333.22
521.52	50590.68
521.69	50358.97
521.86	51004.95
522.03	50913.67
522.20	51112.62
522.38	51241.35
522.55	50803.67
522.72	50754.52
522.89	50918.35
523.07	51334.97
523.24	51309.22
523.41	51239.01
523.58	51208.58
523.75	51374.76
523.92	51433.27
524.10	51667.33
524.27	51709.46
524.44	51718.82
524.61	51643.92
524.78	51634.56
524.96	51903.72
525.13	51962.23
525.30	51959.89
525.47	52273.52
525.64	52191.61
525.81	52376.51
525.98	52413.96
526.16	52336.72
526.33	52222.03
526.50	52772.06
526.67	52306.29
526.84	52425.66
527.01	52603.54
527.18	52804.83
527.36	52760.36
527.53	52992.07
527.70	52870.36
527.87	53158.25
528.04	52664.39
528.21	53132.50
528.38	53207.40
528.55	53394.64
528.72	53249.53
528.89	53188.67
529.07	52935.90
529.24	53160.59
529.41	53684.87
529.58	53652.10
529.75	53195.70
529.92	53605.29
530.09	53415.71
530.26	53647.42
530.43	53577.20
530.60	53666.14
530.77	53837.00
530.94	53914.24
531.11	53460.18
531.28	53745.72
531.46	53879.13
531.63	54129.57
531.80	53705.93
531.97	53888.49
532.14	54138.93
532.31	53993.82
532.48	54237.23
532.65	54284.04
532.82	54380.01
532.99	54560.23
533.16	54237.23
533.33	54356.60
533.50	54513.42
533.67	54681.94
533.84	54443.20
534.01	54525.12
534.18	54719.38
534.35	54918.33
534.52	54862.16
534.69	54897.27
534.86	55152.38
535.03	54747.47
535.20	55061.10
535.37	55075.15
535.54	55210.90
535.71	55058.76
535.88	55346.65
536.05	55330.26
536.22	55264.73
536.38	55463.67
536.55	55253.03
536.72	55290.48
536.89	55243.66
537.06	55341.97
537.23	55402.82
537.40	55253.03
537.57	55241.32
537.74	55381.76
537.91	55590.06
538.08	55664.96
538.25	55475.38
538.42	55728.16
538.59	55838.16
538.75	55515.17
538.92	55868.59
539.09	55880.29
539.26	55852.20
539.43	55653.26
539.60	55786.67
539.77	55934.12
539.94	56343.72
540.11	55943.48
540.28	55861.57
540.44	56175.20
540.61	56112.00
540.78	56100.30
540.95	56460.74
541.12	56226.69
541.29	56357.76
541.46	56301.59
541.62	56240.73
541.79	56762.67
541.96	56168.18
542.13	56229.03
542.30	56491.17
542.47	56481.81
542.63	56662.03
542.80	56575.43
542.97	56856.29
543.14	56992.04
543.31	57010.77
543.48	57223.76
543.64	57443.77
543.81	57148.86
543.98	57066.94
544.15	57080.98
544.32	57160.56
544.48	57333.76
544.65	57303.34
544.82	57176.95
544.99	57010.77
545.16	57284.61
545.32	57403.98
545.49	57595.90
545.66	57439.09
545.83	57481.22
546.00	57523.35
546.16	57577.18
546.33	57183.97
546.50	57057.58
546.67	57528.03
546.83	57137.16
547.00	57539.73
547.17	57413.34
547.34	57455.47
547.50	57881.45
547.67	57776.12
547.84	57942.30
548.00	57836.98
548.17	57993.79
548.34	57787.83
548.51	58007.84
548.67	58188.06
548.84	57958.69
549.01	57813.57
549.18	57916.56
549.34	58117.84
549.51	58103.80
549.68	57946.98
549.84	58190.40
550.01	58265.30
550.18	58157.63
550.34	58192.74
550.51	58092.10
550.68	57998.48
550.84	57874.43
551.01	58494.67
551.18	58174.02
551.34	58211.46
551.51	58426.79
551.68	58335.51
551.84	58347.21
552.01	58326.15
552.18	58342.53
552.34	58349.56
552.51	58344.87
552.68	58419.77
552.84	58426.79
553.01	58763.83
553.18	58497.01
553.34	58628.08
553.51	58562.54
553.67	58644.46
553.84	58724.04
554.01	58780.21
554.17	58880.86
554.34	58841.07
554.51	58796.60
554.67	58925.33
554.84	58911.28
555.00	58789.58
555.17	58838.73
555.33	58871.49
555.50	58869.15
555.67	58714.68
555.83	58740.42
556.00	58892.56
556.16	59061.08
556.33	59103.21
556.50	58822.34
556.66	59061.08
556.83	58925.33
556.99	59056.40
557.16	59363.01
557.32	59501.10
557.49	59505.78
557.65	59035.33
557.82	59093.85
557.98	59250.66
558.15	59285.77
558.32	59255.34
558.48	59124.27
558.65	59248.32
558.81	59337.26
558.98	59288.11
559.14	59423.86
559.31	59302.15
559.47	59386.41
559.64	59465.99
559.80	59435.56
559.97	59515.14
560.13	59477.69
560.30	59426.20
560.46	59533.87
560.63	59524.50
560.79	59653.23
560.96	59725.79
561.12	59477.69
561.29	59641.53
561.45	59669.62
561.61	59634.51
561.78	59554.93
561.94	59779.62
562.11	59583.02
562.27	59643.87
562.44	59737.49
562.60	59763.24
562.77	59608.76
562.93	59749.20
563.10	59718.77
563.26	59711.75
563.42	59978.57
563.59	59737.49
563.75	59842.82
563.92	59887.29
564.08	59606.42
564.24	59716.43
564.41	60001.97
564.57	59807.71
564.74	59817.07
564.90	59817.07
565.07	59927.08
565.23	59877.93
565.39	59938.78
565.56	59781.96
565.72	60097.94
565.88	60121.34
566.05	60011.34
566.21	60060.49
566.38	60130.70
566.54	60128.36
566.70	60210.28
566.87	60158.79
567.03	60034.74
567.19	60292.20
567.36	60186.88
567.52	60287.52
567.68	60369.44
567.85	60013.68
568.01	59945.80
568.17	60189.22
568.34	60198.58
568.50	60102.62
568.66	60009.00
568.83	60275.82
568.99	60058.15
569.15	60243.05
569.32	60123.68
569.48	60081.55
569.64	60133.04
569.81	60271.14
569.97	59987.93
570.13	60203.26
570.30	60144.75
570.46	60306.24
570.62	60245.39
570.78	60292.20
570.95	60224.32
571.11	60434.97
571.27	60126.02
571.43	60334.33
571.60	60327.31
571.76	60395.18
571.92	60224.32
572.09	60252.41
572.25	60491.15
572.41	60434.97
572.57	60296.88
572.74	60512.21
572.90	60341.35
573.06	60596.47
573.22	60514.55
573.38	60409.23
573.55	60381.14
573.71	60507.53
573.87	60493.49
574.03	60179.85
574.20	60580.09
574.36	60456.04
574.52	60467.74
574.68	60465.40
574.84	60559.02
575.01	60526.25
575.17	60406.89
575.33	60334.33
575.49	60388.16
575.65	60664.35
575.82	60732.22
575.98	60432.63
576.14	60746.26
576.30	60495.83
576.46	60420.93
576.62	60381.14
576.79	60423.27
576.95	60240.71
577.11	60566.04
577.27	60512.21
577.43	60774.35
577.59	60706.47
577.75	60544.98
577.92	60463.06
578.08	60582.43
578.24	60537.96
578.40	60720.52
578.56	60797.76
578.72	60779.03
578.88	60954.57
579.04	60928.83
579.21	60559.02
579.37	60762.65
579.53	60849.25
579.69	60376.46
579.85	60530.93
580.01	60589.45
580.17	60636.26
580.33	60734.56
580.49	60739.24
580.65	60683.07
580.82	60762.65
580.98	60654.98
581.14	60631.58
581.30	60818.82
581.46	60638.60
581.62	60690.09
581.78	60666.69
581.94	60769.67
582.10	60559.02
582.26	60729.88
582.42	60706.47
582.58	60692.43
582.74	60718.18
582.90	60781.37
583.06	60584.77
583.22	60530.93
583.38	60877.33
583.54	60711.16
583.70	60753.29
583.86	60914.78
584.02	60640.94
584.18	60912.44
584.34	60673.71
584.50	60781.37
584.66	60704.13
584.82	60596.47
584.98	60825.84
585.14	60942.87
585.30	60706.47
585.46	60781.37
585.62	60764.99
585.78	60893.72
585.94	60451.36
586.10	60938.19
586.26	60832.86
586.42	60914.78
586.58	60947.55
586.74	60863.29
586.90	60739.24
587.06	60779.03
587.22	61029.47
587.38	60720.52
587.54	61165.22
587.70	60985.00
587.86	60811.80
588.02	61057.56
588.18	60977.98
588.34	60889.04
588.49	60886.70
