SpectraSuite Data File
++++++++++++++++++++++++++++++++++++
Date: Fri Oct 25 10:44:09 EDT 2013
User: price-jones
Dark Spectrum Present: No
Reference Spectrum Present: No
Number of Sampled Component Spectra: 1
Spectrometers: USB2+H05261
Integration Time (usec): 100000 (USB2+H05261)
Spectra Averaged: 1 (USB2+H05261)
Boxcar Smoothing: 0 (USB2+H05261)
Correct for Electrical Dark: No (USB2+H05261)
Strobe/Lamp Enabled: No (USB2+H05261)
Correct for Detector Non-linearity: No (USB2+H05261)
Correct for Stray Light: No (USB2+H05261)
Number of Pixels in Processed Spectrum: 2048
>>>>>Begin Processed Spectral Data<<<<<
365.73	110.01
365.92	110.01
366.12	110.01
366.32	0.00
366.52	9.36
366.72	0.00
366.91	0.00
367.11	23.41
367.31	42.13
367.51	46.81
367.70	14.04
367.90	46.81
368.10	4.68
368.30	4.68
368.49	39.79
368.69	72.56
368.89	42.13
369.09	39.79
369.28	84.26
369.48	124.05
369.68	79.58
369.87	102.98
370.07	49.15
370.27	77.24
370.47	191.92
370.66	367.46
370.86	376.83
371.06	444.70
371.25	416.62
371.45	383.85
371.65	472.79
371.84	379.17
372.04	409.59
372.24	442.36
372.44	500.87
372.63	447.04
372.83	456.40
373.03	543.00
373.22	521.94
373.42	564.07
373.62	587.47
373.81	540.66
374.01	535.98
374.21	503.22
374.40	599.18
374.60	554.71
374.79	545.34
374.99	491.51
375.19	580.45
375.38	540.66
375.58	573.43
375.78	550.03
375.97	571.09
376.17	596.84
376.37	653.01
376.56	547.69
376.76	599.18
376.95	554.71
377.15	543.00
377.35	592.16
377.54	702.16
377.74	631.94
377.93	706.84
378.13	662.37
378.33	657.69
378.52	634.29
378.72	664.71
378.91	683.44
379.11	685.78
379.31	645.99
379.50	592.16
379.70	634.29
379.89	716.20
380.09	688.12
380.28	629.60
380.48	713.86
380.68	655.35
380.87	681.10
381.07	692.80
381.26	685.78
381.46	716.20
381.65	681.10
381.85	765.36
382.04	645.99
382.24	678.76
382.43	702.16
382.63	737.27
382.83	730.25
383.02	746.63
383.22	795.78
383.41	697.48
383.61	667.05
383.80	786.42
384.00	802.80
384.19	774.72
384.39	856.64
384.58	751.31
384.78	739.61
384.97	744.29
385.17	814.51
385.36	821.53
385.56	802.80
385.75	784.08
385.95	833.23
386.14	854.30
386.34	856.64
386.53	807.48
386.72	802.80
386.92	861.32
387.11	830.89
387.31	863.66
387.50	910.47
387.70	847.27
387.89	781.74
388.09	891.74
388.28	802.80
388.48	837.91
388.67	959.62
388.86	861.32
389.06	947.92
389.25	968.98
389.45	980.68
389.64	919.83
389.84	999.41
390.03	994.73
390.22	926.85
390.42	1039.20
390.61	1034.52
390.81	1001.75
391.00	1081.33
391.19	1020.47
391.39	1139.84
391.58	1088.35
391.78	1055.58
391.97	1090.69
392.16	1006.43
392.36	1078.99
392.55	1029.84
392.75	1013.45
392.94	959.62
393.13	1055.58
393.33	997.07
393.52	1060.26
393.71	1095.37
393.91	1078.99
394.10	1036.86
394.29	1238.14
394.49	1132.82
394.68	1198.35
394.88	1144.52
395.07	1256.87
395.26	1245.16
395.46	1181.97
395.65	1193.67
395.84	1277.93
396.04	1240.48
396.23	1071.97
396.42	1146.86
396.62	1224.10
396.81	1203.04
397.00	1252.19
397.19	1299.00
397.39	1256.87
397.58	1289.64
397.77	1420.71
397.97	1366.87
398.16	1378.58
398.35	1528.37
398.55	1327.08
398.74	1385.60
398.93	1458.15
399.12	1469.86
399.32	1497.94
399.51	1540.07
399.70	1607.95
399.90	1582.20
400.09	1619.65
400.28	1643.06
400.47	1570.50
400.67	1659.44
400.86	1673.48
401.05	1629.01
401.24	1727.32
401.44	1629.01
401.63	1652.42
401.82	1633.69
402.01	1685.19
402.21	1788.17
402.40	1673.48
402.59	1701.57
402.78	1734.34
402.97	1715.61
403.17	1851.36
403.36	1746.04
403.55	1865.41
403.74	1905.20
403.93	1874.77
404.13	1837.32
404.32	1851.36
404.51	1879.45
404.70	1856.04
404.89	1891.15
405.09	1933.28
405.28	1902.86
405.47	1970.73
405.66	1916.90
405.85	1907.54
406.05	1987.11
406.24	2045.63
406.43	2122.87
406.62	1963.71
406.81	2101.80
407.00	2062.01
407.20	2036.27
407.39	1966.05
407.58	2143.93
407.77	2225.85
407.96	2132.23
408.15	2179.04
408.34	2101.80
408.54	2148.61
408.73	2324.15
408.92	2249.25
409.11	2342.88
409.30	2305.43
409.49	2321.81
409.68	2338.20
409.87	2242.23
410.07	2356.92
410.26	2359.26
410.45	2441.18
410.64	2445.86
410.83	2434.16
411.02	2438.84
411.21	2595.65
411.40	2525.44
411.59	2616.72
411.78	2656.51
411.98	2574.59
412.17	2593.31
412.36	2754.81
412.55	2640.12
412.74	2825.03
412.93	2698.64
413.12	2698.64
413.31	2803.96
413.50	2796.94
413.69	2717.36
413.88	2864.82
414.07	2916.31
414.26	2991.20
414.45	2904.60
414.64	3007.59
414.83	3012.27
415.02	2993.55
415.22	3028.65
415.41	3052.06
415.60	3091.85
415.79	3173.77
415.98	3185.47
416.17	3176.11
416.36	3234.62
416.55	3206.53
416.74	3302.50
416.93	3253.34
417.12	3274.41
417.31	3286.11
417.50	3353.99
417.69	3494.42
417.88	3375.05
418.07	3290.79
418.26	3410.16
418.45	3475.70
418.64	3576.34
418.83	3574.00
419.02	3510.80
419.21	3609.11
419.39	3578.68
419.58	3492.08
419.77	3604.42
419.96	3667.62
420.15	3592.72
420.34	3674.64
420.53	3707.41
420.72	3770.60
420.91	3702.73
421.10	3749.54
421.29	3885.29
421.48	3847.84
421.67	3864.22
421.86	3735.50
422.05	3882.95
422.24	3726.13
422.43	3791.67
422.61	3859.54
422.80	3880.61
422.99	3974.23
423.18	3836.14
423.37	3833.80
423.56	3992.95
423.75	3861.88
423.94	4009.34
424.13	3714.43
424.32	3786.99
424.50	3969.55
424.69	4035.08
424.88	4091.26
425.07	3985.93
425.26	3843.16
425.45	3974.23
425.64	3843.16
425.83	3955.51
426.01	3992.95
426.20	4023.38
426.39	4028.06
426.58	3908.69
426.77	3925.08
426.96	3983.59
427.15	3969.55
427.33	4016.36
427.52	3988.27
427.71	4159.13
427.90	4079.55
428.09	4088.92
428.28	4095.94
428.46	4107.64
428.65	4119.34
428.84	4376.80
429.03	4311.27
429.22	4180.20
429.40	4124.02
429.59	4088.92
429.78	3929.76
429.97	4077.21
430.16	4009.34
430.34	4140.41
430.53	4091.26
430.72	4140.41
430.91	4121.68
431.10	4283.18
431.28	4486.81
431.47	4568.73
431.66	4594.47
431.85	4538.30
432.03	4582.77
432.22	4741.93
432.41	4603.83
432.60	4671.71
432.79	4793.42
432.97	4774.69
433.16	4812.14
433.35	4631.92
433.54	4711.50
433.72	4667.03
433.91	4484.47
434.10	4629.58
434.28	4657.67
434.47	4746.61
434.66	4793.42
434.85	4896.40
435.03	4868.31
435.22	4891.72
435.41	5104.71
435.59	5029.81
435.78	5102.37
435.97	5205.35
436.16	5125.77
436.34	4992.36
436.53	5083.64
436.72	5181.95
436.90	5057.90
437.09	5177.26
437.28	5069.60
437.46	4961.94
437.65	5142.16
437.84	5203.01
438.02	5266.21
438.21	5146.84
438.40	5121.09
438.58	5303.65
438.77	5327.06
438.96	5313.02
439.14	5518.98
439.33	5511.96
439.52	5547.07
439.70	5528.35
439.89	5666.44
440.08	5792.83
440.26	5614.95
440.45	5654.73
440.63	5884.11
440.82	5902.83
441.01	5865.38
441.19	6064.33
441.38	6085.39
441.57	6129.86
441.75	6183.70
441.94	6223.48
442.12	6200.08
442.31	6429.45
442.50	6300.72
442.68	6298.38
442.87	6420.09
443.05	6347.53
443.24	6303.06
443.43	6265.61
443.61	6406.05
443.80	6485.62
443.98	6394.34
444.17	6197.74
444.35	6539.46
444.54	6567.54
444.73	6588.61
444.91	6457.54
445.10	6497.33
445.28	6443.49
445.47	6272.64
445.65	6452.86
445.84	6513.71
446.02	6516.05
446.21	6520.73
446.39	6630.74
446.58	6640.10
446.77	6490.31
446.95	6534.78
447.14	6729.04
447.32	6722.02
447.51	6518.39
447.69	6602.65
447.88	6712.66
448.06	6778.19
448.25	6815.64
448.43	6782.87
448.62	6600.31
448.80	6612.01
448.99	6792.23
449.17	6825.00
449.36	6766.49
449.54	6916.28
449.73	6841.39
449.91	7119.91
450.10	7180.76
450.28	6986.50
450.46	7332.90
450.65	7155.02
450.83	7119.91
451.02	7049.69
451.20	7260.34
451.39	7166.72
451.57	7105.87
451.76	7082.46
451.94	7258.00
452.13	7164.38
452.31	7178.42
452.49	6979.48
452.68	7129.27
452.86	7091.82
453.05	7133.95
453.23	7232.26
453.42	7236.94
453.60	7335.24
453.78	7412.48
453.97	7304.81
454.15	7445.24
454.34	7414.82
454.52	7793.98
454.70	7360.98
454.89	7499.08
455.07	7428.86
455.26	7449.93
455.44	7735.47
455.62	7791.64
455.81	7726.11
455.99	7688.66
456.17	7665.25
456.36	7702.70
456.54	7992.93
456.73	7950.80
456.91	8133.36
457.09	8004.63
457.28	8112.30
457.46	8046.76
457.64	8149.75
457.83	8058.46
458.01	7845.48
458.19	8147.40
458.38	8091.23
458.56	8116.98
458.74	8381.46
458.93	8234.00
459.11	8241.03
459.29	8348.69
459.48	8449.33
459.66	8210.60
459.84	8315.92
460.03	8561.68
460.21	8229.32
460.39	8449.33
460.57	8510.19
460.76	8458.70
460.94	8774.67
461.12	8587.43
461.31	8578.06
461.49	8585.08
461.67	8580.40
461.85	8854.25
462.04	8777.01
462.22	8795.73
462.40	8840.20
462.59	8856.59
462.77	8842.54
462.95	8798.07
463.13	8980.64
463.32	8753.60
463.50	9060.21
463.68	8910.42
463.86	8781.69
464.05	8926.80
464.23	8830.84
464.41	9022.77
464.59	8908.08
464.78	9174.90
464.96	8990.00
465.14	8985.32
465.32	9256.82
465.50	9413.63
465.69	9362.14
465.87	9069.58
466.05	9062.55
466.23	9394.91
466.41	9132.77
466.60	9324.69
466.78	9163.20
466.96	9256.82
467.14	9247.46
467.32	9355.12
467.51	9317.67
467.69	9273.20
467.87	9247.46
468.05	9411.29
468.23	9411.29
468.41	9425.34
468.60	9497.89
468.78	9423.00
468.96	9444.06
469.14	9706.20
469.32	9790.46
469.50	9626.62
469.69	9626.62
469.87	9858.34
470.05	9755.35
470.23	9769.40
470.41	9879.40
470.59	9963.66
470.77	9877.06
470.95	9703.86
471.14	10015.15
471.32	9741.31
471.50	10267.93
471.68	10181.33
471.86	10321.76
472.04	10251.55
472.22	10530.07
472.40	10190.69
472.58	10607.31
472.77	10497.30
472.95	10417.72
473.13	10707.95
473.31	10361.55
473.49	10476.24
473.67	10471.56
473.85	10736.04
474.03	11037.97
474.21	10981.79
474.39	10946.69
474.57	11063.71
474.75	10951.37
474.93	11190.10
475.12	11164.36
475.30	11208.83
475.48	11227.55
475.66	11087.12
475.84	11211.17
476.02	11248.61
476.20	11573.95
476.38	11529.48
476.56	11925.03
476.74	11882.90
476.92	11728.42
477.10	11768.21
477.28	12084.19
477.46	12175.47
477.64	12294.83
477.82	12325.26
478.00	12746.56
478.18	12245.68
478.36	12582.72
478.54	12830.82
478.72	12624.85
478.90	13067.21
479.08	13046.15
479.26	13083.59
479.44	13067.21
479.62	13163.17
479.80	13415.95
479.98	13647.66
480.16	13832.57
480.34	13584.47
480.52	13650.00
480.70	13563.40
480.88	13638.30
481.06	13895.76
481.24	14118.11
481.41	14176.62
481.59	14153.22
481.77	14146.20
481.95	14167.26
482.13	14427.06
482.31	14597.92
482.49	14897.51
482.67	14967.73
482.85	14972.41
483.03	15126.88
483.21	15204.12
483.39	15222.84
483.57	15117.52
483.74	15309.44
483.92	15704.99
484.10	15503.71
484.28	15716.70
484.46	16030.33
484.64	16257.36
484.82	15953.09
485.00	16327.58
485.18	16308.85
485.35	16381.41
485.53	15868.83
485.71	16112.25
485.89	16343.96
486.07	16252.68
486.25	16301.83
486.43	17128.04
486.61	16926.75
486.78	17130.38
486.96	17605.51
487.14	17605.51
487.32	17795.09
487.50	17916.80
487.68	18286.61
487.85	18618.96
488.03	18354.48
488.21	18534.70
488.39	18300.65
488.57	18424.70
488.75	18499.59
488.92	18911.53
489.10	19173.67
489.28	19440.49
489.46	19599.65
489.64	19286.01
489.81	20011.58
489.99	19653.48
490.17	19999.88
490.35	20126.27
490.53	20168.40
490.70	20428.20
490.88	20573.31
491.06	20996.95
491.24	20575.65
491.41	20531.18
491.59	20819.07
491.77	20641.18
491.95	20952.48
492.13	21322.28
492.30	21633.57
492.48	21652.30
492.66	21523.57
492.84	21806.77
493.01	22162.53
493.19	22087.64
493.37	21891.03
493.54	22176.58
493.72	22656.39
493.90	22691.49
494.08	22820.22
494.25	23241.52
494.43	23108.11
494.61	23185.35
494.79	23655.79
494.96	23124.49
495.14	23250.88
495.32	23548.13
495.49	23742.39
495.67	23527.06
495.85	23779.84
496.02	24114.54
496.20	24524.13
496.38	24287.74
496.55	24301.78
496.73	24664.57
496.91	24758.19
497.09	24875.21
497.26	25263.74
497.44	25027.35
497.62	24973.52
497.79	25518.86
497.97	24697.33
498.14	25139.69
498.32	25282.47
498.50	25401.83
498.67	25902.71
498.85	26092.29
499.03	26160.17
499.20	26111.02
499.38	26188.25
499.56	26551.04
499.73	26326.35
499.91	26782.75
500.08	26773.39
500.26	26246.77
500.44	26401.24
500.61	26693.81
500.79	26501.89
500.97	26834.24
501.14	26824.88
501.32	27009.78
501.49	27208.73
501.67	27014.46
501.84	27351.50
502.02	27007.44
502.20	27585.55
502.37	27754.07
502.55	27335.12
502.72	27995.15
502.90	27920.25
503.07	28072.39
503.25	27971.74
503.43	27985.79
503.60	28346.23
503.78	28161.33
503.95	28187.07
504.13	28481.98
504.30	28606.03
504.48	28678.58
504.65	28706.67
504.83	28957.11
505.01	29090.52
505.18	29118.60
505.36	29366.70
505.53	29415.85
505.71	29589.05
505.88	29645.23
506.06	29432.24
506.23	29621.82
506.41	29476.71
506.58	29640.54
506.76	29909.71
506.93	29776.30
507.11	30075.88
507.28	29944.81
507.46	29642.88
507.63	30345.05
507.81	30040.78
507.98	30136.74
508.16	30394.20
508.33	30312.28
508.50	30820.17
508.68	31051.89
508.85	31302.32
509.03	30948.90
509.20	31056.57
509.38	31395.95
509.55	31541.06
509.73	31290.62
509.90	31611.28
510.08	30984.01
510.25	31356.16
510.42	31498.93
510.60	31325.73
510.77	31534.04
510.95	31880.44
511.12	31915.54
511.30	31814.90
511.47	32364.93
511.64	32105.13
511.82	32690.26
511.99	32294.71
512.17	32451.53
512.34	32435.14
512.51	32231.52
512.69	32503.02
512.86	32575.58
513.04	32734.73
513.21	32631.75
513.38	32608.34
513.56	33172.41
513.73	32563.87
513.90	33123.26
514.08	32680.90
514.25	33233.27
514.43	33242.63
514.60	33237.95
514.77	33308.16
514.95	33359.66
515.12	33549.24
515.29	33188.80
515.47	33963.51
515.64	34239.70
515.81	33750.52
515.99	33493.07
516.16	33921.38
516.33	33614.77
516.51	33336.25
516.68	32898.57
516.85	33511.79
517.03	33486.04
517.20	34024.37
517.37	34019.69
517.54	34338.00
517.72	34335.66
517.89	34085.22
518.06	34141.39
518.24	34080.54
518.41	34171.82
518.58	34590.78
518.75	34546.31
518.93	35283.58
519.10	34873.98
519.27	34890.37
519.45	34895.05
519.62	35332.73
519.79	35278.89
519.96	34967.60
520.14	35234.42
520.31	35007.39
520.48	35161.87
520.65	35283.58
520.83	35716.58
521.00	35828.92
521.17	35985.74
521.34	35962.33
521.52	35882.75
521.69	36402.35
521.86	36086.38
522.03	36292.35
522.20	36421.08
522.38	35861.69
522.55	36500.65
522.72	36156.60
522.89	36105.10
523.07	36711.30
523.24	36545.12
523.41	36987.49
523.58	36666.83
523.75	37179.41
523.92	37202.82
524.10	37361.97
524.27	37420.48
524.44	37263.67
524.61	37570.28
524.78	37088.13
524.96	37560.92
525.13	37383.04
525.30	37874.55
525.47	37479.00
525.64	37301.12
525.81	38029.02
525.98	37759.86
526.16	37502.40
526.33	37549.21
526.50	37825.40
526.67	37191.11
526.84	37247.29
527.01	37668.58
527.18	37778.59
527.36	38476.07
527.53	38146.05
527.70	38607.14
527.87	38349.68
528.04	38557.99
528.21	38204.56
528.38	38494.79
528.55	38913.75
528.72	38822.47
528.89	38768.63
529.07	38787.36
529.24	39166.52
529.41	39000.35
529.58	38698.42
529.75	38869.28
529.92	39182.91
530.09	39033.11
530.26	39236.74
530.43	38995.67
530.60	39049.50
530.77	39299.94
530.94	39674.42
531.11	39325.68
531.28	39295.25
531.46	39550.37
531.63	39353.77
531.80	39573.78
531.97	39304.62
532.14	39442.71
532.31	39180.57
532.48	39688.46
532.65	39538.67
532.82	39157.16
532.99	40449.14
533.16	39447.39
533.33	39695.49
533.50	40411.69
533.67	40311.05
533.84	39756.34
534.01	39777.40
534.18	39974.01
534.35	40718.30
534.52	40683.19
534.69	40315.73
534.86	40376.58
535.03	40364.88
535.20	40699.58
535.37	40715.96
535.54	41170.02
535.71	40811.92
535.88	40802.56
536.05	40605.95
536.22	40556.80
536.38	40772.13
536.55	41076.40
536.72	40884.48
536.89	40395.31
537.06	40552.12
537.23	41202.79
537.40	40931.29
537.57	41062.36
537.74	41319.82
537.91	41315.14
538.08	41486.00
538.25	40797.88
538.42	41581.96
538.59	41474.29
538.75	41420.46
538.92	41354.93
539.09	41493.02
539.26	41205.13
539.43	41514.08
539.60	41558.55
539.77	41041.29
539.94	41579.62
540.11	41661.54
540.28	41434.50
540.44	41394.71
540.61	41315.14
540.78	41251.94
540.95	41441.53
541.12	41855.80
541.29	41469.61
541.46	42078.15
541.62	42270.08
541.79	42370.72
541.96	41097.47
542.13	41390.03
542.30	41701.32
542.47	42139.00
542.63	41846.44
542.80	42419.87
542.97	42148.37
543.14	42756.91
543.31	42473.70
543.48	42740.52
543.64	42600.09
543.81	42843.51
543.98	42637.54
544.15	42342.63
544.32	43042.45
544.48	43030.75
544.65	42981.60
544.82	43213.31
544.99	42937.13
545.16	43110.33
545.32	42738.18
545.49	43440.34
545.66	43620.56
545.83	43510.56
546.00	43456.73
546.16	43323.32
546.33	43110.33
546.50	42972.24
546.67	43173.52
546.83	42344.97
547.00	43391.19
547.17	43438.00
547.34	43412.26
547.50	43131.39
547.67	43484.81
547.84	43604.18
548.00	43487.15
548.17	43723.55
548.34	43831.21
548.51	43688.44
548.67	43817.17
548.84	43779.72
549.01	44186.97
549.18	43770.36
549.34	43433.32
549.51	43721.21
549.68	43805.47
549.84	44184.63
550.01	44165.91
550.18	44091.01
550.34	43732.91
550.51	43924.83
550.68	43805.47
550.84	43580.78
551.01	44252.51
551.18	43828.87
551.34	43934.20
551.51	44355.49
551.68	44622.31
551.84	44130.80
552.01	44147.18
552.18	44369.54
552.34	44069.95
552.51	44444.43
552.68	44161.23
552.84	44348.47
553.01	44964.03
553.18	44205.70
553.34	44825.94
553.51	44399.96
553.67	44837.64
553.84	44601.25
554.01	44629.34
554.17	44294.64
554.34	45331.50
554.51	44905.52
554.67	44896.16
554.84	44839.98
555.00	44591.89
555.17	44790.83
555.33	45031.91
555.50	45109.14
555.67	44542.74
555.83	44535.71
556.00	44989.78
556.16	45029.57
556.33	44701.89
556.50	44690.19
556.66	44921.90
556.83	45003.82
556.99	44919.56
557.16	44926.58
557.32	44968.71
557.49	45490.65
557.65	44753.38
557.82	45113.83
557.98	45158.30
558.15	45158.30
558.32	45315.11
558.48	45221.49
558.65	45123.19
558.81	44900.84
558.98	44900.84
559.14	44896.16
559.31	45099.78
559.47	45329.16
559.64	45350.22
559.80	45600.66
559.97	45390.01
560.13	44765.09
560.30	45322.13
560.46	45413.41
560.63	45010.84
560.79	45390.01
560.96	45476.61
561.12	45476.61
561.29	45308.09
561.45	45642.79
561.61	45294.05
561.78	45120.85
561.94	45394.69
562.11	45366.60
562.27	45350.22
562.44	45504.70
562.60	45918.97
562.77	45469.59
562.93	45261.28
563.10	45820.67
563.26	45055.31
563.42	45595.98
563.59	45233.19
563.75	45247.24
563.92	45612.36
564.08	45504.70
564.24	46143.66
564.41	46036.00
564.57	45832.37
564.74	45703.64
564.90	45846.41
565.07	45595.98
565.23	46115.58
565.39	45563.21
565.56	45570.23
565.72	45251.92
565.88	45633.42
566.05	45717.68
566.21	45734.07
566.38	45532.78
566.54	45680.24
566.70	46052.38
566.87	46153.02
567.03	45595.98
567.19	46202.18
567.36	45907.27
567.52	45935.35
567.68	45867.48
567.85	45846.41
568.01	45848.75
568.17	45394.69
568.34	45769.18
568.50	46021.95
568.66	45703.64
568.83	45745.77
568.99	45186.38
569.15	45876.84
569.32	45588.95
569.48	45785.56
569.64	46136.64
569.81	46204.52
569.97	45806.62
570.13	46160.05
570.30	45312.77
570.46	46017.27
570.62	45280.00
570.78	45532.78
570.95	45989.19
571.11	46036.00
571.27	45654.49
571.43	45982.16
571.60	45937.69
571.76	45736.41
571.92	46040.68
572.09	46363.67
572.25	45837.05
572.41	45841.73
572.57	46452.61
572.74	46340.27
572.90	46033.66
573.06	46658.58
573.22	46263.03
573.38	46286.43
573.55	46167.07
573.71	46244.30
573.87	46206.86
574.03	46623.47
574.20	46260.69
574.36	46073.45
574.52	45862.80
574.68	46366.01
574.84	46239.62
575.01	45785.56
575.17	46162.39
575.33	45923.65
575.49	46136.64
575.65	45820.67
575.82	46183.45
575.98	45755.13
576.14	46103.87
576.30	46066.42
576.46	46122.60
576.62	46096.85
576.79	46080.47
576.95	45642.79
577.11	46026.63
577.27	46202.18
577.43	45925.99
577.59	46075.79
577.75	45673.21
577.92	45764.49
578.08	45661.51
578.24	45397.03
578.40	46082.81
578.56	46073.45
578.72	46106.21
578.88	46366.01
579.04	45998.55
579.21	45811.31
579.37	45872.16
579.53	46401.12
579.69	45961.10
579.85	46094.51
580.01	45911.95
580.17	46216.22
580.33	46597.73
580.49	46160.05
580.65	46321.54
580.82	46588.36
580.98	46181.11
581.14	46153.02
581.30	46274.73
581.46	46473.68
581.62	46333.24
581.78	46424.53
581.94	46387.08
582.10	46316.86
582.26	46487.72
582.42	46014.93
582.58	46160.05
582.74	46176.43
582.90	46342.61
583.06	46263.03
583.22	46401.12
583.38	46211.54
583.54	46370.69
583.70	46483.04
583.86	46396.44
584.02	45851.09
584.18	46141.32
584.34	46216.22
584.50	46443.25
584.66	46284.09
584.82	46174.09
584.98	46681.98
585.14	46291.12
585.30	46162.39
585.46	46277.07
585.62	46160.05
585.78	46358.99
585.94	45736.41
586.10	46024.29
586.26	45743.43
586.42	46674.96
586.58	46595.38
586.74	46532.19
586.90	46335.59
587.06	46138.98
587.22	46478.36
587.38	46052.38
587.54	46333.24
587.70	46593.04
587.86	46443.25
588.02	46124.94
588.18	45872.16
588.34	46134.30
588.49	46052.38
588.65	45525.76
588.81	45750.45
588.97	45813.65
589.13	46323.88
589.29	46059.40
589.45	45930.67
589.61	45993.87
589.77	46410.48
589.93	46183.45
590.08	46658.58
