SpectraSuite Data File
++++++++++++++++++++++++++++++++++++
Date: Fri Oct 25 10:43:41 EDT 2013
User: price-jones
Dark Spectrum Present: No
Reference Spectrum Present: No
Number of Sampled Component Spectra: 1
Spectrometers: USB2+H05261
Integration Time (usec): 100000 (USB2+H05261)
Spectra Averaged: 1 (USB2+H05261)
Boxcar Smoothing: 0 (USB2+H05261)
Correct for Electrical Dark: No (USB2+H05261)
Strobe/Lamp Enabled: No (USB2+H05261)
Correct for Detector Non-linearity: No (USB2+H05261)
Correct for Stray Light: No (USB2+H05261)
Number of Pixels in Processed Spectrum: 2048
>>>>>Begin Processed Spectral Data<<<<<
365.73	114.69
365.92	114.69
366.12	114.69
366.32	74.90
366.52	114.69
366.72	56.17
366.91	56.17
367.11	93.62
367.31	0.00
367.51	56.17
367.70	21.06
367.90	16.38
368.10	37.45
368.30	49.15
368.49	0.00
368.69	72.56
368.89	37.45
369.09	25.75
369.28	32.77
369.48	11.70
369.68	0.00
369.87	9.36
370.07	81.92
370.27	119.37
370.47	156.82
370.66	372.15
370.86	484.49
371.06	463.43
371.25	512.58
371.45	400.23
371.65	496.19
371.84	489.17
372.04	496.19
372.24	479.81
372.44	517.26
372.63	458.74
372.83	521.94
373.03	533.64
373.22	437.68
373.42	486.83
373.62	514.92
373.81	519.60
374.01	580.45
374.21	519.60
374.40	589.82
374.60	561.73
374.79	575.77
374.99	521.94
375.19	601.52
375.38	624.92
375.58	582.79
375.78	613.22
375.97	631.94
376.17	624.92
376.37	638.97
376.56	596.84
376.76	676.41
376.95	578.11
377.15	641.31
377.35	676.41
377.54	657.69
377.74	662.37
377.93	716.20
378.13	627.26
378.33	695.14
378.52	653.01
378.72	669.39
378.91	683.44
379.11	599.18
379.31	596.84
379.50	669.39
379.70	692.80
379.89	669.39
380.09	645.99
380.28	629.60
380.48	716.20
380.68	664.71
380.87	674.07
381.07	774.72
381.26	741.95
381.46	660.03
381.65	716.20
381.85	739.61
382.04	791.10
382.24	739.61
382.43	784.08
382.63	713.86
382.83	760.67
383.02	739.61
383.22	704.50
383.41	739.61
383.61	763.01
383.80	870.68
384.00	706.84
384.19	706.84
384.39	814.51
384.58	854.30
384.78	802.80
384.97	828.55
385.17	763.01
385.36	774.72
385.56	858.98
385.75	744.29
385.95	819.19
386.14	877.70
386.34	798.12
386.53	896.43
386.72	816.85
386.92	931.53
387.11	894.08
387.31	901.11
387.50	833.23
387.70	877.70
387.89	868.34
388.09	877.70
388.28	931.53
388.48	945.58
388.67	861.32
388.86	910.47
389.06	884.72
389.25	931.53
389.45	976.00
389.64	1018.13
389.84	1034.52
390.03	1006.43
390.22	1074.31
390.42	1020.47
390.61	973.66
390.81	992.39
391.00	1032.18
391.19	1076.65
391.39	1069.62
391.58	1088.35
391.78	1137.50
391.97	1181.97
392.16	1008.77
392.36	1076.65
392.55	990.05
392.75	950.26
392.94	1046.22
393.13	1011.11
393.33	1013.45
393.52	1034.52
393.71	1165.59
393.91	1121.12
394.10	1135.16
394.29	1130.48
394.49	1188.99
394.68	1268.57
394.88	1233.46
395.07	1214.74
395.26	1287.29
395.46	1146.86
395.65	1231.12
395.84	1188.99
396.04	1224.10
396.23	1231.12
396.42	1174.95
396.62	1188.99
396.81	1217.08
397.00	1160.91
397.19	1210.06
397.39	1338.79
397.58	1446.45
397.77	1334.11
397.97	1444.11
398.16	1451.13
398.35	1455.81
398.55	1439.43
398.74	1511.99
398.93	1493.26
399.12	1586.88
399.32	1448.79
399.51	1497.94
399.70	1643.06
399.90	1643.06
400.09	1577.52
400.28	1694.55
400.47	1638.38
400.67	1694.55
400.86	1701.57
401.05	1799.87
401.24	1729.66
401.44	1774.13
401.63	1612.63
401.82	1746.04
402.01	1713.27
402.21	1748.38
402.40	1767.10
402.59	1830.30
402.78	1748.38
402.97	1746.04
403.17	1729.66
403.36	1795.19
403.55	1912.22
403.74	1856.04
403.93	1860.73
404.13	1893.49
404.32	1804.55
404.51	1919.24
404.70	1989.46
404.89	1916.90
405.09	1987.11
405.28	1991.80
405.47	2008.18
405.66	2094.78
405.85	1952.01
406.05	1975.41
406.24	2085.42
406.43	2118.18
406.62	2024.56
406.81	2223.51
407.00	2045.63
407.20	2012.86
407.39	2078.40
407.58	2200.10
407.77	2202.44
407.96	2211.81
408.15	2256.28
408.34	2246.91
408.54	2251.60
408.73	2338.20
408.92	2263.30
409.11	2312.45
409.30	2270.32
409.49	2282.02
409.68	2303.09
409.87	2267.98
410.07	2457.56
410.26	2450.54
410.45	2478.63
410.64	2401.39
410.83	2492.67
411.02	2633.10
411.21	2560.55
411.40	2583.95
411.59	2626.08
411.78	2649.49
411.98	2722.04
412.17	2696.30
412.36	2642.46
412.55	2839.07
412.74	2808.64
412.93	2862.48
413.12	2733.75
413.31	2946.73
413.50	2820.35
413.69	3023.97
413.88	2960.78
414.07	3112.91
414.26	2906.95
414.45	3052.06
414.64	3002.91
414.83	3035.67
415.02	3108.23
415.22	3197.17
415.41	3021.63
415.60	3194.83
415.79	3293.13
415.98	3454.63
416.17	3243.98
416.36	3136.32
416.55	3318.88
416.74	3426.54
416.93	3316.54
417.12	3255.69
417.31	3365.69
417.50	3393.78
417.69	3442.93
417.88	3438.25
418.07	3431.23
418.26	3447.61
418.45	3433.57
418.64	3616.13
418.83	3559.95
419.02	3508.46
419.21	3548.25
419.39	3574.00
419.58	3648.90
419.77	3627.83
419.96	3791.67
420.15	3756.56
420.34	3798.69
420.53	3688.68
420.72	3948.48
420.91	3838.48
421.10	3906.35
421.29	4018.70
421.48	3751.88
421.67	3934.44
421.86	3735.50
422.05	3784.65
422.24	3763.58
422.43	3829.12
422.61	3854.86
422.80	3925.08
422.99	3913.38
423.18	3875.93
423.37	3969.55
423.56	4084.23
423.75	3953.16
423.94	3971.89
424.13	3721.45
424.32	3854.86
424.50	4077.21
424.69	3894.65
424.88	4105.30
425.07	3997.64
425.26	3885.29
425.45	4053.81
425.64	4077.21
425.83	4070.19
426.01	4224.67
426.20	4098.28
426.39	4030.40
426.58	3964.87
426.77	4058.49
426.96	4217.65
427.15	4088.92
427.33	4182.54
427.52	4138.07
427.71	4086.58
427.90	4245.73
428.09	4311.27
428.28	4283.18
428.46	4191.90
428.65	4044.45
428.84	4255.09
429.03	4243.39
429.22	4283.18
429.40	4161.47
429.59	4173.18
429.78	4028.06
429.97	3932.10
430.16	3969.55
430.34	4098.28
430.53	4128.70
430.72	4098.28
430.91	4358.08
431.10	4264.46
431.28	4533.62
431.47	4671.71
431.66	4667.03
431.85	4489.15
432.03	4615.54
432.22	4662.35
432.41	4585.11
432.60	4718.52
432.79	4662.35
432.97	4908.10
433.16	4685.75
433.35	4716.18
433.54	4655.33
433.72	4786.40
433.91	4805.12
434.10	4784.06
434.28	4837.89
434.47	4898.74
434.66	5029.81
434.85	5008.75
435.03	4863.63
435.22	4936.19
435.41	5310.68
435.59	5207.69
435.78	5165.56
435.97	5165.56
436.16	5151.52
436.34	5067.26
436.53	5331.74
436.72	5240.46
436.90	5125.77
437.09	5149.18
437.28	5064.92
437.46	5214.71
437.65	5245.14
437.84	5362.17
438.02	5055.56
438.21	5397.28
438.40	5338.76
438.58	5366.85
438.77	5483.88
438.96	5577.50
439.14	5640.69
439.33	5563.45
439.52	5760.06
439.70	5731.97
439.89	5610.26
440.08	5762.40
440.26	5746.02
440.45	5806.87
440.63	6052.63
440.82	6214.12
441.01	6012.84
441.19	6200.08
441.38	6099.44
441.57	6169.65
441.75	6214.12
441.94	6298.38
442.12	6335.83
442.31	6410.73
442.50	6270.30
442.68	6462.22
442.87	6487.96
443.05	6429.45
443.24	6705.63
443.43	6518.39
443.61	6483.28
443.80	6787.55
443.98	6293.70
444.17	6232.85
444.35	6464.56
444.54	6722.02
444.73	6654.14
444.91	6490.31
445.10	6436.47
445.28	6459.88
445.47	6230.51
445.65	6747.76
445.84	6700.95
446.02	6658.82
446.21	6789.89
446.39	6738.40
446.58	6792.23
446.77	6836.70
446.95	6420.09
447.14	6726.70
447.32	7019.27
447.51	6768.83
447.69	7005.22
447.88	6787.55
448.06	6890.54
448.25	6820.32
448.43	6719.68
448.62	6846.07
448.80	6862.45
448.99	6808.62
449.17	6876.49
449.36	6892.88
449.54	7206.51
449.73	7159.70
449.91	7178.42
450.10	7272.04
450.28	7346.94
450.46	7398.43
450.65	7140.97
450.83	7220.55
451.02	7185.44
451.20	7227.57
451.39	7321.20
451.57	7344.60
451.76	7412.48
451.94	7330.56
452.13	7307.15
452.31	7260.34
452.49	7091.82
452.68	7384.39
452.86	7339.92
453.05	7461.63
453.23	7445.24
453.42	7515.46
453.60	7520.14
453.78	7543.55
453.97	7592.70
454.15	7515.46
454.34	7321.20
454.52	7522.48
454.70	7786.96
454.89	7573.97
455.07	7784.62
455.26	7803.35
455.44	7831.43
455.62	7754.19
455.81	7768.24
455.99	7777.60
456.17	7817.39
456.36	7932.08
456.54	8044.42
456.73	8046.76
456.91	8367.42
457.09	8257.41
457.28	8446.99
457.46	8170.81
457.64	8360.39
457.83	8234.00
458.01	8215.28
458.19	8290.18
458.38	8365.07
458.56	8273.79
458.74	8271.45
458.93	8336.99
459.11	8374.44
459.29	8397.84
459.48	8393.16
459.66	8496.14
459.84	8329.97
460.03	8610.83
460.21	8791.05
460.39	8613.17
460.57	8592.11
460.76	8737.22
460.94	8599.13
461.12	8826.16
461.31	8894.04
461.49	8760.63
461.67	8791.05
461.85	9018.08
462.04	8884.67
462.22	9277.88
462.40	9081.28
462.59	9060.21
462.77	8889.35
462.95	9102.34
463.13	8800.41
463.32	8992.34
463.50	9057.87
463.68	9163.20
463.86	9039.15
464.05	9097.66
464.23	9123.41
464.41	9116.39
464.59	9118.73
464.78	9160.86
464.96	9282.56
465.14	9013.40
465.32	9149.15
465.50	9277.88
465.69	9631.30
465.87	9226.39
466.05	9291.93
466.23	9451.08
466.41	9359.80
466.60	9408.95
466.78	9467.47
466.96	9329.38
467.14	9256.82
467.32	9582.15
467.51	9708.54
467.69	9156.18
467.87	9731.95
468.05	9774.08
468.23	9549.39
468.41	9518.96
468.60	9500.23
468.78	9720.24
468.96	9568.11
469.14	9834.93
469.32	9966.00
469.50	9561.09
469.69	9708.54
469.87	9891.10
470.05	9898.13
470.23	10017.49
470.41	10031.54
470.59	10015.15
470.77	9977.70
470.95	10090.05
471.14	10195.37
471.32	10118.14
471.50	10427.09
471.68	10211.76
471.86	10476.24
472.04	10567.52
472.22	10637.73
472.40	10375.59
472.58	10399.00
472.77	10534.75
472.95	10656.46
473.13	10822.64
473.31	10640.08
473.49	10801.57
473.67	10916.26
473.85	10726.68
474.03	11059.03
474.21	11066.05
474.39	11171.38
474.57	11218.19
474.75	11164.36
474.93	11328.19
475.12	11370.32
475.30	11587.99
475.48	11330.53
475.66	11349.26
475.84	11337.56
476.02	11426.50
476.20	11653.53
476.38	11833.75
476.56	12023.33
476.74	11934.39
476.92	11847.79
477.10	11964.82
477.28	12409.52
477.46	12287.81
477.64	12241.00
477.82	12643.57
478.00	12753.58
478.18	12884.65
478.36	12891.67
478.54	12769.96
478.72	13163.17
478.90	12844.86
479.08	13228.71
479.26	13383.18
479.44	13434.68
479.62	13259.13
479.80	13579.79
479.98	13355.10
480.16	13682.77
480.34	13760.01
480.52	13799.80
480.70	13802.14
480.88	13802.14
481.06	13980.02
481.24	14054.92
481.41	14544.09
481.59	14518.34
481.77	14637.71
481.95	14672.82
482.13	14972.41
482.31	14588.56
482.49	14878.79
482.67	15066.03
482.85	15199.44
483.03	15360.94
483.21	15496.69
483.39	15365.62
483.57	15655.84
483.74	15606.69
483.92	16004.58
484.10	15833.72
484.28	16037.35
484.46	16304.17
484.64	16542.91
484.82	16290.13
485.00	16128.63
485.18	16706.74
485.35	16805.05
485.53	16123.95
485.71	16362.69
485.89	16582.70
486.07	16786.32
486.25	16823.77
486.43	16879.94
486.61	17338.69
486.78	17479.12
486.96	17832.54
487.14	17820.84
487.32	17825.52
487.50	18300.65
487.68	18080.64
487.85	18478.53
488.03	18579.17
488.21	18724.29
488.39	18551.09
488.57	18810.89
488.75	18728.97
488.92	19236.86
489.10	19569.22
489.28	19779.87
489.46	19829.02
489.64	19672.20
489.81	20121.59
489.99	20624.80
490.17	20142.65
490.35	20615.44
490.53	20283.08
490.70	20418.83
490.88	20692.68
491.06	20877.58
491.24	20819.07
491.41	20734.81
491.59	21020.35
491.77	21018.01
491.95	21120.99
492.13	21418.24
492.30	21986.99
492.48	22003.38
492.66	22497.23
492.84	22057.21
493.01	21989.33
493.19	22218.71
493.37	22377.86
493.54	22412.97
493.72	22728.94
493.90	23103.43
494.08	23073.00
494.25	23293.01
494.43	23506.00
494.61	23611.32
494.79	23744.73
494.96	23599.62
495.14	23927.30
495.32	23910.91
495.49	23939.00
495.67	24093.47
495.85	24388.38
496.02	24474.98
496.20	24734.78
496.38	24526.47
496.55	24786.27
496.73	25572.69
496.91	24931.39
497.09	24966.49
497.26	25528.22
497.44	25352.68
497.62	25446.30
497.79	25715.47
497.97	25467.37
498.14	25696.74
498.32	25788.02
498.50	25689.72
498.67	26103.99
498.85	26174.21
499.03	26518.27
499.20	26654.02
499.38	26422.31
499.56	26316.98
499.73	26604.87
499.91	26749.98
500.08	26714.87
500.26	26668.06
500.44	27000.42
500.61	27044.89
500.79	26373.16
500.97	26867.01
501.14	27550.45
501.32	27402.99
501.49	27105.74
501.67	27566.83
501.84	27709.60
502.02	27913.23
502.20	27999.83
502.37	27960.04
502.55	27920.25
502.72	28271.33
502.90	28334.53
503.07	28161.33
503.25	28002.17
503.43	28311.12
503.60	28690.29
503.78	28151.96
503.95	28510.07
504.13	28638.80
504.30	28898.59
504.48	28781.57
504.65	29067.11
504.83	29439.26
505.01	29607.78
505.18	29142.01
505.36	29652.25
505.53	29841.83
505.71	29729.48
505.88	30300.58
506.06	29422.87
506.23	30003.33
506.41	29998.65
506.58	29933.11
506.76	29970.56
506.93	30237.38
507.11	30106.31
507.28	30209.29
507.46	30216.32
507.63	30419.94
507.81	30522.93
507.98	30260.79
508.16	30686.76
508.33	30361.43
508.50	30843.58
508.68	30714.85
508.85	31515.31
509.03	31290.62
509.20	31173.60
509.38	31669.79
509.55	31229.77
509.73	31489.57
509.90	31592.55
510.08	31765.75
510.25	31576.17
510.42	31868.73
510.60	31960.02
510.77	32147.26
510.95	32407.06
511.12	31978.74
511.30	32409.40
511.47	32531.11
511.64	32542.81
511.82	32723.03
511.99	32718.35
512.17	32711.33
512.34	32383.65
512.51	32847.08
512.69	33202.84
512.86	32849.42
513.04	33186.46
513.21	33022.62
513.38	33095.18
513.56	33216.88
513.73	33270.72
513.90	33373.70
514.08	33521.15
514.25	33256.67
514.43	33310.50
514.60	33350.29
514.77	33432.21
514.95	34192.89
515.12	33813.72
515.29	33797.34
515.47	34452.69
515.64	34211.61
515.81	33930.75
515.99	34244.38
516.16	33736.48
516.33	33701.37
516.51	33813.72
516.68	33053.05
516.85	33319.87
517.03	33860.53
517.20	34216.29
517.37	34476.09
517.54	34787.38
517.72	34829.51
517.89	34354.38
518.06	34237.36
518.24	34412.90
518.41	34501.84
518.58	34513.54
518.75	34682.06
518.93	35344.43
519.10	35194.64
519.27	35126.76
519.45	35337.41
519.62	35604.23
519.79	35299.96
519.96	35473.16
520.14	35541.03
520.31	35157.19
520.48	35555.08
520.65	35587.85
520.83	36072.34
521.00	36467.89
521.17	36154.26
521.34	36470.23
521.52	36364.90
521.69	36336.82
521.86	37092.81
522.03	36435.12
522.20	36547.47
522.38	36491.29
522.55	36889.18
522.72	36889.18
522.89	36435.12
523.07	36851.73
523.24	36748.75
523.41	37411.12
523.58	36748.75
523.75	37727.10
523.92	37193.45
524.10	37841.78
524.27	37565.60
524.44	37577.30
524.61	37539.85
524.78	37544.53
524.96	38022.00
525.13	37769.22
525.30	37600.71
525.47	38101.58
525.64	37897.95
525.81	38089.88
525.98	37769.22
526.16	37680.28
526.33	37352.61
526.50	37544.53
526.67	37376.01
526.84	37860.51
527.01	37785.61
527.18	37551.56
527.36	38632.88
527.53	38199.88
527.70	38656.29
527.87	38164.78
528.04	38675.01
528.21	38857.57
528.38	39292.91
528.55	38866.94
528.72	38780.34
528.89	38988.64
529.07	38923.11
529.24	38778.00
529.41	39449.73
529.58	39225.04
529.75	39449.73
529.92	39468.45
530.09	39576.12
530.26	39447.39
530.43	39604.20
530.60	39438.03
530.77	39599.52
530.94	39817.19
531.11	39531.65
531.28	39487.18
531.46	39686.12
531.63	40210.40
531.80	39613.57
531.97	39852.30
532.14	39400.58
532.31	39641.65
532.48	39786.77
532.65	39840.60
532.82	39777.40
532.99	39882.73
533.16	40088.70
533.33	40114.44
533.50	39992.73
533.67	39941.24
533.84	39866.34
534.01	39945.92
534.18	40287.64
534.35	40751.07
534.52	40250.19
534.69	40762.77
534.86	40994.48
535.03	40828.30
535.20	40776.81
535.37	41413.44
535.54	41333.86
535.71	40996.82
535.88	40849.37
536.05	41160.66
536.22	41153.64
536.38	40802.56
536.55	40722.98
536.72	40938.31
536.89	40521.69
537.06	40854.05
537.23	41340.88
537.40	41418.12
537.57	41212.15
537.74	41254.28
537.91	41591.32
538.08	41544.51
538.25	41352.58
538.42	41621.75
538.59	41703.67
538.75	41441.53
538.92	41731.75
539.09	41776.22
539.26	41745.80
539.43	41460.25
539.60	41874.52
539.77	41731.75
539.94	42223.26
540.11	41701.32
540.28	42181.13
540.44	41488.34
540.61	41928.36
540.78	41347.90
540.95	41640.47
541.12	42148.37
541.29	41591.32
541.46	42073.47
541.62	42139.00
541.79	42663.28
541.96	41841.76
542.13	41862.82
542.30	42347.31
542.47	42218.58
542.63	42581.37
542.80	42752.23
542.97	42796.70
543.14	43107.99
543.31	42476.04
543.48	42813.08
543.64	43014.37
543.81	43016.71
543.98	43316.29
544.15	42890.32
544.32	43194.59
544.48	43655.67
544.65	43241.40
544.82	42941.81
544.99	42885.64
545.16	42887.98
545.32	42782.65
545.49	43395.87
545.66	43880.36
545.83	43873.34
546.00	43840.57
546.16	43632.27
546.33	43594.82
546.50	43187.56
546.67	44006.75
546.83	43154.80
547.00	43337.36
547.17	43068.20
547.34	43409.92
547.50	43274.16
547.67	43922.49
547.84	44020.80
548.00	43613.54
548.17	44144.84
548.34	44149.53
548.51	44219.74
548.67	44217.40
548.84	43938.88
549.01	43878.02
549.18	43978.67
549.34	44030.16
549.51	43885.04
549.68	44289.96
549.84	44245.49
550.01	44327.41
550.18	43959.94
550.34	44065.27
550.51	44109.74
550.68	43981.01
550.84	43763.34
551.01	44002.07
551.18	44502.95
551.34	44289.96
551.51	44381.24
551.68	44346.13
551.84	44533.37
552.01	44058.24
552.18	44690.19
552.34	44282.94
552.51	44304.00
552.68	44535.71
552.84	44617.63
553.01	44718.28
553.18	44809.56
553.34	44631.68
553.51	44722.96
553.67	44755.72
553.84	44821.26
554.01	44758.06
554.17	45219.15
554.34	45071.70
554.51	45130.21
554.67	45097.44
554.84	44652.74
555.00	45102.12
555.17	44898.50
555.33	44765.09
555.50	44975.73
555.67	45146.59
555.83	44650.40
556.00	44711.25
556.16	45408.73
556.33	45263.62
556.50	45162.98
556.66	45062.33
556.83	45041.27
556.99	45078.72
557.16	45139.57
557.32	45155.96
557.49	45500.01
557.65	44790.83
557.82	45572.57
557.98	45301.07
558.15	45221.49
558.32	45418.10
558.48	45022.54
558.65	45272.98
558.81	45195.74
558.98	45350.22
559.14	45237.87
559.31	45092.76
559.47	45350.22
559.64	45654.49
559.80	45492.99
559.97	45553.85
560.13	45186.38
560.30	45265.96
560.46	45584.27
560.63	45549.17
560.79	45549.17
560.96	45804.28
561.12	45141.91
561.29	45514.06
561.45	45244.90
561.61	45832.37
561.78	45642.79
561.94	45701.30
562.11	45223.83
562.27	46071.10
562.44	45766.84
562.60	45851.09
562.77	45951.74
562.93	45911.95
563.10	45944.72
563.26	45638.11
563.42	45530.44
563.59	45666.19
563.75	45785.56
563.92	45841.73
564.08	45581.93
564.24	45787.90
564.41	46026.63
564.57	46314.52
564.74	46021.95
564.90	46052.38
565.07	46246.65
565.23	45902.59
565.39	46078.13
565.56	45715.34
565.72	45830.03
565.88	45778.54
566.05	45965.78
566.21	45624.06
566.38	46188.13
566.54	45975.14
566.70	46330.90
566.87	46185.79
567.03	45801.94
567.19	46389.42
567.36	46108.55
567.52	46171.75
567.68	46143.66
567.85	45911.95
568.01	46120.26
568.17	46017.27
568.34	46258.35
568.50	45918.97
568.66	45811.31
568.83	45867.48
568.99	46003.23
569.15	45947.06
569.32	46012.59
569.48	45961.10
569.64	46571.98
569.81	46190.47
569.97	45666.19
570.13	45813.65
570.30	45773.86
570.46	45708.32
570.62	45862.80
570.78	45666.19
570.95	46000.89
571.11	46150.68
571.27	45680.24
571.43	45984.51
571.60	46286.43
571.76	46246.65
571.92	46094.51
572.09	46417.50
572.25	46120.26
572.41	46323.88
572.57	46394.10
572.74	46263.03
572.90	46117.92
573.06	46443.25
573.22	46412.82
573.38	45886.20
573.55	45823.01
573.71	46150.68
573.87	46253.67
574.03	46164.73
574.20	46138.98
574.36	45982.16
574.52	46450.27
574.68	46157.70
574.84	46129.62
575.01	46094.51
575.17	46309.84
575.33	45745.77
575.49	45680.24
575.65	46192.81
575.82	45916.63
575.98	46096.85
576.14	46515.81
576.30	46419.84
576.46	46160.05
576.62	45961.10
576.79	46234.94
576.95	46263.03
577.11	46490.06
577.27	46122.60
577.43	46265.37
577.59	46012.59
577.75	45773.86
577.92	45839.39
578.08	45773.86
578.24	45621.72
578.40	45977.48
578.56	46426.87
578.72	46277.07
578.88	46394.10
579.04	46506.44
579.21	46113.23
579.37	46312.18
579.53	46113.23
579.69	46384.74
579.85	46447.93
580.01	46312.18
580.17	45778.54
580.33	45998.55
580.49	46674.96
580.65	46241.96
580.82	45944.72
580.98	46429.21
581.14	46225.58
581.30	46499.42
581.46	46401.12
581.62	46770.93
581.78	46358.99
581.94	46866.89
582.10	46401.12
582.26	46574.32
582.42	46644.54
582.58	46679.64
582.74	46398.78
582.90	46529.85
583.06	46272.39
583.22	46230.26
583.38	46689.01
583.54	46419.84
583.70	46625.81
583.86	46602.41
584.02	46061.74
584.18	46464.32
584.34	46181.11
584.50	46447.93
584.66	46333.24
584.82	46557.94
584.98	46284.09
585.14	46391.76
585.30	46216.22
585.46	46185.79
585.62	46216.22
585.78	46167.07
585.94	45996.21
586.10	46574.32
586.26	46686.67
586.42	46586.02
586.58	46724.11
586.74	46380.06
586.90	46415.16
587.06	46344.95
587.22	46368.35
587.38	46527.51
587.54	46536.87
587.70	46597.73
587.86	46691.35
588.02	46316.86
588.18	46426.87
588.34	46305.16
588.49	46024.29
588.65	45661.51
588.81	45881.52
588.97	46197.49
589.13	46038.34
589.29	45949.40
589.45	46319.20
589.61	45984.51
589.77	46340.27
589.93	46277.07
