SpectraSuite Data File
++++++++++++++++++++++++++++++++++++
Date: Fri Oct 25 10:43:15 EDT 2013
User: price-jones
Dark Spectrum Present: No
Reference Spectrum Present: No
Number of Sampled Component Spectra: 1
Spectrometers: USB2+H05261
Integration Time (usec): 100000 (USB2+H05261)
Spectra Averaged: 1 (USB2+H05261)
Boxcar Smoothing: 0 (USB2+H05261)
Correct for Electrical Dark: No (USB2+H05261)
Strobe/Lamp Enabled: No (USB2+H05261)
Correct for Detector Non-linearity: No (USB2+H05261)
Correct for Stray Light: No (USB2+H05261)
Number of Pixels in Processed Spectrum: 2048
>>>>>Begin Processed Spectral Data<<<<<
365.73	152.13
365.92	152.13
366.12	152.13
366.32	56.17
366.52	58.51
366.72	30.43
366.91	14.04
367.11	16.38
367.31	11.70
367.51	0.00
367.70	7.02
367.90	79.58
368.10	88.94
368.30	25.75
368.49	0.00
368.69	53.83
368.89	42.13
369.09	42.13
369.28	42.13
369.48	72.56
369.68	72.56
369.87	117.03
370.07	28.09
370.27	46.81
370.47	196.60
370.66	334.70
370.86	397.89
371.06	451.72
371.25	507.90
371.45	383.85
371.65	440.02
371.84	449.38
372.04	475.13
372.24	535.98
372.44	397.89
372.63	557.05
372.83	486.83
373.03	451.72
373.22	479.81
373.42	547.69
373.62	507.90
373.81	526.62
374.01	594.50
374.21	599.18
374.40	489.17
374.60	545.34
374.79	564.07
374.99	662.37
375.19	638.97
375.38	678.76
375.58	557.05
375.78	653.01
375.97	622.58
376.17	620.24
376.37	606.20
376.56	634.29
376.76	566.41
376.95	578.11
377.15	645.99
377.35	629.60
377.54	662.37
377.74	606.20
377.93	653.01
378.13	702.16
378.33	678.76
378.52	662.37
378.72	575.77
378.91	620.24
379.11	608.54
379.31	643.65
379.50	676.41
379.70	681.10
379.89	706.84
380.09	627.26
380.28	681.10
380.48	732.59
380.68	636.63
380.87	585.13
381.07	779.40
381.26	648.33
381.46	667.05
381.65	751.31
381.85	746.63
382.04	755.99
382.24	746.63
382.43	711.52
382.63	645.99
382.83	699.82
383.02	737.27
383.22	753.65
383.41	732.59
383.61	765.36
383.80	760.67
384.00	685.78
384.19	819.19
384.39	816.85
384.58	833.23
384.78	723.23
384.97	795.78
385.17	819.19
385.36	774.72
385.56	772.38
385.75	910.47
385.95	835.57
386.14	858.98
386.34	823.87
386.53	894.08
386.72	737.27
386.92	889.40
387.11	840.25
387.31	851.96
387.50	875.36
387.70	884.72
387.89	917.49
388.09	891.74
388.28	889.40
388.48	849.61
388.67	936.21
388.86	924.51
389.06	976.00
389.25	957.28
389.45	882.38
389.64	1018.13
389.84	957.28
390.03	1001.75
390.22	1055.58
390.42	990.05
390.61	917.49
390.81	980.68
391.00	994.73
391.19	1041.54
391.39	1067.28
391.58	1064.94
391.78	964.30
391.97	1116.44
392.16	983.02
392.36	987.71
392.55	987.71
392.75	990.05
392.94	957.28
393.13	926.85
393.33	912.81
393.52	1004.09
393.71	1135.16
393.91	1053.24
394.10	1060.26
394.29	1139.84
394.49	1149.20
394.68	1203.04
394.88	1109.41
395.07	1224.10
395.26	1153.88
395.46	1200.69
395.65	1247.51
395.84	1249.85
396.04	1324.74
396.23	1137.50
396.42	1188.99
396.62	1186.65
396.81	1160.91
397.00	1174.95
397.19	1308.36
397.39	1259.21
397.58	1287.29
397.77	1301.34
397.97	1355.17
398.16	1439.43
398.35	1495.60
398.55	1373.89
398.74	1554.12
398.93	1523.69
399.12	1418.36
399.32	1516.67
399.51	1488.58
399.70	1582.20
399.90	1479.22
400.09	1472.20
400.28	1502.62
400.47	1589.22
400.67	1743.70
400.86	1673.48
401.05	1598.59
401.24	1617.31
401.44	1727.32
401.63	1755.40
401.82	1727.32
402.01	1722.63
402.21	1748.38
402.40	1799.87
402.59	1722.63
402.78	1706.25
402.97	1806.89
403.17	1755.40
403.36	1753.06
403.55	1837.32
403.74	1966.05
403.93	1764.76
404.13	1778.81
404.32	1839.66
404.51	1825.62
404.70	1959.03
404.89	1816.26
405.09	2019.88
405.28	1961.37
405.47	1874.77
405.66	1898.17
405.85	2050.31
406.05	1956.69
406.24	2033.93
406.43	2066.69
406.62	2036.27
406.81	2012.86
407.00	2052.65
407.20	1982.43
407.39	2087.76
407.58	2186.06
407.77	2132.23
407.96	2228.19
408.15	2284.36
408.34	2190.74
408.54	2197.76
408.73	2183.72
408.92	2216.49
409.11	2377.98
409.30	2298.41
409.49	2221.17
409.68	2256.28
409.87	2436.50
410.07	2389.69
410.26	2457.56
410.45	2307.77
410.64	2473.95
410.83	2478.63
411.02	2623.74
411.21	2551.18
411.40	2576.93
411.59	2647.15
411.78	2583.95
411.98	2513.74
412.17	2605.02
412.36	2630.76
412.55	2705.66
412.74	2724.38
412.93	2862.48
413.12	2668.21
413.31	3016.95
413.50	2726.72
413.69	2857.79
413.88	2998.23
414.07	2998.23
414.26	2897.58
414.45	2988.86
414.64	3026.31
414.83	3009.93
415.02	3094.19
415.22	3075.46
415.41	3129.30
415.60	3119.93
415.79	3194.83
415.98	3262.71
416.17	3258.03
416.36	3185.47
416.55	3262.71
416.74	3283.77
416.93	3260.37
417.12	3358.67
417.31	3272.07
417.50	3375.05
417.69	3548.25
417.88	3379.73
418.07	3475.70
418.26	3440.59
418.45	3536.55
418.64	3426.54
418.83	3667.62
419.02	3590.38
419.21	3538.89
419.39	3590.38
419.58	3597.40
419.77	3522.51
419.96	3627.83
420.15	3749.54
420.34	3583.36
420.53	3751.88
420.72	3967.21
420.91	3864.22
421.10	3698.05
421.29	3819.75
421.48	3838.48
421.67	3833.80
421.86	3976.57
422.05	3782.31
422.24	3819.75
422.43	3798.69
422.61	3948.48
422.80	3983.59
422.99	3913.38
423.18	4028.06
423.37	3889.97
423.56	3981.25
423.75	3831.46
423.94	3765.92
424.13	3840.82
424.32	3794.01
424.50	3948.48
424.69	3995.29
424.88	4159.13
425.07	3894.65
425.26	3918.06
425.45	3922.74
425.64	3892.31
425.83	3981.25
426.01	4079.55
426.20	4025.72
426.39	4081.89
426.58	4053.81
426.77	4021.04
426.96	4037.42
427.15	4009.34
427.33	4077.21
427.52	4126.36
427.71	4159.13
427.90	4135.73
428.09	4208.28
428.28	4112.32
428.46	4159.13
428.65	4079.55
428.84	4215.30
429.03	4292.54
429.22	4070.19
429.40	4191.90
429.59	4159.13
429.78	3950.82
429.97	3843.16
430.16	3983.59
430.34	4079.55
430.53	4194.24
430.72	4159.13
430.91	4234.03
431.10	4517.23
431.28	4388.50
431.47	4692.77
431.66	4741.93
431.85	4587.45
432.03	4765.33
432.22	4758.31
432.41	4540.64
432.60	4631.92
432.79	4854.27
432.97	4713.84
433.16	4835.55
433.35	4685.75
433.54	4638.94
433.72	4627.24
433.91	4669.37
434.10	4851.93
434.28	4760.65
434.47	4833.21
434.66	4978.32
434.85	4957.25
435.03	5046.20
435.22	5097.69
435.41	4905.76
435.59	5078.96
435.78	5111.73
435.97	5050.88
436.16	5121.09
436.34	5081.30
436.53	5177.26
436.72	5369.19
436.90	5027.47
437.09	5275.57
437.28	5095.35
437.46	5266.21
437.65	5100.03
437.84	5123.43
438.02	5146.84
438.21	5205.35
438.40	5121.09
438.58	5434.72
438.77	5479.19
438.96	5348.12
439.14	5600.90
439.33	5621.97
439.52	5453.45
439.70	5699.20
439.89	5708.57
440.08	5841.98
440.26	5743.67
440.45	5636.01
440.63	5746.02
440.82	6022.20
441.01	5994.11
441.19	5844.32
441.38	6054.97
441.57	6085.39
441.75	6195.40
441.94	6216.46
442.12	6420.09
442.31	6480.94
442.50	6160.29
442.68	6272.64
442.87	6270.30
443.05	6401.37
443.24	6480.94
443.43	6284.34
443.61	6328.81
443.80	6663.51
443.98	6356.90
444.17	6356.90
444.35	6509.03
444.54	6663.51
444.73	6569.88
444.91	6612.01
445.10	6537.12
445.28	6490.31
445.47	6270.30
445.65	6209.44
445.84	6370.94
446.02	6670.53
446.21	6590.95
446.39	6516.05
446.58	6509.03
446.77	6562.86
446.95	6431.79
447.14	6675.21
447.32	6759.47
447.51	6679.89
447.69	6600.31
447.88	6609.67
448.06	6778.19
448.25	6707.98
448.43	6626.06
448.62	6789.89
448.80	6764.15
448.99	6911.60
449.17	6794.58
449.36	6775.85
449.54	6757.13
449.73	7176.08
449.91	7073.10
450.10	7037.99
450.28	7073.10
450.46	7213.53
450.65	7145.66
450.83	7225.23
451.02	7269.70
451.20	7250.98
451.39	6979.48
451.57	7077.78
451.76	6988.84
451.94	7143.32
452.13	7117.57
452.31	7016.93
452.49	6981.82
452.68	6918.62
452.86	7094.16
453.05	7178.42
453.23	7286.09
453.42	7176.08
453.60	7157.36
453.78	7456.95
453.97	7300.13
454.15	7171.40
454.34	7396.09
454.52	7627.81
454.70	7496.74
454.89	7442.90
455.07	7606.74
455.26	7578.65
455.44	7634.83
455.62	7833.77
455.81	7728.45
455.99	7756.54
456.17	7662.91
456.36	7875.90
456.54	7920.37
456.73	7981.23
456.91	8021.02
457.09	8044.42
457.28	8484.44
457.46	8058.46
457.64	8159.11
457.83	8140.38
458.01	7908.67
458.19	8269.11
458.38	8140.38
458.56	8262.09
458.74	8105.28
458.93	8409.54
459.11	8278.47
459.29	8067.83
459.48	8308.90
459.66	8575.72
459.84	8344.01
460.03	8587.43
460.21	8564.02
460.39	8589.77
460.57	8479.76
460.76	8482.10
460.94	8786.37
461.12	8542.96
461.31	8725.52
461.49	8554.66
461.67	8613.17
461.85	9001.70
462.04	8805.10
462.22	9188.94
462.40	8814.46
462.59	8856.59
462.77	8760.63
462.95	8950.21
463.13	9027.45
463.32	9013.40
463.50	8849.57
463.68	8964.25
463.86	8929.14
464.05	9043.83
464.23	9095.32
464.41	9078.94
464.59	8781.69
464.78	9104.68
464.96	9092.98
465.14	9186.60
465.32	9210.01
465.50	9153.84
465.69	9476.83
465.87	9144.47
466.05	9074.26
466.23	9088.30
466.41	9013.40
466.60	9521.30
466.78	9254.48
466.96	9149.15
467.14	9109.36
467.32	9303.63
467.51	9804.50
467.69	9329.38
467.87	9563.43
468.05	9563.43
468.23	9329.38
468.41	9528.32
468.60	9341.08
468.78	9675.77
468.96	9336.40
469.14	9745.99
469.32	9757.69
469.50	9378.53
469.69	9757.69
469.87	9767.06
470.05	9956.64
470.23	10029.20
470.41	9722.59
470.59	9788.12
470.77	9909.83
470.95	9874.72
471.14	9893.44
471.32	9996.43
471.50	10438.79
471.68	10448.15
471.86	10340.49
472.04	10466.88
472.22	10380.28
472.40	10150.90
472.58	10389.64
472.77	10478.58
472.95	10443.47
473.13	10857.75
473.31	10738.38
473.49	10628.37
473.67	10450.49
473.85	10534.75
474.03	10951.37
474.21	11005.20
474.39	10829.66
474.57	10920.94
474.75	11112.86
474.93	11426.50
475.12	11119.89
475.30	11466.28
475.48	11061.37
475.66	11435.86
475.84	11272.02
476.02	11274.36
476.20	11538.84
476.38	11648.85
476.56	11719.06
476.74	11948.43
476.92	11857.15
477.10	11932.05
477.28	12196.53
477.46	11887.58
477.64	12114.61
477.82	12334.62
478.00	12301.86
478.18	12320.58
478.36	12613.15
478.54	12695.07
478.72	12807.41
478.90	12938.48
479.08	13090.62
479.26	13104.66
479.44	13020.40
479.62	13259.13
479.80	13301.26
479.98	13429.99
480.16	13593.83
480.34	13448.72
480.52	13790.44
480.70	13774.05
480.88	13479.15
481.06	14001.08
481.24	14001.08
481.41	14183.65
481.59	14225.78
481.77	14340.46
481.95	14200.03
482.13	14953.68
482.31	14593.24
482.49	14883.47
482.67	14731.33
482.85	14902.19
483.03	14934.96
483.21	15133.90
483.39	15407.75
483.57	15279.02
483.74	15616.05
483.92	15527.11
484.10	15314.13
484.28	16079.48
484.46	16231.62
484.64	16240.98
484.82	16116.93
485.00	16283.11
485.18	16479.71
485.35	16402.47
485.53	15882.88
485.71	16231.62
485.89	16196.51
486.07	16311.19
486.25	16367.37
486.43	16847.18
486.61	16936.12
486.78	17252.09
486.96	17193.58
487.14	17795.09
487.32	17572.74
487.50	17820.84
487.68	17956.59
487.85	18059.57
488.03	18773.44
488.21	18635.35
488.39	18377.89
488.57	18508.96
488.75	18602.58
488.92	18876.42
489.10	19269.63
489.28	19889.87
489.46	19520.07
489.64	19644.12
489.81	20070.09
489.99	20088.82
490.17	20299.47
490.35	20306.49
490.53	20219.89
490.70	20262.02
490.88	20269.04
491.06	20847.15
491.24	20699.70
491.41	20755.87
491.59	20844.81
491.77	20823.75
491.95	20912.69
492.13	21259.09
492.30	21308.24
492.48	21626.55
492.66	21785.71
492.84	21900.39
493.01	22216.36
493.19	22207.00
493.37	22148.49
493.54	22450.42
493.72	22237.43
493.90	22733.62
494.08	22808.52
494.25	22897.46
494.43	23180.67
494.61	23592.60
494.79	23372.59
494.96	23391.31
495.14	23573.88
495.32	23506.00
495.49	23688.56
495.67	23960.06
495.85	23807.93
496.02	24320.51
496.20	24332.21
496.38	24154.33
496.55	24500.73
496.73	24676.27
496.91	24608.39
497.09	24648.18
497.26	25069.48
497.44	24985.22
497.62	25261.40
497.79	25568.01
497.97	25223.95
498.14	25380.77
498.32	25516.52
498.50	25647.59
498.67	25565.67
498.85	26382.52
499.03	26195.28
499.20	26263.15
499.38	26307.62
499.56	26204.64
499.73	26443.37
499.91	26525.29
500.08	26321.66
500.26	26441.03
500.44	26874.03
500.61	26560.40
500.79	26469.12
500.97	26782.75
501.14	27260.22
501.32	27208.73
501.49	27023.83
501.67	27063.61
501.84	27208.73
502.02	27527.04
502.20	27344.48
502.37	28011.53
502.55	27639.39
502.72	27915.57
502.90	27796.20
503.07	27709.60
503.25	28147.28
503.43	27910.89
503.60	27835.99
503.78	27934.29
503.95	27950.68
504.13	28233.88
504.30	28474.96
504.48	28638.80
504.65	28709.01
504.83	28964.13
505.01	29184.14
505.18	28496.02
505.36	29457.98
505.53	29336.27
505.71	29682.67
505.88	29401.81
506.06	29347.98
506.23	29914.39
506.41	29282.44
506.58	29563.31
506.76	29422.87
506.93	29811.40
507.11	29624.16
507.28	29851.19
507.46	29984.60
507.63	30008.01
507.81	30178.87
507.98	29961.20
508.16	30225.68
508.33	30356.75
508.50	30796.77
508.68	30473.78
508.85	31154.87
509.03	30623.57
509.20	30883.37
509.38	31040.18
509.55	31517.65
509.73	31311.69
509.90	31400.63
510.08	31098.70
510.25	31110.40
510.42	31421.69
510.60	31627.66
510.77	31700.22
510.95	31831.29
511.12	31758.73
511.30	31702.56
511.47	32535.79
511.64	32617.71
511.82	32584.94
511.99	32016.19
512.17	32313.44
512.34	31826.60
512.51	32566.21
512.69	32563.87
512.86	32453.87
513.04	32587.28
513.21	32755.80
513.38	32748.78
513.56	32936.02
513.73	32570.90
513.90	32758.14
514.08	33275.40
514.25	32751.12
514.43	33507.11
514.60	33331.57
514.77	33067.09
514.95	33280.08
515.12	33523.49
515.29	33261.35
515.47	33694.35
515.64	34036.07
515.81	33689.67
515.99	33729.46
516.16	33841.81
516.33	33354.97
516.51	33387.74
516.68	33149.01
516.85	33291.78
517.03	32987.51
517.20	33942.45
517.37	34031.39
517.54	34380.13
517.72	34075.86
517.89	33689.67
518.06	34103.95
518.24	34059.48
518.41	33947.13
518.58	34501.84
518.75	34724.19
518.93	34630.57
519.10	34763.98
519.27	35220.38
519.45	34703.12
519.62	35098.67
519.79	35295.28
519.96	35199.32
520.14	35213.36
520.31	34972.28
520.48	35473.16
520.65	35285.92
520.83	36114.47
521.00	35665.08
521.17	35885.09
521.34	35798.49
521.52	35901.48
521.69	35569.12
521.86	35976.37
522.03	35985.74
522.20	36027.87
522.38	36102.76
522.55	36718.32
522.72	36451.50
522.89	36018.50
523.07	36655.13
523.24	36140.21
523.41	36935.99
523.58	36669.17
523.75	36875.14
523.92	37165.37
524.10	36938.33
524.27	36964.08
524.44	37123.24
524.61	37099.83
524.78	37589.00
524.96	37324.52
525.13	37179.41
525.30	37862.85
525.47	37228.56
525.64	37387.72
525.81	37624.11
525.98	37734.12
526.16	36975.78
526.33	37144.30
526.50	37532.83
526.67	37017.91
526.84	37008.55
527.01	37113.87
527.18	37607.73
527.36	37848.80
527.53	38246.69
527.70	37890.93
527.87	38078.18
528.04	37991.58
528.21	38256.06
528.38	38438.62
528.55	38277.12
528.72	38675.01
528.89	38843.53
529.07	39037.80
529.24	38667.99
529.41	38965.24
529.58	38569.69
529.75	38160.09
529.92	38773.31
530.09	39161.84
530.26	38792.04
530.43	39164.18
530.60	39117.37
530.77	38841.19
530.94	39641.65
531.11	39295.25
531.28	39274.19
531.46	39381.85
531.63	39468.45
531.80	39136.10
531.97	39185.25
532.14	39290.57
532.31	38560.33
532.48	38862.26
532.65	39611.23
532.82	39477.82
532.99	39611.23
533.16	39512.92
533.33	39995.07
533.50	40095.72
533.67	40069.97
533.84	40030.18
534.01	39894.43
534.18	39629.95
534.35	40098.06
534.52	39971.67
534.69	40528.72
534.86	40603.61
535.03	40517.01
535.20	40472.54
535.37	40591.91
535.54	40734.68
535.71	39840.60
535.88	40472.54
536.05	41029.59
536.22	40446.80
536.38	40893.84
536.55	40500.63
536.72	40790.86
536.89	40479.57
537.06	40643.40
537.23	40877.46
537.40	40884.48
537.57	40879.80
537.74	40926.61
537.91	41228.54
538.08	41064.70
538.25	40854.05
538.42	40636.38
538.59	40935.97
538.75	41191.09
538.92	41216.83
539.09	41268.33
539.26	41256.62
539.43	41141.94
539.60	41045.97
539.77	40849.37
539.94	40748.73
540.11	40957.03
540.28	41205.13
540.44	41577.28
540.61	41668.56
540.78	40999.16
540.95	41139.60
541.12	41352.58
541.29	41338.54
541.46	41846.44
541.62	41801.97
541.79	41631.11
541.96	41490.68
542.13	41738.77
542.30	41713.03
542.47	41989.21
542.63	41759.84
542.80	42300.50
542.97	42124.96
543.14	42298.16
543.31	42656.26
543.48	42707.76
543.64	42618.81
543.81	42759.25
543.98	42363.70
544.15	42808.40
544.32	42794.36
544.48	43189.91
544.65	42691.37
544.82	42497.11
544.99	42534.56
545.16	42401.14
545.32	42218.58
545.49	42939.47
545.66	43147.78
545.83	42590.73
546.00	42506.47
546.16	43285.87
546.33	42817.76
546.50	42990.96
546.67	43173.52
546.83	42279.44
547.00	42927.77
547.17	42806.06
547.34	42953.51
547.50	43082.24
547.67	43339.70
547.84	43407.58
548.00	43648.65
548.17	43391.19
548.34	43150.12
548.51	43496.52
548.67	43384.17
548.84	43985.69
549.01	43386.51
549.18	43470.77
549.34	43674.40
549.51	43519.92
549.68	43510.56
549.84	43775.04
550.01	44083.99
550.18	43391.19
550.34	43915.47
550.51	43620.56
550.68	43433.32
550.84	43349.06
551.01	43997.39
551.18	43849.94
551.34	43742.27
551.51	44032.50
551.68	43854.62
551.84	44294.64
552.01	43920.15
552.18	44619.97
552.34	44098.03
552.51	43688.44
552.68	44186.97
552.84	44435.07
553.01	44549.76
553.18	44095.69
553.34	44580.18
553.51	44376.56
553.67	44322.72
553.84	44638.70
554.01	44713.59
554.17	44786.15
554.34	44568.48
554.51	44697.21
554.67	44617.63
554.84	44521.67
555.00	44109.74
555.17	44130.80
555.33	44671.46
555.50	44481.88
555.67	44727.64
555.83	44474.86
556.00	44762.75
556.16	45198.09
556.33	44481.88
556.50	44732.32
556.66	44713.59
556.83	44364.85
556.99	44774.45
557.16	45228.51
557.32	44949.99
557.49	44828.28
557.65	44652.74
557.82	44357.83
557.98	44933.60
558.15	44973.39
558.32	44865.73
558.48	44371.88
558.65	44753.38
558.81	44727.64
558.98	44858.71
559.14	44772.11
559.31	44713.59
559.47	44758.06
559.64	45043.61
559.80	45113.83
559.97	45041.27
560.13	44832.96
560.30	45038.93
560.46	45188.72
560.63	44641.04
560.79	45029.57
560.96	45216.81
561.12	44928.92
561.29	44882.11
561.45	44914.88
561.61	45312.77
561.78	44678.49
561.94	45247.24
562.11	45099.78
562.27	45067.02
562.44	45464.91
562.60	44921.90
562.77	45345.54
562.93	45251.92
563.10	45406.39
563.26	45308.09
563.42	45553.85
563.59	45495.33
563.75	45572.57
563.92	45698.96
564.08	45478.95
564.24	45567.89
564.41	45411.07
564.57	45757.47
564.74	45469.59
564.90	45984.51
565.07	45382.99
565.23	45256.60
565.39	44699.55
565.56	45558.53
565.72	45111.49
565.88	45375.97
566.05	45130.21
566.21	45083.40
566.38	45371.28
566.54	45350.22
566.70	46241.96
566.87	45584.27
567.03	45371.28
567.19	46141.32
567.36	45867.48
567.52	45528.10
567.68	45818.33
567.85	45331.50
568.01	45666.19
568.17	45507.04
568.34	45626.40
568.50	45741.09
568.66	45291.71
568.83	45406.39
568.99	45429.80
569.15	45497.67
569.32	45783.22
569.48	45106.80
569.64	45659.17
569.81	45659.17
569.97	45691.94
570.13	45296.39
570.30	45235.53
570.46	45184.04
570.62	45010.84
570.78	45130.21
570.95	45390.01
571.11	45471.93
571.27	45308.09
571.43	45682.58
571.60	45663.85
571.76	45521.08
571.92	45705.98
572.09	45614.70
572.25	45607.68
572.41	45397.03
572.57	45584.27
572.74	46199.83
572.90	45425.12
573.06	46106.21
573.22	45694.28
573.38	45687.26
573.55	45804.28
573.71	45443.84
573.87	45806.62
574.03	46089.83
574.20	45949.40
574.36	45560.87
574.52	45982.16
574.68	45872.16
574.84	45771.52
575.01	45907.27
575.17	45982.16
575.33	45769.18
575.49	45787.90
575.65	45633.42
575.82	45654.49
575.98	45237.87
576.14	45947.06
576.30	45855.78
576.46	45823.01
576.62	45310.43
576.79	45834.71
576.95	45249.58
577.11	46005.57
577.27	45514.06
577.43	45846.41
577.59	45177.02
577.75	45518.74
577.92	45624.06
578.08	45371.28
578.24	45467.25
578.40	46096.85
578.56	45769.18
578.72	45776.20
578.88	46305.16
579.04	45659.17
579.21	45464.91
579.37	46017.27
579.53	45776.20
579.69	45223.83
579.85	45294.05
580.01	45876.84
580.17	45820.67
580.33	45748.11
580.49	46138.98
580.65	46110.89
580.82	45844.07
580.98	45876.84
581.14	45219.15
581.30	46047.70
581.46	45830.03
581.62	46174.09
581.78	45577.25
581.94	46412.82
582.10	46028.98
582.26	45792.58
582.42	45619.38
582.58	45708.32
582.74	46021.95
582.90	46309.84
583.06	46232.60
583.22	46293.46
583.38	46260.69
583.54	46342.61
583.70	45879.18
583.86	46007.91
584.02	45799.60
584.18	45975.14
584.34	45593.64
584.50	46237.28
584.66	45523.42
584.82	45872.16
584.98	46073.45
585.14	45778.54
585.30	45715.34
585.46	45677.90
585.62	45675.55
585.78	45947.06
585.94	45904.93
586.10	45565.55
586.26	45504.70
586.42	45977.48
586.58	46017.27
586.74	46150.68
586.90	46021.95
587.06	45755.13
587.22	46096.85
587.38	45694.28
587.54	45642.79
587.70	46036.00
587.86	45801.94
588.02	45584.27
588.18	45834.71
588.34	45469.59
588.49	45577.25
588.65	45357.24
588.81	45198.09
588.97	45921.31
589.13	45837.05
589.29	45516.40
589.45	45818.33
589.61	45579.59
589.77	45956.42
589.93	46363.67
590.08	46232.60
