SpectraSuite Data File
++++++++++++++++++++++++++++++++++++
Date: Fri Oct 25 11:24:04 EDT 2013
User: price-jones
Dark Spectrum Present: No
Reference Spectrum Present: No
Number of Sampled Component Spectra: 1
Spectrometers: USB2+H05261
Integration Time (usec): 100000 (USB2+H05261)
Spectra Averaged: 1 (USB2+H05261)
Boxcar Smoothing: 0 (USB2+H05261)
Correct for Electrical Dark: No (USB2+H05261)
Strobe/Lamp Enabled: No (USB2+H05261)
Correct for Detector Non-linearity: No (USB2+H05261)
Correct for Stray Light: No (USB2+H05261)
Number of Pixels in Processed Spectrum: 2048
>>>>>Begin Processed Spectral Data<<<<<
365.73	173.20
365.92	173.20
366.12	173.20
366.32	173.20
366.52	147.45
366.72	114.69
366.91	70.22
367.11	177.88
367.31	58.51
367.51	70.22
367.70	79.58
367.90	168.52
368.10	138.09
368.30	117.03
368.49	60.85
368.69	194.26
368.89	184.90
369.09	184.90
369.28	163.84
369.48	105.32
369.68	170.86
369.87	222.35
370.07	264.48
370.27	248.10
370.47	369.80
370.66	580.45
370.86	571.09
371.06	706.84
371.25	683.44
371.45	596.84
371.65	695.14
371.84	709.18
372.04	755.99
372.24	667.05
372.44	786.42
372.63	791.10
372.83	753.65
373.03	699.82
373.22	755.99
373.42	788.76
373.62	823.87
373.81	713.86
374.01	781.74
374.21	791.10
374.40	861.32
374.60	748.97
374.79	847.27
374.99	809.83
375.19	908.13
375.38	854.30
375.58	882.38
375.78	781.74
375.97	814.51
376.17	905.79
376.37	837.91
376.56	866.00
376.76	877.70
376.95	898.77
377.15	924.51
377.35	908.13
377.54	1018.13
377.74	887.06
377.93	842.59
378.13	919.83
378.33	990.05
378.52	926.85
378.72	936.21
378.91	966.64
379.11	957.28
379.31	961.96
379.50	1060.26
379.70	964.30
379.89	999.41
380.09	992.39
380.28	940.90
380.48	943.24
380.68	1062.60
380.87	1015.79
381.07	1008.77
381.26	1022.81
381.46	999.41
381.65	1020.47
381.85	1022.81
382.04	1036.86
382.24	1046.22
382.43	1039.20
382.63	1057.92
382.83	1090.69
383.02	1142.18
383.22	1158.57
383.41	1142.18
383.61	1137.50
383.80	1074.31
384.00	1043.88
384.19	1109.41
384.39	1132.82
384.58	1109.41
384.78	1184.31
384.97	1207.72
385.17	1078.99
385.36	1177.29
385.56	1214.74
385.75	1245.16
385.95	1245.16
386.14	1158.57
386.34	1242.82
386.53	1160.91
386.72	1177.29
386.92	1226.44
387.11	1219.42
387.31	1266.23
387.50	1310.70
387.70	1299.00
387.89	1273.25
388.09	1341.13
388.28	1256.87
388.48	1174.95
388.67	1287.29
388.86	1336.45
389.06	1348.15
389.25	1448.79
389.45	1282.61
389.64	1404.32
389.84	1366.87
390.03	1336.45
390.22	1451.13
390.42	1359.85
390.61	1341.13
390.81	1401.98
391.00	1406.66
391.19	1376.24
391.39	1453.47
391.58	1401.98
391.78	1507.30
391.97	1575.18
392.16	1448.79
392.36	1540.07
392.55	1465.18
392.75	1596.25
392.94	1488.58
393.13	1579.86
393.33	1425.39
393.52	1582.20
393.71	1600.93
393.91	1582.20
394.10	1619.65
394.29	1636.03
394.49	1605.61
394.68	1647.74
394.88	1582.20
395.07	1682.85
395.26	1694.55
395.46	1699.23
395.65	1701.57
395.84	1724.97
396.04	1863.07
396.23	1680.50
396.42	1769.44
396.62	1823.28
396.81	1860.73
397.00	1722.63
397.19	1783.49
397.39	1837.32
397.58	1764.76
397.77	1811.57
397.97	1940.30
398.16	1872.43
398.35	1881.79
398.55	1823.28
398.74	1851.36
398.93	1954.35
399.12	1886.47
399.32	1998.82
399.51	1959.03
399.70	1970.73
399.90	1952.01
400.09	2066.69
400.28	2019.88
400.47	2132.23
400.67	2069.03
400.86	2038.61
401.05	2181.38
401.24	2043.29
401.44	2097.12
401.63	2090.10
401.82	2134.57
402.01	2092.44
402.21	2176.70
402.40	2214.15
402.59	2186.06
402.78	2256.28
402.97	2216.49
403.17	2253.94
403.36	2263.30
403.55	2230.53
403.74	2342.88
403.93	2399.05
404.13	2361.60
404.32	2333.51
404.51	2373.30
404.70	2345.22
404.89	2509.05
405.09	2473.95
405.28	2406.07
405.47	2506.71
405.66	2462.24
405.85	2382.67
406.05	2455.22
406.24	2558.21
406.43	2527.78
406.62	2726.72
406.81	2621.40
407.00	2630.76
407.20	2588.63
407.39	2736.09
407.58	2743.11
407.77	2677.57
407.96	2867.16
408.15	2710.34
408.34	2679.91
408.54	2759.49
408.73	2834.39
408.92	2916.31
409.11	2946.73
409.30	2902.26
409.49	2967.80
409.68	2904.60
409.87	3014.61
410.07	3023.97
410.26	3084.83
410.45	2974.82
410.64	3063.76
410.83	3082.49
411.02	3023.97
411.21	3173.77
411.40	3108.23
411.59	3246.32
411.78	3351.65
411.98	3098.87
412.17	3206.53
412.36	3255.69
412.55	3440.59
412.74	3293.13
412.93	3389.10
413.12	3403.14
413.31	3548.25
413.50	3494.42
413.69	3510.80
413.88	3583.36
414.07	3641.87
414.26	3721.45
414.45	3571.66
414.64	3749.54
414.83	3679.32
415.02	3742.52
415.22	3901.67
415.41	3768.26
415.60	3789.33
415.79	3873.59
415.98	3934.44
416.17	3948.48
416.36	4018.70
416.55	3896.99
416.74	4124.02
416.93	4091.26
417.12	4056.15
417.31	4128.70
417.50	4372.12
417.69	4369.78
417.88	4440.00
418.07	4346.37
418.26	4369.78
418.45	4423.61
418.64	4676.39
418.83	4409.57
419.02	4386.16
419.21	4538.30
419.39	4573.41
419.58	4449.36
419.77	4592.13
419.96	4699.80
420.15	4631.92
420.34	4692.77
420.53	4652.98
420.72	4685.75
420.91	4770.01
421.10	4636.60
421.29	4767.67
421.48	4564.04
421.67	4758.31
421.86	4706.82
422.05	4929.17
422.24	4863.63
422.43	4929.17
422.61	4887.04
422.80	5123.43
422.99	5006.41
423.18	4975.98
423.37	5090.67
423.56	5060.24
423.75	4990.02
423.94	4952.57
424.13	4615.54
424.32	4652.98
424.50	5071.94
424.69	5022.79
424.88	4940.87
425.07	4997.04
425.26	4847.25
425.45	5046.20
425.64	5018.11
425.83	4978.32
426.01	5055.56
426.20	5160.88
426.39	5081.30
426.58	5165.56
426.77	5174.92
426.96	5226.42
427.15	5149.18
427.33	5343.44
427.52	5144.50
427.71	5418.34
427.90	5275.57
428.09	5214.71
428.28	5282.59
428.46	5509.62
428.65	5373.87
428.84	5504.94
429.03	5535.37
429.22	5390.25
429.40	5474.51
429.59	5495.58
429.78	5408.98
429.97	5357.49
430.16	5441.75
430.34	5650.05
430.53	5619.63
430.72	5722.61
430.91	5547.07
431.10	5750.70
431.28	5713.25
431.47	5755.38
431.66	5942.62
431.85	5717.93
432.03	5942.62
432.22	6078.37
432.41	5884.11
432.60	5991.77
432.79	6003.47
432.97	6209.44
433.16	5975.39
433.35	5966.03
433.54	6207.10
433.72	6036.24
433.91	6104.12
434.10	6129.86
434.28	6244.55
434.47	6218.80
434.66	6260.93
434.85	6408.39
435.03	6256.25
435.22	6115.82
435.41	6424.77
435.59	6569.88
435.78	6523.07
435.97	6462.22
436.16	6441.15
436.34	6420.09
436.53	6413.07
436.72	6766.49
436.90	6583.93
437.09	6691.59
437.28	6567.54
437.46	6754.79
437.65	6722.02
437.84	6775.85
438.02	6766.49
438.21	6785.21
438.40	6679.89
438.58	6937.35
438.77	7190.13
438.96	6995.86
439.14	7101.19
439.33	7311.83
439.52	7164.38
439.70	7201.83
439.89	7363.33
440.08	7454.61
440.26	7466.31
440.45	7435.88
440.63	7487.37
440.82	7728.45
441.01	7499.08
441.19	7625.47
441.38	7660.57
441.57	7770.58
441.75	7831.43
441.94	7791.64
442.12	7889.95
442.31	8215.28
442.50	8053.78
442.68	8042.08
442.87	7962.50
443.05	8285.50
443.24	8301.88
443.43	8173.15
443.61	8140.38
443.80	8475.08
443.98	8156.77
444.17	7866.54
444.35	8355.71
444.54	8402.52
444.73	8360.39
444.91	8564.02
445.10	8376.78
445.28	8376.78
445.47	8407.20
445.65	8362.73
445.84	8351.03
446.02	8514.87
446.21	8507.85
446.39	8463.38
446.58	8615.51
446.77	8496.14
446.95	8414.23
447.14	8486.78
447.32	8498.49
447.51	8468.06
447.69	8575.72
447.88	8463.38
448.06	8615.51
448.25	8620.19
448.43	8468.06
448.62	8624.87
448.80	8617.85
448.99	8608.49
449.17	8748.92
449.36	8718.50
449.54	8973.61
449.73	9011.06
449.91	9252.14
450.10	8950.21
450.28	9125.75
450.46	9006.38
450.65	9128.09
450.83	9090.64
451.02	9121.07
451.20	9151.49
451.39	9181.92
451.57	9057.87
451.76	9156.18
451.94	9130.43
452.13	9427.68
452.31	9350.44
452.49	9270.86
452.68	9366.82
452.86	9474.49
453.05	9275.54
453.23	9413.63
453.42	9310.65
453.60	9338.74
453.78	9633.64
453.97	9523.64
454.15	9647.69
454.34	9392.57
454.52	9666.41
454.70	9865.36
454.89	9844.29
455.07	9802.16
455.26	10066.64
455.44	9947.28
455.62	9912.17
455.81	9954.30
455.99	9966.00
456.17	10228.14
456.36	10122.82
456.54	10148.56
456.73	10178.99
456.91	10373.25
457.09	10406.02
457.28	10614.33
457.46	10450.49
457.64	10707.95
457.83	10452.83
458.01	10553.48
458.19	10644.76
458.38	10761.78
458.56	11002.86
458.74	10677.52
458.93	10843.70
459.11	10729.02
459.29	10710.29
459.48	10836.68
459.66	10853.06
459.84	11077.76
460.03	11007.54
460.21	11115.20
460.39	11014.56
460.57	11033.29
460.76	11227.55
460.94	11136.27
461.12	11360.96
461.31	11445.22
461.49	11215.85
461.67	11084.78
461.85	11461.60
462.04	11353.94
462.22	11655.87
462.40	11674.59
462.59	11480.33
462.77	11449.90
462.95	11630.12
463.13	11803.32
463.32	11779.92
463.50	11960.14
463.68	11772.89
463.86	11737.79
464.05	11866.52
464.23	11747.15
464.41	11927.37
464.59	11796.30
464.78	12322.92
464.96	12067.80
465.14	12004.61
465.32	12011.63
465.50	12297.17
465.69	12070.14
465.87	12147.38
466.05	12145.04
466.23	12128.66
466.41	12369.73
466.60	12390.80
466.78	12320.58
466.96	12191.85
467.14	12334.62
467.32	12723.15
467.51	12425.90
467.69	12362.71
467.87	12470.37
468.05	12702.09
468.23	12334.62
468.41	12255.04
468.60	12772.30
468.78	12882.31
468.96	12512.50
469.14	12706.77
469.32	13139.77
469.50	12798.05
469.69	13167.85
469.87	13240.41
470.05	13247.43
470.23	13284.88
470.41	13270.84
470.59	13392.55
470.77	13231.05
470.95	13446.38
471.14	13516.59
471.32	13184.24
471.50	13867.67
471.68	13752.99
471.86	13593.83
472.04	13774.05
472.22	14153.22
472.40	13816.18
472.58	13958.96
472.77	14101.73
472.95	14139.18
473.13	14693.88
473.31	14106.41
473.49	14251.52
473.67	14307.69
473.85	14436.42
474.03	14773.46
474.21	14675.16
474.39	14867.08
474.57	14656.43
474.75	14862.40
474.93	15023.90
475.12	15089.43
475.30	14986.45
475.48	15229.87
475.66	15241.57
475.84	15232.21
476.02	15442.85
476.20	15496.69
476.38	16004.58
476.56	16060.76
476.74	16027.99
476.92	15946.07
477.10	15929.69
477.28	16325.24
477.46	16238.64
477.64	16381.41
477.82	16547.59
478.00	17186.55
478.18	16968.88
478.36	17090.59
478.54	17102.29
478.72	17334.01
478.90	17097.61
479.08	17818.50
479.26	17710.83
479.44	17362.09
479.62	17834.88
479.80	17926.16
479.98	17956.59
480.16	18380.23
480.34	18094.68
480.52	19056.64
480.70	18551.09
480.88	18572.15
481.06	18906.85
481.24	19066.00
481.41	18930.25
481.59	19627.73
481.77	19374.95
481.95	19854.76
482.13	20023.28
482.31	19686.25
482.49	20430.54
482.67	20233.93
482.85	20444.58
483.03	20957.16
483.21	20943.11
483.39	21025.03
483.57	20980.56
483.74	21060.14
483.92	21209.93
484.10	21249.72
484.28	21837.20
484.46	22281.90
484.64	22513.61
484.82	22019.76
485.00	22487.87
485.18	22778.09
485.35	22860.01
485.53	22995.76
485.71	23241.52
485.89	23456.85
486.07	23094.07
486.25	23496.64
486.43	23981.13
486.61	24203.48
486.78	24285.40
486.96	24474.98
487.14	24765.21
487.32	24814.36
487.50	25127.99
487.68	25069.48
487.85	25348.00
488.03	25675.68
488.21	25869.94
488.39	25951.86
488.57	26412.95
488.75	26380.18
488.92	26665.72
489.10	26871.69
489.28	26838.92
489.46	27222.77
489.64	27309.37
489.81	28095.79
489.99	28065.36
490.17	27950.68
490.35	28175.37
490.53	28704.33
490.70	28409.42
490.88	28584.96
491.06	28938.38
491.24	28959.45
491.41	29088.18
491.59	29221.59
491.77	29645.23
491.95	29633.52
492.13	30040.78
492.30	30263.13
492.48	30127.38
492.66	30164.82
492.84	30323.98
493.01	31250.83
493.19	30946.56
493.37	31222.75
493.54	31189.98
493.72	31569.15
493.90	31798.52
494.08	31740.00
494.25	32236.20
494.43	32327.48
494.61	32788.56
494.79	32694.94
494.96	32954.74
495.14	32769.84
495.32	33591.37
495.49	33071.77
495.67	33460.30
495.85	33589.03
496.02	34120.33
496.20	34174.16
496.38	34424.60
496.55	34377.79
496.73	34721.85
496.91	34518.22
497.09	35204.00
497.26	35126.76
497.44	35304.64
497.62	35477.84
497.79	35920.20
497.97	35349.11
498.14	35941.27
498.32	36430.44
498.50	36467.89
498.67	36521.72
498.85	36318.09
499.03	36545.12
499.20	37090.47
499.38	37170.05
499.56	37083.45
499.73	37603.05
499.91	37354.95
500.08	37830.08
500.26	37614.75
500.44	38000.94
500.61	38157.75
500.79	38155.41
500.97	38679.69
501.14	38785.02
501.32	38780.34
501.49	38766.29
501.67	39035.45
501.84	39171.21
502.02	39304.62
502.20	38955.88
502.37	39491.86
502.55	39269.51
502.72	39672.08
502.90	40191.68
503.07	39548.03
503.25	40456.16
503.43	40428.07
503.60	40250.19
503.78	40519.35
503.95	40636.38
504.13	40727.66
504.30	41265.99
504.48	40488.93
504.65	40605.95
504.83	41343.22
505.01	41287.05
505.18	41347.90
505.36	41923.68
505.53	41277.69
505.71	41525.78
505.88	41902.61
506.06	41324.50
506.23	42108.58
506.41	41687.28
506.58	42185.82
506.76	42703.07
506.93	42677.33
507.11	42497.11
507.28	42941.81
507.46	43112.67
507.63	43337.36
507.81	43765.68
507.98	43232.04
508.16	43016.71
508.33	43821.85
508.50	43690.78
508.68	43543.33
508.85	44161.23
509.03	44051.22
509.20	44275.91
509.38	44612.95
509.55	44795.51
509.73	44589.55
509.90	44664.44
510.08	44474.86
510.25	45219.15
510.42	44762.75
510.60	45399.37
510.77	45158.30
510.95	45595.98
511.12	45244.90
511.30	45230.85
511.47	45605.34
511.64	46225.58
511.82	46307.50
511.99	45804.28
512.17	46234.94
512.34	46197.49
512.51	46899.65
512.69	46899.65
512.86	46817.74
513.04	47145.41
513.21	47075.19
513.38	46976.89
513.56	47124.35
513.73	46976.89
513.90	47154.77
514.08	47122.01
514.25	47468.40
514.43	47604.16
514.60	47721.18
514.77	47299.89
514.95	47983.32
515.12	47622.88
515.29	47896.72
515.47	48196.31
515.64	48467.81
515.81	48245.46
515.99	48355.47
516.16	48514.62
516.33	48854.00
516.51	48722.93
516.68	48875.07
516.85	48624.63
517.03	49041.24
517.20	49350.20
517.37	48844.64
517.54	49195.72
517.72	49368.92
517.89	49296.36
518.06	49109.12
518.24	49420.41
518.41	49656.81
518.58	49497.65
518.75	49652.12
518.93	49888.52
519.10	49935.33
519.27	50061.72
519.45	49825.32
519.62	50204.49
519.79	50099.17
519.96	49940.01
520.14	50138.96
520.31	50468.97
520.48	50782.60
520.65	50576.64
520.83	50883.25
521.00	51016.66
521.17	50794.31
521.34	50801.33
521.52	51049.42
521.69	51147.73
521.86	51016.66
522.03	51395.82
522.20	51599.45
522.38	51700.09
522.55	51679.03
522.72	51632.22
522.89	51690.73
523.07	51873.29
523.24	51655.62
523.41	51952.87
523.58	51290.50
523.75	51906.06
523.92	51943.51
524.10	52378.85
524.27	52266.50
524.44	52013.73
524.61	52116.71
524.78	51962.23
524.96	52673.76
525.13	52521.62
525.30	52596.52
525.47	52659.71
525.64	52671.42
525.81	53111.44
525.98	52706.52
526.16	52968.66
526.33	53029.52
526.50	53186.33
526.67	52940.58
526.84	53275.27
527.01	52762.70
527.18	53141.86
527.36	53303.36
527.53	53254.21
527.70	53436.77
527.87	53240.17
528.04	53219.10
528.21	53783.17
528.38	53422.73
528.55	53698.91
528.72	53635.72
528.89	53469.54
529.07	53652.10
529.24	53364.21
529.41	53832.32
529.58	53783.17
529.75	53972.75
529.92	54010.20
530.09	53865.09
530.26	54241.92
530.43	54466.61
530.60	53890.83
530.77	54059.35
530.94	54475.97
531.11	53963.39
531.28	54377.67
531.46	54302.77
531.63	54206.81
531.80	54632.78
531.97	54536.82
532.14	54885.56
532.31	54642.15
532.48	54824.71
532.65	54873.86
532.82	54595.34
532.99	54862.16
533.16	54560.23
533.33	55021.31
533.50	55121.96
533.67	55009.61
533.84	54993.23
534.01	54857.48
534.18	54817.69
534.35	55220.26
534.52	55304.52
534.69	55456.65
534.86	55505.80
535.03	55199.19
535.20	55395.80
535.37	55356.01
535.54	55477.72
535.71	55496.44
535.88	55550.27
536.05	55559.64
536.22	55601.77
536.38	55723.47
536.55	55772.63
536.72	55449.63
536.89	55447.29
537.06	55664.96
537.23	56009.02
537.40	55777.31
537.57	56020.72
537.74	56097.96
537.91	56165.84
538.08	55903.70
538.25	55772.63
538.42	56065.19
538.59	56137.75
538.75	55877.95
538.92	56264.14
539.09	56406.91
539.26	56250.09
539.43	56336.69
539.60	56418.61
539.77	56381.16
539.94	56603.52
540.11	56341.38
540.28	56465.42
540.44	56540.32
540.61	56601.18
540.78	56596.49
540.95	56736.93
541.12	56589.47
541.29	56465.42
541.46	56514.58
541.62	56608.20
541.79	56835.23
541.96	56479.47
542.13	56917.15
542.30	56851.61
542.47	57038.86
542.63	57020.13
542.80	57069.28
542.97	57214.40
543.14	57427.38
543.31	57270.57
543.48	57436.75
543.64	57567.82
543.81	57392.28
543.98	57453.13
544.15	57673.14
544.32	57914.22
544.48	57715.27
544.65	57373.55
544.82	57429.72
544.99	57602.92
545.16	57586.54
545.32	57490.58
545.49	57729.31
545.66	57684.84
545.83	57684.84
546.00	57872.09
546.16	57853.36
546.33	57808.89
546.50	57731.65
546.67	57872.09
546.83	57719.95
547.00	57806.55
547.17	57897.83
547.34	57815.91
547.50	58234.87
547.67	58365.94
547.84	58258.27
548.00	58335.51
548.17	58440.84
548.34	58089.76
548.51	58323.81
548.67	58478.28
548.84	58443.18
549.01	58166.99
549.18	58394.03
549.34	58494.67
549.51	58237.21
549.68	58445.52
549.84	58255.93
550.01	58623.40
550.18	58394.03
550.34	58602.33
550.51	58651.48
550.68	58471.26
550.84	58431.47
551.01	58740.42
551.18	58665.53
551.34	58569.57
551.51	58574.25
551.68	58670.21
551.84	58614.04
552.01	58761.49
552.18	59007.25
552.34	58780.21
552.51	58972.14
552.68	58534.46
552.84	58775.53
553.01	59276.41
553.18	58967.46
553.34	58960.44
553.51	58801.28
553.67	59117.25
553.84	59147.68
554.01	59278.75
554.17	59323.22
554.34	59079.80
554.51	59377.05
554.67	59248.32
554.84	59264.70
555.00	59138.32
555.17	59175.76
555.33	59313.86
555.50	59224.92
555.67	59119.59
555.83	59143.00
556.00	59124.27
556.16	59573.66
556.33	59360.67
556.50	59498.76
556.66	59475.35
556.83	59295.13
556.99	59400.46
557.16	59515.14
557.32	59662.60
557.49	59849.84
557.65	59526.84
557.82	59304.49
557.98	59524.50
558.15	59419.18
558.32	59810.05
558.48	59480.03
558.65	59643.87
558.81	59770.26
558.98	59730.47
559.14	59796.01
559.31	59669.62
559.47	59959.84
559.64	59650.89
559.80	59854.52
559.97	59906.01
560.13	59561.95
560.30	59840.48
560.46	59948.14
560.63	59915.37
560.79	59784.30
560.96	60203.26
561.12	60088.57
561.29	59908.35
561.45	59969.21
561.61	59835.80
561.78	59875.58
561.94	60025.38
562.11	59882.61
562.27	60062.83
562.44	60037.08
562.60	60289.86
562.77	60388.16
562.93	60144.75
563.10	60294.54
563.26	59920.05
563.42	60357.74
563.59	60006.65
563.75	60107.30
563.92	60238.37
564.08	60037.08
564.24	60327.31
564.41	60397.52
564.57	60238.37
564.74	60205.60
564.90	60362.42
565.07	60079.21
565.23	60137.72
565.39	60257.09
565.56	60507.53
565.72	60233.69
565.88	60439.65
566.05	60317.95
566.21	60243.05
566.38	60210.28
566.54	60631.58
566.70	60556.68
566.87	60786.05
567.03	60144.75
567.19	60479.44
567.36	60474.76
567.52	60491.15
567.68	60664.35
567.85	60381.14
568.01	60725.20
568.17	60559.02
568.34	60624.56
568.50	60378.80
568.66	60470.08
568.83	60713.50
568.99	60666.69
569.15	60603.49
569.32	60580.09
569.48	60549.66
569.64	60734.56
569.81	60568.38
569.97	60528.59
570.13	60612.85
570.30	60502.85
570.46	60542.64
570.62	60706.47
570.78	60493.49
570.95	60573.06
571.11	60673.71
571.27	60605.83
571.43	60718.18
571.60	60853.93
571.76	60643.28
571.92	60804.78
572.09	60823.50
572.25	60858.61
572.41	60844.57
572.57	60853.93
572.74	61109.05
572.90	60643.28
573.06	60769.67
573.22	60776.69
573.38	60912.44
573.55	60764.99
573.71	61043.51
573.87	60807.12
574.03	60589.45
574.20	60821.16
574.36	60877.33
574.52	60963.93
574.68	60793.07
574.84	61008.40
575.01	60886.70
575.17	60685.41
575.33	60818.82
575.49	60640.94
575.65	60797.76
575.82	61092.66
575.98	61207.35
576.14	61216.71
576.30	61029.47
576.46	60975.64
576.62	60757.97
576.79	60973.30
576.95	60711.16
577.11	60977.98
577.27	61043.51
577.43	60863.29
577.59	60919.46
577.75	60814.14
577.92	60860.95
578.08	60921.80
578.24	60992.02
578.40	61190.97
578.56	61109.05
578.72	61141.81
578.88	61137.13
579.04	61235.44
579.21	61188.63
579.37	61080.96
579.53	61045.85
579.69	60912.44
579.85	60961.59
580.01	61214.37
580.17	60905.42
580.33	61174.58
580.49	61097.34
580.65	61022.45
580.82	60973.30
580.98	60900.74
581.14	60940.53
581.30	61226.07
581.46	60786.05
581.62	61251.82
581.78	60959.25
581.94	61048.19
582.10	60966.27
582.26	61020.11
582.42	61043.51
582.58	61116.07
582.74	61048.19
582.90	61038.83
583.06	61073.94
583.22	60898.40
583.38	60954.57
583.54	61183.94
583.70	61134.79
583.86	61279.91
584.02	61043.51
584.18	61064.58
584.34	61310.33
584.50	60973.30
584.66	60987.34
584.82	60884.36
584.98	61261.18
585.14	61069.26
585.30	61024.79
585.46	61251.82
585.62	61038.83
585.78	61034.15
585.94	61020.11
586.10	61237.78
586.26	61291.61
586.42	61202.67
586.58	61109.05
586.74	61277.57
586.90	61151.18
587.06	61179.26
587.22	61123.09
587.38	61247.14
587.54	61364.17
587.70	61322.04
587.86	61345.44
588.02	61279.91
588.18	61455.45
588.34	61242.46
588.49	61062.24
