SpectraSuite Data File
++++++++++++++++++++++++++++++++++++
Date: Fri Oct 25 11:34:35 EDT 2013
User: price-jones
Dark Spectrum Present: No
Reference Spectrum Present: No
Number of Sampled Component Spectra: 1
Spectrometers: USB2+H05261
Integration Time (usec): 100000 (USB2+H05261)
Spectra Averaged: 1 (USB2+H05261)
Boxcar Smoothing: 0 (USB2+H05261)
Correct for Electrical Dark: No (USB2+H05261)
Strobe/Lamp Enabled: No (USB2+H05261)
Correct for Detector Non-linearity: No (USB2+H05261)
Correct for Stray Light: No (USB2+H05261)
Number of Pixels in Processed Spectrum: 2048
>>>>>Begin Processed Spectral Data<<<<<
365.73	227.03
365.92	227.03
366.12	227.03
366.32	107.66
366.52	173.20
366.72	175.54
366.91	161.50
367.11	315.97
367.31	208.31
367.51	177.88
367.70	210.65
367.90	217.67
368.10	196.60
368.30	191.92
368.49	264.48
368.69	227.03
368.89	140.43
369.09	208.31
369.28	201.29
369.48	229.37
369.68	201.29
369.87	229.37
370.07	189.58
370.27	191.92
370.47	322.99
370.66	435.34
370.86	543.00
371.06	493.85
371.25	603.86
371.45	573.43
371.65	533.64
371.84	573.43
372.04	538.32
372.24	613.22
372.44	503.22
372.63	589.82
372.83	594.50
373.03	566.41
373.22	601.52
373.42	610.88
373.62	608.54
373.81	622.58
374.01	620.24
374.21	627.26
374.40	589.82
374.60	634.29
374.79	636.63
374.99	554.71
375.19	648.33
375.38	571.09
375.58	620.24
375.78	692.80
375.97	671.73
376.17	690.46
376.37	653.01
376.56	653.01
376.76	634.29
376.95	667.05
377.15	667.05
377.35	734.93
377.54	702.16
377.74	727.91
377.93	645.99
378.13	741.95
378.33	741.95
378.52	688.12
378.72	711.52
378.91	650.67
379.11	601.52
379.31	711.52
379.50	746.63
379.70	730.25
379.89	753.65
380.09	702.16
380.28	791.10
380.48	655.35
380.68	690.46
380.87	821.53
381.07	730.25
381.26	763.01
381.46	795.78
381.65	737.27
381.85	772.38
382.04	781.74
382.24	744.29
382.43	739.61
382.63	791.10
382.83	826.21
383.02	730.25
383.22	840.25
383.41	812.17
383.61	777.06
383.80	805.14
384.00	814.51
384.19	692.80
384.39	835.57
384.58	861.32
384.78	711.52
384.97	807.48
385.17	807.48
385.36	844.93
385.56	826.21
385.75	744.29
385.95	830.89
386.14	847.27
386.34	781.74
386.53	837.91
386.72	795.78
386.92	880.04
387.11	887.06
387.31	830.89
387.50	791.10
387.70	915.15
387.89	924.51
388.09	880.04
388.28	924.51
388.48	1022.81
388.67	915.15
388.86	924.51
389.06	863.66
389.25	833.23
389.45	912.81
389.64	915.15
389.84	875.36
390.03	933.87
390.22	950.26
390.42	868.34
390.61	990.05
390.81	973.66
391.00	915.15
391.19	1090.69
391.39	922.17
391.58	1025.15
391.78	994.73
391.97	1046.22
392.16	954.94
392.36	929.19
392.55	1062.60
392.75	1069.62
392.94	943.24
393.13	1011.11
393.33	1004.09
393.52	994.73
393.71	1074.31
393.91	1135.16
394.10	1062.60
394.29	1055.58
394.49	1081.33
394.68	1123.46
394.88	1064.94
395.07	1121.12
395.26	1116.44
395.46	1109.41
395.65	1123.46
395.84	1184.31
396.04	1259.21
396.23	1228.78
396.42	1146.86
396.62	1153.88
396.81	1193.67
397.00	1240.48
397.19	1114.10
397.39	1118.78
397.58	1207.72
397.77	1207.72
397.97	1188.99
398.16	1214.74
398.35	1219.42
398.55	1249.85
398.74	1210.06
398.93	1205.38
399.12	1252.19
399.32	1291.98
399.51	1226.44
399.70	1423.05
399.90	1219.42
400.09	1336.45
400.28	1320.06
400.47	1327.08
400.67	1444.11
400.86	1345.81
401.05	1383.26
401.24	1336.45
401.44	1409.00
401.63	1511.99
401.82	1427.73
402.01	1406.66
402.21	1390.28
402.40	1455.81
402.59	1432.41
402.78	1479.22
402.97	1486.24
403.17	1460.49
403.36	1514.33
403.55	1570.50
403.74	1502.62
403.93	1437.09
404.13	1570.50
404.32	1535.39
404.51	1614.97
404.70	1598.59
404.89	1535.39
405.09	1556.46
405.28	1575.18
405.47	1617.31
405.66	1750.72
405.85	1654.76
406.05	1570.50
406.24	1661.78
406.43	1701.57
406.62	1675.82
406.81	1701.57
407.00	1729.66
407.20	1750.72
407.39	1743.70
407.58	1743.70
407.77	1685.19
407.96	1823.28
408.15	1839.66
408.34	1853.70
408.54	1863.07
408.73	1867.75
408.92	1858.39
409.11	1963.71
409.30	1914.56
409.49	1987.11
409.68	1884.13
409.87	1933.28
410.07	1987.11
410.26	1893.49
410.45	1926.26
410.64	1989.46
410.83	2001.16
411.02	2043.29
411.21	2160.31
411.40	2043.29
411.59	2054.99
411.78	2076.06
411.98	2143.93
412.17	2172.02
412.36	2148.61
412.55	2197.76
412.74	2263.30
412.93	2153.29
413.12	2223.51
413.31	2321.81
413.50	2209.47
413.69	2265.64
413.88	2265.64
414.07	2352.24
414.26	2431.82
414.45	2431.82
414.64	2438.84
414.83	2462.24
415.02	2431.82
415.22	2534.80
415.41	2656.51
415.60	2502.03
415.79	2612.04
415.98	2684.59
416.17	2574.59
416.36	2602.68
416.55	2635.44
416.74	2675.23
416.93	2609.70
417.12	2869.50
417.31	2696.30
417.50	2810.98
417.69	2942.05
417.88	2855.45
418.07	2799.28
418.26	2942.05
418.45	2843.75
418.64	2995.89
418.83	2944.39
419.02	2944.39
419.21	2984.18
419.39	3042.70
419.58	2970.14
419.77	3019.29
419.96	3028.65
420.15	3164.40
420.34	3028.65
420.53	3157.38
420.72	3077.80
420.91	3019.29
421.10	3084.83
421.29	3075.46
421.48	3009.93
421.67	3157.38
421.86	3108.23
422.05	3171.43
422.24	2995.89
422.43	3204.19
422.61	3274.41
422.80	3227.60
422.99	3192.49
423.18	3274.41
423.37	3445.27
423.56	3150.36
423.75	3375.05
423.94	3215.90
424.13	3040.36
424.32	3145.68
424.50	3295.47
424.69	3410.16
424.88	3353.99
425.07	3246.32
425.26	3365.69
425.45	3288.45
425.64	3255.69
425.83	3358.67
426.01	3300.16
426.20	3293.13
426.39	3405.48
426.58	3325.90
426.77	3297.81
426.96	3372.71
427.15	3417.18
427.33	3445.27
427.52	3501.44
427.71	3433.57
427.90	3501.44
428.09	3604.42
428.28	3419.52
428.46	3473.36
428.65	3541.23
428.84	3564.64
429.03	3672.30
429.22	3485.06
429.40	3606.77
429.59	3592.72
429.78	3534.21
429.97	3471.01
430.16	3485.06
430.34	3707.41
430.53	3768.26
430.72	3784.65
430.91	3719.11
431.10	3761.24
431.28	3688.68
431.47	3794.01
431.66	3803.37
431.85	3730.81
432.03	3882.95
432.22	3950.82
432.41	3878.27
432.60	4018.70
432.79	3948.48
432.97	3885.29
433.16	3920.40
433.35	3941.46
433.54	3995.29
433.72	3997.64
433.91	3990.61
434.10	4011.68
434.28	4102.96
434.47	4053.81
434.66	4222.33
434.85	4077.21
435.03	4121.68
435.22	4065.51
435.41	4243.39
435.59	4112.32
435.78	4322.97
435.97	4222.33
436.16	4243.39
436.34	4290.20
436.53	4299.56
436.72	4332.33
436.90	4294.88
437.09	4236.37
437.28	4109.98
437.46	4306.59
437.65	4432.97
437.84	4393.19
438.02	4409.57
438.21	4407.23
438.40	4248.07
438.58	4386.16
438.77	4545.32
438.96	4622.56
439.14	4573.41
439.33	4777.03
439.52	4739.58
439.70	4692.77
439.89	4634.26
440.08	4826.18
440.26	4863.63
440.45	4753.63
440.63	4884.70
440.82	5041.51
441.01	4844.91
441.19	4842.57
441.38	5048.54
441.57	4919.81
441.75	5060.24
441.94	5188.97
442.12	5200.67
442.31	5270.89
442.50	5226.42
442.68	5158.54
442.87	5207.69
443.05	5179.61
443.24	5317.70
443.43	5263.86
443.61	5242.80
443.80	5572.82
443.98	4990.02
444.17	5121.09
444.35	5200.67
444.54	5394.93
444.73	5439.40
444.91	5565.79
445.10	5467.49
445.28	5315.36
445.47	5315.36
445.65	5479.19
445.84	5507.28
446.02	5551.75
446.21	5371.53
446.39	5376.21
446.58	5533.03
446.77	5617.29
446.95	5416.00
447.14	5369.19
447.32	5523.66
447.51	5633.67
447.69	5472.17
447.88	5551.75
448.06	5558.77
448.25	5474.51
448.43	5507.28
448.62	5675.80
448.80	5643.03
448.99	5570.48
449.17	5596.22
449.36	5469.83
449.54	5799.85
449.73	5734.31
449.91	5923.90
450.10	5783.46
450.28	5914.53
450.46	5771.76
450.65	5781.12
450.83	5701.54
451.02	5839.64
451.20	5944.96
451.39	5811.55
451.57	5856.02
451.76	5734.31
451.94	5987.09
452.13	6101.78
452.31	6022.20
452.49	5888.79
452.68	5914.53
452.86	6106.46
453.05	6169.65
453.23	6090.07
453.42	6001.13
453.60	6036.24
453.78	6094.76
453.97	6139.23
454.15	6029.22
454.34	6120.50
454.52	6392.00
454.70	6293.70
454.89	6169.65
455.07	6239.87
455.26	6253.91
455.44	6270.30
455.62	6368.60
455.81	6354.55
455.99	6434.13
456.17	6399.02
456.36	6452.86
456.54	6499.67
456.73	6471.58
456.91	6698.61
457.09	6693.93
457.28	6930.33
457.46	6752.45
457.64	6862.45
457.83	6780.53
458.01	6885.86
458.19	6796.92
458.38	6757.13
458.56	7037.99
458.74	6867.13
458.93	6752.45
459.11	6979.48
459.29	6778.19
459.48	6885.86
459.66	7040.33
459.84	6939.69
460.03	7122.25
460.21	7103.53
460.39	7007.56
460.57	7077.78
460.76	7094.16
460.94	7190.13
461.12	7033.31
461.31	7222.89
461.49	7070.76
461.67	7274.38
461.85	7293.11
462.04	7178.42
462.22	7641.85
462.40	7445.24
462.59	7283.75
462.77	7283.75
462.95	7335.24
463.13	7272.04
463.32	7611.42
463.50	7445.24
463.68	7496.74
463.86	7611.42
464.05	7583.34
464.23	7616.10
464.41	7527.16
464.59	7456.95
464.78	7808.03
464.96	7707.38
465.14	7712.07
465.32	7695.68
465.50	7719.09
465.69	7854.84
465.87	7726.11
466.05	7882.92
466.23	7658.23
466.41	7786.96
466.60	7908.67
466.78	7793.98
466.96	7974.21
467.14	7824.41
467.32	7925.05
467.51	7843.14
467.69	7784.62
467.87	7803.35
468.05	7995.27
468.23	7978.89
468.41	7859.52
468.60	7859.52
468.78	8002.29
468.96	7995.27
469.14	8133.36
469.32	8168.47
469.50	8039.74
469.69	8257.41
469.87	8238.69
470.05	8404.86
470.23	8358.05
470.41	8320.60
470.59	8301.88
470.77	8428.27
470.95	8472.74
471.14	8432.95
471.32	8493.80
471.50	8571.04
471.68	8587.43
471.86	8718.50
472.04	8617.85
472.22	8877.65
472.40	8606.15
472.58	8851.91
472.77	8765.31
472.95	8802.75
473.13	9289.59
473.31	9078.94
473.49	8929.14
473.67	8894.04
473.85	9029.79
474.03	9139.79
474.21	9458.10
474.39	9200.65
474.57	9177.24
474.75	9376.19
474.93	9549.39
475.12	9619.60
475.30	9355.12
475.48	9568.11
475.66	9703.86
475.84	9628.96
476.02	9584.49
476.20	9795.14
476.38	9893.44
476.56	10200.05
476.74	9956.64
476.92	10045.58
477.10	10129.84
477.28	10078.35
477.46	10141.54
477.64	10230.48
477.82	10466.88
478.00	10595.61
478.18	10647.10
478.36	10803.91
478.54	10724.33
478.72	10829.66
478.90	10995.84
479.08	11052.01
479.26	11014.56
479.44	11262.66
479.62	11016.90
479.80	11117.54
479.98	11112.86
480.16	11646.51
480.34	11632.46
480.52	11440.54
480.70	11709.70
480.88	11620.76
481.06	11894.60
481.24	11749.49
481.41	11831.41
481.59	11950.78
481.77	12173.13
481.95	12264.41
482.13	12461.01
482.31	12163.76
482.49	12898.69
482.67	12762.94
482.85	12968.91
483.03	12699.75
483.21	13085.94
483.39	13050.83
483.57	12947.84
483.74	13001.68
483.92	13383.18
484.10	13263.82
484.28	13706.18
484.46	13792.78
484.64	13949.59
484.82	13556.38
485.00	13987.04
485.18	14139.18
485.35	14445.79
485.53	14150.88
485.71	14485.58
485.89	14600.26
486.07	14476.21
486.25	14583.88
486.43	14871.76
486.61	14993.47
486.78	14927.94
486.96	15234.55
487.14	15239.23
487.32	15400.72
487.50	15637.12
487.68	15459.24
487.85	15988.20
488.03	16147.36
488.21	16201.19
488.39	15934.37
488.57	16137.99
488.75	16402.47
488.92	16627.17
489.10	16716.11
489.28	16624.83
489.46	16924.41
489.64	16849.52
489.81	17429.97
489.99	17242.73
490.17	17011.01
490.35	17551.68
490.53	17689.77
490.70	17738.92
490.88	17745.94
491.06	18036.17
491.24	17898.08
491.41	17891.06
491.59	18183.62
491.77	18087.66
491.95	18249.16
492.13	18869.40
492.30	18586.19
492.48	18707.90
492.66	18923.23
492.84	18806.20
493.01	19030.90
493.19	19037.92
493.37	19297.72
493.54	19653.48
493.72	19576.24
493.90	19424.11
494.08	19751.78
494.25	19779.87
494.43	19606.67
494.61	20070.09
494.79	20273.72
494.96	20182.44
495.14	20374.36
495.32	20662.25
495.49	20695.02
495.67	20697.36
495.85	20636.50
496.02	21268.45
496.20	21102.27
496.38	21055.46
496.55	21163.12
496.73	21766.98
496.91	21511.86
497.09	21790.39
497.26	21633.57
497.44	21621.87
497.62	21865.28
497.79	22396.59
497.97	22104.02
498.14	22087.64
498.32	22431.69
498.50	22403.61
498.67	22668.09
498.85	22546.38
499.03	23192.37
499.20	22906.82
499.38	22995.76
499.56	23180.67
499.73	23461.53
499.91	23454.51
500.08	23651.11
500.26	23431.10
500.44	23391.31
500.61	23653.45
500.79	23718.99
500.97	23807.93
501.14	24381.36
501.32	24093.47
501.49	23819.63
501.67	24142.63
501.84	24294.76
502.02	24191.78
502.20	24051.34
502.37	24465.62
502.55	24510.09
502.72	24460.94
502.90	24802.66
503.07	24435.19
503.25	24936.07
503.43	24704.35
503.60	25219.27
503.78	25160.76
503.95	24922.02
504.13	25184.16
504.30	25420.56
504.48	25254.38
504.65	25219.27
504.83	25448.64
505.01	25830.15
505.18	25755.26
505.36	26092.29
505.53	26057.18
505.71	26099.31
505.88	26064.21
506.06	26190.59
506.23	26281.88
506.41	26190.59
506.58	26174.21
506.76	26480.82
506.93	26405.92
507.11	26331.03
507.28	27028.51
507.46	26759.34
507.63	26850.63
507.81	26920.84
507.98	26766.37
508.16	26923.18
508.33	26780.41
508.50	27262.56
508.68	27325.75
508.85	27438.10
509.03	27346.82
509.20	27367.88
509.38	27735.35
509.55	28151.96
509.73	27871.10
509.90	27908.55
510.08	27658.11
510.25	27707.26
510.42	28451.55
510.60	28151.96
510.77	28395.38
510.95	28669.22
511.12	28484.32
511.30	28795.61
511.47	28819.02
511.64	28514.75
511.82	28882.21
511.99	28561.56
512.17	28957.11
512.34	29022.64
512.51	28917.32
512.69	29656.93
512.86	28971.15
513.04	29425.22
513.21	29235.63
513.38	29773.95
513.56	29495.43
513.73	29116.26
513.90	29544.58
514.08	29539.90
514.25	29795.02
514.43	30148.44
514.60	29935.45
514.77	30015.03
514.95	30181.21
515.12	30033.75
515.29	30171.85
515.47	30635.27
515.64	30665.70
515.81	30092.27
515.99	30639.95
516.16	30820.17
516.33	30455.05
516.51	30623.57
516.68	30403.56
516.85	30984.01
517.03	31070.61
517.20	30843.58
517.37	30747.62
517.54	31005.08
517.72	30986.35
517.89	31335.09
518.06	31267.22
518.24	31447.44
518.41	31454.46
518.58	31461.48
518.75	31487.23
518.93	31566.81
519.10	31697.88
519.27	31639.36
519.45	31896.82
519.62	32060.66
519.79	31777.45
519.96	31894.48
520.14	32114.49
520.31	32184.71
520.48	32243.22
520.65	32107.47
520.83	32954.74
521.00	32505.36
521.17	32378.97
521.34	32706.65
521.52	33165.39
521.69	32584.94
521.86	33120.92
522.03	32919.63
522.20	33113.90
522.38	33610.09
522.55	33137.30
522.72	32989.85
522.89	33493.07
523.07	33773.93
523.24	33436.89
523.41	33743.50
523.58	33408.81
523.75	33951.81
523.92	33464.98
524.10	33928.41
524.27	33949.47
524.44	33738.82
524.61	33979.90
524.78	33586.69
524.96	34143.74
525.13	34780.36
525.30	34443.32
525.47	34579.07
525.64	34237.36
525.81	34024.37
525.98	34600.14
526.16	34703.12
526.33	34295.87
526.50	34316.93
526.67	34595.46
526.84	34714.83
527.01	34855.26
527.18	35166.55
527.36	34983.99
527.53	34883.34
527.70	35431.03
527.87	35103.35
528.04	35206.34
528.21	35367.84
528.38	35531.67
528.55	35557.42
528.72	35108.04
528.89	35426.35
529.07	35126.76
529.24	35707.21
529.41	35803.17
529.58	35412.31
529.75	35424.01
529.92	35655.72
530.09	35718.92
530.26	36030.21
530.43	35974.03
530.60	36030.21
530.77	35896.80
530.94	35938.93
531.11	35894.46
531.28	36041.91
531.46	36238.51
531.63	36238.51
531.80	36259.58
531.97	36369.58
532.14	36715.98
532.31	36320.43
532.48	36123.83
532.65	36790.88
532.82	36453.84
532.99	37116.22
533.16	36772.16
533.33	37125.58
533.50	36865.78
533.67	36825.99
533.84	36823.65
534.01	36987.49
534.18	36870.46
534.35	37488.36
534.52	37500.06
534.69	37120.90
534.86	37479.00
535.03	37291.76
535.20	37488.36
535.37	37848.80
535.54	37329.20
535.71	37420.48
535.88	37418.14
536.05	37759.86
536.22	37771.57
536.38	37682.62
536.55	38183.50
536.72	37474.32
536.89	37390.06
537.06	37806.67
537.23	38384.79
537.40	37546.87
537.57	37865.19
537.74	37778.59
537.91	38440.96
538.08	38153.07
538.25	37926.04
538.42	38005.62
538.59	38651.61
538.75	38270.10
538.92	38628.20
539.09	38455.00
539.26	38745.23
539.43	38473.73
539.60	38513.52
539.77	38616.50
539.94	38932.47
540.11	39220.36
540.28	38536.92
540.44	39330.36
540.61	38988.64
540.78	38707.78
540.95	39122.05
541.12	39402.92
541.29	38733.53
541.46	38878.64
541.62	38876.30
541.79	39309.30
541.96	38473.73
542.13	38721.82
542.30	39122.05
542.47	38962.90
542.63	39433.35
542.80	39491.86
542.97	39636.97
543.14	39721.23
543.31	39313.98
543.48	39445.05
543.64	40306.37
543.81	39929.54
543.98	39828.90
544.15	39763.36
544.32	40121.46
544.48	41045.97
544.65	39910.82
544.82	40257.21
544.99	40041.88
545.16	40175.30
545.32	40320.41
545.49	40900.86
545.66	41045.97
545.83	40374.24
546.00	40746.39
546.16	40421.05
546.33	40055.93
546.50	40278.28
546.67	40680.85
546.83	40149.55
547.00	40360.20
547.17	40467.86
547.34	40645.74
547.50	41273.01
547.67	41099.81
547.84	40535.74
548.00	40596.59
548.17	40893.84
548.34	41312.80
548.51	41148.96
548.67	41261.30
548.84	41158.32
549.01	41450.89
549.18	41514.08
549.34	41120.87
549.51	41256.62
549.68	41198.11
549.84	41399.40
550.01	41448.55
550.18	41387.69
550.34	41507.06
550.51	41652.17
550.68	41441.53
550.84	41242.58
551.01	42103.90
551.18	41385.35
551.34	41394.71
551.51	41844.10
551.68	41413.44
551.84	41530.47
552.01	41640.47
552.18	41481.31
552.34	41759.84
552.51	41677.92
552.68	41572.60
552.84	42024.32
553.01	41869.84
553.18	41862.82
553.34	42174.11
553.51	42204.54
553.67	41823.03
553.84	42274.76
554.01	42487.74
554.17	42146.03
554.34	42120.28
554.51	42651.58
554.67	42731.16
554.84	42459.66
555.00	42595.41
555.17	42536.90
555.33	42600.09
555.50	42623.50
555.67	42817.76
555.83	42623.50
556.00	43000.32
556.16	42890.32
556.33	42873.93
556.50	42644.56
556.66	42644.56
556.83	42703.07
556.99	43026.07
557.16	42782.65
557.32	43107.99
557.49	42724.14
557.65	42663.28
557.82	43044.79
557.98	42902.02
558.15	43026.07
558.32	42850.53
558.48	42813.08
558.65	42897.34
558.81	43091.60
558.98	42784.99
559.14	42829.46
559.31	42932.45
559.47	43075.22
559.64	43196.93
559.80	43023.73
559.97	43257.78
560.13	43016.71
560.30	43187.56
560.46	43276.51
560.63	43489.49
560.79	43592.48
560.96	43494.18
561.12	43555.03
561.29	43416.94
561.45	43730.57
561.61	43206.29
561.78	43330.34
561.94	43583.12
562.11	43468.43
562.27	43241.40
562.44	43718.87
562.60	43854.62
562.77	43543.33
562.93	43768.02
563.10	43756.32
563.26	43695.46
563.42	43978.67
563.59	43777.38
563.75	43931.86
563.92	43730.57
564.08	43264.80
564.24	43978.67
564.41	43690.78
564.57	44343.79
564.74	43681.42
564.90	43929.51
565.07	44189.31
565.23	43957.60
565.39	44098.03
565.56	44184.63
565.72	43739.93
565.88	43976.33
566.05	43721.21
566.21	44062.93
566.38	44208.04
566.54	44275.91
566.70	44030.16
566.87	44020.80
567.03	43679.08
567.19	43873.34
567.36	44027.82
567.52	44060.58
567.68	44451.45
567.85	44083.99
568.01	44367.20
568.17	44048.88
568.34	44186.97
568.50	44582.52
568.66	43608.86
568.83	44051.22
568.99	44247.83
569.15	44456.14
569.32	44027.82
569.48	44091.01
569.64	44994.46
569.81	44399.96
569.97	44170.59
570.13	44456.14
570.30	44360.17
570.46	44177.61
570.62	44725.30
570.78	44357.83
570.95	44444.43
571.11	44596.57
571.27	44364.85
571.43	44360.17
571.60	44683.17
571.76	44481.88
571.92	44418.69
572.09	44910.20
572.25	43913.13
572.41	44435.07
572.57	44676.15
572.74	44772.11
572.90	44896.16
573.06	45052.97
573.22	44210.38
573.38	44839.98
573.55	44821.26
573.71	45085.74
573.87	44760.40
574.03	44882.11
574.20	44626.99
574.36	44671.46
574.52	44926.58
574.68	44839.98
574.84	45036.59
575.01	45158.30
575.17	45118.51
575.33	44535.71
575.49	45029.57
575.65	44767.43
575.82	44746.36
575.98	44570.82
576.14	44790.83
576.30	44961.69
576.46	44718.28
576.62	44650.40
576.79	44437.41
576.95	44612.95
577.11	44189.31
577.27	44493.58
577.43	44694.87
577.59	44671.46
577.75	44708.91
577.92	44655.08
578.08	44619.97
578.24	45258.94
578.40	45251.92
578.56	44938.29
578.72	44793.17
578.88	44718.28
579.04	44882.11
579.21	45310.43
579.37	44924.24
579.53	44940.63
579.69	44596.57
579.85	44774.45
580.01	45170.00
580.17	44416.35
580.33	44949.99
580.49	45069.36
580.65	44823.60
580.82	44996.80
580.98	44465.50
581.14	44247.83
581.30	45132.55
581.46	44924.24
581.62	45099.78
581.78	44713.59
581.94	45308.09
582.10	44872.75
582.26	44964.03
582.42	44737.00
582.58	44886.79
582.74	44973.39
582.90	44987.44
583.06	44954.67
583.22	44570.82
583.38	45071.70
583.54	45095.10
583.70	44917.22
583.86	45441.50
584.02	45102.12
584.18	45289.37
584.34	45298.73
584.50	45464.91
584.66	45406.39
584.82	45436.82
584.98	45745.77
585.14	45495.33
585.30	44935.95
585.46	45354.90
585.62	44942.97
585.78	44982.76
585.94	44781.47
586.10	45043.61
586.26	44650.40
586.42	45090.42
586.58	45230.85
586.74	45081.06
586.90	44598.91
587.06	44774.45
587.22	45371.28
587.38	45090.42
587.54	45275.32
587.70	45490.65
587.86	44898.50
588.02	45251.92
588.18	45308.09
588.34	45429.80
588.49	45226.17
588.65	45214.47
588.81	45097.44
588.97	45427.46
589.13	45219.15
589.29	45577.25
589.45	45418.10
589.61	45284.68
589.77	45677.90
589.93	45287.03
590.08	45600.66
