SpectraSuite Data File
++++++++++++++++++++++++++++++++++++
Date: Fri Oct 25 11:34:21 EDT 2013
User: price-jones
Dark Spectrum Present: No
Reference Spectrum Present: No
Number of Sampled Component Spectra: 1
Spectrometers: USB2+H05261
Integration Time (usec): 100000 (USB2+H05261)
Spectra Averaged: 1 (USB2+H05261)
Boxcar Smoothing: 0 (USB2+H05261)
Correct for Electrical Dark: No (USB2+H05261)
Strobe/Lamp Enabled: No (USB2+H05261)
Correct for Detector Non-linearity: No (USB2+H05261)
Correct for Stray Light: No (USB2+H05261)
Number of Pixels in Processed Spectrum: 2048
>>>>>Begin Processed Spectral Data<<<<<
365.73	276.18
365.92	276.18
366.12	276.18
366.32	166.18
366.52	201.29
366.72	231.71
366.91	229.37
367.11	227.03
367.31	168.52
367.51	170.86
367.70	238.73
367.90	194.26
368.10	161.50
368.30	154.48
368.49	161.50
368.69	133.41
368.89	133.41
369.09	159.16
369.28	215.33
369.48	166.18
369.68	234.05
369.87	154.48
370.07	212.99
370.27	283.20
370.47	304.27
370.66	484.49
370.86	528.96
371.06	484.49
371.25	486.83
371.45	564.07
371.65	561.73
371.84	531.30
372.04	557.05
372.24	585.13
372.44	573.43
372.63	533.64
372.83	568.75
373.03	657.69
373.22	575.77
373.42	599.18
373.62	608.54
373.81	634.29
374.01	660.03
374.21	657.69
374.40	645.99
374.60	643.65
374.79	641.31
374.99	608.54
375.19	617.90
375.38	617.90
375.58	664.71
375.78	603.86
375.97	631.94
376.17	683.44
376.37	592.16
376.56	739.61
376.76	610.88
376.95	638.97
377.15	692.80
377.35	685.78
377.54	683.44
377.74	741.95
377.93	699.82
378.13	550.03
378.33	683.44
378.52	671.73
378.72	648.33
378.91	725.57
379.11	753.65
379.31	699.82
379.50	655.35
379.70	734.93
379.89	791.10
380.09	737.27
380.28	631.94
380.48	657.69
380.68	617.90
380.87	730.25
381.07	770.04
381.26	833.23
381.46	755.99
381.65	713.86
381.85	784.08
382.04	744.29
382.24	744.29
382.43	777.06
382.63	713.86
382.83	802.80
383.02	786.42
383.22	816.85
383.41	802.80
383.61	784.08
383.80	821.53
384.00	809.83
384.19	823.87
384.39	767.70
384.58	706.84
384.78	833.23
384.97	849.61
385.17	760.67
385.36	814.51
385.56	793.44
385.75	774.72
385.95	755.99
386.14	849.61
386.34	894.08
386.53	875.36
386.72	887.06
386.92	933.87
387.11	819.19
387.31	919.83
387.50	807.48
387.70	816.85
387.89	823.87
388.09	894.08
388.28	774.72
388.48	947.92
388.67	945.58
388.86	910.47
389.06	910.47
389.25	912.81
389.45	887.06
389.64	997.07
389.84	959.62
390.03	950.26
390.22	959.62
390.42	945.58
390.61	931.53
390.81	940.90
391.00	999.41
391.19	990.05
391.39	1008.77
391.58	1078.99
391.78	964.30
391.97	983.02
392.16	980.68
392.36	1001.75
392.55	1034.52
392.75	990.05
392.94	966.64
393.13	1074.31
393.33	973.66
393.52	1074.31
393.71	1015.79
393.91	1123.46
394.10	1078.99
394.29	1107.07
394.49	1001.75
394.68	1095.37
394.88	1123.46
395.07	1078.99
395.26	1198.35
395.46	1207.72
395.65	1179.63
395.84	1179.63
396.04	1193.67
396.23	1245.16
396.42	1181.97
396.62	1207.72
396.81	1174.95
397.00	1163.25
397.19	1167.93
397.39	1294.32
397.58	1196.01
397.77	1231.12
397.97	1226.44
398.16	1261.55
398.35	1214.74
398.55	1198.35
398.74	1224.10
398.93	1238.14
399.12	1329.42
399.32	1289.64
399.51	1228.78
399.70	1303.68
399.90	1275.59
400.09	1380.92
400.28	1383.26
400.47	1394.96
400.67	1385.60
400.86	1383.26
401.05	1345.81
401.24	1455.81
401.44	1406.66
401.63	1418.36
401.82	1425.39
402.01	1380.92
402.21	1430.07
402.40	1430.07
402.59	1434.75
402.78	1441.77
402.97	1427.73
403.17	1441.77
403.36	1486.24
403.55	1495.60
403.74	1495.60
403.93	1526.03
404.13	1535.39
404.32	1577.52
404.51	1671.14
404.70	1603.27
404.89	1554.12
405.09	1685.19
405.28	1645.40
405.47	1584.54
405.66	1671.14
405.85	1729.66
406.05	1607.95
406.24	1687.53
406.43	1675.82
406.62	1795.19
406.81	1888.81
407.00	1736.68
407.20	1703.91
407.39	1743.70
407.58	1856.04
407.77	1849.02
407.96	1874.77
408.15	1818.60
408.34	1849.02
408.54	1872.43
408.73	1937.96
408.92	1930.94
409.11	1884.13
409.30	1954.35
409.49	1844.34
409.68	1916.90
409.87	1956.69
410.07	1963.71
410.26	2118.18
410.45	1989.46
410.64	1994.14
410.83	2001.16
411.02	2033.93
411.21	2054.99
411.40	2127.55
411.59	2115.84
411.78	2169.68
411.98	2111.16
412.17	2204.78
412.36	2331.17
412.55	2305.43
412.74	2296.07
412.93	2282.02
413.12	2242.23
413.31	2431.82
413.50	2310.11
413.69	2361.60
413.88	2562.89
414.07	2438.84
414.26	2450.54
414.45	2445.86
414.64	2394.37
414.83	2600.34
415.02	2548.84
415.22	2448.20
415.41	2658.85
415.60	2532.46
415.79	2668.21
415.98	2555.86
416.17	2703.32
416.36	2729.06
416.55	2663.53
416.74	2810.98
416.93	2700.98
417.12	2850.77
417.31	2782.90
417.50	2757.15
417.69	2839.07
417.88	2806.30
418.07	2829.71
418.26	2808.64
418.45	2930.35
418.64	3019.29
418.83	2939.71
419.02	2803.96
419.21	2998.23
419.39	2991.20
419.58	2986.52
419.77	2925.67
419.96	3138.66
420.15	3145.68
420.34	3162.06
420.53	3098.87
420.72	3178.45
420.91	2970.14
421.10	3096.53
421.29	3234.62
421.48	3110.57
421.67	3290.79
421.86	3117.59
422.05	3201.85
422.24	3215.90
422.43	3260.37
422.61	3171.43
422.80	3337.60
422.99	3255.69
423.18	3379.73
423.37	3356.33
423.56	3375.05
423.75	3302.50
423.94	3262.71
424.13	3117.59
424.32	3150.36
424.50	3370.37
424.69	3438.25
424.88	3309.52
425.07	3440.59
425.26	3431.23
425.45	3346.97
425.64	3332.92
425.83	3353.99
426.01	3353.99
426.20	3361.01
426.39	3389.10
426.58	3389.10
426.77	3332.92
426.96	3494.42
427.15	3428.88
427.33	3461.65
427.52	3527.19
427.71	3489.74
427.90	3407.82
428.09	3473.36
428.28	3475.70
428.46	3468.67
428.65	3534.21
428.84	3707.41
429.03	3709.75
429.22	3487.40
429.40	3681.66
429.59	3684.00
429.78	3510.80
429.97	3604.42
430.16	3611.45
430.34	3758.90
430.53	3789.33
430.72	3838.48
430.91	3864.22
431.10	3562.30
431.28	3878.27
431.47	3873.59
431.66	3925.08
431.85	3847.84
432.03	3714.43
432.22	3936.78
432.41	3936.78
432.60	3859.54
432.79	3918.06
432.97	3873.59
433.16	4105.30
433.35	3948.48
433.54	4032.74
433.72	4002.32
433.91	3941.46
434.10	4053.81
434.28	4119.34
434.47	4086.58
434.66	4219.99
434.85	4224.67
435.03	4194.24
435.22	4203.60
435.41	4362.76
435.59	4325.31
435.78	4334.67
435.97	4355.74
436.16	4117.00
436.34	4234.03
436.53	4318.29
436.72	4348.72
436.90	4283.18
437.09	4362.76
437.28	4444.68
437.46	4423.61
437.65	4407.23
437.84	4554.68
438.02	4440.00
438.21	4482.13
438.40	4470.42
438.58	4671.71
438.77	4580.43
438.96	4564.04
439.14	4770.01
439.33	4725.54
439.52	4814.48
439.70	4744.27
439.89	4905.76
440.08	4791.08
440.26	5022.79
440.45	4793.42
440.63	4957.25
440.82	4952.57
441.01	4952.57
441.19	4894.06
441.38	5177.26
441.57	5137.48
441.75	5259.18
441.94	5233.44
442.12	5373.87
442.31	5245.14
442.50	5298.97
442.68	5231.10
442.87	5282.59
443.05	5408.98
443.24	5401.96
443.43	5460.47
443.61	5408.98
443.80	5540.05
443.98	5392.59
444.17	5034.49
444.35	5451.11
444.54	5474.51
444.73	5490.90
444.91	5448.77
445.10	5511.96
445.28	5514.30
445.47	5460.47
445.65	5509.62
445.84	5530.69
446.02	5479.19
446.21	5610.26
446.39	5654.73
446.58	5617.29
446.77	5568.13
446.95	5434.72
447.14	5474.51
447.32	5762.40
447.51	5619.63
447.69	5469.83
447.88	5673.46
448.06	5523.66
448.25	5504.94
448.43	5526.00
448.62	5650.05
448.80	5521.32
448.99	5472.17
449.17	5652.39
449.36	5692.18
449.54	5769.42
449.73	5767.08
449.91	5867.72
450.10	5909.85
450.28	5987.09
450.46	5895.81
450.65	5816.23
450.83	5893.47
451.02	6045.60
451.20	5994.11
451.39	6036.24
451.57	6019.86
451.76	6141.57
451.94	6094.76
452.13	6113.48
452.31	6143.91
452.49	6113.48
452.68	6197.74
452.86	6197.74
453.05	5998.79
453.23	6312.42
453.42	6195.40
453.60	6181.35
453.78	6237.53
453.97	6108.80
454.15	6071.35
454.34	6186.04
454.52	6312.42
454.70	6387.32
454.89	6487.96
455.07	6445.84
455.26	6450.52
455.44	6602.65
455.62	6597.97
455.81	6504.35
455.99	6502.01
456.17	6719.68
456.36	6647.12
456.54	6553.50
456.73	6576.91
456.91	6722.02
457.09	6712.66
457.28	6733.72
457.46	6822.66
457.64	6771.17
457.83	6857.77
458.01	6853.09
458.19	6956.07
458.38	6799.26
458.56	6920.96
458.74	6937.35
458.93	6916.28
459.11	7056.72
459.29	7030.97
459.48	6930.33
459.66	7150.34
459.84	7019.27
460.03	7215.87
460.21	7227.57
460.39	7213.53
460.57	7150.34
460.76	7110.55
460.94	7339.92
461.12	7339.92
461.31	7344.60
461.49	7215.87
461.67	7255.66
461.85	7410.14
462.04	7330.56
462.22	7782.28
462.40	7552.91
462.59	7482.69
462.77	7330.56
462.95	7295.45
463.13	7548.23
463.32	7508.44
463.50	7630.15
463.68	7644.19
463.86	7723.77
464.05	7632.49
464.23	7552.91
464.41	7894.63
464.59	7527.16
464.78	7901.65
464.96	7744.83
465.14	7744.83
465.32	7791.64
465.50	7885.26
465.69	7789.30
465.87	7943.78
466.05	7815.05
466.23	7791.64
466.41	7889.95
466.60	8046.76
466.78	8131.02
466.96	7793.98
467.14	7988.25
467.32	8086.55
467.51	8276.13
467.69	7744.83
467.87	8353.37
468.05	8276.13
468.23	8234.00
468.41	8093.57
468.60	8016.33
468.78	8285.50
468.96	8219.96
469.14	8201.24
469.32	8372.10
469.50	8018.68
469.69	8498.49
469.87	8327.63
470.05	8463.38
470.23	8659.98
470.41	8486.78
470.59	8542.96
470.77	8617.85
470.95	8652.96
471.14	8931.48
471.32	8489.12
471.50	8805.10
471.68	8767.65
471.86	8903.40
472.04	8901.06
472.22	9100.00
472.40	8828.50
472.58	8809.78
472.77	9064.89
472.95	9130.43
473.13	9430.02
473.31	8966.59
473.49	9130.43
473.67	9153.84
473.85	9224.05
474.03	9238.09
474.21	9380.87
474.39	9455.76
474.57	9713.22
474.75	9549.39
474.93	9661.73
475.12	9621.94
475.30	9540.02
475.48	9685.14
475.66	9841.95
475.84	9844.29
476.02	9919.19
476.20	9914.51
476.38	10001.11
476.56	10284.31
476.74	10342.83
476.92	10246.87
477.10	10289.00
477.28	10232.82
477.46	10279.63
477.64	10595.61
477.82	10544.11
478.00	10778.17
478.18	10703.27
478.36	10773.49
478.54	10740.72
478.72	11070.73
478.90	11363.30
479.08	11222.87
479.26	11414.79
479.44	11236.91
479.62	11281.38
479.80	11428.84
479.98	11620.76
480.16	11749.49
480.34	11480.33
480.52	11901.62
480.70	11716.72
480.88	11655.87
481.06	12004.61
481.24	12138.02
481.41	12245.68
481.59	12353.35
481.77	12505.48
481.95	12348.67
482.13	12720.81
482.31	12320.58
482.49	13015.72
482.67	12961.89
482.85	13135.09
483.03	13158.49
483.21	13200.62
483.39	13437.02
483.57	13149.13
483.74	13362.12
483.92	13769.37
484.10	13455.74
484.28	13827.88
484.46	14001.08
484.64	14080.66
484.82	14033.85
485.00	14382.59
485.18	14469.19
485.35	14850.70
485.53	14342.80
485.71	14583.88
485.89	15035.60
486.07	14857.72
486.25	15084.75
486.43	15105.82
486.61	15030.92
486.78	15264.97
486.96	15208.80
487.14	15545.84
487.32	15737.76
487.50	15639.46
487.68	15871.17
487.85	16030.33
488.03	16032.67
488.21	16362.69
488.39	16243.32
488.57	16840.15
488.75	16563.97
488.92	16592.06
489.10	16830.79
489.28	16809.73
489.46	17081.23
489.64	17048.46
489.81	17586.79
489.99	17635.94
490.17	17350.39
490.35	17694.45
490.53	17767.01
490.70	17930.84
490.88	18155.54
491.06	18305.33
491.24	18272.56
491.41	18614.28
491.59	18544.06
491.77	18534.70
491.95	18764.07
492.13	18920.89
492.30	19068.34
492.48	19009.83
492.66	19215.80
492.84	19152.60
493.01	19449.85
493.19	19438.15
493.37	19814.98
493.54	19681.56
493.72	19873.49
493.90	20203.50
494.08	20018.60
494.25	19983.49
494.43	20409.47
494.61	20781.62
494.79	20905.66
494.96	20407.13
495.14	20690.34
495.32	21010.99
495.49	20854.17
495.67	21291.85
495.85	21081.21
496.02	21476.76
496.20	21495.48
496.38	21500.16
496.55	21659.32
496.73	22141.47
496.91	21795.07
497.09	21916.78
497.26	22169.55
497.44	22183.60
497.62	22422.33
497.79	22354.46
497.97	22508.93
498.14	22738.30
498.32	22927.89
498.50	22836.61
498.67	22993.42
498.85	23103.43
499.03	23396.00
499.20	23098.75
499.38	23529.41
499.56	23613.66
499.73	23339.82
499.91	23718.99
500.08	24159.01
500.26	23920.28
500.44	23711.97
500.61	23946.02
500.79	24032.62
500.97	24084.11
501.14	24552.22
501.32	24428.17
501.49	24308.80
501.67	24697.33
501.84	24297.10
502.02	24720.74
502.20	24847.13
502.37	24397.74
502.55	25013.31
502.72	24828.40
502.90	25369.07
503.07	24884.58
503.25	25050.75
503.43	25357.36
503.60	25750.57
503.78	25785.68
503.95	25481.41
504.13	25713.13
504.30	25476.73
504.48	25591.42
504.65	25699.08
504.83	26061.87
505.01	26199.96
505.18	26455.08
505.36	26363.79
505.53	26263.15
505.71	26504.23
505.88	26576.78
506.06	26338.05
506.23	26883.39
506.41	26691.47
506.58	26691.47
506.76	26934.88
506.93	26972.33
507.11	26778.07
507.28	27133.83
507.46	26925.52
507.63	27201.71
507.81	27819.61
507.98	27304.69
508.16	27384.27
508.33	27463.85
508.50	28212.82
508.68	27955.36
508.85	28177.71
509.03	27936.63
509.20	28100.47
509.38	28306.44
509.55	28203.46
509.73	28313.46
509.90	28655.18
510.08	28460.91
510.25	28538.15
510.42	28758.16
510.60	28945.41
510.77	28851.78
510.95	29392.45
511.12	29062.43
511.30	28858.81
511.47	29053.07
511.64	28996.90
511.82	29329.25
511.99	29436.92
512.17	29343.30
512.34	29460.32
512.51	29776.30
512.69	29797.36
512.86	29715.44
513.04	30031.41
513.21	29876.94
513.38	30057.16
513.56	30192.91
513.73	29680.33
513.90	29926.09
514.08	30024.39
514.25	30888.05
514.43	30101.63
514.60	30745.28
514.77	30326.32
514.95	30705.49
515.12	30520.59
515.29	30738.26
515.47	30934.86
515.64	30794.43
515.81	30869.33
515.99	31295.30
516.16	31534.04
516.33	31225.09
516.51	31522.34
516.68	31285.94
516.85	31091.68
517.03	31695.53
517.20	32173.00
517.37	31356.16
517.54	31363.18
517.72	31854.69
517.89	31770.43
518.06	31784.48
518.24	32065.34
518.41	31644.04
518.58	31796.18
518.75	31651.06
518.93	32332.16
519.10	31880.44
519.27	32070.02
519.45	32844.74
519.62	32535.79
519.79	32477.27
519.96	32613.02
520.14	32739.41
520.31	32594.30
520.48	32634.09
520.65	32830.69
520.83	33200.50
521.00	33188.80
521.17	33256.67
521.34	33263.69
521.52	33090.49
521.69	33244.97
521.86	33780.95
522.03	33689.67
522.20	33890.96
522.38	33565.62
522.55	33567.96
522.72	33848.83
522.89	33977.56
523.07	33844.15
523.24	33914.36
523.41	33867.55
523.58	33975.22
523.75	34302.89
523.92	34073.52
524.10	34464.39
524.27	34242.04
524.44	34604.82
524.61	34609.50
524.78	34803.77
524.96	34878.66
525.13	34934.84
525.30	34899.73
525.47	35115.06
525.64	35211.02
525.81	35070.59
525.98	35229.74
526.16	34888.03
526.33	34923.13
526.50	35093.99
526.67	35204.00
526.84	35372.52
527.01	35239.11
527.18	35363.15
527.36	35339.75
527.53	35655.72
527.70	36264.26
527.87	35735.30
528.04	35526.99
528.21	35819.56
528.38	35716.58
528.55	35751.68
528.72	35620.61
528.89	36023.19
529.07	35728.28
529.24	35906.16
529.41	35875.73
529.58	36032.55
529.75	36285.33
529.92	36212.77
530.09	36240.86
530.26	36156.60
530.43	36591.94
530.60	36407.03
530.77	36137.87
530.94	36528.74
531.11	36559.17
531.28	36769.82
531.46	36739.39
531.63	36905.57
531.80	36966.42
531.97	37240.26
532.14	36872.80
532.31	37188.77
532.48	37310.48
532.65	37322.18
532.82	37088.13
532.99	37242.60
533.16	36877.48
533.33	37434.53
533.50	37612.41
533.67	37350.27
533.84	37184.09
534.01	37603.05
534.18	37266.01
534.35	38031.36
534.52	37741.14
534.69	37970.51
534.86	37947.11
535.03	38075.84
535.20	38038.39
535.37	37881.57
535.54	38625.86
535.71	38150.73
535.88	37907.32
536.05	38618.84
536.22	38183.50
536.38	38478.41
536.55	38139.03
536.72	38462.02
536.89	38080.52
537.06	38733.53
537.23	38682.03
537.40	38391.81
537.57	38230.31
537.74	38574.37
537.91	38864.60
538.08	38579.05
538.25	38953.54
538.42	38684.37
538.59	39117.37
538.75	39035.45
538.92	39246.10
539.09	39007.37
539.26	39012.05
539.43	39049.50
539.60	39363.13
539.77	39517.60
539.94	39321.00
540.11	39215.68
540.28	39255.46
540.44	39435.69
540.61	39332.70
540.78	39154.82
540.95	39622.93
541.12	39683.78
541.29	39309.30
541.46	39929.54
541.62	39988.05
541.79	39791.45
541.96	39531.65
542.13	39625.27
542.30	39643.99
542.47	39856.98
542.63	40161.25
542.80	40163.59
542.97	40788.52
543.14	40615.32
543.31	40240.83
543.48	40376.58
543.64	41132.57
543.81	40884.48
543.98	41050.66
544.15	40371.90
544.32	41008.53
544.48	40856.39
544.65	40818.94
544.82	40697.24
544.99	40453.82
545.16	40816.60
545.32	40928.95
545.49	40875.12
545.66	41696.64
545.83	41170.02
546.00	41312.80
546.16	41364.29
546.33	40912.56
546.50	41141.94
546.67	41518.76
546.83	40919.59
547.00	41134.92
547.17	41464.93
547.34	41324.50
547.50	41507.06
547.67	42085.17
547.84	41207.47
548.00	41729.41
548.17	41876.86
548.34	41497.70
548.51	41890.91
548.67	41909.63
548.84	41710.69
549.01	41848.78
549.18	41399.40
549.34	42167.09
549.51	42391.78
549.68	42000.91
549.84	41741.11
550.01	42178.79
550.18	41666.22
550.34	42139.00
550.51	42078.15
550.68	42174.11
550.84	42258.37
551.01	42443.27
551.18	41727.07
551.34	42541.58
551.51	42115.60
551.68	42183.48
551.84	42443.27
552.01	42124.96
552.18	42356.67
552.34	42223.26
552.51	42504.13
552.68	42328.59
552.84	42520.51
553.01	42927.77
553.18	42614.13
553.34	43056.50
553.51	42614.13
553.67	42557.96
553.84	42997.98
554.01	42934.79
554.17	42707.76
554.34	42988.62
554.51	43234.38
554.67	43213.31
554.84	43269.48
555.00	43175.86
555.17	43241.40
555.33	43311.61
555.50	43105.65
555.67	43330.34
555.83	43548.01
556.00	43199.27
556.16	43643.97
556.33	43604.18
556.50	43833.55
556.66	43536.30
556.83	43290.55
556.99	44128.46
557.16	43566.73
557.32	43959.94
557.49	43639.29
557.65	43203.95
557.82	43491.83
557.98	43697.80
558.15	43615.88
558.32	43803.13
558.48	43622.90
558.65	43906.11
558.81	43742.27
558.98	43540.99
559.14	43782.06
559.31	43983.35
559.47	43779.72
559.64	43992.71
559.80	43948.24
559.97	43672.06
560.13	43973.98
560.30	44081.65
560.46	44236.12
560.63	43966.96
560.79	44224.42
560.96	44137.82
561.12	43920.15
561.29	44505.29
561.45	43908.45
561.61	44294.64
561.78	43807.81
561.94	44701.89
562.11	44444.43
562.27	44030.16
562.44	44458.48
562.60	44491.24
562.77	44172.93
562.93	44093.35
563.10	44893.82
563.26	44425.71
563.42	44514.65
563.59	44903.18
563.75	43824.19
563.92	44643.38
564.08	44364.85
564.24	44641.04
564.41	44444.43
564.57	44484.22
564.74	44296.98
564.90	44807.22
565.07	44762.75
565.23	44741.68
565.39	44486.56
565.56	44605.93
565.72	44680.83
565.88	44959.35
566.05	44910.20
566.21	44435.07
566.38	44779.13
566.54	45090.42
566.70	44830.62
566.87	44678.49
567.03	44662.10
567.19	44797.85
567.36	45120.85
567.52	45017.86
567.68	45097.44
567.85	44968.71
568.01	45214.47
568.17	45067.02
568.34	45235.53
568.50	44949.99
568.66	44652.74
568.83	44994.46
568.99	44715.93
569.15	45132.55
569.32	45165.32
569.48	45132.55
569.64	45242.56
569.81	44912.54
569.97	45537.46
570.13	45783.22
570.30	45027.23
570.46	45425.12
570.62	45120.85
570.78	44992.12
570.95	45277.66
571.11	45427.46
571.27	45228.51
571.43	45478.95
571.60	45364.26
571.76	45059.99
571.92	45247.24
572.09	45301.07
572.25	45003.82
572.41	44968.71
572.57	45837.05
572.74	45881.52
572.90	45471.93
573.06	45907.27
573.22	45565.55
573.38	45738.75
573.55	45605.34
573.71	45783.22
573.87	45474.27
574.03	45696.62
574.20	45755.13
574.36	45694.28
574.52	45661.51
574.68	45574.91
574.84	45741.09
575.01	45933.01
575.17	45785.56
575.33	45537.46
575.49	45375.97
575.65	45464.91
575.82	45265.96
575.98	45308.09
576.14	45790.24
576.30	45415.76
576.46	45485.97
576.62	45380.65
576.79	45610.02
576.95	45214.47
577.11	45432.14
577.27	45771.52
577.43	45614.70
577.59	45471.93
577.75	45324.47
577.92	45329.16
578.08	45261.28
578.24	45666.19
578.40	45514.06
578.56	45404.05
578.72	45764.49
578.88	46007.91
579.04	45745.77
579.21	45289.37
579.37	45890.88
579.53	45649.81
579.69	45382.99
579.85	45525.76
580.01	45635.77
580.17	45780.88
580.33	45846.41
580.49	45715.34
580.65	45261.28
580.82	45448.52
580.98	45617.04
581.14	45673.21
581.30	45729.39
581.46	45270.64
581.62	45787.90
581.78	45359.58
581.94	45628.74
582.10	45717.68
582.26	45755.13
582.42	45474.27
582.58	45947.06
582.74	45776.20
582.90	45626.40
583.06	45556.19
583.22	45818.33
583.38	46000.89
583.54	45916.63
583.70	46036.00
583.86	45509.38
584.02	45851.09
584.18	46466.66
584.34	45860.46
584.50	46169.41
584.66	46038.34
584.82	46176.43
584.98	46387.08
585.14	46003.23
585.30	46134.30
585.46	45820.67
585.62	46220.90
585.78	46117.92
585.94	45394.69
586.10	45778.54
586.26	45687.26
586.42	45502.35
586.58	46146.00
586.74	45698.96
586.90	45684.92
587.06	45851.09
587.22	46239.62
587.38	46263.03
587.54	46082.81
587.70	46459.63
587.86	46216.22
588.02	46026.63
588.18	46174.09
588.34	45818.33
588.49	46665.60
588.65	45925.99
588.81	45546.82
588.97	45743.43
589.13	45949.40
589.29	45888.54
589.45	46003.23
589.61	46153.02
589.77	45867.48
589.93	45743.43
590.08	46323.88
