SpectraSuite Data File
++++++++++++++++++++++++++++++++++++
Date: Fri Oct 25 11:25:17 EDT 2013
User: price-jones
Dark Spectrum Present: No
Reference Spectrum Present: No
Number of Sampled Component Spectra: 1
Spectrometers: USB2+H05261
Integration Time (usec): 100000 (USB2+H05261)
Spectra Averaged: 1 (USB2+H05261)
Boxcar Smoothing: 0 (USB2+H05261)
Correct for Electrical Dark: No (USB2+H05261)
Strobe/Lamp Enabled: No (USB2+H05261)
Correct for Detector Non-linearity: No (USB2+H05261)
Correct for Stray Light: No (USB2+H05261)
Number of Pixels in Processed Spectrum: 2048
>>>>>Begin Processed Spectral Data<<<<<
365.73	243.42
365.92	243.42
366.12	243.42
366.32	187.24
366.52	107.66
366.72	138.09
366.91	133.41
367.11	170.86
367.31	105.32
367.51	105.32
367.70	154.48
367.90	177.88
368.10	163.84
368.30	175.54
368.49	93.62
368.69	182.56
368.89	159.16
369.09	149.79
369.28	257.46
369.48	168.52
369.68	159.16
369.87	220.01
370.07	191.92
370.27	215.33
370.47	339.38
370.66	564.07
370.86	606.20
371.06	613.22
371.25	683.44
371.45	655.35
371.65	702.16
371.84	634.29
372.04	784.08
372.24	723.23
372.44	685.78
372.63	758.33
372.83	739.61
373.03	718.54
373.22	704.50
373.42	793.44
373.62	676.41
373.81	746.63
374.01	877.70
374.21	866.00
374.40	814.51
374.60	851.96
374.79	805.14
374.99	763.01
375.19	826.21
375.38	816.85
375.58	755.99
375.78	826.21
375.97	791.10
376.17	903.45
376.37	861.32
376.56	887.06
376.76	889.40
376.95	870.68
377.15	873.02
377.35	840.25
377.54	870.68
377.74	884.72
377.93	954.94
378.13	873.02
378.33	1025.15
378.52	943.24
378.72	926.85
378.91	952.60
379.11	945.58
379.31	940.90
379.50	938.55
379.70	940.90
379.89	992.39
380.09	1032.18
380.28	940.90
380.48	990.05
380.68	842.59
380.87	985.37
381.07	999.41
381.26	1064.94
381.46	1050.90
381.65	997.07
381.85	1041.54
382.04	1074.31
382.24	1093.03
382.43	1034.52
382.63	1135.16
382.83	1078.99
383.02	1165.59
383.22	1102.39
383.41	1015.79
383.61	1128.14
383.80	1097.71
384.00	1055.58
384.19	1090.69
384.39	1093.03
384.58	1046.22
384.78	1086.01
384.97	1184.31
385.17	1123.46
385.36	1203.04
385.56	1235.80
385.75	1160.91
385.95	1203.04
386.14	1254.53
386.34	1252.19
386.53	1118.78
386.72	1210.06
386.92	1329.42
387.11	1273.25
387.31	1249.85
387.50	1224.10
387.70	1336.45
387.89	1210.06
388.09	1231.12
388.28	1214.74
388.48	1242.82
388.67	1320.06
388.86	1362.19
389.06	1287.29
389.25	1296.66
389.45	1359.85
389.64	1345.81
389.84	1327.08
390.03	1306.02
390.22	1420.71
390.42	1397.30
390.61	1432.41
390.81	1397.30
391.00	1399.64
391.19	1472.20
391.39	1488.58
391.58	1413.68
391.78	1380.92
391.97	1432.41
392.16	1509.65
392.36	1535.39
392.55	1479.22
392.75	1549.43
392.94	1486.24
393.13	1535.39
393.33	1423.05
393.52	1596.25
393.71	1575.18
393.91	1591.56
394.10	1514.33
394.29	1544.75
394.49	1689.87
394.68	1638.38
394.88	1530.71
395.07	1664.12
395.26	1657.10
395.46	1593.90
395.65	1666.46
395.84	1593.90
396.04	1748.38
396.23	1666.46
396.42	1762.42
396.62	1783.49
396.81	1781.15
397.00	1743.70
397.19	1739.02
397.39	1774.13
397.58	1778.81
397.77	1872.43
397.97	1783.49
398.16	1886.47
398.35	1713.27
398.55	1757.74
398.74	1914.56
398.93	1933.28
399.12	1942.64
399.32	1881.79
399.51	1961.37
399.70	1968.39
399.90	1970.73
400.09	1982.43
400.28	1989.46
400.47	1980.09
400.67	2087.76
400.86	2129.89
401.05	2104.14
401.24	2045.63
401.44	2118.18
401.63	2181.38
401.82	2024.56
402.01	2069.03
402.21	2190.74
402.40	2172.02
402.59	2129.89
402.78	2136.91
402.97	2277.34
403.17	2209.47
403.36	2331.17
403.55	2310.11
403.74	2345.22
403.93	2506.71
404.13	2490.33
404.32	2396.71
404.51	2359.26
404.70	2443.52
404.89	2382.67
405.09	2471.61
405.28	2410.75
405.47	2490.33
405.66	2410.75
405.85	2527.78
406.05	2420.11
406.24	2523.10
406.43	2471.61
406.62	2614.38
406.81	2600.34
407.00	2588.63
407.20	2684.59
407.39	2647.15
407.58	2647.15
407.77	2768.85
407.96	2820.35
408.15	2630.76
408.34	2724.38
408.54	2747.79
408.73	2794.60
408.92	2818.00
409.11	2808.64
409.30	2841.41
409.49	2883.54
409.68	2867.16
409.87	2906.95
410.07	2911.63
410.26	2998.23
410.45	2911.63
410.64	2956.10
410.83	3016.95
411.02	3042.70
411.21	3164.40
411.40	3255.69
411.59	3236.96
411.78	3035.67
411.98	3199.51
412.17	3283.77
412.36	3309.52
412.55	3358.67
412.74	3344.63
412.93	3410.16
413.12	3316.54
413.31	3520.17
413.50	3602.08
413.69	3510.80
413.88	3581.02
414.07	3431.23
414.26	3723.79
414.45	3541.23
414.64	3595.06
414.83	3669.96
415.02	3810.39
415.22	3822.09
415.41	3857.20
415.60	3850.18
415.79	3829.12
415.98	3969.55
416.17	3904.01
416.36	3878.27
416.55	3971.89
416.74	3988.27
416.93	4028.06
417.12	4079.55
417.31	4065.51
417.50	4112.32
417.69	4124.02
417.88	4168.49
418.07	4217.65
418.26	4351.06
418.45	4358.08
418.64	4493.83
418.83	4430.63
419.02	4294.88
419.21	4400.21
419.39	4379.14
419.58	4535.96
419.77	4472.76
419.96	4620.22
420.15	4592.13
420.34	4657.67
420.53	4589.79
420.72	4748.95
420.91	4683.41
421.10	4449.36
421.29	4917.47
421.48	4662.35
421.67	4814.48
421.86	4620.22
422.05	4746.61
422.24	4858.95
422.43	4842.57
422.61	4856.61
422.80	4985.34
422.99	4929.17
423.18	4826.18
423.37	4971.30
423.56	4999.38
423.75	4947.89
423.94	4793.42
424.13	4667.03
424.32	4844.91
424.50	4959.60
424.69	4997.04
424.88	4943.21
425.07	5057.90
425.26	4837.89
425.45	4987.68
425.64	4877.68
425.83	4954.91
426.01	5036.83
426.20	4987.68
426.39	5111.73
426.58	5060.24
426.77	5027.47
426.96	5121.09
427.15	5135.14
427.33	5184.29
427.52	5195.99
427.71	5228.76
427.90	5277.91
428.09	5338.76
428.28	5303.65
428.46	5320.04
428.65	5352.81
428.84	5441.75
429.03	5568.13
429.22	5315.36
429.40	5451.11
429.59	5451.11
429.78	5270.89
429.97	5203.01
430.16	5401.96
430.34	5575.16
430.53	5673.46
430.72	5640.69
430.91	5526.00
431.10	5673.46
431.28	5659.42
431.47	5734.31
431.66	5841.98
431.85	5799.85
432.03	5771.76
432.22	5895.81
432.41	5806.87
432.60	6001.13
432.79	6019.86
432.97	5930.92
433.16	6059.65
433.35	5949.64
433.54	6026.88
433.72	6188.38
433.91	6256.25
434.10	6141.57
434.28	6092.41
434.47	6195.40
434.66	6064.33
434.85	6239.87
435.03	6218.80
435.22	6272.64
435.41	6590.95
435.59	6534.78
435.78	6303.06
435.97	6436.47
436.16	6284.34
436.34	6401.37
436.53	6572.22
436.72	6473.92
436.90	6392.00
437.09	6602.65
437.28	6298.38
437.46	6497.33
437.65	6555.84
437.84	6677.55
438.02	6686.91
438.21	6822.66
438.40	6679.89
438.58	6977.14
438.77	7171.40
438.96	6729.04
439.14	7122.25
439.33	7066.08
439.52	7070.76
439.70	7295.45
439.89	7166.72
440.08	7279.07
440.26	7272.04
440.45	7260.34
440.63	7440.56
440.82	7494.40
441.01	7428.86
441.19	7609.08
441.38	7531.84
441.57	7452.27
441.75	7562.27
441.94	7906.33
442.12	7908.67
442.31	7864.20
442.50	8046.76
442.68	7903.99
442.87	7992.93
443.05	8013.99
443.24	8074.85
443.43	8056.12
443.61	8168.47
443.80	8266.77
443.98	8006.97
444.17	7765.90
444.35	8112.30
444.54	8456.36
444.73	8102.93
444.91	8325.29
445.10	8346.35
445.28	8306.56
445.47	8114.64
445.65	8163.79
445.84	8393.16
446.02	8498.49
446.21	8449.33
446.39	8397.84
446.58	8271.45
446.77	8409.54
446.95	8266.77
447.14	8397.84
447.32	8535.93
447.51	8400.18
447.69	8517.21
447.88	8255.07
448.06	8489.12
448.25	8535.93
448.43	8566.36
448.62	8704.45
448.80	8465.72
448.99	8636.58
449.17	8856.59
449.36	8842.54
449.54	8795.73
449.73	8816.80
449.91	9142.13
450.10	8926.80
450.28	8938.51
450.46	8879.99
450.65	8940.85
450.83	8964.25
451.02	8891.70
451.20	9226.39
451.39	9174.90
451.57	9118.73
451.76	8828.50
451.94	9020.42
452.13	9212.35
452.31	9235.75
452.49	8938.51
452.68	9259.16
452.86	9504.92
453.05	9643.01
453.23	9383.21
453.42	9404.27
453.60	9376.19
453.78	9415.98
453.97	9315.33
454.15	9301.29
454.34	9408.95
454.52	9652.37
454.70	9771.74
454.89	9760.03
455.07	9640.67
455.26	9846.63
455.44	9870.04
455.62	9872.38
455.81	9797.48
455.99	9879.40
456.17	10134.52
456.36	9905.15
456.54	10015.15
456.73	10230.48
456.91	10298.36
457.09	10413.04
457.28	10445.81
457.46	10284.31
457.64	10590.92
457.83	10389.64
458.01	10431.77
458.19	10796.89
458.38	10567.52
458.56	10693.91
458.74	10562.84
458.93	10576.88
459.11	10546.45
459.29	10958.39
459.48	10714.97
459.66	10733.70
459.84	10633.05
460.03	11026.26
460.21	11042.65
460.39	10949.03
460.57	10904.56
460.76	11047.33
460.94	11073.07
461.12	11208.83
461.31	11044.99
461.49	11218.19
461.67	11052.01
461.85	11234.57
462.04	11335.21
462.22	11667.57
462.40	11463.94
462.59	11527.14
462.77	11524.80
462.95	11426.50
463.13	11470.97
463.32	11630.12
463.50	11433.52
463.68	11534.16
463.86	11920.35
464.05	11693.32
464.23	11714.38
464.41	11922.69
464.59	11662.89
464.78	11948.43
464.96	11681.61
465.14	11838.43
465.32	11978.86
465.50	11971.84
465.69	12238.66
465.87	11810.34
466.05	12025.67
466.23	12044.40
466.41	12105.25
466.60	12177.81
466.78	12276.11
466.96	12168.45
467.14	12416.54
467.32	12159.08
467.51	12624.85
467.69	12449.31
467.87	12327.60
468.05	12725.49
468.23	12304.20
468.41	12390.80
468.60	12278.45
468.78	12559.31
468.96	12343.99
469.14	12695.07
469.32	12868.27
469.50	12556.97
469.69	12802.73
469.87	12788.69
470.05	12971.25
470.23	13207.64
470.41	13011.04
470.59	13032.10
470.77	13067.21
470.95	13104.66
471.14	13565.74
471.32	12968.91
471.50	13486.17
471.68	13156.15
471.86	13451.06
472.04	13692.13
472.22	13865.33
472.40	13582.13
472.58	13666.39
472.77	14024.49
472.95	13989.38
473.13	14499.62
473.31	13715.54
473.49	14148.54
473.67	14094.71
473.85	14518.34
474.03	14511.32
474.21	14525.36
474.39	14450.47
474.57	14480.89
474.75	14684.52
474.93	14679.84
475.12	14801.55
475.30	14850.70
475.48	14927.94
475.66	14981.77
475.84	14993.47
476.02	15276.68
476.20	15187.74
476.38	15384.34
476.56	15960.11
476.74	15620.74
476.92	15726.06
477.10	15882.88
477.28	16250.34
477.46	15971.82
477.64	16093.52
477.82	16418.86
478.00	16781.64
478.18	16608.44
478.36	16746.53
478.54	17142.08
478.72	17013.35
478.90	17095.27
479.08	17572.74
479.26	17575.08
479.44	17678.07
479.62	17654.66
479.80	18113.41
479.98	17926.16
480.16	18438.74
480.34	17867.65
480.52	18441.08
480.70	18625.98
480.88	18274.90
481.06	18532.36
481.24	18705.56
481.41	18951.32
481.59	19220.48
481.77	19178.35
481.95	19365.59
482.13	19609.01
482.31	19508.37
482.49	20156.69
482.67	19899.23
482.85	20283.08
483.03	20217.55
483.21	20608.42
483.39	20819.07
483.57	20786.30
483.74	20879.92
483.92	21212.28
484.10	20926.73
484.28	21553.99
484.46	21844.22
484.64	22356.80
484.82	21879.33
485.00	22319.35
485.18	22661.07
485.35	23075.34
485.53	22560.42
485.71	22904.48
485.89	23262.58
486.07	22984.06
486.25	23178.33
486.43	23468.55
486.61	23332.80
486.78	24250.29
486.96	24224.54
487.14	24208.16
487.32	24596.69
487.50	24542.86
487.68	24753.51
487.85	24767.55
488.03	25441.62
488.21	25469.71
488.39	25565.67
488.57	25741.21
488.75	25928.45
488.92	26293.58
489.10	26618.91
489.28	26515.93
489.46	27159.58
489.64	26871.69
489.81	27498.95
489.99	27232.13
490.17	27550.45
490.35	27782.16
490.53	27903.87
490.70	28514.75
490.88	28025.57
491.06	28849.44
491.24	28624.75
491.41	28828.38
491.59	28898.59
491.77	29090.52
491.95	29783.32
492.13	29352.66
492.30	29567.99
492.48	29907.37
492.66	29944.81
492.84	30260.79
493.01	30719.53
493.19	30672.72
493.37	30604.84
493.54	30785.07
493.72	31431.05
493.90	31098.70
494.08	31651.06
494.25	31543.40
494.43	31672.13
494.61	32074.70
494.79	32491.32
494.96	32257.26
495.14	32446.85
495.32	32863.46
495.49	33144.33
495.67	33024.96
495.85	33591.37
496.02	33563.28
496.20	33809.04
496.38	33858.19
496.55	33750.52
496.73	34307.57
496.91	34373.11
497.09	34431.62
497.26	34780.36
497.44	34771.00
497.62	34862.28
497.79	35924.88
497.97	35239.11
498.14	35665.08
498.32	35817.22
498.50	35920.20
498.67	36800.24
498.85	36135.53
499.03	36673.85
499.20	36219.79
499.38	36669.17
499.56	36624.70
499.73	36533.42
499.91	36917.27
500.08	37324.52
500.26	36884.50
500.44	37720.07
500.61	37603.05
500.79	37581.98
500.97	37912.00
501.14	38328.61
501.32	37914.34
501.49	38239.67
501.67	38106.26
501.84	38789.70
502.02	38567.35
502.20	38464.36
502.37	38693.74
502.55	38845.87
502.72	39248.44
502.90	39543.35
503.07	39227.38
503.25	39372.49
503.43	39552.71
503.60	40084.01
503.78	40275.94
503.95	40275.94
504.13	40381.26
504.30	40285.30
504.48	39927.20
504.65	40725.32
504.83	40627.02
505.01	41034.27
505.18	40959.38
505.36	41188.75
505.53	40856.39
505.71	41221.52
505.88	41818.35
506.06	41361.95
506.23	41593.66
506.41	41371.31
506.58	41656.85
506.76	41619.41
506.93	42347.31
507.11	42029.00
507.28	42298.16
507.46	42609.45
507.63	42227.95
507.81	42871.59
507.98	42752.23
508.16	42887.98
508.33	43126.71
508.50	42941.81
508.68	43292.89
508.85	43700.14
509.03	43643.97
509.20	43608.86
509.38	44189.31
509.55	44280.60
509.73	44168.25
509.90	44154.21
510.08	44343.79
510.25	44369.54
510.42	44334.43
510.60	44685.51
510.77	45076.38
510.95	45490.65
511.12	44889.13
511.30	45116.17
511.47	45319.79
511.64	45769.18
511.82	45961.10
511.99	45371.28
512.17	45212.13
512.34	45492.99
512.51	46115.58
512.69	46148.34
512.86	46330.90
513.04	46429.21
513.21	46335.59
513.38	46366.01
513.56	46672.62
513.73	46763.90
513.90	47107.96
514.08	46806.03
514.25	47342.02
514.43	47159.45
514.60	47547.98
514.77	47262.44
514.95	47463.72
515.12	47007.32
515.29	47232.01
515.47	47353.72
515.64	47749.27
515.81	47531.60
515.99	48186.95
516.16	47870.98
516.33	47908.43
516.51	48308.66
516.68	47824.17
516.85	48474.84
517.03	48423.34
517.20	48580.16
517.37	48648.03
517.54	48467.81
517.72	48336.74
517.89	48722.93
518.06	48404.62
518.24	48779.10
518.41	48879.75
518.58	49233.17
518.75	49287.00
518.93	49483.61
519.10	48872.73
519.27	49216.78
519.45	49294.02
519.62	49965.76
519.79	49766.81
519.96	49855.75
520.14	49947.03
520.31	50167.04
520.48	50295.77
520.65	50089.80
520.83	50452.59
521.00	50192.79
521.17	50452.59
521.34	50628.13
521.52	50731.11
521.69	50508.76
521.86	50717.07
522.03	50698.34
522.20	50749.84
522.38	51297.52
522.55	51386.46
522.72	50967.51
522.89	50862.18
523.07	51547.96
523.24	51213.26
523.41	51587.75
523.58	51166.45
523.75	51557.32
523.92	51648.60
524.10	51906.06
524.27	51779.67
524.44	51810.10
524.61	52116.71
524.78	52051.17
524.96	51828.82
525.13	52224.37
525.30	52142.45
525.47	52296.93
525.64	52339.06
525.81	52406.94
525.98	52189.27
526.16	52189.27
526.33	52617.58
526.50	52767.38
526.67	52423.32
526.84	52711.20
527.01	52636.31
527.18	52629.29
527.36	52767.38
527.53	52655.03
527.70	53076.33
527.87	53029.52
528.04	52870.36
528.21	53165.27
528.38	53036.54
528.55	53258.89
528.72	53233.14
528.89	53294.00
529.07	53043.56
529.24	53092.71
529.41	53727.00
529.58	53584.22
529.75	53609.97
529.92	53549.12
530.09	53642.74
530.26	53736.36
530.43	53986.80
530.60	53745.72
530.77	53837.00
530.94	53829.98
531.11	53755.08
531.28	54122.55
531.46	54129.57
531.63	54059.35
531.80	54103.82
531.97	54122.55
532.14	54054.67
532.31	54204.47
532.48	54471.29
532.65	54394.05
532.82	54157.66
532.99	54394.05
533.16	54443.20
533.33	54548.53
533.50	54780.24
533.67	54314.47
533.84	54415.11
534.01	54827.05
534.18	54871.52
534.35	54993.23
534.52	54897.27
534.69	55082.17
534.86	55042.38
535.03	54923.01
535.20	55084.51
535.37	55161.75
535.54	55348.99
535.71	55262.39
535.88	55393.46
536.05	55187.49
536.22	55468.36
536.38	55590.06
536.55	55508.14
536.72	55384.10
536.89	55449.63
537.06	55533.89
537.23	55709.43
537.40	55377.08
537.57	55470.70
537.74	55620.49
537.91	55922.42
538.08	55826.46
538.25	55531.55
538.42	55889.65
538.59	56020.72
538.75	55625.17
538.92	56165.84
539.09	56030.08
539.26	56074.55
539.43	56104.98
539.60	55891.99
539.77	56175.20
539.94	56362.44
540.11	56332.01
540.28	56097.96
540.44	56376.48
540.61	56025.40
540.78	56367.12
540.95	56268.82
541.12	56039.45
541.29	56133.07
541.46	56250.09
541.62	56294.56
541.79	56334.35
541.96	56285.20
542.13	56292.22
542.30	56392.87
542.47	56624.58
542.63	56507.55
542.80	56680.75
542.97	56938.21
543.14	57200.35
543.31	57167.58
543.48	57066.94
543.64	57137.16
543.81	57158.22
543.98	57226.10
544.15	57104.39
544.32	57354.83
544.48	57436.75
544.65	57373.55
544.82	57322.06
544.99	57165.24
545.16	57216.74
545.32	57308.02
545.49	57319.72
545.66	57717.61
545.83	57258.87
546.00	57619.31
546.16	57446.11
546.33	57188.65
546.50	57509.30
546.67	57708.25
546.83	57190.99
547.00	57450.79
547.17	57464.83
547.34	57591.22
547.50	57813.57
547.67	58038.26
547.84	58047.63
548.00	57923.58
548.17	58066.35
548.34	58188.06
548.51	58007.84
548.67	57968.05
548.84	57921.24
549.01	57946.98
549.18	57874.43
549.34	57996.13
549.51	58202.10
549.68	58174.02
549.84	58138.91
550.01	58209.12
550.18	58246.57
550.34	58403.39
550.51	58377.64
550.68	58377.64
550.84	57991.45
551.01	58408.07
551.18	58349.56
551.34	58492.33
551.51	58438.50
551.68	58281.68
551.84	58358.92
552.01	58307.43
552.18	58328.49
552.34	58309.77
552.51	58567.23
552.68	58307.43
552.84	58557.86
553.01	58777.87
553.18	58562.54
553.34	58679.57
553.51	58691.27
553.67	58674.89
553.84	58972.14
554.01	58862.13
554.17	58922.99
554.34	59025.97
554.51	58869.15
554.67	58754.47
554.84	58808.30
555.00	58773.19
555.17	58815.32
555.33	58707.66
555.50	58527.44
555.67	58859.79
555.83	58890.22
556.00	59004.91
556.16	59194.49
556.33	59152.36
556.50	59220.23
556.66	59238.96
556.83	58979.16
556.99	59428.54
557.16	59152.36
557.32	59224.92
557.49	59278.75
557.65	58939.37
557.82	59152.36
557.98	59306.83
558.15	59344.28
558.32	59423.86
558.48	59180.45
558.65	59077.46
558.81	59405.14
558.98	59370.03
559.14	59423.86
559.31	59325.56
559.47	59636.85
559.64	59367.69
559.80	59512.80
559.97	59777.28
560.13	59561.95
560.30	59370.03
560.46	59576.00
560.63	59615.79
560.79	59664.94
560.96	59688.34
561.12	59770.26
561.29	59707.07
561.45	59870.90
561.61	59739.83
561.78	59810.05
561.94	59547.91
562.11	59770.26
562.27	59908.35
562.44	59749.20
562.60	59859.20
562.77	59676.64
562.93	59845.16
563.10	59697.70
563.26	59711.75
563.42	60170.49
563.59	59796.01
563.75	59831.11
563.92	59903.67
564.08	59791.33
564.24	60102.62
564.41	59852.18
564.57	59973.89
564.74	59957.50
564.90	59934.10
565.07	59957.50
565.23	59746.86
565.39	60051.12
565.56	60037.08
565.72	60067.51
565.88	59971.55
566.05	60023.04
566.21	60016.02
566.38	60081.55
566.54	60088.57
566.70	60371.78
566.87	60348.37
567.03	60095.60
567.19	60287.52
567.36	60142.41
567.52	60177.51
567.68	60317.95
567.85	60247.73
568.01	60310.92
568.17	60193.90
568.34	60381.14
568.50	60317.95
568.66	60154.11
568.83	60456.04
568.99	60327.31
569.15	60198.58
569.32	60266.45
569.48	60116.66
569.64	60350.71
569.81	60196.24
569.97	60336.67
570.13	60324.97
570.30	60165.81
570.46	60240.71
570.62	60378.80
570.78	60404.55
570.95	60310.92
571.11	60306.24
571.27	60130.70
571.43	60334.33
571.60	60409.23
571.76	60430.29
571.92	60404.55
572.09	60259.43
572.25	60554.34
572.41	60336.67
572.57	60467.74
572.74	60790.73
572.90	60526.25
573.06	60413.91
573.22	60479.44
573.38	60601.15
573.55	60519.23
573.71	60713.50
573.87	60570.72
574.03	60570.72
574.20	60591.79
574.36	60456.04
574.52	60465.40
574.68	60577.75
574.84	60669.03
575.01	60453.70
575.17	60250.07
575.33	60498.17
575.49	60554.34
575.65	60537.96
575.82	60629.24
575.98	60589.45
576.14	60739.24
576.30	60846.91
576.46	60589.45
576.62	60720.52
576.79	60535.62
576.95	60580.09
577.11	60533.28
577.27	60640.94
577.43	60559.02
577.59	60685.41
577.75	60552.00
577.92	60666.69
578.08	60552.00
578.24	60573.06
578.40	60633.92
578.56	60797.76
578.72	60807.12
578.88	60772.01
579.04	60987.34
579.21	60636.26
579.37	60893.72
579.53	60757.97
579.69	60753.29
579.85	60584.77
580.01	60451.36
580.17	60671.37
580.33	60622.22
580.49	60867.97
580.65	60849.25
580.82	60802.44
580.98	60636.26
581.14	60764.99
581.30	60816.48
581.46	60814.14
581.62	60860.95
581.78	60767.33
581.94	60832.86
582.10	60652.64
582.26	60694.77
582.42	60535.62
582.58	60804.78
582.74	60757.97
582.90	60851.59
583.06	60769.67
583.22	60622.22
583.38	60629.24
583.54	60893.72
583.70	60666.69
583.86	60931.17
584.02	60622.22
584.18	61010.74
584.34	60874.99
584.50	60952.23
584.66	60795.42
584.82	60559.02
584.98	61085.64
585.14	60886.70
585.30	60750.94
585.46	61027.13
585.62	61141.81
585.78	61076.28
585.94	60622.22
586.10	60781.37
586.26	60849.25
586.42	61010.74
586.58	60821.16
586.74	60790.73
586.90	60741.58
587.06	60788.39
587.22	60921.80
587.38	61102.03
587.54	60996.70
587.70	61097.34
587.86	60783.71
588.02	60851.59
588.18	60907.76
588.34	60996.70
588.49	61017.77
