SpectraSuite Data File
++++++++++++++++++++++++++++++++++++
Date: Fri Oct 25 11:33:54 EDT 2013
User: price-jones
Dark Spectrum Present: No
Reference Spectrum Present: No
Number of Sampled Component Spectra: 1
Spectrometers: USB2+H05261
Integration Time (usec): 100000 (USB2+H05261)
Spectra Averaged: 1 (USB2+H05261)
Boxcar Smoothing: 0 (USB2+H05261)
Correct for Electrical Dark: No (USB2+H05261)
Strobe/Lamp Enabled: No (USB2+H05261)
Correct for Detector Non-linearity: No (USB2+H05261)
Correct for Stray Light: No (USB2+H05261)
Number of Pixels in Processed Spectrum: 2048
>>>>>Begin Processed Spectral Data<<<<<
365.73	292.57
365.92	292.57
366.12	292.57
366.32	119.37
366.52	175.54
366.72	180.22
366.91	163.84
367.11	166.18
367.31	114.69
367.51	161.50
367.70	187.24
367.90	175.54
368.10	133.41
368.30	166.18
368.49	170.86
368.69	236.39
368.89	245.76
369.09	182.56
369.28	210.65
369.48	217.67
369.68	187.24
369.87	231.71
370.07	234.05
370.27	257.46
370.47	264.48
370.66	519.60
370.86	519.60
371.06	552.37
371.25	571.09
371.45	543.00
371.65	603.86
371.84	521.94
372.04	594.50
372.24	622.58
372.44	594.50
372.63	599.18
372.83	587.47
373.03	559.39
373.22	631.94
373.42	547.69
373.62	650.67
373.81	650.67
374.01	608.54
374.21	669.39
374.40	667.05
374.60	704.50
374.79	617.90
374.99	613.22
375.19	650.67
375.38	620.24
375.58	641.31
375.78	615.56
375.97	763.01
376.17	631.94
376.37	662.37
376.56	676.41
376.76	634.29
376.95	711.52
377.15	744.29
377.35	723.23
377.54	641.31
377.74	622.58
377.93	655.35
378.13	699.82
378.33	767.70
378.52	685.78
378.72	755.99
378.91	636.63
379.11	683.44
379.31	702.16
379.50	681.10
379.70	704.50
379.89	777.06
380.09	734.93
380.28	695.14
380.48	713.86
380.68	617.90
380.87	791.10
381.07	699.82
381.26	718.54
381.46	779.40
381.65	695.14
381.85	760.67
382.04	741.95
382.24	849.61
382.43	805.14
382.63	699.82
382.83	767.70
383.02	814.51
383.22	767.70
383.41	777.06
383.61	744.29
383.80	837.91
384.00	851.96
384.19	833.23
384.39	791.10
384.58	826.21
384.78	844.93
384.97	833.23
385.17	828.55
385.36	805.14
385.56	795.78
385.75	833.23
385.95	795.78
386.14	835.57
386.34	875.36
386.53	837.91
386.72	873.02
386.92	940.90
387.11	826.21
387.31	896.43
387.50	842.59
387.70	795.78
387.89	898.77
388.09	889.40
388.28	889.40
388.48	833.23
388.67	985.37
388.86	903.45
389.06	985.37
389.25	945.58
389.45	994.73
389.64	983.02
389.84	903.45
390.03	973.66
390.22	964.30
390.42	924.51
390.61	959.62
390.81	1001.75
391.00	922.17
391.19	1064.94
391.39	952.60
391.58	1001.75
391.78	1048.56
391.97	1062.60
392.16	1053.24
392.36	1011.11
392.55	1102.39
392.75	1027.50
392.94	1036.86
393.13	1060.26
393.33	1064.94
393.52	1050.90
393.71	1057.92
393.91	1062.60
394.10	1013.45
394.29	1123.46
394.49	1090.69
394.68	1071.97
394.88	1146.86
395.07	1128.14
395.26	1198.35
395.46	1188.99
395.65	1193.67
395.84	1226.44
396.04	1275.59
396.23	1221.76
396.42	1245.16
396.62	1170.27
396.81	1165.59
397.00	1277.93
397.19	1125.80
397.39	1270.91
397.58	1193.67
397.77	1256.87
397.97	1270.91
398.16	1238.14
398.35	1315.38
398.55	1327.08
398.74	1301.34
398.93	1320.06
399.12	1355.17
399.32	1268.57
399.51	1331.76
399.70	1369.21
399.90	1409.00
400.09	1448.79
400.28	1420.71
400.47	1291.98
400.67	1509.65
400.86	1324.74
401.05	1399.64
401.24	1423.05
401.44	1439.43
401.63	1514.33
401.82	1486.24
402.01	1437.09
402.21	1469.86
402.40	1481.56
402.59	1409.00
402.78	1437.09
402.97	1425.39
403.17	1434.75
403.36	1603.27
403.55	1528.37
403.74	1577.52
403.93	1516.67
404.13	1535.39
404.32	1589.22
404.51	1617.31
404.70	1612.63
404.89	1629.01
405.09	1706.25
405.28	1638.38
405.47	1619.65
405.66	1668.80
405.85	1692.21
406.05	1799.87
406.24	1774.13
406.43	1643.06
406.62	1771.79
406.81	1804.55
407.00	1748.38
407.20	1818.60
407.39	1755.40
407.58	1809.23
407.77	1839.66
407.96	1886.47
408.15	1839.66
408.34	1902.86
408.54	1846.68
408.73	1860.73
408.92	1930.94
409.11	1865.41
409.30	1966.05
409.49	1921.58
409.68	1959.03
409.87	2101.80
410.07	1970.73
410.26	2078.40
410.45	2076.06
410.64	2169.68
410.83	2120.53
411.02	2045.63
411.21	2193.08
411.40	2148.61
411.59	2193.08
411.78	2127.55
411.98	2188.40
412.17	2244.57
412.36	2317.13
412.55	2223.51
412.74	2263.30
412.93	2352.24
413.12	2333.51
413.31	2511.39
413.50	2401.39
413.69	2413.09
413.88	2392.03
414.07	2513.74
414.26	2448.20
414.45	2438.84
414.64	2455.22
414.83	2609.70
415.02	2567.57
415.22	2684.59
415.41	2691.62
415.60	2759.49
415.79	2708.00
415.98	2757.15
416.17	2738.43
416.36	2710.34
416.55	2825.03
416.74	2846.09
416.93	2738.43
417.12	2729.06
417.31	2806.30
417.50	2729.06
417.69	3042.70
417.88	2843.75
418.07	2981.84
418.26	2946.73
418.45	2970.14
418.64	3009.93
418.83	3063.76
419.02	2965.46
419.21	3117.59
419.39	3208.87
419.58	3150.36
419.77	3110.57
419.96	3152.70
420.15	3115.25
420.34	3098.87
420.53	3164.40
420.72	3332.92
420.91	3169.09
421.10	3150.36
421.29	3335.26
421.48	3251.00
421.67	3201.85
421.86	3119.93
422.05	3382.07
422.24	3208.87
422.43	3304.84
422.61	3368.03
422.80	3361.01
422.99	3358.67
423.18	3389.10
423.37	3534.21
423.56	3421.86
423.75	3297.81
423.94	3279.09
424.13	3136.32
424.32	3321.22
424.50	3262.71
424.69	3396.12
424.88	3445.27
425.07	3377.39
425.26	3323.56
425.45	3438.25
425.64	3405.48
425.83	3435.91
426.01	3389.10
426.20	3534.21
426.39	3602.08
426.58	3522.51
426.77	3517.83
426.96	3508.46
427.15	3555.27
427.33	3555.27
427.52	3571.66
427.71	3625.49
427.90	3574.00
428.09	3566.98
428.28	3639.53
428.46	3669.96
428.65	3651.24
428.84	3700.39
429.03	3826.78
429.22	3693.37
429.40	3758.90
429.59	3829.12
429.78	3602.08
429.97	3566.98
430.16	3889.97
430.34	3875.93
430.53	3875.93
430.72	3850.18
430.91	3822.09
431.10	3805.71
431.28	4049.13
431.47	3929.76
431.66	3971.89
431.85	3899.33
432.03	4004.66
432.22	4131.05
432.41	3901.67
432.60	4046.79
432.79	4051.47
432.97	4145.09
433.16	4102.96
433.35	3990.61
433.54	4212.96
433.72	4175.52
433.91	4203.60
434.10	4168.49
434.28	4166.15
434.47	4273.82
434.66	4362.76
434.85	4245.73
435.03	4187.22
435.22	4280.84
435.41	4456.38
435.59	4259.78
435.78	4348.72
435.97	4381.48
436.16	4390.84
436.34	4339.35
436.53	4400.21
436.72	4566.39
436.90	4423.61
437.09	4519.57
437.28	4348.72
437.46	4540.64
437.65	4587.45
437.84	4587.45
438.02	4561.70
438.21	4564.04
438.40	4559.36
438.58	4830.87
438.77	4795.76
438.96	4671.71
439.14	4648.30
439.33	4975.98
439.52	4922.15
439.70	4938.53
439.89	4912.78
440.08	4933.85
440.26	4973.64
440.45	5036.83
440.63	5167.90
440.82	5207.69
441.01	5137.48
441.19	5245.14
441.38	5247.48
441.57	5093.01
441.75	5256.84
441.94	5231.10
442.12	5507.28
442.31	5455.79
442.50	5455.79
442.68	5490.90
442.87	5425.36
443.05	5434.72
443.24	5495.58
443.43	5458.13
443.61	5453.45
443.80	5668.78
443.98	5434.72
444.17	5242.80
444.35	5535.37
444.54	5610.26
444.73	5460.47
444.91	5530.69
445.10	5666.44
445.28	5636.01
445.47	5666.44
445.65	5528.35
445.84	5579.84
446.02	5856.02
446.21	5694.52
446.39	5736.65
446.58	5720.27
446.77	5750.70
446.95	5593.88
447.14	5666.44
447.32	5806.87
447.51	5724.95
447.69	5657.07
447.88	5734.31
448.06	5694.52
448.25	5872.40
448.43	5685.16
448.62	5713.25
448.80	5748.36
448.99	5877.09
449.17	5933.26
449.36	5666.44
449.54	5959.00
449.73	5959.00
449.91	6059.65
450.10	6026.88
450.28	6052.63
450.46	6167.31
450.65	6118.16
450.83	6104.12
451.02	6167.31
451.20	6113.48
451.39	6015.18
451.57	6153.27
451.76	6050.28
451.94	6120.50
452.13	6230.51
452.31	6157.95
452.49	6298.38
452.68	6291.36
452.86	6333.49
453.05	6384.98
453.23	6274.98
453.42	6216.46
453.60	6356.90
453.78	6424.77
453.97	6326.47
454.15	6312.42
454.34	6387.32
454.52	6373.28
454.70	6539.46
454.89	6445.84
455.07	6366.26
455.26	6558.18
455.44	6654.14
455.62	6696.27
455.81	6707.98
455.99	6829.68
456.17	6752.45
456.36	6640.10
456.54	6703.29
456.73	7016.93
456.91	7033.31
457.09	6916.28
457.28	7176.08
457.46	6991.18
457.64	6988.84
457.83	7056.72
458.01	6778.19
458.19	7054.37
458.38	6984.16
458.56	7155.02
458.74	7183.10
458.93	7122.25
459.11	7239.28
459.29	7187.79
459.48	7201.83
459.66	7236.94
459.84	7276.73
460.03	7454.61
460.21	7382.05
460.39	7295.45
460.57	7330.56
460.76	7513.12
460.94	7290.77
461.12	7555.25
461.31	7548.23
461.49	7339.92
461.67	7470.99
461.85	7578.65
462.04	7510.78
462.22	7934.42
462.40	7733.13
462.59	7595.04
462.77	7620.78
462.95	7796.32
463.13	7784.62
463.32	7705.04
463.50	7864.20
463.68	7859.52
463.86	7866.54
464.05	7754.19
464.23	7733.13
464.41	7962.50
464.59	7726.11
464.78	8070.17
464.96	7838.45
465.14	7885.26
465.32	8032.72
465.50	8044.42
465.69	8116.98
465.87	8182.51
466.05	8077.19
466.23	8116.98
466.41	8273.79
466.60	8259.75
466.78	8135.70
466.96	8128.68
467.14	8198.90
467.32	8074.85
467.51	8510.19
467.69	8074.85
467.87	8283.16
468.05	8568.70
468.23	8386.14
468.41	8388.48
468.60	8498.49
468.78	8542.96
468.96	8372.10
469.14	8568.70
469.32	8545.30
469.50	8386.14
469.69	8772.33
469.87	8837.86
470.05	8676.37
470.23	8596.79
470.41	8631.90
470.59	8695.09
470.77	8674.03
470.95	8849.57
471.14	8800.41
471.32	8762.97
471.50	8854.25
471.68	9057.87
471.86	9109.36
472.04	9090.64
472.22	9142.13
472.40	9006.38
472.58	9212.35
472.77	9352.78
472.95	9221.71
473.13	9664.07
473.31	9317.67
473.49	9373.85
473.67	9528.32
473.85	9420.66
474.03	9715.56
474.21	9603.22
474.39	9633.64
474.57	9738.97
474.75	9961.32
474.93	9912.17
475.12	9825.57
475.30	9942.60
475.48	10193.03
475.66	9877.06
475.84	10073.67
476.02	10132.18
476.20	10183.67
476.38	10300.70
476.56	10602.63
476.74	10523.05
476.92	10576.88
477.10	10399.00
477.28	10626.03
477.46	10417.72
477.64	10932.64
477.82	10824.98
478.00	11201.80
478.18	11026.26
478.36	11183.08
478.54	11304.79
478.72	11246.27
478.90	11243.93
479.08	11501.39
479.26	11534.16
479.44	11496.71
479.62	11829.07
479.80	11910.99
479.98	12074.82
480.16	12020.99
480.34	12030.35
480.52	12170.79
480.70	12271.43
480.88	11915.67
481.06	12465.69
481.24	12081.85
481.41	12484.42
481.59	12521.87
481.77	12678.68
481.95	12720.81
482.13	13095.30
482.31	13109.34
482.49	13076.57
482.67	13149.13
482.85	13261.48
483.03	13439.36
483.21	13451.06
483.39	13561.06
483.57	13432.33
483.74	13944.91
483.92	14279.61
484.10	13935.55
484.28	14366.21
484.46	14181.31
484.64	14485.58
484.82	14118.11
485.00	14558.13
485.18	15154.97
485.35	14995.81
485.53	14993.47
485.71	14991.13
485.89	15075.39
486.07	15115.18
486.25	15276.68
486.43	15470.94
486.61	15611.37
486.78	15880.53
486.96	15770.53
487.14	15761.17
487.32	15997.56
487.50	16306.51
487.68	16519.50
487.85	16283.11
488.03	16657.59
488.21	16641.21
488.39	16861.22
488.57	17116.34
488.75	16762.92
488.92	17371.46
489.10	17544.66
489.28	17710.83
489.46	17724.88
489.64	17453.37
489.81	17984.68
489.99	17600.83
490.17	18157.88
490.35	18572.15
490.53	18761.73
490.70	18438.74
490.88	18787.48
491.06	18640.03
491.24	18492.57
491.41	19117.50
491.59	19082.39
491.77	19016.85
491.95	19377.30
492.13	19676.88
492.30	19332.82
492.48	19620.71
492.66	19999.88
492.84	19667.52
493.01	19948.39
493.19	19983.49
493.37	20301.81
493.54	20161.37
493.72	20280.74
493.90	20456.28
494.08	20837.79
494.25	20870.56
494.43	21329.30
494.61	21097.59
494.79	21006.31
494.96	20783.96
495.14	21369.09
495.32	21483.78
495.49	21661.66
495.67	21572.72
495.85	21930.82
496.02	21986.99
496.20	22019.76
496.38	22309.99
496.55	22492.55
496.73	22773.41
496.91	22504.25
497.09	22785.12
497.26	22707.88
497.44	22857.67
497.62	22965.34
497.79	23431.10
497.97	23157.26
498.14	23365.57
498.32	23328.12
498.50	23461.53
498.67	23552.81
498.85	23901.55
499.03	24215.18
499.20	24056.03
499.38	24130.92
499.56	24212.84
499.73	24257.31
499.91	24439.87
500.08	24444.56
500.26	24402.43
500.44	24266.67
500.61	24959.47
500.79	24702.01
500.97	24931.39
501.14	25142.03
501.32	25170.12
501.49	25373.75
501.67	25163.10
501.84	25392.47
502.02	25324.60
502.20	25523.54
502.37	25919.09
502.55	25378.43
502.72	25792.70
502.90	25542.27
503.07	25425.24
503.25	26101.65
503.43	25783.34
503.60	26099.31
503.78	26628.27
503.95	26040.80
504.13	26380.18
504.30	26286.56
504.48	26609.55
504.65	26527.63
504.83	27065.96
505.01	27150.21
505.18	27037.87
505.36	27087.02
505.53	27143.19
505.71	27454.48
505.88	27431.08
506.06	26857.65
506.23	27466.19
506.41	27335.12
506.58	27395.97
506.76	27768.12
506.93	27974.08
507.11	27833.65
507.28	27843.01
507.46	28051.32
507.63	27835.99
507.81	28175.37
507.98	28163.67
508.16	28084.09
508.33	28453.89
508.50	28512.41
508.68	28594.32
508.85	28264.31
509.03	28292.40
509.20	28947.75
509.38	29076.48
509.55	29244.99
509.73	29064.77
509.90	29415.85
510.08	29095.20
510.25	29434.58
510.42	29493.09
510.60	29378.40
510.77	29738.85
510.95	29979.92
511.12	29558.63
511.30	29572.67
511.47	29844.17
511.64	29788.00
511.82	30162.48
511.99	29853.53
512.17	30438.67
512.34	30249.08
512.51	30838.90
512.69	30492.50
512.86	30450.37
513.04	31009.76
513.21	30426.96
513.38	30824.86
513.56	30803.79
513.73	30972.31
513.90	31234.45
514.08	30930.18
514.25	31178.28
514.43	31110.40
514.60	31290.62
514.77	31318.71
514.95	31519.99
515.12	31274.24
515.29	31763.41
515.47	32058.32
515.64	31850.01
515.81	31796.18
515.99	31819.58
516.16	32385.99
516.33	32072.36
516.51	32474.93
516.68	32081.72
516.85	32236.20
517.03	32453.87
517.20	32430.46
517.37	32322.80
517.54	32837.72
517.72	32549.83
517.89	33060.07
518.06	33130.28
518.24	32533.45
518.41	32807.29
518.58	32739.41
518.75	32804.95
518.93	33188.80
519.10	33125.60
519.27	33263.69
519.45	33139.65
519.62	33453.28
519.79	33720.10
519.96	33603.07
520.14	33591.37
520.31	33399.44
520.48	33617.11
520.65	33895.64
520.83	34036.07
521.00	34338.00
521.17	33820.74
521.34	34417.58
521.52	33993.94
521.69	34022.03
521.86	34651.63
522.03	34452.69
522.20	34455.03
522.38	35037.82
522.55	34962.92
522.72	34906.75
522.89	34878.66
523.07	35037.82
523.24	34801.43
523.41	35255.49
523.58	35229.74
523.75	35629.98
523.92	35035.48
524.10	35473.16
524.27	35358.47
524.44	35618.27
524.61	35899.14
524.78	35445.07
524.96	35847.64
525.13	36215.11
525.30	35770.41
525.47	35697.85
525.64	36002.12
525.81	36172.98
525.98	36051.27
526.16	36065.31
526.33	35828.92
526.50	36510.02
526.67	36402.35
526.84	36261.92
527.01	36208.09
527.18	36205.75
527.36	36776.84
527.53	36746.41
527.70	37090.47
527.87	36788.54
528.04	36481.93
528.21	37113.87
528.38	36842.37
528.55	37120.90
528.72	36917.27
528.89	37083.45
529.07	36903.23
529.24	36718.32
529.41	37387.72
529.58	37565.60
529.75	37186.43
529.92	37518.79
530.09	37385.38
530.26	37102.17
530.43	37542.19
530.60	37184.09
530.77	37287.07
530.94	37661.56
531.11	37551.56
531.28	37572.62
531.46	37684.97
531.63	37654.54
531.80	37731.78
531.97	37694.33
532.14	38014.98
532.31	38103.92
532.48	38160.09
532.65	38342.66
532.82	38295.85
532.99	38555.64
533.16	38188.18
533.33	38321.59
533.50	38550.96
533.67	38382.45
533.84	38199.88
534.01	38466.70
534.18	38869.28
534.35	38803.74
534.52	39040.14
534.69	39377.17
534.86	38981.62
535.03	38574.37
535.20	39091.63
535.37	39213.34
535.54	39225.04
535.71	39089.29
535.88	39199.29
536.05	39466.11
536.22	39524.63
536.38	39222.70
536.55	39051.84
536.72	39379.51
536.89	39377.17
537.06	39379.51
537.23	39569.10
537.40	39342.06
537.57	39725.91
537.74	39538.67
537.91	39697.83
538.08	39910.82
538.25	39466.11
538.42	39917.84
538.59	40465.52
538.75	39955.29
538.92	40285.30
539.09	39892.09
539.26	40224.45
539.43	39995.07
539.60	40308.71
539.77	40149.55
539.94	40727.66
540.11	40194.02
540.28	41109.17
540.44	40390.62
540.61	40753.41
540.78	40130.83
540.95	40594.25
541.12	40779.15
541.29	40526.38
541.46	40268.92
541.62	40865.75
541.79	41045.97
541.96	40741.71
542.13	41078.74
542.30	41106.83
542.47	40598.93
542.63	41392.37
542.80	41057.68
542.97	41319.82
543.14	41579.62
543.31	41443.87
543.48	41598.34
543.64	41998.57
543.81	41598.34
543.98	41986.87
544.15	41801.97
544.32	41991.55
544.48	42216.24
544.65	42141.35
544.82	42148.37
544.99	41918.99
545.16	42110.92
545.32	41848.78
545.49	42494.77
545.66	42403.49
545.83	42342.63
546.00	42916.06
546.16	42333.27
546.33	41989.21
546.50	42099.22
546.67	42471.36
546.83	41748.14
547.00	42408.17
547.17	42050.06
547.34	42192.84
547.50	42511.15
547.67	42969.90
547.84	42983.94
548.00	42658.60
548.17	42969.90
548.34	42899.68
548.51	43213.31
548.67	42841.17
548.84	42895.00
549.01	42820.10
549.18	43175.86
549.34	43115.01
549.51	43105.65
549.68	43285.87
549.84	43267.14
550.01	43346.72
550.18	42864.57
550.34	42962.87
550.51	43370.13
550.68	43845.26
550.84	43033.09
551.01	43578.43
551.18	43379.49
551.34	43136.07
551.51	43255.44
551.68	43409.92
551.84	43372.47
552.01	43349.06
552.18	43969.30
552.34	43367.79
552.51	43330.34
552.68	43510.56
552.84	43826.53
553.01	43983.35
553.18	43615.88
553.34	43959.94
553.51	43681.42
553.67	43833.55
553.84	44191.65
554.01	44357.83
554.17	44289.96
554.34	44119.10
554.51	44383.58
554.67	44451.45
554.84	44493.58
555.00	44048.88
555.17	43779.72
555.33	44245.49
555.50	44610.61
555.67	44318.04
555.83	44095.69
556.00	44594.23
556.16	45249.58
556.33	44687.85
556.50	44811.90
556.66	44722.96
556.83	44360.17
556.99	44907.86
557.16	44985.10
557.32	45022.54
557.49	44659.76
557.65	44472.52
557.82	45172.34
557.98	44753.38
558.15	44727.64
558.32	44973.39
558.48	44751.04
558.65	44711.25
558.81	44788.49
558.98	44994.46
559.14	44828.28
559.31	45043.61
559.47	44619.97
559.64	44989.78
559.80	44816.58
559.97	45340.86
560.13	44985.10
560.30	44879.77
560.46	45752.79
560.63	45059.99
560.79	45357.24
560.96	45663.85
561.12	45572.57
561.29	45181.70
561.45	45160.64
561.61	45116.17
561.78	45731.73
561.94	45207.45
562.11	45254.26
562.27	45736.41
562.44	45507.04
562.60	45516.40
562.77	45661.51
562.93	45134.89
563.10	45317.45
563.26	45717.68
563.42	46127.28
563.59	45645.13
563.75	45642.79
563.92	45577.25
564.08	45858.12
564.24	45867.48
564.41	45825.35
564.57	45808.96
564.74	45811.31
564.90	45668.53
565.07	45373.63
565.23	45881.52
565.39	46099.19
565.56	45617.04
565.72	45724.71
565.88	45958.76
566.05	45790.24
566.21	46305.16
566.38	45846.41
566.54	45624.06
566.70	45890.88
566.87	46073.45
567.03	46136.64
567.19	45771.52
567.36	46164.73
567.52	46534.53
567.68	46181.11
567.85	45801.94
568.01	46335.59
568.17	46050.04
568.34	46555.60
568.50	46593.04
568.66	46012.59
568.83	45827.69
568.99	46103.87
569.15	46232.60
569.32	46087.49
569.48	46302.82
569.64	46445.59
569.81	46501.76
569.97	46555.60
570.13	46422.19
570.30	45846.41
570.46	46557.94
570.62	46576.66
570.78	46637.51
570.95	46354.31
571.11	46375.37
571.27	46576.66
571.43	46230.26
571.60	46471.34
571.76	46003.23
571.92	46286.43
572.09	46143.66
572.25	46483.04
572.41	46010.25
572.57	46263.03
572.74	46791.99
572.90	46227.92
573.06	46490.06
573.22	46569.64
573.38	46997.96
573.55	46543.89
573.71	46759.22
573.87	47171.16
574.03	45956.42
574.20	46979.23
574.36	46976.89
574.52	46239.62
574.68	46911.36
574.84	46869.23
575.01	46700.71
575.17	46681.98
575.33	46532.19
575.49	46272.39
575.65	46859.87
575.82	46843.48
575.98	46817.74
576.14	46925.40
576.30	46803.69
576.46	46817.74
576.62	46344.95
576.79	46766.24
576.95	46103.87
577.11	46731.14
577.27	46485.38
577.43	46555.60
577.59	46866.89
577.75	46658.58
577.92	46204.52
578.08	46780.29
578.24	46754.54
578.40	46974.55
578.56	46546.23
578.72	47089.24
578.88	46731.14
579.04	46916.04
579.21	46590.70
579.37	46707.73
579.53	47077.54
579.69	47154.77
579.85	46714.75
580.01	47222.65
580.17	46604.75
580.33	47227.33
580.49	46607.09
580.65	46689.01
580.82	46721.77
580.98	46494.74
581.14	46763.90
581.30	46890.29
581.46	46667.94
581.62	47047.11
581.78	46389.42
581.94	46967.53
582.10	47124.35
582.26	47021.36
582.42	47150.09
582.58	47054.13
582.74	47309.25
582.90	47082.22
583.06	47320.95
583.22	47019.02
583.38	47049.45
583.54	46930.08
583.70	46960.51
583.86	47086.90
584.02	47086.90
584.18	47089.24
584.34	46969.87
584.50	47110.30
584.66	46887.95
584.82	46630.49
584.98	47365.42
585.14	47342.02
585.30	47037.75
585.46	46897.31
585.62	46642.20
585.78	46887.95
585.94	46579.00
586.10	47147.75
586.26	47014.34
586.42	46815.40
586.58	47056.47
586.74	47278.82
586.90	46958.17
587.06	47208.61
587.22	47192.22
587.38	46803.69
587.54	47140.73
587.70	47489.47
587.86	47194.56
588.02	47049.45
588.18	47096.26
588.34	47143.07
588.49	47140.73
588.65	47079.88
588.81	47152.43
588.97	47096.26
589.13	47070.51
589.29	46815.40
589.45	47512.88
589.61	47138.39
589.77	47571.39
589.93	47489.47
590.08	47489.47
