SpectraSuite Data File
++++++++++++++++++++++++++++++++++++
Date: Fri Oct 25 11:23:59 EDT 2013
User: price-jones
Dark Spectrum Present: No
Reference Spectrum Present: No
Number of Sampled Component Spectra: 1
Spectrometers: USB2+H05261
Integration Time (usec): 100000 (USB2+H05261)
Spectra Averaged: 1 (USB2+H05261)
Boxcar Smoothing: 0 (USB2+H05261)
Correct for Electrical Dark: No (USB2+H05261)
Strobe/Lamp Enabled: No (USB2+H05261)
Correct for Detector Non-linearity: No (USB2+H05261)
Correct for Stray Light: No (USB2+H05261)
Number of Pixels in Processed Spectrum: 2048
>>>>>Begin Processed Spectral Data<<<<<
365.73	191.92
365.92	191.92
366.12	191.92
366.32	124.05
366.52	112.35
366.72	163.84
366.91	58.51
367.11	121.71
367.31	138.09
367.51	168.52
367.70	114.69
367.90	107.66
368.10	74.90
368.30	154.48
368.49	95.96
368.69	177.88
368.89	161.50
369.09	196.60
369.28	142.77
369.48	142.77
369.68	138.09
369.87	217.67
370.07	220.01
370.27	234.05
370.47	358.10
370.66	641.31
370.86	641.31
371.06	657.69
371.25	669.39
371.45	653.01
371.65	727.91
371.84	786.42
372.04	681.10
372.24	706.84
372.44	688.12
372.63	753.65
372.83	758.33
373.03	702.16
373.22	732.59
373.42	770.04
373.62	798.12
373.81	753.65
374.01	823.87
374.21	814.51
374.40	802.80
374.60	805.14
374.79	795.78
374.99	819.19
375.19	851.96
375.38	826.21
375.58	830.89
375.78	891.74
375.97	870.68
376.17	887.06
376.37	915.15
376.56	915.15
376.76	812.17
376.95	807.48
377.15	908.13
377.35	896.43
377.54	887.06
377.74	901.11
377.93	884.72
378.13	868.34
378.33	940.90
378.52	887.06
378.72	973.66
378.91	931.53
379.11	880.04
379.31	933.87
379.50	887.06
379.70	1057.92
379.89	999.41
380.09	917.49
380.28	985.37
380.48	987.71
380.68	889.40
380.87	1006.43
381.07	978.34
381.26	976.00
381.46	976.00
381.65	1011.11
381.85	1053.24
382.04	1055.58
382.24	1109.41
382.43	1078.99
382.63	1069.62
382.83	1064.94
383.02	1125.80
383.22	1095.37
383.41	1015.79
383.61	1174.95
383.80	1174.95
384.00	1088.35
384.19	1146.86
384.39	1104.73
384.58	1132.82
384.78	1165.59
384.97	1289.64
385.17	1181.97
385.36	1156.22
385.56	1231.12
385.75	1146.86
385.95	1188.99
386.14	1156.22
386.34	1137.50
386.53	1235.80
386.72	1188.99
386.92	1266.23
387.11	1284.95
387.31	1172.61
387.50	1287.29
387.70	1296.66
387.89	1350.49
388.09	1306.02
388.28	1247.51
388.48	1240.48
388.67	1406.66
388.86	1224.10
389.06	1352.83
389.25	1366.87
389.45	1369.21
389.64	1373.89
389.84	1411.34
390.03	1474.54
390.22	1371.55
390.42	1362.19
390.61	1364.53
390.81	1404.32
391.00	1420.71
391.19	1467.52
391.39	1509.65
391.58	1469.86
391.78	1504.96
391.97	1568.16
392.16	1413.68
392.36	1547.09
392.55	1554.12
392.75	1551.78
392.94	1591.56
393.13	1533.05
393.33	1540.07
393.52	1645.40
393.71	1605.61
393.91	1666.46
394.10	1577.52
394.29	1568.16
394.49	1554.12
394.68	1764.76
394.88	1774.13
395.07	1671.14
395.26	1619.65
395.46	1664.12
395.65	1727.32
395.84	1696.89
396.04	1760.08
396.23	1790.51
396.42	1837.32
396.62	1799.87
396.81	1785.83
397.00	1778.81
397.19	1881.79
397.39	1776.47
397.58	1818.60
397.77	1825.62
397.97	1863.07
398.16	1905.20
398.35	1823.28
398.55	1816.26
398.74	1853.70
398.93	1942.64
399.12	1956.69
399.32	1907.54
399.51	1867.75
399.70	1954.35
399.90	2012.86
400.09	2066.69
400.28	2141.59
400.47	2176.70
400.67	2083.08
400.86	2141.59
401.05	2033.93
401.24	2008.18
401.44	2127.55
401.63	2162.66
401.82	2195.42
402.01	2090.10
402.21	2099.46
402.40	2153.29
402.59	2186.06
402.78	2237.55
402.97	2317.13
403.17	2296.07
403.36	2321.81
403.55	2312.45
403.74	2359.26
403.93	2363.94
404.13	2347.56
404.32	2403.73
404.51	2319.47
404.70	2366.28
404.89	2399.05
405.09	2415.43
405.28	2392.03
405.47	2483.31
405.66	2480.97
405.85	2656.51
406.05	2562.89
406.24	2558.21
406.43	2471.61
406.62	2602.68
406.81	2658.85
407.00	2520.76
407.20	2560.55
407.39	2722.04
407.58	2778.22
407.77	2736.09
407.96	2839.07
408.15	2724.38
408.34	2597.99
408.54	2766.51
408.73	2724.38
408.92	2810.98
409.11	2991.20
409.30	3077.80
409.49	2841.41
409.68	2890.56
409.87	2906.95
410.07	2925.67
410.26	2965.46
410.45	2951.42
410.64	2988.86
410.83	3131.64
411.02	2965.46
411.21	3166.74
411.40	3232.28
411.59	3248.66
411.78	3279.09
411.98	3183.13
412.17	3197.17
412.36	3171.43
412.55	3300.16
412.74	3419.52
412.93	3456.97
413.12	3222.92
413.31	3510.80
413.50	3466.33
413.69	3555.27
413.88	3534.21
414.07	3602.08
414.26	3681.66
414.45	3613.79
414.64	3655.92
414.83	3777.62
415.02	3758.90
415.22	3866.56
415.41	3836.14
415.60	3904.01
415.79	3882.95
415.98	3861.88
416.17	3950.82
416.36	3983.59
416.55	4023.38
416.74	4035.08
416.93	4063.17
417.12	4084.23
417.31	4205.94
417.50	4166.15
417.69	4191.90
417.88	4327.65
418.07	4383.82
418.26	4395.53
418.45	4407.23
418.64	4507.87
418.83	4383.82
419.02	4332.33
419.21	4489.15
419.39	4550.00
419.58	4482.13
419.77	4498.51
419.96	4662.35
420.15	4791.08
420.34	4758.31
420.53	4741.93
420.72	4737.24
420.91	4833.21
421.10	4765.33
421.29	4779.37
421.48	4788.74
421.67	4896.40
421.86	4861.29
422.05	4802.78
422.24	4779.37
422.43	5057.90
422.61	4856.61
422.80	4959.60
422.99	4992.36
423.18	5116.41
423.37	5076.62
423.56	4978.32
423.75	5022.79
423.94	4873.00
424.13	4657.67
424.32	4889.38
424.50	5067.26
424.69	5008.75
424.88	5071.94
425.07	4868.31
425.26	4891.72
425.45	5004.07
425.64	4966.62
425.83	5118.75
426.01	5123.43
426.20	5060.24
426.39	4947.89
426.58	4973.64
426.77	4959.60
426.96	5128.11
427.15	5198.33
427.33	5198.33
427.52	5256.84
427.71	5336.42
427.90	5130.45
428.09	5240.46
428.28	5394.93
428.46	5394.93
428.65	5282.59
428.84	5535.37
429.03	5430.04
429.22	5404.30
429.40	5511.96
429.59	5596.22
429.78	5352.81
429.97	5334.08
430.16	5664.10
430.34	5568.13
430.53	5710.91
430.72	5748.36
430.91	5563.45
431.10	5537.71
431.28	5750.70
431.47	5788.14
431.66	5900.49
431.85	5724.95
432.03	6064.33
432.22	6087.73
432.41	6038.58
432.60	5956.66
432.79	5991.77
432.97	5926.24
433.16	6026.88
433.35	5935.60
433.54	6019.86
433.72	6242.21
433.91	5951.98
434.10	6286.68
434.28	6188.38
434.47	6258.59
434.66	6251.57
434.85	6406.05
435.03	6167.31
435.22	6296.04
435.41	6354.55
435.59	6305.40
435.78	6462.22
435.97	6359.24
436.16	6537.12
436.34	6539.46
436.53	6438.81
436.72	6642.44
436.90	6431.79
437.09	6602.65
437.28	6452.86
437.46	6686.91
437.65	6698.61
437.84	6825.00
438.02	6801.60
438.21	6644.78
438.40	6761.81
438.58	7239.28
438.77	6991.18
438.96	7042.67
439.14	7335.24
439.33	7208.85
439.52	7145.66
439.70	7119.91
439.89	7459.29
440.08	7389.07
440.26	7468.65
440.45	7459.29
440.63	7700.36
440.82	7588.02
441.01	7461.63
441.19	7590.36
441.38	7852.50
441.57	7812.71
441.75	7812.71
441.94	7957.82
442.12	7976.55
442.31	8037.40
442.50	8320.60
442.68	8091.23
442.87	8093.57
443.05	8369.76
443.24	8231.66
443.43	8290.18
443.61	8131.02
443.80	8549.98
443.98	8035.06
444.17	7922.71
444.35	8348.69
444.54	8301.88
444.73	8528.91
444.91	8226.98
445.10	8533.59
445.28	8451.67
445.47	8205.92
445.65	8315.92
445.84	8376.78
446.02	8554.66
446.21	8454.02
446.39	8404.86
446.58	8732.54
446.77	8587.43
446.95	8257.41
447.14	8657.64
447.32	8561.68
447.51	8802.75
447.69	8360.39
447.88	8589.77
448.06	8638.92
448.25	8568.70
448.43	8730.20
448.62	8554.66
448.80	8554.66
448.99	8758.28
449.17	8601.47
449.36	8777.01
449.54	8992.34
449.73	8915.10
449.91	9092.98
450.10	9018.08
450.28	9139.79
450.46	9015.74
450.65	9160.86
450.83	9231.07
451.02	9057.87
451.20	9261.50
451.39	8966.59
451.57	9128.09
451.76	9404.27
451.94	9289.59
452.13	9378.53
452.31	9273.20
452.49	9324.69
452.68	9575.13
452.86	9287.25
453.05	9315.33
453.23	9579.81
453.42	9514.28
453.60	9385.55
453.78	9612.58
453.97	9605.56
454.15	9600.88
454.34	9635.99
454.52	9795.14
454.70	9619.60
454.89	9982.38
455.07	10022.17
455.26	9888.76
455.44	10064.30
455.62	9811.53
455.81	9898.13
455.99	10024.51
456.17	10209.42
456.36	9877.06
456.54	10214.10
456.73	10237.50
456.91	10244.52
457.09	10518.37
457.28	10516.03
457.46	10544.11
457.64	10707.95
457.83	10504.32
458.01	10558.16
458.19	10801.57
458.38	10396.66
458.56	10846.04
458.74	10677.52
458.93	10504.32
459.11	10963.07
459.29	10803.91
459.48	10916.26
459.66	10752.42
459.84	10946.69
460.03	11117.54
460.21	11023.92
460.39	10939.66
460.57	11009.88
460.76	11157.33
460.94	11372.66
461.12	11171.38
461.31	11281.38
461.49	11239.25
461.67	11290.74
461.85	11555.22
462.04	11337.56
462.22	11571.61
462.40	11545.86
462.59	11580.97
462.77	11566.93
462.95	11700.34
463.13	11873.54
463.32	11712.04
463.50	11712.04
463.68	11857.15
463.86	11768.21
464.05	11646.51
464.23	11658.21
464.41	11894.60
464.59	11840.77
464.78	12372.07
464.96	12173.13
465.14	11836.09
465.32	12030.35
465.50	12379.09
465.69	12294.83
465.87	12189.51
466.05	12393.14
466.23	12315.90
466.41	12294.83
466.60	12549.95
466.78	12226.96
466.96	12187.17
467.14	12486.76
467.32	12510.16
467.51	12638.89
467.69	12114.61
467.87	12734.85
468.05	12681.02
468.23	12730.17
468.41	12599.10
468.60	12585.06
468.78	12755.92
468.96	12592.08
469.14	12950.18
469.32	13025.08
469.50	12575.70
469.69	13125.72
469.87	13062.53
470.05	13107.00
470.23	12966.57
470.41	13184.24
470.59	13420.63
470.77	13092.96
470.95	13434.68
471.14	13483.83
471.32	13373.82
471.50	13760.01
471.68	14005.77
471.86	13832.57
472.04	13954.27
472.22	13919.17
472.40	13818.52
472.58	13757.67
472.77	14148.54
472.95	14391.95
473.13	14881.13
473.31	13982.36
473.49	14480.89
473.67	14279.61
473.85	14469.19
474.03	14817.93
474.21	14633.03
474.39	14829.63
474.57	14888.15
474.75	14848.36
474.93	14850.70
475.12	15061.35
475.30	15028.58
475.48	15138.58
475.66	15321.15
475.84	15407.75
476.02	15503.71
476.20	15660.52
476.38	15784.57
476.56	15896.92
476.74	16159.06
476.92	15920.32
477.10	15798.62
477.28	16240.98
477.46	16252.68
477.64	16533.54
477.82	16730.15
478.00	16774.62
478.18	17135.06
478.36	16973.56
478.54	17235.70
478.72	17095.27
478.90	17490.82
479.08	17486.14
479.26	17565.72
479.44	17713.17
479.62	18171.92
479.80	18104.04
479.98	18277.24
480.16	18637.69
480.34	18232.77
480.52	18668.11
480.70	18794.50
480.88	18677.48
481.06	18782.80
481.24	19000.47
481.41	19122.18
481.59	19536.45
481.77	19616.03
481.95	19646.46
482.13	19917.96
482.31	19749.44
482.49	20489.05
482.67	20348.62
482.85	20383.73
483.03	20301.81
483.21	21081.21
483.39	20924.39
483.57	21046.10
483.74	21135.04
483.92	21584.42
484.10	21436.97
484.28	21783.37
484.46	21827.84
484.64	22480.85
484.82	21940.18
485.00	22438.72
485.18	22693.83
485.35	23257.90
485.53	23166.62
485.71	23021.51
485.89	23660.48
486.07	23632.39
486.25	23405.36
486.43	23529.41
486.61	24109.86
486.78	24074.75
486.96	24542.86
487.14	24952.45
487.32	24528.81
487.50	25113.95
487.68	25369.07
487.85	25245.02
488.03	25675.68
488.21	25972.92
488.39	25867.60
488.57	26347.41
488.75	26155.49
488.92	26361.45
489.10	26665.72
489.28	26918.50
489.46	27585.55
489.64	27491.93
489.81	27812.59
489.99	27920.25
490.17	28098.13
490.35	28189.41
490.53	28308.78
490.70	28753.48
490.88	28446.87
491.06	28929.02
491.24	29132.65
491.41	29198.18
491.59	29539.90
491.77	29460.32
491.95	29809.06
492.13	29656.93
492.30	30462.07
492.48	30190.57
492.66	30782.73
492.84	30637.61
493.01	30960.61
493.19	30927.84
493.37	31585.53
493.54	31538.72
493.72	31723.62
493.90	31590.21
494.08	31814.90
494.25	32093.43
494.43	32100.45
494.61	32610.68
494.79	32685.58
494.96	32776.86
495.14	33172.41
495.32	33240.29
495.49	33558.60
495.67	33827.76
495.85	33591.37
496.02	33792.65
496.20	34167.14
496.38	34352.04
496.55	34251.40
496.73	34955.90
496.91	34796.74
497.09	35161.87
497.26	35281.24
497.44	34918.45
497.62	35653.38
497.79	36165.96
497.97	35772.75
498.14	36306.39
498.32	36156.60
498.50	36060.63
498.67	37148.98
498.85	36697.26
499.03	36669.17
499.20	36996.85
499.38	37443.89
499.56	36837.69
499.73	37376.01
499.91	37525.81
500.08	37542.19
500.26	37853.48
500.44	37879.23
500.61	37755.18
500.79	38057.11
500.97	38316.91
501.14	38679.69
501.32	38962.90
501.49	38443.30
501.67	38822.47
501.84	39363.13
502.02	39012.05
502.20	39267.17
502.37	39838.26
502.55	39063.54
502.72	39524.63
502.90	39835.92
503.07	39564.42
503.25	39985.71
503.43	40163.59
503.60	40102.74
503.78	40119.12
503.95	40107.42
504.13	40669.15
504.30	40797.88
504.48	40903.20
504.65	41034.27
504.83	41141.94
505.01	41315.14
505.18	41406.42
505.36	41525.78
505.53	40987.46
505.71	41488.34
505.88	41942.40
506.06	41467.27
506.23	42143.69
506.41	41895.59
506.58	42300.50
506.76	42572.00
506.93	42930.11
507.11	42604.77
507.28	42670.31
507.46	42836.48
507.63	42649.24
507.81	43374.81
507.98	43229.69
508.16	43639.29
508.33	43796.10
508.50	43761.00
508.68	43950.58
508.85	44289.96
509.03	44105.06
509.20	44023.14
509.38	44271.23
509.55	44603.59
509.73	44542.74
509.90	44718.28
510.08	44605.93
510.25	44889.13
510.42	44662.10
510.60	44994.46
510.77	45265.96
510.95	45476.61
511.12	45542.14
511.30	45261.28
511.47	45890.88
511.64	45408.73
511.82	46124.94
511.99	46120.26
512.17	46045.36
512.34	46059.40
512.51	46876.25
512.69	46309.84
512.86	46417.50
513.04	46958.17
513.21	46962.85
513.38	47012.00
513.56	47269.46
513.73	47292.86
513.90	47253.08
514.08	46876.25
514.25	47419.25
514.43	47618.20
514.60	47494.15
514.77	47599.47
514.95	48076.94
515.12	47899.06
515.29	47578.41
515.47	48278.23
515.64	48568.46
515.81	47976.30
515.99	48835.28
516.16	48889.11
516.33	48732.29
516.51	48758.04
516.68	48421.00
516.85	48914.86
517.03	48959.33
517.20	49291.68
517.37	48830.60
517.54	49010.82
517.72	49209.76
517.89	49083.37
518.06	49130.19
518.24	49542.12
518.41	49048.27
518.58	49469.56
518.75	49722.34
518.93	49748.09
519.10	49382.96
519.27	50279.39
519.45	50080.44
519.62	50204.49
519.79	50033.63
519.96	50234.92
520.14	50347.26
520.31	50227.90
520.48	50590.68
520.65	50433.86
520.83	50892.61
521.00	50864.52
521.17	50555.57
521.34	50934.74
521.52	50958.14
521.69	51077.51
521.86	51089.21
522.03	51349.01
522.20	51714.14
522.38	51562.00
522.55	51711.80
522.72	51885.00
522.89	51615.83
523.07	52205.65
523.24	51777.33
523.41	51882.66
523.58	51587.75
523.75	52186.92
523.92	52130.75
524.10	52034.79
524.27	52219.69
524.44	52350.76
524.61	52369.49
524.78	52472.47
524.96	52549.71
525.13	52472.47
525.30	52648.01
525.47	52760.36
525.64	52519.28
525.81	52807.17
525.98	53010.79
526.16	53020.16
526.33	52746.31
526.50	53069.31
526.67	52839.93
526.84	53352.51
527.01	53249.53
527.18	52994.41
527.36	53291.66
527.53	53315.06
527.70	53659.12
527.87	53609.97
528.04	53373.58
528.21	53586.57
528.38	53490.60
528.55	53794.87
528.72	53413.37
528.89	53822.96
529.07	53497.62
529.24	53256.55
529.41	54049.99
529.58	54066.38
529.75	53972.75
529.92	53939.99
530.09	53853.39
530.26	54195.10
530.43	54003.18
530.60	54068.72
530.77	53930.62
530.94	54157.66
531.11	54447.88
531.28	54382.35
531.46	54468.95
531.63	54670.23
531.80	54424.48
531.97	54412.77
532.14	54705.34
532.31	54784.92
532.48	54663.21
532.65	54885.56
532.82	54735.77
532.99	54880.88
533.16	54962.80
533.33	54976.84
533.50	55393.46
533.67	55044.72
533.84	54873.86
534.01	55049.40
534.18	55175.79
534.35	55561.98
534.52	55150.04
534.69	55344.31
534.86	55444.95
535.03	55391.12
535.20	55330.26
535.37	55653.26
535.54	55657.94
535.71	55571.34
535.88	55611.13
536.05	55590.06
536.22	55660.28
536.38	55819.44
536.55	55950.51
536.72	55524.53
536.89	55831.14
537.06	56027.74
537.23	56203.28
537.40	55906.04
537.57	55966.89
537.74	55889.65
537.91	56212.65
538.08	56149.45
538.25	55894.33
538.42	56147.11
538.59	56409.25
538.75	56032.42
538.92	56020.72
539.09	56257.12
539.26	56449.04
539.43	55950.51
539.60	56191.58
539.77	56151.79
539.94	56570.75
540.11	56505.21
540.28	56449.04
540.44	56722.88
540.61	56659.69
540.78	56561.39
540.95	56809.48
541.12	56467.76
541.29	56596.49
541.46	56846.93
541.62	56835.23
541.79	56594.15
541.96	56521.60
542.13	56835.23
542.30	56655.01
542.47	56975.66
542.63	56928.85
542.80	57069.28
542.97	57153.54
543.14	57261.21
543.31	57366.53
543.48	57322.06
543.64	57509.30
543.81	57593.56
543.98	57598.24
544.15	57511.64
544.32	57680.16
544.48	57715.27
544.65	57469.51
544.82	57621.65
544.99	57359.51
545.16	57698.89
545.32	57612.29
545.49	57799.53
545.66	58143.59
545.83	57975.07
546.00	57869.75
546.16	57743.36
546.33	57609.95
546.50	57588.88
546.67	57879.11
546.83	57701.23
547.00	57801.87
547.17	57949.32
547.34	57701.23
547.50	58005.50
547.67	58085.07
547.84	58328.49
548.00	58272.32
548.17	58382.32
548.34	58204.44
548.51	58183.38
548.67	58286.36
548.84	58387.00
549.01	58234.87
549.18	58106.14
549.34	58389.34
549.51	58389.34
549.68	58471.26
549.84	58592.97
550.01	58569.57
550.18	58520.41
550.34	58384.66
550.51	58719.36
550.68	58569.57
550.84	58293.38
551.01	58618.72
551.18	58915.96
551.34	58592.97
551.51	58702.98
551.68	58681.91
551.84	58787.24
552.01	58934.69
552.18	58969.80
552.34	58415.09
552.51	59150.02
552.68	58702.98
552.84	58951.07
553.01	58965.12
553.18	58979.16
553.34	59075.12
553.51	59110.23
553.67	58941.71
553.84	59093.85
554.01	59112.57
554.17	59196.83
554.34	59185.13
554.51	59161.72
554.67	59234.28
554.84	59180.45
555.00	59058.74
555.17	59002.56
555.33	59363.01
555.50	59236.62
555.67	59377.05
555.83	59065.76
556.00	59302.15
556.16	59402.80
556.33	59363.01
556.50	59634.51
556.66	59554.93
556.83	59128.95
556.99	59627.49
557.16	59580.68
557.32	59578.34
557.49	59800.69
557.65	59494.08
557.82	59494.08
557.98	59618.13
558.15	59585.36
558.32	59700.04
558.48	59477.69
558.65	59508.12
558.81	59786.64
558.98	59620.47
559.14	59800.69
559.31	59985.59
559.47	59767.92
559.64	59959.84
559.80	59821.75
559.97	59969.21
560.13	59784.30
560.30	59788.98
560.46	59875.58
560.63	59887.29
560.79	59774.94
560.96	60193.90
561.12	60161.13
561.29	59952.82
561.45	59952.82
561.61	59898.99
561.78	60142.41
561.94	59978.57
562.11	60034.74
562.27	59994.95
562.44	60231.35
562.60	60397.52
562.77	60182.19
562.93	59812.39
563.10	60278.16
563.26	60039.42
563.42	60313.26
563.59	60177.51
563.75	60224.32
563.92	60313.26
564.08	60142.41
564.24	60509.87
564.41	60121.34
564.57	60411.57
564.74	60575.40
564.90	60177.51
565.07	60236.03
565.23	60233.69
565.39	60126.02
565.56	60376.46
565.72	60231.35
565.88	60296.88
566.05	60245.39
566.21	60528.59
566.38	60481.78
566.54	60474.76
566.70	60299.22
566.87	60610.51
567.03	60343.69
567.19	60474.76
567.36	60589.45
567.52	60519.23
567.68	60619.88
567.85	60561.36
568.01	60570.72
568.17	60481.78
568.34	60715.84
568.50	60432.63
568.66	60399.86
568.83	60460.72
568.99	60647.96
569.15	60378.80
569.32	60530.93
569.48	60631.58
569.64	60762.65
569.81	60636.26
569.97	60666.69
570.13	60748.60
570.30	60509.87
570.46	60636.26
570.62	60652.64
570.78	60547.32
570.95	60528.59
571.11	60692.43
571.27	60523.91
571.43	60802.44
571.60	60800.10
571.76	60582.43
571.92	60795.42
572.09	60865.63
572.25	60591.79
572.41	60530.93
572.57	60783.71
572.74	60793.07
572.90	60732.22
573.06	60708.82
573.22	60809.46
573.38	60865.63
573.55	60764.99
573.71	60933.51
573.87	60809.46
574.03	60786.05
574.20	61006.06
574.36	60849.25
574.52	60931.17
574.68	60889.04
574.84	60945.21
575.01	60914.78
575.17	60874.99
575.33	60779.03
575.49	60867.97
575.65	60811.80
575.82	60966.27
575.98	60980.32
576.14	61200.33
576.30	60910.10
576.46	60804.78
576.62	60935.85
576.79	60772.01
576.95	60963.93
577.11	60994.36
577.27	60945.21
577.43	60832.86
577.59	60711.16
577.75	61010.74
577.92	60917.12
578.08	60931.17
578.24	60736.90
578.40	61104.37
578.56	61015.43
578.72	60926.49
578.88	61155.86
579.04	61123.09
579.21	60992.02
579.37	61123.09
579.53	61202.67
579.69	60811.80
579.85	60786.05
580.01	61036.49
580.17	60924.14
580.33	60980.32
580.49	61181.60
580.65	61076.28
580.82	60926.49
580.98	60720.52
581.14	60746.26
581.30	61312.67
581.46	61158.20
581.62	61151.18
581.78	61034.15
581.94	61244.80
582.10	61036.49
582.26	61071.60
582.42	61017.77
582.58	61179.26
582.74	60996.70
582.90	61275.22
583.06	60853.93
583.22	61069.26
583.38	61087.98
583.54	61188.63
583.70	61118.41
583.86	61200.33
584.02	61176.92
584.18	61109.05
584.34	61020.11
584.50	61071.60
584.66	61038.83
584.82	61071.60
584.98	61380.55
585.14	61069.26
585.30	60992.02
585.46	61181.60
585.62	61223.73
585.78	61432.04
585.94	61087.98
586.10	61029.47
586.26	61207.35
586.42	61144.16
586.58	61244.80
586.74	61188.63
586.90	61036.49
587.06	61282.25
587.22	61151.18
587.38	61258.84
587.54	61326.72
587.70	61446.08
587.86	61329.06
588.02	61284.59
588.18	61396.93
588.34	61066.92
588.49	61345.44
