SpectraSuite Data File
++++++++++++++++++++++++++++++++++++
Date: Fri Oct 25 11:26:16 EDT 2013
User: price-jones
Dark Spectrum Present: No
Reference Spectrum Present: No
Number of Sampled Component Spectra: 1
Spectrometers: USB2+H05261
Integration Time (usec): 100000 (USB2+H05261)
Spectra Averaged: 1 (USB2+H05261)
Boxcar Smoothing: 0 (USB2+H05261)
Correct for Electrical Dark: No (USB2+H05261)
Strobe/Lamp Enabled: No (USB2+H05261)
Correct for Detector Non-linearity: No (USB2+H05261)
Correct for Stray Light: No (USB2+H05261)
Number of Pixels in Processed Spectrum: 2048
>>>>>Begin Processed Spectral Data<<<<<
365.73	264.48
365.92	264.48
366.12	264.48
366.32	138.09
366.52	159.16
366.72	159.16
366.91	98.30
367.11	117.03
367.31	124.05
367.51	117.03
367.70	145.11
367.90	149.79
368.10	215.33
368.30	187.24
368.49	184.90
368.69	147.45
368.89	154.48
369.09	117.03
369.28	175.54
369.48	191.92
369.68	145.11
369.87	184.90
370.07	245.76
370.27	224.69
370.47	393.21
370.66	571.09
370.86	629.60
371.06	695.14
371.25	697.48
371.45	732.59
371.65	727.91
371.84	720.88
372.04	725.57
372.24	669.39
372.44	662.37
372.63	777.06
372.83	784.08
373.03	786.42
373.22	798.12
373.42	777.06
373.62	830.89
373.81	858.98
374.01	821.53
374.21	798.12
374.40	795.78
374.60	889.40
374.79	842.59
374.99	851.96
375.19	844.93
375.38	858.98
375.58	830.89
375.78	844.93
375.97	866.00
376.17	952.60
376.37	866.00
376.56	858.98
376.76	929.19
376.95	847.27
377.15	912.81
377.35	863.66
377.54	894.08
377.74	903.45
377.93	896.43
378.13	931.53
378.33	919.83
378.52	842.59
378.72	985.37
378.91	922.17
379.11	945.58
379.31	929.19
379.50	959.62
379.70	1025.15
379.89	940.90
380.09	933.87
380.28	987.71
380.48	994.73
380.68	940.90
380.87	961.96
381.07	1039.20
381.26	1001.75
381.46	1034.52
381.65	1022.81
381.85	1004.09
382.04	1090.69
382.24	1060.26
382.43	1004.09
382.63	1053.24
382.83	1039.20
383.02	1078.99
383.22	1191.33
383.41	1135.16
383.61	1022.81
383.80	1137.50
384.00	1090.69
384.19	1167.93
384.39	1109.41
384.58	1067.28
384.78	1130.48
384.97	1165.59
385.17	1172.61
385.36	1142.18
385.56	1217.08
385.75	1184.31
385.95	1188.99
386.14	1165.59
386.34	1151.54
386.53	1235.80
386.72	1196.01
386.92	1301.34
387.11	1242.82
387.31	1247.51
387.50	1224.10
387.70	1242.82
387.89	1221.76
388.09	1296.66
388.28	1299.00
388.48	1287.29
388.67	1387.94
388.86	1350.49
389.06	1348.15
389.25	1383.26
389.45	1420.71
389.64	1282.61
389.84	1397.30
390.03	1416.02
390.22	1336.45
390.42	1430.07
390.61	1425.39
390.81	1420.71
391.00	1401.98
391.19	1453.47
391.39	1366.87
391.58	1547.09
391.78	1458.15
391.97	1507.30
392.16	1458.15
392.36	1504.96
392.55	1526.03
392.75	1549.43
392.94	1526.03
393.13	1598.59
393.33	1392.62
393.52	1582.20
393.71	1556.46
393.91	1577.52
394.10	1687.53
394.29	1577.52
394.49	1570.50
394.68	1598.59
394.88	1689.87
395.07	1706.25
395.26	1713.27
395.46	1675.82
395.65	1696.89
395.84	1729.66
396.04	1727.32
396.23	1776.47
396.42	1788.17
396.62	1820.94
396.81	1783.49
397.00	1762.42
397.19	1760.08
397.39	1849.02
397.58	1858.39
397.77	1806.89
397.97	1771.79
398.16	1823.28
398.35	1867.75
398.55	1792.85
398.74	1935.62
398.93	1930.94
399.12	1891.15
399.32	1865.41
399.51	1937.96
399.70	2008.18
399.90	1975.41
400.09	1989.46
400.28	1987.11
400.47	2043.29
400.67	2029.24
400.86	2094.78
401.05	2120.53
401.24	2043.29
401.44	2120.53
401.63	2078.40
401.82	2132.23
402.01	2181.38
402.21	2139.25
402.40	2097.12
402.59	2153.29
402.78	2284.36
402.97	2209.47
403.17	2263.30
403.36	2209.47
403.55	2246.91
403.74	2265.64
403.93	2361.60
404.13	2441.18
404.32	2312.45
404.51	2361.60
404.70	2417.77
404.89	2319.47
405.09	2473.95
405.28	2354.58
405.47	2476.29
405.66	2487.99
405.85	2565.23
406.05	2422.45
406.24	2527.78
406.43	2495.01
406.62	2635.44
406.81	2675.23
407.00	2616.72
407.20	2586.29
407.39	2633.10
407.58	2705.66
407.77	2689.28
407.96	2764.17
408.15	2775.88
408.34	2635.44
408.54	2825.03
408.73	2743.11
408.92	2855.45
409.11	2892.90
409.30	2888.22
409.49	2836.73
409.68	2935.03
409.87	2871.84
410.07	2972.48
410.26	2970.14
410.45	3080.14
410.64	3019.29
410.83	3038.02
411.02	2972.48
411.21	3169.09
411.40	3159.72
411.59	3192.49
411.78	3145.68
411.98	3122.27
412.17	3279.09
412.36	3281.43
412.55	3311.86
412.74	3534.21
412.93	3351.65
413.12	3342.28
413.31	3473.36
413.50	3433.57
413.69	3461.65
413.88	3590.38
414.07	3566.98
414.26	3693.37
414.45	3674.64
414.64	3609.11
414.83	3658.26
415.02	3688.68
415.22	3653.58
415.41	3836.14
415.60	3896.99
415.79	3908.69
415.98	3911.04
416.17	3948.48
416.36	3908.69
416.55	3906.35
416.74	4163.81
416.93	4105.30
417.12	4112.32
417.31	4159.13
417.50	4032.74
417.69	4189.56
417.88	4315.95
418.07	4236.37
418.26	4301.90
418.45	4287.86
418.64	4404.89
418.83	4362.76
419.02	4229.35
419.21	4451.70
419.39	4348.72
419.58	4587.45
419.77	4423.61
419.96	4517.23
420.15	4575.75
420.34	4510.21
420.53	4594.47
420.72	4830.87
420.91	4676.39
421.10	4636.60
421.29	4819.16
421.48	4643.62
421.67	4744.27
421.86	4812.14
422.05	4730.22
422.24	4788.74
422.43	4791.08
422.61	4877.68
422.80	4889.38
422.99	4868.31
423.18	5020.45
423.37	4840.23
423.56	4961.94
423.75	4978.32
423.94	4748.95
424.13	4617.88
424.32	4739.58
424.50	4851.93
424.69	5193.65
424.88	5083.64
425.07	4833.21
425.26	4980.66
425.45	4990.02
425.64	4957.25
425.83	4851.93
426.01	5001.72
426.20	5107.05
426.39	4863.63
426.58	5039.17
426.77	5067.26
426.96	5074.28
427.15	5177.26
427.33	5163.22
427.52	5055.56
427.71	5254.50
427.90	5219.39
428.09	5184.29
428.28	5261.52
428.46	5341.10
428.65	5298.97
428.84	5603.24
429.03	5488.56
429.22	5277.91
429.40	5338.76
429.59	5291.95
429.78	5097.69
429.97	5203.01
430.16	5488.56
430.34	5563.45
430.53	5675.80
430.72	5748.36
430.91	5612.60
431.10	5682.82
431.28	5694.52
431.47	5647.71
431.66	5764.74
431.85	5600.90
432.03	5954.32
432.22	5860.70
432.41	5944.96
432.60	5846.66
432.79	5909.85
432.97	6104.12
433.16	6120.50
433.35	6085.39
433.54	6022.20
433.72	6059.65
433.91	6153.27
434.10	6115.82
434.28	6155.61
434.47	6242.21
434.66	6162.63
434.85	6387.32
435.03	6274.98
435.22	6209.44
435.41	6485.62
435.59	6389.66
435.78	6382.64
435.97	6333.49
436.16	6389.66
436.34	6415.41
436.53	6392.00
436.72	6672.87
436.90	6361.58
437.09	6506.69
437.28	6562.86
437.46	6576.91
437.65	6656.48
437.84	6729.04
438.02	6661.16
438.21	6689.25
438.40	6768.83
438.58	6942.03
438.77	6906.92
438.96	7056.72
439.14	6918.62
439.33	7077.78
439.52	7267.36
439.70	7110.55
439.89	7138.63
440.08	7241.62
440.26	7260.34
440.45	7307.15
440.63	7424.18
440.82	7831.43
441.01	7449.93
441.19	7564.61
441.38	7662.91
441.57	7604.40
441.75	7705.04
441.94	7896.97
442.12	8077.19
442.31	8025.70
442.50	8018.68
442.68	7812.71
442.87	7908.67
443.05	8098.25
443.24	8086.55
443.43	8131.02
443.61	8226.98
443.80	8376.78
443.98	7887.61
444.17	7845.48
444.35	8248.05
444.54	8187.19
444.73	8269.11
444.91	8248.05
445.10	8379.12
445.28	8390.82
445.47	8222.30
445.65	8358.05
445.84	8339.33
446.02	8313.58
446.21	8351.03
446.39	8241.03
446.58	8425.93
446.77	8451.67
446.95	8173.15
447.14	8404.86
447.32	8566.36
447.51	8510.19
447.69	8327.63
447.88	8461.04
448.06	8561.68
448.25	8449.33
448.43	8486.78
448.62	8482.10
448.80	8575.72
448.99	8538.27
449.17	8648.28
449.36	8706.79
449.54	8844.88
449.73	8812.12
449.91	8847.22
450.10	8872.97
450.28	9200.65
450.46	8980.64
450.65	8950.21
450.83	8990.00
451.02	8975.95
451.20	9081.28
451.39	9296.61
451.57	9097.66
451.76	9142.13
451.94	8917.44
452.13	9242.78
452.31	9327.03
452.49	9144.47
452.68	9502.58
452.86	9493.21
453.05	9453.42
453.23	9488.53
453.42	9217.03
453.60	9191.28
453.78	9640.67
453.97	9415.98
454.15	9497.89
454.34	9315.33
454.52	9659.39
454.70	9472.15
454.89	9701.52
455.07	9722.59
455.26	9727.27
455.44	9785.78
455.62	9933.23
455.81	10010.47
455.99	10094.73
456.17	10092.39
456.36	10026.86
456.54	10076.01
456.73	10148.56
456.91	10450.49
457.09	10286.65
457.28	10560.50
457.46	10296.02
457.64	10312.40
457.83	10340.49
458.01	10328.78
458.19	10782.85
458.38	10565.18
458.56	10824.98
458.74	10633.05
458.93	10452.83
459.11	10654.12
459.29	10733.70
459.48	10771.15
459.66	10696.25
459.84	10750.08
460.03	11119.89
460.21	11007.54
460.39	10993.50
460.57	10911.58
460.76	11066.05
460.94	11021.58
461.12	11084.78
461.31	11138.61
461.49	11049.67
461.67	11037.97
461.85	11433.52
462.04	11185.42
462.22	11775.24
462.40	11611.40
462.59	11403.09
462.77	11255.64
462.95	11674.59
463.13	11836.09
463.32	11309.47
463.50	11456.92
463.68	11777.58
463.86	11819.71
464.05	11587.99
464.23	11637.14
464.41	11800.98
464.59	11346.92
464.78	11955.46
464.96	11953.12
465.14	11791.62
465.32	11939.07
465.50	11995.25
465.69	12173.13
465.87	11852.47
466.05	12067.80
466.23	12116.95
466.41	12105.25
466.60	12351.01
466.78	12105.25
466.96	12042.06
467.14	12278.45
467.32	12404.84
467.51	12320.58
467.69	12212.92
467.87	12432.93
468.05	12404.84
468.23	12360.37
468.41	12182.49
468.60	12671.66
468.78	12624.85
468.96	12554.63
469.14	12580.38
469.32	12886.99
469.50	12472.71
469.69	13088.28
469.87	13090.62
470.05	12987.63
470.23	13050.83
470.41	12968.91
470.59	13287.22
470.77	12973.59
470.95	13092.96
471.14	13558.72
471.32	13142.11
471.50	13593.83
471.68	13628.94
471.86	13612.56
472.04	13722.56
472.22	14129.81
472.40	13572.77
472.58	13806.82
472.77	13657.03
472.95	14120.45
473.13	14312.38
473.31	14181.31
473.49	14010.45
473.67	14181.31
473.85	14167.26
474.03	14544.09
474.21	14691.54
474.39	14576.86
474.57	14391.95
474.75	14494.94
474.93	14698.56
475.12	14738.35
475.30	14963.04
475.48	14991.13
475.66	15283.70
475.84	15009.86
476.02	15323.49
476.20	15307.10
476.38	15405.41
476.56	16161.40
476.74	15957.77
476.92	15728.40
477.10	15997.56
477.28	15854.79
477.46	16322.90
477.64	16194.17
477.82	16191.83
478.00	16643.55
478.18	16975.91
478.36	16851.86
478.54	17013.35
478.72	16884.62
478.90	17376.14
479.08	17369.12
479.26	17675.73
479.44	17640.62
479.62	17790.41
479.80	18082.98
479.98	17799.77
480.16	18312.35
480.34	18192.98
480.52	18518.32
480.70	18597.90
480.88	18209.37
481.06	18689.18
481.24	18787.48
481.41	19012.17
481.59	18899.83
481.77	19323.46
481.95	19536.45
482.13	19646.46
482.31	19564.54
482.49	20037.33
482.67	19974.13
482.85	20372.02
483.03	20341.60
483.21	20664.59
483.39	20842.47
483.57	20432.88
483.74	20912.69
483.92	21369.09
484.10	21118.65
484.28	21469.73
484.46	21881.67
484.64	22326.37
484.82	22015.08
485.00	22094.66
485.18	22522.98
485.35	23152.58
485.53	22939.59
485.71	23161.94
485.89	23311.74
486.07	23201.73
486.25	23012.15
486.43	23557.49
486.61	23578.56
486.78	23737.71
486.96	24065.39
487.14	24723.08
487.32	24313.48
487.50	24858.83
487.68	24924.36
487.85	25043.73
488.03	25303.53
488.21	25465.03
488.39	25687.38
488.57	26066.55
488.75	25991.65
488.92	26558.06
489.10	26583.80
489.28	26342.73
489.46	27117.45
489.64	26806.16
489.81	27461.51
489.99	27552.79
490.17	27707.26
490.35	27903.87
490.53	27850.03
490.70	28264.31
490.88	27931.95
491.06	28577.94
491.24	28739.44
491.41	28762.84
491.59	29312.87
491.77	29102.22
491.95	29495.43
492.13	29628.84
492.30	29715.44
492.48	29773.95
492.66	29827.79
492.84	29975.24
493.01	30237.38
493.19	30492.50
493.37	30632.93
493.54	30658.68
493.72	31049.55
493.90	31271.90
494.08	31285.94
494.25	32184.71
494.43	31765.75
494.61	32484.30
494.79	32297.05
494.96	32650.47
495.14	32680.90
495.32	32989.85
495.49	33029.64
495.67	33317.53
495.85	33289.44
496.02	33511.79
496.20	33970.54
496.38	33558.60
496.55	33977.56
496.73	35140.80
496.91	34284.17
497.09	34618.86
497.26	34710.14
497.44	34398.85
497.62	35103.35
497.79	35571.46
497.97	35470.82
498.14	35433.37
498.32	35840.62
498.50	35990.42
498.67	36196.38
498.85	36100.42
499.03	36383.63
499.20	36133.19
499.38	36797.90
499.56	36875.14
499.73	36673.85
499.91	37038.98
500.08	37415.80
500.26	37202.82
500.44	37251.97
500.61	37556.24
500.79	37776.25
500.97	37935.40
501.14	37996.26
501.32	38742.89
501.49	38279.46
501.67	38373.08
501.84	38838.85
502.02	39012.05
502.20	39019.07
502.37	38998.01
502.55	39232.06
502.72	39578.46
502.90	39405.26
503.07	39133.76
503.25	39346.75
503.43	39475.48
503.60	39786.77
503.78	40109.76
503.95	39908.47
504.13	40100.40
504.30	40713.62
504.48	40037.20
504.65	40554.46
504.83	41167.68
505.01	41041.29
505.18	40928.95
505.36	41551.53
505.53	41027.25
505.71	41235.56
505.88	41338.54
506.06	41223.86
506.23	41844.10
506.41	41425.14
506.58	41893.25
506.76	41956.44
506.93	41998.57
507.11	42108.58
507.28	42478.38
507.46	42494.77
507.63	42843.51
507.81	43189.91
507.98	42724.14
508.16	43028.41
508.33	42988.62
508.50	43304.59
508.68	43533.96
508.85	43775.04
509.03	43894.41
509.20	43929.51
509.38	43718.87
509.55	44105.06
509.73	44133.14
509.90	44128.46
510.08	44561.46
510.25	43952.92
510.42	44526.35
510.60	44725.30
510.77	44809.56
510.95	45500.01
511.12	44891.48
511.30	44713.59
511.47	45478.95
511.64	45502.35
511.82	45516.40
511.99	45471.93
512.17	45628.74
512.34	46059.40
512.51	46087.49
512.69	46347.29
512.86	46206.86
513.04	46291.12
513.21	46384.74
513.38	46979.23
513.56	46464.32
513.73	46775.61
513.90	46735.82
514.08	46618.79
514.25	47512.88
514.43	47323.29
514.60	47042.43
514.77	47356.06
514.95	47976.30
515.12	47166.48
515.29	47161.79
515.47	47945.87
515.64	47519.90
515.81	47847.57
515.99	48128.44
516.16	48215.04
516.33	48074.60
516.51	48797.83
516.68	48381.21
516.85	48236.10
517.03	48563.78
517.20	48697.19
517.37	48633.99
517.54	48456.11
517.72	48442.07
517.89	48870.39
518.06	49001.46
518.24	49139.55
518.41	49020.18
518.58	49471.90
518.75	48835.28
518.93	49930.65
519.10	48994.43
519.27	49188.70
519.45	49448.50
519.62	49563.18
519.79	50010.23
519.96	49682.55
520.14	50099.17
520.31	49914.26
520.48	50305.13
520.65	49900.22
520.83	50384.71
521.00	50410.46
521.17	50337.90
521.34	50693.66
521.52	50829.41
521.69	50564.93
521.86	50602.38
522.03	50740.47
522.20	51166.45
522.38	51367.74
522.55	51065.81
522.72	51140.71
522.89	51246.03
523.07	51636.90
523.24	51480.08
523.41	51475.40
523.58	51224.96
523.75	51187.52
523.92	51580.73
524.10	51648.60
524.27	52210.33
524.44	52317.99
524.61	51948.19
524.78	52144.80
524.96	51894.36
525.13	52498.22
525.30	52313.31
525.47	52442.04
525.64	52357.78
525.81	52051.17
525.98	52526.30
526.16	52662.05
526.33	52486.51
526.50	52914.83
526.67	52596.52
526.84	52781.42
527.01	52849.30
527.18	52823.55
527.36	52870.36
527.53	53041.22
527.70	53162.93
527.87	53146.54
528.04	53048.24
528.21	53310.38
528.38	53394.64
528.55	53223.78
528.72	53125.48
528.89	53380.60
529.07	53249.53
529.24	53261.23
529.41	53385.28
529.58	53516.35
529.75	53502.31
529.92	53682.53
530.09	53712.95
530.26	54019.56
530.43	53619.33
530.60	53712.95
530.77	53691.89
530.94	53949.35
531.11	54000.84
531.28	54031.27
531.46	54066.38
531.63	54040.63
531.80	53923.60
531.97	54333.20
532.14	54190.42
532.31	54389.37
532.48	54272.34
532.65	54415.11
532.82	54375.33
532.99	54630.44
533.16	54326.17
533.33	54520.44
533.50	54660.87
533.67	54642.15
533.84	54382.35
534.01	54742.79
534.18	54635.13
534.35	55201.53
534.52	54993.23
534.69	55054.08
534.86	55096.21
535.03	54632.78
535.20	55098.55
535.37	55091.53
535.54	55199.19
535.71	54995.57
535.88	55444.95
536.05	55456.65
536.22	55370.05
536.38	55208.56
536.55	55360.69
536.72	55508.14
536.89	55386.44
537.06	55529.21
537.23	55409.84
537.40	55274.09
537.57	55819.44
537.74	55592.40
537.91	55831.14
538.08	55767.94
538.25	55611.13
538.42	55842.84
538.59	56135.41
538.75	55725.81
538.92	55803.05
539.09	56065.19
539.26	56151.79
539.43	55948.17
539.60	56034.77
539.77	55847.52
539.94	56327.33
540.11	55934.12
540.28	56172.86
540.44	56233.71
540.61	56109.66
540.78	56317.97
540.95	56374.14
541.12	56432.66
541.29	56423.29
541.46	56430.32
541.62	56690.12
541.79	56451.38
541.96	56097.96
542.13	56350.74
542.30	56507.55
542.47	56772.03
542.63	56537.98
542.80	56760.33
542.97	57001.41
543.14	57008.43
543.31	56743.95
543.48	56985.02
543.64	57195.67
543.81	57134.82
543.98	57139.50
544.15	57172.27
544.32	57237.80
544.48	57478.88
544.65	57209.71
544.82	57228.44
544.99	57237.80
545.16	57462.49
545.32	57420.36
545.49	57469.51
545.66	57490.58
545.83	57411.00
546.00	57743.36
546.16	57614.63
546.33	57354.83
546.50	57270.57
546.67	57502.28
546.83	57223.76
547.00	57668.46
547.17	57371.21
547.34	57619.31
547.50	57748.04
547.67	57829.96
547.84	57698.89
548.00	57642.71
548.17	58162.31
548.34	57970.39
548.51	58035.92
548.67	58110.82
548.84	57984.43
549.01	57946.98
549.18	58035.92
549.34	58010.18
549.51	58255.93
549.68	58295.72
549.84	58052.31
550.01	58183.38
550.18	58071.03
550.34	58281.68
550.51	58539.14
550.68	58454.88
550.84	57972.73
551.01	58422.11
551.18	58307.43
551.34	58387.00
551.51	58358.92
551.68	58267.64
551.84	58230.19
552.01	58309.77
552.18	58433.81
552.34	58241.89
552.51	58487.65
552.68	58344.87
552.84	58506.37
553.01	58820.00
553.18	58518.07
553.34	58616.38
553.51	58410.41
553.67	58595.31
553.84	58763.83
554.01	58714.68
554.17	58651.48
554.34	58941.71
554.51	58808.30
554.67	58773.19
554.84	58798.94
555.00	58698.30
555.17	59032.99
555.33	59037.67
555.50	58965.12
555.67	58857.45
555.83	58878.52
556.00	58983.84
556.16	59203.85
556.33	59138.32
556.50	58974.48
556.66	59182.79
556.83	58838.73
556.99	59283.43
557.16	59363.01
557.32	59222.58
557.49	59566.63
557.65	59084.48
557.82	59290.45
557.98	59016.61
558.15	59339.60
558.32	59372.37
558.48	59477.69
558.65	59409.82
558.81	59327.90
558.98	59384.07
559.14	59426.20
559.31	59199.17
559.47	59660.26
559.64	59618.13
559.80	59487.06
559.97	59611.10
560.13	59419.18
560.30	59634.51
560.46	59648.55
560.63	59842.82
560.79	59704.73
560.96	59779.62
561.12	59615.79
561.29	59620.47
561.45	59700.04
561.61	59718.77
561.78	59632.17
561.94	59831.11
562.11	59793.67
562.27	59632.17
562.44	59873.24
562.60	59716.43
562.77	59751.54
562.93	59622.81
563.10	59964.52
563.26	59629.83
563.42	60130.70
563.59	59894.31
563.75	59903.67
563.92	59756.22
564.08	59922.40
564.24	60095.60
564.41	60058.15
564.57	59938.78
564.74	60097.94
564.90	60006.65
565.07	59854.52
565.23	60111.98
565.39	60179.85
565.56	60156.45
565.72	59781.96
565.88	60182.19
566.05	59999.63
566.21	60053.47
566.38	60177.51
566.54	60044.10
566.70	60200.92
566.87	60331.99
567.03	59767.92
567.19	60114.32
567.36	60147.09
567.52	60130.70
567.68	60357.74
567.85	60339.01
568.01	60154.11
568.17	60107.30
568.34	60296.88
568.50	60308.58
568.66	60144.75
568.83	60294.54
568.99	60149.43
569.15	60367.10
569.32	60247.73
569.48	60264.11
569.64	60444.33
569.81	60434.97
569.97	60229.01
570.13	60378.80
570.30	60430.29
570.46	60360.08
570.62	60411.57
570.78	60509.87
570.95	60140.07
571.11	60341.35
571.27	60320.29
571.43	60322.63
571.60	60404.55
571.76	60477.10
571.92	60458.38
572.09	60554.34
572.25	60322.63
572.41	60486.46
572.57	60631.58
572.74	60411.57
572.90	60301.56
573.06	60420.93
573.22	60575.40
573.38	60474.76
573.55	60418.59
573.71	60575.40
573.87	60474.76
574.03	60584.77
574.20	60683.07
574.36	60669.03
574.52	60643.28
574.68	60636.26
574.84	60573.06
575.01	60631.58
575.17	60678.39
575.33	60547.32
575.49	60498.17
575.65	60706.47
575.82	60678.39
575.98	60680.73
576.14	60863.29
576.30	60673.71
576.46	60528.59
576.62	60486.46
576.79	60626.90
576.95	60474.76
577.11	60849.25
577.27	60680.73
577.43	60608.17
577.59	60657.32
577.75	60610.51
577.92	60418.59
578.08	60575.40
578.24	60720.52
578.40	60764.99
578.56	60891.38
578.72	60662.00
578.88	60814.14
579.04	60835.20
579.21	60580.09
579.37	60889.04
579.53	60882.02
579.69	60591.79
579.85	60495.83
580.01	60790.73
580.17	60500.51
580.33	60790.73
580.49	60729.88
580.65	60772.01
580.82	60762.65
580.98	60835.20
581.14	60699.45
581.30	60999.04
581.46	60846.91
581.62	60697.11
581.78	60519.23
581.94	60666.69
582.10	60891.38
582.26	60633.92
582.42	60629.24
582.58	61090.32
582.74	60851.59
582.90	61020.11
583.06	60849.25
583.22	60587.11
583.38	60739.24
583.54	60893.72
583.70	60846.91
583.86	60919.46
584.02	60891.38
584.18	60874.99
584.34	60903.08
584.50	60874.99
584.66	60718.18
584.82	60685.41
584.98	60938.19
585.14	60938.19
585.30	60891.38
585.46	61001.38
585.62	60612.85
585.78	60938.19
585.94	60683.07
586.10	60870.31
586.26	60900.74
586.42	60879.67
586.58	60973.30
586.74	60949.89
586.90	60816.48
587.06	60942.87
587.22	60985.00
587.38	60839.89
587.54	60842.23
587.70	61116.07
587.86	60963.93
588.02	60786.05
588.18	61254.16
588.34	60867.97
588.49	60975.64
