SpectraSuite Data File
++++++++++++++++++++++++++++++++++++
Date: Fri Oct 25 10:44:36 EDT 2013
User: price-jones
Dark Spectrum Present: No
Reference Spectrum Present: No
Number of Sampled Component Spectra: 1
Spectrometers: USB2+H05261
Integration Time (usec): 100000 (USB2+H05261)
Spectra Averaged: 1 (USB2+H05261)
Boxcar Smoothing: 0 (USB2+H05261)
Correct for Electrical Dark: No (USB2+H05261)
Strobe/Lamp Enabled: No (USB2+H05261)
Correct for Detector Non-linearity: No (USB2+H05261)
Correct for Stray Light: No (USB2+H05261)
Number of Pixels in Processed Spectrum: 2048
>>>>>Begin Processed Spectral Data<<<<<
365.73	121.71
365.92	121.71
366.12	121.71
366.32	0.00
366.52	16.38
366.72	0.00
366.91	56.17
367.11	51.49
367.31	23.41
367.51	0.00
367.70	21.06
367.90	25.75
368.10	14.04
368.30	60.85
368.49	30.43
368.69	4.68
368.89	2.34
369.09	0.00
369.28	72.56
369.48	84.26
369.68	49.15
369.87	98.30
370.07	187.24
370.27	77.24
370.47	161.50
370.66	322.99
370.86	407.25
371.06	458.74
371.25	449.38
371.45	451.72
371.65	418.96
371.84	430.66
372.04	458.74
372.24	456.40
372.44	484.49
372.63	447.04
372.83	468.11
373.03	440.02
373.22	447.04
373.42	507.90
373.62	489.17
373.81	566.41
374.01	589.82
374.21	482.15
374.40	458.74
374.60	547.69
374.79	524.28
374.99	517.26
375.19	519.60
375.38	512.58
375.58	540.66
375.78	580.45
375.97	547.69
376.17	573.43
376.37	580.45
376.56	517.26
376.76	610.88
376.95	631.94
377.15	641.31
377.35	599.18
377.54	713.86
377.74	638.97
377.93	580.45
378.13	610.88
378.33	690.46
378.52	582.79
378.72	634.29
378.91	557.05
379.11	606.20
379.31	552.37
379.50	557.05
379.70	634.29
379.89	638.97
380.09	613.22
380.28	617.90
380.48	603.86
380.68	671.73
380.87	676.41
381.07	657.69
381.26	697.48
381.46	727.91
381.65	711.52
381.85	629.60
382.04	716.20
382.24	634.29
382.43	676.41
382.63	692.80
382.83	688.12
383.02	702.16
383.22	617.90
383.41	713.86
383.61	812.17
383.80	692.80
384.00	758.33
384.19	699.82
384.39	713.86
384.58	650.67
384.78	723.23
384.97	744.29
385.17	723.23
385.36	667.05
385.56	770.04
385.75	826.21
385.95	674.07
386.14	814.51
386.34	704.50
386.53	774.72
386.72	819.19
386.92	795.78
387.11	866.00
387.31	882.38
387.50	751.31
387.70	746.63
387.89	854.30
388.09	828.55
388.28	851.96
388.48	851.96
388.67	877.70
388.86	826.21
389.06	851.96
389.25	882.38
389.45	922.17
389.64	823.87
389.84	861.32
390.03	922.17
390.22	926.85
390.42	891.74
390.61	800.46
390.81	858.98
391.00	1001.75
391.19	1020.47
391.39	985.37
391.58	954.94
391.78	856.64
391.97	990.05
392.16	851.96
392.36	1041.54
392.55	936.21
392.75	961.96
392.94	919.83
393.13	922.17
393.33	896.43
393.52	980.68
393.71	1083.67
393.91	1086.01
394.10	1027.50
394.29	1018.13
394.49	957.28
394.68	1097.71
394.88	1029.84
395.07	1055.58
395.26	1088.35
395.46	957.28
395.65	1160.91
395.84	1200.69
396.04	1163.25
396.23	1032.18
396.42	1034.52
396.62	1196.01
396.81	1184.31
397.00	1142.18
397.19	1125.80
397.39	1212.40
397.58	1287.29
397.77	1327.08
397.97	1273.25
398.16	1263.89
398.35	1322.40
398.55	1397.30
398.74	1409.00
398.93	1338.79
399.12	1380.92
399.32	1366.87
399.51	1263.89
399.70	1413.68
399.90	1378.58
400.09	1371.55
400.28	1497.94
400.47	1376.24
400.67	1528.37
400.86	1497.94
401.05	1481.56
401.24	1530.71
401.44	1554.12
401.63	1488.58
401.82	1488.58
402.01	1434.75
402.21	1584.54
402.40	1528.37
402.59	1544.75
402.78	1547.09
402.97	1652.42
403.17	1603.27
403.36	1605.61
403.55	1610.29
403.74	1558.80
403.93	1591.56
404.13	1748.38
404.32	1654.76
404.51	1678.16
404.70	1680.50
404.89	1797.53
405.09	1837.32
405.28	1792.85
405.47	1682.85
405.66	1823.28
405.85	1856.04
406.05	1722.63
406.24	1832.64
406.43	1842.00
406.62	1937.96
406.81	1928.60
407.00	1839.66
407.20	1827.96
407.39	1764.76
407.58	1947.33
407.77	2040.95
407.96	1968.39
408.15	2087.76
408.34	2057.33
408.54	1966.05
408.73	1966.05
408.92	1994.14
409.11	2033.93
409.30	2052.65
409.49	2115.84
409.68	2118.18
409.87	2005.84
410.07	2092.44
410.26	2066.69
410.45	2087.76
410.64	2146.27
410.83	2328.83
411.02	2228.19
411.21	2305.43
411.40	2399.05
411.59	2321.81
411.78	2345.22
411.98	2483.31
412.17	2450.54
412.36	2345.22
412.55	2431.82
412.74	2471.61
412.93	2504.37
413.12	2441.18
413.31	2560.55
413.50	2452.88
413.69	2572.25
413.88	2623.74
414.07	2834.39
414.26	2590.97
414.45	2658.85
414.64	2626.08
414.83	2743.11
415.02	2764.17
415.22	2818.00
415.41	2883.54
415.60	2857.79
415.79	2867.16
415.98	2885.88
416.17	2857.79
416.36	2963.12
416.55	2930.35
416.74	2928.01
416.93	2874.18
417.12	2932.69
417.31	3061.42
417.50	3028.65
417.69	3047.38
417.88	3155.04
418.07	3178.45
418.26	3208.87
418.45	3103.55
418.64	3274.41
418.83	3229.94
419.02	3173.77
419.21	3358.67
419.39	3234.62
419.58	3208.87
419.77	3243.98
419.96	3232.28
420.15	3335.26
420.34	3094.19
420.53	3368.03
420.72	3433.57
420.91	3445.27
421.10	3372.71
421.29	3506.12
421.48	3449.95
421.67	3503.78
421.86	3384.41
422.05	3522.51
422.24	3337.60
422.43	3407.82
422.61	3508.46
422.80	3667.62
422.99	3522.51
423.18	3665.28
423.37	3658.26
423.56	3545.91
423.75	3562.30
423.94	3471.01
424.13	3365.69
424.32	3426.54
424.50	3632.51
424.69	3550.59
424.88	3609.11
425.07	3625.49
425.26	3634.85
425.45	3494.42
425.64	3564.64
425.83	3515.48
426.01	3836.14
426.20	3524.85
426.39	3562.30
426.58	3480.38
426.77	3590.38
426.96	3616.13
427.15	3623.15
427.33	3674.64
427.52	3761.24
427.71	3808.05
427.90	3723.79
428.09	3840.82
428.28	3744.86
428.46	3906.35
428.65	3833.80
428.84	3836.14
429.03	3852.52
429.22	3747.20
429.40	3901.67
429.59	3946.14
429.78	3702.73
429.97	3770.60
430.16	3630.17
430.34	3747.20
430.53	3946.14
430.72	3831.46
430.91	3932.10
431.10	3978.91
431.28	4121.68
431.47	4140.41
431.66	4091.26
431.85	4119.34
432.03	4140.41
432.22	4201.26
432.41	4222.33
432.60	4234.03
432.79	4227.01
432.97	4435.32
433.16	4344.03
433.35	4194.24
433.54	4248.07
433.72	4271.48
433.91	4360.42
434.10	4500.85
434.28	4458.72
434.47	4374.46
434.66	4512.55
434.85	4451.70
435.03	4454.04
435.22	4528.94
435.41	4568.73
435.59	4484.47
435.78	4634.26
435.97	4758.31
436.16	4554.68
436.34	4755.97
436.53	4674.05
436.72	4945.55
436.90	4739.58
437.09	4671.71
437.28	4676.39
437.46	4678.73
437.65	4627.24
437.84	4861.29
438.02	4695.11
438.21	4793.42
438.40	4709.16
438.58	4990.02
438.77	4924.49
438.96	4901.08
439.14	5111.73
439.33	5177.26
439.52	5048.54
439.70	5123.43
439.89	5151.52
440.08	5308.34
440.26	5247.48
440.45	5280.25
440.63	5226.42
440.82	5350.46
441.01	5399.62
441.19	5254.50
441.38	5399.62
441.57	5593.88
441.75	5647.71
441.94	5558.77
442.12	5675.80
442.31	5577.50
442.50	5713.25
442.68	5720.27
442.87	5783.46
443.05	5767.08
443.24	5867.72
443.43	5785.80
443.61	5968.37
443.80	6012.84
443.98	5631.33
444.17	5586.86
444.35	5977.73
444.54	5968.37
444.73	6033.90
444.91	5830.27
445.10	5984.75
445.28	6017.52
445.47	5928.58
445.65	5741.33
445.84	5921.56
446.02	5954.32
446.21	5888.79
446.39	6038.58
446.58	6005.81
446.77	6134.54
446.95	5933.26
447.14	5982.41
447.32	6080.71
447.51	6047.94
447.69	6071.35
447.88	6045.60
448.06	6200.08
448.25	6017.52
448.43	6043.26
448.62	6052.63
448.80	6022.20
448.99	6092.41
449.17	6139.23
449.36	6251.57
449.54	6356.90
449.73	6399.02
449.91	6307.74
450.10	6485.62
450.28	6553.50
450.46	6370.94
450.65	6417.75
450.83	6513.71
451.02	6597.97
451.20	6455.20
451.39	6649.46
451.57	6544.14
451.76	6480.94
451.94	6642.44
452.13	6731.38
452.31	6457.54
452.49	6537.12
452.68	6553.50
452.86	6497.33
453.05	6569.88
453.23	6675.21
453.42	6817.98
453.60	6609.67
453.78	6693.93
453.97	6771.17
454.15	6799.26
454.34	6619.04
454.52	6724.36
454.70	6801.60
454.89	6846.07
455.07	6836.70
455.26	6981.82
455.44	6970.12
455.62	7054.37
455.81	6953.73
455.99	6991.18
456.17	7016.93
456.36	7152.68
456.54	7157.36
456.73	7087.14
456.91	7302.47
457.09	7379.71
457.28	7499.08
457.46	7393.75
457.64	7524.82
457.83	7325.88
458.01	7288.43
458.19	7616.10
458.38	7576.31
458.56	7510.78
458.74	7456.95
458.93	7480.35
459.11	7517.80
459.29	7536.52
459.48	7735.47
459.66	7529.50
459.84	7751.85
460.03	7749.51
460.21	7754.19
460.39	7847.82
460.57	7742.49
460.76	7672.28
460.94	7747.17
461.12	7754.19
461.31	7880.58
461.49	7946.12
461.67	7693.34
461.85	8114.64
462.04	7927.39
462.22	8142.72
462.40	8156.77
462.59	8138.04
462.77	8056.12
462.95	8023.36
463.13	8088.89
463.32	7911.01
463.50	8222.30
463.68	8238.69
463.86	8154.43
464.05	8189.53
464.23	8140.38
464.41	8400.18
464.59	7983.57
464.78	8271.45
464.96	8285.50
465.14	8208.26
465.32	8208.26
465.50	8400.18
465.69	8496.14
465.87	8308.90
466.05	8358.05
466.23	8336.99
466.41	8470.40
466.60	8664.66
466.78	8521.89
466.96	8386.14
467.14	8496.14
467.32	8482.10
467.51	8748.92
467.69	8395.50
467.87	8730.20
468.05	8772.33
468.23	8587.43
468.41	8751.26
468.60	8889.35
468.78	8762.97
468.96	8744.24
469.14	8910.42
469.32	8938.51
469.50	8545.30
469.69	8725.52
469.87	9121.07
470.05	8945.53
470.23	9004.04
470.41	9092.98
470.59	9226.39
470.77	9067.24
470.95	9048.51
471.14	9198.31
471.32	9013.40
471.50	9212.35
471.68	9380.87
471.86	9392.57
472.04	9439.38
472.22	9689.82
472.40	9493.21
472.58	9406.61
472.77	9575.13
472.95	9628.96
473.13	9907.49
473.31	9767.06
473.49	9521.30
473.67	9877.06
473.85	9715.56
474.03	10300.70
474.21	10017.49
474.39	10017.49
474.57	10132.18
474.75	10029.20
474.93	10391.98
475.12	10265.59
475.30	10321.76
475.48	10090.05
475.66	10424.75
475.84	10289.00
476.02	10420.06
476.20	10839.02
476.38	10614.33
476.56	10829.66
476.74	10794.55
476.92	10806.25
477.10	10906.90
477.28	10986.47
477.46	10895.19
477.64	11250.96
477.82	11180.74
478.00	11534.16
478.18	11510.75
478.36	11372.66
478.54	11763.53
478.72	11903.96
478.90	11747.15
479.08	11974.18
479.26	12161.42
479.44	12196.53
479.62	12138.02
479.80	12194.19
479.98	12432.93
480.16	12564.00
480.34	12676.34
480.52	12585.06
480.70	12917.42
480.88	12699.75
481.06	12940.82
481.24	12849.54
481.41	12891.67
481.59	13273.18
481.77	13202.96
481.95	13242.75
482.13	13315.31
482.31	13303.60
482.49	13748.31
482.67	13664.05
482.85	13862.99
483.03	13661.71
483.21	13991.72
483.39	14068.96
483.57	14094.71
483.74	14415.36
483.92	14202.37
484.10	14368.55
484.28	14789.85
484.46	14621.33
484.64	14979.43
484.82	14618.99
485.00	14686.86
485.18	14960.70
485.35	15419.45
485.53	15002.83
485.71	15239.23
485.89	15573.92
486.07	15349.23
486.25	15370.30
486.43	15733.08
486.61	16070.12
486.78	15988.20
486.96	16140.33
487.14	16318.22
487.32	16397.79
487.50	16634.19
487.68	16655.25
487.85	17153.79
488.03	17008.67
488.21	17043.78
488.39	17228.68
488.57	17022.72
488.75	17619.55
488.92	17942.55
489.10	17830.20
489.28	17888.71
489.46	18129.79
489.64	17877.01
489.81	18630.66
489.99	18668.11
490.17	18705.56
490.35	19019.19
490.53	18579.17
490.70	19014.51
490.88	18871.74
491.06	19307.08
491.24	19152.60
491.41	19400.70
491.59	19271.97
491.77	19367.93
491.95	19587.94
492.13	19714.33
492.30	20086.48
492.48	19992.86
492.66	20189.46
492.84	20093.50
493.01	20362.66
493.19	20444.58
493.37	20664.59
493.54	20692.68
493.72	20861.19
493.90	20875.24
494.08	21111.63
494.25	21612.51
494.43	21387.82
494.61	21628.89
494.79	21563.36
494.96	21516.54
495.14	21806.77
495.32	22120.40
495.49	22132.11
495.67	22012.74
495.85	22338.07
496.02	22349.78
496.20	22731.28
496.38	22492.55
496.55	22958.31
496.73	23321.10
496.91	22712.56
497.09	22801.50
497.26	23414.72
497.44	23164.28
497.62	23377.27
497.79	23522.38
497.97	23583.24
498.14	23707.29
498.32	23894.53
498.50	23960.06
498.67	24264.33
498.85	23899.21
499.03	23901.55
499.20	24414.13
499.38	24285.40
499.56	24109.86
499.73	24847.13
499.91	24622.44
500.08	25027.35
500.26	24521.79
500.44	24547.54
500.61	25006.28
500.79	24760.53
500.97	25390.13
501.14	25324.60
501.32	25710.78
501.49	25563.33
501.67	25462.69
501.84	25422.90
502.02	25661.63
502.20	26082.93
502.37	25858.24
502.55	25986.97
502.72	26057.18
502.90	25998.67
503.07	26197.62
503.25	26525.29
503.43	26251.45
503.60	26197.62
503.78	26466.78
503.95	26380.18
504.13	26658.70
504.30	26986.38
504.48	26651.68
504.65	26948.93
504.83	27070.64
505.01	27056.59
505.18	26981.70
505.36	27377.25
505.53	27529.38
505.71	27765.78
505.88	27435.76
506.06	27318.73
506.23	27660.45
506.41	27503.64
506.58	27646.41
506.76	27796.20
506.93	27889.82
507.11	28252.61
507.28	28271.33
507.46	28119.20
507.63	28102.81
507.81	27988.13
507.98	28086.43
508.16	28561.56
508.33	28601.35
508.50	28481.98
508.68	28629.43
508.85	29343.30
509.03	29184.14
509.20	29055.41
509.38	29010.94
509.55	29022.64
509.73	29198.18
509.90	29558.63
510.08	29277.76
510.25	29532.88
510.42	29596.07
510.60	30162.48
510.77	29832.47
510.95	29996.31
511.12	29883.96
511.30	30366.11
511.47	30403.56
511.64	30370.79
511.82	30576.76
511.99	30244.40
512.17	30295.89
512.34	30256.11
512.51	30700.81
512.69	30452.71
512.86	30576.76
513.04	30632.93
513.21	30984.01
513.38	30885.71
513.56	30897.41
513.73	30546.33
513.90	30979.33
514.08	30866.98
514.25	31096.36
514.43	31316.37
514.60	31482.55
514.77	31225.09
514.95	31807.88
515.12	31360.84
515.29	31433.39
515.47	31927.25
515.64	32388.33
515.81	31517.65
515.99	31473.18
516.16	31777.45
516.33	31793.84
516.51	31606.59
516.68	31491.91
516.85	31700.22
517.03	31955.33
517.20	32374.29
517.37	32393.01
517.54	32393.01
517.72	32025.55
517.89	31819.58
518.06	31880.44
518.24	32191.73
518.41	32439.82
518.58	32596.64
518.75	32774.52
518.93	32734.73
519.10	32975.81
519.27	32893.89
519.45	33097.52
519.62	33179.43
519.79	33282.42
519.96	33380.72
520.14	33244.97
520.31	33425.19
520.48	33251.99
520.65	33132.62
520.83	33579.67
521.00	33951.81
521.17	33659.24
521.34	34178.84
521.52	34094.58
521.69	34183.52
521.86	34015.01
522.03	34120.33
522.20	34370.77
522.38	34412.90
522.55	34183.52
522.72	34494.82
522.89	34419.92
523.07	34546.31
523.24	34302.89
523.41	35037.82
523.58	34553.33
523.75	35292.94
523.92	34710.14
524.10	35000.37
524.27	35133.78
524.44	35023.78
524.61	34869.30
524.78	35536.35
524.96	35601.89
525.13	35732.96
525.30	35913.18
525.47	35599.55
525.64	35548.06
525.81	35847.64
525.98	35674.45
526.16	35580.82
526.33	35739.98
526.50	35620.61
526.67	35414.65
526.84	35732.96
527.01	35377.20
527.18	36011.48
527.36	36229.15
527.53	36282.98
527.70	36793.22
527.87	36037.23
528.04	36077.02
528.21	36563.85
528.38	36465.55
528.55	36847.05
528.72	36734.71
528.89	37153.66
529.07	36463.21
529.24	36624.70
529.41	36821.31
529.58	36767.48
529.75	36844.71
529.92	36603.64
530.09	36905.57
530.26	36947.70
530.43	37209.84
530.60	37064.72
530.77	36765.14
530.94	37528.15
531.11	37078.77
531.28	37097.49
531.46	37624.11
531.63	37699.01
531.80	37577.30
531.97	37151.32
532.14	37240.26
532.31	37642.84
532.48	37422.83
532.65	37574.96
532.82	37762.20
532.99	37977.53
533.16	37134.94
533.33	38082.86
533.50	37872.21
533.67	37902.64
533.84	37614.75
534.01	37787.95
534.18	37940.08
534.35	38529.90
534.52	38071.15
534.69	38139.03
534.86	38541.60
535.03	38396.49
535.20	38560.33
535.37	38515.86
535.54	38920.77
535.71	38422.23
535.88	38642.24
536.05	38450.32
536.22	38721.82
536.38	38616.50
536.55	38770.97
536.72	38600.12
536.89	38934.81
537.06	38518.20
537.23	38904.38
537.40	39154.82
537.57	39112.69
537.74	39456.75
537.91	39136.10
538.08	39463.77
538.25	38787.36
538.42	39133.76
538.59	39157.16
538.75	38574.37
538.92	39400.58
539.09	39419.30
539.26	39131.42
539.43	39391.22
539.60	39557.39
539.77	39175.89
539.94	39737.62
540.11	39372.49
540.28	39391.22
540.44	39548.03
540.61	39611.23
540.78	39473.13
540.95	39187.59
541.12	39349.09
541.29	39077.58
541.46	39604.20
541.62	39871.03
541.79	39838.26
541.96	39892.09
542.13	39992.73
542.30	39908.47
542.47	39854.64
542.63	39618.25
542.80	40170.61
542.97	40685.53
543.14	40519.35
543.31	40612.98
543.48	40811.92
543.64	40964.06
543.81	40971.08
543.98	40411.69
544.15	40814.26
544.32	40865.75
544.48	41446.21
544.65	41223.86
544.82	41216.83
544.99	41069.38
545.16	41322.16
545.32	40643.40
545.49	41336.20
545.66	41139.60
545.83	41764.52
546.00	41301.09
546.16	41319.82
546.33	41322.16
546.50	40947.67
546.67	41394.71
546.83	41062.36
547.00	41221.52
547.17	41481.31
547.34	41469.61
547.50	41340.88
547.67	41769.20
547.84	41392.37
548.00	41722.39
548.17	41888.57
548.34	41881.55
548.51	42012.62
548.67	41900.27
548.84	42066.45
549.01	41696.64
549.18	41708.35
549.34	41703.67
549.51	41783.24
549.68	41689.62
549.84	41937.72
550.01	41984.53
550.18	41855.80
550.34	41991.55
550.51	41813.67
550.68	41993.89
550.84	41682.60
551.01	42237.31
551.18	42253.69
551.34	42497.11
551.51	41965.81
551.68	41972.83
551.84	42155.39
552.01	42052.41
552.18	41986.87
552.34	41867.50
552.51	42658.60
552.68	42653.92
552.84	42796.70
553.01	42579.03
553.18	42454.98
553.34	42436.25
553.51	42174.11
553.67	42831.80
553.84	42775.63
554.01	42848.19
554.17	42897.34
554.34	42925.42
554.51	42672.65
554.67	42899.68
554.84	43019.05
555.00	43243.74
555.17	42696.05
555.33	42761.59
555.50	42735.84
555.67	42567.32
555.83	42206.88
556.00	42995.64
556.16	43599.50
556.33	43260.12
556.50	42726.48
556.66	43335.02
556.83	42983.94
556.99	43288.21
557.16	42974.58
557.32	43182.88
557.49	43157.14
557.65	42986.28
557.82	43061.18
557.98	43346.72
558.15	43477.79
558.32	43618.22
558.48	42923.08
558.65	43597.16
558.81	43255.44
558.98	43133.73
559.14	43253.10
559.31	43040.11
559.47	43510.56
559.64	43969.30
559.80	43653.33
559.97	43557.37
560.13	43423.96
560.30	42930.11
560.46	43288.21
560.63	43353.74
560.79	43711.84
560.96	44275.91
561.12	43995.05
561.29	43658.01
561.45	43847.60
561.61	43838.23
561.78	43484.81
561.94	43484.81
562.11	43648.65
562.27	43452.05
562.44	43566.73
562.60	43934.20
562.77	43700.14
562.93	44154.21
563.10	43751.63
563.26	43629.93
563.42	43847.60
563.59	43634.61
563.75	43800.79
563.92	44233.78
564.08	44179.95
564.24	44011.43
564.41	44264.21
564.57	43866.32
564.74	44137.82
564.90	43768.02
565.07	43775.04
565.23	43667.37
565.39	43784.40
565.56	44329.75
565.72	44151.87
565.88	43934.20
566.05	44023.14
566.21	43903.77
566.38	43775.04
566.54	43913.13
566.70	44521.67
566.87	44896.16
567.03	43962.28
567.19	44516.99
567.36	44357.83
567.52	43440.34
567.68	44385.92
567.85	44032.50
568.01	44198.68
568.17	44030.16
568.34	44399.96
568.50	44076.97
568.66	44156.55
568.83	44369.54
568.99	43934.20
569.15	43920.15
569.32	43878.02
569.48	43782.06
569.64	44285.28
569.81	44364.85
569.97	44421.03
570.13	44086.33
570.30	44245.49
570.46	43983.35
570.62	43999.73
570.78	44006.75
570.95	44135.48
571.11	44357.83
571.27	44069.95
571.43	44320.38
571.60	44168.25
571.76	44020.80
571.92	43826.53
572.09	44516.99
572.25	44191.65
572.41	44102.71
572.57	44648.06
572.74	44814.24
572.90	44399.96
573.06	44439.75
573.22	44364.85
573.38	44655.08
573.55	43899.09
573.71	44500.61
573.87	44566.14
574.03	44083.99
574.20	44341.45
574.36	44240.81
574.52	44329.75
574.68	44451.45
574.84	44493.58
575.01	44732.32
575.17	44404.64
575.33	44360.17
575.49	44669.12
575.65	44158.89
575.82	44706.57
575.98	44369.54
576.14	44402.30
576.30	44041.86
576.46	44168.25
576.62	44837.64
576.79	44343.79
576.95	44140.16
577.11	44355.49
577.27	44222.08
577.43	44732.32
577.59	44446.77
577.75	44409.32
577.92	44051.22
578.08	44339.11
578.24	44032.50
578.40	44285.28
578.56	44088.67
578.72	44215.06
578.88	44954.67
579.04	44570.82
579.21	44016.11
579.37	44547.42
579.53	44811.90
579.69	44397.62
579.85	45034.25
580.01	44842.32
580.17	44453.79
580.33	44830.62
580.49	44837.64
580.65	44861.05
580.82	44409.32
580.98	44596.57
581.14	44566.14
581.30	44615.29
581.46	44882.11
581.62	44320.38
581.78	44528.69
581.94	44711.25
582.10	44842.32
582.26	44921.90
582.42	44811.90
582.58	44257.19
582.74	44624.65
582.90	44954.67
583.06	44603.59
583.22	44711.25
583.38	44825.94
583.54	44823.60
583.70	44547.42
583.86	44285.28
584.02	44524.01
584.18	44367.20
584.34	44528.69
584.50	44566.14
584.66	44776.79
584.82	44619.97
584.98	44818.92
585.14	44746.36
585.30	44776.79
585.46	45102.12
585.62	44758.06
585.78	44322.72
585.94	44444.43
586.10	44788.49
586.26	44561.46
586.42	44961.69
586.58	44971.05
586.74	44666.78
586.90	44411.67
587.06	44568.48
587.22	44753.38
587.38	44098.03
587.54	44631.68
587.70	44493.58
587.86	44540.39
588.02	44868.07
588.18	44711.25
588.34	44460.82
588.49	44289.96
588.65	44217.40
588.81	44545.08
588.97	44411.67
589.13	44416.35
589.29	44811.90
589.45	44444.43
589.61	45003.82
589.77	44868.07
589.93	44631.68
590.08	44893.82
590.24	44608.27
