SpectraSuite Data File
++++++++++++++++++++++++++++++++++++
Date: Fri Oct 25 11:34:50 EDT 2013
User: price-jones
Dark Spectrum Present: No
Reference Spectrum Present: No
Number of Sampled Component Spectra: 1
Spectrometers: USB2+H05261
Integration Time (usec): 100000 (USB2+H05261)
Spectra Averaged: 1 (USB2+H05261)
Boxcar Smoothing: 0 (USB2+H05261)
Correct for Electrical Dark: No (USB2+H05261)
Strobe/Lamp Enabled: No (USB2+H05261)
Correct for Detector Non-linearity: No (USB2+H05261)
Correct for Stray Light: No (USB2+H05261)
Number of Pixels in Processed Spectrum: 2048
>>>>>Begin Processed Spectral Data<<<<<
365.73	250.44
365.92	250.44
366.12	250.44
366.32	227.03
366.52	198.95
366.72	184.90
366.91	224.69
367.11	184.90
367.31	170.86
367.51	168.52
367.70	220.01
367.90	180.22
368.10	187.24
368.30	215.33
368.49	208.31
368.69	194.26
368.89	205.97
369.09	180.22
369.28	222.35
369.48	220.01
369.68	194.26
369.87	236.39
370.07	248.10
370.27	280.86
370.47	308.95
370.66	475.13
370.86	498.53
371.06	545.34
371.25	568.75
371.45	510.24
371.65	554.71
371.84	531.30
372.04	573.43
372.24	552.37
372.44	489.17
372.63	634.29
372.83	692.80
373.03	596.84
373.22	629.60
373.42	615.56
373.62	578.11
373.81	613.22
374.01	601.52
374.21	629.60
374.40	653.01
374.60	624.92
374.79	568.75
374.99	629.60
375.19	657.69
375.38	655.35
375.58	610.88
375.78	627.26
375.97	624.92
376.17	702.16
376.37	688.12
376.56	763.01
376.76	678.76
376.95	676.41
377.15	631.94
377.35	664.71
377.54	688.12
377.74	723.23
377.93	638.97
378.13	695.14
378.33	629.60
378.52	655.35
378.72	697.48
378.91	671.73
379.11	704.50
379.31	641.31
379.50	678.76
379.70	699.82
379.89	704.50
380.09	779.40
380.28	723.23
380.48	695.14
380.68	748.97
380.87	697.48
381.07	734.93
381.26	697.48
381.46	774.72
381.65	690.46
381.85	737.27
382.04	758.33
382.24	751.31
382.43	713.86
382.63	716.20
382.83	765.36
383.02	716.20
383.22	795.78
383.41	802.80
383.61	695.14
383.80	828.55
384.00	767.70
384.19	826.21
384.39	868.34
384.58	819.19
384.78	755.99
384.97	877.70
385.17	765.36
385.36	795.78
385.56	884.72
385.75	814.51
385.95	777.06
386.14	938.55
386.34	863.66
386.53	945.58
386.72	901.11
386.92	908.13
387.11	793.44
387.31	940.90
387.50	896.43
387.70	812.17
387.89	880.04
388.09	898.77
388.28	851.96
388.48	880.04
388.67	938.55
388.86	1001.75
389.06	945.58
389.25	929.19
389.45	961.96
389.64	873.02
389.84	877.70
390.03	931.53
390.22	933.87
390.42	910.47
390.61	961.96
390.81	964.30
391.00	959.62
391.19	971.32
391.39	983.02
391.58	950.26
391.78	976.00
391.97	985.37
392.16	987.71
392.36	1060.26
392.55	891.74
392.75	1046.22
392.94	973.66
393.13	924.51
393.33	1004.09
393.52	1025.15
393.71	1132.82
393.91	1053.24
394.10	1071.97
394.29	1027.50
394.49	1057.92
394.68	1144.52
394.88	1053.24
395.07	1104.73
395.26	1100.05
395.46	1053.24
395.65	1069.62
395.84	1125.80
396.04	1287.29
396.23	1121.12
396.42	1090.69
396.62	1196.01
396.81	1107.07
397.00	1174.95
397.19	1224.10
397.39	1109.41
397.58	1144.52
397.77	1200.69
397.97	1212.40
398.16	1200.69
398.35	1289.64
398.55	1177.29
398.74	1270.91
398.93	1217.08
399.12	1226.44
399.32	1212.40
399.51	1306.02
399.70	1352.83
399.90	1261.55
400.09	1341.13
400.28	1280.27
400.47	1254.53
400.67	1425.39
400.86	1362.19
401.05	1348.15
401.24	1352.83
401.44	1392.62
401.63	1476.88
401.82	1502.62
402.01	1418.36
402.21	1357.51
402.40	1394.96
402.59	1345.81
402.78	1516.67
402.97	1514.33
403.17	1469.86
403.36	1540.07
403.55	1526.03
403.74	1547.09
403.93	1507.30
404.13	1568.16
404.32	1570.50
404.51	1509.65
404.70	1523.69
404.89	1624.33
405.09	1680.50
405.28	1558.80
405.47	1603.27
405.66	1575.18
405.85	1722.63
406.05	1586.88
406.24	1643.06
406.43	1610.29
406.62	1734.34
406.81	1710.93
407.00	1762.42
407.20	1715.61
407.39	1694.55
407.58	1713.27
407.77	1783.49
407.96	1720.29
408.15	1846.68
408.34	1769.44
408.54	1785.83
408.73	1881.79
408.92	1853.70
409.11	1872.43
409.30	1877.11
409.49	1872.43
409.68	1851.36
409.87	1919.24
410.07	1898.17
410.26	1919.24
410.45	1942.64
410.64	2038.61
410.83	1919.24
411.02	1998.82
411.21	2094.78
411.40	2022.22
411.59	2157.97
411.78	2115.84
411.98	2073.71
412.17	2104.14
412.36	2249.25
412.55	2267.98
412.74	2239.89
412.93	2155.63
413.12	2202.44
413.31	2293.72
413.50	2197.76
413.69	2326.49
413.88	2305.43
414.07	2321.81
414.26	2293.72
414.45	2366.28
414.64	2413.09
414.83	2436.50
415.02	2408.41
415.22	2565.23
415.41	2441.18
415.60	2480.97
415.79	2588.63
415.98	2537.14
416.17	2663.53
416.36	2431.82
416.55	2693.96
416.74	2569.91
416.93	2656.51
417.12	2733.75
417.31	2661.19
417.50	2705.66
417.69	2614.38
417.88	2818.00
418.07	2764.17
418.26	2846.09
418.45	2867.16
418.64	2874.18
418.83	2935.03
419.02	2918.65
419.21	2918.65
419.39	2953.76
419.58	2953.76
419.77	3019.29
419.96	2960.78
420.15	3019.29
420.34	2995.89
420.53	3033.33
420.72	3061.42
420.91	3103.55
421.10	3042.70
421.29	3201.85
421.48	3091.85
421.67	3108.23
421.86	3035.67
422.05	3143.34
422.24	3197.17
422.43	3206.53
422.61	3173.77
422.80	3414.84
422.99	3258.03
423.18	3227.60
423.37	3307.18
423.56	3234.62
423.75	3302.50
423.94	3178.45
424.13	3112.91
424.32	3054.40
424.50	3103.55
424.69	3384.41
424.88	3417.18
425.07	3255.69
425.26	3204.19
425.45	3248.66
425.64	3192.49
425.83	3311.86
426.01	3297.81
426.20	3337.60
426.39	3328.24
426.58	3185.47
426.77	3353.99
426.96	3433.57
427.15	3478.04
427.33	3396.12
427.52	3361.01
427.71	3548.25
427.90	3431.23
428.09	3517.83
428.28	3550.59
428.46	3557.61
428.65	3386.76
428.84	3648.90
429.03	3541.23
429.22	3508.46
429.40	3541.23
429.59	3630.17
429.78	3513.14
429.97	3478.04
430.16	3510.80
430.34	3597.40
430.53	3754.22
430.72	3604.42
430.91	3648.90
431.10	3543.57
431.28	3681.66
431.47	3688.68
431.66	3751.88
431.85	3679.32
432.03	3803.37
432.22	3831.46
432.41	3880.61
432.60	3850.18
432.79	3751.88
432.97	3789.33
433.16	3953.16
433.35	3861.88
433.54	3918.06
433.72	3971.89
433.91	3964.87
434.10	3906.35
434.28	3941.46
434.47	4056.15
434.66	4018.70
434.85	4114.66
435.03	4035.08
435.22	4058.49
435.41	4182.54
435.59	4241.05
435.78	4035.08
435.97	4109.98
436.16	4065.51
436.34	4205.94
436.53	4271.48
436.72	4353.40
436.90	4145.09
437.09	4311.27
437.28	4147.43
437.46	4264.46
437.65	4458.72
437.84	4365.10
438.02	4332.33
438.21	4435.32
438.40	4308.93
438.58	4542.98
438.77	4575.75
438.96	4505.53
439.14	4547.66
439.33	4641.28
439.52	4575.75
439.70	4589.79
439.89	4662.35
440.08	4723.20
440.26	4858.95
440.45	4730.22
440.63	4786.40
440.82	4809.80
441.01	4833.21
441.19	4812.14
441.38	4861.29
441.57	5060.24
441.75	5076.62
441.94	5060.24
442.12	5116.41
442.31	5114.07
442.50	5097.69
442.68	5060.24
442.87	5114.07
443.05	5275.57
443.24	5247.48
443.43	5060.24
443.61	5210.03
443.80	5303.65
443.98	5247.48
444.17	5029.81
444.35	5090.67
444.54	5320.04
444.73	5355.15
444.91	5249.82
445.10	5277.91
445.28	5369.19
445.47	5224.08
445.65	5334.08
445.84	5343.44
446.02	5296.63
446.21	5462.81
446.39	5423.02
446.58	5357.49
446.77	5280.25
446.95	5177.26
447.14	5425.36
447.32	5359.83
447.51	5495.58
447.69	5364.51
447.88	5390.25
448.06	5322.38
448.25	5521.32
448.43	5542.39
448.62	5533.03
448.80	5408.98
448.99	5373.87
449.17	5514.30
449.36	5511.96
449.54	5612.60
449.73	5572.82
449.91	5795.17
450.10	5753.04
450.28	5827.93
450.46	5612.60
450.65	5757.72
450.83	5790.49
451.02	5640.69
451.20	5856.02
451.39	5795.17
451.57	5994.11
451.76	5769.42
451.94	5872.40
452.13	5914.53
452.31	5980.07
452.49	5783.46
452.68	5881.77
452.86	5912.19
453.05	6179.01
453.23	6113.48
453.42	5977.73
453.60	5956.66
453.78	6045.60
453.97	6038.58
454.15	6017.52
454.34	5970.71
454.52	6202.42
454.70	6207.10
454.89	6113.48
455.07	6377.96
455.26	6164.97
455.44	6305.40
455.62	6256.25
455.81	6443.49
455.99	6415.41
456.17	6272.64
456.36	6324.13
456.54	6387.32
456.73	6539.46
456.91	6775.85
457.09	6705.63
457.28	6750.10
457.46	6305.40
457.64	6846.07
457.83	6621.38
458.01	6509.03
458.19	6918.62
458.38	6677.55
458.56	6745.42
458.74	6806.28
458.93	6787.55
459.11	6913.94
459.29	6846.07
459.48	6853.09
459.66	6743.08
459.84	6913.94
460.03	6853.09
460.21	7059.06
460.39	7009.90
460.57	6836.70
460.76	7077.78
460.94	7110.55
461.12	7040.33
461.31	7007.56
461.49	7049.69
461.67	6970.12
461.85	7293.11
462.04	7283.75
462.22	7375.03
462.40	7286.09
462.59	7250.98
462.77	7192.47
462.95	7229.91
463.13	7194.81
463.32	7243.96
463.50	7389.07
463.68	7421.84
463.86	7475.67
464.05	7304.81
464.23	7426.52
464.41	7557.59
464.59	7342.26
464.78	7578.65
464.96	7487.37
465.14	7391.41
465.32	7637.17
465.50	7665.25
465.69	7566.95
465.87	7534.18
466.05	7529.50
466.23	7709.72
466.41	7630.15
466.60	7808.03
466.78	7646.53
466.96	7709.72
467.14	7676.96
467.32	7878.24
467.51	7885.26
467.69	7555.25
467.87	7859.52
468.05	7845.48
468.23	7868.88
468.41	7939.10
468.60	8046.76
468.78	7866.54
468.96	7936.76
469.14	8006.97
469.32	7978.89
469.50	8142.72
469.69	8116.98
469.87	8252.73
470.05	8182.51
470.23	8154.43
470.41	8372.10
470.59	8290.18
470.77	8341.67
470.95	8365.07
471.14	8451.67
471.32	8381.46
471.50	8386.14
471.68	8507.85
471.86	8552.32
472.04	8650.62
472.22	8777.01
472.40	8610.83
472.58	8678.71
472.77	8723.18
472.95	8781.69
473.13	9177.24
473.31	8940.85
473.49	8816.80
473.67	8854.25
473.85	8957.23
474.03	9022.77
474.21	9053.19
474.39	9125.75
474.57	9181.92
474.75	9462.79
474.93	9507.26
475.12	9252.14
475.30	9392.57
475.48	9399.59
475.66	9657.05
475.84	9598.54
476.02	9687.48
476.20	9650.03
476.38	9701.52
476.56	9916.85
476.74	10061.96
476.92	9895.78
477.10	9912.17
477.28	9970.68
477.46	10008.13
477.64	10265.59
477.82	10136.86
478.00	10651.78
478.18	10413.04
478.36	10574.54
478.54	10621.35
478.72	10590.92
478.90	10651.78
479.08	10991.16
479.26	10909.24
479.44	10775.83
479.62	10970.09
479.80	11140.95
479.98	11213.51
480.16	11438.20
480.34	11487.35
480.52	11321.17
480.70	11599.70
480.88	11360.96
481.06	11868.86
481.24	11777.58
481.41	11838.43
481.59	12140.36
481.77	11971.84
481.95	12081.85
482.13	12269.09
482.31	12093.55
482.49	12187.17
482.67	12505.48
482.85	12627.19
483.03	12636.55
483.21	12774.64
483.39	12924.44
483.57	12788.69
483.74	12996.99
483.92	13071.89
484.10	13128.06
484.28	13558.72
484.46	13532.98
484.64	13935.55
484.82	13706.18
485.00	13837.25
485.18	14033.85
485.35	14115.77
485.53	14328.76
485.71	13942.57
485.89	14558.13
486.07	14565.15
486.25	14368.55
486.43	14679.84
486.61	14853.04
486.78	14841.34
486.96	14930.28
487.14	15166.67
487.32	15159.65
487.50	15393.70
487.68	15166.67
487.85	15220.50
488.03	15681.59
488.21	16013.95
488.39	15981.18
488.57	16184.80
488.75	16037.35
488.92	16332.26
489.10	16334.60
489.28	16114.59
489.46	16622.48
489.64	16517.16
489.81	17111.66
489.99	16830.79
490.17	17020.38
490.35	17404.22
490.53	17324.65
490.70	17605.51
490.88	17537.63
491.06	17788.07
491.24	17645.30
491.41	18033.83
491.59	17869.99
491.77	18197.67
491.95	18359.16
492.13	18462.15
492.30	18602.58
492.48	18532.36
492.66	18504.28
492.84	18438.74
493.01	18485.55
493.19	19084.73
493.37	19035.58
493.54	19316.44
493.72	19417.08
493.90	19379.64
494.08	19522.41
494.25	19658.16
494.43	19777.53
494.61	20166.06
494.79	20013.92
494.96	20109.88
495.14	19826.68
495.32	20411.81
495.49	20205.84
495.67	20374.36
495.85	20372.02
496.02	20863.54
496.20	20996.95
496.38	21118.65
496.55	20950.14
496.73	21673.36
496.91	21200.57
497.09	21383.13
497.26	21514.20
497.44	21741.24
497.62	21652.30
497.79	21986.99
497.97	21701.45
498.14	22178.92
498.32	22345.09
498.50	22195.30
498.67	22642.34
498.85	22424.67
499.03	22539.36
499.20	22717.24
499.38	22593.19
499.56	22984.06
499.73	22862.35
499.91	23068.32
500.08	23274.29
500.26	22937.25
500.44	23248.54
500.61	23459.19
500.79	23403.02
500.97	23623.03
501.14	23957.72
501.32	23496.64
501.49	23936.66
501.67	23887.51
501.84	23880.49
502.02	23922.62
502.20	24203.48
502.37	24294.76
502.55	24269.01
502.72	24144.97
502.90	24170.71
503.07	23971.77
503.25	24680.95
503.43	24390.72
503.60	24617.75
503.78	24603.71
503.95	24919.68
504.13	24961.81
504.30	25111.61
504.48	24989.90
504.65	25399.49
504.83	25553.97
505.01	25380.77
505.18	25553.97
505.36	25483.75
505.53	25804.41
505.71	25703.76
505.88	25598.44
506.06	25436.94
506.23	26129.74
506.41	25823.13
506.58	26204.64
506.76	26375.50
506.93	26328.69
507.11	26340.39
507.28	26309.96
507.46	26441.03
507.63	26335.71
507.81	26541.68
507.98	26623.59
508.16	26916.16
508.33	26607.21
508.50	26960.63
508.68	26796.79
508.85	27253.20
509.03	27145.53
509.20	27353.84
509.38	27419.38
509.55	27407.67
509.73	27665.13
509.90	27559.81
510.08	27491.93
510.25	27651.09
510.42	27845.35
510.60	28301.76
510.77	27498.95
510.95	28280.69
511.12	28294.74
511.30	28058.34
511.47	28002.17
511.64	28364.95
511.82	28360.27
511.99	28496.02
512.17	28444.53
512.34	28437.51
512.51	28912.64
512.69	29036.69
512.86	29081.16
513.04	28999.24
513.21	28814.34
513.38	29425.22
513.56	29172.44
513.73	29266.06
513.90	29139.67
514.08	29460.32
514.25	29687.36
514.43	29486.07
514.60	29666.29
514.77	29355.00
514.95	29869.92
515.12	29565.65
515.29	29633.52
515.47	30298.23
515.64	29986.94
515.81	30258.45
515.99	30029.07
516.16	30272.49
516.33	29930.77
516.51	30129.72
516.68	30143.76
516.85	30710.17
517.03	30375.47
517.20	30623.57
517.37	30824.86
517.54	30874.01
517.72	30930.18
517.89	30621.23
518.06	31026.14
518.24	31110.40
518.41	31033.16
518.58	31094.02
518.75	30953.58
518.93	31569.15
519.10	31239.13
519.27	31225.09
519.45	31257.85
519.62	31714.26
519.79	31840.65
519.96	31562.12
520.14	31665.11
520.31	31761.07
520.48	32297.05
520.65	31655.75
520.83	32187.05
521.00	32627.07
521.17	32187.05
521.34	32273.65
521.52	32231.52
521.69	32191.73
521.86	32694.94
522.03	32584.94
522.20	32641.11
522.38	32877.51
522.55	32957.08
522.72	32842.40
522.89	33160.71
523.07	32833.04
523.24	32795.59
523.41	32919.63
523.58	33219.22
523.75	33001.55
523.92	33303.48
524.10	33511.79
524.27	33324.55
524.44	33310.50
524.61	33584.35
524.78	33558.60
524.96	33783.29
525.13	34188.21
525.30	33890.96
525.47	33869.89
525.64	33996.28
525.81	34508.86
525.98	34162.46
526.16	34085.22
526.33	34157.78
526.50	34335.66
526.67	34244.38
526.84	34675.04
527.01	34316.93
527.18	34693.76
527.36	34267.78
527.53	34440.98
527.70	34754.61
527.87	34572.05
528.04	34785.04
528.21	34668.02
528.38	34785.04
528.55	34946.54
528.72	35093.99
528.89	35143.14
529.07	34831.85
529.24	34897.39
529.41	34909.09
529.58	35136.12
529.75	34813.13
529.92	35356.13
530.09	35189.95
530.26	35133.78
530.43	35646.36
530.60	35072.93
530.77	35510.61
530.94	35239.11
531.11	35559.76
531.28	35454.44
531.46	35857.01
531.63	35859.35
531.80	35501.25
531.97	35943.61
532.14	36196.38
532.31	35721.26
532.48	36168.30
532.65	35742.32
532.82	36201.07
532.99	36481.93
533.16	35651.04
533.33	36568.53
533.50	36383.63
533.67	36294.69
533.84	36032.55
534.01	36659.81
534.18	36332.14
534.35	36708.96
534.52	36666.83
534.69	36926.63
534.86	36830.67
535.03	36631.72
535.20	37132.60
535.37	36734.71
535.54	36872.80
535.71	37088.13
535.88	37048.34
536.05	36605.98
536.22	37394.74
536.38	37228.56
536.55	36999.19
536.72	37055.36
536.89	37483.68
537.06	37418.14
537.23	37837.10
537.40	37163.03
537.57	37244.94
537.74	37696.67
537.91	37720.07
538.08	37338.57
538.25	37256.65
538.42	37750.50
538.59	37773.91
538.75	37673.26
538.92	38071.15
539.09	38490.11
539.26	38153.07
539.43	38026.68
539.60	37624.11
539.77	37954.13
539.94	38445.64
540.11	38153.07
540.28	38307.55
540.44	38443.30
540.61	38429.26
540.78	38476.07
540.95	38066.47
541.12	38216.27
541.29	38265.42
541.46	38277.12
541.62	38576.71
541.79	38768.63
541.96	38185.84
542.13	38143.71
542.30	38459.68
542.47	38607.14
542.63	38742.89
542.80	39028.43
542.97	39290.57
543.14	38873.96
543.31	39215.68
543.48	39264.83
543.64	39576.12
543.81	39566.76
543.98	39438.03
544.15	39517.60
544.32	39934.22
544.48	39812.51
544.65	39468.45
544.82	39468.45
544.99	39271.85
545.16	40210.40
545.32	39512.92
545.49	39908.47
545.66	40067.63
545.83	39966.99
546.00	40114.44
546.16	40023.16
546.33	40184.66
546.50	39943.58
546.67	40425.73
546.83	39732.93
547.00	39445.05
547.17	39896.77
547.34	40100.40
547.50	40217.43
547.67	40559.14
547.84	40121.46
548.00	40299.34
548.17	40755.75
548.34	40481.91
548.51	40776.81
548.67	40840.01
548.84	40390.62
549.01	40395.31
549.18	40863.41
549.34	40957.03
549.51	40776.81
549.68	40975.76
549.84	40987.46
550.01	41212.15
550.18	40744.05
550.34	40940.65
550.51	41207.47
550.68	40996.82
550.84	40961.72
551.01	41106.83
551.18	41008.53
551.34	41436.84
551.51	41612.38
551.68	41109.17
551.84	41418.12
552.01	41151.30
552.18	41069.38
552.34	41158.32
552.51	41766.86
552.68	41038.95
552.84	41134.92
553.01	41537.49
553.18	41277.69
553.34	41432.16
553.51	41537.49
553.67	41493.02
553.84	41874.52
554.01	41743.45
554.17	41883.89
554.34	41722.39
554.51	41759.84
554.67	41970.49
554.84	41888.57
555.00	41642.81
555.17	41734.09
555.33	42195.18
555.50	41867.50
555.67	41677.92
555.83	42047.72
556.00	41848.78
556.16	42272.42
556.33	42101.56
556.50	42024.32
556.66	42550.94
556.83	41909.63
556.99	42344.97
557.16	42946.49
557.32	42335.61
557.49	43019.05
557.65	41972.83
557.82	42305.18
557.98	42141.35
558.15	42258.37
558.32	42728.82
558.48	42412.85
558.65	42581.37
558.81	42838.83
558.98	42630.52
559.14	42602.43
559.31	43131.39
559.47	42916.06
559.64	42682.01
559.80	42607.11
559.97	42887.98
560.13	42480.72
560.30	42590.73
560.46	43292.89
560.63	43037.77
560.79	42714.78
560.96	43157.14
561.12	43217.99
561.29	42930.11
561.45	43386.51
561.61	43206.29
561.78	42880.95
561.94	42782.65
562.11	43100.97
562.27	43023.73
562.44	43267.14
562.60	43641.63
562.77	43077.56
562.93	43063.52
563.10	43620.56
563.26	43210.97
563.42	43503.54
563.59	43091.60
563.75	43133.73
563.92	43730.57
564.08	43281.19
564.24	43646.31
564.41	43370.13
564.57	43480.13
564.74	43243.74
564.90	43386.51
565.07	43150.12
565.23	43311.61
565.39	43311.61
565.56	43604.18
565.72	43601.84
565.88	43419.28
566.05	43487.15
566.21	43571.41
566.38	43632.27
566.54	43742.27
566.70	43779.72
566.87	43608.86
567.03	43498.86
567.19	43391.19
567.36	43943.56
567.52	43374.81
567.68	43814.83
567.85	43491.83
568.01	43927.17
568.17	43555.03
568.34	43805.47
568.50	43978.67
568.66	43826.53
568.83	43779.72
568.99	43674.40
569.15	43665.03
569.32	43239.06
569.48	43749.29
569.64	44364.85
569.81	44208.04
569.97	44406.98
570.13	44048.88
570.30	43229.69
570.46	44196.34
570.62	44006.75
570.78	44158.89
570.95	43676.74
571.11	44226.76
571.27	43517.58
571.43	43592.48
571.60	43828.87
571.76	43765.68
571.92	43793.76
572.09	43587.80
572.25	43674.40
572.41	44112.08
572.57	43903.77
572.74	44128.46
572.90	44215.06
573.06	44273.57
573.22	44343.79
573.38	44601.25
573.55	43737.59
573.71	44570.82
573.87	44318.04
574.03	44399.96
574.20	44201.02
574.36	43873.34
574.52	44142.50
574.68	44280.60
574.84	44357.83
575.01	44837.64
575.17	44065.27
575.33	44327.41
575.49	44362.51
575.65	44664.44
575.82	44182.29
575.98	44039.52
576.14	44729.98
576.30	44659.76
576.46	44107.40
576.62	44240.81
576.79	44105.06
576.95	43950.58
577.11	43988.03
577.27	44161.23
577.43	44837.64
577.59	44081.65
577.75	44004.41
577.92	44196.34
578.08	43962.28
578.24	44753.38
578.40	44296.98
578.56	44325.07
578.72	44577.84
578.88	44243.15
579.04	44130.80
579.21	44388.26
579.37	44694.87
579.53	44411.67
579.69	44339.11
579.85	44119.10
580.01	44294.64
580.17	44535.71
580.33	44861.05
580.49	44130.80
580.65	44882.11
580.82	44313.36
580.98	44172.93
581.14	43852.28
581.30	44580.18
581.46	44325.07
581.62	44411.67
581.78	44465.50
581.94	44418.69
582.10	44083.99
582.26	44821.26
582.42	44879.77
582.58	44849.35
582.74	44601.25
582.90	44385.92
583.06	44760.40
583.22	44467.84
583.38	44547.42
583.54	44847.00
583.70	44182.29
583.86	44528.69
584.02	44603.59
584.18	45041.27
584.34	44772.11
584.50	44896.16
584.66	44779.13
584.82	44617.63
584.98	44662.10
585.14	44729.98
585.30	44645.72
585.46	44575.50
585.62	44243.15
585.78	44634.02
585.94	44268.89
586.10	44718.28
586.26	43831.21
586.42	44383.58
586.58	44662.10
586.74	45020.20
586.90	44404.64
587.06	44411.67
587.22	45111.49
587.38	44655.08
587.54	44975.73
587.70	44568.48
587.86	44610.61
588.02	44758.06
588.18	44680.83
588.34	44809.56
588.49	44624.65
588.65	44540.39
588.81	44905.52
588.97	45029.57
589.13	44479.54
589.29	44329.75
589.45	45015.52
589.61	44959.35
589.77	44973.39
589.93	45165.32
590.08	45076.38
590.24	45137.23
