SpectraSuite Data File
++++++++++++++++++++++++++++++++++++
Date: Fri Oct 25 11:34:33 EDT 2013
User: price-jones
Dark Spectrum Present: No
Reference Spectrum Present: No
Number of Sampled Component Spectra: 1
Spectrometers: USB2+H05261
Integration Time (usec): 100000 (USB2+H05261)
Spectra Averaged: 1 (USB2+H05261)
Boxcar Smoothing: 0 (USB2+H05261)
Correct for Electrical Dark: No (USB2+H05261)
Strobe/Lamp Enabled: No (USB2+H05261)
Correct for Detector Non-linearity: No (USB2+H05261)
Correct for Stray Light: No (USB2+H05261)
Number of Pixels in Processed Spectrum: 2048
>>>>>Begin Processed Spectral Data<<<<<
365.73	320.65
365.92	320.65
366.12	320.65
366.32	238.73
366.52	220.01
366.72	184.90
366.91	128.73
367.11	86.60
367.31	224.69
367.51	210.65
367.70	163.84
367.90	194.26
368.10	220.01
368.30	182.56
368.49	189.58
368.69	252.78
368.89	241.08
369.09	280.86
369.28	236.39
369.48	198.95
369.68	227.03
369.87	259.80
370.07	217.67
370.27	224.69
370.47	313.63
370.66	416.62
370.86	505.56
371.06	552.37
371.25	528.96
371.45	596.84
371.65	615.56
371.84	566.41
372.04	528.96
372.24	561.73
372.44	615.56
372.63	606.20
372.83	653.01
373.03	578.11
373.22	561.73
373.42	566.41
373.62	702.16
373.81	580.45
374.01	662.37
374.21	718.54
374.40	638.97
374.60	594.50
374.79	547.69
374.99	571.09
375.19	669.39
375.38	645.99
375.58	634.29
375.78	683.44
375.97	697.48
376.17	751.31
376.37	674.07
376.56	643.65
376.76	624.92
376.95	643.65
377.15	608.54
377.35	678.76
377.54	671.73
377.74	664.71
377.93	690.46
378.13	678.76
378.33	636.63
378.52	660.03
378.72	779.40
378.91	662.37
379.11	653.01
379.31	702.16
379.50	716.20
379.70	678.76
379.89	758.33
380.09	744.29
380.28	690.46
380.48	720.88
380.68	734.93
380.87	723.23
381.07	765.36
381.26	828.55
381.46	805.14
381.65	765.36
381.85	765.36
382.04	770.04
382.24	741.95
382.43	723.23
382.63	791.10
382.83	805.14
383.02	718.54
383.22	844.93
383.41	765.36
383.61	793.44
383.80	814.51
384.00	779.40
384.19	842.59
384.39	816.85
384.58	816.85
384.78	760.67
384.97	770.04
385.17	760.67
385.36	770.04
385.56	802.80
385.75	798.12
385.95	823.87
386.14	800.46
386.34	772.38
386.53	919.83
386.72	889.40
386.92	837.91
387.11	856.64
387.31	905.79
387.50	788.76
387.70	875.36
387.89	833.23
388.09	882.38
388.28	800.46
388.48	891.74
388.67	889.40
388.86	856.64
389.06	947.92
389.25	957.28
389.45	926.85
389.64	945.58
389.84	980.68
390.03	774.72
390.22	952.60
390.42	891.74
390.61	830.89
390.81	929.19
391.00	931.53
391.19	983.02
391.39	915.15
391.58	980.68
391.78	945.58
391.97	971.32
392.16	985.37
392.36	1076.65
392.55	952.60
392.75	999.41
392.94	1067.28
393.13	968.98
393.33	929.19
393.52	1027.50
393.71	1048.56
393.91	1067.28
394.10	1107.07
394.29	1029.84
394.49	1067.28
394.68	1100.05
394.88	1048.56
395.07	1116.44
395.26	1069.62
395.46	1139.84
395.65	1156.22
395.84	1259.21
396.04	1160.91
396.23	1146.86
396.42	1146.86
396.62	1109.41
396.81	1107.07
397.00	1228.78
397.19	1219.42
397.39	1146.86
397.58	1172.61
397.77	1132.82
397.97	1142.18
398.16	1233.46
398.35	1226.44
398.55	1226.44
398.74	1214.74
398.93	1282.61
399.12	1198.35
399.32	1240.48
399.51	1341.13
399.70	1310.70
399.90	1247.51
400.09	1270.91
400.28	1317.72
400.47	1308.36
400.67	1385.60
400.86	1352.83
401.05	1350.49
401.24	1434.75
401.44	1469.86
401.63	1399.64
401.82	1409.00
402.01	1401.98
402.21	1411.34
402.40	1432.41
402.59	1497.94
402.78	1430.07
402.97	1486.24
403.17	1434.75
403.36	1462.83
403.55	1537.73
403.74	1577.52
403.93	1582.20
404.13	1507.30
404.32	1547.09
404.51	1551.78
404.70	1640.72
404.89	1483.90
405.09	1650.08
405.28	1612.63
405.47	1654.76
405.66	1696.89
405.85	1685.19
406.05	1551.78
406.24	1734.34
406.43	1544.75
406.62	1774.13
406.81	1699.23
407.00	1696.89
407.20	1762.42
407.39	1673.48
407.58	1846.68
407.77	1771.79
407.96	1757.74
408.15	1776.47
408.34	1813.92
408.54	1891.15
408.73	1895.83
408.92	1914.56
409.11	1940.30
409.30	1870.09
409.49	1872.43
409.68	1940.30
409.87	1966.05
410.07	1937.96
410.26	1984.77
410.45	2026.90
410.64	2003.50
410.83	2057.33
411.02	2073.71
411.21	1982.43
411.40	2104.14
411.59	2052.65
411.78	2057.33
411.98	2012.86
412.17	2139.25
412.36	2160.31
412.55	2282.02
412.74	2221.17
412.93	2221.17
413.12	2186.06
413.31	2298.41
413.50	2263.30
413.69	2399.05
413.88	2368.62
414.07	2380.32
414.26	2420.11
414.45	2450.54
414.64	2459.90
414.83	2445.86
415.02	2438.84
415.22	2553.52
415.41	2492.67
415.60	2649.49
415.79	2537.14
415.98	2619.06
416.17	2565.23
416.36	2630.76
416.55	2565.23
416.74	2612.04
416.93	2679.91
417.12	2731.41
417.31	2686.94
417.50	2752.47
417.69	2808.64
417.88	2970.14
418.07	2785.24
418.26	2883.54
418.45	2768.85
418.64	2897.58
418.83	2935.03
419.02	2951.42
419.21	2913.97
419.39	3059.08
419.58	2909.29
419.77	2932.69
419.96	2967.80
420.15	3066.10
420.34	3040.36
420.53	3077.80
420.72	3047.38
420.91	3045.04
421.10	3185.47
421.29	3171.43
421.48	3023.97
421.67	3096.53
421.86	3101.21
422.05	3091.85
422.24	3169.09
422.43	3084.83
422.61	3133.98
422.80	3290.79
422.99	3166.74
423.18	3351.65
423.37	3269.73
423.56	3260.37
423.75	3229.94
423.94	3173.77
424.13	2949.08
424.32	3117.59
424.50	3232.28
424.69	3433.57
424.88	3400.80
425.07	3300.16
425.26	3194.83
425.45	3253.34
425.64	3267.39
425.83	3325.90
426.01	3407.82
426.20	3349.31
426.39	3283.77
426.58	3410.16
426.77	3353.99
426.96	3480.38
427.15	3332.92
427.33	3398.46
427.52	3456.97
427.71	3391.44
427.90	3405.48
428.09	3522.51
428.28	3456.97
428.46	3522.51
428.65	3576.34
428.84	3639.53
429.03	3571.66
429.22	3520.17
429.40	3588.04
429.59	3627.83
429.78	3541.23
429.97	3524.85
430.16	3730.81
430.34	3648.90
430.53	3667.62
430.72	3716.77
430.91	3747.20
431.10	3688.68
431.28	3634.85
431.47	3882.95
431.66	3768.26
431.85	3808.05
432.03	3794.01
432.22	3918.06
432.41	3995.29
432.60	3978.91
432.79	3845.50
432.97	4025.72
433.16	4011.68
433.35	3948.48
433.54	3943.80
433.72	4009.34
433.91	3918.06
434.10	3985.93
434.28	4058.49
434.47	4058.49
434.66	4074.87
434.85	4140.41
435.03	4114.66
435.22	4100.62
435.41	4241.05
435.59	4189.56
435.78	4339.35
435.97	4273.82
436.16	4079.55
436.34	4173.18
436.53	4332.33
436.72	4365.10
436.90	4365.10
437.09	4332.33
437.28	4180.20
437.46	4329.99
437.65	4306.59
437.84	4245.73
438.02	4421.27
438.21	4425.95
438.40	4294.88
438.58	4552.34
438.77	4641.28
438.96	4573.41
439.14	4594.47
439.33	4650.64
439.52	4585.11
439.70	4788.74
439.89	4809.80
440.08	4870.65
440.26	4723.20
440.45	4823.84
440.63	4901.08
440.82	4954.91
441.01	4947.89
441.19	4975.98
441.38	5142.16
441.57	5076.62
441.75	5078.96
441.94	5296.63
442.12	5303.65
442.31	5111.73
442.50	5210.03
442.68	5181.95
442.87	5263.86
443.05	5320.04
443.24	5275.57
443.43	5301.31
443.61	5207.69
443.80	5320.04
443.98	5303.65
444.17	5123.43
444.35	5315.36
444.54	5406.64
444.73	5217.05
444.91	5355.15
445.10	5366.85
445.28	5441.75
445.47	5305.99
445.65	5385.57
445.84	5256.84
446.02	5313.02
446.21	5460.47
446.39	5315.36
446.58	5355.15
446.77	5423.02
446.95	5359.83
447.14	5486.22
447.32	5607.92
447.51	5591.54
447.69	5448.77
447.88	5542.39
448.06	5493.24
448.25	5523.66
448.43	5453.45
448.62	5495.58
448.80	5453.45
448.99	5547.07
449.17	5507.28
449.36	5621.97
449.54	5668.78
449.73	5940.28
449.91	5776.44
450.10	5755.38
450.28	5809.21
450.46	5841.98
450.65	5832.62
450.83	5804.53
451.02	5872.40
451.20	6094.76
451.39	5792.83
451.57	5792.83
451.76	5825.59
451.94	5991.77
452.13	6047.94
452.31	6225.82
452.49	5909.85
452.68	5987.09
452.86	6111.14
453.05	6087.73
453.23	5977.73
453.42	5991.77
453.60	5909.85
453.78	6218.80
453.97	6171.99
454.15	6094.76
454.34	6176.67
454.52	6263.27
454.70	6179.01
454.89	6209.44
455.07	6392.00
455.26	6265.61
455.44	6237.53
455.62	6401.37
455.81	6237.53
455.99	6459.88
456.17	6342.85
456.36	6490.31
456.54	6562.86
456.73	6747.76
456.91	6623.72
457.09	6649.46
457.28	6754.79
457.46	6658.82
457.64	6750.10
457.83	6736.06
458.01	6693.93
458.19	6815.64
458.38	6736.06
458.56	6986.50
458.74	6953.73
458.93	6803.94
459.11	7040.33
459.29	6747.76
459.48	6918.62
459.66	6937.35
459.84	7077.78
460.03	7143.32
460.21	7059.06
460.39	7014.59
460.57	7023.95
460.76	7012.24
460.94	7157.36
461.12	7199.49
461.31	7236.94
461.49	7124.59
461.67	7208.85
461.85	7183.10
462.04	7162.04
462.22	7756.54
462.40	7335.24
462.59	7353.96
462.77	7414.82
462.95	7602.06
463.13	7485.03
463.32	7470.99
463.50	7396.09
463.68	7616.10
463.86	7564.61
464.05	7344.60
464.23	7445.24
464.41	7611.42
464.59	7463.97
464.78	7726.11
464.96	7730.79
465.14	7571.63
465.32	7667.60
465.50	7810.37
465.69	7658.23
465.87	7686.32
466.05	7669.94
466.23	7789.30
466.41	7861.86
466.60	7892.29
466.78	7789.30
466.96	7875.90
467.14	7836.11
467.32	7967.18
467.51	7934.42
467.69	7920.37
467.87	7906.33
468.05	7791.64
468.23	7833.77
468.41	8081.87
468.60	8032.72
468.78	8004.63
468.96	8147.40
469.14	8086.55
469.32	8184.85
469.50	7985.91
469.69	8407.20
469.87	8524.23
470.05	8336.99
470.23	8442.31
470.41	8334.65
470.59	8538.27
470.77	8519.55
470.95	8442.31
471.14	8554.66
471.32	8484.44
471.50	8498.49
471.68	8554.66
471.86	8730.20
472.04	8613.17
472.22	8833.18
472.40	8786.37
472.58	9092.98
472.77	8891.70
472.95	8933.82
473.13	9088.30
473.31	8793.39
473.49	9027.45
473.67	9008.72
473.85	9242.78
474.03	9336.40
474.21	9226.39
474.39	9298.95
474.57	9376.19
474.75	9451.08
474.93	9404.27
475.12	9673.43
475.30	9231.07
475.48	9516.62
475.66	9610.24
475.84	9664.07
476.02	9708.54
476.20	9738.97
476.38	9956.64
476.56	10012.81
476.74	10204.74
476.92	9954.30
477.10	10054.94
477.28	10218.78
477.46	10317.08
477.64	10356.87
477.82	10441.13
478.00	10640.08
478.18	10682.20
478.36	10593.26
478.54	10860.09
478.72	10773.49
478.90	10911.58
479.08	10906.90
479.26	11110.52
479.44	11000.52
479.62	11307.13
479.80	11300.11
479.98	11276.70
480.16	11639.48
480.34	11466.28
480.52	11576.29
480.70	11679.27
480.88	11461.60
481.06	11796.30
481.24	11943.75
481.41	11932.05
481.59	11875.88
481.77	12208.23
481.95	12369.73
482.13	12439.95
482.31	12601.44
482.49	12655.28
482.67	12629.53
482.85	12898.69
483.03	12924.44
483.21	13046.15
483.39	13195.94
483.57	12945.50
483.74	13123.38
483.92	13385.52
484.10	13212.32
484.28	13645.32
484.46	13848.95
484.64	14031.51
484.82	13689.79
485.00	14115.77
485.18	14183.65
485.35	14675.16
485.53	14368.55
485.71	14438.76
485.89	14733.67
486.07	14626.01
486.25	14822.61
486.43	14658.78
486.61	15049.64
486.78	15173.69
486.96	15211.14
487.14	15346.89
487.32	15377.32
487.50	15232.21
487.68	15695.63
487.85	15803.30
488.03	16119.27
488.21	16236.30
488.39	16145.02
488.57	16479.71
488.75	16563.97
488.92	16460.99
489.10	16837.81
489.28	16650.57
489.46	16835.47
489.64	16989.95
489.81	17266.13
489.99	17469.76
490.17	17219.32
490.35	17572.74
490.53	17570.40
490.70	17858.29
490.88	17844.24
491.06	17788.07
491.24	17867.65
491.41	18176.60
491.59	18452.78
491.77	18408.31
491.95	18202.35
492.13	18726.63
492.30	18778.12
492.48	19075.37
492.66	19094.09
492.84	18780.46
493.01	19096.43
493.19	19012.17
493.37	19524.75
493.54	19494.32
493.72	19569.22
493.90	19644.12
494.08	19641.78
494.25	19971.79
494.43	20004.56
494.61	20348.62
494.79	20435.22
494.96	20135.63
495.14	20498.41
495.32	20751.19
495.49	20486.71
495.67	20697.36
495.85	20823.75
496.02	21205.25
496.20	21259.09
496.38	21223.98
496.55	21350.37
496.73	21664.00
496.91	21586.76
497.09	21528.25
497.26	21727.19
497.44	21837.20
497.62	21727.19
497.79	22232.75
497.97	22359.14
498.14	22286.58
498.32	22403.61
498.50	22462.12
498.67	22738.30
498.85	22843.63
499.03	23197.05
499.20	23000.44
499.38	22960.66
499.56	23157.26
499.73	23241.52
499.91	23091.73
500.08	23487.28
500.26	23452.17
500.44	23484.94
500.61	23791.55
500.79	23573.88
500.97	23931.98
501.14	23950.70
501.32	23936.66
501.49	24137.94
501.67	24144.97
501.84	24575.62
502.02	24051.34
502.20	24308.80
502.37	24290.08
502.55	24505.41
502.72	24631.80
502.90	25029.69
503.07	24638.82
503.25	24851.81
503.43	24746.48
503.60	25099.90
503.78	25062.46
503.95	25228.63
504.13	25198.21
504.30	25158.42
504.48	25256.72
504.65	25617.16
504.83	25563.33
505.01	25568.01
505.18	25837.17
505.36	26008.03
505.53	25909.73
505.71	26120.38
505.88	26094.63
506.06	26352.09
506.23	26286.56
506.41	26075.91
506.58	26387.20
506.76	26569.76
506.93	26834.24
507.11	26483.16
507.28	26850.63
507.46	26979.36
507.63	27019.14
507.81	27379.59
507.98	26789.77
508.16	27204.05
508.33	27220.43
508.50	27084.68
508.68	27377.25
508.85	27480.23
509.03	27173.62
509.20	27524.70
509.38	27938.97
509.55	27744.71
509.73	28051.32
509.90	27742.37
510.08	27704.92
510.25	28074.73
510.42	27967.06
510.60	28119.20
510.77	28489.00
510.95	28620.07
511.12	28238.56
511.30	28079.41
511.47	28388.36
511.64	28795.61
511.82	29142.01
511.99	28617.73
512.17	28716.03
512.34	29027.32
512.51	29305.85
512.69	29544.58
512.86	29322.23
513.04	29472.03
513.21	29378.40
513.38	29338.62
513.56	29385.43
513.73	29507.13
513.90	29694.38
514.08	29530.54
514.25	29926.09
514.43	29993.97
514.60	29895.66
514.77	29933.11
514.95	30267.81
515.12	30129.72
515.29	30068.86
515.47	30412.92
515.64	30565.06
515.81	30232.70
515.99	30363.77
516.16	31049.55
516.33	30878.69
516.51	30993.37
516.68	30656.34
516.85	30852.94
517.03	30749.96
517.20	31332.75
517.37	31094.02
517.54	31182.96
517.72	31112.74
517.89	31222.75
518.06	31194.66
518.24	31417.01
518.41	31370.20
518.58	31541.06
518.75	31372.54
518.93	31751.71
519.10	31882.78
519.27	31651.06
519.45	31777.45
519.62	32112.15
519.79	32432.80
519.96	32006.83
520.14	31981.08
520.31	31997.46
520.48	32182.37
520.65	32474.93
520.83	33046.02
521.00	32701.96
521.17	32320.46
521.34	32865.80
521.52	32816.65
521.69	33177.09
521.86	33085.81
522.03	33127.94
522.20	33188.80
522.38	33668.61
522.55	33186.46
522.72	33528.17
522.89	33242.63
523.07	33429.87
523.24	33715.42
523.41	33649.88
523.58	33263.69
523.75	33710.74
523.92	33649.88
524.10	33907.34
524.27	34213.95
524.44	33848.83
524.61	33909.68
524.78	34162.46
524.96	34452.69
525.13	34146.08
525.30	34562.69
525.47	34609.50
525.64	34110.97
525.81	34506.52
525.98	34724.19
526.16	34679.72
526.33	34885.68
526.50	34778.02
526.67	34726.53
526.84	34691.42
527.01	34986.33
527.18	34895.05
527.36	34983.99
527.53	35358.47
527.70	35335.07
527.87	35421.67
528.04	35236.77
528.21	34958.24
528.38	35742.32
528.55	35157.19
528.72	35332.73
528.89	35599.55
529.07	35477.84
529.24	35112.72
529.41	35468.48
529.58	35793.81
529.75	35475.50
529.92	35906.16
530.09	35800.83
530.26	36025.53
530.43	35730.62
530.60	35538.69
530.77	35751.68
530.94	36299.37
531.11	36154.26
531.28	35934.24
531.46	36364.90
531.63	36053.61
531.80	36591.94
531.97	36301.71
532.14	36371.92
532.31	36545.12
532.48	36966.42
532.65	36833.01
532.82	36816.63
532.99	37177.07
533.16	36701.94
533.33	36938.33
533.50	36945.36
533.67	37050.68
533.84	36739.39
534.01	36664.49
534.18	37394.74
534.35	37350.27
534.52	37177.07
534.69	37380.70
534.86	37071.75
535.03	37324.52
535.20	37310.48
535.37	37329.20
535.54	37977.53
535.71	37862.85
535.88	37689.65
536.05	37603.05
536.22	37544.53
536.38	37661.56
536.55	38197.54
536.72	37778.59
536.89	37715.39
537.06	37865.19
537.23	38148.39
537.40	37820.72
537.57	38134.35
537.74	37813.70
537.91	38293.50
538.08	38363.72
538.25	37951.79
538.42	38199.88
538.59	38600.12
538.75	38614.16
538.92	38653.95
539.09	38429.26
539.26	38199.88
539.43	38529.90
539.60	38836.51
539.77	38628.20
539.94	38974.60
540.11	38906.73
540.28	39203.97
540.44	38675.01
540.61	39023.75
540.78	38700.76
540.95	38630.54
541.12	38932.47
541.29	39063.54
541.46	39185.25
541.62	39318.66
541.79	39288.23
541.96	38895.02
542.13	39335.04
542.30	39199.29
542.47	39342.06
542.63	39227.38
542.80	39882.73
542.97	39477.82
543.14	39847.62
543.31	39377.17
543.48	39543.35
543.64	40292.32
543.81	40095.72
543.98	40147.21
544.15	39929.54
544.32	39997.41
544.48	40191.68
544.65	39927.20
544.82	40451.48
544.99	40133.17
545.16	40074.65
545.32	40488.93
545.49	41071.72
545.66	40737.02
545.83	40912.56
546.00	40488.93
546.16	40598.93
546.33	40643.40
546.50	40744.05
546.67	40893.84
546.83	40484.25
547.00	40268.92
547.17	40112.10
547.34	40189.34
547.50	41069.38
547.67	41134.92
547.84	40627.02
548.00	41057.68
548.17	41287.05
548.34	41263.64
548.51	41701.32
548.67	41729.41
548.84	41146.62
549.01	41375.99
549.18	41148.96
549.34	41366.63
549.51	41521.10
549.68	41085.76
549.84	41076.40
550.01	41170.02
550.18	41647.49
550.34	41462.59
550.51	41500.04
550.68	41799.63
550.84	41352.58
551.01	41963.46
551.18	41581.96
551.34	41635.79
551.51	41610.04
551.68	41652.17
551.84	41766.86
552.01	41839.42
552.18	41673.24
552.34	41895.59
552.51	41893.25
552.68	42050.06
552.84	41984.53
553.01	41734.09
553.18	42550.94
553.34	42349.65
553.51	42073.47
553.67	42110.92
553.84	42232.63
554.01	42408.17
554.17	42323.91
554.34	42387.10
554.51	42356.67
554.67	42525.19
554.84	42665.63
555.00	42766.27
555.17	42017.30
555.33	42670.31
555.50	42703.07
555.67	42382.42
555.83	42628.18
556.00	42354.33
556.16	43056.50
556.33	43023.73
556.50	42724.14
556.66	42557.96
556.83	42457.32
556.99	43210.97
557.16	42651.58
557.32	42967.55
557.49	43313.95
557.65	42354.33
557.82	42834.14
557.98	42934.79
558.15	42990.96
558.32	42768.61
558.48	42843.51
558.65	43180.54
558.81	43377.15
558.98	43171.18
559.14	42916.06
559.31	42660.94
559.47	43264.80
559.64	44137.82
559.80	43295.23
559.97	43241.40
560.13	43009.68
560.30	42799.04
560.46	43138.41
560.63	43643.97
560.79	43721.21
560.96	43639.29
561.12	43695.46
561.29	43339.70
561.45	43920.15
561.61	43489.49
561.78	43646.31
561.94	43704.82
562.11	43522.26
562.27	43842.92
562.44	43519.92
562.60	43859.30
562.77	43578.43
562.93	43503.54
563.10	44203.36
563.26	43470.77
563.42	44217.40
563.59	43658.01
563.75	44161.23
563.92	43634.61
564.08	43576.09
564.24	44161.23
564.41	43814.83
564.57	43863.98
564.74	43522.26
564.90	43627.59
565.07	44172.93
565.23	43922.49
565.39	43863.98
565.56	44215.06
565.72	44027.82
565.88	43969.30
566.05	44175.27
566.21	44081.65
566.38	43814.83
566.54	44091.01
566.70	44421.03
566.87	43863.98
567.03	44018.46
567.19	44259.53
567.36	44353.15
567.52	43997.39
567.68	44224.42
567.85	43978.67
568.01	44832.96
568.17	44472.52
568.34	44449.11
568.50	44626.99
568.66	44067.61
568.83	44034.84
568.99	44285.28
569.15	44362.51
569.32	44514.65
569.48	44201.02
569.64	44999.14
569.81	44428.05
569.97	44168.25
570.13	44748.70
570.30	44189.31
570.46	44608.27
570.62	44196.34
570.78	44388.26
570.95	45059.99
571.11	44928.92
571.27	44350.81
571.43	44545.08
571.60	44247.83
571.76	44280.60
571.92	44226.76
572.09	44708.91
572.25	44224.42
572.41	44491.24
572.57	44325.07
572.74	44858.71
572.90	44711.25
573.06	44868.07
573.22	44790.83
573.38	44694.87
573.55	44692.53
573.71	45446.18
573.87	44645.72
574.03	44528.69
574.20	45013.18
574.36	44966.37
574.52	44910.20
574.68	45074.04
574.84	44994.46
575.01	44765.09
575.17	45202.77
575.33	44903.18
575.49	44795.51
575.65	44987.44
575.82	45090.42
575.98	44598.91
576.14	44783.81
576.30	45263.62
576.46	45144.25
576.62	44570.82
576.79	44664.44
576.95	44783.81
577.11	44818.92
577.27	45209.79
577.43	45394.69
577.59	45109.14
577.75	44734.66
577.92	44662.10
578.08	44891.48
578.24	44769.77
578.40	45422.78
578.56	45221.49
578.72	45052.97
578.88	44900.84
579.04	44680.83
579.21	45001.48
579.37	44587.21
579.53	44961.69
579.69	45514.06
579.85	44680.83
580.01	44938.29
580.17	44797.85
580.33	45514.06
580.49	44844.66
580.65	44832.96
580.82	45078.72
580.98	44980.42
581.14	44512.31
581.30	44795.51
581.46	45020.20
581.62	45111.49
581.78	45191.06
581.94	44947.65
582.10	45301.07
582.26	44949.99
582.42	45064.67
582.58	45148.93
582.74	45280.00
582.90	44861.05
583.06	45551.51
583.22	44809.56
583.38	45240.21
583.54	45537.46
583.70	45029.57
583.86	45574.91
584.02	45118.51
584.18	45750.45
584.34	45303.41
584.50	45703.64
584.66	45291.71
584.82	45469.59
584.98	45280.00
585.14	45364.26
585.30	45291.71
585.46	45195.74
585.62	44800.19
585.78	45434.48
585.94	45158.30
586.10	44619.97
586.26	44767.43
586.42	45181.70
586.58	45235.53
586.74	45198.09
586.90	45228.51
587.06	45338.52
587.22	45586.61
587.38	44964.03
587.54	45427.46
587.70	45535.12
587.86	45301.07
588.02	45233.19
588.18	45076.38
588.34	45085.74
588.49	45202.77
588.65	45216.81
588.81	45052.97
588.97	45502.35
589.13	45567.89
589.29	45146.59
589.45	45902.59
589.61	45242.56
589.77	45518.74
589.93	45345.54
590.08	45427.46
590.24	45734.07
