SpectraSuite Data File
++++++++++++++++++++++++++++++++++++
Date: Fri Oct 25 11:22:48 EDT 2013
User: price-jones
Dark Spectrum Present: No
Reference Spectrum Present: No
Number of Sampled Component Spectra: 1
Spectrometers: USB2+H05261
Integration Time (usec): 100000 (USB2+H05261)
Spectra Averaged: 1 (USB2+H05261)
Boxcar Smoothing: 0 (USB2+H05261)
Correct for Electrical Dark: No (USB2+H05261)
Strobe/Lamp Enabled: No (USB2+H05261)
Correct for Detector Non-linearity: No (USB2+H05261)
Correct for Stray Light: No (USB2+H05261)
Number of Pixels in Processed Spectrum: 2048
>>>>>Begin Processed Spectral Data<<<<<
365.73	191.92
365.92	191.92
366.12	191.92
366.32	124.05
366.52	119.37
366.72	152.13
366.91	149.79
367.11	72.56
367.31	119.37
367.51	152.13
367.70	124.05
367.90	112.35
368.10	142.77
368.30	114.69
368.49	161.50
368.69	152.13
368.89	124.05
369.09	100.64
369.28	121.71
369.48	81.92
369.68	191.92
369.87	163.84
370.07	145.11
370.27	212.99
370.47	304.27
370.66	594.50
370.86	653.01
371.06	650.67
371.25	638.97
371.45	631.94
371.65	671.73
371.84	697.48
372.04	599.18
372.24	751.31
372.44	723.23
372.63	826.21
372.83	791.10
373.03	835.57
373.22	830.89
373.42	732.59
373.62	713.86
373.81	720.88
374.01	854.30
374.21	889.40
374.40	777.06
374.60	873.02
374.79	788.76
374.99	786.42
375.19	861.32
375.38	791.10
375.58	791.10
375.78	835.57
375.97	903.45
376.17	938.55
376.37	805.14
376.56	837.91
376.76	896.43
376.95	891.74
377.15	866.00
377.35	812.17
377.54	912.81
377.74	868.34
377.93	929.19
378.13	959.62
378.33	915.15
378.52	889.40
378.72	912.81
378.91	931.53
379.11	959.62
379.31	950.26
379.50	968.98
379.70	940.90
379.89	1060.26
380.09	926.85
380.28	964.30
380.48	976.00
380.68	987.71
380.87	985.37
381.07	1053.24
381.26	1100.05
381.46	985.37
381.65	950.26
381.85	980.68
382.04	1041.54
382.24	1116.44
382.43	994.73
382.63	1034.52
382.83	1034.52
383.02	1069.62
383.22	1076.65
383.41	1104.73
383.61	1156.22
383.80	1116.44
384.00	1025.15
384.19	1135.16
384.39	1102.39
384.58	1135.16
384.78	1132.82
384.97	1221.76
385.17	1151.54
385.36	1116.44
385.56	1142.18
385.75	1107.07
385.95	1247.51
386.14	1261.55
386.34	1212.40
386.53	1203.04
386.72	1128.14
386.92	1193.67
387.11	1296.66
387.31	1242.82
387.50	1350.49
387.70	1184.31
387.89	1224.10
388.09	1310.70
388.28	1242.82
388.48	1235.80
388.67	1380.92
388.86	1352.83
389.06	1355.17
389.25	1413.68
389.45	1390.28
389.64	1313.04
389.84	1334.11
390.03	1430.07
390.22	1416.02
390.42	1331.76
390.61	1399.64
390.81	1413.68
391.00	1472.20
391.19	1469.86
391.39	1373.89
391.58	1390.28
391.78	1432.41
391.97	1406.66
392.16	1483.90
392.36	1593.90
392.55	1493.26
392.75	1542.41
392.94	1519.01
393.13	1476.88
393.33	1469.86
393.52	1516.67
393.71	1633.69
393.91	1575.18
394.10	1516.67
394.29	1584.54
394.49	1582.20
394.68	1689.87
394.88	1568.16
395.07	1675.82
395.26	1614.97
395.46	1685.19
395.65	1764.76
395.84	1612.63
396.04	1699.23
396.23	1788.17
396.42	1722.63
396.62	1797.53
396.81	1818.60
397.00	1816.26
397.19	1809.23
397.39	1748.38
397.58	1804.55
397.77	1802.21
397.97	1888.81
398.16	1830.30
398.35	1886.47
398.55	1856.04
398.74	1881.79
398.93	2010.52
399.12	1947.33
399.32	1813.92
399.51	1872.43
399.70	1996.48
399.90	1949.67
400.09	1877.11
400.28	2045.63
400.47	2012.86
400.67	2108.82
400.86	2115.84
401.05	2024.56
401.24	2115.84
401.44	2139.25
401.63	2207.13
401.82	2193.08
402.01	2143.93
402.21	2193.08
402.40	2101.80
402.59	2265.64
402.78	2275.00
402.97	2394.37
403.17	2197.76
403.36	2267.98
403.55	2345.22
403.74	2328.83
403.93	2352.24
404.13	2382.67
404.32	2312.45
404.51	2359.26
404.70	2424.80
404.89	2396.71
405.09	2459.90
405.28	2431.82
405.47	2427.14
405.66	2450.54
405.85	2466.92
406.05	2551.18
406.24	2633.10
406.43	2597.99
406.62	2642.46
406.81	2656.51
407.00	2600.34
407.20	2452.88
407.39	2663.53
407.58	2672.89
407.77	2684.59
407.96	2717.36
408.15	2743.11
408.34	2745.45
408.54	2740.77
408.73	2801.62
408.92	2895.24
409.11	2902.26
409.30	2904.60
409.49	2878.86
409.68	2958.44
409.87	2925.67
410.07	3014.61
410.26	3007.59
410.45	3014.61
410.64	3124.62
410.83	3033.33
411.02	3035.67
411.21	3229.94
411.40	3133.98
411.59	3253.34
411.78	3201.85
411.98	3286.11
412.17	3248.66
412.36	3351.65
412.55	3419.52
412.74	3482.72
412.93	3447.61
413.12	3400.80
413.31	3510.80
413.50	3473.36
413.69	3552.93
413.88	3658.26
414.07	3634.85
414.26	3639.53
414.45	3719.11
414.64	3751.88
414.83	3840.82
415.02	3805.71
415.22	3712.09
415.41	3948.48
415.60	3796.35
415.79	3871.25
415.98	4058.49
416.17	4093.60
416.36	3854.86
416.55	3978.91
416.74	4091.26
416.93	4109.98
417.12	4166.15
417.31	4187.22
417.50	4180.20
417.69	4418.93
417.88	4245.73
418.07	4208.28
418.26	4339.35
418.45	4255.09
418.64	4601.49
418.83	4327.65
419.02	4472.76
419.21	4512.55
419.39	4547.66
419.58	4559.36
419.77	4512.55
419.96	4489.15
420.15	4697.46
420.34	4617.88
420.53	4620.22
420.72	4702.14
420.91	4748.95
421.10	4786.40
421.29	4751.29
421.48	4571.07
421.67	4781.71
421.86	4697.46
422.05	4732.56
422.24	4765.33
422.43	4915.12
422.61	5050.88
422.80	4882.36
422.99	5025.13
423.18	4973.64
423.37	5032.15
423.56	5128.11
423.75	4809.80
423.94	4924.49
424.13	4746.61
424.32	4849.59
424.50	4903.42
424.69	5153.86
424.88	5022.79
425.07	5004.07
425.26	4990.02
425.45	5004.07
425.64	5043.85
425.83	5069.60
426.01	5125.77
426.20	4903.42
426.39	5039.17
426.58	5050.88
426.77	5034.49
426.96	5273.23
427.15	5303.65
427.33	5114.07
427.52	5083.64
427.71	5296.63
427.90	5301.31
428.09	5341.10
428.28	5329.40
428.46	5277.91
428.65	5273.23
428.84	5554.09
429.03	5633.67
429.22	5322.38
429.40	5509.62
429.59	5488.56
429.78	5359.83
429.97	5291.95
430.16	5366.85
430.34	5659.42
430.53	5720.27
430.72	5626.65
430.91	5668.78
431.10	5853.68
431.28	5661.76
431.47	5746.02
431.66	5923.90
431.85	5891.13
432.03	5785.80
432.22	5949.64
432.41	5905.17
432.60	5951.98
432.79	5942.62
432.97	6155.61
433.16	6005.81
433.35	6157.95
433.54	6090.07
433.72	6132.20
433.91	5947.30
434.10	6174.33
434.28	6085.39
434.47	6127.52
434.66	6214.12
434.85	6171.99
435.03	6375.62
435.22	6270.30
435.41	6450.52
435.59	6399.02
435.78	6546.48
435.97	6438.81
436.16	6609.67
436.34	6345.19
436.53	6537.12
436.72	6628.40
436.90	6527.75
437.09	6569.88
437.28	6541.80
437.46	6637.76
437.65	6726.70
437.84	6932.67
438.02	6904.58
438.21	6855.43
438.40	6871.81
438.58	6953.73
438.77	7180.76
438.96	7143.32
439.14	7136.29
439.33	7316.51
439.52	7082.46
439.70	7260.34
439.89	7412.48
440.08	7295.45
440.26	7559.93
440.45	7344.60
440.63	7550.57
440.82	7569.29
441.01	7424.18
441.19	7552.91
441.38	7604.40
441.57	7782.28
441.75	7943.78
441.94	8091.23
442.12	7756.54
442.31	8166.13
442.50	8273.79
442.68	8196.56
442.87	8035.06
443.05	8276.13
443.24	8400.18
443.43	8121.66
443.61	8212.94
443.80	8540.61
443.98	8177.83
444.17	8016.33
444.35	8308.90
444.54	8243.37
444.73	8308.90
444.91	8243.37
445.10	8493.80
445.28	8348.69
445.47	8234.00
445.65	8320.60
445.84	8552.32
446.02	8594.45
446.21	8573.38
446.39	8456.36
446.58	8627.21
446.77	8421.25
446.95	8372.10
447.14	8578.06
447.32	8477.42
447.51	8521.89
447.69	8344.01
447.88	8552.32
448.06	8681.05
448.25	8496.14
448.43	8720.84
448.62	8400.18
448.80	8519.55
448.99	8617.85
449.17	8599.13
449.36	8634.24
449.54	8901.06
449.73	8961.91
449.91	9015.74
450.10	8879.99
450.28	9144.47
450.46	9186.60
450.65	9275.54
450.83	9184.26
451.02	9174.90
451.20	9226.39
451.39	9130.43
451.57	9064.89
451.76	9060.21
451.94	9317.67
452.13	9462.79
452.31	9102.34
452.49	9259.16
452.68	9598.54
452.86	9411.29
453.05	9511.94
453.23	9652.37
453.42	9284.91
453.60	9474.49
453.78	9516.62
453.97	9327.03
454.15	9282.56
454.34	9504.92
454.52	9783.44
454.70	9755.35
454.89	9797.48
455.07	9947.28
455.26	9837.27
455.44	10242.18
455.62	9900.47
455.81	9839.61
455.99	10010.47
456.17	9973.02
456.36	10157.92
456.54	10223.46
456.73	10314.74
456.91	10546.45
457.09	10406.02
457.28	10656.46
457.46	10387.30
457.64	10611.99
457.83	10520.71
458.01	10537.09
458.19	10628.37
458.38	10298.36
458.56	10649.44
458.74	10675.18
458.93	10827.32
459.11	10855.40
459.29	10881.15
459.48	10754.76
459.66	10925.62
459.84	10871.79
460.03	11164.36
460.21	11063.71
460.39	11124.57
460.57	11021.58
460.76	11171.38
460.94	11342.24
461.12	11250.96
461.31	11243.93
461.49	11075.42
461.67	11173.72
461.85	11545.86
462.04	11328.19
462.22	11918.01
462.40	11683.95
462.59	11562.25
462.77	11293.08
462.95	11723.74
463.13	11527.14
463.32	11721.40
463.50	11810.34
463.68	11770.55
463.86	11887.58
464.05	11800.98
464.23	11665.23
464.41	11934.39
464.59	11583.31
464.78	12226.96
464.96	12166.10
465.14	11957.80
465.32	12135.68
465.50	12173.13
465.69	12388.46
465.87	12238.66
466.05	12210.57
466.23	12133.34
466.41	12456.33
466.60	12559.31
466.78	12224.62
466.96	12280.79
467.14	12276.11
467.32	12418.88
467.51	12386.12
467.69	11999.93
467.87	12484.42
468.05	12606.13
468.23	12465.69
468.41	12524.21
468.60	12507.82
468.78	12989.97
468.96	12692.73
469.14	12922.10
469.32	12971.25
469.50	12730.17
469.69	12875.29
469.87	13252.11
470.05	13130.41
470.23	13043.81
470.41	13221.69
470.59	13378.50
470.77	13284.88
470.95	13238.07
471.14	13668.73
471.32	13228.71
471.50	13774.05
471.68	13561.06
471.86	13717.88
472.04	13947.25
472.22	13874.70
472.40	13891.08
472.58	13909.80
472.77	14022.15
472.95	14143.86
473.13	14633.03
473.31	13973.00
473.49	14253.86
473.67	14333.44
473.85	14504.30
474.03	14775.80
474.21	14670.48
474.39	14658.78
474.57	14850.70
474.75	15059.01
474.93	14906.87
475.12	15042.62
475.30	15124.54
475.48	15169.01
475.66	15225.18
475.84	15372.64
476.02	15632.44
476.20	15323.49
476.38	15770.53
476.56	15953.09
476.74	15917.98
476.92	15887.56
477.10	15800.96
477.28	16306.51
477.46	16145.02
477.64	16435.24
477.82	16549.93
478.00	16999.31
478.18	16933.78
478.36	17060.16
478.54	17188.89
478.72	17460.40
478.90	17537.63
479.08	17823.18
479.26	17710.83
479.44	17694.45
479.62	18038.51
479.80	18183.62
479.98	18061.91
480.16	18604.92
480.34	18295.97
480.52	18838.97
480.70	18836.63
480.88	18593.22
481.06	18707.90
481.24	18927.91
481.41	19590.28
481.59	19466.24
481.77	19726.04
481.95	19655.82
482.13	19681.56
482.31	19700.29
482.49	20355.64
482.67	20194.14
482.85	20346.28
483.03	20608.42
483.21	20898.64
483.39	21116.31
483.57	21010.99
483.74	21401.86
483.92	21514.20
484.10	21324.62
484.28	21865.28
484.46	22223.39
484.64	22312.33
484.82	22265.52
485.00	22511.27
485.18	22831.93
485.35	23236.84
485.53	22785.12
485.71	23388.97
485.89	23616.01
486.07	23599.62
486.25	23611.32
486.43	23857.08
486.61	23903.89
486.78	24217.52
486.96	24357.96
487.14	24783.93
487.32	24915.00
487.50	24884.58
487.68	25149.06
487.85	25865.26
488.03	25654.61
488.21	26005.69
488.39	25905.05
488.57	26363.79
488.75	26342.73
488.92	26773.39
489.10	27154.90
489.28	27164.26
489.46	27456.82
489.64	27271.92
489.81	27805.56
489.99	27623.00
490.17	27845.35
490.35	28481.98
490.53	27936.63
490.70	28418.78
490.88	28093.45
491.06	28758.16
491.24	28786.25
491.41	28947.75
491.59	29380.74
491.77	29413.51
491.95	30029.07
492.13	30024.39
492.30	30398.88
492.48	30253.76
492.66	30270.15
492.84	30644.63
493.01	30429.30
493.19	31201.68
493.37	31035.50
493.54	31276.58
493.72	31611.28
493.90	31707.24
494.08	31880.44
494.25	32283.01
494.43	32336.84
494.61	32830.69
494.79	32734.73
494.96	32648.13
495.14	33387.74
495.32	33071.77
495.49	33104.54
495.67	33565.62
495.85	33502.43
496.02	33855.85
496.20	34120.33
496.38	34246.72
496.55	34452.69
496.73	35295.28
496.91	35112.72
497.09	34820.15
497.26	35215.70
497.44	34967.60
497.62	35243.79
497.79	36147.23
497.97	35700.19
498.14	36088.72
498.32	36662.15
498.50	36388.31
498.67	36793.22
498.85	36503.00
499.03	37282.39
499.20	36933.65
499.38	36627.04
499.56	37041.32
499.73	37118.56
499.91	37675.60
500.08	37942.42
500.26	38143.71
500.44	37982.21
500.61	37897.95
500.79	38087.54
500.97	38326.27
501.14	38782.68
501.32	38653.95
501.49	38651.61
501.67	38850.55
501.84	38948.85
502.02	39316.32
502.20	38932.47
502.37	39241.42
502.55	39026.09
502.72	39693.15
502.90	39721.23
503.07	39423.98
503.25	40407.01
503.43	39922.52
503.60	40163.59
503.78	40364.88
503.95	41050.66
504.13	40484.25
504.30	40821.28
504.48	40622.34
504.65	40608.29
504.83	41251.94
505.01	41296.41
505.18	41338.54
505.36	42178.79
505.53	41528.13
505.71	41783.24
505.88	42431.57
506.06	41558.55
506.23	42183.48
506.41	41916.65
506.58	42232.63
506.76	42557.96
506.93	42852.87
507.11	42672.65
507.28	43089.26
507.46	42740.52
507.63	42897.34
507.81	43328.00
507.98	42766.27
508.16	43412.26
508.33	43648.65
508.50	43538.65
508.68	43627.59
508.85	43723.55
509.03	44046.54
509.20	44282.94
509.38	44383.58
509.55	44767.43
509.73	44582.52
509.90	44477.20
510.08	44783.81
510.25	44603.59
510.42	45312.77
510.60	45095.10
510.77	45331.50
510.95	45684.92
511.12	45331.50
511.30	45785.56
511.47	45815.99
511.64	45731.73
511.82	45925.99
511.99	45209.79
512.17	46373.03
512.34	46298.14
512.51	46333.24
512.69	46663.26
512.86	46665.60
513.04	46693.69
513.21	46656.24
513.38	46990.94
513.56	47416.91
513.73	46829.44
513.90	47185.20
514.08	47124.35
514.25	47576.07
514.43	47878.00
514.60	47983.32
514.77	47393.51
514.95	47714.16
515.12	47767.99
515.29	47906.08
515.47	47997.37
515.64	48311.00
515.81	48383.55
515.99	48523.99
516.16	48765.06
516.33	48472.49
516.51	48975.71
516.68	48577.82
516.85	48610.59
517.03	49389.98
517.20	49071.67
517.37	49343.17
517.54	49244.87
517.72	49214.44
517.89	48952.30
518.06	49418.07
518.24	49296.36
518.41	49521.05
518.58	49652.12
518.75	49177.00
518.93	50031.29
519.10	49624.04
519.27	50005.55
519.45	50019.59
519.62	50066.40
519.79	50141.30
519.96	50232.58
520.14	50202.15
520.31	50206.83
520.48	50553.23
520.65	50557.91
520.83	51061.13
521.00	50859.84
521.17	50911.33
521.34	50843.46
521.52	50906.65
521.69	51065.81
521.86	51292.84
522.03	51187.52
522.20	51765.63
522.38	51517.53
522.55	51580.73
522.72	51536.26
522.89	51594.77
523.07	52266.50
523.24	51721.16
523.41	51697.75
523.58	51543.28
523.75	52179.90
523.92	52350.76
524.10	52278.21
524.27	52271.18
524.44	52114.37
524.61	51924.78
524.78	52245.44
524.96	52296.93
525.13	52388.21
525.30	52523.96
525.47	52633.97
525.64	52708.86
525.81	52980.37
525.98	52924.19
526.16	52914.83
526.33	52882.06
526.50	53244.85
526.67	52797.80
526.84	53010.79
527.01	52807.17
527.18	53043.56
527.36	52968.66
527.53	53207.40
527.70	53462.52
527.87	53322.08
528.04	53380.60
528.21	53556.14
528.38	53504.65
528.55	53851.05
528.72	53523.37
528.89	53794.87
529.07	53752.74
529.24	53591.25
529.41	53752.74
529.58	53677.85
529.75	53975.09
529.92	54026.59
530.09	53982.12
530.26	54054.67
530.43	54307.45
530.60	53867.43
530.77	54078.08
530.94	54202.13
531.11	54045.31
531.28	54380.01
531.46	54710.02
531.63	54600.02
531.80	54279.36
531.97	54632.78
532.14	54745.13
532.31	54593.00
532.48	54667.89
532.65	54571.93
532.82	54593.00
532.99	54733.43
533.16	54611.72
533.33	54838.75
533.50	54972.16
533.67	54941.74
533.84	54836.41
534.01	55166.43
534.18	55363.03
534.35	55143.02
534.52	55290.48
534.69	55353.67
534.86	55522.19
535.03	55112.59
535.20	55370.05
535.37	55416.86
535.54	55648.58
535.71	55597.09
535.88	55681.34
536.05	55576.02
536.22	55571.34
536.38	55884.97
536.55	55784.33
536.72	55842.84
536.89	55997.32
537.06	55945.83
537.23	56083.92
537.40	55873.27
537.57	55807.73
537.74	56032.42
537.91	56126.05
538.08	56081.58
538.25	55906.04
538.42	56196.26
538.59	56193.92
538.75	56205.62
538.92	56203.28
539.09	56329.67
539.26	56016.04
539.43	56374.14
539.60	56601.18
539.77	56149.45
539.94	56526.28
540.11	56521.60
540.28	56638.62
540.44	56650.33
540.61	56753.31
540.78	56676.07
540.95	56573.09
541.12	56640.96
541.29	56603.52
541.46	56797.78
541.62	56765.01
541.79	57031.83
541.96	56566.07
542.13	56610.54
542.30	56757.99
542.47	56839.91
542.63	56963.96
542.80	57106.73
542.97	57186.31
543.14	57469.51
543.31	57158.22
543.48	57277.59
543.64	57659.10
543.81	57471.85
543.98	57219.08
544.15	57640.37
544.32	57553.77
544.48	57860.38
544.65	57511.64
544.82	57612.29
544.99	57415.68
545.16	57752.72
545.32	57361.85
545.49	58000.82
545.66	57986.77
545.83	57890.81
546.00	57698.89
546.16	57673.14
546.33	57691.86
546.50	57766.76
546.67	57972.73
546.83	57954.00
547.00	57895.49
547.17	57984.43
547.34	57972.73
547.50	58075.71
547.67	58398.71
547.84	58073.37
548.00	58110.82
548.17	58403.39
548.34	58408.07
548.51	58578.93
548.67	58103.80
548.84	58188.06
549.01	58253.59
549.18	58307.43
549.34	58298.06
549.51	58363.60
549.68	58590.63
549.84	58588.29
550.01	58585.95
550.18	58557.86
550.34	58576.59
550.51	58663.19
550.68	58754.47
550.84	58415.09
551.01	58754.47
551.18	58635.10
551.34	58642.12
551.51	58829.37
551.68	58646.80
551.84	58583.61
552.01	58639.78
552.18	58585.95
552.34	58761.49
552.51	58883.20
552.68	58749.79
552.84	58822.34
553.01	58922.99
553.18	59236.62
553.34	59065.76
553.51	58773.19
553.67	58869.15
553.84	59065.76
554.01	58944.05
554.17	59084.48
554.34	59054.06
554.51	59234.28
554.67	59147.68
554.84	59164.06
555.00	59128.95
555.17	59173.42
555.33	59178.10
555.50	59196.83
555.67	59114.91
555.83	59245.98
556.00	59370.03
556.16	59400.46
556.33	59398.12
556.50	59348.96
556.66	59505.78
556.83	59269.39
556.99	59475.35
557.16	59428.54
557.32	59774.94
557.49	59786.64
557.65	59566.63
557.82	59552.59
557.98	59643.87
558.15	59618.13
558.32	59538.55
558.48	59501.10
558.65	59788.98
558.81	59597.06
558.98	59625.15
559.14	59702.38
559.31	59653.23
559.47	59767.92
559.64	60051.12
559.80	59875.58
559.97	59889.63
560.13	59980.91
560.30	59910.69
560.46	59891.97
560.63	59969.21
560.79	59992.61
560.96	59966.87
561.12	60285.18
561.29	60252.41
561.45	59875.58
561.61	59973.89
561.78	60055.81
561.94	59983.25
562.11	60095.60
562.27	60060.49
562.44	60027.72
562.60	60175.17
562.77	60076.87
562.93	59952.82
563.10	60093.25
563.26	60135.38
563.42	60327.31
563.59	60144.75
563.75	60095.60
563.92	60250.07
564.08	60081.55
564.24	60214.96
564.41	60348.37
564.57	60315.61
564.74	60301.56
564.90	60331.99
565.07	60210.28
565.23	60266.45
565.39	60126.02
565.56	60348.37
565.72	60154.11
565.88	60168.15
566.05	60245.39
566.21	60402.21
566.38	60303.90
566.54	60179.85
566.70	60495.83
566.87	60671.37
567.03	60406.89
567.19	60722.86
567.36	60437.31
567.52	60207.94
567.68	60580.09
567.85	60530.93
568.01	60615.19
568.17	60573.06
568.34	60629.24
568.50	60521.57
568.66	60317.95
568.83	60580.09
568.99	60257.09
569.15	60486.46
569.32	60453.70
569.48	60509.87
569.64	60764.99
569.81	60736.90
569.97	60439.65
570.13	60561.36
570.30	60654.98
570.46	60846.91
570.62	60629.24
570.78	60652.64
570.95	60807.12
571.11	60617.53
571.27	60441.99
571.43	60722.86
571.60	60753.29
571.76	60727.54
571.92	60748.60
572.09	60783.71
572.25	60867.97
572.41	60519.23
572.57	60814.14
572.74	61022.45
572.90	60802.44
573.06	60907.76
573.22	60626.90
573.38	60666.69
573.55	60563.70
573.71	60989.68
573.87	60760.31
574.03	60715.84
574.20	60757.97
574.36	60736.90
574.52	60980.32
574.68	60882.02
574.84	60788.39
575.01	60942.87
575.17	60933.51
575.33	60954.57
575.49	60954.57
575.65	60835.20
575.82	60907.76
575.98	60879.67
576.14	61396.93
576.30	60842.23
576.46	60743.92
576.62	60842.23
576.79	60938.19
576.95	60654.98
577.11	60947.55
577.27	61001.38
577.43	60968.61
577.59	60949.89
577.75	60928.83
577.92	60832.86
578.08	60968.61
578.24	61085.64
578.40	61214.37
578.56	61104.37
578.72	60973.30
578.88	61076.28
579.04	61165.22
579.21	61010.74
579.37	61263.52
579.53	61141.81
579.69	60701.79
579.85	61013.08
580.01	61090.32
580.17	60933.51
580.33	61102.03
580.49	61268.20
580.65	61097.34
580.82	60882.02
580.98	61027.13
581.14	60860.95
581.30	61181.60
581.46	60992.02
581.62	61272.88
581.78	61123.09
581.94	60977.98
582.10	61057.56
582.26	60973.30
582.42	60919.46
582.58	61095.00
582.74	61125.43
582.90	61048.19
583.06	61048.19
583.22	60882.02
583.38	61085.64
583.54	61209.69
583.70	61333.74
583.86	61195.65
584.02	60736.90
584.18	61214.37
584.34	61125.43
584.50	61181.60
584.66	61139.47
584.82	61092.66
584.98	61202.67
585.14	61307.99
585.30	60867.97
585.46	60992.02
585.62	61078.62
585.78	61188.63
585.94	60891.38
586.10	61258.84
586.26	61095.00
586.42	61303.31
586.58	61315.01
586.74	61134.79
586.90	61008.40
587.06	61148.84
587.22	61373.53
587.38	61317.35
587.54	61265.86
587.70	61312.67
587.86	61116.07
588.02	61153.52
588.18	61282.25
588.34	61216.71
588.49	61317.35
