SpectraSuite Data File
++++++++++++++++++++++++++++++++++++
Date: Fri Oct 25 10:44:41 EDT 2013
User: price-jones
Dark Spectrum Present: No
Reference Spectrum Present: No
Number of Sampled Component Spectra: 1
Spectrometers: USB2+H05261
Integration Time (usec): 100000 (USB2+H05261)
Spectra Averaged: 1 (USB2+H05261)
Boxcar Smoothing: 0 (USB2+H05261)
Correct for Electrical Dark: No (USB2+H05261)
Strobe/Lamp Enabled: No (USB2+H05261)
Correct for Detector Non-linearity: No (USB2+H05261)
Correct for Stray Light: No (USB2+H05261)
Number of Pixels in Processed Spectrum: 2048
>>>>>Begin Processed Spectral Data<<<<<
365.73	105.32
365.92	105.32
366.12	105.32
366.32	42.13
366.52	11.70
366.72	44.47
366.91	0.00
367.11	72.56
367.31	16.38
367.51	0.00
367.70	37.45
367.90	0.00
368.10	25.75
368.30	0.00
368.49	0.00
368.69	30.43
368.89	63.19
369.09	0.00
369.28	95.96
369.48	9.36
369.68	74.90
369.87	63.19
370.07	121.71
370.27	159.16
370.47	208.31
370.66	353.42
370.86	416.62
371.06	414.27
371.25	411.93
371.45	402.57
371.65	407.25
371.84	472.79
372.04	458.74
372.24	423.64
372.44	489.17
372.63	486.83
372.83	475.13
373.03	463.43
373.22	451.72
373.42	559.39
373.62	505.56
373.81	411.93
374.01	603.86
374.21	472.79
374.40	500.87
374.60	603.86
374.79	510.24
374.99	489.17
375.19	627.26
375.38	535.98
375.58	489.17
375.78	547.69
375.97	521.94
376.17	538.32
376.37	500.87
376.56	629.60
376.76	540.66
376.95	585.13
377.15	585.13
377.35	601.52
377.54	610.88
377.74	660.03
377.93	606.20
378.13	610.88
378.33	617.90
378.52	620.24
378.72	627.26
378.91	610.88
379.11	596.84
379.31	575.77
379.50	596.84
379.70	575.77
379.89	655.35
380.09	596.84
380.28	634.29
380.48	641.31
380.68	685.78
380.87	692.80
381.07	643.65
381.26	711.52
381.46	629.60
381.65	648.33
381.85	660.03
382.04	636.63
382.24	678.76
382.43	697.48
382.63	564.07
382.83	601.52
383.02	634.29
383.22	664.71
383.41	662.37
383.61	695.14
383.80	763.01
384.00	716.20
384.19	784.08
384.39	748.97
384.58	842.59
384.78	786.42
384.97	732.59
385.17	816.85
385.36	699.82
385.56	634.29
385.75	695.14
385.95	732.59
386.14	685.78
386.34	763.01
386.53	767.70
386.72	746.63
386.92	851.96
387.11	807.48
387.31	751.31
387.50	732.59
387.70	734.93
387.89	758.33
388.09	821.53
388.28	774.72
388.48	732.59
388.67	891.74
388.86	828.55
389.06	856.64
389.25	840.25
389.45	814.51
389.64	816.85
389.84	954.94
390.03	873.02
390.22	954.94
390.42	891.74
390.61	800.46
390.81	959.62
391.00	999.41
391.19	961.96
391.39	922.17
391.58	926.85
391.78	957.28
391.97	922.17
392.16	1001.75
392.36	976.00
392.55	889.40
392.75	929.19
392.94	943.24
393.13	912.81
393.33	971.32
393.52	1004.09
393.71	976.00
393.91	983.02
394.10	1001.75
394.29	1025.15
394.49	1015.79
394.68	1069.62
394.88	1142.18
395.07	1071.97
395.26	1088.35
395.46	1055.58
395.65	1090.69
395.84	1149.20
396.04	1198.35
396.23	1179.63
396.42	1093.03
396.62	1081.33
396.81	1128.14
397.00	1116.44
397.19	1160.91
397.39	1151.54
397.58	1238.14
397.77	1205.38
397.97	1350.49
398.16	1245.16
398.35	1263.89
398.55	1282.61
398.74	1331.76
398.93	1486.24
399.12	1327.08
399.32	1256.87
399.51	1308.36
399.70	1378.58
399.90	1355.17
400.09	1341.13
400.28	1331.76
400.47	1306.02
400.67	1462.83
400.86	1516.67
401.05	1310.70
401.24	1385.60
401.44	1535.39
401.63	1500.28
401.82	1439.43
402.01	1460.49
402.21	1509.65
402.40	1537.73
402.59	1547.09
402.78	1495.60
402.97	1446.45
403.17	1549.43
403.36	1591.56
403.55	1614.97
403.74	1640.72
403.93	1621.99
404.13	1610.29
404.32	1633.69
404.51	1722.63
404.70	1734.34
404.89	1664.12
405.09	1687.53
405.28	1657.10
405.47	1708.59
405.66	1764.76
405.85	1806.89
406.05	1743.70
406.24	1774.13
406.43	1886.47
406.62	1867.75
406.81	1795.19
407.00	1713.27
407.20	1729.66
407.39	1895.83
407.58	1774.13
407.77	1809.23
407.96	1902.86
408.15	1998.82
408.34	1858.39
408.54	1963.71
408.73	2031.58
408.92	1944.99
409.11	2017.54
409.30	2064.35
409.49	2052.65
409.68	2097.12
409.87	2076.06
410.07	2083.08
410.26	2214.15
410.45	2083.08
410.64	2193.08
410.83	2155.63
411.02	2312.45
411.21	2265.64
411.40	2303.09
411.59	2282.02
411.78	2277.34
411.98	2235.21
412.17	2279.68
412.36	2347.56
412.55	2394.37
412.74	2326.49
412.93	2438.84
413.12	2319.47
413.31	2551.18
413.50	2459.90
413.69	2626.08
413.88	2509.05
414.07	2583.95
414.26	2684.59
414.45	2642.46
414.64	2562.89
414.83	2614.38
415.02	2640.12
415.22	2708.00
415.41	2682.25
415.60	2806.30
415.79	2857.79
415.98	2829.71
416.17	2832.05
416.36	2834.39
416.55	2820.35
416.74	2883.54
416.93	2867.16
417.12	2855.45
417.31	2942.05
417.50	2939.71
417.69	3110.57
417.88	2885.88
418.07	3028.65
418.26	3000.57
418.45	3117.59
418.64	3246.32
418.83	3014.61
419.02	3096.53
419.21	3103.55
419.39	3087.17
419.58	3138.66
419.77	3211.22
419.96	3269.73
420.15	3372.71
420.34	3325.90
420.53	3150.36
420.72	3386.76
420.91	3311.86
421.10	3461.65
421.29	3482.72
421.48	3391.44
421.67	3566.98
421.86	3300.16
422.05	3468.67
422.24	3485.06
422.43	3344.63
422.61	3478.04
422.80	3548.25
422.99	3403.14
423.18	3496.76
423.37	3543.57
423.56	3496.76
423.75	3520.17
423.94	3433.57
424.13	3080.14
424.32	3449.95
424.50	3623.15
424.69	3578.68
424.88	3639.53
425.07	3522.51
425.26	3349.31
425.45	3538.89
425.64	3461.65
425.83	3627.83
426.01	3627.83
426.20	3674.64
426.39	3501.44
426.58	3592.72
426.77	3564.64
426.96	3592.72
427.15	3538.89
427.33	3658.26
427.52	3658.26
427.71	3632.51
427.90	3599.74
428.09	3756.56
428.28	3684.00
428.46	3794.01
428.65	3789.33
428.84	3831.46
429.03	3868.91
429.22	3805.71
429.40	3742.52
429.59	3779.97
429.78	3604.42
429.97	3545.91
430.16	3674.64
430.34	3911.04
430.53	3824.44
430.72	3824.44
430.91	3786.99
431.10	3747.20
431.28	3992.95
431.47	4135.73
431.66	4142.75
431.85	4091.26
432.03	4077.21
432.22	4119.34
432.41	4180.20
432.60	4105.30
432.79	4161.47
432.97	4248.07
433.16	4259.78
433.35	4147.43
433.54	4210.62
433.72	4203.60
433.91	4121.68
434.10	4325.31
434.28	4243.39
434.47	4306.59
434.66	4409.57
434.85	4393.19
435.03	4355.74
435.22	4367.44
435.41	4566.39
435.59	4531.28
435.78	4472.76
435.97	4442.34
436.16	4596.81
436.34	4545.32
436.53	4440.00
436.72	4599.15
436.90	4610.86
437.09	4685.75
437.28	4580.43
437.46	4617.88
437.65	4706.82
437.84	4615.54
438.02	4669.37
438.21	4683.41
438.40	4535.96
438.58	4779.37
438.77	4760.65
438.96	4819.16
439.14	4847.25
439.33	5097.69
439.52	5018.11
439.70	5083.64
439.89	5085.98
440.08	5043.85
440.26	5177.26
440.45	4994.70
440.63	5170.24
440.82	5249.82
441.01	5348.12
441.19	5289.61
441.38	5469.83
441.57	5430.04
441.75	5476.85
441.94	5596.22
442.12	5591.54
442.31	5689.84
442.50	5654.73
442.68	5537.71
442.87	5692.18
443.05	5561.11
443.24	5675.80
443.43	5687.50
443.61	5816.23
443.80	5738.99
443.98	5523.66
444.17	5561.11
444.35	5717.93
444.54	5877.09
444.73	5865.38
444.91	5753.04
445.10	5731.97
445.28	5839.64
445.47	5757.72
445.65	5743.67
445.84	5799.85
446.02	5975.39
446.21	5949.64
446.39	5858.36
446.58	5996.45
446.77	5949.64
446.95	5760.06
447.14	5994.11
447.32	6026.88
447.51	5884.11
447.69	5872.40
447.88	6073.69
448.06	6069.01
448.25	6043.26
448.43	6012.84
448.62	5984.75
448.80	5973.05
448.99	6001.13
449.17	6066.67
449.36	6066.67
449.54	6249.23
449.73	6267.95
449.91	6190.72
450.10	6300.72
450.28	6258.59
450.46	6237.53
450.65	6431.79
450.83	6373.28
451.02	6253.91
451.20	6345.19
451.39	6445.84
451.57	6427.11
451.76	6282.00
451.94	6375.62
452.13	6333.49
452.31	6518.39
452.49	6361.58
452.68	6389.66
452.86	6387.32
453.05	6541.80
453.23	6590.95
453.42	6553.50
453.60	6532.44
453.78	6766.49
453.97	6677.55
454.15	6773.51
454.34	6642.44
454.52	6668.19
454.70	6794.58
454.89	6827.34
455.07	6869.47
455.26	6815.64
455.44	6729.04
455.62	6911.60
455.81	6752.45
455.99	7012.24
456.17	6857.77
456.36	6906.92
456.54	7143.32
456.73	7138.63
456.91	7197.15
457.09	7173.74
457.28	7068.42
457.46	7290.77
457.64	7396.09
457.83	7281.41
458.01	7192.47
458.19	7377.37
458.38	7391.41
458.56	7243.96
458.74	7351.62
458.93	7384.39
459.11	7344.60
459.29	7517.80
459.48	7487.37
459.66	7370.35
459.84	7468.65
460.03	7637.17
460.21	7669.94
460.39	7637.17
460.57	7541.21
460.76	7627.81
460.94	7644.19
461.12	7597.38
461.31	7686.32
461.49	7655.89
461.67	7709.72
461.85	7899.31
462.04	7775.26
462.22	7920.37
462.40	8053.78
462.59	7922.71
462.77	7978.89
462.95	7943.78
463.13	7967.18
463.32	8035.06
463.50	7786.96
463.68	8156.77
463.86	7896.97
464.05	7850.16
464.23	7948.46
464.41	8070.17
464.59	7957.82
464.78	8348.69
464.96	8081.87
465.14	8135.70
465.32	8360.39
465.50	8430.61
465.69	8390.82
465.87	8156.77
466.05	8201.24
466.23	8116.98
466.41	8285.50
466.60	8538.27
466.78	8203.58
466.96	8407.20
467.14	8383.80
467.32	8580.40
467.51	8585.08
467.69	8205.92
467.87	8659.98
468.05	8446.99
468.23	8540.61
468.41	8727.86
468.60	8601.47
468.78	8753.60
468.96	8587.43
469.14	8828.50
469.32	8784.03
469.50	8650.62
469.69	8912.76
469.87	8875.31
470.05	8791.05
470.23	8849.57
470.41	8915.10
470.59	8931.48
470.77	8741.90
470.95	9053.19
471.14	9137.45
471.32	8931.48
471.50	9305.97
471.68	9334.06
471.86	9312.99
472.04	9284.91
472.22	9525.98
472.40	9432.36
472.58	9301.29
472.77	9291.93
472.95	9479.17
473.13	9902.81
473.31	9497.89
473.49	9284.91
473.67	9582.15
473.85	9792.80
474.03	9872.38
474.21	9858.34
474.39	9940.26
474.57	9977.70
474.75	10001.11
474.93	10178.99
475.12	9968.34
475.30	10214.10
475.48	10052.60
475.66	10246.87
475.84	10366.23
476.02	10504.32
476.20	10354.53
476.38	10506.66
476.56	10736.04
476.74	10642.42
476.92	10663.48
477.10	10853.06
477.28	10796.89
477.46	10916.26
477.64	11009.88
477.82	11211.17
478.00	11295.43
478.18	11344.58
478.36	11351.60
478.54	11520.12
478.72	11492.03
478.90	11747.15
479.08	11625.44
479.26	11894.60
479.44	11882.90
479.62	11943.75
479.80	12013.97
479.98	12196.53
480.16	12222.28
480.34	12283.13
480.52	12498.46
480.70	12421.22
480.88	12351.01
481.06	12435.27
481.24	12681.02
481.41	12662.30
481.59	13083.59
481.77	13137.43
481.95	12945.50
482.13	13284.88
482.31	13109.34
482.49	13390.20
482.67	13448.72
482.85	13701.50
483.03	13877.04
483.21	13877.04
483.39	13951.93
483.57	13989.38
483.74	14141.52
483.92	14258.54
484.10	14129.81
484.28	14291.31
484.46	14398.98
484.64	14658.78
484.82	14967.73
485.00	14574.52
485.18	15026.24
485.35	15054.33
485.53	15204.12
485.71	15356.25
485.89	15482.64
486.07	15164.33
486.25	15515.41
486.43	15461.58
486.61	15831.38
486.78	15737.76
486.96	15714.36
487.14	16381.41
487.32	16093.52
487.50	16240.98
487.68	16493.76
487.85	16697.38
488.03	16868.24
488.21	16889.31
488.39	17006.33
488.57	16842.50
488.75	17575.08
488.92	17343.37
489.10	17488.48
489.28	17752.96
489.46	17886.37
489.64	18036.17
489.81	18251.50
489.99	18246.82
490.17	18750.03
490.35	18628.32
490.53	18513.64
490.70	18768.76
490.88	18611.94
491.06	18888.12
491.24	18909.19
491.41	18988.77
491.59	18913.87
491.77	19073.03
491.95	19356.23
492.13	19644.12
492.30	19601.99
492.48	19857.10
492.66	19765.82
492.84	19943.70
493.01	19936.68
493.19	19922.64
493.37	20107.54
493.54	20348.62
493.72	20582.67
493.90	20727.78
494.08	20900.98
494.25	20889.28
494.43	21085.89
494.61	21102.27
494.79	21364.41
494.96	21474.42
495.14	21088.23
495.32	21439.31
495.49	21696.77
495.67	21774.00
495.85	21797.41
496.02	22312.33
496.20	22134.45
496.38	22391.91
496.55	22352.12
496.73	22808.52
496.91	22546.38
497.09	22672.77
497.26	22848.31
497.44	22864.69
497.62	22941.93
497.79	23126.83
497.97	23168.96
498.14	23360.89
498.32	23466.21
498.50	23398.34
498.67	23545.79
498.85	23606.64
499.03	23997.51
499.20	23985.81
499.38	24285.40
499.56	24233.91
499.73	24037.30
499.91	24226.89
500.08	24491.37
500.26	24570.94
500.44	24634.14
500.61	24577.97
500.79	24439.87
500.97	24816.70
501.14	24938.41
501.32	24924.36
501.49	25060.12
501.67	25097.56
501.84	24978.20
502.02	25153.74
502.20	25649.93
502.37	25582.06
502.55	25717.81
502.72	26047.82
502.90	25809.09
503.07	25654.61
503.25	25834.83
503.43	25874.62
503.60	26026.76
503.78	25970.58
503.95	25993.99
504.13	26103.99
504.30	26553.38
504.48	26125.06
504.65	26405.92
504.83	26864.67
505.01	27056.59
505.18	26759.34
505.36	26993.40
505.53	27016.80
505.71	26857.65
505.88	27091.70
506.06	26813.18
506.23	27075.32
506.41	27227.45
506.58	27400.65
506.76	27491.93
506.93	27475.55
507.11	27419.38
507.28	27826.63
507.46	27517.68
507.63	27725.99
507.81	28006.85
507.98	27857.06
508.16	28032.60
508.33	28332.18
508.50	28154.30
508.68	28467.94
508.85	28924.34
509.03	28559.22
509.20	28610.71
509.38	28971.15
509.55	29067.11
509.73	28907.96
509.90	28819.02
510.08	29062.43
510.25	28776.89
510.42	29109.24
510.60	29111.58
510.77	29198.18
510.95	29514.16
511.12	29507.13
511.30	29720.12
511.47	29886.30
511.64	29729.48
511.82	30258.45
511.99	29919.07
512.17	29846.51
512.34	29944.81
512.51	30136.74
512.69	30445.69
512.86	30534.63
513.04	30422.28
513.21	30579.10
513.38	30529.95
513.56	30848.26
513.73	30546.33
513.90	30733.57
514.08	30565.06
514.25	30862.30
514.43	30927.84
514.60	30595.48
514.77	31267.22
514.95	30892.73
515.12	31049.55
515.29	31262.54
515.47	31206.36
515.64	31641.70
515.81	31185.30
515.99	31615.96
516.16	31620.64
516.33	31679.15
516.51	31934.27
516.68	31505.95
516.85	31527.02
517.03	31519.99
517.20	31508.29
517.37	31601.91
517.54	31711.92
517.72	31779.79
517.89	31990.44
518.06	31681.49
518.24	32084.06
518.41	32034.91
518.58	32278.33
518.75	32290.03
518.93	32617.71
519.10	32350.88
519.27	32236.20
519.45	32685.58
519.62	32854.10
519.79	33055.39
519.96	32856.44
520.14	32973.47
520.31	32973.47
520.48	33055.39
520.65	33137.30
520.83	33127.94
521.00	33366.68
521.17	33916.70
521.34	33523.49
521.52	33645.20
521.69	33729.46
521.86	33577.33
522.03	34125.01
522.20	33907.34
522.38	34057.14
522.55	34003.30
522.72	34143.74
522.89	33895.64
523.07	34543.97
523.24	34078.20
523.41	34169.48
523.58	34417.58
523.75	34539.29
523.92	34347.36
524.10	34836.53
524.27	34852.92
524.44	34665.67
524.61	34890.37
524.78	35082.29
524.96	35072.93
525.13	35185.27
525.30	35414.65
525.47	35185.27
525.64	34888.03
525.81	35136.12
525.98	34923.13
526.16	35189.95
526.33	35042.50
526.50	35140.80
526.67	35033.14
526.84	34932.50
527.01	34810.79
527.18	35431.03
527.36	35744.66
527.53	35887.43
527.70	35938.93
527.87	35672.10
528.04	36023.19
528.21	36308.73
528.38	35969.35
528.55	36219.79
528.72	36531.08
528.89	36498.31
529.07	36545.12
529.24	35644.02
529.41	35880.41
529.58	36271.28
529.75	35924.88
529.92	36327.45
530.09	36921.95
530.26	36634.06
530.43	36870.46
530.60	36542.78
530.77	36652.79
530.94	36608.32
531.11	36713.64
531.28	36896.20
531.46	36921.95
531.63	37008.55
531.80	36950.04
531.97	37120.90
532.14	36790.88
532.31	36978.12
532.48	37001.53
532.65	36821.31
532.82	37113.87
532.99	36961.74
533.16	36830.67
533.33	37053.02
533.50	37607.73
533.67	37144.30
533.84	37584.32
534.01	37717.73
534.18	37200.47
534.35	38185.84
534.52	38066.47
534.69	38103.92
534.86	38251.38
535.03	37544.53
535.20	38483.09
535.37	38124.99
535.54	38178.82
535.71	38162.43
535.88	38087.54
536.05	38569.69
536.22	38586.07
536.38	38185.84
536.55	38195.20
536.72	38990.98
536.89	38279.46
537.06	38749.91
537.23	38618.84
537.40	38457.34
537.57	38483.09
537.74	38555.64
537.91	38600.12
538.08	38749.91
538.25	38497.13
538.42	38623.52
538.59	39196.95
538.75	38843.53
538.92	38639.90
539.09	38792.04
539.26	38838.85
539.43	39482.50
539.60	38897.36
539.77	38920.77
539.94	39152.48
540.11	38953.54
540.28	38946.51
540.44	38646.93
540.61	39054.18
540.78	39290.57
540.95	39564.42
541.12	38820.13
541.29	39262.49
541.46	39089.29
541.62	39173.55
541.79	39281.21
541.96	39313.98
542.13	39440.37
542.30	39578.46
542.47	39611.23
542.63	40027.84
542.80	39573.78
542.97	40493.61
543.14	40034.86
543.31	40086.36
543.48	39978.69
543.64	40730.00
543.81	40275.94
543.98	39966.99
544.15	40414.03
544.32	40561.48
544.48	40800.22
544.65	40451.48
544.82	40444.46
544.99	40051.25
545.16	40528.72
545.32	40610.64
545.49	40912.56
545.66	41001.50
545.83	41038.95
546.00	41088.10
546.16	40942.99
546.33	41275.35
546.50	40135.51
546.67	40896.18
546.83	40486.59
547.00	40877.46
547.17	40907.88
547.34	40744.05
547.50	40722.98
547.67	41092.79
547.84	41291.73
548.00	40935.97
548.17	41500.04
548.34	41317.48
548.51	41429.82
548.67	41422.80
548.84	41425.14
549.01	41324.50
549.18	41303.43
549.34	41354.93
549.51	41731.75
549.68	41897.93
549.84	41429.82
550.01	41525.78
550.18	41383.01
550.34	41778.56
550.51	41560.89
550.68	41605.36
550.84	41792.61
551.01	41801.97
551.18	41661.54
551.34	41902.61
551.51	42225.60
551.68	41420.46
551.84	42312.20
552.01	41785.58
552.18	41745.80
552.34	41727.07
552.51	41661.54
552.68	41574.94
552.84	42522.85
553.01	42293.48
553.18	42284.12
553.34	42211.56
553.51	41813.67
553.67	42043.04
553.84	42000.91
554.01	41853.46
554.17	42363.70
554.34	42714.78
554.51	42787.33
554.67	42625.84
554.84	42415.19
555.00	42450.30
555.17	42136.66
555.33	42529.87
555.50	42136.66
555.67	42251.35
555.83	42717.12
556.00	43021.39
556.16	42796.70
556.33	42913.72
556.50	42539.24
556.66	42909.04
556.83	42288.80
556.99	42625.84
557.16	43100.97
557.32	42564.98
557.49	43166.50
557.65	42801.38
557.82	42787.33
557.98	42700.73
558.15	42930.11
558.32	43030.75
558.48	42855.21
558.65	42429.23
558.81	42714.78
558.98	42607.11
559.14	43145.44
559.31	42742.86
559.47	43325.66
559.64	43196.93
559.80	43667.37
559.97	43065.86
560.13	42574.34
560.30	42724.14
560.46	42941.81
560.63	43253.10
560.79	43482.47
560.96	43313.95
561.12	43299.91
561.29	43667.37
561.45	43077.56
561.61	43430.98
561.78	43194.59
561.94	43274.16
562.11	43416.94
562.27	43119.69
562.44	43248.42
562.60	43264.80
562.77	43063.52
562.93	43323.32
563.10	43643.97
563.26	42768.61
563.42	43667.37
563.59	43433.32
563.75	43512.90
563.92	43749.29
564.08	43643.97
564.24	43849.94
564.41	43681.42
564.57	43803.13
564.74	43409.92
564.90	43313.95
565.07	43374.81
565.23	43585.46
565.39	43751.63
565.56	43587.80
565.72	43353.74
565.88	43175.86
566.05	43739.93
566.21	43959.94
566.38	43550.35
566.54	43768.02
566.70	44294.64
566.87	44020.80
567.03	43896.75
567.19	44367.20
567.36	43672.06
567.52	43714.19
567.68	44072.29
567.85	43571.41
568.01	43718.87
568.17	43709.50
568.34	44119.10
568.50	43938.88
568.66	43746.95
568.83	43805.47
568.99	43746.95
569.15	43973.98
569.32	43583.12
569.48	43318.64
569.64	44072.29
569.81	43938.88
569.97	43452.05
570.13	44402.30
570.30	43536.30
570.46	43756.32
570.62	43608.86
570.78	43945.90
570.95	43496.52
571.11	44119.10
571.27	44069.95
571.43	43721.21
571.60	43658.01
571.76	43866.32
571.92	43803.13
572.09	43840.57
572.25	44062.93
572.41	43784.40
572.57	44079.31
572.74	44161.23
572.90	44144.84
573.06	44182.29
573.22	43772.70
573.38	43971.64
573.55	43901.43
573.71	43976.33
573.87	44133.14
574.03	43594.82
574.20	44296.98
574.36	44252.51
574.52	44034.84
574.68	44376.56
574.84	44458.48
575.01	43697.80
575.17	43988.03
575.33	43938.88
575.49	43817.17
575.65	44299.32
575.82	44367.20
575.98	44381.24
576.14	44432.73
576.30	43952.92
576.46	44039.52
576.62	43861.64
576.79	44151.87
576.95	43807.81
577.11	44004.41
577.27	43840.57
577.43	44224.42
577.59	44194.00
577.75	44201.02
577.92	43952.92
578.08	43842.92
578.24	44091.01
578.40	44416.35
578.56	44350.81
578.72	44203.36
578.88	44268.89
579.04	44451.45
579.21	44549.76
579.37	44004.41
579.53	44105.06
579.69	43683.76
579.85	44240.81
580.01	44596.57
580.17	44385.92
580.33	43945.90
580.49	44224.42
580.65	44458.48
580.82	44634.02
580.98	44032.50
581.14	44137.82
581.30	44191.65
581.46	44584.86
581.62	44062.93
581.78	44509.97
581.94	44591.89
582.10	44266.55
582.26	44294.64
582.42	44318.04
582.58	44451.45
582.74	44065.27
582.90	44130.80
583.06	44495.92
583.22	44353.15
583.38	44655.08
583.54	44329.75
583.70	44648.06
583.86	44020.80
584.02	43964.62
584.18	44399.96
584.34	44205.70
584.50	44458.48
584.66	44095.69
584.82	44212.72
584.98	44741.68
585.14	44556.78
585.30	44236.12
585.46	44121.44
585.62	44325.07
585.78	44460.82
585.94	44006.75
586.10	44458.48
586.26	43959.94
586.42	44238.47
586.58	44519.33
586.74	44149.53
586.90	44196.34
587.06	44311.02
587.22	44186.97
587.38	44313.36
587.54	44273.57
587.70	44685.51
587.86	44156.55
588.02	44275.91
588.18	44219.74
588.34	44294.64
588.49	44072.29
588.65	44039.52
588.81	43880.36
588.97	44069.95
589.13	44259.53
589.29	44287.62
589.45	44718.28
589.61	44240.81
589.77	44753.38
589.93	44772.11
590.08	44491.24
590.24	44367.20
590.40	44828.28
