SpectraSuite Data File
++++++++++++++++++++++++++++++++++++
Date: Fri Oct 25 10:47:31 EDT 2013
User: price-jones
Dark Spectrum Present: No
Reference Spectrum Present: No
Number of Sampled Component Spectra: 1
Spectrometers: USB2+H05261
Integration Time (usec): 100000 (USB2+H05261)
Spectra Averaged: 1 (USB2+H05261)
Boxcar Smoothing: 0 (USB2+H05261)
Correct for Electrical Dark: No (USB2+H05261)
Strobe/Lamp Enabled: No (USB2+H05261)
Correct for Detector Non-linearity: No (USB2+H05261)
Correct for Stray Light: No (USB2+H05261)
Number of Pixels in Processed Spectrum: 2048
>>>>>Begin Processed Spectral Data<<<<<
365.73	140.43
365.92	140.43
366.12	140.43
366.32	58.51
366.52	0.00
366.72	0.00
366.91	23.41
367.11	72.56
367.31	0.00
367.51	100.64
367.70	0.00
367.90	56.17
368.10	23.41
368.30	0.00
368.49	0.00
368.69	88.94
368.89	39.79
369.09	49.15
369.28	124.05
369.48	0.00
369.68	95.96
369.87	105.32
370.07	88.94
370.27	138.09
370.47	257.46
370.66	341.72
370.86	468.11
371.06	477.47
371.25	402.57
371.45	416.62
371.65	461.09
371.84	383.85
372.04	440.02
372.24	500.87
372.44	411.93
372.63	447.04
372.83	479.81
373.03	533.64
373.22	468.11
373.42	552.37
373.62	463.43
373.81	512.58
374.01	589.82
374.21	461.09
374.40	514.92
374.60	533.64
374.79	575.77
374.99	550.03
375.19	622.58
375.38	599.18
375.58	491.51
375.78	575.77
375.97	617.90
376.17	608.54
376.37	500.87
376.56	524.28
376.76	543.00
376.95	582.79
377.15	615.56
377.35	674.07
377.54	585.13
377.74	578.11
377.93	557.05
378.13	573.43
378.33	624.92
378.52	678.76
378.72	655.35
378.91	620.24
379.11	582.79
379.31	561.73
379.50	521.94
379.70	587.47
379.89	671.73
380.09	648.33
380.28	559.39
380.48	615.56
380.68	664.71
380.87	535.98
381.07	641.31
381.26	613.22
381.46	587.47
381.65	690.46
381.85	662.37
382.04	683.44
382.24	676.41
382.43	650.67
382.63	807.48
382.83	697.48
383.02	636.63
383.22	744.29
383.41	657.69
383.61	760.67
383.80	786.42
384.00	674.07
384.19	786.42
384.39	650.67
384.58	800.46
384.78	748.97
384.97	727.91
385.17	699.82
385.36	697.48
385.56	709.18
385.75	720.88
385.95	755.99
386.14	826.21
386.34	720.88
386.53	730.25
386.72	713.86
386.92	751.31
387.11	791.10
387.31	809.83
387.50	798.12
387.70	798.12
387.89	847.27
388.09	819.19
388.28	805.14
388.48	875.36
388.67	786.42
388.86	788.76
389.06	884.72
389.25	887.06
389.45	835.57
389.64	826.21
389.84	896.43
390.03	908.13
390.22	971.32
390.42	905.79
390.61	926.85
390.81	901.11
391.00	964.30
391.19	929.19
391.39	901.11
391.58	908.13
391.78	873.02
391.97	994.73
392.16	851.96
392.36	987.71
392.55	919.83
392.75	997.07
392.94	908.13
393.13	945.58
393.33	978.34
393.52	915.15
393.71	1013.45
393.91	940.90
394.10	1036.86
394.29	1027.50
394.49	1029.84
394.68	1011.11
394.88	1057.92
395.07	1139.84
395.26	1100.05
395.46	1104.73
395.65	1090.69
395.84	1050.90
396.04	1207.72
396.23	1174.95
396.42	1111.75
396.62	1233.46
396.81	1142.18
397.00	1118.78
397.19	1076.65
397.39	1144.52
397.58	1203.04
397.77	1186.65
397.97	1240.48
398.16	1238.14
398.35	1275.59
398.55	1174.95
398.74	1289.64
398.93	1275.59
399.12	1256.87
399.32	1238.14
399.51	1348.15
399.70	1341.13
399.90	1306.02
400.09	1254.53
400.28	1341.13
400.47	1331.76
400.67	1446.45
400.86	1416.02
401.05	1364.53
401.24	1455.81
401.44	1514.33
401.63	1425.39
401.82	1549.43
402.01	1338.79
402.21	1451.13
402.40	1472.20
402.59	1481.56
402.78	1502.62
402.97	1474.54
403.17	1640.72
403.36	1586.88
403.55	1568.16
403.74	1666.46
403.93	1572.84
404.13	1584.54
404.32	1657.10
404.51	1621.99
404.70	1593.90
404.89	1589.22
405.09	1727.32
405.28	1687.53
405.47	1584.54
405.66	1724.97
405.85	1720.29
406.05	1659.44
406.24	1680.50
406.43	1741.36
406.62	1853.70
406.81	1769.44
407.00	1797.53
407.20	1685.19
407.39	1820.94
407.58	1816.26
407.77	1872.43
407.96	1947.33
408.15	1926.26
408.34	1891.15
408.54	1895.83
408.73	1937.96
408.92	1900.52
409.11	1977.75
409.30	2101.80
409.49	1940.30
409.68	1926.26
409.87	2083.08
410.07	2010.52
410.26	2033.93
410.45	2101.80
410.64	2143.93
410.83	2279.68
411.02	2134.57
411.21	2160.31
411.40	2122.87
411.59	2258.62
411.78	2298.41
411.98	2260.96
412.17	2331.17
412.36	2305.43
412.55	2275.00
412.74	2408.41
412.93	2275.00
413.12	2284.36
413.31	2532.46
413.50	2429.48
413.69	2462.24
413.88	2572.25
414.07	2478.63
414.26	2462.24
414.45	2555.86
414.64	2530.12
414.83	2600.34
415.02	2586.29
415.22	2654.17
415.41	2684.59
415.60	2703.32
415.79	2839.07
415.98	2810.98
416.17	2848.43
416.36	2836.73
416.55	2848.43
416.74	2825.03
416.93	2808.64
417.12	2813.32
417.31	2951.42
417.50	2918.65
417.69	2970.14
417.88	2895.24
418.07	3021.63
418.26	2920.99
418.45	3098.87
418.64	3063.76
418.83	3089.51
419.02	3141.00
419.21	3089.51
419.39	3190.15
419.58	3054.40
419.77	3045.04
419.96	3162.06
420.15	3169.09
420.34	3206.53
420.53	3166.74
420.72	3211.22
420.91	3204.19
421.10	3283.77
421.29	3396.12
421.48	3222.92
421.67	3311.86
421.86	3328.24
422.05	3323.56
422.24	3234.62
422.43	3300.16
422.61	3435.91
422.80	3391.44
422.99	3435.91
423.18	3445.27
423.37	3597.40
423.56	3438.25
423.75	3400.80
423.94	3529.53
424.13	3218.24
424.32	3286.11
424.50	3452.29
424.69	3475.70
424.88	3517.83
425.07	3379.73
425.26	3417.18
425.45	3548.25
425.64	3480.38
425.83	3431.23
426.01	3496.76
426.20	3400.80
426.39	3578.68
426.58	3510.80
426.77	3557.61
426.96	3485.06
427.15	3487.40
427.33	3557.61
427.52	3609.11
427.71	3630.17
427.90	3625.49
428.09	3679.32
428.28	3583.36
428.46	3721.45
428.65	3667.62
428.84	3751.88
429.03	3721.45
429.22	3707.41
429.40	3648.90
429.59	3681.66
429.78	3641.87
429.97	3517.83
430.16	3602.08
430.34	3768.26
430.53	3927.42
430.72	3763.58
430.91	3779.97
431.10	3770.60
431.28	3943.80
431.47	4081.89
431.66	4072.53
431.85	3936.78
432.03	4077.21
432.22	4063.17
432.41	4035.08
432.60	4117.00
432.79	4159.13
432.97	4124.02
433.16	4152.11
433.35	3997.64
433.54	4074.87
433.72	4215.30
433.91	4152.11
434.10	4166.15
434.28	4308.93
434.47	4271.48
434.66	4231.69
434.85	4344.03
435.03	4329.99
435.22	4313.61
435.41	4458.72
435.59	4325.31
435.78	4360.42
435.97	4507.87
436.16	4428.29
436.34	4430.63
436.53	4554.68
436.72	4706.82
436.90	4475.10
437.09	4554.68
437.28	4533.62
437.46	4503.19
437.65	4482.13
437.84	4627.24
438.02	4622.56
438.21	4617.88
438.40	4517.23
438.58	4748.95
438.77	4802.78
438.96	4858.95
439.14	4807.46
439.33	5060.24
439.52	4922.15
439.70	4809.80
439.89	4945.55
440.08	5029.81
440.26	5111.73
440.45	5025.13
440.63	5060.24
440.82	5198.33
441.01	5177.26
441.19	5291.95
441.38	5317.70
441.57	5310.68
441.75	5270.89
441.94	5558.77
442.12	5568.13
442.31	5624.31
442.50	5502.60
442.68	5495.58
442.87	5523.66
443.05	5425.36
443.24	5729.63
443.43	5664.10
443.61	5612.60
443.80	5764.74
443.98	5507.28
444.17	5481.53
444.35	5650.05
444.54	5783.46
444.73	5687.50
444.91	5640.69
445.10	5659.42
445.28	5760.06
445.47	5696.86
445.65	5760.06
445.84	5804.53
446.02	5720.27
446.21	5727.29
446.39	5689.84
446.58	5746.02
446.77	5912.19
446.95	5647.71
447.14	5708.57
447.32	5809.21
447.51	5827.93
447.69	5640.69
447.88	5769.42
448.06	5851.34
448.25	5802.19
448.43	5872.40
448.62	5947.30
448.80	5827.93
448.99	5870.06
449.17	5804.53
449.36	5839.64
449.54	6033.90
449.73	6026.88
449.91	6139.23
450.10	6221.14
450.28	6265.61
450.46	6167.31
450.65	6265.61
450.83	6342.85
451.02	6394.34
451.20	6431.79
451.39	6258.59
451.57	6174.33
451.76	6274.98
451.94	6228.17
452.13	6436.47
452.31	6216.46
452.49	6282.00
452.68	6431.79
452.86	6413.07
453.05	6494.99
453.23	6340.51
453.42	6373.28
453.60	6408.39
453.78	6527.75
453.97	6565.20
454.15	6567.54
454.34	6485.62
454.52	6490.31
454.70	6459.88
454.89	6492.65
455.07	6509.03
455.26	6635.42
455.44	6740.74
455.62	6789.89
455.81	6705.63
455.99	6729.04
456.17	6773.51
456.36	6817.98
456.54	7063.74
456.73	7007.56
456.91	7267.36
457.09	7077.78
457.28	7213.53
457.46	6925.65
457.64	7012.24
457.83	7286.09
458.01	6913.94
458.19	7176.08
458.38	7066.08
458.56	7335.24
458.74	7330.56
458.93	7178.42
459.11	7234.60
459.29	7157.36
459.48	7302.47
459.66	7335.24
459.84	7382.05
460.03	7300.13
460.21	7368.01
460.39	7466.31
460.57	7342.26
460.76	7590.36
460.94	7559.93
461.12	7527.16
461.31	7576.31
461.49	7461.63
461.67	7389.07
461.85	7768.24
462.04	7595.04
462.22	8081.87
462.40	7901.65
462.59	7758.88
462.77	7871.22
462.95	7740.15
463.13	7777.60
463.32	7796.32
463.50	8037.40
463.68	7889.95
463.86	7838.45
464.05	7932.08
464.23	7637.17
464.41	8044.42
464.59	7878.24
464.78	8173.15
464.96	7985.91
465.14	8049.10
465.32	8056.12
465.50	8088.89
465.69	8351.03
465.87	7971.86
466.05	7981.23
466.23	8067.83
466.41	8243.37
466.60	8297.20
466.78	8042.08
466.96	8037.40
467.14	8154.43
467.32	8241.03
467.51	8322.94
467.69	8084.21
467.87	8301.88
468.05	8416.57
468.23	8264.43
468.41	8404.86
468.60	8327.63
468.78	8549.98
468.96	8362.73
469.14	8521.89
469.32	8786.37
469.50	8381.46
469.69	8542.96
469.87	8638.92
470.05	8533.59
470.23	8758.28
470.41	8833.18
470.59	8985.32
470.77	8814.46
470.95	9034.47
471.14	8868.29
471.32	8915.10
471.50	8854.25
471.68	9008.72
471.86	9107.02
472.04	9144.47
472.22	9212.35
472.40	8997.02
472.58	8997.02
472.77	9062.55
472.95	9399.59
473.13	9621.94
473.31	9071.92
473.49	9355.12
473.67	9390.23
473.85	9430.02
474.03	9678.12
474.21	9741.31
474.39	9973.02
474.57	9895.78
474.75	9626.62
474.93	10045.58
475.12	9940.26
475.30	10047.92
475.48	9848.97
475.66	10083.03
475.84	10134.52
476.02	10143.88
476.20	10076.01
476.38	10485.60
476.56	10719.65
476.74	10651.78
476.92	10246.87
477.10	10609.65
477.28	10448.15
477.46	10626.03
477.64	10626.03
477.82	10913.92
478.00	11356.28
478.18	11091.80
478.36	11101.16
478.54	11173.72
478.72	11309.47
478.90	11543.52
479.08	11508.41
479.26	11719.06
479.44	11517.78
479.62	11793.96
479.80	12063.12
479.98	11978.86
480.16	12212.92
480.34	12028.01
480.52	12250.36
480.70	12163.76
480.88	11812.68
481.06	12365.05
481.24	12343.99
481.41	12571.02
481.59	12798.05
481.77	12823.80
481.95	12980.61
482.13	12765.28
482.31	12912.74
482.49	13198.28
482.67	13401.91
482.85	13411.27
483.03	13500.21
483.21	13694.47
483.39	13755.33
483.57	13837.25
483.74	13720.22
483.92	14022.15
484.10	13809.16
484.28	14321.74
484.46	14195.35
484.64	14668.14
484.82	14295.99
485.00	14487.92
485.18	14892.83
485.35	14574.52
485.53	14682.18
485.71	14920.92
485.89	15042.62
486.07	14963.04
486.25	15225.18
486.43	15360.94
486.61	15393.70
486.78	15506.05
486.96	15571.58
487.14	16072.46
487.32	16217.57
487.50	16224.59
487.68	16130.97
487.85	16510.14
488.03	16727.81
488.21	16706.74
488.39	16645.89
488.57	16638.87
488.75	17177.19
488.92	17060.16
489.10	17399.54
489.28	17472.10
489.46	17446.35
489.64	17469.76
489.81	17767.01
489.99	18263.20
490.17	18223.41
490.35	18274.90
490.53	18223.41
490.70	18256.18
490.88	18469.17
491.06	18836.63
491.24	18625.98
491.41	18775.78
491.59	18780.46
491.77	18867.06
491.95	18845.99
492.13	19187.71
492.30	19070.68
492.48	19421.77
492.66	19630.07
492.84	19562.20
493.01	19798.59
493.19	19726.04
493.37	20278.40
493.54	20088.82
493.72	20245.63
493.90	20587.35
494.08	20458.62
494.25	20915.03
494.43	20882.26
494.61	21067.16
494.79	20947.79
494.96	20781.62
495.14	21027.37
495.32	21500.16
495.49	21312.92
495.67	21525.91
495.85	21717.83
496.02	21731.87
496.20	22485.53
496.38	21867.63
496.55	22134.45
496.73	22661.07
496.91	22466.80
497.09	22309.99
497.26	22651.70
497.44	22574.47
497.62	22855.33
497.79	23016.83
497.97	23138.54
498.14	23119.81
498.32	23190.03
498.50	23445.15
498.67	23281.31
498.85	23330.46
499.03	24074.75
499.20	23896.87
499.38	23496.64
499.56	24037.30
499.73	24290.08
499.91	24086.45
500.08	24173.05
500.26	23903.89
500.44	24346.25
500.61	23915.59
500.79	24025.60
500.97	24421.15
501.14	24734.78
501.32	24840.11
501.49	24561.58
501.67	24788.61
501.84	24992.24
502.02	25109.27
502.20	25312.89
502.37	24959.47
502.55	25127.99
502.72	25336.30
502.90	25308.21
503.07	25057.78
503.25	25301.19
503.43	25586.74
503.60	25369.07
503.78	25916.75
503.95	25832.49
504.13	25867.60
504.30	26066.55
504.48	25813.77
504.65	25926.11
504.83	26113.36
505.01	26560.40
505.18	26508.91
505.36	26562.74
505.53	26478.48
505.71	26668.06
505.88	27108.08
506.06	26534.65
506.23	27260.22
506.41	26892.76
506.58	26876.37
506.76	27222.77
506.93	27463.85
507.11	27154.90
507.28	27421.72
507.46	27094.04
507.63	27398.31
507.81	28046.64
507.98	27517.68
508.16	27777.48
508.33	27957.70
508.50	27770.46
508.68	28093.45
508.85	28444.53
509.03	28290.06
509.20	28009.19
509.38	28470.28
509.55	28283.03
509.73	28226.86
509.90	28673.90
510.08	28577.94
510.25	28371.97
510.42	28781.57
510.60	28753.48
510.77	29027.32
510.95	29172.44
511.12	29277.76
511.30	29525.86
511.47	29504.79
511.64	29511.81
511.82	29436.92
511.99	29289.46
512.17	29689.70
512.34	29422.87
512.51	30096.95
512.69	29778.64
512.86	29876.94
513.04	30368.45
513.21	30113.33
513.38	30050.14
513.56	30340.36
513.73	30178.87
513.90	30199.93
514.08	30541.65
514.25	30342.70
514.43	30745.28
514.60	30309.94
514.77	30258.45
514.95	30593.14
515.12	30583.78
515.29	31126.78
515.47	31321.05
515.64	31140.83
515.81	31402.97
515.99	31409.99
516.16	31201.68
516.33	31157.21
516.51	31559.78
516.68	31047.21
516.85	31395.95
517.03	31239.13
517.20	31929.59
517.37	31910.86
517.54	31157.21
517.72	31782.13
517.89	31725.96
518.06	31971.72
518.24	31583.19
518.41	31667.45
518.58	31922.57
518.75	32009.17
518.93	32245.56
519.10	32283.01
519.27	32144.92
519.45	32657.49
519.62	32510.04
519.79	32772.18
519.96	32917.29
520.14	32809.63
520.31	32673.88
520.48	32741.75
520.65	32776.86
520.83	33099.86
521.00	33418.17
521.17	33151.35
521.34	33221.56
521.52	33109.22
521.69	33312.84
521.86	33387.74
522.03	33521.15
522.20	33504.77
522.38	33696.69
522.55	33567.96
522.72	33528.17
522.89	33495.41
523.07	34218.63
523.24	33551.58
523.41	33792.65
523.58	33982.24
523.75	34031.39
523.92	34099.26
524.10	34436.30
524.27	34443.32
524.44	34600.14
524.61	34974.63
524.78	34675.04
524.96	34588.44
525.13	34869.30
525.30	35276.55
525.47	35056.54
525.64	35274.21
525.81	35208.68
525.98	35304.64
526.16	34785.04
526.33	34955.90
526.50	35248.47
526.67	35002.71
526.84	34939.52
527.01	34876.32
527.18	35484.86
527.36	35079.95
527.53	35461.46
527.70	35723.60
527.87	35974.03
528.04	35264.85
528.21	35810.20
528.38	35782.11
528.55	35988.08
528.72	35885.09
528.89	36187.02
529.07	35896.80
529.24	35651.04
529.41	35838.28
529.58	36016.16
529.75	35810.20
529.92	36439.80
530.09	36556.83
530.26	35887.43
530.43	36128.51
530.60	36004.46
530.77	36638.75
530.94	36577.89
531.11	36425.76
531.28	36730.03
531.46	37034.30
531.63	36685.56
531.80	36624.70
531.97	37031.96
532.14	37081.11
532.31	36725.35
532.48	36854.08
532.65	37425.17
532.82	37050.68
532.99	36947.70
533.16	36704.28
533.33	37511.77
533.50	37357.29
533.67	37099.83
533.84	37195.79
534.01	37368.99
534.18	37406.44
534.35	37233.24
534.52	37598.37
534.69	37453.25
534.86	37399.42
535.03	37368.99
535.20	37912.00
535.37	38197.54
535.54	38080.52
535.71	37748.16
535.88	38050.09
536.05	37734.12
536.22	38150.73
536.38	37935.40
536.55	37921.36
536.72	37935.40
536.89	37923.70
537.06	37741.14
537.23	38014.98
537.40	37783.27
537.57	38033.71
537.74	38323.93
537.91	38541.60
538.08	38567.35
538.25	38656.29
538.42	38897.36
538.59	38778.00
538.75	38153.07
538.92	38494.79
539.09	39187.59
539.26	38995.67
539.43	38754.59
539.60	38876.30
539.77	38813.10
539.94	39262.49
540.11	38667.99
540.28	38721.82
540.44	39213.34
540.61	39253.12
540.78	38873.96
540.95	38754.59
541.12	39079.92
541.29	39313.98
541.46	39194.61
541.62	39222.70
541.79	39480.16
541.96	39042.48
542.13	39295.25
542.30	39576.12
542.47	39154.82
542.63	39206.31
542.80	39449.73
542.97	40140.19
543.14	39814.85
543.31	40201.04
543.48	40357.86
543.64	40341.47
543.81	40374.24
543.98	40123.80
544.15	39945.92
544.32	40776.81
544.48	40374.24
544.65	40121.46
544.82	40121.46
544.99	39892.09
545.16	40481.91
545.32	40210.40
545.49	40636.38
545.66	40456.16
545.83	40367.22
546.00	40617.66
546.16	40758.09
546.33	40739.36
546.50	40112.10
546.67	40495.95
546.83	40133.17
547.00	40580.21
547.17	40664.47
547.34	40430.41
547.50	40884.48
547.67	41209.81
547.84	41148.96
548.00	40851.71
548.17	41273.01
548.34	40818.94
548.51	41556.21
548.67	41184.07
548.84	41233.22
549.01	41450.89
549.18	41322.16
549.34	41106.83
549.51	41553.87
549.68	41483.66
549.84	41577.28
550.01	41631.11
550.18	41645.15
550.34	41539.83
550.51	40961.72
550.68	41336.20
550.84	41427.48
551.01	41717.71
551.18	41670.90
551.34	41687.28
551.51	41572.60
551.68	41525.78
551.84	41385.35
552.01	41298.75
552.18	41778.56
552.34	41256.62
552.51	42251.35
552.68	41921.34
552.84	42302.84
553.01	42197.52
553.18	41963.46
553.34	42150.71
553.51	42061.77
553.67	41897.93
553.84	42054.75
554.01	42122.62
554.17	42714.78
554.34	42354.33
554.51	42270.08
554.67	42541.58
554.84	42543.92
555.00	42323.91
555.17	42115.60
555.33	42155.39
555.50	41989.21
555.67	42691.37
555.83	42298.16
556.00	42604.77
556.16	43056.50
556.33	42724.14
556.50	42637.54
556.66	42361.36
556.83	42628.18
556.99	42955.85
557.16	42665.63
557.32	42583.71
557.49	42815.42
557.65	42485.40
557.82	42410.51
557.98	42361.36
558.15	42686.69
558.32	42934.79
558.48	42529.87
558.65	43021.39
558.81	42660.94
558.98	42752.23
559.14	42967.55
559.31	42674.99
559.47	43232.04
559.64	43309.27
559.80	43236.72
559.97	43143.09
560.13	42859.89
560.30	42876.27
560.46	43356.08
560.63	43372.47
560.79	43339.70
560.96	43091.60
561.12	43379.49
561.29	43426.30
561.45	43068.20
561.61	43323.32
561.78	42852.87
561.94	42974.58
562.11	43112.67
562.27	42918.40
562.44	43409.92
562.60	43648.65
562.77	43353.74
562.93	43627.59
563.10	43555.03
563.26	43409.92
563.42	43210.97
563.59	43269.48
563.75	43138.41
563.92	43662.69
564.08	43381.83
564.24	43374.81
564.41	43796.10
564.57	43599.50
564.74	43332.68
564.90	43533.96
565.07	43370.13
565.23	43175.86
565.39	43894.41
565.56	43838.23
565.72	43805.47
565.88	43372.47
566.05	43473.11
566.21	43435.66
566.38	43328.00
566.54	43667.37
566.70	43842.92
566.87	44051.22
567.03	43791.42
567.19	43995.05
567.36	43901.43
567.52	43803.13
567.68	44201.02
567.85	43658.01
568.01	43611.20
568.17	43335.02
568.34	43873.34
568.50	43693.12
568.66	43915.47
568.83	43899.09
568.99	43669.72
569.15	43922.49
569.32	43934.20
569.48	43716.53
569.64	43859.30
569.81	43817.17
569.97	43597.16
570.13	43606.52
570.30	43793.76
570.46	43810.15
570.62	43489.49
570.78	43945.90
570.95	43784.40
571.11	43798.44
571.27	43459.07
571.43	43840.57
571.60	43941.22
571.76	43405.23
571.92	44133.14
572.09	43908.45
572.25	44119.10
572.41	43943.56
572.57	44149.53
572.74	44538.05
572.90	44088.67
573.06	44222.08
573.22	43924.83
573.38	43667.37
573.55	43753.97
573.71	44039.52
573.87	43650.99
574.03	43892.07
574.20	43938.88
574.36	43761.00
574.52	44257.19
574.68	44217.40
574.84	44098.03
575.01	44388.26
575.17	44257.19
575.33	44203.36
575.49	43920.15
575.65	44559.12
575.82	44652.74
575.98	44502.95
576.14	44458.48
576.30	43966.96
576.46	44032.50
576.62	43819.51
576.79	44112.08
576.95	43646.31
577.11	43983.35
577.27	44065.27
577.43	44091.01
577.59	44512.31
577.75	44409.32
577.92	44144.84
578.08	43847.60
578.24	43335.02
578.40	44156.55
578.56	43796.10
578.72	43964.62
578.88	44126.12
579.04	43856.96
579.21	44278.25
579.37	44198.68
579.53	43971.64
579.69	43545.67
579.85	43880.36
580.01	44306.34
580.17	44416.35
580.33	44357.83
580.49	44442.09
580.65	44252.51
580.82	44446.77
580.98	44231.44
581.14	43913.13
581.30	44341.45
581.46	44179.95
581.62	44091.01
581.78	43924.83
581.94	44524.01
582.10	44477.20
582.26	44048.88
582.42	44264.21
582.58	44264.21
582.74	43807.81
582.90	44423.37
583.06	44734.66
583.22	44360.17
583.38	44563.80
583.54	44369.54
583.70	44369.54
583.86	44453.79
584.02	43779.72
584.18	44116.76
584.34	44507.63
584.50	44343.79
584.66	44011.43
584.82	44243.15
584.98	44332.09
585.14	44053.56
585.30	44072.29
585.46	44123.78
585.62	44395.28
585.78	44481.88
585.94	43941.22
586.10	44271.23
586.26	43702.48
586.42	44514.65
586.58	44254.85
586.74	43990.37
586.90	44287.62
587.06	43966.96
587.22	44250.17
587.38	44011.43
587.54	44769.77
587.70	44861.05
587.86	44481.88
588.02	44477.20
588.18	44437.41
588.34	44390.60
588.49	44149.53
588.65	44383.58
588.81	44219.74
588.97	44147.18
589.13	44301.66
589.29	44116.76
589.45	44521.67
589.61	44570.82
589.77	44821.26
589.93	44912.54
590.08	44685.51
590.24	44676.15
590.40	44301.66
