SpectraSuite Data File
++++++++++++++++++++++++++++++++++++
Date: Fri Oct 25 11:33:14 EDT 2013
User: price-jones
Dark Spectrum Present: No
Reference Spectrum Present: No
Number of Sampled Component Spectra: 1
Spectrometers: USB2+H05261
Integration Time (usec): 100000 (USB2+H05261)
Spectra Averaged: 1 (USB2+H05261)
Boxcar Smoothing: 0 (USB2+H05261)
Correct for Electrical Dark: No (USB2+H05261)
Strobe/Lamp Enabled: No (USB2+H05261)
Correct for Detector Non-linearity: No (USB2+H05261)
Correct for Stray Light: No (USB2+H05261)
Number of Pixels in Processed Spectrum: 2048
>>>>>Begin Processed Spectral Data<<<<<
365.73	285.55
365.92	285.55
366.12	285.55
366.32	210.65
366.52	187.24
366.72	184.90
366.91	140.43
367.11	187.24
367.31	180.22
367.51	205.97
367.70	154.48
367.90	170.86
368.10	173.20
368.30	156.82
368.49	93.62
368.69	163.84
368.89	177.88
369.09	227.03
369.28	191.92
369.48	175.54
369.68	152.13
369.87	196.60
370.07	212.99
370.27	280.86
370.47	339.38
370.66	402.57
370.86	425.98
371.06	531.30
371.25	496.19
371.45	461.09
371.65	561.73
371.84	545.34
372.04	550.03
372.24	578.11
372.44	477.47
372.63	627.26
372.83	596.84
373.03	566.41
373.22	634.29
373.42	585.13
373.62	603.86
373.81	648.33
374.01	671.73
374.21	624.92
374.40	610.88
374.60	578.11
374.79	671.73
374.99	741.95
375.19	695.14
375.38	683.44
375.58	650.67
375.78	681.10
375.97	660.03
376.17	699.82
376.37	699.82
376.56	697.48
376.76	653.01
376.95	699.82
377.15	709.18
377.35	617.90
377.54	748.97
377.74	741.95
377.93	622.58
378.13	685.78
378.33	770.04
378.52	737.27
378.72	674.07
378.91	706.84
379.11	727.91
379.31	702.16
379.50	746.63
379.70	746.63
379.89	737.27
380.09	734.93
380.28	781.74
380.48	674.07
380.68	711.52
380.87	758.33
381.07	814.51
381.26	823.87
381.46	753.65
381.65	737.27
381.85	784.08
382.04	734.93
382.24	730.25
382.43	823.87
382.63	793.44
382.83	779.40
383.02	725.57
383.22	809.83
383.41	760.67
383.61	755.99
383.80	851.96
384.00	814.51
384.19	875.36
384.39	875.36
384.58	821.53
384.78	842.59
384.97	720.88
385.17	777.06
385.36	823.87
385.56	851.96
385.75	800.46
385.95	844.93
386.14	938.55
386.34	901.11
386.53	875.36
386.72	858.98
386.92	933.87
387.11	777.06
387.31	926.85
387.50	833.23
387.70	884.72
387.89	854.30
388.09	943.24
388.28	915.15
388.48	990.05
388.67	847.27
388.86	896.43
389.06	917.49
389.25	866.00
389.45	976.00
389.64	999.41
389.84	966.64
390.03	919.83
390.22	1064.94
390.42	947.92
390.61	931.53
390.81	1006.43
391.00	987.71
391.19	1100.05
391.39	1011.11
391.58	1032.18
391.78	1036.86
391.97	1013.45
392.16	1034.52
392.36	1067.28
392.55	1008.77
392.75	1055.58
392.94	1078.99
393.13	1083.67
393.33	1008.77
393.52	1090.69
393.71	1034.52
393.91	1146.86
394.10	1125.80
394.29	1160.91
394.49	1053.24
394.68	1158.57
394.88	1128.14
395.07	1158.57
395.26	1151.54
395.46	1179.63
395.65	1123.46
395.84	1235.80
396.04	1280.27
396.23	1217.08
396.42	1170.27
396.62	1210.06
396.81	1291.98
397.00	1210.06
397.19	1135.16
397.39	1266.23
397.58	1235.80
397.77	1270.91
397.97	1263.89
398.16	1273.25
398.35	1352.83
398.55	1357.51
398.74	1277.93
398.93	1380.92
399.12	1371.55
399.32	1294.32
399.51	1317.72
399.70	1394.96
399.90	1334.11
400.09	1352.83
400.28	1404.32
400.47	1495.60
400.67	1331.76
400.86	1509.65
401.05	1458.15
401.24	1366.87
401.44	1530.71
401.63	1479.22
401.82	1469.86
402.01	1448.79
402.21	1537.73
402.40	1542.41
402.59	1490.92
402.78	1462.83
402.97	1469.86
403.17	1575.18
403.36	1544.75
403.55	1603.27
403.74	1645.40
403.93	1607.95
404.13	1542.41
404.32	1589.22
404.51	1638.38
404.70	1626.67
404.89	1659.44
405.09	1636.03
405.28	1708.59
405.47	1687.53
405.66	1689.87
405.85	1696.89
406.05	1701.57
406.24	1778.81
406.43	1659.44
406.62	1743.70
406.81	1753.06
407.00	1790.51
407.20	1729.66
407.39	1729.66
407.58	1774.13
407.77	1832.64
407.96	1858.39
408.15	1970.73
408.34	1830.30
408.54	1994.14
408.73	1956.69
408.92	1856.04
409.11	1963.71
409.30	2064.35
409.49	1998.82
409.68	1973.07
409.87	2043.29
410.07	2064.35
410.26	1963.71
410.45	2062.01
410.64	2211.81
410.83	2232.87
411.02	2076.06
411.21	2169.68
411.40	2143.93
411.59	2174.36
411.78	2139.25
411.98	2190.74
412.17	2230.53
412.36	2223.51
412.55	2338.20
412.74	2319.47
412.93	2324.15
413.12	2361.60
413.31	2464.58
413.50	2396.71
413.69	2448.20
413.88	2490.33
414.07	2480.97
414.26	2642.46
414.45	2637.78
414.64	2490.33
414.83	2647.15
415.02	2759.49
415.22	2623.74
415.41	2754.81
415.60	2726.72
415.79	2663.53
415.98	2689.28
416.17	2757.15
416.36	2700.98
416.55	2717.36
416.74	2836.73
416.93	2782.90
417.12	2864.82
417.31	2731.41
417.50	2885.88
417.69	2939.71
417.88	2986.52
418.07	2892.90
418.26	2906.95
418.45	2869.50
418.64	3173.77
418.83	3070.78
419.02	3094.19
419.21	3159.72
419.39	3035.67
419.58	3066.10
419.77	3166.74
419.96	3166.74
420.15	3166.74
420.34	3204.19
420.53	3068.44
420.72	3309.52
420.91	3279.09
421.10	3185.47
421.29	3337.60
421.48	3365.69
421.67	3358.67
421.86	3368.03
422.05	3274.41
422.24	3218.24
422.43	3368.03
422.61	3323.56
422.80	3463.99
422.99	3375.05
423.18	3410.16
423.37	3501.44
423.56	3328.24
423.75	3438.25
423.94	3353.99
424.13	3379.73
424.32	3318.88
424.50	3506.12
424.69	3485.06
424.88	3543.57
425.07	3499.10
425.26	3407.82
425.45	3368.03
425.64	3389.10
425.83	3421.86
426.01	3508.46
426.20	3529.53
426.39	3634.85
426.58	3562.30
426.77	3559.95
426.96	3620.81
427.15	3634.85
427.33	3517.83
427.52	3630.17
427.71	3634.85
427.90	3515.48
428.09	3667.62
428.28	3691.02
428.46	3620.81
428.65	3770.60
428.84	3723.79
429.03	3836.14
429.22	3676.98
429.40	3705.07
429.59	3805.71
429.78	3747.20
429.97	3672.30
430.16	3819.75
430.34	3805.71
430.53	3875.93
430.72	3861.88
430.91	3873.59
431.10	3957.85
431.28	3871.25
431.47	3911.04
431.66	3976.57
431.85	3988.27
432.03	3904.01
432.22	4131.05
432.41	4283.18
432.60	4149.77
432.79	4079.55
432.97	4002.32
433.16	4180.20
433.35	4065.51
433.54	4236.37
433.72	4159.13
433.91	4093.60
434.10	4257.43
434.28	4367.44
434.47	4222.33
434.66	4264.46
434.85	4489.15
435.03	4332.33
435.22	4280.84
435.41	4414.25
435.59	4306.59
435.78	4332.33
435.97	4339.35
436.16	4510.21
436.34	4500.85
436.53	4517.23
436.72	4669.37
436.90	4503.19
437.09	4629.58
437.28	4461.06
437.46	4585.11
437.65	4627.24
437.84	4561.70
438.02	4533.62
438.21	4727.88
438.40	4751.29
438.58	4727.88
438.77	4882.36
438.96	4748.95
439.14	4819.16
439.33	4978.32
439.52	4943.21
439.70	4978.32
439.89	5160.88
440.08	4957.25
440.26	5135.14
440.45	4973.64
440.63	5130.45
440.82	5125.77
441.01	5130.45
441.19	5221.74
441.38	5460.47
441.57	5296.63
441.75	5303.65
441.94	5451.11
442.12	5451.11
442.31	5397.28
442.50	5453.45
442.68	5416.00
442.87	5544.73
443.05	5654.73
443.24	5600.90
443.43	5631.33
443.61	5685.16
443.80	5607.92
443.98	5514.30
444.17	5441.75
444.35	5575.16
444.54	5746.02
444.73	5668.78
444.91	5619.63
445.10	5757.72
445.28	5715.59
445.47	5734.31
445.65	5771.76
445.84	5703.89
446.02	5806.87
446.21	5795.17
446.39	5764.74
446.58	5823.25
446.77	5762.40
446.95	5610.26
447.14	5645.37
447.32	5888.79
447.51	5776.44
447.69	5832.62
447.88	5722.61
448.06	5626.65
448.25	5870.06
448.43	5935.60
448.62	5832.62
448.80	5837.30
448.99	5893.47
449.17	5851.34
449.36	5912.19
449.54	5968.37
449.73	5949.64
449.91	6092.41
450.10	6071.35
450.28	6251.57
450.46	6169.65
450.65	6186.04
450.83	6200.08
451.02	6249.23
451.20	6406.05
451.39	6319.45
451.57	6148.59
451.76	6197.74
451.94	6216.46
452.13	6380.30
452.31	6150.93
452.49	6150.93
452.68	6408.39
452.86	6349.87
453.05	6504.35
453.23	6602.65
453.42	6300.72
453.60	6427.11
453.78	6502.01
453.97	6448.18
454.15	6476.26
454.34	6389.66
454.52	6576.91
454.70	6649.46
454.89	6490.31
455.07	6679.89
455.26	6827.34
455.44	6628.40
455.62	6628.40
455.81	6686.91
455.99	6888.20
456.17	6780.53
456.36	6867.13
456.54	6785.21
456.73	6960.75
456.91	7012.24
457.09	7089.48
457.28	7180.76
457.46	6916.28
457.64	7096.50
457.83	7056.72
458.01	7037.99
458.19	7148.00
458.38	7112.89
458.56	7337.58
458.74	7129.27
458.93	7030.97
459.11	7243.96
459.29	7431.20
459.48	7389.07
459.66	7344.60
459.84	7595.04
460.03	7267.36
460.21	7524.82
460.39	7506.10
460.57	7382.05
460.76	7508.44
460.94	7466.31
461.12	7623.12
461.31	7545.89
461.49	7583.34
461.67	7550.57
461.85	7672.28
462.04	7779.94
462.22	8152.09
462.40	7941.44
462.59	7831.43
462.77	7719.09
462.95	7903.99
463.13	7705.04
463.32	7962.50
463.50	7901.65
463.68	8030.38
463.86	8088.89
464.05	7786.96
464.23	8046.76
464.41	7927.39
464.59	7950.80
464.78	8051.44
464.96	8177.83
465.14	8116.98
465.32	8241.03
465.50	8210.60
465.69	8236.35
465.87	8248.05
466.05	8166.13
466.23	8053.78
466.41	8285.50
466.60	8402.52
466.78	8276.13
466.96	8322.94
467.14	8163.79
467.32	8449.33
467.51	8645.94
467.69	8273.79
467.87	8430.61
468.05	8603.81
468.23	8500.83
468.41	8351.03
468.60	8416.57
468.78	8624.87
468.96	8573.38
469.14	8624.87
469.32	8816.80
469.50	8414.23
469.69	8620.19
469.87	8802.75
470.05	8847.22
470.23	8767.65
470.41	8903.40
470.59	9111.71
470.77	9046.17
470.95	8931.48
471.14	9273.20
471.32	8861.27
471.50	9090.64
471.68	8999.36
471.86	9341.08
472.04	9163.20
472.22	9521.30
472.40	9233.41
472.58	9336.40
472.77	9315.33
472.95	9348.10
473.13	9790.46
473.31	9535.34
473.49	9500.23
473.67	9444.06
473.85	9682.80
474.03	9930.89
474.21	9701.52
474.39	10083.03
474.57	9975.36
474.75	10029.20
474.93	10260.91
475.12	9888.76
475.30	10223.46
475.48	10197.71
475.66	10209.42
475.84	10202.40
476.02	10331.12
476.20	10223.46
476.38	10548.79
476.56	10658.80
476.74	10534.75
476.92	10651.78
477.10	10574.54
477.28	10747.74
477.46	10934.98
477.64	11073.07
477.82	10904.56
478.00	11257.98
478.18	11269.68
478.36	11447.56
478.54	11693.32
478.72	11587.99
478.90	11683.95
479.08	11592.67
479.26	11768.21
479.44	11808.00
479.62	11758.85
479.80	11808.00
479.98	12126.32
480.16	12142.70
480.34	12161.42
480.52	12404.84
480.70	12556.97
480.88	12526.55
481.06	12402.50
481.24	12463.35
481.41	12725.49
481.59	12603.78
481.77	12959.55
481.95	12992.31
482.13	13322.33
482.31	13212.32
482.49	13158.49
482.67	13540.00
482.85	13708.52
483.03	13811.50
483.21	13778.73
483.39	13919.17
483.57	13722.56
483.74	14085.34
483.92	14377.91
484.10	14106.41
484.28	14569.83
484.46	14682.18
484.64	14909.21
484.82	14516.00
485.00	14733.67
485.18	15073.05
485.35	15377.32
485.53	15192.42
485.71	15555.20
485.89	15407.75
486.07	15342.21
486.25	15543.50
486.43	15611.37
486.61	15852.45
486.78	16032.67
486.96	15936.71
487.14	16205.87
487.32	16346.30
487.50	16573.33
487.68	16819.09
487.85	16678.66
488.03	17348.05
488.21	17348.05
488.39	17343.37
488.57	17174.85
488.75	17256.77
488.92	17631.26
489.10	17666.36
489.28	17940.21
489.46	17996.38
489.64	18169.58
489.81	18459.81
489.99	18405.97
490.17	18356.82
490.35	18719.60
490.53	18707.90
490.70	18740.67
490.88	18946.64
491.06	19232.18
491.24	19176.01
491.41	19225.16
491.59	19370.27
491.77	19452.19
491.95	19807.95
492.13	19674.54
492.30	19948.39
492.48	19936.68
492.66	20166.06
492.84	20198.82
493.01	20451.60
493.19	20601.40
493.37	20388.41
493.54	20830.77
493.72	20861.19
493.90	20849.49
494.08	20795.66
494.25	21238.02
494.43	21263.77
494.61	21488.46
494.79	21645.27
494.96	21612.51
495.14	21401.86
495.32	21986.99
495.49	21839.54
495.67	22075.93
495.85	21851.24
496.02	22384.88
496.20	22789.80
496.38	22824.90
496.55	22586.17
496.73	23159.60
496.91	22906.82
497.09	23070.66
497.26	23087.04
497.44	23051.94
497.62	23531.75
497.79	23510.68
497.97	23578.56
498.14	23480.25
498.32	23889.85
498.50	24144.97
498.67	24137.94
498.85	24067.73
499.03	24243.27
499.20	24187.10
499.38	24542.86
499.56	24460.94
499.73	24835.42
499.91	25015.65
500.08	24666.91
500.26	24877.55
500.44	24725.42
500.61	24915.00
500.79	25247.36
500.97	25589.08
501.14	25862.92
501.32	25465.03
501.49	25652.27
501.67	25696.74
501.84	25881.64
502.02	25724.83
502.20	25678.02
502.37	25783.34
502.55	26026.76
502.72	26178.89
502.90	26129.74
503.07	26108.68
503.25	26544.02
503.43	26382.52
503.60	26352.09
503.78	26600.19
503.95	26813.18
504.13	26726.58
504.30	26939.57
504.48	26644.66
504.65	26569.76
504.83	27239.15
505.01	27433.42
505.18	27250.86
505.36	27421.72
505.53	27716.62
505.71	27817.27
505.88	28074.73
506.06	27749.39
506.23	28077.07
506.41	27978.76
506.58	28161.33
506.76	28224.52
506.93	28648.16
507.11	28285.37
507.28	28379.00
507.46	28589.64
507.63	28416.44
507.81	29057.75
507.98	28744.12
508.16	28879.87
508.33	28905.62
508.50	29235.63
508.68	29102.22
508.85	29298.83
509.03	29090.52
509.20	29366.70
509.38	29689.70
509.55	29748.21
509.73	29392.45
509.90	29919.07
510.08	29333.93
510.25	29673.31
510.42	29944.81
510.60	30611.87
510.77	30305.26
510.95	30361.43
511.12	30164.82
511.30	30532.29
511.47	30663.36
511.64	30225.68
511.82	30600.16
511.99	30913.80
512.17	30803.79
512.34	31007.42
512.51	30859.96
512.69	31372.54
512.86	31164.23
513.04	31267.22
513.21	31180.62
513.38	31850.01
513.56	31569.15
513.73	31606.59
513.90	31732.98
514.08	31543.40
514.25	31737.66
514.43	32046.62
514.60	32231.52
514.77	31826.60
514.95	32215.13
515.12	31859.37
515.29	32065.34
515.47	32395.35
515.64	32566.21
515.81	32084.06
515.99	32243.22
516.16	32376.63
516.33	32797.93
516.51	33259.01
516.68	32383.65
516.85	33139.65
517.03	32992.19
517.20	32828.35
517.37	33071.77
517.54	33151.35
517.72	33354.97
517.89	33244.97
518.06	33338.59
518.24	33062.41
518.41	33345.61
518.58	33354.97
518.75	33537.54
518.93	33586.69
519.10	33488.38
519.27	33394.76
519.45	33853.51
519.62	34199.91
519.79	34352.04
519.96	33769.25
520.14	34272.46
520.31	34143.74
520.48	34223.31
520.65	34150.76
520.83	35112.72
521.00	35021.44
521.17	34838.87
521.34	34740.57
521.52	34873.98
521.69	34866.96
521.86	35122.08
522.03	35201.66
522.20	35173.57
522.38	35374.86
522.55	35405.28
522.72	35407.62
522.89	35173.57
523.07	36009.14
523.24	35735.30
523.41	35852.33
523.58	35009.73
523.75	36079.36
523.92	35541.03
524.10	35697.85
524.27	35938.93
524.44	35871.05
524.61	36055.95
524.78	36355.54
524.96	36294.69
525.13	36212.77
525.30	36533.42
525.47	36364.90
525.64	36573.21
525.81	36994.51
525.98	36460.87
526.16	37022.59
526.33	36591.94
526.50	36893.86
526.67	36636.41
526.84	36659.81
527.01	36725.35
527.18	36725.35
527.36	37116.22
527.53	37195.79
527.70	37647.52
527.87	37483.68
528.04	37301.12
528.21	37741.14
528.38	37516.45
528.55	37921.36
528.72	37998.60
528.89	37598.37
529.07	37532.83
529.24	37544.53
529.41	37811.35
529.58	37972.85
529.75	38052.43
529.92	38155.41
530.09	38003.28
530.26	37970.51
530.43	38450.32
530.60	37874.55
530.77	38040.73
530.94	38174.14
531.11	38122.65
531.28	38031.36
531.46	38234.99
531.63	38295.85
531.80	38478.41
531.97	38719.48
532.14	38682.03
532.31	38969.92
532.48	38525.22
532.65	39126.74
532.82	38888.00
532.99	39047.16
533.16	38911.41
533.33	39124.40
533.50	39342.06
533.67	39283.55
533.84	39040.14
534.01	39250.78
534.18	39639.31
534.35	39487.18
534.52	39599.52
534.69	40222.11
534.86	39749.32
535.03	39627.61
535.20	39683.78
535.37	39599.52
535.54	39948.26
535.71	39601.86
535.88	40364.88
536.05	39739.96
536.22	40453.82
536.38	40407.01
536.55	39882.73
536.72	40402.33
536.89	40161.25
537.06	40306.37
537.23	40282.96
537.40	40528.72
537.57	39992.73
537.74	39856.98
537.91	40648.08
538.08	40882.14
538.25	40266.58
538.42	40685.53
538.59	40966.40
538.75	41022.57
538.92	40587.23
539.09	40858.73
539.26	40844.69
539.43	41050.66
539.60	40980.44
539.77	41097.47
539.94	41462.59
540.11	41408.76
540.28	41060.02
540.44	41071.72
540.61	40961.72
540.78	41329.18
540.95	41301.09
541.12	41099.81
541.29	41638.13
541.46	41844.10
541.62	41514.08
541.79	41621.75
541.96	41172.36
542.13	41404.08
542.30	41731.75
542.47	41947.08
542.63	41883.89
542.80	42174.11
542.97	42239.65
543.14	42160.07
543.31	42253.69
543.48	42171.77
543.64	42356.67
543.81	42787.33
543.98	42564.98
544.15	42220.92
544.32	42976.92
544.48	42586.05
544.65	42569.66
544.82	42738.18
544.99	42394.12
545.16	42969.90
545.32	42986.28
545.49	43206.29
545.66	43166.50
545.83	43438.00
546.00	43248.42
546.16	43056.50
546.33	42862.23
546.50	42667.97
546.67	43096.28
546.83	42625.84
547.00	42916.06
547.17	43206.29
547.34	43171.18
547.50	43573.75
547.67	43746.95
547.84	43533.96
548.00	43185.22
548.17	44222.08
548.34	43737.59
548.51	43997.39
548.67	43639.29
548.84	43978.67
549.01	43728.23
549.18	43662.69
549.34	43650.99
549.51	43906.11
549.68	43803.13
549.84	43770.36
550.01	44439.75
550.18	43679.08
550.34	44203.36
550.51	43992.71
550.68	44116.76
550.84	44069.95
551.01	44470.18
551.18	44191.65
551.34	44074.63
551.51	44011.43
551.68	44437.41
551.84	43889.73
552.01	44444.43
552.18	44172.93
552.34	44156.55
552.51	44191.65
552.68	44360.17
552.84	44652.74
553.01	44800.19
553.18	44495.92
553.34	44449.11
553.51	44580.18
553.67	44261.87
553.84	44758.06
554.01	44580.18
554.17	44776.79
554.34	44816.58
554.51	45240.21
554.67	45296.39
554.84	44605.93
555.00	44811.90
555.17	44545.08
555.33	45116.17
555.50	45368.94
555.67	45205.11
555.83	44664.44
556.00	45448.52
556.16	45191.06
556.33	45148.93
556.50	45333.84
556.66	45006.16
556.83	45130.21
556.99	45595.98
557.16	45287.03
557.32	45497.67
557.49	45308.09
557.65	45343.20
557.82	45399.37
557.98	45366.60
558.15	45165.32
558.32	45855.78
558.48	45193.40
558.65	45703.64
558.81	45895.56
558.98	45839.39
559.14	46010.25
559.31	45537.46
559.47	45677.90
559.64	45895.56
559.80	45698.96
559.97	46136.64
560.13	45567.89
560.30	45982.16
560.46	46068.76
560.63	46426.87
560.79	46225.58
560.96	46560.28
561.12	46073.45
561.29	46068.76
561.45	46000.89
561.61	46103.87
561.78	45989.19
561.94	45895.56
562.11	46178.77
562.27	46351.97
562.44	46064.08
562.60	46225.58
562.77	46469.00
562.93	45921.31
563.10	45984.51
563.26	46625.81
563.42	46813.05
563.59	46354.31
563.75	46234.94
563.92	46096.85
564.08	46628.15
564.24	46206.86
564.41	46342.61
564.57	46651.56
564.74	46087.49
564.90	46681.98
565.07	46375.37
565.23	46808.37
565.39	46471.34
565.56	46731.14
565.72	46457.29
565.88	46600.07
566.05	46766.24
566.21	46703.05
566.38	46588.36
566.54	46871.57
566.70	46560.28
566.87	46864.55
567.03	46909.02
567.19	46880.93
567.36	46639.86
567.52	46586.02
567.68	46658.58
567.85	47196.90
568.01	47538.62
568.17	47068.17
568.34	47014.34
568.50	46955.83
568.66	46529.85
568.83	46590.70
568.99	46663.26
569.15	46869.23
569.32	46810.71
569.48	47002.64
569.64	46962.85
569.81	47281.16
569.97	47290.52
570.13	47192.22
570.30	46927.74
570.46	46829.44
570.62	47166.48
570.78	46660.92
570.95	47047.11
571.11	47213.29
571.27	47004.98
571.43	46815.40
571.60	47234.35
571.76	46834.12
571.92	46890.29
572.09	46944.12
572.25	46698.37
572.41	47110.30
572.57	47007.32
572.74	47503.51
572.90	47082.22
573.06	47426.28
573.22	47168.82
573.38	47517.56
573.55	47313.93
573.71	47594.79
573.87	47243.71
574.03	47208.61
574.20	47199.24
574.36	47456.70
574.52	47739.91
574.68	47480.11
574.84	47643.94
575.01	46990.94
575.17	47178.18
575.33	47271.80
575.49	47182.86
575.65	47868.64
575.82	47423.93
575.98	47203.92
576.14	47428.62
576.30	47267.12
576.46	47461.38
576.62	47433.30
576.79	47313.93
576.95	47267.12
577.11	47215.63
577.27	47533.94
577.43	47669.69
577.59	47421.59
577.75	47164.14
577.92	47583.09
578.08	47660.33
578.24	47861.61
578.40	47819.49
578.56	47786.72
578.72	47868.64
578.88	47613.52
579.04	47477.77
579.21	47367.76
579.37	47819.49
579.53	47910.77
579.69	47672.03
579.85	47349.04
580.01	47749.27
580.17	47611.18
580.33	48037.16
580.49	47819.49
580.65	47657.99
580.82	47585.43
580.98	47353.72
581.14	47370.10
581.30	47470.75
581.46	47178.18
581.62	47547.98
581.78	47643.94
581.94	47746.93
582.10	47653.31
582.26	47978.64
582.42	47381.80
582.58	47711.82
582.74	47805.44
582.90	47646.29
583.06	47973.96
583.22	47686.07
583.38	47756.29
583.54	47735.23
583.70	47831.19
583.86	48011.41
584.02	47952.90
584.18	47948.21
584.34	47803.10
584.50	48100.35
584.66	47587.77
584.82	47887.36
584.98	48062.90
585.14	48210.35
585.30	47583.09
585.46	47566.71
585.62	47704.80
585.78	47842.89
585.94	47503.51
586.10	47889.70
586.26	47545.64
586.42	47330.31
586.58	47756.29
586.74	47578.41
586.90	47667.35
587.06	47524.58
587.22	47927.15
587.38	47648.63
587.54	48313.34
587.70	48224.40
587.86	47870.98
588.02	47763.31
588.18	47746.93
588.34	47913.11
588.49	48123.75
588.65	47992.68
588.81	47952.90
588.97	48062.90
589.13	47763.31
589.29	48072.26
589.45	47999.71
589.61	48282.91
589.77	48044.18
589.93	48062.90
