SpectraSuite Data File
++++++++++++++++++++++++++++++++++++
Date: Fri Oct 25 11:23:56 EDT 2013
User: price-jones
Dark Spectrum Present: No
Reference Spectrum Present: No
Number of Sampled Component Spectra: 1
Spectrometers: USB2+H05261
Integration Time (usec): 100000 (USB2+H05261)
Spectra Averaged: 1 (USB2+H05261)
Boxcar Smoothing: 0 (USB2+H05261)
Correct for Electrical Dark: No (USB2+H05261)
Strobe/Lamp Enabled: No (USB2+H05261)
Correct for Detector Non-linearity: No (USB2+H05261)
Correct for Stray Light: No (USB2+H05261)
Number of Pixels in Processed Spectrum: 2048
>>>>>Begin Processed Spectral Data<<<<<
365.73	227.03
365.92	227.03
366.12	227.03
366.32	147.45
366.52	124.05
366.72	166.18
366.91	156.82
367.11	135.75
367.31	124.05
367.51	93.62
367.70	98.30
367.90	124.05
368.10	163.84
368.30	152.13
368.49	147.45
368.69	84.26
368.89	198.95
369.09	81.92
369.28	187.24
369.48	154.48
369.68	159.16
369.87	147.45
370.07	198.95
370.27	241.08
370.47	346.40
370.66	550.03
370.86	624.92
371.06	627.26
371.25	643.65
371.45	706.84
371.65	660.03
371.84	655.35
372.04	692.80
372.24	669.39
372.44	678.76
372.63	795.78
372.83	777.06
373.03	765.36
373.22	744.29
373.42	695.14
373.62	821.53
373.81	727.91
374.01	716.20
374.21	828.55
374.40	777.06
374.60	823.87
374.79	854.30
374.99	823.87
375.19	837.91
375.38	816.85
375.58	924.51
375.78	901.11
375.97	866.00
376.17	905.79
376.37	889.40
376.56	798.12
376.76	805.14
376.95	854.30
377.15	922.17
377.35	943.24
377.54	915.15
377.74	821.53
377.93	858.98
378.13	938.55
378.33	959.62
378.52	940.90
378.72	905.79
378.91	929.19
379.11	917.49
379.31	861.32
379.50	933.87
379.70	987.71
379.89	1013.45
380.09	910.47
380.28	910.47
380.48	971.32
380.68	1001.75
380.87	936.21
381.07	1034.52
381.26	1074.31
381.46	1032.18
381.65	1074.31
381.85	1011.11
382.04	1020.47
382.24	1039.20
382.43	1011.11
382.63	999.41
382.83	1069.62
383.02	1102.39
383.22	1078.99
383.41	1008.77
383.61	1109.41
383.80	1177.29
384.00	1128.14
384.19	1172.61
384.39	1139.84
384.58	1029.84
384.78	1130.48
384.97	1123.46
385.17	1163.25
385.36	1174.95
385.56	1196.01
385.75	1121.12
385.95	1160.91
386.14	1238.14
386.34	1193.67
386.53	1196.01
386.72	1270.91
386.92	1261.55
387.11	1277.93
387.31	1273.25
387.50	1198.35
387.70	1214.74
387.89	1235.80
388.09	1224.10
388.28	1327.08
388.48	1277.93
388.67	1336.45
388.86	1315.38
389.06	1320.06
389.25	1341.13
389.45	1256.87
389.64	1362.19
389.84	1320.06
390.03	1373.89
390.22	1479.22
390.42	1420.71
390.61	1378.58
390.81	1413.68
391.00	1397.30
391.19	1334.11
391.39	1446.45
391.58	1331.76
391.78	1401.98
391.97	1406.66
392.16	1558.80
392.36	1476.88
392.55	1537.73
392.75	1535.39
392.94	1472.20
393.13	1521.35
393.33	1476.88
393.52	1577.52
393.71	1589.22
393.91	1582.20
394.10	1551.78
394.29	1654.76
394.49	1624.33
394.68	1664.12
394.88	1577.52
395.07	1668.80
395.26	1671.14
395.46	1605.61
395.65	1755.40
395.84	1706.25
396.04	1809.23
396.23	1703.91
396.42	1591.56
396.62	1753.06
396.81	1797.53
397.00	1750.72
397.19	1813.92
397.39	1708.59
397.58	1757.74
397.77	1818.60
397.97	1764.76
398.16	1851.36
398.35	1975.41
398.55	1858.39
398.74	1954.35
398.93	1937.96
399.12	1898.17
399.32	1954.35
399.51	1923.92
399.70	1996.48
399.90	2017.54
400.09	2033.93
400.28	2085.42
400.47	2017.54
400.67	2115.84
400.86	2059.67
401.05	2076.06
401.24	2017.54
401.44	2125.21
401.63	2155.63
401.82	2197.76
402.01	2064.35
402.21	2186.06
402.40	2260.96
402.59	2246.91
402.78	2239.89
402.97	2113.50
403.17	2249.25
403.36	2314.79
403.55	2209.47
403.74	2345.22
403.93	2335.85
404.13	2303.09
404.32	2338.20
404.51	2448.20
404.70	2427.14
404.89	2331.17
405.09	2504.37
405.28	2394.37
405.47	2464.58
405.66	2530.12
405.85	2495.01
406.05	2527.78
406.24	2567.57
406.43	2555.86
406.62	2663.53
406.81	2630.76
407.00	2506.71
407.20	2616.72
407.39	2703.32
407.58	2759.49
407.77	2743.11
407.96	2752.47
408.15	2691.62
408.34	2661.19
408.54	2878.86
408.73	2771.19
408.92	2787.58
409.11	2780.56
409.30	2881.20
409.49	2944.39
409.68	2939.71
409.87	2988.86
410.07	2979.50
410.26	3066.10
410.45	2904.60
410.64	2988.86
410.83	2998.23
411.02	3012.27
411.21	3136.32
411.40	3201.85
411.59	3185.47
411.78	3129.30
411.98	3351.65
412.17	3215.90
412.36	3258.03
412.55	3279.09
412.74	3475.70
412.93	3323.56
413.12	3386.76
413.31	3578.68
413.50	3442.93
413.69	3403.14
413.88	3508.46
414.07	3639.53
414.26	3571.66
414.45	3623.15
414.64	3772.94
414.83	3747.20
415.02	3726.13
415.22	3815.07
415.41	3939.12
415.60	3784.65
415.79	3843.16
415.98	4060.83
416.17	4063.17
416.36	4007.00
416.55	3908.69
416.74	3995.29
416.93	4126.36
417.12	4280.84
417.31	4266.80
417.50	4318.29
417.69	4414.25
417.88	4224.67
418.07	4348.72
418.26	4308.93
418.45	4353.40
418.64	4535.96
418.83	4367.44
419.02	4386.16
419.21	4596.81
419.39	4550.00
419.58	4545.32
419.77	4351.06
419.96	4498.51
420.15	4657.67
420.34	4596.81
420.53	4517.23
420.72	4741.93
420.91	4643.62
421.10	4814.48
421.29	4760.65
421.48	4697.46
421.67	4882.36
421.86	4821.50
422.05	4830.87
422.24	4861.29
422.43	4964.28
422.61	4875.34
422.80	5022.79
422.99	4957.25
423.18	5018.11
423.37	4980.66
423.56	4971.30
423.75	4915.12
423.94	4795.76
424.13	4662.35
424.32	4737.24
424.50	4975.98
424.69	5100.03
424.88	4957.25
425.07	4931.51
425.26	4957.25
425.45	5046.20
425.64	5041.51
425.83	5060.24
426.01	5013.43
426.20	5132.79
426.39	5149.18
426.58	5142.16
426.77	5078.96
426.96	5116.41
427.15	5018.11
427.33	5128.11
427.52	5186.63
427.71	5355.15
427.90	5320.04
428.09	5371.53
428.28	5132.79
428.46	5287.27
428.65	5291.95
428.84	5535.37
429.03	5668.78
429.22	5336.42
429.40	5540.05
429.59	5495.58
429.78	5345.78
429.97	5247.48
430.16	5493.24
430.34	5540.05
430.53	5619.63
430.72	5769.42
430.91	5666.44
431.10	5568.13
431.28	5818.57
431.47	5872.40
431.66	5870.06
431.85	5841.98
432.03	5900.49
432.22	6069.01
432.41	5954.32
432.60	5980.07
432.79	5858.36
432.97	5895.81
433.16	5996.45
433.35	6106.46
433.54	6148.59
433.72	6373.28
433.91	6167.31
434.10	6293.70
434.28	6001.13
434.47	6251.57
434.66	6384.98
434.85	6314.77
435.03	6424.77
435.22	6282.00
435.41	6534.78
435.59	6307.74
435.78	6544.14
435.97	6583.93
436.16	6588.61
436.34	6471.58
436.53	6429.45
436.72	6700.95
436.90	6590.95
437.09	6572.22
437.28	6499.67
437.46	6450.52
437.65	6635.42
437.84	6876.49
438.02	6757.13
438.21	6712.66
438.40	6715.00
438.58	7117.57
438.77	7215.87
438.96	7066.08
439.14	7286.09
439.33	7140.97
439.52	7185.44
439.70	7351.62
439.89	7307.15
440.08	7449.93
440.26	7377.37
440.45	7487.37
440.63	7604.40
440.82	7564.61
441.01	7733.13
441.19	7744.83
441.38	7763.56
441.57	7728.45
441.75	7789.30
441.94	8191.88
442.12	8009.31
442.31	8325.29
442.50	8049.10
442.68	8037.40
442.87	8035.06
443.05	7927.39
443.24	8311.24
443.43	8208.26
443.61	8285.50
443.80	8334.65
443.98	8067.83
444.17	7941.44
444.35	8306.56
444.54	8367.42
444.73	8264.43
444.91	8437.63
445.10	8475.08
445.28	8278.47
445.47	8341.67
445.65	8423.59
445.84	8332.31
446.02	8575.72
446.21	8374.44
446.39	8367.42
446.58	8608.49
446.77	8294.86
446.95	8313.58
447.14	8475.08
447.32	8404.86
447.51	8362.73
447.69	8470.40
447.88	8528.91
448.06	8589.77
448.25	8533.59
448.43	8697.43
448.62	8786.37
448.80	8479.76
448.99	8617.85
449.17	8772.33
449.36	8568.70
449.54	8905.74
449.73	8926.80
449.91	9224.05
450.10	8903.40
450.28	9097.66
450.46	9224.05
450.65	9100.00
450.83	9275.54
451.02	9064.89
451.20	9214.69
451.39	9362.14
451.57	9195.96
451.76	8957.23
451.94	8985.32
452.13	9231.07
452.31	9462.79
452.49	9221.71
452.68	9434.70
452.86	9497.89
453.05	9511.94
453.23	9554.07
453.42	9460.45
453.60	9565.77
453.78	9528.32
453.97	9549.39
454.15	9504.92
454.34	9502.58
454.52	9493.21
454.70	9600.88
454.89	9951.96
455.07	9867.70
455.26	9706.20
455.44	9984.73
455.62	9919.19
455.81	9966.00
455.99	9980.04
456.17	10045.58
456.36	10174.31
456.54	10162.61
456.73	10406.02
456.91	10459.85
457.09	10501.98
457.28	10611.99
457.46	10469.22
457.64	10506.66
457.83	10438.79
458.01	10501.98
458.19	10696.25
458.38	10651.78
458.56	10740.72
458.74	10665.82
458.93	10633.05
459.11	10768.80
459.29	10579.22
459.48	10902.22
459.66	10761.78
459.84	10937.32
460.03	11239.25
460.21	10918.60
460.39	11002.86
460.57	10970.09
460.76	11133.93
460.94	11178.40
461.12	11585.65
461.31	11375.00
461.49	11094.14
461.67	11297.77
461.85	11508.41
462.04	11332.87
462.22	11456.92
462.40	11606.72
462.59	11428.84
462.77	11569.27
462.95	11604.38
463.13	11625.44
463.32	11800.98
463.50	11939.07
463.68	11705.02
463.86	11903.96
464.05	11726.08
464.23	11552.88
464.41	12056.10
464.59	11758.85
464.78	12161.42
464.96	12058.44
465.14	11772.89
465.32	12154.40
465.50	12271.43
465.69	12116.95
465.87	12070.14
466.05	12163.76
466.23	12123.98
466.41	12365.05
466.60	12521.87
466.78	12390.80
466.96	12238.66
467.14	12313.56
467.32	12224.62
467.51	12585.06
467.69	12332.28
467.87	12425.90
468.05	12650.60
468.23	12496.12
468.41	12538.25
468.60	12659.96
468.78	12870.61
468.96	12524.21
469.14	12765.28
469.32	13032.10
469.50	12617.83
469.69	13015.72
469.87	13095.30
470.05	13062.53
470.23	13319.99
470.41	13301.26
470.59	13460.42
470.77	13137.43
470.95	13397.23
471.14	13549.36
471.32	13130.41
471.50	13802.14
471.68	13596.17
471.86	13654.69
472.04	13977.68
472.22	13963.64
472.40	13764.69
472.58	13865.33
472.77	13933.21
472.95	14286.63
473.13	14670.48
473.31	14221.10
473.49	14015.13
473.67	14171.94
473.85	14457.49
474.03	14703.25
474.21	14672.82
474.39	14897.51
474.57	14890.49
474.75	15002.83
474.93	15136.24
475.12	15012.20
475.30	15159.65
475.48	15075.39
475.66	15143.27
475.84	15119.86
476.02	15360.94
476.20	15501.37
476.38	15339.87
476.56	16358.00
476.74	15899.26
476.92	16065.44
477.10	16145.02
477.28	16093.52
477.46	16318.22
477.64	16402.47
477.82	16578.01
478.00	16908.03
478.18	16762.92
478.36	17025.06
478.54	17153.79
478.72	17188.89
478.90	17537.63
479.08	17692.11
479.26	17837.22
479.44	17916.80
479.62	17743.60
479.80	17935.53
479.98	18202.35
480.16	18649.39
480.34	18286.61
480.52	18728.97
480.70	18853.02
480.88	18345.12
481.06	18869.40
481.24	18988.77
481.41	19103.45
481.59	19557.52
481.77	19304.74
481.95	19665.18
482.13	19875.83
482.31	19559.86
482.49	20416.49
482.67	19934.34
482.85	20758.21
483.03	20645.87
483.21	20950.14
483.39	20786.30
483.57	21036.74
483.74	21371.43
483.92	21619.53
484.10	21469.73
484.28	21874.65
484.46	21853.58
484.64	22398.93
484.82	22026.78
485.00	22080.61
485.18	23014.49
485.35	22766.39
485.53	23108.11
485.71	23328.12
485.89	23611.32
486.07	23601.96
486.25	23529.41
486.43	23648.77
486.61	24184.76
486.78	24060.71
486.96	24210.50
487.14	24575.62
487.32	24833.08
487.50	25373.75
487.68	24947.77
487.85	25149.06
488.03	25848.88
488.21	25902.71
488.39	25898.03
488.57	26071.23
488.75	26242.09
488.92	26600.19
489.10	26829.56
489.28	26925.52
489.46	27475.55
489.64	27168.94
489.81	27718.96
489.99	27639.39
490.17	27948.34
490.35	28229.20
490.53	28411.76
490.70	28601.35
490.88	28456.23
491.06	28858.81
491.24	28786.25
491.41	29247.33
491.59	29401.81
491.77	29528.20
491.95	29647.57
492.13	30110.99
492.30	30328.66
492.48	30192.91
492.66	29989.28
492.84	30726.55
493.01	30698.47
493.19	31058.91
493.37	30974.65
493.54	31037.84
493.72	31519.99
493.90	31709.58
494.08	31510.63
494.25	32266.63
494.43	31952.99
494.61	32341.52
494.79	32561.53
494.96	32673.88
495.14	32837.72
495.32	33556.26
495.49	33158.37
495.67	33001.55
495.85	33525.83
496.02	33830.10
496.20	33916.70
496.38	34251.40
496.55	34499.50
496.73	34649.29
496.91	34403.53
497.09	34810.79
497.26	34806.11
497.44	34742.91
497.62	35552.74
497.79	35644.02
497.97	35435.71
498.14	36055.95
498.32	36517.04
498.50	36009.14
498.67	36795.56
498.85	36598.96
499.03	37188.77
499.20	36854.08
499.38	37109.19
499.56	37308.14
499.73	37062.38
499.91	37368.99
500.08	37874.55
500.26	37792.63
500.44	37691.99
500.61	38272.44
500.79	37736.46
500.97	38155.41
501.14	39070.56
501.32	38328.61
501.49	38850.55
501.67	38714.80
501.84	39023.75
502.02	39271.85
502.20	39182.91
502.37	39100.99
502.55	39309.30
502.72	39889.75
502.90	39557.39
503.07	39606.55
503.25	40170.61
503.43	39803.15
503.60	40170.61
503.78	40374.24
503.95	40940.65
504.13	40437.44
504.30	40935.97
504.48	40694.89
504.65	40591.91
504.83	41053.00
505.01	41413.44
505.18	41432.16
505.36	41963.46
505.53	41317.48
505.71	41766.86
505.88	41687.28
506.06	41476.63
506.23	42183.48
506.41	42075.81
506.58	42391.78
506.76	41785.58
506.93	42426.89
507.11	42115.60
507.28	42878.61
507.46	42920.74
507.63	43007.34
507.81	42906.70
507.98	43007.34
508.16	43100.97
508.33	43533.96
508.50	43688.44
508.68	43622.90
508.85	44048.88
509.03	43863.98
509.20	44453.79
509.38	44577.84
509.55	44315.70
509.73	44133.14
509.90	45024.89
510.08	44921.90
510.25	44486.56
510.42	45160.64
510.60	45483.63
510.77	45088.08
510.95	45469.59
511.12	45282.34
511.30	45200.43
511.47	45661.51
511.64	45462.57
511.82	46333.24
511.99	45539.80
512.17	46021.95
512.34	46085.15
512.51	46515.81
512.69	46415.16
512.86	46153.02
513.04	46710.07
513.21	46602.41
513.38	46724.11
513.56	47075.19
513.73	46955.83
513.90	47442.66
514.08	46946.47
514.25	47262.44
514.43	47386.49
514.60	47365.42
514.77	47100.94
514.95	47969.28
515.12	47913.11
515.29	47938.85
515.47	48435.05
515.64	48158.86
515.81	47927.15
515.99	48217.38
516.16	48802.51
516.33	48193.97
516.51	48760.38
516.68	48917.20
516.85	48437.39
517.03	48814.21
517.20	49139.55
517.37	49027.20
517.54	49029.54
517.72	48846.98
517.89	49120.82
518.06	49179.34
518.24	49439.14
518.41	49188.70
518.58	49752.77
518.75	49720.00
518.93	49771.49
519.10	49806.60
519.27	50040.65
519.45	50101.51
519.62	49956.39
519.79	50019.59
519.96	50288.75
520.14	50136.62
520.31	50419.82
520.48	50211.51
520.65	50571.96
520.83	50813.03
521.00	50651.53
521.17	50590.68
521.34	50639.83
521.52	50880.91
521.69	50742.81
521.86	50859.84
522.03	51283.48
522.20	51344.33
522.38	51744.56
522.55	51320.93
522.72	51419.23
522.89	51611.15
523.07	51990.32
523.24	51538.60
523.41	51753.93
523.58	51861.59
523.75	51819.46
523.92	52039.47
524.10	52381.19
524.27	52020.75
524.44	52287.57
524.61	52069.90
524.78	52388.21
524.96	52275.87
525.13	52666.73
525.30	52367.15
525.47	52563.75
525.64	52315.65
525.81	52765.04
525.98	52762.70
526.16	52706.52
526.33	52823.55
526.50	52954.62
526.67	53057.60
526.84	53102.07
527.01	53010.79
527.18	52889.09
527.36	53226.12
527.53	53151.23
527.70	53579.54
527.87	53396.98
528.04	53237.83
528.21	53443.79
528.38	53352.51
528.55	53738.70
528.72	53523.37
528.89	53570.18
529.07	53558.48
529.24	53565.50
529.41	53614.65
529.58	53890.83
529.75	53635.72
529.92	53773.81
530.09	53937.65
530.26	54024.25
530.43	53712.95
530.60	54028.93
530.77	53925.94
530.94	54464.27
531.11	54092.12
531.28	54213.83
531.46	54415.11
531.63	54490.01
531.80	54447.88
531.97	54307.45
532.14	54733.43
532.31	54337.88
532.48	54822.37
532.65	54958.12
532.82	54330.86
532.99	54773.22
533.16	54590.66
533.33	54805.98
533.50	54918.33
533.67	55159.41
533.84	54904.29
534.01	55070.46
534.18	55007.27
534.35	55299.84
534.52	55126.64
534.69	55327.92
534.86	55231.96
535.03	55215.58
535.20	55578.36
535.37	55236.64
535.54	55435.59
535.71	55018.97
535.88	55559.64
536.05	55423.89
536.22	55613.47
536.38	55732.84
536.55	55882.63
536.72	55817.10
536.89	55789.01
537.06	55870.93
537.23	55882.63
537.40	55442.61
537.57	55704.75
537.74	56030.08
537.91	56301.59
538.08	56048.81
538.25	56032.42
538.42	55856.88
538.59	56214.99
538.75	55959.87
538.92	56313.29
539.09	56315.63
539.26	56163.50
539.43	56093.28
539.60	56324.99
539.77	56243.07
539.94	56439.68
540.11	56570.75
540.28	56549.68
540.44	56521.60
540.61	56692.46
540.78	56547.34
540.95	56416.27
541.12	56626.92
541.29	56645.65
541.46	56713.52
541.62	56750.97
541.79	56797.78
541.96	56488.83
542.13	56720.54
542.30	56839.91
542.47	56809.48
542.63	56832.89
542.80	57034.17
542.97	57219.08
543.14	57359.51
543.31	57315.04
543.48	57331.42
543.64	57406.32
543.81	57460.15
543.98	57359.51
544.15	57502.28
544.32	57668.46
544.48	57797.19
544.65	57385.25
544.82	57453.13
544.99	57268.23
545.16	57691.86
545.32	57535.05
545.49	57851.02
545.66	57811.23
545.83	57766.76
546.00	57902.51
546.16	57719.95
546.33	57769.10
546.50	57607.61
546.67	57872.09
546.83	57736.34
547.00	57649.74
547.17	57811.23
547.34	58024.22
547.50	57923.58
547.67	58131.89
547.84	58071.03
548.00	58239.55
548.17	58508.71
548.34	58298.06
548.51	58410.41
548.67	58206.78
548.84	58349.56
549.01	58042.95
549.18	58351.90
549.34	58134.23
549.51	58241.89
549.68	58583.61
549.84	58515.73
550.01	58728.72
550.18	58440.84
550.34	58555.52
550.51	58539.14
550.68	58506.37
550.84	58356.58
551.01	58693.61
551.18	58777.87
551.34	58482.97
551.51	58630.42
551.68	58784.90
551.84	58522.76
552.01	58651.48
552.18	58843.41
552.34	58646.80
552.51	58965.12
552.68	58585.95
552.84	58623.40
553.01	58976.82
553.18	58913.62
553.34	58930.01
553.51	58763.83
553.67	58831.71
553.84	59072.78
554.01	59025.97
554.17	59065.76
554.34	59061.08
554.51	59323.22
554.67	59285.77
554.84	58927.67
555.00	59283.43
555.17	59114.91
555.33	59032.99
555.50	59224.92
555.67	59182.79
555.83	59222.58
556.00	59262.36
556.16	59531.53
556.33	59470.67
556.50	59260.02
556.66	59517.48
556.83	59568.97
556.99	59482.37
557.16	59370.03
557.32	59580.68
557.49	59985.59
557.65	59409.82
557.82	59407.48
557.98	59480.03
558.15	59519.82
558.32	59547.91
558.48	59442.59
558.65	59770.26
558.81	59543.23
558.98	59735.15
559.14	59906.01
559.31	59681.32
559.47	59765.58
559.64	59613.44
559.80	59814.73
559.97	59753.88
560.13	59671.96
560.30	59821.75
560.46	59917.71
560.63	59791.33
560.79	59749.20
560.96	59990.27
561.12	59814.73
561.29	59835.80
561.45	60079.21
561.61	59901.33
561.78	59819.41
561.94	60058.15
562.11	59973.89
562.27	59798.35
562.44	60121.34
562.60	60090.91
562.77	60041.76
562.93	60034.74
563.10	60203.26
563.26	60109.64
563.42	60156.45
563.59	60020.70
563.75	60149.43
563.92	60130.70
564.08	59887.29
564.24	60170.49
564.41	60203.26
564.57	60310.92
564.74	60154.11
564.90	60360.08
565.07	60025.38
565.23	60144.75
565.39	60041.76
565.56	60210.28
565.72	60292.20
565.88	60395.18
566.05	60212.62
566.21	60458.38
566.38	60376.46
566.54	60362.42
566.70	60526.25
566.87	60343.69
567.03	60130.70
567.19	60495.83
567.36	60299.22
567.52	60385.82
567.68	60725.20
567.85	60544.98
568.01	60533.28
568.17	60465.40
568.34	60336.67
568.50	60458.38
568.66	60327.31
568.83	60718.18
568.99	60378.80
569.15	60582.43
569.32	60472.42
569.48	60629.24
569.64	60739.24
569.81	60505.19
569.97	60687.75
570.13	60706.47
570.30	60191.56
570.46	60722.86
570.62	60530.93
570.78	60657.32
570.95	60736.90
571.11	60743.92
571.27	60549.66
571.43	60547.32
571.60	60788.39
571.76	60526.25
571.92	60736.90
572.09	60720.52
572.25	60544.98
572.41	60680.73
572.57	60633.92
572.74	60961.59
572.90	60624.56
573.06	60720.52
573.22	60708.82
573.38	60790.73
573.55	60596.47
573.71	60882.02
573.87	60917.12
574.03	60364.76
574.20	60701.79
574.36	60807.12
574.52	60683.07
574.68	60659.66
574.84	60912.44
575.01	60860.95
575.17	60900.74
575.33	60779.03
575.49	60715.84
575.65	61031.81
575.82	60821.16
575.98	60863.29
576.14	61062.24
576.30	60907.76
576.46	60879.67
576.62	60715.84
576.79	60814.14
576.95	60727.54
577.11	60921.80
577.27	60870.31
577.43	60877.33
577.59	60694.77
577.75	60793.07
577.92	60776.69
578.08	60961.59
578.24	60938.19
578.40	61022.45
578.56	60823.50
578.72	61076.28
578.88	60985.00
579.04	61059.90
579.21	60942.87
579.37	61130.11
579.53	61099.68
579.69	60884.36
579.85	60970.96
580.01	61029.47
580.17	60732.22
580.33	61057.56
580.49	60968.61
580.65	60825.84
580.82	60999.04
580.98	61123.09
581.14	60994.36
581.30	61057.56
581.46	61188.63
581.62	61102.03
581.78	60889.04
581.94	61183.94
582.10	61013.08
582.26	61029.47
582.42	61034.15
582.58	60938.19
582.74	61057.56
582.90	60914.78
583.06	61172.24
583.22	60851.59
583.38	61109.05
583.54	61029.47
583.70	61151.18
583.86	61237.78
584.02	60860.95
584.18	61345.44
584.34	61085.64
584.50	60935.85
584.66	61062.24
584.82	60949.89
584.98	61062.24
585.14	61059.90
585.30	61069.26
585.46	60959.25
585.62	61235.44
585.78	61284.59
585.94	60842.23
586.10	60994.36
586.26	61095.00
586.42	61209.69
586.58	61312.67
586.74	61158.20
586.90	61038.83
587.06	61134.79
587.22	61179.26
587.38	60931.17
587.54	61233.10
587.70	61230.75
587.86	61104.37
588.02	60973.30
588.18	61296.29
588.34	61104.37
588.49	61144.16
