SpectraSuite Data File
++++++++++++++++++++++++++++++++++++
Date: Fri Oct 25 11:33:27 EDT 2013
User: price-jones
Dark Spectrum Present: No
Reference Spectrum Present: No
Number of Sampled Component Spectra: 1
Spectrometers: USB2+H05261
Integration Time (usec): 100000 (USB2+H05261)
Spectra Averaged: 1 (USB2+H05261)
Boxcar Smoothing: 0 (USB2+H05261)
Correct for Electrical Dark: No (USB2+H05261)
Strobe/Lamp Enabled: No (USB2+H05261)
Correct for Detector Non-linearity: No (USB2+H05261)
Correct for Stray Light: No (USB2+H05261)
Number of Pixels in Processed Spectrum: 2048
>>>>>Begin Processed Spectral Data<<<<<
365.73	273.84
365.92	273.84
366.12	273.84
366.32	128.73
366.52	173.20
366.72	229.37
366.91	161.50
367.11	110.01
367.31	175.54
367.51	184.90
367.70	124.05
367.90	224.69
368.10	196.60
368.30	131.07
368.49	147.45
368.69	149.79
368.89	252.78
369.09	201.29
369.28	215.33
369.48	252.78
369.68	175.54
369.87	269.16
370.07	222.35
370.27	367.46
370.47	311.29
370.66	519.60
370.86	475.13
371.06	526.62
371.25	552.37
371.45	571.09
371.65	507.90
371.84	585.13
372.04	545.34
372.24	535.98
372.44	552.37
372.63	545.34
372.83	650.67
373.03	517.26
373.22	566.41
373.42	587.47
373.62	615.56
373.81	573.43
374.01	643.65
374.21	636.63
374.40	702.16
374.60	615.56
374.79	664.71
374.99	725.57
375.19	676.41
375.38	650.67
375.58	641.31
375.78	660.03
375.97	678.76
376.17	706.84
376.37	692.80
376.56	664.71
376.76	711.52
376.95	699.82
377.15	662.37
377.35	669.39
377.54	737.27
377.74	657.69
377.93	751.31
378.13	711.52
378.33	709.18
378.52	678.76
378.72	727.91
378.91	690.46
379.11	690.46
379.31	755.99
379.50	741.95
379.70	763.01
379.89	713.86
380.09	725.57
380.28	678.76
380.48	711.52
380.68	781.74
380.87	744.29
381.07	704.50
381.26	730.25
381.46	786.42
381.65	772.38
381.85	697.48
382.04	734.93
382.24	777.06
382.43	823.87
382.63	727.91
382.83	791.10
383.02	763.01
383.22	753.65
383.41	758.33
383.61	795.78
383.80	870.68
384.00	791.10
384.19	755.99
384.39	858.98
384.58	858.98
384.78	877.70
384.97	856.64
385.17	821.53
385.36	791.10
385.56	873.02
385.75	844.93
385.95	816.85
386.14	844.93
386.34	980.68
386.53	828.55
386.72	854.30
386.92	903.45
387.11	821.53
387.31	905.79
387.50	894.08
387.70	880.04
387.89	880.04
388.09	952.60
388.28	884.72
388.48	961.96
388.67	877.70
388.86	952.60
389.06	990.05
389.25	912.81
389.45	912.81
389.64	961.96
389.84	1060.26
390.03	976.00
390.22	926.85
390.42	999.41
390.61	985.37
390.81	866.00
391.00	1013.45
391.19	959.62
391.39	943.24
391.58	940.90
391.78	1071.97
391.97	1078.99
392.16	1090.69
392.36	1032.18
392.55	1095.37
392.75	1090.69
392.94	1032.18
393.13	1074.31
393.33	1013.45
393.52	1104.73
393.71	1093.03
393.91	1060.26
394.10	1078.99
394.29	1132.82
394.49	1088.35
394.68	1090.69
394.88	1083.67
395.07	1125.80
395.26	1125.80
395.46	1130.48
395.65	1207.72
395.84	1184.31
396.04	1235.80
396.23	1233.46
396.42	1210.06
396.62	1160.91
396.81	1210.06
397.00	1287.29
397.19	1242.82
397.39	1163.25
397.58	1256.87
397.77	1191.33
397.97	1315.38
398.16	1214.74
398.35	1331.76
398.55	1270.91
398.74	1320.06
398.93	1284.95
399.12	1329.42
399.32	1296.66
399.51	1254.53
399.70	1380.92
399.90	1427.73
400.09	1413.68
400.28	1460.49
400.47	1366.87
400.67	1357.51
400.86	1345.81
401.05	1390.28
401.24	1448.79
401.44	1507.30
401.63	1523.69
401.82	1437.09
402.01	1390.28
402.21	1432.41
402.40	1540.07
402.59	1465.18
402.78	1584.54
402.97	1460.49
403.17	1547.09
403.36	1619.65
403.55	1549.43
403.74	1591.56
403.93	1540.07
404.13	1671.14
404.32	1607.95
404.51	1612.63
404.70	1638.38
404.89	1696.89
405.09	1701.57
405.28	1715.61
405.47	1680.50
405.66	1715.61
405.85	1694.55
406.05	1809.23
406.24	1710.93
406.43	1729.66
406.62	1776.47
406.81	1757.74
407.00	1748.38
407.20	1795.19
407.39	1767.10
407.58	1832.64
407.77	1879.45
407.96	1762.42
408.15	1930.94
408.34	1851.36
408.54	1921.58
408.73	1888.81
408.92	1966.05
409.11	1921.58
409.30	1975.41
409.49	1980.09
409.68	1909.88
409.87	1987.11
410.07	2003.50
410.26	2073.71
410.45	2108.82
410.64	2155.63
410.83	2235.21
411.02	2143.93
411.21	2272.66
411.40	2193.08
411.59	2232.87
411.78	2204.78
411.98	2167.34
412.17	2209.47
412.36	2169.68
412.55	2195.42
412.74	2214.15
412.93	2366.28
413.12	2291.38
413.31	2401.39
413.50	2434.16
413.69	2338.20
413.88	2485.65
414.07	2431.82
414.26	2539.48
414.45	2544.16
414.64	2511.39
414.83	2691.62
415.02	2602.68
415.22	2616.72
415.41	2682.25
415.60	2621.40
415.79	2724.38
415.98	2719.70
416.17	2766.51
416.36	2675.23
416.55	2801.62
416.74	2864.82
416.93	2806.30
417.12	2991.20
417.31	3012.27
417.50	2775.88
417.69	2902.26
417.88	2953.76
418.07	3009.93
418.26	2935.03
418.45	2930.35
418.64	3164.40
418.83	3080.14
419.02	3077.80
419.21	3138.66
419.39	3152.70
419.58	3075.46
419.77	3094.19
419.96	3115.25
420.15	3070.78
420.34	3155.04
420.53	3241.64
420.72	3234.62
420.91	3066.10
421.10	3208.87
421.29	3269.73
421.48	3288.45
421.67	3363.35
421.86	3372.71
422.05	3389.10
422.24	3353.99
422.43	3410.16
422.61	3365.69
422.80	3318.88
422.99	3391.44
423.18	3382.07
423.37	3496.76
423.56	3506.12
423.75	3372.71
423.94	3382.07
424.13	3173.77
424.32	3246.32
424.50	3461.65
424.69	3506.12
424.88	3595.06
425.07	3452.29
425.26	3410.16
425.45	3538.89
425.64	3349.31
425.83	3428.88
426.01	3508.46
426.20	3471.01
426.39	3442.93
426.58	3487.40
426.77	3435.91
426.96	3529.53
427.15	3604.42
427.33	3559.95
427.52	3471.01
427.71	3716.77
427.90	3616.13
428.09	3609.11
428.28	3735.50
428.46	3791.67
428.65	3707.41
428.84	3721.45
429.03	3761.24
429.22	3585.70
429.40	3875.93
429.59	3829.12
429.78	3641.87
429.97	3735.50
430.16	3861.88
430.34	4011.68
430.53	3999.98
430.72	3911.04
430.91	3850.18
431.10	3995.29
431.28	3992.95
431.47	3880.61
431.66	4046.79
431.85	3992.95
432.03	3918.06
432.22	4046.79
432.41	4051.47
432.60	4056.15
432.79	4079.55
432.97	4154.45
433.16	4203.60
433.35	4044.45
433.54	4231.69
433.72	4161.47
433.91	4114.66
434.10	4184.88
434.28	4241.05
434.47	4276.16
434.66	4388.50
434.85	4248.07
435.03	4367.44
435.22	4372.12
435.41	4458.72
435.59	4334.67
435.78	4491.49
435.97	4278.50
436.16	4409.57
436.34	4395.53
436.53	4437.66
436.72	4505.53
436.90	4374.46
437.09	4545.32
437.28	4503.19
437.46	4510.21
437.65	4573.41
437.84	4683.41
438.02	4491.49
438.21	4634.26
438.40	4650.64
438.58	4753.63
438.77	4896.40
438.96	4788.74
439.14	4685.75
439.33	4926.83
439.52	4954.91
439.70	5032.15
439.89	5004.07
440.08	4957.25
440.26	4931.51
440.45	4938.53
440.63	5076.62
440.82	5149.18
441.01	5050.88
441.19	5142.16
441.38	5240.46
441.57	5327.06
441.75	5284.93
441.94	5511.96
442.12	5252.16
442.31	5565.79
442.50	5495.58
442.68	5355.15
442.87	5430.04
443.05	5507.28
443.24	5636.01
443.43	5600.90
443.61	5638.35
443.80	5696.86
443.98	5502.60
444.17	5383.23
444.35	5500.26
444.54	5659.42
444.73	5678.14
444.91	5673.46
445.10	5731.97
445.28	5741.33
445.47	5703.89
445.65	5715.59
445.84	5708.57
446.02	5841.98
446.21	5600.90
446.39	5841.98
446.58	5909.85
446.77	5750.70
446.95	5544.73
447.14	5628.99
447.32	5867.72
447.51	5832.62
447.69	5675.80
447.88	5724.95
448.06	5907.51
448.25	5863.04
448.43	5818.57
448.62	5809.21
448.80	5832.62
448.99	5942.62
449.17	5888.79
449.36	5830.27
449.54	6047.94
449.73	5980.07
449.91	6150.93
450.10	6113.48
450.28	6099.44
450.46	6052.63
450.65	6150.93
450.83	6174.33
451.02	6244.55
451.20	6251.57
451.39	6181.35
451.57	6143.91
451.76	6045.60
451.94	6293.70
452.13	6401.37
452.31	6267.95
452.49	6136.88
452.68	6190.72
452.86	6274.98
453.05	6424.77
453.23	6356.90
453.42	6415.41
453.60	6340.51
453.78	6551.16
453.97	6562.86
454.15	6445.84
454.34	6359.24
454.52	6469.24
454.70	6703.29
454.89	6422.43
455.07	6579.25
455.26	6689.25
455.44	6736.06
455.62	6834.36
455.81	6682.23
455.99	6799.26
456.17	6757.13
456.36	6707.98
456.54	6846.07
456.73	6956.07
456.91	7112.89
457.09	6981.82
457.28	7164.38
457.46	6703.29
457.64	7040.33
457.83	7028.63
458.01	7091.82
458.19	7225.23
458.38	7091.82
458.56	7201.83
458.74	7281.41
458.93	7183.10
459.11	7208.85
459.29	7098.84
459.48	7129.27
459.66	7279.07
459.84	7529.50
460.03	7529.50
460.21	7274.38
460.39	7470.99
460.57	7377.37
460.76	7421.84
460.94	7618.44
461.12	7597.38
461.31	7552.91
461.49	7562.27
461.67	7566.95
461.85	7660.57
462.04	7686.32
462.22	8046.76
462.40	7866.54
462.59	7852.50
462.77	7658.23
462.95	7777.60
463.13	7793.98
463.32	7971.86
463.50	7913.35
463.68	7934.42
463.86	7974.21
464.05	7756.54
464.23	7974.21
464.41	7918.03
464.59	7918.03
464.78	8264.43
464.96	8056.12
465.14	8021.02
465.32	8091.23
465.50	8023.36
465.69	8128.68
465.87	8196.56
466.05	8217.62
466.23	8294.86
466.41	8287.84
466.60	8418.91
466.78	8163.79
466.96	8049.10
467.14	8222.30
467.32	8308.90
467.51	8444.65
467.69	8271.45
467.87	8353.37
468.05	8538.27
468.23	8311.24
468.41	8329.97
468.60	8369.76
468.78	8407.20
468.96	8299.54
469.14	8601.47
469.32	8741.90
469.50	8634.24
469.69	8538.27
469.87	8711.47
470.05	8872.97
470.23	8781.69
470.41	8769.99
470.59	8772.33
470.77	8725.52
470.95	8837.86
471.14	8826.16
471.32	8692.75
471.50	9188.94
471.68	9144.47
471.86	9046.17
472.04	9294.27
472.22	9425.34
472.40	9081.28
472.58	9057.87
472.77	9547.05
472.95	9270.86
473.13	9720.24
473.31	9418.32
473.49	9439.38
473.67	9397.25
473.85	9621.94
474.03	9844.29
474.21	9888.76
474.39	9806.84
474.57	9893.44
474.75	10019.83
474.93	10101.75
475.12	9806.84
475.30	10221.12
475.48	10193.03
475.66	10171.97
475.84	10071.33
476.02	10115.80
476.20	10345.17
476.38	10349.85
476.56	10649.44
476.74	10382.62
476.92	10284.31
477.10	10539.43
477.28	10686.89
477.46	10700.93
477.64	10857.75
477.82	11026.26
478.00	11328.19
478.18	11150.31
478.36	11288.40
478.54	11386.71
478.72	11449.90
478.90	11461.60
479.08	11660.55
479.26	11667.57
479.44	11719.06
479.62	11854.81
479.80	12039.72
479.98	11845.45
480.16	12201.21
480.34	11808.00
480.52	12348.67
480.70	12283.13
480.88	12290.15
481.06	12486.76
481.24	12475.06
481.41	12638.89
481.59	12833.16
481.77	12952.52
481.95	12978.27
482.13	12961.89
482.31	13013.38
482.49	13408.93
482.67	13603.19
482.85	13247.43
483.03	13823.20
483.21	13825.54
483.39	13893.42
483.57	13645.32
483.74	14157.90
483.92	13898.10
484.10	14118.11
484.28	14712.61
484.46	14572.18
484.64	14796.87
484.82	14541.75
485.00	14677.50
485.18	15028.58
485.35	15185.40
485.53	14993.47
485.71	15215.82
485.89	15314.13
486.07	15590.31
486.25	15522.43
486.43	15562.22
486.61	15864.15
486.78	15786.91
486.96	16168.42
487.14	16121.61
487.32	16079.48
487.50	16524.18
487.68	16341.62
487.85	16826.11
488.03	16746.53
488.21	17060.16
488.39	17135.06
488.57	17153.79
488.75	17254.43
488.92	17675.73
489.10	17544.66
489.28	17355.07
489.46	17813.82
489.64	17935.53
489.81	18459.81
489.99	18139.15
490.17	18462.15
490.35	18623.64
490.53	18782.80
490.70	18712.58
490.88	18883.44
491.06	18977.06
491.24	18850.67
491.41	19545.81
491.59	19381.98
491.77	18993.45
491.95	19300.06
492.13	19733.06
492.30	19845.40
492.48	19903.92
492.66	20091.16
492.84	19882.85
493.01	20027.96
493.19	20182.44
493.37	20470.33
493.54	20570.97
493.72	20692.68
493.90	20657.57
494.08	20964.18
494.25	20947.79
494.43	21085.89
494.61	21015.67
494.79	21212.28
494.96	21591.44
495.14	21490.80
495.32	21867.63
495.49	21621.87
495.67	21914.44
495.85	21970.61
496.02	22171.89
496.20	22417.65
496.38	22595.53
496.55	22764.05
496.73	23065.98
496.91	22850.65
497.09	22773.41
497.26	23065.98
497.44	22890.44
497.62	23365.57
497.79	23475.57
497.97	23529.41
498.14	23985.81
498.32	23524.72
498.50	23852.40
498.67	23800.91
498.85	24313.48
499.03	24044.32
499.20	24519.45
499.38	24496.05
499.56	24348.59
499.73	24676.27
499.91	24531.15
500.08	25060.12
500.26	24458.60
500.44	24844.79
500.61	24821.38
500.79	25055.43
500.97	24727.76
501.14	25303.53
501.32	25713.13
501.49	25324.60
501.67	25350.34
501.84	25804.41
502.02	25598.44
502.20	25383.11
502.37	26185.91
502.55	25792.70
502.72	26232.72
502.90	25935.48
503.07	26066.55
503.25	26111.02
503.43	26223.36
503.60	26277.19
503.78	26497.20
503.95	26401.24
504.13	26780.41
504.30	26871.69
504.48	26958.29
504.65	26981.70
504.83	27044.89
505.01	27438.10
505.18	27175.96
505.36	27707.26
505.53	27089.36
505.71	27599.60
505.88	27641.73
506.06	27552.79
506.23	27831.31
506.41	27583.21
506.58	27791.52
506.76	27901.53
506.93	27997.49
507.11	28137.92
507.28	28212.82
507.46	28023.23
507.63	28559.22
507.81	28526.45
507.98	28383.68
508.16	28617.73
508.33	28699.65
508.50	29095.20
508.68	29263.72
508.85	29163.08
509.03	28933.70
509.20	29294.14
509.38	29422.87
509.55	29500.11
509.73	29773.95
509.90	29731.83
510.08	29436.92
510.25	29560.97
510.42	29970.56
510.60	29823.11
510.77	30094.61
510.95	30445.69
511.12	30249.08
511.30	30221.00
511.47	30583.78
511.64	30183.55
511.82	30829.54
511.99	30225.68
512.17	30387.18
512.34	30675.06
512.51	30756.98
512.69	31007.42
512.86	30834.22
513.04	31068.27
513.21	31236.79
513.38	31342.11
513.56	31241.47
513.73	31091.68
513.90	31311.69
514.08	31433.39
514.25	31723.62
514.43	31583.19
514.60	32070.02
514.77	31714.26
514.95	31941.29
515.12	31695.53
515.29	31955.33
515.47	31971.72
515.64	32577.92
515.81	32016.19
515.99	32170.66
516.16	32606.00
516.33	32065.34
516.51	32477.27
516.68	32428.12
516.85	32327.48
517.03	33069.43
517.20	32657.49
517.37	32701.96
517.54	32921.98
517.72	33165.39
517.89	33020.28
518.06	33677.97
518.24	33034.32
518.41	32973.47
518.58	33399.44
518.75	32999.21
518.93	33317.53
519.10	33549.24
519.27	33156.03
519.45	33766.91
519.62	33848.83
519.79	33827.76
519.96	33729.46
520.14	34143.74
520.31	34015.01
520.48	33907.34
520.65	34237.36
520.83	34766.32
521.00	34618.86
521.17	34230.33
521.34	34618.86
521.52	34866.96
521.69	35000.37
521.86	34693.76
522.03	34845.90
522.20	35278.89
522.38	35548.06
522.55	35075.27
522.72	35356.13
522.89	35133.78
523.07	35601.89
523.24	35365.49
523.41	35723.60
523.58	35470.82
523.75	35585.50
523.92	35777.43
524.10	35655.72
524.27	35967.01
524.44	36081.70
524.61	35723.60
524.78	36126.17
524.96	36325.11
525.13	35885.09
525.30	36292.35
525.47	36137.87
525.64	36287.67
525.81	36652.79
525.98	36818.97
526.16	36624.70
526.33	36463.21
526.50	36701.94
526.67	36732.37
526.84	36926.63
527.01	36650.45
527.18	36982.80
527.36	37008.55
527.53	37392.40
527.70	37457.93
527.87	37703.69
528.04	37450.91
528.21	37242.60
528.38	37144.30
528.55	37560.92
528.72	37706.03
528.89	37284.73
529.07	37563.26
529.24	37333.89
529.41	37706.03
529.58	37624.11
529.75	37745.82
529.92	37460.27
530.09	38375.42
530.26	37865.19
530.43	37806.67
530.60	37928.38
530.77	38134.35
530.94	38073.49
531.11	38192.86
531.28	38213.93
531.46	37916.68
531.63	38274.78
531.80	38307.55
531.97	38696.08
532.14	38614.16
532.31	38630.54
532.48	38883.32
532.65	38590.75
532.82	38829.49
532.99	38588.41
533.16	38499.47
533.33	38408.19
533.50	38962.90
533.67	39042.48
533.84	38848.21
534.01	38707.78
534.18	39168.87
534.35	39578.46
534.52	39503.56
534.69	39501.22
534.86	39597.18
535.03	39545.69
535.20	39634.63
535.37	39728.25
535.54	39569.10
535.71	39693.15
535.88	39772.72
536.05	39508.24
536.22	40264.24
536.38	39974.01
536.55	39854.64
536.72	40081.67
536.89	39845.28
537.06	40196.36
537.23	40154.23
537.40	39861.66
537.57	40107.42
537.74	40168.27
537.91	40783.83
538.08	40271.26
538.25	39885.07
538.42	40465.52
538.59	40598.93
538.75	40486.59
538.92	41179.39
539.09	40903.20
539.26	40584.89
539.43	40823.62
539.60	40678.51
539.77	40493.61
539.94	41050.66
540.11	41132.57
540.28	41116.19
540.44	40861.07
540.61	40896.18
540.78	40643.40
540.95	41214.49
541.12	41160.66
541.29	41137.26
541.46	41507.06
541.62	41588.98
541.79	41588.98
541.96	40978.10
542.13	40968.74
542.30	41361.95
542.47	41827.71
542.63	41605.36
542.80	41914.31
542.97	42038.36
543.14	42171.77
543.31	42071.13
543.48	42068.79
543.64	42588.39
543.81	42305.18
543.98	42384.76
544.15	42204.54
544.32	42621.16
544.48	42625.84
544.65	42588.39
544.82	42569.66
544.99	42368.38
545.16	42604.77
545.32	42382.42
545.49	43056.50
545.66	42967.55
545.83	42698.39
546.00	42925.42
546.16	42766.27
546.33	42588.39
546.50	42717.12
546.67	43295.23
546.83	42064.11
547.00	42731.16
547.17	43079.90
547.34	43115.01
547.50	43494.18
547.67	43377.15
547.84	43124.37
548.00	43250.76
548.17	43803.13
548.34	43938.88
548.51	43445.02
548.67	43454.39
548.84	43288.21
549.01	43363.11
549.18	43538.65
549.34	43770.36
549.51	43931.86
549.68	43618.22
549.84	43756.32
550.01	44240.81
550.18	43683.76
550.34	44128.46
550.51	43868.66
550.68	44210.38
550.84	44112.08
551.01	43831.21
551.18	43793.76
551.34	43735.25
551.51	44037.18
551.68	44130.80
551.84	44172.93
552.01	44088.67
552.18	44329.75
552.34	44208.04
552.51	44411.67
552.68	44329.75
552.84	44282.94
553.01	44250.17
553.18	44566.14
553.34	44411.67
553.51	44175.27
553.67	44685.51
553.84	45179.36
554.01	44577.84
554.17	44348.47
554.34	44858.71
554.51	44683.17
554.67	44746.36
554.84	44781.47
555.00	45029.57
555.17	44648.06
555.33	44699.55
555.50	44804.88
555.67	44835.30
555.83	45244.90
556.00	45034.25
556.16	45282.34
556.33	45193.40
556.50	45022.54
556.66	44996.80
556.83	45230.85
556.99	45607.68
557.16	45404.05
557.32	45326.81
557.49	45198.09
557.65	45296.39
557.82	45546.82
557.98	45434.48
558.15	45521.08
558.32	45462.57
558.48	45158.30
558.65	45261.28
558.81	45755.13
558.98	45598.32
559.14	45130.21
559.31	45504.70
559.47	45500.01
559.64	45420.44
559.80	45689.60
559.97	45799.60
560.13	45275.32
560.30	45764.49
560.46	46021.95
560.63	45806.62
560.79	46094.51
560.96	45977.48
561.12	46464.32
561.29	45705.98
561.45	45963.44
561.61	46094.51
561.78	45773.86
561.94	46326.22
562.11	46501.76
562.27	46220.90
562.44	45673.21
562.60	45841.73
562.77	45947.06
562.93	46146.00
563.10	46164.73
563.26	45825.35
563.42	46534.53
563.59	46646.88
563.75	46351.97
563.92	46536.87
564.08	45867.48
564.24	46564.96
564.41	46248.99
564.57	46471.34
564.74	46307.50
564.90	45958.76
565.07	46267.71
565.23	46422.19
565.39	46445.59
565.56	46480.70
565.72	46291.12
565.88	46080.47
566.05	46590.70
566.21	46473.68
566.38	46408.14
566.54	46607.09
566.70	46674.96
566.87	46574.32
567.03	46412.82
567.19	46649.22
567.36	46450.27
567.52	46461.97
567.68	47019.02
567.85	46506.44
568.01	46586.02
568.17	46791.99
568.34	46384.74
568.50	46646.88
568.66	46461.97
568.83	46717.09
568.99	46513.47
569.15	46607.09
569.32	46731.14
569.48	46670.28
569.64	46941.78
569.81	46747.52
569.97	46990.94
570.13	46883.27
570.30	46813.05
570.46	47079.88
570.62	46735.82
570.78	46880.93
570.95	47105.62
571.11	47096.26
571.27	47150.09
571.43	46609.43
571.60	47152.43
571.76	46848.16
571.92	46918.38
572.09	46749.86
572.25	46646.88
572.41	46892.63
572.57	47056.47
572.74	47229.67
572.90	46775.61
573.06	47227.33
573.22	47192.22
573.38	47290.52
573.55	47192.22
573.71	47412.23
573.87	47323.29
574.03	47009.66
574.20	47353.72
574.36	47299.89
574.52	47447.34
574.68	47356.06
574.84	47269.46
575.01	47224.99
575.17	47217.97
575.33	47524.58
575.49	46909.02
575.65	47445.00
575.82	47445.00
575.98	47178.18
576.14	47531.60
576.30	46894.97
576.46	47363.08
576.62	47117.32
576.79	47475.43
576.95	46953.49
577.11	47311.59
577.27	47182.86
577.43	47126.69
577.59	47285.84
577.75	47239.03
577.92	46885.61
578.08	47559.69
578.24	47075.19
578.40	46958.17
578.56	47206.26
578.72	47283.50
578.88	47929.49
579.04	47299.89
579.21	47030.72
579.37	47480.11
579.53	47456.70
579.69	47470.75
579.85	47107.96
580.01	47442.66
580.17	47428.62
580.33	47728.20
580.49	47744.59
580.65	47040.09
580.82	47194.56
580.98	47636.92
581.14	47224.99
581.30	47742.25
581.46	47262.44
581.62	47161.79
581.78	47861.61
581.94	47842.89
582.10	47430.96
582.26	47545.64
582.42	47281.16
582.58	47543.30
582.74	47625.22
582.90	47372.44
583.06	47812.46
583.22	47489.47
583.38	47859.27
583.54	47592.45
583.70	47660.33
583.86	47505.85
584.02	47243.71
584.18	47643.94
584.34	47742.25
584.50	47641.60
584.66	47810.12
584.82	47908.43
584.98	47917.79
585.14	47522.24
585.30	47730.54
585.46	47927.15
585.62	47302.23
585.78	47800.76
585.94	47683.73
586.10	47400.53
586.26	47482.45
586.42	47636.92
586.58	48126.10
586.74	47456.70
586.90	47562.03
587.06	47835.87
587.22	47665.01
587.38	47501.17
587.54	47934.17
587.70	48186.95
587.86	48004.39
588.02	47810.12
588.18	47695.44
588.34	48023.11
588.49	47782.04
588.65	47533.94
588.81	47634.58
588.97	47800.76
589.13	47533.94
589.29	47927.15
589.45	47901.40
589.61	47983.32
589.77	47990.34
589.93	47468.40
