SpectraSuite Data File
++++++++++++++++++++++++++++++++++++
Date: Fri Oct 25 11:25:52 EDT 2013
User: price-jones
Dark Spectrum Present: No
Reference Spectrum Present: No
Number of Sampled Component Spectra: 1
Spectrometers: USB2+H05261
Integration Time (usec): 100000 (USB2+H05261)
Spectra Averaged: 1 (USB2+H05261)
Boxcar Smoothing: 0 (USB2+H05261)
Correct for Electrical Dark: No (USB2+H05261)
Strobe/Lamp Enabled: No (USB2+H05261)
Correct for Detector Non-linearity: No (USB2+H05261)
Correct for Stray Light: No (USB2+H05261)
Number of Pixels in Processed Spectrum: 2048
>>>>>Begin Processed Spectral Data<<<<<
365.73	196.60
365.92	196.60
366.12	196.60
366.32	145.11
366.52	173.20
366.72	126.39
366.91	163.84
367.11	131.07
367.31	124.05
367.51	79.58
367.70	72.56
367.90	152.13
368.10	170.86
368.30	145.11
368.49	182.56
368.69	163.84
368.89	149.79
369.09	126.39
369.28	210.65
369.48	105.32
369.68	173.20
369.87	86.60
370.07	189.58
370.27	234.05
370.47	337.04
370.66	608.54
370.86	589.82
371.06	655.35
371.25	702.16
371.45	650.67
371.65	734.93
371.84	655.35
372.04	683.44
372.24	727.91
372.44	692.80
372.63	751.31
372.83	732.59
373.03	798.12
373.22	772.38
373.42	830.89
373.62	777.06
373.81	765.36
374.01	849.61
374.21	849.61
374.40	805.14
374.60	866.00
374.79	866.00
374.99	837.91
375.19	866.00
375.38	812.17
375.58	908.13
375.78	870.68
375.97	901.11
376.17	889.40
376.37	915.15
376.56	863.66
376.76	905.79
376.95	875.36
377.15	882.38
377.35	901.11
377.54	795.78
377.74	926.85
377.93	952.60
378.13	887.06
378.33	952.60
378.52	924.51
378.72	889.40
378.91	896.43
379.11	1004.09
379.31	983.02
379.50	924.51
379.70	1025.15
379.89	990.05
380.09	917.49
380.28	980.68
380.48	999.41
380.68	978.34
380.87	926.85
381.07	1104.73
381.26	1041.54
381.46	987.71
381.65	1020.47
381.85	1039.20
382.04	1043.88
382.24	1118.78
382.43	1097.71
382.63	1013.45
382.83	1090.69
383.02	1114.10
383.22	1114.10
383.41	1034.52
383.61	1034.52
383.80	1158.57
384.00	1097.71
384.19	1121.12
384.39	1055.58
384.58	1142.18
384.78	1191.33
384.97	1118.78
385.17	1135.16
385.36	1200.69
385.56	1142.18
385.75	1132.82
385.95	1170.27
386.14	1074.31
386.34	1301.34
386.53	1198.35
386.72	1142.18
386.92	1238.14
387.11	1158.57
387.31	1139.84
387.50	1193.67
387.70	1268.57
387.89	1268.57
388.09	1315.38
388.28	1373.89
388.48	1355.17
388.67	1315.38
388.86	1430.07
389.06	1310.70
389.25	1275.59
389.45	1406.66
389.64	1287.29
389.84	1423.05
390.03	1390.28
390.22	1373.89
390.42	1404.32
390.61	1345.81
390.81	1371.55
391.00	1413.68
391.19	1455.81
391.39	1467.52
391.58	1310.70
391.78	1444.11
391.97	1444.11
392.16	1465.18
392.36	1502.62
392.55	1511.99
392.75	1582.20
392.94	1582.20
393.13	1507.30
393.33	1406.66
393.52	1528.37
393.71	1556.46
393.91	1598.59
394.10	1657.10
394.29	1572.84
394.49	1540.07
394.68	1621.99
394.88	1584.54
395.07	1717.95
395.26	1572.84
395.46	1673.48
395.65	1675.82
395.84	1671.14
396.04	1774.13
396.23	1870.09
396.42	1785.83
396.62	1757.74
396.81	1827.96
397.00	1673.48
397.19	1741.36
397.39	1858.39
397.58	1881.79
397.77	1783.49
397.97	1858.39
398.16	1905.20
398.35	1870.09
398.55	1724.97
398.74	1952.01
398.93	2008.18
399.12	1919.24
399.32	1893.49
399.51	1860.73
399.70	1968.39
399.90	1998.82
400.09	1966.05
400.28	1982.43
400.47	2045.63
400.67	2087.76
400.86	2012.86
401.05	1952.01
401.24	2031.58
401.44	2097.12
401.63	2132.23
401.82	2085.42
402.01	2111.16
402.21	2136.91
402.40	2211.81
402.59	2160.31
402.78	2176.70
402.97	2263.30
403.17	2221.17
403.36	2340.54
403.55	2399.05
403.74	2403.73
403.93	2431.82
404.13	2235.21
404.32	2319.47
404.51	2436.50
404.70	2380.32
404.89	2310.11
405.09	2492.67
405.28	2597.99
405.47	2532.46
405.66	2523.10
405.85	2523.10
406.05	2509.05
406.24	2628.42
406.43	2534.80
406.62	2637.78
406.81	2766.51
407.00	2497.35
407.20	2487.99
407.39	2579.27
407.58	2689.28
407.77	2717.36
407.96	2698.64
408.15	2679.91
408.34	2703.32
408.54	2766.51
408.73	2759.49
408.92	2888.22
409.11	2736.09
409.30	2918.65
409.49	2939.71
409.68	2839.07
409.87	2888.22
410.07	3016.95
410.26	2939.71
410.45	2892.90
410.64	3021.63
410.83	3059.08
411.02	3159.72
411.21	3187.81
411.40	3143.34
411.59	3255.69
411.78	3281.43
411.98	3279.09
412.17	3225.26
412.36	3218.24
412.55	3393.78
412.74	3302.50
412.93	3356.33
413.12	3445.27
413.31	3534.21
413.50	3438.25
413.69	3440.59
413.88	3637.19
414.07	3634.85
414.26	3646.55
414.45	3674.64
414.64	3623.15
414.83	3660.60
415.02	3786.99
415.22	3808.05
415.41	3756.56
415.60	3836.14
415.79	3941.46
415.98	3948.48
416.17	4021.04
416.36	4004.66
416.55	3911.04
416.74	3992.95
416.93	4021.04
417.12	4093.60
417.31	4081.89
417.50	4102.96
417.69	4238.71
417.88	4210.62
418.07	4201.26
418.26	4304.25
418.45	4327.65
418.64	4430.63
418.83	4407.23
419.02	4432.97
419.21	4561.70
419.39	4318.29
419.58	4447.02
419.77	4477.44
419.96	4568.73
420.15	4498.51
420.34	4411.91
420.53	4430.63
420.72	4524.26
420.91	4692.77
421.10	4676.39
421.29	4858.95
421.48	4566.39
421.67	4823.84
421.86	4732.56
422.05	4685.75
422.24	4833.21
422.43	4940.87
422.61	4912.78
422.80	4980.66
422.99	4835.55
423.18	4966.62
423.37	5029.81
423.56	4887.04
423.75	4908.10
423.94	4826.18
424.13	4634.26
424.32	4901.08
424.50	4905.76
424.69	5254.50
424.88	4833.21
425.07	4891.72
425.26	4978.32
425.45	5034.49
425.64	4919.81
425.83	4840.23
426.01	5135.14
426.20	5093.01
426.39	5018.11
426.58	5090.67
426.77	4966.62
426.96	5172.58
427.15	5228.76
427.33	5210.03
427.52	5203.01
427.71	5289.61
427.90	5252.16
428.09	5146.84
428.28	5284.93
428.46	5343.44
428.65	5303.65
428.84	5547.07
429.03	5362.17
429.22	5259.18
429.40	5392.59
429.59	5502.60
429.78	5191.31
429.97	5242.80
430.16	5427.70
430.34	5603.24
430.53	5603.24
430.72	5643.03
430.91	5703.89
431.10	5467.49
431.28	5720.27
431.47	5696.86
431.66	5893.47
431.85	5870.06
432.03	5994.11
432.22	5996.45
432.41	5900.49
432.60	6017.52
432.79	5937.94
432.97	6026.88
433.16	6083.05
433.35	5839.64
433.54	6160.29
433.72	6092.41
433.91	5893.47
434.10	6080.71
434.28	6141.57
434.47	6047.94
434.66	6293.70
434.85	6174.33
435.03	6485.62
435.22	6296.04
435.41	6303.06
435.59	6490.31
435.78	6471.58
435.97	6546.48
436.16	6303.06
436.34	6457.54
436.53	6347.53
436.72	6628.40
436.90	6403.71
437.09	6459.88
437.28	6640.10
437.46	6537.12
437.65	6572.22
437.84	6616.69
438.02	6696.27
438.21	6726.70
438.40	6593.29
438.58	7052.03
438.77	6995.86
438.96	6991.18
439.14	6984.16
439.33	7208.85
439.52	7286.09
439.70	7194.81
439.89	7300.13
440.08	7496.74
440.26	7426.52
440.45	7309.49
440.63	7449.93
440.82	7716.75
441.01	7473.33
441.19	7393.75
441.38	7744.83
441.57	7683.98
441.75	7637.17
441.94	7829.09
442.12	7873.56
442.31	8023.36
442.50	7939.10
442.68	7925.05
442.87	8121.66
443.05	8128.68
443.24	8032.72
443.43	8065.49
443.61	8299.54
443.80	8416.57
443.98	8095.91
444.17	7929.74
444.35	8301.88
444.54	8362.73
444.73	8456.36
444.91	8037.40
445.10	8292.52
445.28	8341.67
445.47	8278.47
445.65	8402.52
445.84	8273.79
446.02	8582.74
446.21	8241.03
446.39	8369.76
446.58	8517.21
446.77	8287.84
446.95	8191.88
447.14	8376.78
447.32	8634.24
447.51	8617.85
447.69	8390.82
447.88	8449.33
448.06	8446.99
448.25	8592.11
448.43	8725.52
448.62	8500.83
448.80	8374.44
448.99	8568.70
449.17	8755.94
449.36	8535.93
449.54	8685.73
449.73	8748.92
449.91	9060.21
450.10	8887.01
450.28	9015.74
450.46	8711.47
450.65	8954.89
450.83	8982.98
451.02	8987.66
451.20	9137.45
451.39	8968.93
451.57	9137.45
451.76	8992.34
451.94	9053.19
452.13	9303.63
452.31	9404.27
452.49	9188.94
452.68	9170.22
452.86	9359.80
453.05	9420.66
453.23	9462.79
453.42	9404.27
453.60	9362.14
453.78	9633.64
453.97	9432.36
454.15	9458.10
454.34	9628.96
454.52	9748.33
454.70	9657.05
454.89	9600.88
455.07	9872.38
455.26	9797.48
455.44	9937.91
455.62	9839.61
455.81	10061.96
455.99	9823.23
456.17	10017.49
456.36	9863.02
456.54	10061.96
456.73	10289.00
456.91	10705.61
457.09	10209.42
457.28	10504.32
457.46	10181.33
457.64	10263.25
457.83	10399.00
458.01	10452.83
458.19	10771.15
458.38	10539.43
458.56	10817.96
458.74	10668.16
458.93	10441.13
459.11	10714.97
459.29	10520.71
459.48	10724.33
459.66	10789.87
459.84	10754.76
460.03	10792.21
460.21	10972.43
460.39	10918.60
460.57	10775.83
460.76	11000.52
460.94	11365.64
461.12	11152.65
461.31	11070.73
461.49	11215.85
461.67	11234.57
461.85	11410.11
462.04	11218.19
462.22	11899.28
462.40	11412.45
462.59	11358.62
462.77	11494.37
462.95	11698.00
463.13	11623.10
463.32	11669.91
463.50	11768.21
463.68	11775.24
463.86	11838.43
464.05	11599.70
464.23	11852.47
464.41	12049.08
464.59	11609.06
464.78	12131.00
464.96	11955.46
465.14	11791.62
465.32	11927.37
465.50	12002.27
465.69	12098.23
465.87	12196.53
466.05	12039.72
466.23	11985.88
466.41	12250.36
466.60	12400.16
466.78	12166.10
466.96	12210.57
467.14	12203.55
467.32	12315.90
467.51	12353.35
467.69	12086.53
467.87	12334.62
468.05	12533.57
468.23	12533.57
468.41	12390.80
468.60	12219.94
468.78	12711.45
468.96	12547.61
469.14	12858.90
469.32	12987.63
469.50	12676.34
469.69	13008.70
469.87	13116.36
470.05	13174.88
470.23	13355.10
470.41	12992.31
470.59	13004.02
470.77	13217.01
470.95	13170.19
471.14	13287.22
471.32	13013.38
471.50	13729.58
471.68	13666.39
471.86	13465.10
472.04	13710.86
472.22	14111.09
472.40	13696.82
472.58	13898.10
472.77	13968.32
472.95	14073.64
473.13	14565.15
473.31	14310.04
473.49	14059.60
473.67	14040.87
473.85	14097.05
474.03	14508.98
474.21	14754.74
474.39	14934.96
474.57	14637.71
474.75	14890.49
474.93	15122.20
475.12	15140.93
475.30	14939.64
475.48	14754.74
475.66	15407.75
475.84	15283.70
476.02	15236.89
476.20	15232.21
476.38	15641.80
476.56	16013.95
476.74	15925.00
476.92	15840.75
477.10	15667.55
477.28	16056.08
477.46	16233.96
477.64	16238.64
477.82	16468.01
478.00	16940.80
478.18	16673.98
478.36	17067.19
478.54	17273.15
478.72	17401.88
478.90	17116.34
479.08	17467.42
479.26	17893.40
479.44	17738.92
479.62	17696.79
479.80	18111.07
479.98	18050.21
480.16	18185.96
480.34	18181.28
480.52	18438.74
480.70	18476.19
480.88	18527.68
481.06	18614.28
481.24	18661.09
481.41	18857.70
481.59	19370.27
481.77	19227.50
481.95	19482.62
482.13	19630.07
482.31	19721.35
482.49	20226.91
482.67	20191.80
482.85	20306.49
483.03	20540.54
483.21	20772.25
483.39	20849.49
483.57	20683.31
483.74	21301.22
483.92	21563.36
484.10	21343.35
484.28	21516.54
484.46	21696.77
484.64	22347.44
484.82	21790.39
485.00	22160.19
485.18	22689.15
485.35	22972.36
485.53	22799.16
485.71	22953.63
485.89	23470.89
486.07	23243.86
486.25	23349.18
486.43	23419.40
486.61	23737.71
486.78	23744.73
486.96	24130.92
487.14	24507.75
487.32	24683.29
487.50	24694.99
487.68	24849.47
487.85	25015.65
488.03	25301.19
488.21	25596.10
488.39	25666.31
488.57	25750.57
488.75	26036.12
488.92	26094.63
489.10	26466.78
489.28	26579.12
489.46	27234.47
489.64	27051.91
489.81	27594.92
489.99	27601.94
490.17	27702.58
490.35	28006.85
490.53	28386.02
490.70	28278.35
490.88	28018.55
491.06	28737.10
491.24	28582.62
491.41	29064.77
491.59	29252.02
491.77	29638.20
491.95	29394.79
492.13	29560.97
492.30	30015.03
492.48	29680.33
492.66	30204.61
492.84	30188.23
493.01	30689.10
493.19	30850.60
493.37	31030.82
493.54	31227.43
493.72	31384.24
493.90	31328.07
494.08	31826.60
494.25	32205.77
494.43	32184.71
494.61	32210.45
494.79	32175.34
494.96	32346.20
495.14	32388.33
495.32	32931.34
495.49	33090.49
495.67	33251.99
495.85	33582.01
496.02	33853.51
496.20	34096.92
496.38	33930.75
496.55	34284.17
496.73	34813.13
496.91	34792.06
497.09	34466.73
497.26	34899.73
497.44	34974.63
497.62	35159.53
497.79	35512.95
497.97	35438.05
498.14	35651.04
498.32	36177.66
498.50	36261.92
498.67	36371.92
498.85	36297.03
499.03	36378.95
499.20	36751.09
499.38	36847.05
499.56	36982.80
499.73	37027.28
499.91	37333.89
500.08	37516.45
500.26	37308.14
500.44	37464.96
500.61	37900.29
500.79	37296.44
500.97	37869.87
501.14	38274.78
501.32	38918.43
501.49	38094.56
501.67	38319.25
501.84	39152.48
502.02	38827.15
502.20	38728.84
502.37	39145.46
502.55	38925.45
502.72	39412.28
502.90	39206.31
503.07	39597.18
503.25	39735.27
503.43	39522.29
503.60	40053.59
503.78	40264.24
503.95	40514.67
504.13	40559.14
504.30	40315.73
504.48	40179.98
504.65	41153.64
504.83	40835.33
505.01	41062.36
505.18	40877.46
505.36	41397.06
505.53	40914.90
505.71	41497.70
505.88	41298.75
506.06	41181.73
506.23	42197.52
506.41	42071.13
506.58	42031.34
506.76	41893.25
506.93	42038.36
507.11	42026.66
507.28	42511.15
507.46	42504.13
507.63	42520.51
507.81	43154.80
507.98	42880.95
508.16	42906.70
508.33	43110.33
508.50	43012.02
508.68	43526.94
508.85	43861.64
509.03	43672.06
509.20	44184.63
509.38	44018.46
509.55	44186.97
509.73	43929.51
509.90	44093.35
510.08	44285.28
510.25	44479.54
510.42	44741.68
510.60	44837.64
510.77	44760.40
510.95	45368.94
511.12	44992.12
511.30	45099.78
511.47	45354.90
511.64	45591.30
511.82	45762.15
511.99	45422.78
512.17	45827.69
512.34	45752.79
512.51	46059.40
512.69	46412.82
512.86	46419.84
513.04	46749.86
513.21	46576.66
513.38	46642.20
513.56	46918.38
513.73	46389.42
513.90	47049.45
514.08	46497.08
514.25	46983.91
514.43	47147.75
514.60	47255.42
514.77	47386.49
514.95	47665.01
515.12	47386.49
515.29	47559.69
515.47	47791.40
515.64	47782.04
515.81	47983.32
515.99	47845.23
516.16	48362.49
516.33	48151.84
516.51	48554.41
516.68	48205.67
516.85	48364.83
517.03	48830.60
517.20	48900.81
517.37	48877.41
517.54	48397.60
517.72	48521.65
517.89	49031.88
518.06	49279.98
518.24	49305.73
518.41	48856.34
518.58	49216.78
518.75	49308.07
518.93	49287.00
519.10	49158.27
519.27	50012.57
519.45	49766.81
519.62	49600.63
519.79	50103.85
519.96	49818.30
520.14	49832.35
520.31	49729.36
520.48	50307.47
520.65	50263.00
520.83	50349.60
521.00	50422.16
521.17	50754.52
521.34	50674.94
521.52	50550.89
521.69	50827.07
521.86	50981.55
522.03	50862.18
522.20	51203.90
522.38	51358.38
522.55	51096.24
522.72	51203.90
522.89	51250.71
523.07	51281.14
523.24	51372.42
523.41	51562.00
523.58	51444.98
523.75	51695.41
523.92	51695.41
524.10	52074.58
524.27	51859.25
524.44	51964.57
524.61	51870.95
524.78	52292.25
524.96	51952.87
525.13	52362.46
525.30	52247.78
525.47	52418.64
525.64	52430.34
525.81	52327.36
525.98	52624.60
526.16	52685.46
526.33	52615.24
526.50	52992.07
526.67	52683.12
526.84	52811.85
527.01	52954.62
527.18	52692.48
527.36	53104.41
527.53	52896.11
527.70	53270.59
527.87	53216.76
528.04	53029.52
528.21	53310.38
528.38	53202.72
528.55	53415.71
528.72	53450.81
528.89	53542.10
529.07	53298.68
529.24	53205.06
529.41	53483.58
529.58	53631.04
529.75	53773.81
529.92	53724.66
530.09	53759.76
530.26	53715.29
530.43	53734.02
530.60	53696.57
530.77	53638.06
530.94	53975.09
531.11	54012.54
531.28	54045.31
531.46	54108.50
531.63	53972.75
531.80	53998.50
531.97	54213.83
532.14	54202.13
532.31	54279.36
532.48	54438.52
532.65	54703.00
532.82	54117.87
532.99	54698.32
533.16	54571.93
533.33	54625.76
533.50	54791.94
533.67	54841.09
533.84	54703.00
534.01	54508.74
534.18	54714.70
534.35	55047.06
534.52	55152.38
534.69	55065.78
534.86	55220.26
535.03	55290.48
535.20	55136.00
535.37	55168.77
535.54	55248.35
535.71	55164.09
535.88	55157.06
536.05	55398.14
536.22	55388.78
536.38	55470.70
536.55	55302.18
536.72	55538.57
536.89	55405.16
537.06	55447.29
537.23	55435.59
537.40	55564.32
537.57	55547.93
537.74	55793.69
537.91	55882.63
538.08	55686.03
538.25	55657.94
538.42	55807.73
538.59	56207.97
538.75	55962.21
538.92	56018.38
539.09	55868.59
539.26	56280.52
539.43	55934.12
539.60	56369.46
539.77	56104.98
539.94	56456.06
540.11	56278.18
540.28	56324.99
540.44	56409.25
540.61	56498.19
540.78	56140.09
540.95	56339.04
541.12	56184.56
541.29	56184.56
541.46	56568.41
541.62	56662.03
541.79	56402.23
541.96	56299.25
542.13	56626.92
542.30	56638.62
542.47	56905.44
542.63	56708.84
542.80	56891.40
542.97	57001.41
543.14	57179.29
543.31	56860.97
543.48	57132.48
543.64	57422.70
543.81	57237.80
543.98	57329.08
544.15	57190.99
544.32	57385.25
544.48	57551.43
544.65	57181.63
544.82	57270.57
544.99	57022.47
545.16	57364.19
545.32	57387.60
545.49	57656.76
545.66	57652.08
545.83	57551.43
546.00	57708.25
546.16	57616.97
546.33	57471.85
546.50	57322.06
546.67	57516.32
546.83	57394.62
547.00	57673.14
547.17	57649.74
547.34	57680.16
547.50	57748.04
547.67	58078.05
547.84	57958.69
548.00	57904.85
548.17	58108.48
548.34	57954.00
548.51	57914.22
548.67	58237.21
548.84	57879.11
549.01	58003.16
549.18	58089.76
549.34	57914.22
549.51	58255.93
549.68	58066.35
549.84	58209.12
550.01	58291.04
550.18	58347.21
550.34	58599.99
550.51	58478.28
550.68	58300.40
550.84	58174.02
551.01	58230.19
551.18	58616.38
551.34	58422.11
551.51	58550.84
551.68	58592.97
551.84	58684.25
552.01	58363.60
552.18	58686.59
552.34	58363.60
552.51	58644.46
552.68	58293.38
552.84	58607.01
553.01	58871.49
553.18	58635.10
553.34	59047.04
553.51	58611.70
553.67	58644.46
553.84	58885.54
554.01	58822.34
554.17	59098.53
554.34	58887.88
554.51	58841.07
554.67	58904.26
554.84	59018.95
555.00	58951.07
555.17	59182.79
555.33	58944.05
555.50	58848.09
555.67	58740.42
555.83	59063.42
556.00	58988.52
556.16	59461.31
556.33	59135.98
556.50	59231.94
556.66	59360.67
556.83	59044.69
556.99	59325.56
557.16	59388.75
557.32	59458.97
557.49	59599.40
557.65	59178.10
557.82	59395.77
557.98	59234.28
558.15	59330.24
558.32	59566.63
558.48	59274.07
558.65	59419.18
558.81	59278.75
558.98	59433.22
559.14	59590.04
559.31	59491.74
559.47	59437.90
559.64	59510.46
559.80	59716.43
559.97	59540.89
560.13	59550.25
560.30	59604.08
560.46	59753.88
560.63	59465.99
560.79	59447.27
560.96	59728.13
561.12	59781.96
561.29	59634.51
561.45	59779.62
561.61	59791.33
561.78	59732.81
561.94	59859.20
562.11	59580.68
562.27	59891.97
562.44	59831.11
562.60	59875.58
562.77	59826.43
562.93	59707.07
563.10	60062.83
563.26	59695.36
563.42	60123.68
563.59	59948.14
563.75	59948.14
563.92	60009.00
564.08	60004.31
564.24	60306.24
564.41	60011.34
564.57	60130.70
564.74	59875.58
564.90	60044.10
565.07	60086.23
565.23	60065.17
565.39	60039.42
565.56	60179.85
565.72	60271.14
565.88	60097.94
566.05	60196.24
566.21	60111.98
566.38	60109.64
566.54	60261.77
566.70	60229.01
566.87	60065.17
567.03	60090.91
567.19	60383.48
567.36	60182.19
567.52	60282.84
567.68	60425.61
567.85	60271.14
568.01	60254.75
568.17	60336.67
568.34	60259.43
568.50	60198.58
568.66	60037.08
568.83	60196.24
568.99	60076.87
569.15	60458.38
569.32	60378.80
569.48	60362.42
569.64	60437.31
569.81	60287.52
569.97	60184.54
570.13	60313.26
570.30	60074.53
570.46	60591.79
570.62	60371.78
570.78	60350.71
570.95	60226.66
571.11	60654.98
571.27	60463.06
571.43	60542.64
571.60	60547.32
571.76	60528.59
571.92	60406.89
572.09	60495.83
572.25	60523.91
572.41	60472.42
572.57	60317.95
572.74	60746.26
572.90	60399.86
573.06	60427.95
573.22	60605.83
573.38	60610.51
573.55	60392.84
573.71	60779.03
573.87	60701.79
574.03	60535.62
574.20	60498.17
574.36	60465.40
574.52	60678.39
574.68	60449.02
574.84	60645.62
575.01	60615.19
575.17	60734.56
575.33	60542.64
575.49	60432.63
575.65	60659.66
575.82	60631.58
575.98	60734.56
576.14	60795.42
576.30	60874.99
576.46	60858.61
576.62	60722.86
576.79	60514.55
576.95	60547.32
577.11	60446.68
577.27	60767.33
577.43	60584.77
577.59	60685.41
577.75	60530.93
577.92	60552.00
578.08	60631.58
578.24	60853.93
578.40	60832.86
578.56	60706.47
578.72	60989.68
578.88	60839.89
579.04	61132.45
579.21	60807.12
579.37	60790.73
579.53	60678.39
579.69	60825.84
579.85	60673.71
580.01	60764.99
580.17	60544.98
580.33	60795.42
580.49	60942.87
580.65	60942.87
580.82	60867.97
580.98	60933.51
581.14	60680.73
581.30	60872.65
581.46	60825.84
581.62	60959.25
581.78	60814.14
581.94	60849.25
582.10	60814.14
582.26	60636.26
582.42	60722.86
582.58	60851.59
582.74	60615.19
582.90	60729.88
583.06	60940.53
583.22	60931.17
583.38	60970.96
583.54	60807.12
583.70	60905.42
583.86	61020.11
584.02	60762.65
584.18	60992.02
584.34	60830.52
584.50	60793.07
584.66	60722.86
584.82	60903.08
584.98	61066.92
585.14	60996.70
585.30	60900.74
585.46	61109.05
585.62	60860.95
585.78	61029.47
585.94	60877.33
586.10	60994.36
586.26	61066.92
586.42	60893.72
586.58	61155.86
586.74	61064.58
586.90	60935.85
587.06	60945.21
587.22	61158.20
587.38	60851.59
587.54	61034.15
587.70	61055.21
587.86	60956.91
588.02	60867.97
588.18	61148.84
588.34	60987.34
588.49	61186.28
