SpectraSuite Data File
++++++++++++++++++++++++++++++++++++
Date: Fri Oct 25 10:44:02 EDT 2013
User: price-jones
Dark Spectrum Present: No
Reference Spectrum Present: No
Number of Sampled Component Spectra: 1
Spectrometers: USB2+H05261
Integration Time (usec): 100000 (USB2+H05261)
Spectra Averaged: 1 (USB2+H05261)
Boxcar Smoothing: 0 (USB2+H05261)
Correct for Electrical Dark: No (USB2+H05261)
Strobe/Lamp Enabled: No (USB2+H05261)
Correct for Detector Non-linearity: No (USB2+H05261)
Correct for Stray Light: No (USB2+H05261)
Number of Pixels in Processed Spectrum: 2048
>>>>>Begin Processed Spectral Data<<<<<
365.73	79.58
365.92	79.58
366.12	79.58
366.32	0.00
366.52	32.77
366.72	14.04
366.91	0.00
367.11	46.81
367.31	53.83
367.51	2.34
367.70	88.94
367.90	51.49
368.10	35.11
368.30	0.00
368.49	9.36
368.69	35.11
368.89	35.11
369.09	65.54
369.28	119.37
369.48	44.47
369.68	72.56
369.87	72.56
370.07	121.71
370.27	121.71
370.47	194.26
370.66	470.45
370.86	433.00
371.06	465.77
371.25	486.83
371.45	430.66
371.65	491.51
371.84	425.98
372.04	479.81
372.24	557.05
372.44	486.83
372.63	528.96
372.83	547.69
373.03	512.58
373.22	500.87
373.42	540.66
373.62	547.69
373.81	594.50
374.01	582.79
374.21	489.17
374.40	566.41
374.60	690.46
374.79	636.63
374.99	561.73
375.19	589.82
375.38	601.52
375.58	657.69
375.78	613.22
375.97	629.60
376.17	578.11
376.37	613.22
376.56	624.92
376.76	599.18
376.95	655.35
377.15	629.60
377.35	660.03
377.54	711.52
377.74	720.88
377.93	601.52
378.13	751.31
378.33	718.54
378.52	671.73
378.72	730.25
378.91	660.03
379.11	561.73
379.31	620.24
379.50	667.05
379.70	662.37
379.89	758.33
380.09	678.76
380.28	779.40
380.48	690.46
380.68	716.20
380.87	725.57
381.07	706.84
381.26	739.61
381.46	667.05
381.65	734.93
381.85	699.82
382.04	706.84
382.24	767.70
382.43	725.57
382.63	732.59
382.83	716.20
383.02	727.91
383.22	877.70
383.41	770.04
383.61	725.57
383.80	739.61
384.00	826.21
384.19	791.10
384.39	807.48
384.58	755.99
384.78	856.64
384.97	798.12
385.17	828.55
385.36	795.78
385.56	877.70
385.75	767.70
385.95	788.76
386.14	870.68
386.34	870.68
386.53	835.57
386.72	826.21
386.92	821.53
387.11	917.49
387.31	891.74
387.50	873.02
387.70	945.58
387.89	866.00
388.09	938.55
388.28	898.77
388.48	908.13
388.67	929.19
388.86	985.37
389.06	903.45
389.25	983.02
389.45	1039.20
389.64	994.73
389.84	1020.47
390.03	1055.58
390.22	1083.67
390.42	1050.90
390.61	987.71
390.81	1039.20
391.00	1130.48
391.19	1121.12
391.39	1046.22
391.58	1046.22
391.78	1135.16
391.97	1118.78
392.16	1081.33
392.36	1167.93
392.55	1153.88
392.75	1081.33
392.94	905.79
393.13	1036.86
393.33	999.41
393.52	1086.01
393.71	1142.18
393.91	1142.18
394.10	1181.97
394.29	1233.46
394.49	1277.93
394.68	1228.78
394.88	1163.25
395.07	1364.53
395.26	1306.02
395.46	1226.44
395.65	1306.02
395.84	1277.93
396.04	1277.93
396.23	1142.18
396.42	1200.69
396.62	1214.74
396.81	1207.72
397.00	1240.48
397.19	1252.19
397.39	1336.45
397.58	1399.64
397.77	1315.38
397.97	1453.47
398.16	1483.90
398.35	1472.20
398.55	1430.07
398.74	1614.97
398.93	1600.93
399.12	1551.78
399.32	1486.24
399.51	1544.75
399.70	1558.80
399.90	1558.80
400.09	1694.55
400.28	1645.40
400.47	1675.82
400.67	1706.25
400.86	1689.87
401.05	1764.76
401.24	1720.29
401.44	1792.85
401.63	1661.78
401.82	1792.85
402.01	1657.10
402.21	1839.66
402.40	1886.47
402.59	1888.81
402.78	1799.87
402.97	1860.73
403.17	1795.19
403.36	1891.15
403.55	1923.92
403.74	1980.09
403.93	2012.86
404.13	1888.81
404.32	1928.60
404.51	1942.64
404.70	2083.08
404.89	1956.69
405.09	2080.74
405.28	1984.77
405.47	1989.46
405.66	1966.05
405.85	2022.22
406.05	2073.71
406.24	2026.90
406.43	2153.29
406.62	2202.44
406.81	2176.70
407.00	2143.93
407.20	2106.48
407.39	2155.63
407.58	2239.89
407.77	2237.55
407.96	2392.03
408.15	2216.49
408.34	2324.15
408.54	2286.70
408.73	2389.69
408.92	2438.84
409.11	2422.45
409.30	2499.69
409.49	2275.00
409.68	2385.01
409.87	2368.62
410.07	2455.22
410.26	2492.67
410.45	2457.56
410.64	2558.21
410.83	2633.10
411.02	2495.01
411.21	2590.97
411.40	2698.64
411.59	2649.49
411.78	2813.32
411.98	2843.75
412.17	2764.17
412.36	2782.90
412.55	2818.00
412.74	2848.43
412.93	2825.03
413.12	2768.85
413.31	3056.74
413.50	3073.12
413.69	2895.24
413.88	2949.08
414.07	2981.84
414.26	3122.27
414.45	3035.67
414.64	3098.87
414.83	3110.57
415.02	3166.74
415.22	3061.42
415.41	3325.90
415.60	3246.32
415.79	3206.53
415.98	3475.70
416.17	3295.47
416.36	3328.24
416.55	3447.61
416.74	3403.14
416.93	3358.67
417.12	3449.95
417.31	3449.95
417.50	3478.04
417.69	3726.13
417.88	3555.27
418.07	3534.21
418.26	3569.32
418.45	3700.39
418.64	3786.99
418.83	3625.49
419.02	3662.94
419.21	3796.35
419.39	3665.28
419.58	3749.54
419.77	3705.07
419.96	3705.07
420.15	3782.31
420.34	3768.26
420.53	3854.86
420.72	3920.40
420.91	3908.69
421.10	3915.72
421.29	3999.98
421.48	3946.14
421.67	3974.23
421.86	4053.81
422.05	4009.34
422.24	3997.64
422.43	4014.02
422.61	3990.61
422.80	4032.74
422.99	4002.32
423.18	4212.96
423.37	4023.38
423.56	4086.58
423.75	4032.74
423.94	3962.53
424.13	3754.22
424.32	3943.80
424.50	4037.42
424.69	4121.68
424.88	4140.41
425.07	4140.41
425.26	3960.19
425.45	4072.53
425.64	3950.82
425.83	4007.00
426.01	4229.35
426.20	4212.96
426.39	4180.20
426.58	4086.58
426.77	4124.02
426.96	4189.56
427.15	4243.39
427.33	4198.92
427.52	4170.83
427.71	4227.01
427.90	4271.48
428.09	4306.59
428.28	4231.69
428.46	4271.48
428.65	4355.74
428.84	4400.21
429.03	4517.23
429.22	4269.14
429.40	4278.50
429.59	4269.14
429.78	4072.53
429.97	4028.06
430.16	4072.53
430.34	4091.26
430.53	4390.84
430.72	4344.03
430.91	4311.27
431.10	4430.63
431.28	4552.34
431.47	4681.07
431.66	4915.12
431.85	4655.33
432.03	4880.02
432.22	4795.76
432.41	4908.10
432.60	4926.83
432.79	4978.32
432.97	4980.66
433.16	4961.94
433.35	5039.17
433.54	4905.76
433.72	4877.68
433.91	4809.80
434.10	4929.17
434.28	4954.91
434.47	5067.26
434.66	5097.69
434.85	5172.58
435.03	5090.67
435.22	5137.48
435.41	5266.21
435.59	5418.34
435.78	5280.25
435.97	5397.28
436.16	5390.25
436.34	5277.91
436.53	5387.91
436.72	5509.62
436.90	5273.23
437.09	5284.93
437.28	5217.05
437.46	5270.89
437.65	5416.00
437.84	5305.99
438.02	5231.10
438.21	5451.11
438.40	5334.08
438.58	5591.54
438.77	5511.96
438.96	5561.11
439.14	5774.10
439.33	5860.70
439.52	5973.05
439.70	5863.04
439.89	5947.30
440.08	5982.41
440.26	5881.77
440.45	5998.79
440.63	6104.12
440.82	6155.61
441.01	6148.59
441.19	6274.98
441.38	6303.06
441.57	6223.48
441.75	6333.49
441.94	6466.90
442.12	6448.18
442.31	6614.35
442.50	6670.53
442.68	6548.82
442.87	6600.31
443.05	6455.20
443.24	6839.05
443.43	6691.59
443.61	6614.35
443.80	6834.36
443.98	6569.88
444.17	6553.50
444.35	6761.81
444.54	6785.21
444.73	6789.89
444.91	6792.23
445.10	6775.85
445.28	6752.45
445.47	6527.75
445.65	6607.33
445.84	6670.53
446.02	6862.45
446.21	6722.02
446.39	6885.86
446.58	6897.56
446.77	6909.26
446.95	6670.53
447.14	6925.65
447.32	6902.24
447.51	7016.93
447.69	6927.99
447.88	6867.13
448.06	7030.97
448.25	6822.66
448.43	7014.59
448.62	7019.27
448.80	7108.21
448.99	7070.76
449.17	7176.08
449.36	6897.56
449.54	7246.30
449.73	7372.69
449.91	7241.62
450.10	7370.35
450.28	7564.61
450.46	7468.65
450.65	7431.20
450.83	7445.24
451.02	7421.84
451.20	7426.52
451.39	7637.17
451.57	7522.48
451.76	7520.14
451.94	7524.82
452.13	7564.61
452.31	7396.09
452.49	7351.62
452.68	7449.93
452.86	7309.49
453.05	7440.56
453.23	7756.54
453.42	7337.58
453.60	7667.60
453.78	7808.03
453.97	7691.00
454.15	7662.91
454.34	7517.80
454.52	7772.92
454.70	7779.94
454.89	7786.96
455.07	7786.96
455.26	7786.96
455.44	7997.61
455.62	8084.21
455.81	8124.00
455.99	8072.51
456.17	8065.49
456.36	8004.63
456.54	8327.63
456.73	8236.35
456.91	8294.86
457.09	8297.20
457.28	8585.08
457.46	8313.58
457.64	8603.81
457.83	8301.88
458.01	8463.38
458.19	8528.91
458.38	8613.17
458.56	8344.01
458.74	8430.61
458.93	8458.70
459.11	8535.93
459.29	8613.17
459.48	8624.87
459.66	8587.43
459.84	8833.18
460.03	8807.44
460.21	8952.55
460.39	8812.12
460.57	8720.84
460.76	8950.21
460.94	8952.55
461.12	8947.87
461.31	8828.50
461.49	8741.90
461.67	9062.55
461.85	9116.39
462.04	8884.67
462.22	9500.23
462.40	9387.89
462.59	9256.82
462.77	9174.90
462.95	9338.74
463.13	9200.65
463.32	9097.66
463.50	9348.10
463.68	9415.98
463.86	9413.63
464.05	9165.54
464.23	9249.80
464.41	9479.17
464.59	9294.27
464.78	9502.58
464.96	9397.25
465.14	9322.35
465.32	9528.32
465.50	9582.15
465.69	9467.47
465.87	9497.89
466.05	9579.81
466.23	9289.59
466.41	9411.29
466.60	9722.59
466.78	9474.49
466.96	9591.52
467.14	9371.50
467.32	9511.94
467.51	9914.51
467.69	9514.28
467.87	9504.92
468.05	9841.95
468.23	9907.49
468.41	9900.47
468.60	10022.17
468.78	9769.40
468.96	9799.82
469.14	9984.73
469.32	10085.37
469.50	9820.89
469.69	10125.16
469.87	10129.84
470.05	10080.69
470.23	10071.33
470.41	10122.82
470.59	10319.42
470.77	10136.86
470.95	10335.81
471.14	10525.39
471.32	10228.14
471.50	10623.69
471.68	10574.54
471.86	10665.82
472.04	10583.90
472.22	10782.85
472.40	10609.65
472.58	10740.72
472.77	10654.12
472.95	10925.62
473.13	11262.66
473.31	11007.54
473.49	11007.54
473.67	11218.19
473.85	11021.58
474.03	11330.53
474.21	11403.09
474.39	11290.74
474.57	11349.26
474.75	11428.84
474.93	11655.87
475.12	11541.18
475.30	11683.95
475.48	11789.28
475.66	11665.23
475.84	11740.13
476.02	11709.70
476.20	11672.25
476.38	12049.08
476.56	12100.57
476.74	12215.26
476.92	12154.40
477.10	12140.36
477.28	12512.50
477.46	12243.34
477.64	12549.95
477.82	12802.73
478.00	13275.52
478.18	12767.62
478.36	12971.25
478.54	12919.76
478.72	13188.92
478.90	13305.95
479.08	13453.40
479.26	13668.73
479.44	13537.66
479.62	13650.00
479.80	13748.31
479.98	13855.97
480.16	14071.30
480.34	14253.86
480.52	13980.02
480.70	14394.29
480.88	13935.55
481.06	14455.15
481.24	14572.18
481.41	14902.19
481.59	14930.28
481.77	14951.34
481.95	14927.94
482.13	15033.26
482.31	14864.74
482.49	15428.81
482.67	15508.39
482.85	15335.19
483.03	15515.41
483.21	15854.79
483.39	15978.84
483.57	15775.21
483.74	16226.93
483.92	15985.86
484.10	15833.72
484.28	16168.42
484.46	16858.88
484.64	16835.47
484.82	16739.51
485.00	16781.64
485.18	16793.34
485.35	17195.92
485.53	16468.01
485.71	16521.84
485.89	16875.26
486.07	17046.12
486.25	17111.66
486.43	17411.25
486.61	17329.33
486.78	17568.06
486.96	17724.88
487.14	18008.08
487.32	18099.36
487.50	18541.72
487.68	18864.72
487.85	18623.64
488.03	19253.25
488.21	19351.55
488.39	19161.97
488.57	18991.11
488.75	19449.85
488.92	19475.60
489.10	19927.32
489.28	20095.84
489.46	20180.10
489.64	20292.44
489.81	20863.54
489.99	20926.73
490.17	21081.21
490.35	20978.22
490.53	20774.60
490.70	21252.06
490.88	21205.25
491.06	21376.11
491.24	21097.59
491.41	21397.18
491.59	21518.89
491.77	21561.02
491.95	21853.58
492.13	22150.83
492.30	22265.52
492.48	22525.32
492.66	22335.73
492.84	22431.69
493.01	22904.48
493.19	22721.92
493.37	22948.95
493.54	22930.23
493.72	23098.75
493.90	23431.10
494.08	23517.70
494.25	23803.25
494.43	23658.14
494.61	24128.58
494.79	24325.19
494.96	23850.06
495.14	24088.79
495.32	24500.73
495.49	24456.26
495.67	24650.52
495.85	24723.08
496.02	24819.04
496.20	25518.86
496.38	25111.61
496.55	25263.74
496.73	25832.49
496.91	25876.96
497.09	26040.80
497.26	25638.23
497.44	25642.91
497.62	26073.57
497.79	26153.15
497.97	25673.34
498.14	26188.25
498.32	26216.34
498.50	26670.40
498.67	26855.31
498.85	26834.24
499.03	27068.30
499.20	27171.28
499.38	27285.97
499.56	27342.14
499.73	27452.14
499.91	27482.57
500.08	27428.74
500.26	27545.76
500.44	27309.37
500.61	27564.49
500.79	27606.62
500.97	27679.18
501.14	27967.06
501.32	27728.33
501.49	27960.04
501.67	27873.44
501.84	28147.28
502.02	28362.61
502.20	28886.89
502.37	28842.42
502.55	28685.61
502.72	29172.44
502.90	28617.73
503.07	28889.23
503.25	28868.17
503.43	28809.65
503.60	29027.32
503.78	28940.72
503.95	28966.47
504.13	29167.76
504.30	29441.60
504.48	29551.60
504.65	29748.21
504.83	29909.71
505.01	29888.64
505.18	30071.20
505.36	30134.40
505.53	30422.28
505.71	30665.70
505.88	30462.07
506.06	30232.70
506.23	30279.51
506.41	30597.82
506.58	30827.20
506.76	30845.92
506.93	30785.07
507.11	31000.40
507.28	30532.29
507.46	30888.05
507.63	30565.06
507.81	30871.67
507.98	30815.49
508.16	31318.71
508.33	31421.69
508.50	31445.10
508.68	31796.18
508.85	32116.83
509.03	31693.19
509.20	31964.70
509.38	31920.23
509.55	32177.68
509.73	32233.86
509.90	32266.63
510.08	32177.68
510.25	32151.94
510.42	32620.05
510.60	32453.87
510.77	32987.51
510.95	33120.92
511.12	32664.52
511.30	33081.13
511.47	33362.00
511.64	33284.76
511.82	33450.94
511.99	32844.74
512.17	33497.75
512.34	32978.15
512.51	33219.22
512.69	33851.17
512.86	33666.27
513.04	33420.51
513.21	33977.56
513.38	33647.54
513.56	33968.19
513.73	33741.16
513.90	33900.32
514.08	33652.22
514.25	33769.25
514.43	34148.42
514.60	33935.43
514.77	34204.59
514.95	34766.32
515.12	34408.22
515.29	34457.37
515.47	35178.25
515.64	34822.49
515.81	34768.66
515.99	34412.90
516.16	34139.05
516.33	34232.68
516.51	34684.40
516.68	34305.23
516.85	33933.09
517.03	34253.74
517.20	34871.64
517.37	35306.98
517.54	35276.55
517.72	35192.30
517.89	34878.66
518.06	34913.77
518.24	34759.30
518.41	35072.93
518.58	35433.37
518.75	35655.72
518.93	35945.95
519.10	35761.05
519.27	35634.66
519.45	35810.20
519.62	36060.63
519.79	36479.59
519.96	36060.63
520.14	36357.88
520.31	36147.23
520.48	36374.27
520.65	36341.50
520.83	36884.50
521.00	36811.95
521.17	36795.56
521.34	36779.18
521.52	36875.14
521.69	36968.76
521.86	37181.75
522.03	37191.11
522.20	37083.45
522.38	37242.60
522.55	37469.64
522.72	37280.05
522.89	37418.14
523.07	37549.21
523.24	37158.34
523.41	37764.54
523.58	37715.39
523.75	38342.66
523.92	38391.81
524.10	38244.35
524.27	38106.26
524.44	38597.77
524.61	38174.14
524.78	38082.86
524.96	38707.78
525.13	38251.38
525.30	38651.61
525.47	38988.64
525.64	38539.26
525.81	38375.42
525.98	38288.82
526.16	38291.16
526.33	37827.74
526.50	38515.86
526.67	38192.86
526.84	38082.86
527.01	38169.46
527.18	38576.71
527.36	38810.76
527.53	39505.90
527.70	39763.36
527.87	39058.86
528.04	38995.67
528.21	39725.91
528.38	39824.22
528.55	39962.31
528.72	39606.55
528.89	39859.32
529.07	39826.56
529.24	39864.00
529.41	39562.08
529.58	39702.51
529.75	39473.13
529.92	39587.82
530.09	40046.57
530.26	40112.10
530.43	40451.48
530.60	39924.86
530.77	40226.79
530.94	40704.26
531.11	39856.98
531.28	40304.02
531.46	40109.76
531.63	40657.45
531.80	40100.40
531.97	40282.96
532.14	40364.88
532.31	39779.74
532.48	40479.57
532.65	39700.17
532.82	40844.69
532.99	40921.93
533.16	40568.51
533.33	40952.35
533.50	40746.39
533.67	40903.20
533.84	40690.21
534.01	40931.29
534.18	41027.25
534.35	41155.98
534.52	41558.55
534.69	41516.42
534.86	41516.42
535.03	41296.41
535.20	41972.83
535.37	42188.16
535.54	41846.44
535.71	41151.30
535.88	41734.09
536.05	41511.74
536.22	42085.17
536.38	41708.35
536.55	41490.68
536.72	41701.32
536.89	41549.19
537.06	41881.55
537.23	41937.72
537.40	42206.88
537.57	42197.52
537.74	42052.41
537.91	42462.00
538.08	42017.30
538.25	41942.40
538.42	42230.29
538.59	42361.36
538.75	41755.16
538.92	41958.78
539.09	42398.80
539.26	42562.64
539.43	42447.96
539.60	41942.40
539.77	42131.98
539.94	42197.52
540.11	41914.31
540.28	42038.36
540.44	42323.91
540.61	41984.53
540.78	42361.36
540.95	41986.87
541.12	42749.88
541.29	42462.00
541.46	42464.34
541.62	42742.86
541.79	42808.40
541.96	42174.11
542.13	42309.86
542.30	43068.20
542.47	43330.34
542.63	43159.48
542.80	43058.84
542.97	43311.61
543.14	43445.02
543.31	43285.87
543.48	43676.74
543.64	43854.62
543.81	43753.97
543.98	43515.24
544.15	43686.10
544.32	43849.94
544.48	44079.31
544.65	43519.92
544.82	43777.38
544.99	43650.99
545.16	43370.13
545.32	43379.49
545.49	44423.37
545.66	44158.89
545.83	44023.14
546.00	44170.59
546.16	44123.78
546.33	44093.35
546.50	44114.42
546.67	44327.41
546.83	43800.79
547.00	43903.77
547.17	44109.74
547.34	43957.60
547.50	43798.44
547.67	44430.39
547.84	44280.60
548.00	44837.64
548.17	44535.71
548.34	44556.78
548.51	44861.05
548.67	44942.97
548.84	44556.78
549.01	44701.89
549.18	44224.42
549.34	44643.38
549.51	45134.89
549.68	45399.37
549.84	44566.14
550.01	45270.64
550.18	45064.67
550.34	44795.51
550.51	44982.76
550.68	44772.11
550.84	44673.81
551.01	45214.47
551.18	44680.83
551.34	45371.28
551.51	45151.27
551.68	45067.02
551.84	45162.98
552.01	45294.05
552.18	45127.87
552.34	44968.71
552.51	45364.26
552.68	45034.25
552.84	45450.86
553.01	45474.27
553.18	45240.21
553.34	45500.01
553.51	45305.75
553.67	45095.10
553.84	45478.95
554.01	45457.88
554.17	45441.50
554.34	45708.32
554.51	45717.68
554.67	45488.31
554.84	45694.28
555.00	45404.05
555.17	45200.43
555.33	45481.29
555.50	45654.49
555.67	45698.96
555.83	45783.22
556.00	45804.28
556.16	45904.93
556.33	45535.12
556.50	45584.27
556.66	46183.45
556.83	45200.43
556.99	45588.95
557.16	46089.83
557.32	45804.28
557.49	46155.36
557.65	45738.75
557.82	45727.05
557.98	46124.94
558.15	45951.74
558.32	46246.65
558.48	45830.03
558.65	45432.14
558.81	45734.07
558.98	45832.37
559.14	45689.60
559.31	45762.15
559.47	46349.63
559.64	45769.18
559.80	46099.19
559.97	45933.01
560.13	45874.50
560.30	46286.43
560.46	45914.29
560.63	46181.11
560.79	46171.75
560.96	46461.97
561.12	45916.63
561.29	46148.34
561.45	46038.34
561.61	46099.19
561.78	46248.99
561.94	45904.93
562.11	46190.47
562.27	45818.33
562.44	46007.91
562.60	46436.23
562.77	46609.43
562.93	46148.34
563.10	46604.75
563.26	46483.04
563.42	46513.47
563.59	46120.26
563.75	46454.95
563.92	46422.19
564.08	46499.42
564.24	46803.69
564.41	46375.37
564.57	46588.36
564.74	46157.70
564.90	46267.71
565.07	46447.93
565.23	46553.26
565.39	46527.51
565.56	46532.19
565.72	46073.45
565.88	46511.13
566.05	46328.56
566.21	46302.82
566.38	46190.47
566.54	46106.21
566.70	46997.96
566.87	47049.45
567.03	46859.87
567.19	46733.48
567.36	46965.19
567.52	46810.71
567.68	46979.23
567.85	46529.85
568.01	47171.16
568.17	46799.01
568.34	46295.80
568.50	46550.91
568.66	46824.76
568.83	46593.04
568.99	46396.44
569.15	46426.87
569.32	45965.78
569.48	46101.53
569.64	46850.50
569.81	46597.73
569.97	46466.66
570.13	46401.12
570.30	46450.27
570.46	46445.59
570.62	46040.68
570.78	46600.07
570.95	46581.34
571.11	46391.76
571.27	46504.10
571.43	46490.06
571.60	46635.17
571.76	46731.14
571.92	46677.30
572.09	46389.42
572.25	46887.95
572.41	46586.02
572.57	47129.03
572.74	47224.99
572.90	46916.04
573.06	46941.78
573.22	46656.24
573.38	46600.07
573.55	46478.36
573.71	47014.34
573.87	47154.77
574.03	46728.80
574.20	46885.61
574.36	46550.91
574.52	46761.56
574.68	46775.61
574.84	46789.65
575.01	46614.11
575.17	46609.43
575.33	46614.11
575.49	46525.17
575.65	46974.55
575.82	46803.69
575.98	46485.38
576.14	47119.66
576.30	47054.13
576.46	46639.86
576.62	46476.02
576.79	46932.42
576.95	46216.22
577.11	47110.30
577.27	47030.72
577.43	46712.41
577.59	46550.91
577.75	46651.56
577.92	46195.15
578.08	46433.89
578.24	46387.08
578.40	46485.38
578.56	46822.42
578.72	46681.98
578.88	47016.68
579.04	46974.55
579.21	46667.94
579.37	47063.49
579.53	46890.29
579.69	46696.03
579.85	46824.76
580.01	46822.42
580.17	46630.49
580.33	46955.83
580.49	47009.66
580.65	46883.27
580.82	47140.73
580.98	46628.15
581.14	46829.44
581.30	46820.08
581.46	46930.08
581.62	46808.37
581.78	46780.29
581.94	47508.19
582.10	46632.83
582.26	47512.88
582.42	46791.99
582.58	46705.39
582.74	46609.43
582.90	47002.64
583.06	47327.97
583.22	46986.25
583.38	46983.91
583.54	47428.62
583.70	47014.34
583.86	46988.60
584.02	47147.75
584.18	47154.77
584.34	46873.91
584.50	46918.38
584.66	46967.53
584.82	47047.11
584.98	46941.78
585.14	46990.94
585.30	46600.07
585.46	46876.25
585.62	46932.42
585.78	46934.76
585.94	46358.99
586.10	46567.30
586.26	46616.45
586.42	47325.63
586.58	47302.23
586.74	47047.11
586.90	46920.72
587.06	46834.12
587.22	46920.72
587.38	46759.22
587.54	47196.90
587.70	47217.97
587.86	46988.60
588.02	46869.23
588.18	47124.35
588.34	46541.55
588.49	46527.51
588.65	46213.88
588.81	46361.33
588.97	46684.33
589.13	46733.48
589.29	46602.41
589.45	46906.68
589.61	46787.31
589.77	46841.14
589.93	46747.52
