SpectraSuite Data File
++++++++++++++++++++++++++++++++++++
Date: Fri Oct 25 11:23:18 EDT 2013
User: price-jones
Dark Spectrum Present: No
Reference Spectrum Present: No
Number of Sampled Component Spectra: 1
Spectrometers: USB2+H05261
Integration Time (usec): 100000 (USB2+H05261)
Spectra Averaged: 1 (USB2+H05261)
Boxcar Smoothing: 0 (USB2+H05261)
Correct for Electrical Dark: No (USB2+H05261)
Strobe/Lamp Enabled: No (USB2+H05261)
Correct for Detector Non-linearity: No (USB2+H05261)
Correct for Stray Light: No (USB2+H05261)
Number of Pixels in Processed Spectrum: 2048
>>>>>Begin Processed Spectral Data<<<<<
365.73	308.95
365.92	308.95
366.12	308.95
366.32	161.50
366.52	131.07
366.72	121.71
366.91	156.82
367.11	102.98
367.31	166.18
367.51	112.35
367.70	72.56
367.90	88.94
368.10	145.11
368.30	182.56
368.49	98.30
368.69	138.09
368.89	88.94
369.09	140.43
369.28	138.09
369.48	149.79
369.68	180.22
369.87	187.24
370.07	168.52
370.27	149.79
370.47	299.59
370.66	578.11
370.86	599.18
371.06	627.26
371.25	737.27
371.45	650.67
371.65	697.48
371.84	699.82
372.04	653.01
372.24	760.67
372.44	692.80
372.63	737.27
372.83	727.91
373.03	730.25
373.22	741.95
373.42	807.48
373.62	744.29
373.81	781.74
374.01	798.12
374.21	786.42
374.40	877.70
374.60	833.23
374.79	793.44
374.99	760.67
375.19	840.25
375.38	844.93
375.58	851.96
375.78	875.36
375.97	837.91
376.17	882.38
376.37	929.19
376.56	844.93
376.76	828.55
376.95	926.85
377.15	896.43
377.35	971.32
377.54	828.55
377.74	908.13
377.93	929.19
378.13	922.17
378.33	931.53
378.52	945.58
378.72	933.87
378.91	999.41
379.11	1008.77
379.31	926.85
379.50	903.45
379.70	968.98
379.89	894.08
380.09	919.83
380.28	985.37
380.48	1036.86
380.68	933.87
380.87	1001.75
381.07	985.37
381.26	1001.75
381.46	940.90
381.65	1062.60
381.85	1083.67
382.04	985.37
382.24	997.07
382.43	1029.84
382.63	1111.75
382.83	1093.03
383.02	1097.71
383.22	1086.01
383.41	1046.22
383.61	1137.50
383.80	1142.18
384.00	1163.25
384.19	1086.01
384.39	1095.37
384.58	1060.26
384.78	1107.07
384.97	1165.59
385.17	1184.31
385.36	1186.65
385.56	1146.86
385.75	1242.82
385.95	1149.20
386.14	1160.91
386.34	1144.52
386.53	1238.14
386.72	1287.29
386.92	1259.21
387.11	1277.93
387.31	1231.12
387.50	1287.29
387.70	1228.78
387.89	1207.72
388.09	1245.16
388.28	1303.68
388.48	1308.36
388.67	1390.28
388.86	1409.00
389.06	1252.19
389.25	1394.96
389.45	1329.42
389.64	1336.45
389.84	1359.85
390.03	1401.98
390.22	1458.15
390.42	1359.85
390.61	1399.64
390.81	1350.49
391.00	1460.49
391.19	1397.30
391.39	1301.34
391.58	1591.56
391.78	1406.66
391.97	1474.54
392.16	1504.96
392.36	1511.99
392.55	1502.62
392.75	1486.24
392.94	1547.09
393.13	1533.05
393.33	1544.75
393.52	1497.94
393.71	1502.62
393.91	1596.25
394.10	1521.35
394.29	1621.99
394.49	1577.52
394.68	1614.97
394.88	1558.80
395.07	1654.76
395.26	1636.03
395.46	1732.00
395.65	1736.68
395.84	1820.94
396.04	1837.32
396.23	1778.81
396.42	1673.48
396.62	1842.00
396.81	1813.92
397.00	1795.19
397.19	1755.40
397.39	1762.42
397.58	1736.68
397.77	1760.08
397.97	1912.22
398.16	1909.88
398.35	1902.86
398.55	1942.64
398.74	1928.60
398.93	1902.86
399.12	1863.07
399.32	1886.47
399.51	1987.11
399.70	2141.59
399.90	1947.33
400.09	2043.29
400.28	2043.29
400.47	2167.34
400.67	2129.89
400.86	2111.16
401.05	2043.29
401.24	1963.71
401.44	2186.06
401.63	2228.19
401.82	2150.95
402.01	2174.36
402.21	2134.57
402.40	2115.84
402.59	2143.93
402.78	2282.02
402.97	2277.34
403.17	2291.38
403.36	2293.72
403.55	2251.60
403.74	2380.32
403.93	2230.53
404.13	2415.43
404.32	2410.75
404.51	2382.67
404.70	2513.74
404.89	2324.15
405.09	2495.01
405.28	2438.84
405.47	2586.29
405.66	2480.97
405.85	2560.55
406.05	2583.95
406.24	2574.59
406.43	2588.63
406.62	2593.31
406.81	2630.76
407.00	2593.31
407.20	2574.59
407.39	2663.53
407.58	2703.32
407.77	2717.36
407.96	2834.39
408.15	2712.68
408.34	2726.72
408.54	2810.98
408.73	2953.76
408.92	2658.85
409.11	2869.50
409.30	3030.99
409.49	2972.48
409.68	3014.61
409.87	2979.50
410.07	2960.78
410.26	3066.10
410.45	3141.00
410.64	3094.19
410.83	3129.30
411.02	3166.74
411.21	3197.17
411.40	3213.56
411.59	3243.98
411.78	3283.77
411.98	3234.62
412.17	3332.92
412.36	3304.84
412.55	3353.99
412.74	3417.18
412.93	3463.99
413.12	3419.52
413.31	3555.27
413.50	3581.02
413.69	3581.02
413.88	3623.15
414.07	3637.19
414.26	3721.45
414.45	3688.68
414.64	3662.94
414.83	3772.94
415.02	3765.92
415.22	3913.38
415.41	3918.06
415.60	3943.80
415.79	4018.70
415.98	4051.47
416.17	4046.79
416.36	3904.01
416.55	4051.47
416.74	3971.89
416.93	4161.47
417.12	4117.00
417.31	4173.18
417.50	4222.33
417.69	4315.95
417.88	4332.33
418.07	4351.06
418.26	4287.86
418.45	4421.27
418.64	4514.89
418.83	4468.08
419.02	4484.47
419.21	4580.43
419.39	4547.66
419.58	4535.96
419.77	4587.45
419.96	4643.62
420.15	4685.75
420.34	4681.07
420.53	4596.81
420.72	4660.01
420.91	4650.64
421.10	4660.01
421.29	4819.16
421.48	4704.48
421.67	4662.35
421.86	4863.63
422.05	4844.91
422.24	4807.46
422.43	4830.87
422.61	4952.57
422.80	5144.50
422.99	4908.10
423.18	5153.86
423.37	5097.69
423.56	4919.81
423.75	5006.41
423.94	4833.21
424.13	4716.18
424.32	4732.56
424.50	5015.77
424.69	4978.32
424.88	5165.56
425.07	4983.00
425.26	4973.64
425.45	4959.60
425.64	5085.98
425.83	4990.02
426.01	5015.77
426.20	5078.96
426.39	5172.58
426.58	5116.41
426.77	4997.04
426.96	5085.98
427.15	5294.29
427.33	5093.01
427.52	5167.90
427.71	5203.01
427.90	5305.99
428.09	5467.49
428.28	5542.39
428.46	5472.17
428.65	5303.65
428.84	5621.97
429.03	5568.13
429.22	5591.54
429.40	5460.47
429.59	5682.82
429.78	5462.81
429.97	5228.76
430.16	5671.12
430.34	5767.08
430.53	5572.82
430.72	5699.20
430.91	5699.20
431.10	5729.63
431.28	5813.89
431.47	5727.29
431.66	5935.60
431.85	5832.62
432.03	5893.47
432.22	5994.11
432.41	5867.72
432.60	5973.05
432.79	5987.09
432.97	6071.35
433.16	6104.12
433.35	6078.37
433.54	6366.26
433.72	6258.59
433.91	6324.13
434.10	6298.38
434.28	6260.93
434.47	6237.53
434.66	6136.88
434.85	6298.38
435.03	6328.81
435.22	6314.77
435.41	6644.78
435.59	6483.28
435.78	6420.09
435.97	6597.97
436.16	6644.78
436.34	6569.88
436.53	6609.67
436.72	6782.87
436.90	6466.90
437.09	6558.18
437.28	6476.26
437.46	6808.62
437.65	6731.38
437.84	6832.02
438.02	6719.68
438.21	6799.26
438.40	6766.49
438.58	7082.46
438.77	7052.03
438.96	7094.16
439.14	7211.19
439.33	7056.72
439.52	7290.77
439.70	7356.30
439.89	7421.84
440.08	7590.36
440.26	7412.48
440.45	7503.76
440.63	7648.87
440.82	7812.71
441.01	7611.42
441.19	7611.42
441.38	7602.06
441.57	7782.28
441.75	7815.05
441.94	7974.21
442.12	8100.59
442.31	8112.30
442.50	8107.62
442.68	8084.21
442.87	8060.80
443.05	8334.65
443.24	8336.99
443.43	8243.37
443.61	8374.44
443.80	8650.62
443.98	8189.53
444.17	8030.38
444.35	8374.44
444.54	8482.10
444.73	8299.54
444.91	8313.58
445.10	8397.84
445.28	8344.01
445.47	8273.79
445.65	8252.73
445.84	8580.40
446.02	8601.47
446.21	8514.87
446.39	8472.74
446.58	8720.84
446.77	8423.59
446.95	8510.19
447.14	8430.61
447.32	8484.44
447.51	8727.86
447.69	8557.00
447.88	8498.49
448.06	8671.68
448.25	8521.89
448.43	8688.07
448.62	8533.59
448.80	8641.26
448.99	8683.39
449.17	8894.04
449.36	8959.57
449.54	8971.27
449.73	8973.61
449.91	9076.60
450.10	8889.35
450.28	9104.68
450.46	9085.96
450.65	9198.31
450.83	9006.38
451.02	9210.01
451.20	9320.01
451.39	9008.72
451.57	9245.12
451.76	9261.50
451.94	9359.80
452.13	9364.48
452.31	9385.55
452.49	9334.06
452.68	9378.53
452.86	9460.45
453.05	9462.79
453.23	9680.46
453.42	9448.74
453.60	9523.64
453.78	9481.51
453.97	9591.52
454.15	9582.15
454.34	9593.86
454.52	10019.83
454.70	9806.84
454.89	9757.69
455.07	9820.89
455.26	9961.32
455.44	9987.07
455.62	9994.09
455.81	10066.64
455.99	10097.07
456.17	10045.58
456.36	10162.61
456.54	10335.81
456.73	10127.50
456.91	10464.54
457.09	10427.09
457.28	10410.70
457.46	10417.72
457.64	10785.19
457.83	10382.62
458.01	10668.16
458.19	10876.47
458.38	10452.83
458.56	10640.08
458.74	10700.93
458.93	10778.17
459.11	10745.40
459.29	10810.93
459.48	10803.91
459.66	10920.94
459.84	11066.05
460.03	11157.33
460.21	11367.98
460.39	11213.51
460.57	11201.80
460.76	11096.48
460.94	11183.08
461.12	11377.34
461.31	11255.64
461.49	11180.74
461.67	11377.34
461.85	11466.28
462.04	11293.08
462.22	11681.61
462.40	11707.36
462.59	11630.12
462.77	11777.58
462.95	11819.71
463.13	11726.08
463.32	11693.32
463.50	12023.33
463.68	12044.40
463.86	11889.92
464.05	11461.60
464.23	11812.68
464.41	12098.23
464.59	11871.20
464.78	12123.98
464.96	12081.85
465.14	12147.38
465.32	12255.04
465.50	12498.46
465.69	12152.06
465.87	12353.35
466.05	12126.32
466.23	12358.03
466.41	12369.73
466.60	12645.91
466.78	12257.39
466.96	12470.37
467.14	12549.95
467.32	12585.06
467.51	12657.62
467.69	12201.21
467.87	12624.85
468.05	12732.51
468.23	12402.50
468.41	12741.88
468.60	12751.24
468.78	13043.81
468.96	12547.61
469.14	12784.01
469.32	12950.18
469.50	12807.41
469.69	13224.03
469.87	13327.01
470.05	13294.24
470.23	13226.37
470.41	13228.71
470.59	13217.01
470.77	13256.79
470.95	13331.69
471.14	13748.31
471.32	13303.60
471.50	13666.39
471.68	13720.22
471.86	13961.30
472.04	13774.05
472.22	14443.45
472.40	14106.41
472.58	13937.89
472.77	14120.45
472.95	14363.87
473.13	14750.06
473.31	14162.58
473.49	14305.35
473.67	14579.20
473.85	14228.12
474.03	14815.59
474.21	14668.14
474.39	14972.41
474.57	14878.79
474.75	14939.64
474.93	15159.65
475.12	15073.05
475.30	15389.02
475.48	14993.47
475.66	15272.00
475.84	15393.70
476.02	15564.56
476.20	15646.48
476.38	15833.72
476.56	16135.65
476.74	16224.59
476.92	15866.49
477.10	15803.30
477.28	16416.52
477.46	16383.75
477.64	16615.46
477.82	16678.66
478.00	17242.73
478.18	16994.63
478.36	17092.93
478.54	17212.30
478.72	16931.44
478.90	17767.01
479.08	17727.22
479.26	17671.04
479.44	17621.89
479.62	17919.14
479.80	18005.74
479.98	18539.38
480.16	18752.37
480.34	18473.85
480.52	18888.12
480.70	18738.33
480.88	18644.71
481.06	19040.26
481.24	18963.02
481.41	19309.42
481.59	19779.87
481.77	19711.99
481.95	19459.21
482.13	20030.30
482.31	19833.70
482.49	20367.34
482.67	20486.71
482.85	20341.60
483.03	20849.49
483.21	20999.29
483.39	21256.75
483.57	21191.21
483.74	21387.82
483.92	21488.46
484.10	21675.70
484.28	22038.48
484.46	22546.38
484.64	22611.92
484.82	22270.20
485.00	22752.35
485.18	22892.78
485.35	23288.33
485.53	23096.41
485.71	23239.18
485.89	23828.99
486.07	23693.24
486.25	23498.98
486.43	24013.90
486.61	23995.17
486.78	24252.63
486.96	24381.36
487.14	24973.52
487.32	24968.84
487.50	25235.66
487.68	24973.52
487.85	25535.24
488.03	25886.32
488.21	25844.20
488.39	26071.23
488.57	26352.09
488.75	26546.36
488.92	26665.72
489.10	26969.99
489.28	26689.13
489.46	27632.36
489.64	27094.04
489.81	28175.37
489.99	28268.99
490.17	28158.99
490.35	28313.46
490.53	28442.19
490.70	29013.28
490.88	28830.72
491.06	29048.39
491.24	29165.42
491.41	29773.95
491.59	29926.09
491.77	29603.10
491.95	29993.97
492.13	30256.11
492.30	30785.07
492.48	30331.00
492.66	30504.20
492.84	30953.58
493.01	30855.28
493.19	30979.33
493.37	31079.97
493.54	31253.17
493.72	31789.16
493.90	31653.40
494.08	32245.56
494.25	32374.29
494.43	32559.19
494.61	32488.98
494.79	32861.12
494.96	33069.43
495.14	33291.78
495.32	33663.93
495.49	33816.06
495.67	33811.38
495.85	33362.00
496.02	34061.82
496.20	34483.11
496.38	34103.95
496.55	34567.37
496.73	35721.26
496.91	34515.88
497.09	35489.54
497.26	35145.48
497.44	35370.18
497.62	35536.35
497.79	35997.44
497.97	35786.79
498.14	36231.49
498.32	36554.49
498.50	36636.41
498.67	37027.28
498.85	36669.17
499.03	37331.54
499.20	37195.79
499.38	37521.13
499.56	37656.88
499.73	37631.13
499.91	37689.65
500.08	38181.16
500.26	37734.12
500.44	38202.22
500.61	38433.94
500.79	38141.37
500.97	38714.80
501.14	39019.07
501.32	38864.60
501.49	39311.64
501.67	39138.44
501.84	39419.30
502.02	39487.18
502.20	39826.56
502.37	39454.41
502.55	39810.17
502.72	39768.04
502.90	40158.91
503.07	39672.08
503.25	40112.10
503.43	40151.89
503.60	40481.91
503.78	40634.04
503.95	41088.10
504.13	40694.89
504.30	40835.33
504.48	40744.05
504.65	41493.02
504.83	41661.54
505.01	41518.76
505.18	41879.21
505.36	41741.11
505.53	41605.36
505.71	41998.57
505.88	42319.23
506.06	42054.75
506.23	42274.76
506.41	42370.72
506.58	42953.51
506.76	42483.06
506.93	42728.82
507.11	42660.94
507.28	43091.60
507.46	43185.22
507.63	43512.90
507.81	43758.66
507.98	43068.20
508.16	43573.75
508.33	43538.65
508.50	43674.40
508.68	43859.30
508.85	44512.31
509.03	44158.89
509.20	44285.28
509.38	44694.87
509.55	44704.23
509.73	45165.32
509.90	45113.83
510.08	45141.91
510.25	44903.18
510.42	44816.58
510.60	45565.55
510.77	45511.72
510.95	45778.54
511.12	45511.72
511.30	45872.16
511.47	46246.65
511.64	45804.28
511.82	45890.88
511.99	45965.78
512.17	46672.62
512.34	46007.91
512.51	46714.75
512.69	46522.83
512.86	46796.67
513.04	46976.89
513.21	47105.62
513.38	47304.57
513.56	47611.18
513.73	47126.69
513.90	47461.38
514.08	47145.41
514.25	47447.34
514.43	48032.47
514.60	48140.14
514.77	47576.07
514.95	47861.61
515.12	47515.22
515.29	48041.84
515.47	48612.93
515.64	48690.16
515.81	48531.01
515.99	48870.39
516.16	48879.75
516.33	48580.16
516.51	48917.20
516.68	49104.44
516.85	48917.20
517.03	49151.25
517.20	49624.04
517.37	49109.12
517.54	49443.82
517.72	49244.87
517.89	49507.01
518.06	49366.58
518.24	49184.02
518.41	49485.95
518.58	50057.04
518.75	50047.68
518.93	50024.27
519.10	50040.65
519.27	50080.44
519.45	50075.76
519.62	50110.87
519.79	50611.74
519.96	50351.94
520.14	50431.52
520.31	50665.58
520.48	50813.03
520.65	50639.83
520.83	51063.47
521.00	51292.84
521.17	50614.08
521.34	50869.20
521.52	51304.54
521.69	51021.34
521.86	51318.59
522.03	51421.57
522.20	51629.88
522.38	52383.53
522.55	51861.59
522.72	51679.03
522.89	51554.98
523.07	52158.84
523.24	51753.93
523.41	52278.21
523.58	51723.50
523.75	52140.11
523.92	51688.39
524.10	52608.22
524.27	52673.76
524.44	52554.39
524.61	52289.91
524.78	52528.64
524.96	52491.19
525.13	52650.35
525.30	52680.78
525.47	53059.94
525.64	52629.29
525.81	52889.09
525.98	53237.83
526.16	53116.12
526.33	53024.84
526.50	53572.52
526.67	52924.19
526.84	53495.28
527.01	53347.83
527.18	53226.12
527.36	53162.93
527.53	53464.86
527.70	53518.69
527.87	53464.86
528.04	53675.51
528.21	53752.74
528.38	53546.78
528.55	54012.54
528.72	53975.09
528.89	54150.63
529.07	54033.61
529.24	53673.16
529.41	54122.55
529.58	53895.52
529.75	54021.90
529.92	54129.57
530.09	53846.36
530.26	54216.17
530.43	54316.81
530.60	54082.76
530.77	54150.63
530.94	54426.82
531.11	54239.57
531.28	54401.07
531.46	54625.76
531.63	54553.21
531.80	54408.09
531.97	54614.06
532.14	54859.82
532.31	54513.42
532.48	54766.20
532.65	55056.42
532.82	54904.29
532.99	54904.29
533.16	54815.35
533.33	55210.90
533.50	55196.85
533.67	55103.23
533.84	54773.22
534.01	55098.55
534.18	55100.89
534.35	55552.62
534.52	55196.85
534.69	55569.00
534.86	55669.64
535.03	55318.56
535.20	55707.09
535.37	55721.13
535.54	55835.82
535.71	55554.96
535.88	55969.23
536.05	55716.45
536.22	55854.54
536.38	55707.09
536.55	56123.71
536.72	55983.27
536.89	55950.51
537.06	55880.29
537.23	55964.55
537.40	55842.84
537.57	56191.58
537.74	56053.49
537.91	56212.65
538.08	56137.75
538.25	56076.90
538.42	56336.69
538.59	56617.56
538.75	56168.18
538.92	56217.33
539.09	56413.93
539.26	56512.23
539.43	56430.32
539.60	56519.26
539.77	56685.43
539.94	56708.84
540.11	56720.54
540.28	56647.99
540.44	56685.43
540.61	56697.14
540.78	56739.27
540.95	56624.58
541.12	56500.53
541.29	56889.06
541.46	56704.16
541.62	56802.46
541.79	57125.46
541.96	56624.58
542.13	56830.55
542.30	57050.56
542.47	57160.56
542.63	57179.29
542.80	57169.93
542.97	57286.95
543.14	57432.07
543.31	57537.39
543.48	57455.47
543.64	57745.70
543.81	57827.62
543.98	57614.63
544.15	57682.50
544.32	57811.23
544.48	57984.43
544.65	57544.41
544.82	57570.16
544.99	57530.37
545.16	57675.48
545.32	57530.37
545.49	57907.19
545.66	58230.19
545.83	57879.11
546.00	58061.67
546.16	58085.07
546.33	57939.96
546.50	57827.62
546.67	57968.05
546.83	57890.81
547.00	58211.46
547.17	57958.69
547.34	58031.24
547.50	58401.05
547.67	58150.61
547.84	58124.86
548.00	58337.85
548.17	58333.17
548.34	58372.96
548.51	58461.90
548.67	58562.54
548.84	58614.04
549.01	58492.33
549.18	58384.66
549.34	58555.52
549.51	58578.93
549.68	58623.40
549.84	58466.58
550.01	58717.02
550.18	58464.24
550.34	58920.65
550.51	58972.14
550.68	58710.00
550.84	58459.56
551.01	58913.62
551.18	58812.98
551.34	58890.22
551.51	58745.11
551.68	58695.95
551.84	58731.06
552.01	58836.39
552.18	59065.76
552.34	58616.38
552.51	58918.31
552.68	58899.58
552.84	58798.94
553.01	59189.81
553.18	59133.63
553.34	59128.95
553.51	59178.10
553.67	58885.54
553.84	59405.14
554.01	59290.45
554.17	59103.21
554.34	59217.89
554.51	59351.30
554.67	59152.36
554.84	59255.34
555.00	59274.07
555.17	59220.23
555.33	59344.28
555.50	59255.34
555.67	59150.02
555.83	59075.12
556.00	59400.46
556.16	59737.49
556.33	59620.47
556.50	59564.29
556.66	59583.02
556.83	59465.99
556.99	59814.73
557.16	59896.65
557.32	59676.64
557.49	59756.22
557.65	59662.60
557.82	59767.92
557.98	59606.42
558.15	59772.60
558.32	59742.17
558.48	59920.05
558.65	59749.20
558.81	59756.22
558.98	59770.26
559.14	60034.74
559.31	59964.52
559.47	59992.61
559.64	59875.58
559.80	59847.50
559.97	59987.93
560.13	59908.35
560.30	59868.56
560.46	59924.74
560.63	60142.41
560.79	59971.55
560.96	60285.18
561.12	60200.92
561.29	60287.52
561.45	60093.25
561.61	60133.04
561.78	60126.02
561.94	60037.08
562.11	60203.26
562.27	60051.12
562.44	60203.26
562.60	60275.82
562.77	60264.11
562.93	60299.22
563.10	60266.45
563.26	60151.77
563.42	60528.59
563.59	60212.62
563.75	60257.09
563.92	60137.72
564.08	60191.56
564.24	60549.66
564.41	60430.29
564.57	60420.93
564.74	60404.55
564.90	60341.35
565.07	60280.50
565.23	60306.24
565.39	60339.01
565.56	60671.37
565.72	60327.31
565.88	60683.07
566.05	60341.35
566.21	60530.93
566.38	60505.19
566.54	60491.15
566.70	60598.81
566.87	60451.36
567.03	60257.09
567.19	60767.33
567.36	60687.75
567.52	60535.62
567.68	60734.56
567.85	60451.36
568.01	60865.63
568.17	60662.00
568.34	60781.37
568.50	60544.98
568.66	60573.06
568.83	60594.13
568.99	60509.87
569.15	60671.37
569.32	60626.90
569.48	60774.35
569.64	60982.66
569.81	60704.13
569.97	60676.05
570.13	60722.86
570.30	60631.58
570.46	60849.25
570.62	60729.88
570.78	60949.89
570.95	60814.14
571.11	60963.93
571.27	60650.30
571.43	60797.76
571.60	60842.23
571.76	60886.70
571.92	60954.57
572.09	60935.85
572.25	61022.45
572.41	60907.76
572.57	60755.63
572.74	61130.11
572.90	60835.20
573.06	60779.03
573.22	60949.89
573.38	60750.94
573.55	60889.04
573.71	60825.84
573.87	60879.67
574.03	60729.88
574.20	60860.95
574.36	60879.67
574.52	60973.30
574.68	61057.56
574.84	61130.11
575.01	61076.28
575.17	60959.25
575.33	61097.34
575.49	60896.06
575.65	60891.38
575.82	61174.58
575.98	61050.53
576.14	61256.50
576.30	61151.18
576.46	60987.34
576.62	60970.96
576.79	61052.87
576.95	60729.88
577.11	61237.78
577.27	61125.43
577.43	61048.19
577.59	61034.15
577.75	61050.53
577.92	61041.17
578.08	61197.99
578.24	61244.80
578.40	61368.85
578.56	61148.84
578.72	61130.11
578.88	61237.78
579.04	61064.58
579.21	61291.61
579.37	61158.20
579.53	61219.05
579.69	61057.56
579.85	61207.35
580.01	61265.86
580.17	61113.73
580.33	61272.88
580.49	61130.11
580.65	61041.17
580.82	61212.03
580.98	61167.56
581.14	61034.15
581.30	61179.26
581.46	61127.77
581.62	61116.07
581.78	61158.20
581.94	61228.41
582.10	61263.52
582.26	61244.80
582.42	61123.09
582.58	61286.93
582.74	61202.67
582.90	61172.24
583.06	61130.11
583.22	61052.87
583.38	61104.37
583.54	61240.12
583.70	61181.60
583.86	61394.59
584.02	61085.64
584.18	61432.04
584.34	61425.02
584.50	61375.87
584.66	61174.58
584.82	61144.16
584.98	61347.78
585.14	61401.61
585.30	60994.36
585.46	61256.50
585.62	61324.38
585.78	61329.06
585.94	61141.81
586.10	61263.52
586.26	61310.33
586.42	61490.55
586.58	61394.59
586.74	61235.44
586.90	61186.28
587.06	61307.99
587.22	61256.50
587.38	61460.13
587.54	61338.42
587.70	61352.46
587.86	61366.51
588.02	61289.27
588.18	61520.98
588.34	61277.57
588.49	61387.57
