SpectraSuite Data File
++++++++++++++++++++++++++++++++++++
Date: Fri Oct 25 11:26:13 EDT 2013
User: price-jones
Dark Spectrum Present: No
Reference Spectrum Present: No
Number of Sampled Component Spectra: 1
Spectrometers: USB2+H05261
Integration Time (usec): 100000 (USB2+H05261)
Spectra Averaged: 1 (USB2+H05261)
Boxcar Smoothing: 0 (USB2+H05261)
Correct for Electrical Dark: No (USB2+H05261)
Strobe/Lamp Enabled: No (USB2+H05261)
Correct for Detector Non-linearity: No (USB2+H05261)
Correct for Stray Light: No (USB2+H05261)
Number of Pixels in Processed Spectrum: 2048
>>>>>Begin Processed Spectral Data<<<<<
365.73	273.84
365.92	273.84
366.12	273.84
366.32	100.64
366.52	102.98
366.72	234.05
366.91	133.41
367.11	145.11
367.31	86.60
367.51	208.31
367.70	117.03
367.90	152.13
368.10	117.03
368.30	156.82
368.49	81.92
368.69	152.13
368.89	145.11
369.09	177.88
369.28	201.29
369.48	154.48
369.68	191.92
369.87	175.54
370.07	175.54
370.27	245.76
370.47	360.44
370.66	573.43
370.86	681.10
371.06	709.18
371.25	741.95
371.45	713.86
371.65	695.14
371.84	676.41
372.04	699.82
372.24	676.41
372.44	723.23
372.63	702.16
372.83	702.16
373.03	720.88
373.22	798.12
373.42	819.19
373.62	744.29
373.81	786.42
374.01	842.59
374.21	866.00
374.40	725.57
374.60	887.06
374.79	791.10
374.99	833.23
375.19	849.61
375.38	917.49
375.58	866.00
375.78	938.55
375.97	894.08
376.17	816.85
376.37	842.59
376.56	901.11
376.76	772.38
376.95	875.36
377.15	889.40
377.35	940.90
377.54	882.38
377.74	929.19
377.93	908.13
378.13	912.81
378.33	976.00
378.52	954.94
378.72	987.71
378.91	905.79
379.11	957.28
379.31	901.11
379.50	959.62
379.70	908.13
379.89	1027.50
380.09	1114.10
380.28	1048.56
380.48	1069.62
380.68	987.71
380.87	1034.52
381.07	1109.41
381.26	1083.67
381.46	1008.77
381.65	1039.20
381.85	1057.92
382.04	994.73
382.24	1118.78
382.43	1174.95
382.63	1006.43
382.83	1036.86
383.02	1093.03
383.22	1123.46
383.41	1086.01
383.61	1102.39
383.80	1107.07
384.00	1088.35
384.19	1050.90
384.39	1097.71
384.58	1100.05
384.78	1128.14
384.97	1114.10
385.17	1114.10
385.36	1158.57
385.56	1102.39
385.75	1165.59
385.95	1165.59
386.14	1291.98
386.34	1167.93
386.53	1224.10
386.72	1221.76
386.92	1299.00
387.11	1275.59
387.31	1275.59
387.50	1266.23
387.70	1245.16
387.89	1329.42
388.09	1245.16
388.28	1245.16
388.48	1221.76
388.67	1345.81
388.86	1289.64
389.06	1289.64
389.25	1327.08
389.45	1413.68
389.64	1324.74
389.84	1390.28
390.03	1420.71
390.22	1458.15
390.42	1350.49
390.61	1373.89
390.81	1472.20
391.00	1427.73
391.19	1519.01
391.39	1530.71
391.58	1530.71
391.78	1427.73
391.97	1458.15
392.16	1458.15
392.36	1547.09
392.55	1437.09
392.75	1556.46
392.94	1511.99
393.13	1483.90
393.33	1467.52
393.52	1614.97
393.71	1563.48
393.91	1596.25
394.10	1624.33
394.29	1558.80
394.49	1577.52
394.68	1554.12
394.88	1638.38
395.07	1636.03
395.26	1605.61
395.46	1708.59
395.65	1776.47
395.84	1668.80
396.04	1788.17
396.23	1746.04
396.42	1781.15
396.62	1654.76
396.81	1762.42
397.00	1732.00
397.19	1750.72
397.39	1685.19
397.58	1804.55
397.77	1813.92
397.97	1774.13
398.16	1881.79
398.35	1898.17
398.55	1818.60
398.74	1860.73
398.93	1947.33
399.12	1966.05
399.32	1872.43
399.51	1961.37
399.70	2043.29
399.90	1923.92
400.09	1891.15
400.28	1977.75
400.47	2003.50
400.67	2115.84
400.86	2087.76
401.05	2019.88
401.24	2157.97
401.44	2162.66
401.63	2057.33
401.82	2150.95
402.01	2139.25
402.21	2113.50
402.40	2216.49
402.59	2125.21
402.78	2167.34
402.97	2146.27
403.17	2237.55
403.36	2356.92
403.55	2239.89
403.74	2169.68
403.93	2422.45
404.13	2387.35
404.32	2370.96
404.51	2375.64
404.70	2459.90
404.89	2401.39
405.09	2478.63
405.28	2478.63
405.47	2450.54
405.66	2497.35
405.85	2483.31
406.05	2366.28
406.24	2560.55
406.43	2546.50
406.62	2619.06
406.81	2616.72
407.00	2551.18
407.20	2572.25
407.39	2588.63
407.58	2616.72
407.77	2651.83
407.96	2689.28
408.15	2808.64
408.34	2651.83
408.54	2747.79
408.73	2839.07
408.92	2832.05
409.11	2853.11
409.30	2885.88
409.49	3007.59
409.68	2803.96
409.87	2846.09
410.07	2946.73
410.26	2991.20
410.45	2981.84
410.64	3082.49
410.83	3084.83
411.02	3021.63
411.21	3201.85
411.40	3187.81
411.59	3194.83
411.78	3131.64
411.98	3119.93
412.17	3194.83
412.36	3255.69
412.55	3379.73
412.74	3328.24
412.93	3267.39
413.12	3356.33
413.31	3599.74
413.50	3489.74
413.69	3386.76
413.88	3559.95
414.07	3662.94
414.26	3604.42
414.45	3667.62
414.64	3674.64
414.83	3768.26
415.02	3791.67
415.22	3801.03
415.41	3840.82
415.60	3969.55
415.79	3768.26
415.98	3981.25
416.17	4030.40
416.36	3957.85
416.55	4077.21
416.74	3995.29
416.93	4039.76
417.12	4025.72
417.31	4042.11
417.50	4241.05
417.69	4390.84
417.88	4273.82
418.07	4297.22
418.26	4257.43
418.45	4376.80
418.64	4404.89
418.83	4402.55
419.02	4351.06
419.21	4334.67
419.39	4339.35
419.58	4353.40
419.77	4367.44
419.96	4596.81
420.15	4638.94
420.34	4643.62
420.53	4662.35
420.72	4676.39
420.91	4699.80
421.10	4636.60
421.29	4697.46
421.48	4709.16
421.67	4767.67
421.86	4760.65
422.05	4744.27
422.24	4891.72
422.43	4929.17
422.61	4943.21
422.80	4873.00
422.99	4903.42
423.18	4851.93
423.37	5076.62
423.56	4964.28
423.75	4983.00
423.94	4816.82
424.13	4561.70
424.32	4617.88
424.50	5043.85
424.69	4990.02
424.88	5116.41
425.07	4992.36
425.26	5018.11
425.45	4945.55
425.64	4880.02
425.83	4943.21
426.01	5060.24
426.20	4990.02
426.39	5102.37
426.58	5048.54
426.77	4973.64
426.96	5043.85
427.15	5224.08
427.33	5076.62
427.52	5205.35
427.71	5172.58
427.90	5123.43
428.09	5439.40
428.28	5310.68
428.46	5238.12
428.65	5425.36
428.84	5467.49
429.03	5509.62
429.22	5320.04
429.40	5352.81
429.59	5460.47
429.78	5270.89
429.97	5373.87
430.16	5439.40
430.34	5493.24
430.53	5621.97
430.72	5675.80
430.91	5621.97
431.10	5582.18
431.28	5834.96
431.47	5802.19
431.66	5797.51
431.85	5898.15
432.03	5849.00
432.22	5884.11
432.41	5928.58
432.60	5844.32
432.79	5867.72
432.97	5874.74
433.16	5795.17
433.35	6005.81
433.54	5846.66
433.72	6052.63
433.91	5951.98
434.10	6202.42
434.28	6265.61
434.47	6249.23
434.66	6312.42
434.85	6324.13
435.03	6153.27
435.22	6218.80
435.41	6520.73
435.59	6534.78
435.78	6452.86
435.97	6448.18
436.16	6368.60
436.34	6487.96
436.53	6607.33
436.72	6649.46
436.90	6497.33
437.09	6663.51
437.28	6497.33
437.46	6565.20
437.65	6736.06
437.84	6775.85
438.02	6663.51
438.21	6771.17
438.40	6562.86
438.58	6986.50
438.77	6899.90
438.96	6820.32
439.14	7103.53
439.33	7183.10
439.52	7166.72
439.70	6986.50
439.89	7288.43
440.08	7180.76
440.26	7246.30
440.45	7211.19
440.63	7447.58
440.82	7510.78
441.01	7393.75
441.19	7564.61
441.38	7817.39
441.57	7653.55
441.75	7651.21
441.94	7964.84
442.12	7911.01
442.31	7976.55
442.50	7953.14
442.68	8013.99
442.87	7976.55
443.05	8182.51
443.24	8016.33
443.43	8098.25
443.61	8079.53
443.80	8437.63
443.98	8070.17
444.17	7990.59
444.35	8149.75
444.54	8353.37
444.73	8369.76
444.91	8344.01
445.10	8329.97
445.28	8348.69
445.47	8044.42
445.65	8222.30
445.84	8552.32
446.02	8222.30
446.21	8147.40
446.39	8308.90
446.58	8451.67
446.77	8362.73
446.95	8280.82
447.14	8374.44
447.32	8664.66
447.51	8381.46
447.69	8404.86
447.88	8528.91
448.06	8358.05
448.25	8344.01
448.43	8477.42
448.62	8372.10
448.80	8308.90
448.99	8444.65
449.17	8692.75
449.36	8386.14
449.54	8592.11
449.73	8940.85
449.91	8847.22
450.10	9076.60
450.28	8992.34
450.46	9018.08
450.65	9053.19
450.83	9071.92
451.02	9076.60
451.20	8985.32
451.39	8966.59
451.57	8908.08
451.76	9015.74
451.94	9107.02
452.13	9160.86
452.31	9163.20
452.49	9249.80
452.68	9334.06
452.86	9350.44
453.05	9460.45
453.23	9364.48
453.42	9380.87
453.60	9121.07
453.78	9458.10
453.97	9455.76
454.15	9465.13
454.34	9399.59
454.52	9767.06
454.70	9666.41
454.89	9607.90
455.07	9738.97
455.26	9635.99
455.44	9900.47
455.62	9771.74
455.81	9874.72
455.99	9935.57
456.17	10127.50
456.36	10120.48
456.54	10183.67
456.73	10375.59
456.91	10714.97
457.09	10317.08
457.28	10504.32
457.46	10150.90
457.64	10389.64
457.83	10307.72
458.01	10494.96
458.19	10714.97
458.38	10621.35
458.56	10675.18
458.74	10530.07
458.93	10642.42
459.11	10656.46
459.29	10729.02
459.48	10920.94
459.66	10904.56
459.84	10913.92
460.03	11098.82
460.21	10895.19
460.39	10939.66
460.57	10839.02
460.76	10871.79
460.94	11190.10
461.12	11110.52
461.31	11365.64
461.49	11138.61
461.67	11030.94
461.85	11452.24
462.04	11164.36
462.22	11817.36
462.40	11730.76
462.59	11492.03
462.77	11492.03
462.95	11470.97
463.13	11754.17
463.32	11576.29
463.50	11702.68
463.68	11763.53
463.86	11836.09
464.05	11817.36
464.23	11730.76
464.41	11913.33
464.59	11698.00
464.78	12175.47
464.96	11927.37
465.14	11957.80
465.32	12046.74
465.50	12159.08
465.69	12056.10
465.87	11967.16
466.05	12011.63
466.23	12170.79
466.41	12210.57
466.60	12411.86
466.78	12205.89
466.96	12112.27
467.14	12351.01
467.32	12320.58
467.51	12491.44
467.69	11927.37
467.87	12198.87
468.05	12461.01
468.23	12489.10
468.41	12348.67
468.60	12507.82
468.78	12788.69
468.96	12463.35
469.14	12556.97
469.32	13111.68
469.50	12608.47
469.69	13083.59
469.87	13116.36
470.05	13020.40
470.23	13022.74
470.41	13212.32
470.59	13170.19
470.77	13221.69
470.95	13125.72
471.14	13308.29
471.32	12987.63
471.50	13303.60
471.68	13444.04
471.86	13352.76
472.04	13563.40
472.22	13870.01
472.40	13432.33
472.58	13837.25
472.77	13795.12
472.95	14090.02
473.13	14349.82
473.31	14045.55
473.49	14106.41
473.67	13912.14
473.85	13928.53
474.03	14736.01
474.21	14487.92
474.39	14691.54
474.57	14567.49
474.75	14679.84
474.93	15084.75
475.12	15190.08
475.30	15236.89
475.48	14869.42
475.66	15122.20
475.84	15103.48
476.02	15405.41
476.20	15414.77
476.38	15309.44
476.56	16013.95
476.74	15798.62
476.92	16037.35
477.10	15630.10
477.28	15943.73
477.46	16287.79
477.64	16301.83
477.82	16465.67
478.00	16842.50
478.18	16613.12
478.36	16692.70
478.54	17034.42
478.72	17303.58
478.90	17436.99
479.08	17647.64
479.26	17785.73
479.44	17455.72
479.62	17577.42
479.80	18024.47
479.98	18038.51
480.16	18689.18
480.34	18092.34
480.52	18448.10
480.70	18696.20
480.88	18380.23
481.06	18944.30
481.24	18728.97
481.41	19007.49
481.59	19501.34
481.77	19377.30
481.95	19562.20
482.13	19290.70
482.31	19669.86
482.49	20409.47
482.67	20027.96
482.85	20205.84
483.03	20615.44
483.21	20849.49
483.39	20851.83
483.57	20922.05
483.74	20945.45
483.92	20982.90
484.10	21198.23
484.28	21481.44
484.46	21841.88
484.64	22485.53
484.82	21977.63
485.00	22244.45
485.18	22721.92
485.35	22871.72
485.53	22796.82
485.71	22897.46
485.89	23431.10
486.07	23213.43
486.25	23201.73
486.43	23648.77
486.61	23487.28
486.78	23669.84
486.96	23885.17
487.14	24404.77
487.32	24620.10
487.50	24587.33
487.68	25135.01
487.85	25144.38
488.03	25783.34
488.21	25509.50
488.39	25844.20
488.57	25797.38
488.75	26125.06
488.92	26244.43
489.10	26340.39
489.28	26721.90
489.46	26857.65
489.64	26981.70
489.81	27756.41
489.99	27723.65
490.17	27861.74
490.35	27864.08
490.53	27981.10
490.70	28065.36
490.88	28283.03
491.06	28762.84
491.24	28936.04
491.41	29202.86
491.59	29216.91
491.77	29420.53
491.95	29450.96
492.13	29795.02
492.30	29633.52
492.48	29921.41
492.66	29832.47
492.84	29741.19
493.01	30630.59
493.19	30483.14
493.37	30916.14
493.54	31012.10
493.72	31449.78
493.90	31262.54
494.08	31248.49
494.25	31566.81
494.43	31737.66
494.61	32079.38
494.79	32261.94
494.96	32245.56
495.14	32610.68
495.32	33003.89
495.49	32989.85
495.67	33048.36
495.85	33310.50
496.02	33329.23
496.20	33942.45
496.38	33902.66
496.55	33750.52
496.73	34375.45
496.91	34377.79
497.09	35136.12
497.26	34600.14
497.44	34656.31
497.62	35201.66
497.79	35550.40
497.97	35140.80
498.14	35828.92
498.32	35828.92
498.50	36297.03
498.67	36453.84
498.85	36350.86
499.03	36271.28
499.20	36416.40
499.38	36753.43
499.56	36802.58
499.73	36886.84
499.91	37214.52
500.08	37553.90
500.26	37385.38
500.44	37474.32
500.61	37715.39
500.79	38059.45
500.97	37881.57
501.14	38080.52
501.32	38471.39
501.49	38323.93
501.67	38359.04
501.84	38689.06
502.02	38415.21
502.20	38953.54
502.37	39124.40
502.55	39061.20
502.72	39414.62
502.90	39100.99
503.07	39016.73
503.25	39723.57
503.43	39484.84
503.60	40259.55
503.78	39536.33
503.95	40517.01
504.13	40435.10
504.30	40931.29
504.48	40201.04
504.65	40580.21
504.83	40875.12
505.01	41008.53
505.18	41200.45
505.36	41436.84
505.53	41170.02
505.71	41319.82
505.88	41694.30
506.06	41200.45
506.23	42068.79
506.41	41411.10
506.58	41968.15
506.76	41804.31
506.93	42567.32
507.11	42249.01
507.28	42078.15
507.46	42557.96
507.63	42419.87
507.81	42686.69
507.98	42497.11
508.16	42932.45
508.33	43035.43
508.50	43206.29
508.68	43391.19
508.85	43777.38
509.03	43636.95
509.20	43676.74
509.38	43938.88
509.55	44067.61
509.73	44383.58
509.90	44725.30
510.08	44388.26
510.25	44823.60
510.42	44144.84
510.60	44619.97
510.77	45317.45
510.95	45607.68
511.12	45162.98
511.30	44748.70
511.47	45860.46
511.64	45359.58
511.82	45689.60
511.99	45497.67
512.17	46043.02
512.34	45581.93
512.51	46157.70
512.69	46513.47
512.86	46452.61
513.04	46405.80
513.21	46429.21
513.38	46366.01
513.56	46866.89
513.73	46447.93
513.90	46887.95
514.08	46782.63
514.25	47182.86
514.43	47316.27
514.60	47278.82
514.77	47105.62
514.95	47597.13
515.12	47168.82
515.29	47398.19
515.47	47913.11
515.64	47882.68
515.81	48215.04
515.99	48088.65
516.16	48163.54
516.33	47973.96
516.51	48526.33
516.68	48065.24
516.85	48208.01
517.03	48580.16
517.20	49038.90
517.37	48989.75
517.54	48678.46
517.72	48657.40
517.89	48816.55
518.06	49130.19
518.24	49066.99
518.41	49036.56
518.58	49326.79
518.75	48715.91
518.93	49359.56
519.10	49233.17
519.27	49808.94
519.45	49322.11
519.62	49724.68
519.79	49743.41
519.96	49476.58
520.14	49841.71
520.31	49825.32
520.48	50031.29
520.65	50143.64
520.83	50281.73
521.00	50361.31
521.17	50241.94
521.34	50504.08
521.52	50848.14
521.69	50752.18
521.86	50916.01
522.03	50770.90
522.20	51309.22
522.38	51075.17
522.55	51065.81
522.72	51323.27
522.89	51271.78
523.07	51664.99
523.24	51512.85
523.41	51543.28
523.58	51393.48
523.75	51669.67
523.92	51461.36
524.10	51660.30
524.27	51686.05
524.44	52009.04
524.61	52044.15
524.78	51863.93
524.96	52163.52
525.13	51774.99
525.30	52252.46
525.47	52275.87
525.64	52268.84
525.81	52633.97
525.98	52568.43
526.16	52535.66
526.33	52526.30
526.50	52905.47
526.67	52430.34
526.84	52563.75
527.01	52678.44
527.18	52636.31
527.36	53120.80
527.53	52956.96
527.70	53130.16
527.87	53490.60
528.04	53181.65
528.21	53254.21
528.38	53434.43
528.55	53404.00
528.72	53179.31
528.89	53432.09
529.07	53230.80
529.24	53364.21
529.41	53563.16
529.58	53329.11
529.75	53457.84
529.92	53670.82
530.09	53780.83
530.26	53710.61
530.43	54049.99
530.60	53682.53
530.77	53998.50
530.94	53790.19
531.11	53652.10
531.28	54188.08
531.46	54061.69
531.63	54192.76
531.80	53956.37
531.97	54218.51
532.14	54326.17
532.31	54237.23
532.48	54211.49
532.65	54415.11
532.82	54258.30
532.99	54513.42
533.16	54630.44
533.33	54693.64
533.50	54887.90
533.67	54578.95
533.84	54543.84
534.01	54827.05
534.18	54752.15
534.35	55182.81
534.52	55044.72
534.69	55000.25
534.86	55341.97
535.03	54827.05
535.20	55311.54
535.37	55288.13
535.54	54951.10
535.71	55121.96
535.88	55367.71
536.05	55391.12
536.22	55274.09
536.38	55311.54
536.55	55407.50
536.72	55435.59
536.89	55407.50
537.06	55210.90
537.23	55393.46
537.40	55290.48
537.57	55683.69
537.74	55599.43
537.91	55868.59
538.08	55679.00
538.25	55697.73
538.42	55987.95
538.59	56128.39
538.75	55552.62
538.92	56006.68
539.09	56006.68
539.26	56130.73
539.43	55819.44
539.60	55884.97
539.77	56100.30
539.94	56629.26
540.11	56072.21
540.28	56341.38
540.44	56369.46
540.61	56402.23
540.78	56044.13
540.95	56287.54
541.12	56119.02
541.29	56048.81
541.46	56563.73
541.62	56580.11
541.79	56491.17
541.96	56271.16
542.13	56427.98
542.30	56746.29
542.47	56662.03
542.63	56718.20
542.80	56809.48
542.97	56933.53
543.14	56973.32
543.31	57151.20
543.48	57146.52
543.64	57361.85
543.81	57471.85
543.98	57261.21
544.15	57162.90
544.32	57338.44
544.48	57403.98
544.65	57169.93
544.82	57392.28
544.99	57193.33
545.16	57558.45
545.32	57116.09
545.49	57193.33
545.66	57869.75
545.83	57406.32
546.00	57598.24
546.16	57645.05
546.33	57415.68
546.50	57429.72
546.67	57614.63
546.83	57485.90
547.00	57717.61
547.17	57579.52
547.34	57544.41
547.50	57886.13
547.67	57797.19
547.84	57991.45
548.00	58012.52
548.17	58089.76
548.34	57900.17
548.51	58047.63
548.67	58031.24
548.84	58183.38
549.01	57939.96
549.18	57911.88
549.34	58101.46
549.51	58108.48
549.68	58216.14
549.84	58237.21
550.01	58527.44
550.18	58265.30
550.34	58248.91
550.51	58216.14
550.68	58262.96
550.84	58124.86
551.01	58464.24
551.18	58349.56
551.34	58295.72
551.51	58506.37
551.68	58684.25
551.84	58326.15
552.01	58389.34
552.18	58501.69
552.34	58309.77
552.51	58803.62
552.68	58447.86
552.84	58525.10
553.01	58651.48
553.18	58508.71
553.34	58700.64
553.51	58623.40
553.67	58780.21
553.84	59070.44
554.01	58801.28
554.17	58791.92
554.34	59192.15
554.51	58934.69
554.67	58976.82
554.84	58766.17
555.00	58958.09
555.17	58922.99
555.33	58972.14
555.50	58759.15
555.67	58855.11
555.83	58986.18
556.00	59159.38
556.16	59379.39
556.33	59077.46
556.50	59068.10
556.66	59257.68
556.83	59117.25
556.99	59391.09
557.16	59444.93
557.32	59416.84
557.49	59456.63
557.65	58941.71
557.82	59393.43
557.98	59164.06
558.15	59297.47
558.32	59388.75
558.48	59238.96
558.65	59543.23
558.81	59430.88
558.98	59393.43
559.14	59606.42
559.31	59388.75
559.47	59571.32
559.64	59531.53
559.80	59578.34
559.97	59695.36
560.13	59505.78
560.30	59676.64
560.46	59683.66
560.63	59695.36
560.79	59547.91
560.96	59950.48
561.12	59662.60
561.29	59894.31
561.45	59805.37
561.61	59709.41
561.78	59482.37
561.94	59543.23
562.11	59554.93
562.27	59824.09
562.44	59728.13
562.60	60299.22
562.77	59873.24
562.93	59927.08
563.10	60116.66
563.26	59945.80
563.42	60142.41
563.59	59950.48
563.75	59730.47
563.92	59999.63
564.08	59973.89
564.24	60041.76
564.41	60060.49
564.57	60048.78
564.74	60058.15
564.90	60100.28
565.07	60058.15
565.23	59915.37
565.39	60130.70
565.56	59997.29
565.72	60011.34
565.88	59992.61
566.05	59994.95
566.21	60149.43
566.38	60252.41
566.54	60126.02
566.70	60240.71
566.87	60250.07
567.03	59915.37
567.19	60189.22
567.36	60123.68
567.52	60364.76
567.68	60341.35
567.85	60268.79
568.01	60154.11
568.17	60210.28
568.34	60205.60
568.50	60210.28
568.66	60116.66
568.83	60385.82
568.99	60142.41
569.15	60266.45
569.32	60397.52
569.48	60037.08
569.64	60357.74
569.81	60383.48
569.97	60123.68
570.13	60434.97
570.30	60205.60
570.46	60200.92
570.62	60308.58
570.78	60257.09
570.95	60498.17
571.11	60491.15
571.27	60320.29
571.43	60327.31
571.60	60434.97
571.76	60537.96
571.92	60334.33
572.09	60463.06
572.25	60334.33
572.41	60460.72
572.57	60381.14
572.74	60645.62
572.90	60563.70
573.06	60509.87
573.22	60420.93
573.38	60346.03
573.55	60470.08
573.71	60692.43
573.87	60764.99
574.03	60521.57
574.20	60530.93
574.36	60353.05
574.52	60678.39
574.68	60535.62
574.84	60711.16
575.01	60715.84
575.17	60680.73
575.33	60509.87
575.49	60596.47
575.65	60680.73
575.82	60645.62
575.98	60554.34
576.14	60769.67
576.30	60662.00
576.46	60760.31
576.62	60519.23
576.79	60837.54
576.95	60573.06
577.11	60741.58
577.27	60828.18
577.43	60631.58
577.59	60685.41
577.75	60594.13
577.92	60711.16
578.08	60596.47
578.24	60926.49
578.40	60893.72
578.56	60924.14
578.72	60891.38
578.88	60851.59
579.04	60783.71
579.21	60739.24
579.37	60701.79
579.53	60898.40
579.69	60610.51
579.85	60563.70
580.01	60846.91
580.17	60495.83
580.33	60757.97
580.49	61003.72
580.65	60889.04
580.82	60874.99
580.98	60872.65
581.14	60610.51
581.30	61080.96
581.46	60757.97
581.62	60858.61
581.78	60647.96
581.94	60921.80
582.10	60743.92
582.26	60727.54
582.42	60851.59
582.58	60795.42
582.74	60874.99
582.90	61071.60
583.06	61062.24
583.22	60779.03
583.38	60790.73
583.54	60893.72
583.70	60783.71
583.86	60767.33
584.02	60893.72
584.18	60989.68
584.34	60945.21
584.50	60973.30
584.66	60788.39
584.82	60790.73
584.98	61137.13
585.14	60683.07
585.30	60844.57
585.46	61020.11
585.62	60938.19
585.78	60912.44
585.94	60662.00
586.10	60896.06
586.26	60882.02
586.42	60992.02
586.58	61116.07
586.74	60879.67
586.90	60893.72
587.06	60814.14
587.22	60919.46
587.38	60903.08
587.54	61090.32
587.70	61235.44
587.86	61066.92
588.02	60966.27
588.18	61034.15
588.34	60896.06
588.49	60867.97
