SpectraSuite Data File
++++++++++++++++++++++++++++++++++++
Date: Fri Oct 25 11:23:21 EDT 2013
User: price-jones
Dark Spectrum Present: No
Reference Spectrum Present: No
Number of Sampled Component Spectra: 1
Spectrometers: USB2+H05261
Integration Time (usec): 100000 (USB2+H05261)
Spectra Averaged: 1 (USB2+H05261)
Boxcar Smoothing: 0 (USB2+H05261)
Correct for Electrical Dark: No (USB2+H05261)
Strobe/Lamp Enabled: No (USB2+H05261)
Correct for Detector Non-linearity: No (USB2+H05261)
Correct for Stray Light: No (USB2+H05261)
Number of Pixels in Processed Spectrum: 2048
>>>>>Begin Processed Spectral Data<<<<<
365.73	243.42
365.92	243.42
366.12	243.42
366.32	140.43
366.52	175.54
366.72	114.69
366.91	177.88
367.11	107.66
367.31	74.90
367.51	117.03
367.70	159.16
367.90	112.35
368.10	166.18
368.30	117.03
368.49	163.84
368.69	121.71
368.89	93.62
369.09	159.16
369.28	65.54
369.48	147.45
369.68	149.79
369.87	205.97
370.07	224.69
370.27	241.08
370.47	257.46
370.66	538.32
370.86	566.41
371.06	629.60
371.25	606.20
371.45	709.18
371.65	709.18
371.84	662.37
372.04	720.88
372.24	685.78
372.44	732.59
372.63	690.46
372.83	732.59
373.03	772.38
373.22	739.61
373.42	706.84
373.62	856.64
373.81	791.10
374.01	809.83
374.21	737.27
374.40	777.06
374.60	866.00
374.79	772.38
374.99	875.36
375.19	880.04
375.38	795.78
375.58	791.10
375.78	866.00
375.97	856.64
376.17	854.30
376.37	788.76
376.56	854.30
376.76	765.36
376.95	781.74
377.15	837.91
377.35	980.68
377.54	826.21
377.74	802.80
377.93	887.06
378.13	924.51
378.33	954.94
378.52	933.87
378.72	929.19
378.91	912.81
379.11	968.98
379.31	952.60
379.50	931.53
379.70	983.02
379.89	936.21
380.09	915.15
380.28	959.62
380.48	1142.18
380.68	945.58
380.87	1055.58
381.07	1013.45
381.26	1018.13
381.46	968.98
381.65	990.05
381.85	990.05
382.04	1109.41
382.24	1093.03
382.43	990.05
382.63	1137.50
382.83	1064.94
383.02	1196.01
383.22	1130.48
383.41	1062.60
383.61	1212.40
383.80	1076.65
384.00	1156.22
384.19	1158.57
384.39	1151.54
384.58	1095.37
384.78	1196.01
384.97	1184.31
385.17	1144.52
385.36	1158.57
385.56	1137.50
385.75	1128.14
385.95	1217.08
386.14	1228.78
386.34	1238.14
386.53	1130.48
386.72	1165.59
386.92	1277.93
387.11	1221.76
387.31	1294.32
387.50	1291.98
387.70	1221.76
387.89	1205.38
388.09	1270.91
388.28	1348.15
388.48	1245.16
388.67	1231.12
388.86	1231.12
389.06	1341.13
389.25	1373.89
389.45	1263.89
389.64	1341.13
389.84	1409.00
390.03	1465.18
390.22	1373.89
390.42	1441.77
390.61	1542.41
390.81	1390.28
391.00	1420.71
391.19	1380.92
391.39	1380.92
391.58	1495.60
391.78	1460.49
391.97	1486.24
392.16	1544.75
392.36	1563.48
392.55	1519.01
392.75	1582.20
392.94	1523.69
393.13	1488.58
393.33	1572.84
393.52	1645.40
393.71	1598.59
393.91	1652.42
394.10	1579.86
394.29	1659.44
394.49	1640.72
394.68	1678.16
394.88	1659.44
395.07	1629.01
395.26	1687.53
395.46	1706.25
395.65	1781.15
395.84	1776.47
396.04	1788.17
396.23	1743.70
396.42	1792.85
396.62	1736.68
396.81	1884.13
397.00	1736.68
397.19	1732.00
397.39	1713.27
397.58	1935.62
397.77	1753.06
397.97	1935.62
398.16	1865.41
398.35	1881.79
398.55	1916.90
398.74	1865.41
398.93	1954.35
399.12	1888.81
399.32	1898.17
399.51	1994.14
399.70	2022.22
399.90	1970.73
400.09	2003.50
400.28	2162.66
400.47	2083.08
400.67	2036.27
400.86	2115.84
401.05	2108.82
401.24	2209.47
401.44	2125.21
401.63	2179.04
401.82	2214.15
402.01	2150.95
402.21	2122.87
402.40	2179.04
402.59	2221.17
402.78	2282.02
402.97	2263.30
403.17	2202.44
403.36	2260.96
403.55	2349.90
403.74	2410.75
403.93	2333.51
404.13	2331.17
404.32	2356.92
404.51	2450.54
404.70	2368.62
404.89	2431.82
405.09	2389.69
405.28	2464.58
405.47	2417.77
405.66	2558.21
405.85	2525.44
406.05	2427.14
406.24	2450.54
406.43	2602.68
406.62	2588.63
406.81	2567.57
407.00	2644.81
407.20	2640.12
407.39	2677.57
407.58	2665.87
407.77	2729.06
407.96	2752.47
408.15	2712.68
408.34	2892.90
408.54	2855.45
408.73	2862.48
408.92	2771.19
409.11	2832.05
409.30	2876.52
409.49	2876.52
409.68	2988.86
409.87	3030.99
410.07	3014.61
410.26	2993.55
410.45	3080.14
410.64	3108.23
410.83	3007.59
411.02	3103.55
411.21	3211.22
411.40	3178.45
411.59	3225.26
411.78	3215.90
411.98	3246.32
412.17	3241.64
412.36	3325.90
412.55	3339.94
412.74	3515.48
412.93	3520.17
413.12	3442.93
413.31	3562.30
413.50	3566.98
413.69	3585.70
413.88	3653.58
414.07	3637.19
414.26	3588.04
414.45	3878.27
414.64	3838.48
414.83	3784.65
415.02	3808.05
415.22	3779.97
415.41	3960.19
415.60	3885.29
415.79	3843.16
415.98	3948.48
416.17	4037.42
416.36	3943.80
416.55	4058.49
416.74	4091.26
416.93	4117.00
417.12	4163.81
417.31	4259.78
417.50	4196.58
417.69	4257.43
417.88	4337.01
418.07	4304.25
418.26	4280.84
418.45	4479.79
418.64	4486.81
418.83	4458.72
419.02	4564.04
419.21	4507.87
419.39	4498.51
419.58	4664.69
419.77	4582.77
419.96	4486.81
420.15	4554.68
420.34	4688.09
420.53	4690.43
420.72	4758.31
420.91	4781.71
421.10	4865.97
421.29	4774.69
421.48	4615.54
421.67	4812.14
421.86	4760.65
422.05	4762.99
422.24	4828.53
422.43	4891.72
422.61	5018.11
422.80	4924.49
422.99	5013.43
423.18	5057.90
423.37	5048.54
423.56	4964.28
423.75	5039.17
423.94	4891.72
424.13	4458.72
424.32	4734.90
424.50	4912.78
424.69	5146.84
424.88	5139.82
425.07	5064.92
425.26	4947.89
425.45	4936.19
425.64	4793.42
425.83	4968.96
426.01	5125.77
426.20	5041.51
426.39	5085.98
426.58	5102.37
426.77	5228.76
426.96	5200.67
427.15	5097.69
427.33	5291.95
427.52	5259.18
427.71	5322.38
427.90	5401.96
428.09	5467.49
428.28	5352.81
428.46	5406.64
428.65	5334.08
428.84	5645.37
429.03	5554.09
429.22	5425.36
429.40	5453.45
429.59	5514.30
429.78	5411.32
429.97	5273.23
430.16	5554.09
430.34	5640.69
430.53	5771.76
430.72	5858.36
430.91	5713.25
431.10	5647.71
431.28	5795.17
431.47	5909.85
431.66	5970.71
431.85	6017.52
432.03	5865.38
432.22	5977.73
432.41	5935.60
432.60	6038.58
432.79	6001.13
432.97	6069.01
433.16	5905.17
433.35	6061.99
433.54	6174.33
433.72	6265.61
433.91	6218.80
434.10	6235.19
434.28	6167.31
434.47	6256.25
434.66	6246.89
434.85	6312.42
435.03	6516.05
435.22	6476.26
435.41	6487.96
435.59	6392.00
435.78	6548.82
435.97	6710.32
436.16	6516.05
436.34	6389.66
436.53	6487.96
436.72	6651.80
436.90	6614.35
437.09	6651.80
437.28	6506.69
437.46	6761.81
437.65	6539.46
437.84	6815.64
438.02	6803.94
438.21	6939.69
438.40	6789.89
438.58	6970.12
438.77	7000.54
438.96	6967.77
439.14	7201.83
439.33	7246.30
439.52	7318.86
439.70	7192.47
439.89	7510.78
440.08	7538.87
440.26	7555.25
440.45	7456.95
440.63	7569.29
440.82	7602.06
441.01	7618.44
441.19	7669.94
441.38	7812.71
441.57	8084.21
441.75	7763.56
441.94	8032.72
442.12	7974.21
442.31	8154.43
442.50	8051.44
442.68	8063.15
442.87	8119.32
443.05	8145.06
443.24	8409.54
443.43	8388.48
443.61	8138.04
443.80	8596.79
443.98	8159.11
444.17	7892.29
444.35	8500.83
444.54	8367.42
444.73	8500.83
444.91	8308.90
445.10	8484.44
445.28	8477.42
445.47	8372.10
445.65	8465.72
445.84	8622.53
446.02	8634.24
446.21	8531.25
446.39	8578.06
446.58	8566.36
446.77	8718.50
446.95	8299.54
447.14	8688.07
447.32	8741.90
447.51	8643.60
447.69	8671.68
447.88	8390.82
448.06	8629.56
448.25	8554.66
448.43	8486.78
448.62	8879.99
448.80	8629.56
448.99	8716.16
449.17	8870.63
449.36	8737.22
449.54	9083.62
449.73	8980.64
449.91	9088.30
450.10	8795.73
450.28	9137.45
450.46	9057.87
450.65	9013.40
450.83	9249.80
451.02	9137.45
451.20	9385.55
451.39	9188.94
451.57	9130.43
451.76	9121.07
451.94	9308.31
452.13	9327.03
452.31	9270.86
452.49	9359.80
452.68	9577.47
452.86	9404.27
453.05	9554.07
453.23	9633.64
453.42	9516.62
453.60	9582.15
453.78	9504.92
453.97	9540.02
454.15	9645.35
454.34	9366.82
454.52	9755.35
454.70	9760.03
454.89	9820.89
455.07	9804.50
455.26	9790.46
455.44	9966.00
455.62	10249.21
455.81	9888.76
455.99	10263.25
456.17	10150.90
456.36	10431.77
456.54	10195.37
456.73	10406.02
456.91	10394.32
457.09	10665.82
457.28	10623.69
457.46	10298.36
457.64	10654.12
457.83	10462.19
458.01	10586.24
458.19	10981.79
458.38	10640.08
458.56	10902.22
458.74	10644.76
458.93	10794.55
459.11	10834.34
459.29	10642.42
459.48	10991.16
459.66	11019.24
459.84	11108.18
460.03	11229.89
460.21	11225.21
460.39	11428.84
460.57	11019.24
460.76	11384.37
460.94	11360.96
461.12	11112.86
461.31	11456.92
461.49	11346.92
461.67	11414.79
461.85	11562.25
462.04	11524.80
462.22	11557.57
462.40	11674.59
462.59	11674.59
462.77	11606.72
462.95	11705.02
463.13	11641.82
463.32	11763.53
463.50	11978.86
463.68	11875.88
463.86	12119.29
464.05	11763.53
464.23	11761.19
464.41	12212.92
464.59	11864.18
464.78	12351.01
464.96	12093.55
465.14	11971.84
465.32	12175.47
465.50	12336.96
465.69	12201.21
465.87	12493.78
466.05	12241.00
466.23	12173.13
466.41	12624.85
466.60	12613.15
466.78	12339.30
466.96	12449.31
467.14	12264.41
467.32	12676.34
467.51	12830.82
467.69	12351.01
467.87	12437.61
468.05	12861.24
468.23	12603.78
468.41	12493.78
468.60	12755.92
468.78	12774.64
468.96	12662.30
469.14	12772.30
469.32	12968.91
469.50	12805.07
469.69	13107.00
469.87	13289.56
470.05	13022.74
470.23	13209.98
470.41	13310.63
470.59	13434.68
470.77	13530.64
470.95	13425.31
471.14	13823.20
471.32	13081.25
471.50	13715.54
471.68	13710.86
471.86	13860.65
472.04	14073.64
472.22	14083.00
472.40	13958.96
472.58	13893.42
472.77	13928.53
472.95	14445.79
473.13	14682.18
473.31	14176.62
473.49	14363.87
473.67	14083.00
473.85	14293.65
474.03	14721.97
474.21	14705.59
474.39	15194.76
474.57	14876.44
474.75	15183.06
474.93	15211.14
475.12	15220.50
475.30	15400.72
475.48	15215.82
475.66	15410.09
475.84	15300.08
476.02	15538.82
476.20	15421.79
476.38	15838.41
476.56	16367.37
476.74	16119.27
476.92	16201.19
477.10	15674.57
477.28	16166.08
477.46	16432.90
477.64	16411.84
477.82	16491.41
478.00	17200.60
478.18	16772.28
478.36	17001.65
478.54	17170.17
478.72	17341.03
478.90	17453.37
479.08	17591.47
479.26	17994.04
479.44	17727.22
479.62	18167.24
479.80	18092.34
479.98	18677.48
480.16	18731.31
480.34	18483.21
480.52	18754.71
480.70	18672.79
480.88	18558.11
481.06	18759.39
481.24	18956.00
481.41	19438.15
481.59	19686.25
481.77	19674.54
481.95	19674.54
482.13	19901.58
482.31	19953.07
482.49	20367.34
482.67	20175.42
482.85	20411.81
483.03	20769.91
483.21	20800.34
483.39	21149.08
483.57	20994.61
483.74	21511.86
483.92	21851.24
484.10	21633.57
484.28	21921.46
484.46	22312.33
484.64	22579.15
484.82	21942.52
485.00	22590.85
485.18	23009.81
485.35	23220.45
485.53	22981.72
485.71	23325.78
485.89	23880.49
486.07	23662.82
486.25	23723.67
486.43	24067.73
486.61	24233.91
486.78	24514.77
486.96	24217.52
487.14	24922.02
487.32	24964.15
487.50	25174.80
487.68	25266.08
487.85	25362.04
488.03	26075.91
488.21	25977.61
488.39	26181.23
488.57	26408.26
488.75	26691.47
488.92	26834.24
489.10	26904.46
489.28	27122.13
489.46	27524.70
489.64	27236.81
489.81	28166.01
489.99	28011.53
490.17	28191.75
490.35	28648.16
490.53	28903.28
490.70	28804.97
490.88	28638.80
491.06	28905.62
491.24	29134.99
491.41	29006.26
491.59	29134.99
491.77	29411.17
491.95	29949.50
492.13	30223.34
492.30	30251.42
492.48	30546.33
492.66	30665.70
492.84	31042.53
493.01	30930.18
493.19	30986.35
493.37	31456.80
493.54	31704.90
493.72	32039.59
493.90	31737.66
494.08	32079.38
494.25	32397.70
494.43	32261.94
494.61	32292.37
494.79	33251.99
494.96	32849.42
495.14	33450.94
495.32	33240.29
495.49	33525.83
495.67	33371.36
495.85	34242.04
496.02	33956.49
496.20	34485.45
496.38	34536.94
496.55	34548.65
496.73	35522.31
496.91	35009.73
497.09	35164.21
497.26	35372.52
497.44	35388.90
497.62	35569.12
497.79	36203.41
497.97	35997.44
498.14	36491.29
498.32	36973.44
498.50	36659.81
498.67	36746.41
498.85	36795.56
499.03	36751.09
499.20	37717.73
499.38	36971.10
499.56	37109.19
499.73	37343.25
499.91	37935.40
500.08	37764.54
500.26	37638.15
500.44	37537.51
500.61	38314.57
500.79	38064.13
500.97	38803.74
501.14	38700.76
501.32	39082.27
501.49	39112.69
501.67	38976.94
501.84	39367.81
502.02	39548.03
502.20	39964.65
502.37	39342.06
502.55	39377.17
502.72	39751.66
502.90	39924.86
503.07	39908.47
503.25	40374.24
503.43	40011.46
503.60	40334.45
503.78	40830.65
503.95	40690.21
504.13	40823.62
504.30	41078.74
504.48	41017.89
504.65	41528.13
504.83	41406.42
505.01	41462.59
505.18	41457.91
505.36	42291.14
505.53	41528.13
505.71	42160.07
505.88	42029.00
506.06	42178.79
506.23	42539.24
506.41	42422.21
506.58	42380.08
506.76	42735.84
506.93	42543.92
507.11	42794.36
507.28	42679.67
507.46	43559.71
507.63	43227.35
507.81	43459.07
507.98	43089.26
508.16	43791.42
508.33	43784.40
508.50	44041.86
508.68	43753.97
508.85	44381.24
509.03	44060.58
509.20	44336.77
509.38	44912.54
509.55	44650.40
509.73	44926.58
509.90	45226.17
510.08	44650.40
510.25	45036.59
510.42	44676.15
510.60	45495.33
510.77	45663.85
510.95	45656.83
511.12	45347.88
511.30	45474.27
511.47	46026.63
511.64	46218.56
511.82	45998.55
511.99	45890.88
512.17	46466.66
512.34	46253.67
512.51	46848.16
512.69	46890.29
512.86	46309.84
513.04	47201.58
513.21	46951.15
513.38	47075.19
513.56	47459.04
513.73	46918.38
513.90	47496.49
514.08	47166.48
514.25	47985.66
514.43	47831.19
514.60	48170.57
514.77	47948.21
514.95	48222.06
515.12	48193.97
515.29	48083.97
515.47	48411.64
515.64	48554.41
515.81	48355.47
515.99	48582.50
516.16	49111.46
516.33	48531.01
516.51	49069.33
516.68	48933.58
516.85	48811.87
517.03	49179.34
517.20	49406.37
517.37	49235.51
517.54	49195.72
517.72	49191.04
517.89	49502.33
518.06	49570.21
518.24	49593.61
518.41	49542.12
518.58	49766.81
518.75	49834.69
518.93	50164.70
519.10	49677.87
519.27	50089.80
519.45	50216.19
519.62	50373.01
519.79	50391.73
519.96	50298.11
520.14	50478.33
520.31	50574.30
520.48	50637.49
520.65	50782.60
520.83	50871.54
521.00	50953.46
521.17	51166.45
521.34	51117.30
521.52	50944.10
521.69	50951.12
521.86	51444.98
522.03	51442.63
522.20	51725.84
522.38	51625.20
522.55	51866.27
522.72	51667.33
522.89	51732.86
523.07	52212.67
523.24	51892.02
523.41	52294.59
523.58	51667.33
523.75	52037.13
523.92	51999.68
524.10	52317.99
524.27	52493.54
524.44	52428.00
524.61	52418.64
524.78	52215.01
524.96	52645.67
525.13	52886.74
525.30	52868.02
525.47	52706.52
525.64	52830.57
525.81	53081.01
525.98	52842.27
526.16	52917.17
526.33	53048.24
526.50	53607.63
526.67	52896.11
526.84	53062.29
527.01	53350.17
527.18	53443.79
527.36	53268.25
527.53	53354.85
527.70	53530.39
527.87	53579.54
528.04	53499.97
528.21	53492.94
528.38	53724.66
528.55	53813.60
528.72	53757.42
528.89	53811.26
529.07	53565.50
529.24	53965.73
529.41	54000.84
529.58	54108.50
529.75	53897.86
529.92	53820.62
530.09	54230.21
530.26	54506.40
530.43	54492.35
530.60	54178.72
530.77	54110.85
530.94	54440.86
531.11	54164.68
531.28	54330.86
531.46	54609.38
531.63	54768.54
531.80	54583.63
531.97	54656.19
532.14	54770.88
532.31	54733.43
532.48	54873.86
532.65	54981.52
532.82	54564.91
532.99	55040.04
533.16	54815.35
533.33	55316.22
533.50	54953.44
533.67	55175.79
533.84	55077.49
534.01	55178.13
534.18	55140.68
534.35	55660.28
534.52	55185.15
534.69	55442.61
534.86	55365.37
535.03	55344.31
535.20	55463.67
535.37	55749.22
535.54	55615.81
535.71	55557.30
535.88	55770.28
536.05	55515.17
536.22	55941.14
536.38	55884.97
536.55	55763.26
536.72	55931.78
536.89	55894.33
537.06	56023.06
537.23	56067.53
537.40	55847.52
537.57	56123.71
537.74	56009.02
537.91	56198.60
538.08	56156.47
538.25	56156.47
538.42	56126.05
538.59	56540.32
538.75	56257.12
538.92	56324.99
539.09	56367.12
539.26	56456.06
539.43	56442.02
539.60	56720.54
539.77	56554.36
539.94	56935.87
540.11	56467.76
540.28	56711.18
540.44	56650.33
540.61	56912.47
540.78	56729.90
540.95	56774.37
541.12	56842.25
541.29	56769.69
541.46	56619.90
541.62	56868.00
541.79	57085.67
541.96	56619.90
542.13	56807.14
542.30	56966.30
542.47	57272.91
542.63	57277.59
542.80	57272.91
542.97	57293.97
543.14	57504.62
543.31	57434.41
543.48	57434.41
543.64	57771.44
543.81	57701.23
543.98	57623.99
544.15	57528.03
544.32	57668.46
544.48	57794.85
544.65	57794.85
544.82	57762.08
544.99	57694.21
545.16	57668.46
545.32	57776.12
545.49	57928.26
545.66	58066.35
545.83	57865.06
546.00	57855.70
546.16	57883.79
546.33	57736.34
546.50	57705.91
546.67	57925.92
546.83	57787.83
547.00	57904.85
547.17	58047.63
547.34	58033.58
547.50	58281.68
547.67	58248.91
547.84	58309.77
548.00	58433.81
548.17	58410.41
548.34	58314.45
548.51	58815.32
548.67	58604.67
548.84	58546.16
549.01	58515.73
549.18	58489.99
549.34	58305.09
549.51	58522.76
549.68	58747.45
549.84	58665.53
550.01	58691.27
550.18	58412.75
550.34	58808.30
550.51	59107.89
550.68	58714.68
550.84	58466.58
551.01	58642.12
551.18	58810.64
551.34	58820.00
551.51	58782.55
551.68	58852.77
551.84	58705.32
552.01	58684.25
552.18	59096.19
552.34	58890.22
552.51	58946.39
552.68	58845.75
552.84	59030.65
553.01	59224.92
553.18	58911.28
553.34	59194.49
553.51	58920.65
553.67	59117.25
553.84	59320.88
554.01	59309.18
554.17	59299.81
554.34	59037.67
554.51	59276.41
554.67	59367.69
554.84	59175.76
555.00	59210.87
555.17	59313.86
555.33	59271.73
555.50	59234.28
555.67	59255.34
555.83	59477.69
556.00	59489.40
556.16	59433.22
556.33	59494.08
556.50	59594.72
556.66	59838.14
556.83	59253.00
556.99	59568.97
557.16	59608.76
557.32	59683.66
557.49	59714.09
557.65	59646.21
557.82	59751.54
557.98	59817.07
558.15	59723.45
558.32	59774.94
558.48	59697.70
558.65	59711.75
558.81	59819.41
558.98	59707.07
559.14	59826.43
559.31	59952.82
559.47	59838.14
559.64	59964.52
559.80	60130.70
559.97	59917.71
560.13	59938.78
560.30	59952.82
560.46	60006.65
560.63	60034.74
560.79	60102.62
560.96	60214.96
561.12	60060.49
561.29	59987.93
561.45	60189.22
561.61	59927.08
561.78	60107.30
561.94	60097.94
562.11	60048.78
562.27	60168.15
562.44	60076.87
562.60	60261.77
562.77	60203.26
562.93	60100.28
563.10	60207.94
563.26	60100.28
563.42	60437.31
563.59	60296.88
563.75	60376.46
563.92	60168.15
564.08	60521.57
564.24	60334.33
564.41	60362.42
564.57	60495.83
564.74	60406.89
564.90	60261.77
565.07	60186.88
565.23	60451.36
565.39	60303.90
565.56	60418.59
565.72	60341.35
565.88	60383.48
566.05	60416.25
566.21	60355.39
566.38	60327.31
566.54	60652.64
566.70	60734.56
566.87	60563.70
567.03	60420.93
567.19	60662.00
567.36	60409.23
567.52	60474.76
567.68	60935.85
567.85	60631.58
568.01	60687.75
568.17	60512.21
568.34	60573.06
568.50	60547.32
568.66	60500.51
568.83	60835.20
568.99	60463.06
569.15	60561.36
569.32	60610.51
569.48	60603.49
569.64	60753.29
569.81	60701.79
569.97	60566.04
570.13	60790.73
570.30	60692.43
570.46	60872.65
570.62	60928.83
570.78	60800.10
570.95	60769.67
571.11	60699.45
571.27	60825.84
571.43	60647.96
571.60	60938.19
571.76	60851.59
571.92	60853.93
572.09	60844.57
572.25	60725.20
572.41	60788.39
572.57	60856.27
572.74	61186.28
572.90	60935.85
573.06	60912.44
573.22	60863.29
573.38	60804.78
573.55	60973.30
573.71	60975.64
573.87	60963.93
574.03	60872.65
574.20	60746.26
574.36	60624.56
574.52	60949.89
574.68	61015.43
574.84	61111.39
575.01	61073.94
575.17	60942.87
575.33	60889.04
575.49	60860.95
575.65	61137.13
575.82	61050.53
575.98	61087.98
576.14	61272.88
576.30	61127.77
576.46	60755.63
576.62	61034.15
576.79	60980.32
576.95	60938.19
577.11	61097.34
577.27	60921.80
577.43	60945.21
577.59	61045.85
577.75	60851.59
577.92	60924.14
578.08	60992.02
578.24	61197.99
578.40	61132.45
578.56	61469.49
578.72	60980.32
578.88	61146.50
579.04	61176.92
579.21	60945.21
579.37	61205.01
579.53	61275.22
579.69	61080.96
579.85	61127.77
580.01	61090.32
580.17	61029.47
580.33	61244.80
580.49	60949.89
580.65	61195.65
580.82	61055.21
580.98	60893.72
581.14	60980.32
581.30	61364.17
581.46	60992.02
581.62	61296.29
581.78	61270.54
581.94	61399.27
582.10	61151.18
582.26	61151.18
582.42	60896.06
582.58	61165.22
582.74	61160.54
582.90	61095.00
583.06	60879.67
583.22	60938.19
583.38	61226.07
583.54	61333.74
583.70	61354.80
583.86	61462.47
584.02	61027.13
584.18	61315.01
584.34	61293.95
584.50	61190.97
584.66	61043.51
584.82	61118.41
584.98	61453.11
585.14	61279.91
585.30	61134.79
585.46	61462.47
585.62	61214.37
585.78	61434.38
585.94	61160.54
586.10	61331.40
586.26	61197.99
586.42	61352.46
586.58	61513.96
586.74	61319.70
586.90	61200.33
587.06	61216.71
587.22	61509.28
587.38	61296.29
587.54	61490.55
587.70	61495.24
587.86	61317.35
588.02	61371.19
588.18	61293.95
588.34	61331.40
588.49	61268.20
