SpectraSuite Data File
++++++++++++++++++++++++++++++++++++
Date: Fri Oct 25 10:44:49 EDT 2013
User: price-jones
Dark Spectrum Present: No
Reference Spectrum Present: No
Number of Sampled Component Spectra: 1
Spectrometers: USB2+H05261
Integration Time (usec): 100000 (USB2+H05261)
Spectra Averaged: 1 (USB2+H05261)
Boxcar Smoothing: 0 (USB2+H05261)
Correct for Electrical Dark: No (USB2+H05261)
Strobe/Lamp Enabled: No (USB2+H05261)
Correct for Detector Non-linearity: No (USB2+H05261)
Correct for Stray Light: No (USB2+H05261)
Number of Pixels in Processed Spectrum: 2048
>>>>>Begin Processed Spectral Data<<<<<
365.73	163.84
365.92	163.84
366.12	163.84
366.32	2.34
366.52	74.90
366.72	25.75
366.91	14.04
367.11	53.83
367.31	60.85
367.51	91.28
367.70	58.51
367.90	23.41
368.10	18.72
368.30	77.24
368.49	14.04
368.69	0.00
368.89	14.04
369.09	28.09
369.28	46.81
369.48	46.81
369.68	79.58
369.87	79.58
370.07	53.83
370.27	124.05
370.47	168.52
370.66	325.33
370.86	407.25
371.06	468.11
371.25	447.04
371.45	369.80
371.65	444.70
371.84	437.68
372.04	374.49
372.24	334.70
372.44	463.43
372.63	528.96
372.83	524.28
373.03	493.85
373.22	411.93
373.42	418.96
373.62	433.00
373.81	540.66
374.01	456.40
374.21	411.93
374.40	507.90
374.60	580.45
374.79	561.73
374.99	531.30
375.19	458.74
375.38	505.56
375.58	631.94
375.78	578.11
375.97	573.43
376.17	615.56
376.37	543.00
376.56	599.18
376.76	531.30
376.95	575.77
377.15	620.24
377.35	559.39
377.54	601.52
377.74	564.07
377.93	535.98
378.13	610.88
378.33	589.82
378.52	620.24
378.72	723.23
378.91	634.29
379.11	720.88
379.31	748.97
379.50	552.37
379.70	650.67
379.89	638.97
380.09	676.41
380.28	603.86
380.48	737.27
380.68	655.35
380.87	589.82
381.07	716.20
381.26	685.78
381.46	629.60
381.65	653.01
381.85	716.20
382.04	713.86
382.24	699.82
382.43	664.71
382.63	650.67
382.83	653.01
383.02	727.91
383.22	727.91
383.41	699.82
383.61	688.12
383.80	807.48
384.00	713.86
384.19	737.27
384.39	622.58
384.58	767.70
384.78	767.70
384.97	723.23
385.17	760.67
385.36	622.58
385.56	744.29
385.75	723.23
385.95	786.42
386.14	772.38
386.34	699.82
386.53	807.48
386.72	805.14
386.92	784.08
387.11	816.85
387.31	732.59
387.50	805.14
387.70	919.83
387.89	791.10
388.09	753.65
388.28	786.42
388.48	903.45
388.67	894.08
388.86	894.08
389.06	816.85
389.25	854.30
389.45	912.81
389.64	884.72
389.84	915.15
390.03	866.00
390.22	947.92
390.42	861.32
390.61	863.66
390.81	903.45
391.00	882.38
391.19	964.30
391.39	924.51
391.58	943.24
391.78	985.37
391.97	1008.77
392.16	896.43
392.36	936.21
392.55	1006.43
392.75	924.51
392.94	997.07
393.13	947.92
393.33	901.11
393.52	1008.77
393.71	1013.45
393.91	973.66
394.10	917.49
394.29	1076.65
394.49	1062.60
394.68	1151.54
394.88	1083.67
395.07	1100.05
395.26	1088.35
395.46	1172.61
395.65	1097.71
395.84	1107.07
396.04	1149.20
396.23	1078.99
396.42	1107.07
396.62	1020.47
396.81	1137.50
397.00	1097.71
397.19	1146.86
397.39	1212.40
397.58	1203.04
397.77	1167.93
397.97	1334.11
398.16	1277.93
398.35	1294.32
398.55	1261.55
398.74	1308.36
398.93	1369.21
399.12	1268.57
399.32	1287.29
399.51	1383.26
399.70	1317.72
399.90	1406.66
400.09	1453.47
400.28	1373.89
400.47	1371.55
400.67	1383.26
400.86	1465.18
401.05	1359.85
401.24	1397.30
401.44	1479.22
401.63	1495.60
401.82	1521.35
402.01	1514.33
402.21	1504.96
402.40	1432.41
402.59	1521.35
402.78	1549.43
402.97	1572.84
403.17	1671.14
403.36	1465.18
403.55	1593.90
403.74	1734.34
403.93	1614.97
404.13	1657.10
404.32	1526.03
404.51	1504.96
404.70	1652.42
404.89	1678.16
405.09	1710.93
405.28	1748.38
405.47	1708.59
405.66	1790.51
405.85	1755.40
406.05	1844.34
406.24	1753.06
406.43	1797.53
406.62	1846.68
406.81	1743.70
407.00	1837.32
407.20	1844.34
407.39	1879.45
407.58	1888.81
407.77	1907.54
407.96	1856.04
408.15	1959.03
408.34	1886.47
408.54	1987.11
408.73	2008.18
408.92	1984.77
409.11	2008.18
409.30	2015.20
409.49	1959.03
409.68	2036.27
409.87	2073.71
410.07	2155.63
410.26	2146.27
410.45	2132.23
410.64	2099.46
410.83	2169.68
411.02	2223.51
411.21	2246.91
411.40	2272.66
411.59	2401.39
411.78	2286.70
411.98	2239.89
412.17	2359.26
412.36	2312.45
412.55	2520.76
412.74	2413.09
412.93	2429.48
413.12	2513.74
413.31	2509.05
413.50	2513.74
413.69	2422.45
413.88	2576.93
414.07	2499.69
414.26	2574.59
414.45	2551.18
414.64	2644.81
414.83	2731.41
415.02	2738.43
415.22	2693.96
415.41	2813.32
415.60	2712.68
415.79	2808.64
415.98	2722.04
416.17	2911.63
416.36	2946.73
416.55	2794.60
416.74	2909.29
416.93	2878.86
417.12	2899.92
417.31	2902.26
417.50	3005.25
417.69	3073.12
417.88	3117.59
418.07	3110.57
418.26	3042.70
418.45	3080.14
418.64	3229.94
418.83	3309.52
419.02	3115.25
419.21	3054.40
419.39	3251.00
419.58	3054.40
419.77	3164.40
419.96	3297.81
420.15	3281.43
420.34	3361.01
420.53	3405.48
420.72	3346.97
420.91	3475.70
421.10	3428.88
421.29	3370.37
421.48	3197.17
421.67	3398.46
421.86	3496.76
422.05	3349.31
422.24	3494.42
422.43	3494.42
422.61	3452.29
422.80	3433.57
422.99	3461.65
423.18	3531.87
423.37	3510.80
423.56	3428.88
423.75	3487.40
423.94	3466.33
424.13	3204.19
424.32	3311.86
424.50	3578.68
424.69	3620.81
424.88	3698.05
425.07	3602.08
425.26	3592.72
425.45	3541.23
425.64	3513.14
425.83	3452.29
426.01	3702.73
426.20	3632.51
426.39	3655.92
426.58	3559.95
426.77	3602.08
426.96	3592.72
427.15	3538.89
427.33	3611.45
427.52	3597.40
427.71	3595.06
427.90	3623.15
428.09	3772.94
428.28	3857.20
428.46	3744.86
428.65	3761.24
428.84	3845.50
429.03	3831.46
429.22	3779.97
429.40	3761.24
429.59	3880.61
429.78	3665.28
429.97	3590.38
430.16	3681.66
430.34	3873.59
430.53	3904.01
430.72	3847.84
430.91	3861.88
431.10	3999.98
431.28	4170.83
431.47	4135.73
431.66	4245.73
431.85	4147.43
432.03	4152.11
432.22	4201.26
432.41	4196.58
432.60	4203.60
432.79	4231.69
432.97	4222.33
433.16	4287.86
433.35	4290.20
433.54	4222.33
433.72	4245.73
433.91	4264.46
434.10	4294.88
434.28	4081.89
434.47	4369.78
434.66	4360.42
434.85	4365.10
435.03	4425.95
435.22	4341.69
435.41	4496.17
435.59	4596.81
435.78	4627.24
435.97	4528.94
436.16	4475.10
436.34	4580.43
436.53	4692.77
436.72	4833.21
436.90	4456.38
437.09	4758.31
437.28	4676.39
437.46	4645.96
437.65	4777.03
437.84	4830.87
438.02	4788.74
438.21	4643.62
438.40	4624.90
438.58	4812.14
438.77	4908.10
438.96	4980.66
439.14	4992.36
439.33	5032.15
439.52	5043.85
439.70	5039.17
439.89	5210.03
440.08	5231.10
440.26	5259.18
440.45	5219.39
440.63	5345.78
440.82	5387.91
441.01	5331.74
441.19	5320.04
441.38	5411.32
441.57	5467.49
441.75	5659.42
441.94	5636.01
442.12	5713.25
442.31	5659.42
442.50	5764.74
442.68	5682.82
442.87	5638.35
443.05	5659.42
443.24	5708.57
443.43	5827.93
443.61	5727.29
443.80	5748.36
443.98	5755.38
444.17	5558.77
444.35	5757.72
444.54	5832.62
444.73	5818.57
444.91	5909.85
445.10	5813.89
445.28	5788.14
445.47	5877.09
445.65	5748.36
445.84	5818.57
446.02	5907.51
446.21	5858.36
446.39	5935.60
446.58	5973.05
446.77	5933.26
446.95	5968.37
447.14	5984.75
447.32	6127.52
447.51	6033.90
447.69	6071.35
447.88	6017.52
448.06	6015.18
448.25	6066.67
448.43	6043.26
448.62	5980.07
448.80	6029.22
448.99	6237.53
449.17	6296.04
449.36	6146.25
449.54	6274.98
449.73	6274.98
449.91	6389.66
450.10	6270.30
450.28	6438.81
450.46	6370.94
450.65	6567.54
450.83	6607.33
451.02	6413.07
451.20	6455.20
451.39	6581.59
451.57	6380.30
451.76	6375.62
451.94	6588.61
452.13	6476.26
452.31	6530.09
452.49	6476.26
452.68	6565.20
452.86	6532.44
453.05	6654.14
453.23	6623.72
453.42	6726.70
453.60	6553.50
453.78	6604.99
453.97	6670.53
454.15	6586.27
454.34	6703.29
454.52	6803.94
454.70	6710.32
454.89	6754.79
455.07	6745.42
455.26	6892.88
455.44	7105.87
455.62	6932.67
455.81	6890.54
455.99	6951.39
456.17	7056.72
456.36	6895.22
456.54	7180.76
456.73	7255.66
456.91	7183.10
457.09	7194.81
457.28	7279.07
457.46	7236.94
457.64	7419.50
457.83	7351.62
458.01	7159.70
458.19	7452.27
458.38	7466.31
458.56	7356.30
458.74	7438.22
458.93	7555.25
459.11	7342.26
459.29	7384.39
459.48	7618.44
459.66	7660.57
459.84	7328.22
460.03	7763.56
460.21	7644.19
460.39	7630.15
460.57	7536.52
460.76	7880.58
460.94	7754.19
461.12	7922.71
461.31	7962.50
461.49	7782.28
461.67	7723.77
461.85	7939.10
462.04	7805.69
462.22	8046.76
462.40	8166.13
462.59	8018.68
462.77	7983.57
462.95	8011.65
463.13	8030.38
463.32	8016.33
463.50	8084.21
463.68	8058.46
463.86	8201.24
464.05	8070.17
464.23	8116.98
464.41	8224.64
464.59	8023.36
464.78	8435.29
464.96	8278.47
465.14	7925.05
465.32	8369.76
465.50	8325.29
465.69	8386.14
465.87	8287.84
466.05	8346.35
466.23	8163.79
466.41	8409.54
466.60	8475.08
466.78	8315.92
466.96	8336.99
467.14	8381.46
467.32	8439.97
467.51	8688.07
467.69	8395.50
467.87	8578.06
468.05	8793.39
468.23	8512.53
468.41	8510.19
468.60	8634.24
468.78	8615.51
468.96	8575.72
469.14	8879.99
469.32	8950.21
469.50	8554.66
469.69	8837.86
469.87	9055.53
470.05	9048.51
470.23	8997.02
470.41	8828.50
470.59	9090.64
470.77	9100.00
470.95	9032.13
471.14	9170.22
471.32	9144.47
471.50	9425.34
471.68	9385.55
471.86	9423.00
472.04	9359.80
472.22	9497.89
472.40	9308.31
472.58	9523.64
472.77	9668.75
472.95	9598.54
473.13	9907.49
473.31	9600.88
473.49	9582.15
473.67	9657.05
473.85	9708.54
474.03	9783.44
474.21	9954.30
474.39	10094.73
474.57	10148.56
474.75	10087.71
474.93	10113.45
475.12	10303.04
475.30	10228.14
475.48	10342.83
475.66	10279.63
475.84	10204.74
476.02	10384.96
476.20	10328.78
476.38	10616.67
476.56	10895.19
476.74	10668.16
476.92	10729.02
477.10	10902.22
477.28	10913.92
477.46	10850.72
477.64	11009.88
477.82	11410.11
478.00	11485.01
478.18	11412.45
478.36	11452.24
478.54	11660.55
478.72	11639.48
478.90	11281.38
479.08	11796.30
479.26	12004.61
479.44	12039.72
479.62	12006.95
479.80	12100.57
479.98	12187.17
480.16	12313.56
480.34	12208.23
480.52	12306.54
480.70	12613.15
480.88	12498.46
481.06	12582.72
481.24	12751.24
481.41	12922.10
481.59	12858.90
481.77	13104.66
481.95	13217.01
482.13	13291.90
482.31	13245.09
482.49	13537.66
482.67	13252.11
482.85	13729.58
483.03	14033.85
483.21	13792.78
483.39	13837.25
483.57	13895.76
483.74	14171.94
483.92	14183.65
484.10	14253.86
484.28	14483.24
484.46	14597.92
484.64	14764.10
484.82	14719.63
485.00	15185.40
485.18	15000.49
485.35	15260.29
485.53	14941.98
485.71	15023.90
485.89	15442.85
486.07	15391.36
486.25	15454.56
486.43	15566.90
486.61	15597.33
486.78	15887.56
486.96	16147.36
487.14	16219.91
487.32	16308.85
487.50	16496.10
487.68	16718.45
487.85	16872.92
488.03	16847.18
488.21	16996.97
488.39	17123.36
488.57	17249.75
488.75	17436.99
488.92	17425.29
489.10	17657.00
489.28	17532.95
489.46	17853.61
489.64	17982.34
489.81	18398.95
489.99	18391.93
490.17	18384.91
490.35	18853.02
490.53	18572.15
490.70	18782.80
490.88	18764.07
491.06	19501.34
491.24	18782.80
491.41	19047.28
491.59	19342.19
491.77	19047.28
491.95	19309.42
492.13	19576.24
492.30	19826.68
492.48	19822.00
492.66	20313.51
492.84	19943.70
493.01	20046.69
493.19	20196.48
493.37	20528.84
493.54	20535.86
493.72	20889.28
493.90	20397.77
494.08	20837.79
494.25	21380.79
494.43	21146.74
494.61	21493.14
494.79	21408.88
494.96	21809.11
495.14	21270.79
495.32	21783.37
495.49	21949.54
495.67	21923.80
495.85	22157.85
496.02	22478.50
496.20	22480.85
496.38	22331.05
496.55	22546.38
496.73	22778.09
496.91	22682.13
497.09	23035.55
497.26	23307.05
497.44	22647.02
497.62	23302.37
497.79	23541.11
497.97	23204.07
498.14	23356.21
498.32	23613.66
498.50	23852.40
498.67	23847.72
498.85	23899.21
499.03	24121.56
499.20	24327.53
499.38	24173.05
499.56	24393.06
499.73	24369.66
499.91	24566.26
500.08	24882.24
500.26	24540.52
500.44	24643.50
500.61	24978.20
500.79	24713.72
500.97	25153.74
501.14	25181.82
501.32	25146.72
501.49	25109.27
501.67	25235.66
501.84	25359.70
502.02	25352.68
502.20	25539.93
502.37	25699.08
502.55	25490.77
502.72	26073.57
502.90	26047.82
503.07	25809.09
503.25	26424.65
503.43	25823.13
503.60	26209.32
503.78	25813.77
503.95	26260.81
504.13	26171.87
504.30	26771.05
504.48	26527.63
504.65	26527.63
504.83	26892.76
505.01	27147.87
505.18	26817.86
505.36	27206.39
505.53	27215.75
505.71	27395.97
505.88	27543.42
506.06	27246.18
506.23	27707.26
506.41	27655.77
506.58	27894.50
506.76	27585.55
506.93	28091.11
507.11	27725.99
507.28	27735.35
507.46	27803.22
507.63	27758.75
507.81	28114.52
507.98	27688.54
508.16	27988.13
508.33	28261.97
508.50	28526.45
508.68	28531.13
508.85	29216.91
509.03	28631.77
509.20	29010.94
509.38	28826.04
509.55	28655.18
509.73	29113.92
509.90	29371.38
510.08	29170.10
510.25	29289.46
510.42	29315.21
510.60	29886.30
510.77	29687.36
510.95	29783.32
511.12	29858.21
511.30	29930.77
511.47	29954.18
511.64	30483.14
511.82	30092.27
511.99	29661.61
512.17	30209.29
512.34	29996.31
512.51	30218.66
512.69	30682.08
512.86	30670.38
513.04	30714.85
513.21	30630.59
513.38	30785.07
513.56	30593.14
513.73	30649.32
513.90	30967.63
514.08	30768.68
514.25	31260.20
514.43	31323.39
514.60	30726.55
514.77	31459.14
514.95	31477.86
515.12	31124.44
515.29	31152.53
515.47	31861.71
515.64	31786.82
515.81	31686.17
515.99	31732.98
516.16	31721.28
516.33	31625.32
516.51	31751.71
516.68	31651.06
516.85	31386.58
517.03	31945.97
517.20	31873.42
517.37	32418.76
517.54	32201.09
517.72	32081.72
517.89	31976.40
518.06	31983.42
518.24	31845.33
518.41	32250.24
518.58	32210.45
518.75	32252.58
518.93	32580.26
519.10	32889.21
519.27	33102.20
519.45	32811.97
519.62	32776.86
519.79	32840.06
519.96	33113.90
520.14	33352.63
520.31	33237.95
520.48	33057.73
520.65	33289.44
520.83	34246.72
521.00	33729.46
521.17	33661.58
521.34	33762.23
521.52	33392.42
521.69	33869.89
521.86	34094.58
522.03	33982.24
522.20	34330.98
522.38	34148.42
522.55	34246.72
522.72	33984.58
522.89	34487.79
523.07	34202.25
523.24	34693.76
523.41	34417.58
523.58	34525.24
523.75	34541.63
523.92	35063.57
524.10	34981.65
524.27	35005.05
524.44	35168.89
524.61	35098.67
524.78	35145.48
524.96	35346.77
525.13	35477.84
525.30	35377.20
525.47	35487.20
525.64	35634.66
525.81	35342.09
525.98	35337.41
526.16	35466.14
526.33	35491.88
526.50	35201.66
526.67	35264.85
526.84	35466.14
527.01	35199.32
527.18	35503.59
527.36	35819.56
527.53	36032.55
527.70	36208.09
527.87	36430.44
528.04	36322.77
528.21	36484.27
528.38	36236.17
528.55	36336.82
528.72	36287.67
528.89	36329.80
529.07	36446.82
529.24	36224.47
529.41	36790.88
529.58	36760.45
529.75	36245.54
529.92	36921.95
530.09	36825.99
530.26	36444.48
530.43	36823.65
530.60	36552.15
530.77	36669.17
530.94	37046.00
531.11	37296.44
531.28	37212.18
531.46	37017.91
531.63	37282.39
531.80	37074.09
531.97	36917.27
532.14	37053.02
532.31	37345.59
532.48	37862.85
532.65	37448.57
532.82	37621.77
532.99	37483.68
533.16	37060.04
533.33	38127.33
533.50	37921.36
533.67	37930.72
533.84	37699.01
534.01	38234.99
534.18	37567.94
534.35	38230.31
534.52	38293.50
534.69	38148.39
534.86	37935.40
535.03	37947.11
535.20	38361.38
535.37	38581.39
535.54	38600.12
535.71	38054.77
535.88	38305.21
536.05	38195.20
536.22	38515.86
536.38	38295.85
536.55	38689.06
536.72	38452.66
536.89	38396.49
537.06	38450.32
537.23	38955.88
537.40	38288.82
537.57	38487.77
537.74	38866.94
537.91	38930.13
538.08	38794.38
538.25	38806.08
538.42	38848.21
538.59	39316.32
538.75	38675.01
538.92	39185.25
539.09	39173.55
539.26	39129.08
539.43	38972.26
539.60	39012.05
539.77	38756.93
539.94	39105.67
540.11	39328.02
540.28	39311.64
540.44	39365.47
540.61	38890.34
540.78	39377.17
540.95	39789.11
541.12	39398.24
541.29	39655.70
541.46	39302.28
541.62	39503.56
541.79	40168.27
541.96	39604.20
542.13	40194.02
542.30	39428.66
542.47	39693.15
542.63	39796.13
542.80	40208.06
542.97	40840.01
543.14	40751.07
543.31	40428.07
543.48	40641.06
543.64	40926.61
543.81	40552.12
543.98	40989.80
544.15	40273.60
544.32	40828.30
544.48	41158.32
544.65	40542.76
544.82	40641.06
544.99	40048.91
545.16	40762.77
545.32	40411.69
545.49	40980.44
545.66	40914.90
545.83	41146.62
546.00	41284.71
546.16	41233.22
546.33	40950.01
546.50	40715.96
546.67	40994.48
546.83	41064.70
547.00	40954.69
547.17	40835.33
547.34	40903.20
547.50	41397.06
547.67	41256.62
547.84	41406.42
548.00	41511.74
548.17	41677.92
548.34	41397.06
548.51	41928.36
548.67	41961.12
548.84	41542.17
549.01	41305.77
549.18	41397.06
549.34	41710.69
549.51	41158.32
549.68	41991.55
549.84	42031.34
550.01	41911.97
550.18	42277.10
550.34	42284.12
550.51	41778.56
550.68	41867.50
550.84	41586.64
551.01	41825.37
551.18	41944.74
551.34	41593.66
551.51	42265.39
551.68	42340.29
551.84	42054.75
552.01	42007.94
552.18	42312.20
552.34	42103.90
552.51	42307.52
552.68	42316.89
552.84	42143.69
553.01	42260.71
553.18	42691.37
553.34	42466.68
553.51	42284.12
553.67	42244.33
553.84	42824.78
554.01	42686.69
554.17	42983.94
554.34	42852.87
554.51	42450.30
554.67	42831.80
554.84	42834.14
555.00	42607.11
555.17	42674.99
555.33	43070.54
555.50	42583.71
555.67	42546.26
555.83	42597.75
556.00	42635.20
556.16	43110.33
556.33	43320.98
556.50	42609.45
556.66	42623.50
556.83	42829.46
556.99	43061.18
557.16	42859.89
557.32	42902.02
557.49	43140.75
557.65	42803.72
557.82	42937.13
557.98	43248.42
558.15	42848.19
558.32	43255.44
558.48	43283.53
558.65	43196.93
558.81	42920.74
558.98	43416.94
559.14	43173.52
559.31	43260.12
559.47	43559.71
559.64	43807.81
559.80	43512.90
559.97	42946.49
560.13	43290.55
560.30	43161.82
560.46	43299.91
560.63	43201.61
560.79	43665.03
560.96	43601.84
561.12	43772.70
561.29	43564.39
561.45	43201.61
561.61	43421.62
561.78	43328.00
561.94	43239.06
562.11	43669.72
562.27	43255.44
562.44	43409.92
562.60	43597.16
562.77	43529.28
562.93	43728.23
563.10	43505.88
563.26	43189.91
563.42	43936.54
563.59	43124.37
563.75	43564.39
563.92	43730.57
564.08	43756.32
564.24	44088.67
564.41	44046.54
564.57	43988.03
564.74	43805.47
564.90	43845.26
565.07	43709.50
565.23	44076.97
565.39	43957.60
565.56	43601.84
565.72	43489.49
565.88	44107.40
566.05	43978.67
566.21	43728.23
566.38	43814.83
566.54	44083.99
566.70	44133.14
566.87	44491.24
567.03	43976.33
567.19	44219.74
567.36	43948.24
567.52	43641.63
567.68	44051.22
567.85	43833.55
568.01	43503.54
568.17	43828.87
568.34	44542.74
568.50	43936.54
568.66	44144.84
568.83	44081.65
568.99	43814.83
569.15	43821.85
569.32	43267.14
569.48	43847.60
569.64	44093.35
569.81	43753.97
569.97	44048.88
570.13	44472.52
570.30	43484.81
570.46	43929.51
570.62	43669.72
570.78	44343.79
570.95	43927.17
571.11	44556.78
571.27	43768.02
571.43	43906.11
571.60	44133.14
571.76	44147.18
571.92	44432.73
572.09	44271.23
572.25	44388.26
572.41	44079.31
572.57	44481.88
572.74	44746.36
572.90	44095.69
573.06	44547.42
573.22	44018.46
573.38	44020.80
573.55	44240.81
573.71	44247.83
573.87	44140.16
574.03	44011.43
574.20	44109.74
574.36	44261.87
574.52	44472.52
574.68	44067.61
574.84	44521.67
575.01	44161.23
575.17	44371.88
575.33	44201.02
575.49	44233.78
575.65	44472.52
575.82	44179.95
575.98	44638.70
576.14	44343.79
576.30	44697.21
576.46	44341.45
576.62	44236.12
576.79	44528.69
576.95	43969.30
577.11	44456.14
577.27	44266.55
577.43	44301.66
577.59	44807.22
577.75	44245.49
577.92	43995.05
578.08	43742.27
578.24	43913.13
578.40	44339.11
578.56	44435.07
578.72	44404.64
578.88	44842.32
579.04	44507.63
579.21	44381.24
579.37	44512.31
579.53	44355.49
579.69	43999.73
579.85	44634.02
580.01	44406.98
580.17	44322.72
580.33	44463.16
580.49	44624.65
580.65	44519.33
580.82	44542.74
580.98	44341.45
581.14	44196.34
581.30	44701.89
581.46	44898.50
581.62	44376.56
581.78	44666.78
581.94	44802.53
582.10	44423.37
582.26	44524.01
582.42	44486.56
582.58	44423.37
582.74	44397.62
582.90	44346.13
583.06	44832.96
583.22	44989.78
583.38	44818.92
583.54	45041.27
583.70	44615.29
583.86	44423.37
584.02	44137.82
584.18	44601.25
584.34	44428.05
584.50	44514.65
584.66	44364.85
584.82	44098.03
584.98	44484.22
585.14	44893.82
585.30	44168.25
585.46	44446.77
585.62	44198.68
585.78	44458.48
585.94	44301.66
586.10	44437.41
586.26	44645.72
586.42	44477.20
586.58	44994.46
586.74	44926.58
586.90	44587.21
587.06	44318.04
587.22	44706.57
587.38	44109.74
587.54	44636.36
587.70	44540.39
587.86	44453.79
588.02	44610.61
588.18	44605.93
588.34	44399.96
588.49	44491.24
588.65	44376.56
588.81	44105.06
588.97	44863.39
589.13	44329.75
589.29	44556.78
589.45	44753.38
589.61	44641.04
589.77	44336.77
589.93	44715.93
590.08	45031.91
590.24	44531.03
