SpectraSuite Data File
++++++++++++++++++++++++++++++++++++
Date: Fri Oct 25 11:26:28 EDT 2013
User: price-jones
Dark Spectrum Present: No
Reference Spectrum Present: No
Number of Sampled Component Spectra: 1
Spectrometers: USB2+H05261
Integration Time (usec): 100000 (USB2+H05261)
Spectra Averaged: 1 (USB2+H05261)
Boxcar Smoothing: 0 (USB2+H05261)
Correct for Electrical Dark: No (USB2+H05261)
Strobe/Lamp Enabled: No (USB2+H05261)
Correct for Detector Non-linearity: No (USB2+H05261)
Correct for Stray Light: No (USB2+H05261)
Number of Pixels in Processed Spectrum: 2048
>>>>>Begin Processed Spectral Data<<<<<
365.73	257.46
365.92	257.46
366.12	257.46
366.32	105.32
366.52	187.24
366.72	198.95
366.91	128.73
367.11	135.75
367.31	175.54
367.51	119.37
367.70	168.52
367.90	140.43
368.10	124.05
368.30	182.56
368.49	131.07
368.69	212.99
368.89	114.69
369.09	102.98
369.28	173.20
369.48	124.05
369.68	259.80
369.87	140.43
370.07	205.97
370.27	220.01
370.47	334.70
370.66	585.13
370.86	608.54
371.06	589.82
371.25	699.82
371.45	683.44
371.65	660.03
371.84	695.14
372.04	732.59
372.24	713.86
372.44	706.84
372.63	725.57
372.83	753.65
373.03	786.42
373.22	777.06
373.42	610.88
373.62	781.74
373.81	751.31
374.01	896.43
374.21	833.23
374.40	809.83
374.60	896.43
374.79	842.59
374.99	786.42
375.19	882.38
375.38	856.64
375.58	807.48
375.78	891.74
375.97	798.12
376.17	990.05
376.37	884.72
376.56	901.11
376.76	863.66
376.95	821.53
377.15	807.48
377.35	961.96
377.54	924.51
377.74	924.51
377.93	933.87
378.13	929.19
378.33	961.96
378.52	943.24
378.72	961.96
378.91	947.92
379.11	889.40
379.31	1001.75
379.50	936.21
379.70	964.30
379.89	1071.97
380.09	992.39
380.28	1043.88
380.48	1004.09
380.68	1034.52
380.87	983.02
381.07	950.26
381.26	1029.84
381.46	1046.22
381.65	1053.24
381.85	1043.88
382.04	1027.50
382.24	1048.56
382.43	1048.56
382.63	1071.97
382.83	1027.50
383.02	1036.86
383.22	1160.91
383.41	1022.81
383.61	1142.18
383.80	1146.86
384.00	1174.95
384.19	1142.18
384.39	1174.95
384.58	1200.69
384.78	1135.16
384.97	1196.01
385.17	1146.86
385.36	1210.06
385.56	1123.46
385.75	1277.93
385.95	1184.31
386.14	1116.44
386.34	1153.88
386.53	1226.44
386.72	1186.65
386.92	1341.13
387.11	1221.76
387.31	1217.08
387.50	1252.19
387.70	1210.06
387.89	1369.21
388.09	1275.59
388.28	1226.44
388.48	1287.29
388.67	1329.42
388.86	1383.26
389.06	1355.17
389.25	1254.53
389.45	1259.21
389.64	1359.85
389.84	1327.08
390.03	1387.94
390.22	1399.64
390.42	1411.34
390.61	1420.71
390.81	1378.58
391.00	1432.41
391.19	1502.62
391.39	1413.68
391.58	1488.58
391.78	1523.69
391.97	1542.41
392.16	1458.15
392.36	1439.43
392.55	1521.35
392.75	1535.39
392.94	1514.33
393.13	1579.86
393.33	1493.26
393.52	1521.35
393.71	1577.52
393.91	1554.12
394.10	1533.05
394.29	1680.50
394.49	1636.03
394.68	1528.37
394.88	1694.55
395.07	1701.57
395.26	1605.61
395.46	1657.10
395.65	1739.02
395.84	1781.15
396.04	1757.74
396.23	1696.89
396.42	1717.95
396.62	1753.06
396.81	1724.97
397.00	1809.23
397.19	1776.47
397.39	1823.28
397.58	1879.45
397.77	1895.83
397.97	1858.39
398.16	1816.26
398.35	1907.54
398.55	1959.03
398.74	1837.32
398.93	1954.35
399.12	1926.26
399.32	1921.58
399.51	1900.52
399.70	1977.75
399.90	1991.80
400.09	2019.88
400.28	2036.27
400.47	2057.33
400.67	2017.54
400.86	2043.29
401.05	2127.55
401.24	2073.71
401.44	2125.21
401.63	2141.59
401.82	2148.61
402.01	2150.95
402.21	2157.97
402.40	2251.60
402.59	2204.78
402.78	2272.66
402.97	2122.87
403.17	2218.83
403.36	2279.68
403.55	2249.25
403.74	2342.88
403.93	2307.77
404.13	2284.36
404.32	2377.98
404.51	2312.45
404.70	2380.32
404.89	2487.99
405.09	2551.18
405.28	2441.18
405.47	2502.03
405.66	2583.95
405.85	2450.54
406.05	2546.50
406.24	2590.97
406.43	2530.12
406.62	2677.57
406.81	2567.57
407.00	2485.65
407.20	2527.78
407.39	2656.51
407.58	2635.44
407.77	2675.23
407.96	2679.91
408.15	2822.69
408.34	2766.51
408.54	2757.15
408.73	2717.36
408.92	2897.58
409.11	2895.24
409.30	2897.58
409.49	2916.31
409.68	2771.19
409.87	2904.60
410.07	3035.67
410.26	2972.48
410.45	3105.89
410.64	3155.04
410.83	3222.92
411.02	3108.23
411.21	3052.06
411.40	3014.61
411.59	3220.58
411.78	3136.32
411.98	3185.47
412.17	3178.45
412.36	3290.79
412.55	3339.94
412.74	3386.76
412.93	3447.61
413.12	3353.99
413.31	3510.80
413.50	3435.91
413.69	3499.10
413.88	3632.51
414.07	3637.19
414.26	3545.91
414.45	3688.68
414.64	3620.81
414.83	3698.05
415.02	3735.50
415.22	3791.67
415.41	3845.50
415.60	3929.76
415.79	3948.48
415.98	3908.69
416.17	3925.08
416.36	3962.53
416.55	3941.46
416.74	4119.34
416.93	3971.89
417.12	4147.43
417.31	3985.93
417.50	4105.30
417.69	4252.75
417.88	4297.22
418.07	4191.90
418.26	4149.77
418.45	4440.00
418.64	4468.08
418.83	4407.23
419.02	4379.14
419.21	4615.54
419.39	4528.94
419.58	4594.47
419.77	4386.16
419.96	4528.94
420.15	4535.96
420.34	4615.54
420.53	4550.00
420.72	4828.53
420.91	4652.98
421.10	4751.29
421.29	4793.42
421.48	4674.05
421.67	4690.43
421.86	4887.04
422.05	4823.84
422.24	4636.60
422.43	5008.75
422.61	4915.12
422.80	4940.87
422.99	4966.62
423.18	4873.00
423.37	5006.41
423.56	4952.57
423.75	4966.62
423.94	4865.97
424.13	4711.50
424.32	4882.36
424.50	5064.92
424.69	4856.61
424.88	5022.79
425.07	4814.48
425.26	4748.95
425.45	4873.00
425.64	5032.15
425.83	5055.56
426.01	5046.20
426.20	5078.96
426.39	5027.47
426.58	4999.38
426.77	4926.83
426.96	5165.56
427.15	5245.14
427.33	5224.08
427.52	5277.91
427.71	5432.38
427.90	5093.01
428.09	5240.46
428.28	5401.96
428.46	5394.93
428.65	5235.78
428.84	5568.13
429.03	5490.90
429.22	5341.10
429.40	5458.13
429.59	5458.13
429.78	5359.83
429.97	5296.63
430.16	5432.38
430.34	5500.26
430.53	5666.44
430.72	5750.70
430.91	5724.95
431.10	5596.22
431.28	5734.31
431.47	5844.32
431.66	5827.93
431.85	5823.25
432.03	5928.58
432.22	5879.43
432.41	5769.42
432.60	5984.75
432.79	5841.98
432.97	5753.04
433.16	5874.74
433.35	6127.52
433.54	6019.86
433.72	6120.50
433.91	6122.84
434.10	6146.25
434.28	5998.79
434.47	6136.88
434.66	6387.32
434.85	6263.27
435.03	6242.21
435.22	6197.74
435.41	6415.41
435.59	6300.72
435.78	6396.68
435.97	6380.30
436.16	6492.65
436.34	6324.13
436.53	6450.52
436.72	6476.26
436.90	6317.11
437.09	6530.09
437.28	6572.22
437.46	6509.03
437.65	6717.34
437.84	6736.06
438.02	6775.85
438.21	6686.91
438.40	6345.19
438.58	6972.46
438.77	7007.56
438.96	6906.92
439.14	6988.84
439.33	7199.49
439.52	7232.26
439.70	7185.44
439.89	7173.74
440.08	7478.01
440.26	7272.04
440.45	7276.73
440.63	7606.74
440.82	7569.29
441.01	7501.42
441.19	7311.83
441.38	7602.06
441.57	7625.47
441.75	7707.38
441.94	7875.90
442.12	8018.68
442.31	7932.08
442.50	8011.65
442.68	8021.02
442.87	8056.12
443.05	8063.15
443.24	8074.85
443.43	7995.27
443.61	8231.66
443.80	8423.59
443.98	8184.85
444.17	7859.52
444.35	8243.37
444.54	8215.28
444.73	8226.98
444.91	8470.40
445.10	8210.60
445.28	8215.28
445.47	8245.71
445.65	8135.70
445.84	8610.83
446.02	8610.83
446.21	8329.97
446.39	8430.61
446.58	8390.82
446.77	8339.33
446.95	8482.10
447.14	8365.07
447.32	8711.47
447.51	8533.59
447.69	8622.53
447.88	8674.03
448.06	8524.23
448.25	8381.46
448.43	8678.71
448.62	8528.91
448.80	8538.27
448.99	8599.13
449.17	8793.39
449.36	8676.37
449.54	9029.79
449.73	8908.08
449.91	9011.06
450.10	8961.91
450.28	9132.77
450.46	9139.79
450.65	9011.06
450.83	9118.73
451.02	9036.81
451.20	9270.86
451.39	9081.28
451.57	9315.33
451.76	9193.62
451.94	9022.77
452.13	9139.79
452.31	9238.09
452.49	9327.03
452.68	9413.63
452.86	9540.02
453.05	9568.11
453.23	9472.15
453.42	9371.50
453.60	9460.45
453.78	9518.96
453.97	9369.16
454.15	9610.24
454.34	9322.35
454.52	9661.73
454.70	9816.21
454.89	9699.18
455.07	9533.00
455.26	9731.95
455.44	9881.74
455.62	9830.25
455.81	10022.17
455.99	9977.70
456.17	9975.36
456.36	9912.17
456.54	10239.84
456.73	10417.72
456.91	10366.23
457.09	10263.25
457.28	10562.84
457.46	10443.47
457.64	10443.47
457.83	10258.57
458.01	10471.56
458.19	10553.48
458.38	10738.38
458.56	10766.46
458.74	10668.16
458.93	10782.85
459.11	10799.23
459.29	10752.42
459.48	10970.09
459.66	10607.31
459.84	10820.30
460.03	11002.86
460.21	10876.47
460.39	10960.73
460.57	10979.45
460.76	11098.82
460.94	11253.30
461.12	11150.31
461.31	11157.33
461.49	10960.73
461.67	11321.17
461.85	11412.45
462.04	11307.13
462.22	11658.21
462.40	11300.11
462.59	11623.10
462.77	11405.43
462.95	11763.53
463.13	11536.50
463.32	11517.78
463.50	11623.10
463.68	11655.87
463.86	11756.51
464.05	11473.31
464.23	11833.75
464.41	11983.54
464.59	11571.61
464.78	12173.13
464.96	12084.19
465.14	11864.18
465.32	11941.41
465.50	11878.22
465.69	12056.10
465.87	12081.85
466.05	12170.79
466.23	12079.50
466.41	12276.11
466.60	12407.18
466.78	12168.45
466.96	11864.18
467.14	12294.83
467.32	12325.26
467.51	12552.29
467.69	12292.49
467.87	12521.87
468.05	12376.75
468.23	12428.24
468.41	12421.22
468.60	12702.09
468.78	12610.81
468.96	12624.85
469.14	12704.43
469.32	12891.67
469.50	12475.06
469.69	13034.44
469.87	13020.40
470.05	12978.27
470.23	13078.91
470.41	13121.04
470.59	13076.57
470.77	13191.26
470.95	13305.95
471.14	13472.12
471.32	13032.10
471.50	13439.36
471.68	13500.21
471.86	13755.33
472.04	13839.59
472.22	14008.11
472.40	13614.90
472.58	13607.87
472.77	13994.06
472.95	14185.99
473.13	14574.52
473.31	14092.37
473.49	14038.53
473.67	14310.04
473.85	14237.48
474.03	14431.74
474.21	14413.02
474.39	14874.10
474.57	14574.52
474.75	14672.82
474.93	14682.18
475.12	14956.02
475.30	15161.99
475.48	15091.77
475.66	15096.46
475.84	15332.85
476.02	15276.68
476.20	15459.24
476.38	15564.56
476.56	16020.97
476.74	15943.73
476.92	15866.49
477.10	15831.38
477.28	16112.25
477.46	16128.63
477.64	16442.26
477.82	16631.85
478.00	16711.42
478.18	16783.98
478.36	16772.28
478.54	16961.86
478.72	17149.11
478.90	17397.20
479.08	17420.61
479.26	17827.86
479.44	17610.19
479.62	17886.37
479.80	17942.55
479.98	18047.87
480.16	18464.49
480.34	18328.74
480.52	18682.16
480.70	18633.00
480.88	18448.10
481.06	18728.97
481.24	18965.36
481.41	19119.84
481.59	19335.17
481.77	19529.43
481.95	19454.53
482.13	19641.78
482.31	19662.84
482.49	20257.34
482.67	20250.32
482.85	20622.46
483.03	20652.89
483.21	20737.15
483.39	20957.16
483.57	21144.40
483.74	20877.58
483.92	21401.86
484.10	21373.77
484.28	21406.54
484.46	22092.32
484.64	22272.54
484.82	21942.52
485.00	22497.23
485.18	22867.03
485.35	22813.20
485.53	22785.12
485.71	23365.57
485.89	23328.12
486.07	23405.36
486.25	23206.41
486.43	23775.16
486.61	23955.38
486.78	23850.06
486.96	24009.22
487.14	24739.46
487.32	24180.07
487.50	25025.01
487.68	25064.80
487.85	25001.60
488.03	25287.15
488.21	25895.69
488.39	25713.13
488.57	25921.43
488.75	26532.31
488.92	26302.94
489.10	26740.62
489.28	26726.58
489.46	27262.56
489.64	26906.80
489.81	27644.07
489.99	27248.52
490.17	27461.51
490.35	28093.45
490.53	27913.23
490.70	28058.34
490.88	28369.63
491.06	28606.03
491.24	28341.55
491.41	29399.47
491.59	29071.79
491.77	29071.79
491.95	29301.17
492.13	29441.60
492.30	29979.92
492.48	30071.20
492.66	30326.32
492.84	30560.37
493.01	30391.86
493.19	30771.02
493.37	31246.15
493.54	30717.19
493.72	31353.82
493.90	31555.10
494.08	31524.68
494.25	31922.57
494.43	32128.53
494.61	32210.45
494.79	32144.92
494.96	32552.17
495.14	32617.71
495.32	33017.94
495.49	32769.84
495.67	33497.75
495.85	33439.23
496.02	33722.44
496.20	33930.75
496.38	33743.50
496.55	33668.61
496.73	34829.51
496.91	34359.06
497.09	34787.38
497.26	34796.74
497.44	34607.16
497.62	34742.91
497.79	35545.72
497.97	35468.48
498.14	35784.45
498.32	35920.20
498.50	35952.97
498.67	36334.48
498.85	36311.07
499.03	36793.22
499.20	36720.66
499.38	36835.35
499.56	36957.06
499.73	36701.94
499.91	37572.62
500.08	37839.44
500.26	37219.20
500.44	37378.36
500.61	37888.59
500.79	37539.85
500.97	38192.86
501.14	38541.60
501.32	38286.48
501.49	38635.22
501.67	38342.66
501.84	39007.37
502.02	38843.53
502.20	38536.92
502.37	39072.90
502.55	39108.01
502.72	39412.28
502.90	39189.93
503.07	39262.49
503.25	39821.87
503.43	39267.17
503.60	39910.82
503.78	39959.97
503.95	40245.51
504.13	40620.00
504.30	40535.74
504.48	40259.55
504.65	40741.71
504.83	41020.23
505.01	41076.40
505.18	41020.23
505.36	41734.09
505.53	41268.33
505.71	41612.38
505.88	41457.91
506.06	41525.78
506.23	41652.17
506.41	42169.43
506.58	42155.39
506.76	42216.24
506.93	42153.05
507.11	42344.97
507.28	42211.56
507.46	42745.20
507.63	42550.94
507.81	43168.84
507.98	42632.86
508.16	43051.81
508.33	43620.56
508.50	43641.63
508.68	43192.25
508.85	43445.02
509.03	43627.59
509.20	43772.70
509.38	43976.33
509.55	44573.16
509.73	44664.44
509.90	44589.55
510.08	44383.58
510.25	44378.90
510.42	44533.37
510.60	45092.76
510.77	45317.45
510.95	45127.87
511.12	44861.05
511.30	44720.62
511.47	45003.82
511.64	45586.61
511.82	46040.68
511.99	45399.37
512.17	45879.18
512.34	46038.34
512.51	46124.94
512.69	46190.47
512.86	46265.37
513.04	46747.52
513.21	46518.15
513.38	46712.41
513.56	46319.20
513.73	46323.88
513.90	46939.44
514.08	46550.91
514.25	47210.95
514.43	47447.34
514.60	47107.96
514.77	47129.03
514.95	47524.58
515.12	47306.91
515.29	47206.26
515.47	48109.71
515.64	47955.24
515.81	47744.59
515.99	48355.47
516.16	48315.68
516.33	48193.97
516.51	48362.49
516.68	47856.93
516.85	48271.21
517.03	48989.75
517.20	48788.47
517.37	48748.68
517.54	48814.21
517.72	48928.90
517.89	48886.77
518.06	49034.22
518.24	49209.76
518.41	48910.17
518.58	49387.64
518.75	49214.44
518.93	49441.48
519.10	49354.88
519.27	49600.63
519.45	49212.10
519.62	49743.41
519.79	50007.89
519.96	49598.29
520.14	50000.86
520.31	50096.83
520.48	50085.12
520.65	49872.14
520.83	50724.09
521.00	50761.54
521.17	50548.55
521.34	50216.19
521.52	50651.53
521.69	50672.60
521.86	50817.71
522.03	51234.33
522.20	51157.09
522.38	51594.77
522.55	51121.98
522.72	51341.99
522.89	51166.45
523.07	51510.51
523.24	51381.78
523.41	51676.69
523.58	51288.16
523.75	51557.32
523.92	51709.46
524.10	52081.60
524.27	51971.60
524.44	51782.01
524.61	51945.85
524.78	51964.57
524.96	52175.22
525.13	52261.82
525.30	52275.87
525.47	52404.59
525.64	51915.42
525.81	52828.23
525.98	52765.04
526.16	52865.68
526.33	52633.97
526.50	52959.30
526.67	52633.97
526.84	52861.00
527.01	52891.43
527.18	52631.63
527.36	52992.07
527.53	52802.49
527.70	53024.84
527.87	53216.76
528.04	53055.26
528.21	53413.37
528.38	53347.83
528.55	53308.04
528.72	53162.93
528.89	53265.91
529.07	53244.85
529.24	53296.34
529.41	53460.18
529.58	53551.46
529.75	53572.52
529.92	53680.19
530.09	53537.41
530.26	53485.92
530.43	53897.86
530.60	53745.72
530.77	53794.87
530.94	53963.39
531.11	53680.19
531.28	53975.09
531.46	53888.49
531.63	54103.82
531.80	54071.06
531.97	54185.74
532.14	54410.43
532.31	54466.61
532.48	54300.43
532.65	54674.91
532.82	54445.54
532.99	54482.99
533.16	54436.18
533.33	54616.40
533.50	54656.19
533.67	54754.49
533.84	54618.74
534.01	54740.45
534.18	55072.81
534.35	55370.05
534.52	55004.93
534.69	55271.75
534.86	55222.60
535.03	54983.86
535.20	54805.98
535.37	55356.01
535.54	55168.77
535.71	55262.39
535.88	55449.63
536.05	55412.18
536.22	55318.56
536.38	55416.86
536.55	55573.68
536.72	55454.31
536.89	55451.97
537.06	55522.19
537.23	55629.85
537.40	55674.32
537.57	55751.56
537.74	55779.65
537.91	55812.41
538.08	55812.41
538.25	55646.24
538.42	56069.87
538.59	56069.87
538.75	55838.16
538.92	55894.33
539.09	56175.20
539.26	56210.31
539.43	55894.33
539.60	56039.45
539.77	55931.78
539.94	56238.39
540.11	56252.44
540.28	56324.99
540.44	56495.85
540.61	56332.01
540.78	56339.04
540.95	56126.05
541.12	56435.00
541.29	56596.49
541.46	56348.40
541.62	56640.96
541.79	56547.34
541.96	56245.41
542.13	56638.62
542.30	56575.43
542.47	56882.04
542.63	56884.38
542.80	56713.52
542.97	56968.64
543.14	57076.30
543.31	57310.36
543.48	57134.82
543.64	57181.63
543.81	57078.64
543.98	57190.99
544.15	57282.27
544.32	57392.28
544.48	57317.38
544.65	57242.48
544.82	57403.98
544.99	57130.14
545.16	57537.39
545.32	57326.74
545.49	57546.75
545.66	57478.88
545.83	57485.90
546.00	57628.67
546.16	57490.58
546.33	57579.52
546.50	57565.48
546.67	57495.26
546.83	57326.74
547.00	57584.20
547.17	57743.36
547.34	57581.86
547.50	57869.75
547.67	58197.42
547.84	58138.91
548.00	57914.22
548.17	58176.36
548.34	57942.30
548.51	58096.78
548.67	57907.19
548.84	58045.29
549.01	58007.84
549.18	57998.48
549.34	58124.86
549.51	58162.31
549.68	58085.07
549.84	58253.59
550.01	58094.44
550.18	58293.38
550.34	58342.53
550.51	58302.74
550.68	58216.14
550.84	58143.59
551.01	58384.66
551.18	58267.64
551.34	58489.99
551.51	58466.58
551.68	58562.54
551.84	58539.14
552.01	58248.91
552.18	58543.82
552.34	58525.10
552.51	58768.51
552.68	58431.47
552.84	58637.44
553.01	58749.79
553.18	58773.19
553.34	58702.98
553.51	58630.42
553.67	58901.92
553.84	58894.90
554.01	59016.61
554.17	58798.94
554.34	58974.48
554.51	58918.31
554.67	58995.54
554.84	59014.27
555.00	59018.95
555.17	58976.82
555.33	58880.86
555.50	58897.24
555.67	58866.81
555.83	58995.54
556.00	58915.96
556.16	59435.56
556.33	59388.75
556.50	59072.78
556.66	59110.23
556.83	59028.31
556.99	59262.36
557.16	59430.88
557.32	59463.65
557.49	59604.08
557.65	59395.77
557.82	59180.45
557.98	59304.49
558.15	59463.65
558.32	59613.44
558.48	59337.26
558.65	59482.37
558.81	59327.90
558.98	59557.27
559.14	59625.15
559.31	59678.98
559.47	59568.97
559.64	59571.32
559.80	59604.08
559.97	59765.58
560.13	59599.40
560.30	59550.25
560.46	59756.22
560.63	59470.67
560.79	59655.57
560.96	59646.21
561.12	59735.15
561.29	59819.41
561.45	59697.70
561.61	59613.44
561.78	59707.07
561.94	59678.98
562.11	59824.09
562.27	59901.33
562.44	59763.24
562.60	59873.24
562.77	59971.55
562.93	59845.16
563.10	59891.97
563.26	59824.09
563.42	60055.81
563.59	60032.40
563.75	59959.84
563.92	60016.02
564.08	59896.65
564.24	60011.34
564.41	60039.42
564.57	59990.27
564.74	60119.00
564.90	60191.56
565.07	60123.68
565.23	59987.93
565.39	60081.55
565.56	60179.85
565.72	60072.19
565.88	59976.23
566.05	59966.87
566.21	59915.37
566.38	60030.06
566.54	60128.36
566.70	60409.23
566.87	60079.21
567.03	60119.00
567.19	60348.37
567.36	60135.38
567.52	60149.43
567.68	60486.46
567.85	60065.17
568.01	60313.26
568.17	60055.81
568.34	60336.67
568.50	60144.75
568.66	60275.82
568.83	60331.99
568.99	60364.76
569.15	60271.14
569.32	60313.26
569.48	60287.52
569.64	60381.14
569.81	60460.72
569.97	60306.24
570.13	60509.87
570.30	60441.99
570.46	60224.32
570.62	60390.50
570.78	60432.63
570.95	60420.93
571.11	60292.20
571.27	60385.82
571.43	60619.88
571.60	60549.66
571.76	60498.17
571.92	60509.87
572.09	60404.55
572.25	60458.38
572.41	60362.42
572.57	60537.96
572.74	60575.40
572.90	60374.12
573.06	60654.98
573.22	60662.00
573.38	60566.04
573.55	60439.65
573.71	60821.16
573.87	60516.89
574.03	60477.10
574.20	60622.22
574.36	60687.75
574.52	60814.14
574.68	60678.39
574.84	60711.16
575.01	60769.67
575.17	60488.80
575.33	60687.75
575.49	60514.55
575.65	60528.59
575.82	60704.13
575.98	60596.47
576.14	60739.24
576.30	60605.83
576.46	60589.45
576.62	60821.16
576.79	60610.51
576.95	60580.09
577.11	60746.26
577.27	60849.25
577.43	60739.24
577.59	60669.03
577.75	60701.79
577.92	60552.00
578.08	60540.30
578.24	60788.39
578.40	60783.71
578.56	60755.63
578.72	60769.67
578.88	60844.57
579.04	60844.57
579.21	60940.53
579.37	60898.40
579.53	60823.50
579.69	60406.89
579.85	60683.07
580.01	60935.85
580.17	60659.66
580.33	61034.15
580.49	61001.38
580.65	60811.80
580.82	60741.58
580.98	60856.27
581.14	60666.69
581.30	60797.76
581.46	60746.26
581.62	60853.93
581.78	60596.47
581.94	60935.85
582.10	60786.05
582.26	60954.57
582.42	60816.48
582.58	60874.99
582.74	60797.76
582.90	60760.31
583.06	60835.20
583.22	60612.85
583.38	60921.80
583.54	60865.63
583.70	60786.05
583.86	61055.21
584.02	60860.95
584.18	60935.85
584.34	60842.23
584.50	61062.24
584.66	60788.39
584.82	60774.35
584.98	61092.66
585.14	61062.24
585.30	60849.25
585.46	61095.00
585.62	60966.27
585.78	61080.96
585.94	60835.20
586.10	60949.89
586.26	60949.89
586.42	60963.93
586.58	61106.71
586.74	61116.07
586.90	61059.90
587.06	60947.55
587.22	60959.25
587.38	61066.92
587.54	61015.43
587.70	61298.63
587.86	60912.44
588.02	60942.87
588.18	61193.31
588.34	60982.66
