SpectraSuite Data File
++++++++++++++++++++++++++++++++++++
Date: Fri Oct 25 11:26:24 EDT 2013
User: price-jones
Dark Spectrum Present: No
Reference Spectrum Present: No
Number of Sampled Component Spectra: 1
Spectrometers: USB2+H05261
Integration Time (usec): 100000 (USB2+H05261)
Spectra Averaged: 1 (USB2+H05261)
Boxcar Smoothing: 0 (USB2+H05261)
Correct for Electrical Dark: No (USB2+H05261)
Strobe/Lamp Enabled: No (USB2+H05261)
Correct for Detector Non-linearity: No (USB2+H05261)
Correct for Stray Light: No (USB2+H05261)
Number of Pixels in Processed Spectrum: 2048
>>>>>Begin Processed Spectral Data<<<<<
365.73	252.78
365.92	252.78
366.12	252.78
366.32	184.90
366.52	147.45
366.72	163.84
366.91	133.41
367.11	156.82
367.31	142.77
367.51	161.50
367.70	117.03
367.90	128.73
368.10	149.79
368.30	135.75
368.49	189.58
368.69	177.88
368.89	117.03
369.09	105.32
369.28	107.66
369.48	187.24
369.68	163.84
369.87	177.88
370.07	184.90
370.27	269.16
370.47	351.08
370.66	606.20
370.86	671.73
371.06	697.48
371.25	692.80
371.45	706.84
371.65	674.07
371.84	657.69
372.04	711.52
372.24	786.42
372.44	734.93
372.63	755.99
372.83	755.99
373.03	814.51
373.22	739.61
373.42	786.42
373.62	802.80
373.81	737.27
374.01	779.40
374.21	772.38
374.40	788.76
374.60	861.32
374.79	870.68
374.99	805.14
375.19	866.00
375.38	947.92
375.58	844.93
375.78	898.77
375.97	844.93
376.17	973.66
376.37	753.65
376.56	915.15
376.76	924.51
376.95	896.43
377.15	966.64
377.35	936.21
377.54	997.07
377.74	943.24
377.93	870.68
378.13	950.26
378.33	1008.77
378.52	912.81
378.72	976.00
378.91	952.60
379.11	985.37
379.31	1067.28
379.50	887.06
379.70	997.07
379.89	983.02
380.09	971.32
380.28	959.62
380.48	1032.18
380.68	1001.75
380.87	954.94
381.07	1029.84
381.26	1027.50
381.46	959.62
381.65	968.98
381.85	1048.56
382.04	1011.11
382.24	1027.50
382.43	1015.79
382.63	1034.52
382.83	1046.22
383.02	1109.41
383.22	1090.69
383.41	1090.69
383.61	1081.33
383.80	1224.10
384.00	1048.56
384.19	1102.39
384.39	1214.74
384.58	1118.78
384.78	1055.58
384.97	1188.99
385.17	1104.73
385.36	1219.42
385.56	1128.14
385.75	1167.93
385.95	1240.48
386.14	1221.76
386.34	1149.20
386.53	1158.57
386.72	1130.48
386.92	1270.91
387.11	1270.91
387.31	1172.61
387.50	1217.08
387.70	1179.63
387.89	1224.10
388.09	1263.89
388.28	1184.31
388.48	1287.29
388.67	1233.46
388.86	1327.08
389.06	1277.93
389.25	1343.47
389.45	1252.19
389.64	1336.45
389.84	1399.64
390.03	1378.58
390.22	1329.42
390.42	1343.47
390.61	1254.53
390.81	1313.04
391.00	1483.90
391.19	1486.24
391.39	1455.81
391.58	1439.43
391.78	1458.15
391.97	1446.45
392.16	1378.58
392.36	1500.28
392.55	1476.88
392.75	1469.86
392.94	1519.01
393.13	1526.03
393.33	1549.43
393.52	1593.90
393.71	1551.78
393.91	1490.92
394.10	1556.46
394.29	1621.99
394.49	1593.90
394.68	1549.43
394.88	1675.82
395.07	1624.33
395.26	1664.12
395.46	1650.08
395.65	1689.87
395.84	1720.29
396.04	1717.95
396.23	1687.53
396.42	1792.85
396.62	1785.83
396.81	1764.76
397.00	1762.42
397.19	1874.77
397.39	1771.79
397.58	1834.98
397.77	1839.66
397.97	1806.89
398.16	1820.94
398.35	1804.55
398.55	1870.09
398.74	1888.81
398.93	1933.28
399.12	1907.54
399.32	1781.15
399.51	1933.28
399.70	1947.33
399.90	1914.56
400.09	2080.74
400.28	1884.13
400.47	2047.97
400.67	2076.06
400.86	2146.27
401.05	2062.01
401.24	2104.14
401.44	2127.55
401.63	2148.61
401.82	2073.71
402.01	2085.42
402.21	2134.57
402.40	2183.72
402.59	2118.18
402.78	2179.04
402.97	2160.31
403.17	2279.68
403.36	2197.76
403.55	2342.88
403.74	2368.62
403.93	2335.85
404.13	2469.27
404.32	2324.15
404.51	2335.85
404.70	2368.62
404.89	2373.30
405.09	2380.32
405.28	2459.90
405.47	2490.33
405.66	2408.41
405.85	2396.71
406.05	2607.36
406.24	2478.63
406.43	2408.41
406.62	2590.97
406.81	2750.13
407.00	2555.86
407.20	2492.67
407.39	2700.98
407.58	2630.76
407.77	2719.70
407.96	2670.55
408.15	2761.83
408.34	2729.06
408.54	2771.19
408.73	2871.84
408.92	2857.79
409.11	2876.52
409.30	2951.42
409.49	2916.31
409.68	2878.86
409.87	2979.50
410.07	2974.82
410.26	3030.99
410.45	2897.58
410.64	3112.91
410.83	3096.53
411.02	2958.44
411.21	3059.08
411.40	3119.93
411.59	3258.03
411.78	3166.74
411.98	3176.11
412.17	3276.75
412.36	3281.43
412.55	3393.78
412.74	3332.92
412.93	3265.05
413.12	3297.81
413.31	3494.42
413.50	3419.52
413.69	3559.95
413.88	3592.72
414.07	3506.12
414.26	3569.32
414.45	3688.68
414.64	3613.79
414.83	3658.26
415.02	3859.54
415.22	3854.86
415.41	3775.28
415.60	3904.01
415.79	3819.75
415.98	3992.95
416.17	3908.69
416.36	3889.97
416.55	3911.04
416.74	4135.73
416.93	4079.55
417.12	3948.48
417.31	4037.42
417.50	4168.49
417.69	4196.58
417.88	4351.06
418.07	4358.08
418.26	4409.57
418.45	4322.97
418.64	4346.37
418.83	4559.36
419.02	4437.66
419.21	4566.39
419.39	4542.98
419.58	4489.15
419.77	4451.70
419.96	4498.51
420.15	4650.64
420.34	4582.77
420.53	4489.15
420.72	4727.88
420.91	4781.71
421.10	4704.48
421.29	4828.53
421.48	4723.20
421.67	4809.80
421.86	4863.63
422.05	4821.50
422.24	4770.01
422.43	4882.36
422.61	4842.57
422.80	5032.15
422.99	4950.23
423.18	4912.78
423.37	4816.82
423.56	4943.21
423.75	4861.29
423.94	4802.78
424.13	4610.86
424.32	4676.39
424.50	4737.24
424.69	5001.72
424.88	5046.20
425.07	5090.67
425.26	4851.93
425.45	5043.85
425.64	4868.31
425.83	4971.30
426.01	4964.28
426.20	4971.30
426.39	5107.05
426.58	5067.26
426.77	5104.71
426.96	5064.92
427.15	5013.43
427.33	5160.88
427.52	5078.96
427.71	5287.27
427.90	5231.10
428.09	5322.38
428.28	5270.89
428.46	5369.19
428.65	5200.67
428.84	5446.43
429.03	5404.30
429.22	5387.91
429.40	5434.72
429.59	5561.11
429.78	5275.57
429.97	5224.08
430.16	5500.26
430.34	5497.92
430.53	5626.65
430.72	5575.16
430.91	5612.60
431.10	5781.12
431.28	5654.73
431.47	5874.74
431.66	5811.55
431.85	5617.29
432.03	5795.17
432.22	5954.32
432.41	5790.49
432.60	5921.56
432.79	5891.13
432.97	6017.52
433.16	5980.07
433.35	5989.43
433.54	5994.11
433.72	6118.16
433.91	5954.32
434.10	5991.77
434.28	5991.77
434.47	6239.87
434.66	6228.17
434.85	6141.57
435.03	6321.79
435.22	6186.04
435.41	6579.25
435.59	6389.66
435.78	6305.40
435.97	6478.60
436.16	6382.64
436.34	6317.11
436.53	6452.86
436.72	6347.53
436.90	6305.40
437.09	6633.08
437.28	6431.79
437.46	6450.52
437.65	6597.97
437.84	6644.78
438.02	6658.82
438.21	6689.25
438.40	6682.23
438.58	6909.26
438.77	6832.02
438.96	7045.01
439.14	7225.23
439.33	7136.29
439.52	7119.91
439.70	7084.80
439.89	7250.98
440.08	7321.20
440.26	7148.00
440.45	7274.38
440.63	7353.96
440.82	7686.32
441.01	7592.70
441.19	7541.21
441.38	7768.24
441.57	7557.59
441.75	7805.69
441.94	7985.91
442.12	7845.48
442.31	8046.76
442.50	8100.59
442.68	8023.36
442.87	8023.36
443.05	7978.89
443.24	8086.55
443.43	7911.01
443.61	7925.05
443.80	8304.22
443.98	8159.11
444.17	7604.40
444.35	8133.36
444.54	8325.29
444.73	8154.43
444.91	8222.30
445.10	8386.14
445.28	8248.05
445.47	8126.34
445.65	8194.22
445.84	8278.47
446.02	8353.37
446.21	8414.23
446.39	8484.44
446.58	8339.33
446.77	8533.59
446.95	8049.10
447.14	8234.00
447.32	8395.50
447.51	8451.67
447.69	8451.67
447.88	8416.57
448.06	8393.16
448.25	8276.13
448.43	8458.70
448.62	8372.10
448.80	8512.53
448.99	8369.76
449.17	8744.24
449.36	8610.83
449.54	8807.44
449.73	8826.16
449.91	8985.32
450.10	8961.91
450.28	8849.57
450.46	8915.10
450.65	9055.53
450.83	9104.68
451.02	8985.32
451.20	9186.60
451.39	9050.85
451.57	9071.92
451.76	8968.93
451.94	9280.22
452.13	9144.47
452.31	9137.45
452.49	8924.46
452.68	9394.91
452.86	9188.94
453.05	9249.80
453.23	9535.34
453.42	9268.52
453.60	9193.62
453.78	9507.26
453.97	9348.10
454.15	9493.21
454.34	9453.42
454.52	9556.41
454.70	9448.74
454.89	9776.42
455.07	9589.17
455.26	9750.67
455.44	9881.74
455.62	9963.66
455.81	9753.01
455.99	9893.44
456.17	9944.94
456.36	9895.78
456.54	10186.01
456.73	10104.09
456.91	10214.10
457.09	10356.87
457.28	10443.47
457.46	10342.83
457.64	10654.12
457.83	10471.56
458.01	10216.44
458.19	10719.65
458.38	10506.66
458.56	10656.46
458.74	10703.27
458.93	10743.06
459.11	10787.53
459.29	10827.32
459.48	10738.38
459.66	10799.23
459.84	10808.59
460.03	10890.51
460.21	10792.21
460.39	11000.52
460.57	11080.10
460.76	11162.01
460.94	11162.01
461.12	11087.12
461.31	10956.05
461.49	11014.56
461.67	11136.27
461.85	11412.45
462.04	11269.68
462.22	11545.86
462.40	11515.44
462.59	11529.48
462.77	11372.66
462.95	11229.89
463.13	11438.20
463.32	11566.93
463.50	11592.67
463.68	11555.22
463.86	11700.34
464.05	11625.44
464.23	11728.42
464.41	12035.03
464.59	11426.50
464.78	12114.61
464.96	11847.79
465.14	11779.92
465.32	11978.86
465.50	12013.97
465.69	11962.48
465.87	12121.63
466.05	12126.32
466.23	12093.55
466.41	12308.88
466.60	12362.71
466.78	12175.47
466.96	11978.86
467.14	12390.80
467.32	12369.73
467.51	12315.90
467.69	12105.25
467.87	12372.07
468.05	12475.06
468.23	12306.54
468.41	12369.73
468.60	12453.99
468.78	12760.60
468.96	12414.20
469.14	12737.20
469.32	12868.27
469.50	12690.38
469.69	12823.80
469.87	12954.87
470.05	12898.69
470.23	13238.07
470.41	13004.02
470.59	12989.97
470.77	13104.66
470.95	13060.19
471.14	13238.07
471.32	13277.86
471.50	13359.78
471.68	13703.84
471.86	13441.70
472.04	13912.14
472.22	13956.61
472.40	13694.47
472.58	13621.92
472.77	14036.19
472.95	14120.45
473.13	14448.13
473.31	13919.17
473.49	14230.46
473.67	13994.06
473.85	14272.59
474.03	14298.33
474.21	14796.87
474.39	14736.01
474.57	14560.47
474.75	14745.38
474.93	14782.82
475.12	14721.97
475.30	14883.47
475.48	15073.05
475.66	15075.39
475.84	15054.33
476.02	15019.22
476.20	15159.65
476.38	15477.96
476.56	15908.62
476.74	15749.46
476.92	15854.79
477.10	15704.99
477.28	15999.90
477.46	15917.98
477.64	16161.40
477.82	16510.14
478.00	16844.84
478.18	16788.66
478.36	16746.53
478.54	17003.99
478.72	17055.48
478.90	17357.41
479.08	17408.90
479.26	17593.81
479.44	17530.61
479.62	17879.35
479.80	17989.36
479.98	18040.85
480.16	18387.25
480.34	18118.09
480.52	18625.98
480.70	18614.28
480.88	18204.69
481.06	18576.83
481.24	18693.86
481.41	19267.29
481.59	18972.38
481.77	19300.06
481.95	19665.18
482.13	19756.46
482.31	19545.81
482.49	20027.96
482.67	19875.83
482.85	20376.70
483.03	20053.71
483.21	20233.93
483.39	20657.57
483.57	20851.83
483.74	21043.76
483.92	21034.39
484.10	21050.78
484.28	21635.91
484.46	21891.03
484.64	22333.39
484.82	21954.22
485.00	22031.46
485.18	22572.13
485.35	22857.67
485.53	22546.38
485.71	22860.01
485.89	23122.15
486.07	23332.80
486.25	23309.40
486.43	23363.23
486.61	23754.10
486.78	23936.66
486.96	24357.96
487.14	24547.54
487.32	24521.79
487.50	24638.82
487.68	24835.42
487.85	24922.02
488.03	25069.48
488.21	25675.68
488.39	25331.62
488.57	26022.08
488.75	25898.03
488.92	26225.70
489.10	26651.68
489.28	26614.23
489.46	26871.69
489.64	26838.92
489.81	27302.35
489.99	27353.84
490.17	27674.49
490.35	27714.28
490.53	27943.66
490.70	28334.53
490.88	28041.96
491.06	28364.95
491.24	28561.56
491.41	28547.51
491.59	29036.69
491.77	29322.23
491.95	29474.37
492.13	29530.54
492.30	29689.70
492.48	29956.52
492.66	30015.03
492.84	30146.10
493.01	30394.20
493.19	30611.87
493.37	30953.58
493.54	30948.90
493.72	31072.95
493.90	31356.16
494.08	31583.19
494.25	31367.86
494.43	31655.75
494.61	31840.65
494.79	32009.17
494.96	32290.03
495.14	32278.33
495.32	32746.44
495.49	33305.82
495.67	32959.42
495.85	32912.61
496.02	33935.43
496.20	33638.18
496.38	33635.84
496.55	33771.59
496.73	34246.72
496.91	34522.90
497.09	34323.96
497.26	34354.38
497.44	34658.65
497.62	34897.39
497.79	35040.16
497.97	35566.78
498.14	35552.74
498.32	35761.05
498.50	35824.24
498.67	36320.43
498.85	36196.38
499.03	36243.20
499.20	36676.19
499.38	36528.74
499.56	36727.69
499.73	36753.43
499.91	37256.65
500.08	37137.28
500.26	36896.20
500.44	37483.68
500.61	37556.24
500.79	37633.47
500.97	37626.45
501.14	38017.32
501.32	38256.06
501.49	38068.81
501.67	38401.17
501.84	39000.35
502.02	38752.25
502.20	38852.89
502.37	38932.47
502.55	39040.14
502.72	39016.73
502.90	39445.05
503.07	39505.90
503.25	39754.00
503.43	39548.03
503.60	39599.52
503.78	40020.82
503.95	39856.98
504.13	40385.94
504.30	40325.09
504.48	40278.28
504.65	40425.73
504.83	40411.69
505.01	41226.20
505.18	40610.64
505.36	41048.32
505.53	40889.16
505.71	41254.28
505.88	41666.22
506.06	41228.54
506.23	41729.41
506.41	41425.14
506.58	41900.27
506.76	41841.76
506.93	41860.48
507.11	42263.05
507.28	42211.56
507.46	42080.49
507.63	42616.47
507.81	43140.75
507.98	42590.73
508.16	42841.17
508.33	43430.98
508.50	42897.34
508.68	43407.58
508.85	43672.06
509.03	43533.96
509.20	43641.63
509.38	44135.48
509.55	43784.40
509.73	44067.61
509.90	44081.65
510.08	44526.35
510.25	44423.37
510.42	44432.73
510.60	44657.42
510.77	44905.52
510.95	45024.89
511.12	44477.20
511.30	45085.74
511.47	45294.05
511.64	45188.72
511.82	45612.36
511.99	45408.73
512.17	45612.36
512.34	45771.52
512.51	46167.07
512.69	46085.15
512.86	46096.85
513.04	46213.88
513.21	46450.27
513.38	46698.37
513.56	46293.46
513.73	46597.73
513.90	46721.77
514.08	46820.08
514.25	47140.73
514.43	47019.02
514.60	47316.27
514.77	47222.65
514.95	47512.88
515.12	47269.46
515.29	47119.66
515.47	47849.91
515.64	47690.76
515.81	47657.99
515.99	47978.64
516.16	48191.63
516.33	47805.44
516.51	48252.48
516.68	47943.53
516.85	48296.95
517.03	48360.15
517.20	48673.78
517.37	48514.62
517.54	48985.07
517.72	48694.85
517.89	49146.57
518.06	49130.19
518.24	49345.51
518.41	49104.44
518.58	49436.80
518.75	49064.65
518.93	49345.51
519.10	49254.23
519.27	49371.26
519.45	49319.77
519.62	49560.84
519.79	49830.01
519.96	49930.65
520.14	49930.65
520.31	49918.95
520.48	50003.20
520.65	50017.25
520.83	50272.37
521.00	50298.11
521.17	50160.02
521.34	50115.55
521.52	50962.82
521.69	50358.97
521.86	50852.82
522.03	50913.67
522.20	51227.31
522.38	51227.31
522.55	51042.40
522.72	51023.68
522.89	51086.87
523.07	51498.81
523.24	51363.06
523.41	51042.40
523.58	51433.27
523.75	51583.07
523.92	51201.56
524.10	51660.30
524.27	51779.67
524.44	51615.83
524.61	51901.38
524.78	51880.31
524.96	51770.31
525.13	52102.67
525.30	52140.11
525.47	52060.54
525.64	52236.08
525.81	52432.68
525.98	52453.75
526.16	52411.62
526.33	52481.83
526.50	52961.64
526.67	52456.09
526.84	53036.54
527.01	52680.78
527.18	52652.69
527.36	52828.23
527.53	52680.78
527.70	53207.40
527.87	53109.10
528.04	52816.53
528.21	53518.69
528.38	53279.96
528.55	53485.92
528.72	52692.48
528.89	53535.07
529.07	53389.96
529.24	53073.99
529.41	53469.54
529.58	53408.68
529.75	53523.37
529.92	53418.05
530.09	53684.87
530.26	53511.67
530.43	53741.04
530.60	53401.66
530.77	53645.08
530.94	53918.92
531.11	53631.04
531.28	53932.96
531.46	54227.87
531.63	54003.18
531.80	54021.90
531.97	54419.80
532.14	54422.14
532.31	54204.47
532.48	54394.05
532.65	54401.07
532.82	54274.68
532.99	54508.74
533.16	54588.31
533.33	54632.78
533.50	54688.96
533.67	54478.31
533.84	54394.05
534.01	54630.44
534.18	54815.35
534.35	54869.18
534.52	55007.27
534.69	54787.26
534.86	54894.92
535.03	54960.46
535.20	55147.70
535.37	55114.94
535.54	55178.13
535.71	55049.40
535.88	55140.68
536.05	55079.83
536.22	55426.23
536.38	55664.96
536.55	55428.57
536.72	55124.30
536.89	55524.53
537.06	55559.64
537.23	55440.27
537.40	55522.19
537.57	55444.95
537.74	55693.05
537.91	55943.48
538.08	55735.18
538.25	55451.97
538.42	55641.56
538.59	56137.75
538.75	55779.65
538.92	55842.84
539.09	56039.45
539.26	55833.48
539.43	55774.97
539.60	56020.72
539.77	56189.24
539.94	56172.86
540.11	56334.35
540.28	56161.15
540.44	56142.43
540.61	56112.00
540.78	56320.31
540.95	56147.11
541.12	56374.14
541.29	56219.67
541.46	56388.19
541.62	56432.66
541.79	56423.29
541.96	56060.51
542.13	56465.42
542.30	56605.86
542.47	56624.58
542.63	56676.07
542.80	56566.07
542.97	56910.13
543.14	56795.44
543.31	56942.89
543.48	57099.71
543.64	57418.02
543.81	57247.16
543.98	57045.88
544.15	57251.84
544.32	57291.63
544.48	57460.15
544.65	56877.36
544.82	57270.57
544.99	57102.05
545.16	57181.63
545.32	57174.61
545.49	57656.76
545.66	57546.75
545.83	57382.91
546.00	57612.29
546.16	57359.51
546.33	57317.38
546.50	57125.46
546.67	57558.45
546.83	57289.29
547.00	57640.37
547.17	57539.73
547.34	57607.61
547.50	57584.20
547.67	58000.82
547.84	57741.02
548.00	57851.02
548.17	57935.28
548.34	57925.92
548.51	58012.52
548.67	58094.44
548.84	57914.22
549.01	57785.49
549.18	58038.26
549.34	57984.43
549.51	58197.42
549.68	58031.24
549.84	57998.48
550.01	58415.09
550.18	57832.30
550.34	58206.78
550.51	58267.64
550.68	58148.27
550.84	58110.82
551.01	58454.88
551.18	58316.79
551.34	58232.53
551.51	58450.20
551.68	58478.28
551.84	58337.85
552.01	58525.10
552.18	58482.97
552.34	58307.43
552.51	58717.02
552.68	58152.95
552.84	58384.66
553.01	58850.43
553.18	58396.37
553.34	58775.53
553.51	58585.95
553.67	58735.74
553.84	58937.03
554.01	58845.75
554.17	58695.95
554.34	58995.54
554.51	58922.99
554.67	58880.86
554.84	58850.43
555.00	58801.28
555.17	58801.28
555.33	58808.30
555.50	58773.19
555.67	58602.33
555.83	58770.85
556.00	58841.07
556.16	59145.34
556.33	59171.08
556.50	58838.73
556.66	59201.51
556.83	58859.79
556.99	59199.17
557.16	59215.55
557.32	59311.52
557.49	59430.88
557.65	59098.53
557.82	59302.15
557.98	59229.60
558.15	59166.40
558.32	59295.13
558.48	59091.51
558.65	59402.80
558.81	59196.83
558.98	59245.98
559.14	59192.15
559.31	59580.68
559.47	59302.15
559.64	59531.53
559.80	59470.67
559.97	59269.39
560.13	59334.92
560.30	59545.57
560.46	59473.01
560.63	59524.50
560.79	59608.76
560.96	59700.04
561.12	59671.96
561.29	59800.69
561.45	59620.47
561.61	59702.38
561.78	59674.30
561.94	59531.53
562.11	59592.38
562.27	59693.02
562.44	59597.06
562.60	59887.29
562.77	59803.03
562.93	59676.64
563.10	59889.63
563.26	59805.37
563.42	59845.16
563.59	59793.67
563.75	59681.32
563.92	59863.88
564.08	59749.20
564.24	59936.44
564.41	59906.01
564.57	60079.21
564.74	59819.41
564.90	59950.48
565.07	59870.90
565.23	60189.22
565.39	59950.48
565.56	59955.16
565.72	59868.56
565.88	60090.91
566.05	59969.21
566.21	59934.10
566.38	60001.97
566.54	59952.82
566.70	60224.32
566.87	60086.23
567.03	60011.34
567.19	60177.51
567.36	60154.11
567.52	60149.43
567.68	60357.74
567.85	60224.32
568.01	60207.94
568.17	60198.58
568.34	60177.51
568.50	60221.98
568.66	60427.95
568.83	60093.25
568.99	60161.13
569.15	60236.03
569.32	60121.34
569.48	60144.75
569.64	60486.46
569.81	60406.89
569.97	60301.56
570.13	60182.19
570.30	60177.51
570.46	60243.05
570.62	60189.22
570.78	60350.71
570.95	60224.32
571.11	60331.99
571.27	60310.92
571.43	60289.86
571.60	60451.36
571.76	60439.65
571.92	60404.55
572.09	60427.95
572.25	60147.09
572.41	60247.73
572.57	60177.51
572.74	60385.82
572.90	60441.99
573.06	60261.77
573.22	60477.10
573.38	60296.88
573.55	60470.08
573.71	60842.23
573.87	60465.40
574.03	60296.88
574.20	60514.55
574.36	60402.21
574.52	60505.19
574.68	60582.43
574.84	60554.34
575.01	60612.85
575.17	60514.55
575.33	60463.06
575.49	60266.45
575.65	60317.95
575.82	60678.39
575.98	60505.19
576.14	60676.05
576.30	60654.98
576.46	60544.98
576.62	60596.47
576.79	60612.85
576.95	60423.27
577.11	60603.49
577.27	60697.11
577.43	60669.03
577.59	60725.20
577.75	60615.19
577.92	60556.68
578.08	60458.38
578.24	60566.04
578.40	60975.64
578.56	60779.03
578.72	60692.43
578.88	60711.16
579.04	60926.49
579.21	60638.60
579.37	60589.45
579.53	61048.19
579.69	60381.14
579.85	60832.86
580.01	60692.43
580.17	60645.62
580.33	60598.81
580.49	60657.32
580.65	60896.06
580.82	60720.52
580.98	60713.50
581.14	60570.72
581.30	60839.89
581.46	60694.77
581.62	60629.24
581.78	60692.43
581.94	60926.49
582.10	60577.75
582.26	60582.43
582.42	60762.65
582.58	60657.32
582.74	60825.84
582.90	60872.65
583.06	60697.11
583.22	60624.56
583.38	60706.47
583.54	60788.39
583.70	60650.30
583.86	60839.89
584.02	60594.13
584.18	60774.35
584.34	60809.46
584.50	60874.99
584.66	60544.98
584.82	60722.86
584.98	60912.44
585.14	60832.86
585.30	60795.42
585.46	60851.59
585.62	60835.20
585.78	61197.99
585.94	60556.68
586.10	60809.46
586.26	60879.67
586.42	60999.04
586.58	61015.43
586.74	60956.91
586.90	60786.05
587.06	60914.78
587.22	60912.44
587.38	60980.32
587.54	61125.43
587.70	60982.66
587.86	61006.06
588.02	60867.97
588.18	61179.26
588.34	60949.89
588.49	60898.40
