SpectraSuite Data File
++++++++++++++++++++++++++++++++++++
Date: Fri Oct 25 11:22:45 EDT 2013
User: price-jones
Dark Spectrum Present: No
Reference Spectrum Present: No
Number of Sampled Component Spectra: 1
Spectrometers: USB2+H05261
Integration Time (usec): 100000 (USB2+H05261)
Spectra Averaged: 1 (USB2+H05261)
Boxcar Smoothing: 0 (USB2+H05261)
Correct for Electrical Dark: No (USB2+H05261)
Strobe/Lamp Enabled: No (USB2+H05261)
Correct for Detector Non-linearity: No (USB2+H05261)
Correct for Stray Light: No (USB2+H05261)
Number of Pixels in Processed Spectrum: 2048
>>>>>Begin Processed Spectral Data<<<<<
365.73	189.58
365.92	189.58
366.12	189.58
366.32	145.11
366.52	121.71
366.72	152.13
366.91	72.56
367.11	98.30
367.31	105.32
367.51	114.69
367.70	112.35
367.90	161.50
368.10	105.32
368.30	138.09
368.49	135.75
368.69	173.20
368.89	149.79
369.09	173.20
369.28	163.84
369.48	138.09
369.68	168.52
369.87	198.95
370.07	163.84
370.27	236.39
370.47	320.65
370.66	519.60
370.86	657.69
371.06	587.47
371.25	788.76
371.45	730.25
371.65	643.65
371.84	547.69
372.04	678.76
372.24	695.14
372.44	692.80
372.63	716.20
372.83	798.12
373.03	741.95
373.22	664.71
373.42	737.27
373.62	809.83
373.81	800.46
374.01	779.40
374.21	765.36
374.40	807.48
374.60	861.32
374.79	809.83
374.99	814.51
375.19	802.80
375.38	830.89
375.58	819.19
375.78	877.70
375.97	842.59
376.17	837.91
376.37	791.10
376.56	896.43
376.76	915.15
376.95	880.04
377.15	882.38
377.35	896.43
377.54	901.11
377.74	908.13
377.93	833.23
378.13	936.21
378.33	971.32
378.52	924.51
378.72	908.13
378.91	936.21
379.11	889.40
379.31	945.58
379.50	884.72
379.70	964.30
379.89	938.55
380.09	924.51
380.28	978.34
380.48	990.05
380.68	983.02
380.87	1004.09
381.07	1011.11
381.26	1018.13
381.46	1015.79
381.65	964.30
381.85	1015.79
382.04	1020.47
382.24	1114.10
382.43	1074.31
382.63	1055.58
382.83	1121.12
383.02	1074.31
383.22	1139.84
383.41	1158.57
383.61	1146.86
383.80	1177.29
384.00	1123.46
384.19	1078.99
384.39	1121.12
384.58	1123.46
384.78	1153.88
384.97	1083.67
385.17	1116.44
385.36	1174.95
385.56	1109.41
385.75	1132.82
385.95	1226.44
386.14	1245.16
386.34	1224.10
386.53	1203.04
386.72	1174.95
386.92	1226.44
387.11	1242.82
387.31	1167.93
387.50	1184.31
387.70	1228.78
387.89	1238.14
388.09	1275.59
388.28	1219.42
388.48	1214.74
388.67	1233.46
388.86	1345.81
389.06	1320.06
389.25	1409.00
389.45	1350.49
389.64	1341.13
389.84	1378.58
390.03	1404.32
390.22	1341.13
390.42	1460.49
390.61	1373.89
390.81	1423.05
391.00	1383.26
391.19	1441.77
391.39	1413.68
391.58	1432.41
391.78	1460.49
391.97	1380.92
392.16	1416.02
392.36	1540.07
392.55	1404.32
392.75	1561.14
392.94	1516.67
393.13	1526.03
393.33	1526.03
393.52	1579.86
393.71	1579.86
393.91	1593.90
394.10	1614.97
394.29	1652.42
394.49	1600.93
394.68	1614.97
394.88	1682.85
395.07	1678.16
395.26	1692.21
395.46	1617.31
395.65	1685.19
395.84	1687.53
396.04	1743.70
396.23	1802.21
396.42	1741.36
396.62	1767.10
396.81	1741.36
397.00	1823.28
397.19	1785.83
397.39	1806.89
397.58	1809.23
397.77	1874.77
397.97	1980.09
398.16	1879.45
398.35	1853.70
398.55	1914.56
398.74	1872.43
398.93	1933.28
399.12	2024.56
399.32	2019.88
399.51	1977.75
399.70	2015.20
399.90	1926.26
400.09	1926.26
400.28	2059.67
400.47	2043.29
400.67	2094.78
400.86	2050.31
401.05	2026.90
401.24	2069.03
401.44	2099.46
401.63	2111.16
401.82	2136.91
402.01	2076.06
402.21	2211.81
402.40	2165.00
402.59	2197.76
402.78	2162.66
402.97	2289.04
403.17	2258.62
403.36	2267.98
403.55	2328.83
403.74	2244.57
403.93	2333.51
404.13	2368.62
404.32	2363.94
404.51	2399.05
404.70	2370.96
404.89	2335.85
405.09	2473.95
405.28	2450.54
405.47	2534.80
405.66	2560.55
405.85	2422.45
406.05	2558.21
406.24	2593.31
406.43	2511.39
406.62	2705.66
406.81	2703.32
407.00	2567.57
407.20	2626.08
407.39	2506.71
407.58	2747.79
407.77	2626.08
407.96	2654.17
408.15	2860.13
408.34	2747.79
408.54	2752.47
408.73	2832.05
408.92	2895.24
409.11	2923.33
409.30	2972.48
409.49	2897.58
409.68	2953.76
409.87	2836.73
410.07	3091.85
410.26	2988.86
410.45	3030.99
410.64	3042.70
410.83	3068.44
411.02	3035.67
411.21	3143.34
411.40	3204.19
411.59	3211.22
411.78	3248.66
411.98	3087.17
412.17	3302.50
412.36	3405.48
412.55	3417.18
412.74	3466.33
412.93	3440.59
413.12	3400.80
413.31	3487.40
413.50	3449.95
413.69	3478.04
413.88	3599.74
414.07	3536.55
414.26	3599.74
414.45	3667.62
414.64	3758.90
414.83	3772.94
415.02	3920.40
415.22	3735.50
415.41	3786.99
415.60	3857.20
415.79	3791.67
415.98	3941.46
416.17	4009.34
416.36	3911.04
416.55	4081.89
416.74	4217.65
416.93	4023.38
417.12	4084.23
417.31	4231.69
417.50	4313.61
417.69	4236.37
417.88	4262.12
418.07	4362.76
418.26	4337.01
418.45	4418.93
418.64	4564.04
418.83	4393.19
419.02	4432.97
419.21	4510.21
419.39	4521.92
419.58	4381.48
419.77	4505.53
419.96	4531.28
420.15	4650.64
420.34	4629.58
420.53	4620.22
420.72	4716.18
420.91	4601.49
421.10	4650.64
421.29	4840.23
421.48	4636.60
421.67	4678.73
421.86	4774.69
422.05	4795.76
422.24	4833.21
422.43	4966.62
422.61	4779.37
422.80	5057.90
422.99	4915.12
423.18	5043.85
423.37	5186.63
423.56	4844.91
423.75	4919.81
423.94	4992.36
424.13	4669.37
424.32	4720.86
424.50	5029.81
424.69	5097.69
424.88	5025.13
425.07	4968.96
425.26	4849.59
425.45	5001.72
425.64	4924.49
425.83	4912.78
426.01	5186.63
426.20	5111.73
426.39	5067.26
426.58	5020.45
426.77	4983.00
426.96	5039.17
427.15	5247.48
427.33	5277.91
427.52	5343.44
427.71	5308.34
427.90	5233.44
428.09	5411.32
428.28	5369.19
428.46	5242.80
428.65	5341.10
428.84	5462.81
429.03	5584.52
429.22	5352.81
429.40	5542.39
429.59	5406.64
429.78	5392.59
429.97	5256.84
430.16	5364.51
430.34	5586.86
430.53	5650.05
430.72	5621.97
430.91	5614.95
431.10	5802.19
431.28	5717.93
431.47	5729.63
431.66	5893.47
431.85	5961.34
432.03	5923.90
432.22	6001.13
432.41	6026.88
432.60	5830.27
432.79	5823.25
432.97	6064.33
433.16	6146.25
433.35	6078.37
433.54	5973.05
433.72	6204.76
433.91	6125.18
434.10	6176.67
434.28	6146.25
434.47	6207.10
434.66	6150.93
434.85	6354.55
435.03	6352.21
435.22	6249.23
435.41	6413.07
435.59	6186.04
435.78	6448.18
435.97	6401.37
436.16	6546.48
436.34	6459.88
436.53	6633.08
436.72	6626.06
436.90	6462.22
437.09	6555.84
437.28	6490.31
437.46	6633.08
437.65	6689.25
437.84	6874.15
438.02	6904.58
438.21	6806.28
438.40	6747.76
438.58	7026.29
438.77	7164.38
438.96	6937.35
439.14	7066.08
439.33	7260.34
439.52	7124.59
439.70	7288.43
439.89	7414.82
440.08	7302.47
440.26	7508.44
440.45	7382.05
440.63	7386.73
440.82	7485.03
441.01	7449.93
441.19	7623.12
441.38	7698.02
441.57	7672.28
441.75	7941.44
441.94	7971.86
442.12	7896.97
442.31	8016.33
442.50	7899.31
442.68	8009.31
442.87	8189.53
443.05	8093.57
443.24	8383.80
443.43	8187.19
443.61	8105.28
443.80	8507.85
443.98	8177.83
444.17	7906.33
444.35	8304.22
444.54	8360.39
444.73	8248.05
444.91	8430.61
445.10	8311.24
445.28	8404.86
445.47	8355.71
445.65	8423.59
445.84	8475.08
446.02	8617.85
446.21	8456.36
446.39	8430.61
446.58	8575.72
446.77	8620.19
446.95	8299.54
447.14	8428.27
447.32	8578.06
447.51	8482.10
447.69	8320.60
447.88	8374.44
448.06	8601.47
448.25	8704.45
448.43	8716.16
448.62	8627.21
448.80	8435.29
448.99	8650.62
449.17	8802.75
449.36	8629.56
449.54	8891.70
449.73	9172.56
449.91	9219.37
450.10	9036.81
450.28	9097.66
450.46	9202.99
450.65	9247.46
450.83	9146.81
451.02	9095.32
451.20	9137.45
451.39	9273.20
451.57	9198.31
451.76	9163.20
451.94	9238.09
452.13	9266.18
452.31	9317.67
452.49	9430.02
452.68	9572.79
452.86	9633.64
453.05	9589.17
453.23	9692.16
453.42	9500.23
453.60	9568.11
453.78	9568.11
453.97	9579.81
454.15	9572.79
454.34	9586.83
454.52	9809.19
454.70	9680.46
454.89	9425.34
455.07	9753.01
455.26	9853.66
455.44	9748.33
455.62	10047.92
455.81	10111.11
455.99	10012.81
456.17	10031.54
456.36	10094.73
456.54	10324.10
456.73	10534.75
456.91	10532.41
457.09	10391.98
457.28	10785.19
457.46	10478.58
457.64	10604.97
457.83	10469.22
458.01	10604.97
458.19	10799.23
458.38	10649.44
458.56	10878.81
458.74	10553.48
458.93	10761.78
459.11	10834.34
459.29	10574.54
459.48	11007.54
459.66	10967.75
459.84	10906.90
460.03	11063.71
460.21	11101.16
460.39	10981.79
460.57	10981.79
460.76	11201.80
460.94	11119.89
461.12	11286.06
461.31	11098.82
461.49	11323.51
461.67	11279.04
461.85	11470.97
462.04	11246.27
462.22	11892.26
462.40	11534.16
462.59	11492.03
462.77	11447.56
462.95	11662.89
463.13	11613.74
463.32	11562.25
463.50	12077.16
463.68	11812.68
463.86	11777.58
464.05	11906.31
464.23	11932.05
464.41	11899.28
464.59	11763.53
464.78	12079.50
464.96	12145.04
465.14	12049.08
465.32	12025.67
465.50	12100.57
465.69	12231.64
465.87	12173.13
466.05	12376.75
466.23	12203.55
466.41	12276.11
466.60	12486.76
466.78	12404.84
466.96	12400.16
467.14	12390.80
467.32	12437.61
467.51	12641.23
467.69	12159.08
467.87	12496.12
468.05	12877.63
468.23	12535.91
468.41	12496.12
468.60	12617.83
468.78	12704.43
468.96	12858.90
469.14	12936.14
469.32	12987.63
469.50	12571.02
469.69	13294.24
469.87	13074.23
470.05	12994.65
470.23	13139.77
470.41	13158.49
470.59	13231.05
470.77	13198.28
470.95	13467.44
471.14	13558.72
471.32	13186.58
471.50	13755.33
471.68	13458.08
471.86	13659.37
472.04	13884.06
472.22	14005.77
472.40	13701.50
472.58	13834.91
472.77	14061.94
472.95	14129.81
473.13	14586.22
473.31	14450.47
473.49	13973.00
473.67	14071.30
473.85	14115.77
474.03	14892.83
474.21	14794.53
474.39	14789.85
474.57	14937.30
474.75	14778.14
474.93	14984.11
475.12	15119.86
475.30	15059.01
475.48	15103.48
475.66	15171.35
475.84	15197.10
476.02	15569.24
476.20	15442.85
476.38	15793.94
476.56	15932.03
476.74	16109.91
476.92	16081.82
477.10	15791.59
477.28	16322.90
477.46	16451.63
477.64	16212.89
477.82	16636.53
478.00	16835.47
478.18	16908.03
478.36	16844.84
478.54	17219.32
478.72	17174.85
478.90	17788.07
479.08	17603.17
479.26	17603.17
479.44	17804.46
479.62	17930.84
479.80	18148.51
479.98	18368.52
480.16	18574.49
480.34	18373.21
480.52	18735.99
480.70	18792.16
480.88	18443.42
481.06	19012.17
481.24	18773.44
481.41	19124.52
481.59	19634.75
481.77	19674.54
481.95	19517.73
482.13	19789.23
482.31	19857.10
482.49	20374.36
482.67	20360.32
482.85	20430.54
483.03	20945.45
483.21	20725.44
483.39	20945.45
483.57	20856.51
483.74	20943.11
483.92	21399.52
484.10	21336.32
484.28	21809.11
484.46	22230.41
484.64	22518.29
484.82	21905.07
485.00	22281.90
485.18	22764.05
485.35	22960.66
485.53	23016.83
485.71	23257.90
485.89	23405.36
486.07	23695.58
486.25	23510.68
486.43	23967.09
486.61	23843.04
486.78	24177.73
486.96	24102.84
487.14	24694.99
487.32	24910.32
487.50	24664.57
487.68	25191.19
487.85	25373.75
488.03	25589.08
488.21	26057.18
488.39	26033.78
488.57	26511.25
488.75	26352.09
488.92	26331.03
489.10	27234.47
489.28	26902.12
489.46	27236.81
489.64	27005.10
489.81	27445.12
489.99	27931.95
490.17	27653.43
490.35	28184.73
490.53	28446.87
490.70	28563.90
490.88	28425.81
491.06	28711.35
491.24	29032.00
491.41	28973.49
491.59	29610.12
491.77	29544.58
491.95	29965.88
492.13	30125.04
492.30	30146.10
492.48	30347.39
492.66	30366.11
492.84	30529.95
493.01	30859.96
493.19	30991.03
493.37	31225.09
493.54	31330.41
493.72	31421.69
493.90	31707.24
494.08	32173.00
494.25	32095.77
494.43	32285.35
494.61	32421.10
494.79	32329.82
494.96	32858.78
495.14	32884.53
495.32	33137.30
495.49	33507.11
495.67	33474.34
495.85	33406.47
496.02	33940.11
496.20	34183.52
496.38	34223.31
496.55	34185.86
496.73	35201.66
496.91	34593.12
497.09	34838.87
497.26	35386.56
497.44	35014.41
497.62	35058.88
497.79	35838.28
497.97	35583.16
498.14	36322.77
498.32	36184.68
498.50	36165.96
498.67	37193.45
498.85	36552.15
499.03	37102.17
499.20	37064.72
499.38	37516.45
499.56	37163.03
499.73	37888.59
499.91	37738.80
500.08	37787.95
500.26	37759.86
500.44	37837.10
500.61	38141.37
500.79	38000.94
500.97	38431.60
501.14	38876.30
501.32	38693.74
501.49	38955.88
501.67	38691.40
501.84	39145.46
502.02	39187.59
502.20	39260.15
502.37	39564.42
502.55	39311.64
502.72	39828.90
502.90	40175.30
503.07	39576.12
503.25	40114.44
503.43	40172.96
503.60	40119.12
503.78	40084.01
503.95	40109.76
504.13	40488.93
504.30	40928.95
504.48	40917.25
504.65	41081.08
504.83	40952.35
505.01	41876.86
505.18	41481.31
505.36	41837.08
505.53	41478.97
505.71	41769.20
505.88	41703.67
506.06	41549.19
506.23	42092.19
506.41	41757.50
506.58	42099.22
506.76	42354.33
506.93	42663.28
507.11	42677.33
507.28	43026.07
507.46	42787.33
507.63	43316.29
507.81	43665.03
507.98	43077.56
508.16	43119.69
508.33	43494.18
508.50	43882.70
508.68	43917.81
508.85	44112.08
509.03	44002.07
509.20	44430.39
509.38	44727.64
509.55	44416.35
509.73	44545.08
509.90	44556.78
510.08	44825.94
510.25	44566.14
510.42	44942.97
510.60	45200.43
510.77	45270.64
510.95	45593.64
511.12	45427.46
511.30	45418.10
511.47	45841.73
511.64	45794.92
511.82	46005.57
511.99	45907.27
512.17	46117.92
512.34	45818.33
512.51	46752.20
512.69	46480.70
512.86	46742.84
513.04	46796.67
513.21	46958.17
513.38	46960.51
513.56	47524.58
513.73	47136.05
513.90	47309.25
514.08	47466.06
514.25	47679.05
514.43	47997.37
514.60	47648.63
514.77	47775.02
514.95	48299.30
515.12	47934.17
515.29	48018.43
515.47	47990.34
515.64	48233.76
515.81	48006.73
515.99	48671.44
516.16	48535.69
516.33	48306.32
516.51	48715.91
516.68	48846.98
516.85	48907.83
517.03	49160.61
517.20	49308.07
517.37	48879.75
517.54	48926.56
517.72	49153.59
517.89	49106.78
518.06	49478.92
518.24	49570.21
518.41	49406.37
518.58	49755.11
518.75	49705.96
518.93	49808.94
519.10	49865.11
519.27	50131.93
519.45	49808.94
519.62	49893.20
519.79	50298.11
519.96	50136.62
520.14	50099.17
520.31	50255.98
520.48	50866.86
520.65	50787.28
520.83	50815.37
521.00	50906.65
521.17	50892.61
521.34	50824.73
521.52	50803.67
521.69	51114.96
521.86	51313.90
522.03	51276.46
522.20	51344.33
522.38	51531.57
522.55	51278.80
522.72	51744.56
522.89	51746.90
523.07	51784.35
523.24	51831.16
523.41	52016.07
523.58	51381.78
523.75	52161.18
523.92	52030.11
524.10	52013.73
524.27	52081.60
524.44	52364.81
524.61	52198.63
524.78	52463.11
524.96	52147.14
525.13	52605.88
525.30	52343.74
525.47	52538.01
525.64	52687.80
525.81	52835.25
525.98	53242.51
526.16	52697.16
526.33	52907.81
526.50	53272.93
526.67	52814.19
526.84	52837.59
527.01	53043.56
527.18	52982.71
527.36	53256.55
527.53	53315.06
527.70	53284.64
527.87	53244.85
528.04	53368.90
528.21	53411.02
528.38	53511.67
528.55	53972.75
528.72	53556.14
528.89	53631.04
529.07	53492.94
529.24	53532.73
529.41	53900.20
529.58	53874.45
529.75	53865.09
529.92	53886.15
530.09	54160.00
530.26	54049.99
530.43	54038.29
530.60	54012.54
530.77	54057.01
530.94	54417.46
531.11	54316.81
531.28	54387.03
531.46	54614.06
531.63	54415.11
531.80	54319.15
531.97	54490.01
532.14	54850.45
532.31	54658.53
532.48	54698.32
532.65	54763.85
532.82	54337.88
532.99	54859.82
533.16	54700.66
533.33	54862.16
533.50	55119.62
533.67	54997.91
533.84	54890.24
534.01	54815.35
534.18	54906.63
534.35	55594.74
534.52	54960.46
534.69	55657.94
534.86	55393.46
535.03	55187.49
535.20	55199.19
535.37	55468.36
535.54	55248.35
535.71	55302.18
535.88	55561.98
536.05	55693.05
536.22	55540.91
536.38	55934.12
536.55	55861.57
536.72	55749.22
536.89	55884.97
537.06	55798.37
537.23	56165.84
537.40	55810.07
537.57	55817.10
537.74	56060.51
537.91	55955.19
538.08	55936.46
538.25	55959.87
538.42	55987.95
538.59	56329.67
538.75	56039.45
538.92	56048.81
539.09	56470.11
539.26	56229.03
539.43	56425.64
539.60	56516.92
539.77	56343.72
539.94	56741.61
540.11	56666.71
540.28	56652.67
540.44	56486.49
540.61	56701.82
540.78	56631.60
540.95	56715.86
541.12	56636.28
541.29	56535.64
541.46	56772.03
541.62	56907.79
541.79	56748.63
541.96	56488.83
542.13	56760.33
542.30	56842.25
542.47	56907.79
542.63	57219.08
542.80	57212.06
542.97	57099.71
543.14	57186.31
543.31	57221.42
543.48	57467.17
543.64	57780.81
543.81	57619.31
543.98	57242.48
544.15	57497.60
544.32	57546.75
544.48	57612.29
544.65	57783.15
544.82	57694.21
544.99	57593.56
545.16	57661.44
545.32	57296.31
545.49	57846.34
545.66	58068.69
545.83	57673.14
546.00	57911.88
546.16	57848.68
546.33	57801.87
546.50	57773.78
546.67	57925.92
546.83	57600.58
547.00	58007.84
547.17	57836.98
547.34	57858.04
547.50	58113.16
547.67	58328.49
547.84	58014.86
548.00	58473.60
548.17	58340.19
548.34	58176.36
548.51	58354.24
548.67	58461.90
548.84	58475.94
549.01	58340.19
549.18	58239.55
549.34	58555.52
549.51	58478.28
549.68	58518.07
549.84	58489.99
550.01	58569.57
550.18	58632.76
550.34	58412.75
550.51	58712.34
550.68	58794.26
550.84	58497.01
551.01	58621.06
551.18	58557.86
551.34	58759.15
551.51	58866.81
551.68	58728.72
551.84	58808.30
552.01	58688.93
552.18	58894.90
552.34	58728.72
552.51	59004.91
552.68	58693.61
552.84	58876.18
553.01	59187.47
553.18	58719.36
553.34	59138.32
553.51	58841.07
553.67	58997.88
553.84	59014.27
554.01	59117.25
554.17	59157.04
554.34	59295.13
554.51	59126.61
554.67	59309.18
554.84	59203.85
555.00	59288.11
555.17	59171.08
555.33	59150.02
555.50	59016.61
555.67	59306.83
555.83	59271.73
556.00	59386.41
556.16	59718.77
556.33	59524.50
556.50	59283.43
556.66	59400.46
556.83	59180.45
556.99	59678.98
557.16	59583.02
557.32	59580.68
557.49	59828.77
557.65	59512.80
557.82	59442.59
557.98	59531.53
558.15	59510.46
558.32	59578.34
558.48	59608.76
558.65	59688.34
558.81	59585.36
558.98	59739.83
559.14	59765.58
559.31	59568.97
559.47	60055.81
559.64	59796.01
559.80	59854.52
559.97	59920.05
560.13	59833.46
560.30	59952.82
560.46	59831.11
560.63	59898.99
560.79	60046.44
560.96	59983.25
561.12	59976.23
561.29	60051.12
561.45	60123.68
561.61	60060.49
561.78	60016.02
561.94	60081.55
562.11	59962.18
562.27	60001.97
562.44	59969.21
562.60	60203.26
562.77	59959.84
562.93	59746.86
563.10	60191.56
563.26	60102.62
563.42	60416.25
563.59	60268.79
563.75	60182.19
563.92	60126.02
564.08	60191.56
564.24	60264.11
564.41	60161.13
564.57	60320.29
564.74	60193.90
564.90	60193.90
565.07	60296.88
565.23	60369.44
565.39	60346.03
565.56	60467.74
565.72	60240.71
565.88	60275.82
566.05	60282.84
566.21	60140.07
566.38	60271.14
566.54	60186.88
566.70	60526.25
566.87	60638.60
567.03	60353.05
567.19	60544.98
567.36	60388.16
567.52	60413.91
567.68	60884.36
567.85	60683.07
568.01	60580.09
568.17	60423.27
568.34	60580.09
568.50	60612.85
568.66	60397.52
568.83	60374.12
568.99	60566.04
569.15	60385.82
569.32	60458.38
569.48	60383.48
569.64	60575.40
569.81	60662.00
569.97	60662.00
570.13	60491.15
570.30	60544.98
570.46	60797.76
570.62	60999.04
570.78	60755.63
570.95	60640.94
571.11	60940.53
571.27	60502.85
571.43	60779.03
571.60	60856.27
571.76	60680.73
571.92	60757.97
572.09	60926.49
572.25	60687.75
572.41	60701.79
572.57	60734.56
572.74	61029.47
572.90	60893.72
573.06	60912.44
573.22	60809.46
573.38	60743.92
573.55	60772.01
573.71	60952.23
573.87	60793.07
574.03	60931.17
574.20	60821.16
574.36	60732.22
574.52	61022.45
574.68	60818.82
574.84	61057.56
575.01	60846.91
575.17	60844.57
575.33	60662.00
575.49	60832.86
575.65	60907.76
575.82	61059.90
575.98	60945.21
576.14	61153.52
576.30	61090.32
576.46	60790.73
576.62	60858.61
576.79	61027.13
576.95	60715.84
577.11	60977.98
577.27	60879.67
577.43	61078.62
577.59	60687.75
577.75	61127.77
577.92	60549.66
578.08	60968.61
578.24	61130.11
578.40	61127.77
578.56	61160.54
578.72	60942.87
578.88	61020.11
579.04	61228.41
579.21	60975.64
579.37	61118.41
579.53	61083.30
579.69	60856.27
579.85	60949.89
580.01	61013.08
580.17	60928.83
580.33	61188.63
580.49	61200.33
580.65	61041.17
580.82	61036.49
580.98	60874.99
581.14	60919.46
581.30	61247.14
581.46	61111.39
581.62	61151.18
581.78	61134.79
581.94	61151.18
582.10	61134.79
582.26	61085.64
582.42	61048.19
582.58	61106.71
582.74	61045.85
582.90	60874.99
583.06	61212.03
583.22	61015.43
583.38	61223.73
583.54	60973.30
583.70	61200.33
583.86	61254.16
584.02	61001.38
584.18	61071.60
584.34	61237.78
584.50	61200.33
584.66	61134.79
584.82	61010.74
584.98	61162.88
585.14	61200.33
585.30	60968.61
585.46	61207.35
585.62	61148.84
585.78	61160.54
585.94	61029.47
586.10	61413.32
586.26	61095.00
586.42	61195.65
586.58	61125.43
586.74	61113.73
586.90	61010.74
587.06	61162.88
587.22	61193.31
587.38	61286.93
587.54	61413.32
587.70	61258.84
587.86	61240.12
588.02	61357.14
588.18	61303.31
588.34	61120.75
588.49	61099.68
