SpectraSuite Data File
++++++++++++++++++++++++++++++++++++
Date: Fri Oct 25 10:48:13 EDT 2013
User: price-jones
Dark Spectrum Present: No
Reference Spectrum Present: No
Number of Sampled Component Spectra: 1
Spectrometers: USB2+H05261
Integration Time (usec): 100000 (USB2+H05261)
Spectra Averaged: 1 (USB2+H05261)
Boxcar Smoothing: 0 (USB2+H05261)
Correct for Electrical Dark: No (USB2+H05261)
Strobe/Lamp Enabled: No (USB2+H05261)
Correct for Detector Non-linearity: No (USB2+H05261)
Correct for Stray Light: No (USB2+H05261)
Number of Pixels in Processed Spectrum: 2048
>>>>>Begin Processed Spectral Data<<<<<
365.73	173.20
365.92	173.20
366.12	173.20
366.32	107.66
366.52	60.85
366.72	21.06
366.91	53.83
367.11	18.72
367.31	35.11
367.51	42.13
367.70	0.00
367.90	42.13
368.10	37.45
368.30	37.45
368.49	11.70
368.69	60.85
368.89	25.75
369.09	93.62
369.28	16.38
369.48	72.56
369.68	126.39
369.87	124.05
370.07	124.05
370.27	121.71
370.47	205.97
370.66	437.68
370.86	430.66
371.06	491.51
371.25	493.85
371.45	442.36
371.65	451.72
371.84	440.02
372.04	498.53
372.24	510.24
372.44	400.23
372.63	500.87
372.83	423.64
373.03	514.92
373.22	442.36
373.42	524.28
373.62	519.60
373.81	526.62
374.01	496.19
374.21	512.58
374.40	517.26
374.60	535.98
374.79	641.31
374.99	634.29
375.19	554.71
375.38	610.88
375.58	664.71
375.78	545.34
375.97	601.52
376.17	610.88
376.37	514.92
376.56	641.31
376.76	636.63
376.95	645.99
377.15	578.11
377.35	578.11
377.54	697.48
377.74	608.54
377.93	629.60
378.13	589.82
378.33	716.20
378.52	615.56
378.72	643.65
378.91	678.76
379.11	627.26
379.31	617.90
379.50	615.56
379.70	676.41
379.89	718.54
380.09	702.16
380.28	711.52
380.48	657.69
380.68	624.92
380.87	692.80
381.07	718.54
381.26	720.88
381.46	685.78
381.65	690.46
381.85	716.20
382.04	737.27
382.24	716.20
382.43	748.97
382.63	676.41
382.83	638.97
383.02	660.03
383.22	674.07
383.41	688.12
383.61	683.44
383.80	777.06
384.00	720.88
384.19	739.61
384.39	704.50
384.58	697.48
384.78	807.48
384.97	837.91
385.17	746.63
385.36	784.08
385.56	861.32
385.75	774.72
385.95	842.59
386.14	800.46
386.34	812.17
386.53	777.06
386.72	748.97
386.92	847.27
387.11	828.55
387.31	849.61
387.50	800.46
387.70	819.19
387.89	882.38
388.09	915.15
388.28	856.64
388.48	793.44
388.67	952.60
388.86	922.17
389.06	887.06
389.25	1004.09
389.45	898.77
389.64	973.66
389.84	938.55
390.03	905.79
390.22	858.98
390.42	950.26
390.61	936.21
390.81	940.90
391.00	889.40
391.19	1011.11
391.39	976.00
391.58	971.32
391.78	947.92
391.97	882.38
392.16	947.92
392.36	1083.67
392.55	1039.20
392.75	987.71
392.94	884.72
393.13	938.55
393.33	1006.43
393.52	992.39
393.71	1020.47
393.91	1060.26
394.10	1041.54
394.29	1107.07
394.49	1116.44
394.68	1146.86
394.88	1081.33
395.07	1142.18
395.26	1088.35
395.46	1008.77
395.65	1146.86
395.84	1233.46
396.04	1184.31
396.23	1104.73
396.42	1067.28
396.62	1107.07
396.81	1172.61
397.00	1139.84
397.19	1273.25
397.39	1226.44
397.58	1252.19
397.77	1299.00
397.97	1266.23
398.16	1322.40
398.35	1348.15
398.55	1329.42
398.74	1392.62
398.93	1366.87
399.12	1362.19
399.32	1343.47
399.51	1406.66
399.70	1383.26
399.90	1392.62
400.09	1444.11
400.28	1444.11
400.47	1350.49
400.67	1493.26
400.86	1516.67
401.05	1547.09
401.24	1441.77
401.44	1521.35
401.63	1561.14
401.82	1439.43
402.01	1406.66
402.21	1556.46
402.40	1589.22
402.59	1563.48
402.78	1537.73
402.97	1593.90
403.17	1600.93
403.36	1659.44
403.55	1577.52
403.74	1748.38
403.93	1624.33
404.13	1612.63
404.32	1680.50
404.51	1680.50
404.70	1600.93
404.89	1666.46
405.09	1797.53
405.28	1781.15
405.47	1680.50
405.66	1654.76
405.85	1806.89
406.05	1743.70
406.24	1781.15
406.43	1781.15
406.62	1769.44
406.81	1877.11
407.00	1853.70
407.20	1804.55
407.39	1818.60
407.58	1963.71
407.77	1865.41
407.96	1977.75
408.15	2062.01
408.34	1914.56
408.54	2099.46
408.73	2087.76
408.92	2211.81
409.11	2057.33
409.30	1998.82
409.49	2059.67
409.68	2083.08
409.87	2057.33
410.07	2150.95
410.26	2176.70
410.45	2253.94
410.64	2218.83
410.83	2136.91
411.02	2265.64
411.21	2319.47
411.40	2263.30
411.59	2307.77
411.78	2244.57
411.98	2363.94
412.17	2476.29
412.36	2438.84
412.55	2354.58
412.74	2399.05
412.93	2530.12
413.12	2471.61
413.31	2516.08
413.50	2471.61
413.69	2670.55
413.88	2586.29
414.07	2626.08
414.26	2619.06
414.45	2682.25
414.64	2647.15
414.83	2785.24
415.02	2740.77
415.22	2719.70
415.41	2890.56
415.60	2818.00
415.79	2822.69
415.98	2792.26
416.17	2878.86
416.36	2855.45
416.55	2928.01
416.74	3052.06
416.93	2995.89
417.12	2991.20
417.31	3080.14
417.50	2967.80
417.69	3101.21
417.88	3023.97
418.07	3131.64
418.26	3194.83
418.45	3110.57
418.64	3321.22
418.83	3136.32
419.02	3218.24
419.21	3155.04
419.39	3225.26
419.58	3236.96
419.77	3236.96
419.96	3260.37
420.15	3258.03
420.34	3363.35
420.53	3283.77
420.72	3302.50
420.91	3382.07
421.10	3365.69
421.29	3463.99
421.48	3548.25
421.67	3590.38
421.86	3442.93
422.05	3335.26
422.24	3414.84
422.43	3398.46
422.61	3456.97
422.80	3569.32
422.99	3463.99
423.18	3548.25
423.37	3562.30
423.56	3625.49
423.75	3627.83
423.94	3543.57
424.13	3417.18
424.32	3548.25
424.50	3559.95
424.69	3618.47
424.88	3698.05
425.07	3510.80
425.26	3630.17
425.45	3517.83
425.64	3520.17
425.83	3555.27
426.01	3644.21
426.20	3653.58
426.39	3564.64
426.58	3578.68
426.77	3815.07
426.96	3611.45
427.15	3698.05
427.33	3840.82
427.52	3728.47
427.71	3728.47
427.90	3880.61
428.09	3904.01
428.28	3679.32
428.46	3775.28
428.65	3700.39
428.84	3932.10
429.03	3925.08
429.22	3712.09
429.40	3826.78
429.59	3831.46
429.78	3707.41
429.97	3684.00
430.16	3719.11
430.34	3796.35
430.53	3822.09
430.72	3936.78
430.91	3904.01
431.10	4018.70
431.28	4168.49
431.47	4142.75
431.66	4271.48
431.85	3997.64
432.03	4322.97
432.22	4283.18
432.41	4210.62
432.60	4271.48
432.79	4217.65
432.97	4388.50
433.16	4255.09
433.35	4346.37
433.54	4133.39
433.72	4241.05
433.91	4425.95
434.10	4351.06
434.28	4444.68
434.47	4451.70
434.66	4568.73
434.85	4578.09
435.03	4493.83
435.22	4479.79
435.41	4664.69
435.59	4620.22
435.78	4608.51
435.97	4741.93
436.16	4755.97
436.34	4566.39
436.53	4681.07
436.72	4683.41
436.90	4634.26
437.09	4557.02
437.28	4571.07
437.46	4580.43
437.65	4582.77
437.84	4807.46
438.02	4774.69
438.21	4851.93
438.40	4842.57
438.58	4842.57
438.77	5022.79
438.96	4772.35
439.14	5060.24
439.33	5179.61
439.52	5139.82
439.70	5116.41
439.89	5167.90
440.08	5357.49
440.26	5296.63
440.45	5109.39
440.63	5373.87
440.82	5301.31
441.01	5427.70
441.19	5399.62
441.38	5479.19
441.57	5537.71
441.75	5741.33
441.94	5806.87
442.12	5659.42
442.31	5727.29
442.50	5767.08
442.68	5605.58
442.87	5769.42
443.05	5757.72
443.24	5715.59
443.43	5823.25
443.61	5991.77
443.80	5919.21
443.98	5694.52
444.17	5621.97
444.35	5710.91
444.54	5930.92
444.73	5891.13
444.91	5956.66
445.10	5982.41
445.28	5949.64
445.47	5877.09
445.65	5727.29
445.84	5851.34
446.02	5907.51
446.21	6092.41
446.39	6024.54
446.58	6029.22
446.77	6043.26
446.95	5830.27
447.14	6080.71
447.32	6132.20
447.51	5970.71
447.69	6012.84
447.88	6157.95
448.06	6001.13
448.25	6092.41
448.43	6132.20
448.62	6162.63
448.80	6101.78
448.99	6162.63
449.17	6312.42
449.36	6108.80
449.54	6394.34
449.73	6284.34
449.91	6466.90
450.10	6384.98
450.28	6520.73
450.46	6251.57
450.65	6494.99
450.83	6462.22
451.02	6427.11
451.20	6527.75
451.39	6628.40
451.57	6600.31
451.76	6483.28
451.94	6361.58
452.13	6534.78
452.31	6506.69
452.49	6464.56
452.68	6534.78
452.86	6497.33
453.05	6469.24
453.23	6684.57
453.42	6551.16
453.60	6600.31
453.78	6787.55
453.97	6630.74
454.15	6670.53
454.34	6595.63
454.52	6740.74
454.70	6717.34
454.89	6771.17
455.07	6686.91
455.26	6848.41
455.44	6958.41
455.62	6946.71
455.81	7009.90
455.99	7112.89
456.17	7080.12
456.36	7061.40
456.54	7122.25
456.73	7084.80
456.91	7281.41
457.09	7267.36
457.28	7513.12
457.46	7300.13
457.64	7515.46
457.83	7424.18
458.01	7215.87
458.19	7386.73
458.38	7524.82
458.56	7396.09
458.74	7485.03
458.93	7534.18
459.11	7487.37
459.29	7613.76
459.48	7496.74
459.66	7686.32
459.84	7508.44
460.03	7854.84
460.21	7730.79
460.39	7625.47
460.57	7527.16
460.76	7878.24
460.94	7824.41
461.12	7913.35
461.31	7756.54
461.49	7721.43
461.67	7854.84
461.85	7941.44
462.04	8011.65
462.22	8421.25
462.40	7946.12
462.59	8093.57
462.77	8060.80
462.95	8133.36
463.13	8210.60
463.32	8159.11
463.50	8159.11
463.68	8112.30
463.86	8175.49
464.05	8013.99
464.23	8205.92
464.41	8264.43
464.59	8163.79
464.78	8255.07
464.96	8159.11
465.14	8238.69
465.32	8531.25
465.50	8432.95
465.69	8458.70
465.87	8517.21
466.05	8320.60
466.23	8437.63
466.41	8517.21
466.60	8620.19
466.78	8454.02
466.96	8374.44
467.14	8241.03
467.32	8482.10
467.51	8568.70
467.69	8449.33
467.87	8435.29
468.05	8758.28
468.23	8723.18
468.41	8702.11
468.60	8643.60
468.78	8870.63
468.96	8793.39
469.14	8931.48
469.32	8957.23
469.50	8681.05
469.69	8879.99
469.87	8917.44
470.05	8978.30
470.23	8978.30
470.41	8891.70
470.59	9210.01
470.77	8975.95
470.95	9149.15
471.14	9217.03
471.32	8994.68
471.50	9467.47
471.68	9198.31
471.86	9617.26
472.04	9287.25
472.22	9469.81
472.40	9371.50
472.58	9682.80
472.77	9678.12
472.95	9837.27
473.13	10080.69
473.31	9525.98
473.49	9626.62
473.67	9518.96
473.85	9928.55
474.03	9802.16
474.21	10036.22
474.39	10136.86
474.57	10108.77
474.75	9987.07
474.93	10235.16
475.12	10239.84
475.30	10368.57
475.48	10143.88
475.66	10668.16
475.84	10441.13
476.02	10546.45
476.20	10499.64
476.38	10623.69
476.56	10815.62
476.74	10942.00
476.92	10717.31
477.10	10724.33
477.28	10958.39
477.46	11002.86
477.64	11033.29
477.82	11232.23
478.00	11590.33
478.18	11541.18
478.36	11616.08
478.54	11707.36
478.72	11590.33
478.90	11800.98
479.08	11957.80
479.26	12049.08
479.44	11955.46
479.62	12067.80
479.80	12072.48
479.98	12397.82
480.16	12762.94
480.34	12297.17
480.52	12807.41
480.70	12779.32
480.88	12732.51
481.06	12697.41
481.24	12716.13
481.41	13011.04
481.59	12985.29
481.77	13167.85
481.95	13235.73
482.13	13308.29
482.31	13006.36
482.49	13607.87
482.67	13640.64
482.85	13661.71
483.03	13855.97
483.21	14307.69
483.39	14001.08
483.57	14202.37
483.74	14403.66
483.92	14356.85
484.10	14272.59
484.28	14368.55
484.46	14853.04
484.64	14855.38
484.82	14878.79
485.00	15119.86
485.18	15056.67
485.35	15154.97
485.53	15353.91
485.71	15049.64
485.89	15328.17
486.07	15353.91
486.25	15543.50
486.43	15590.31
486.61	16133.31
486.78	15906.28
486.96	16299.49
487.14	16496.10
487.32	16240.98
487.50	16610.78
487.68	16582.70
487.85	16802.71
488.03	17207.62
488.21	17245.07
488.39	17247.41
488.57	17062.51
488.75	17355.07
488.92	17745.94
489.10	17834.88
489.28	17872.33
489.46	18246.82
489.64	18230.43
489.81	18633.00
489.99	18349.80
490.17	18743.01
490.35	18768.76
490.53	18642.37
490.70	18953.66
490.88	19168.99
491.06	19309.42
491.24	18892.80
491.41	19510.71
491.59	19288.35
491.77	19426.45
491.95	19768.16
492.13	19798.59
492.30	19824.34
492.48	19887.53
492.66	19964.77
492.84	20545.22
493.01	20301.81
493.19	20077.12
493.37	20713.74
493.54	21120.99
493.72	20964.18
493.90	20938.43
494.08	21013.33
494.25	21392.50
494.43	21427.60
494.61	21603.14
494.79	21759.96
494.96	21195.89
495.14	21642.93
495.32	21783.37
495.49	22001.04
495.67	22012.74
495.85	22029.12
496.02	22735.96
496.20	22476.16
496.38	22651.70
496.55	22448.08
496.73	23311.74
496.91	22892.78
497.09	23154.92
497.26	23424.08
497.44	23309.40
497.62	23089.38
497.79	23957.72
497.97	23520.04
498.14	23400.68
498.32	23840.70
498.50	23871.12
498.67	23924.96
498.85	24056.03
499.03	24334.55
499.20	24346.25
499.38	24184.76
499.56	24439.87
499.73	24584.99
499.91	25003.94
500.08	24760.53
500.26	24641.16
500.44	25076.50
500.61	24875.21
500.79	24805.00
500.97	25102.25
501.14	25624.18
501.32	25280.13
501.49	25589.08
501.67	25465.03
501.84	25713.13
502.02	25514.18
502.20	25776.32
502.37	26024.42
502.55	26040.80
502.72	26232.72
502.90	26141.44
503.07	25696.74
503.25	26370.82
503.43	25991.65
503.60	26314.64
503.78	26553.38
503.95	26295.92
504.13	26696.15
504.30	26911.48
504.48	26501.89
504.65	26836.58
504.83	26904.46
505.01	27482.57
505.18	27037.87
505.36	27489.59
505.53	27243.84
505.71	27655.77
505.88	27791.52
506.06	27402.99
506.23	27536.40
506.41	27667.47
506.58	27931.95
506.76	27791.52
506.93	28037.28
507.11	27798.54
507.28	28311.12
507.46	27866.42
507.63	28130.90
507.81	28456.23
507.98	27976.42
508.16	28629.43
508.33	28701.99
508.50	28751.14
508.68	28861.15
508.85	29017.96
509.03	29188.82
509.20	28863.49
509.38	29523.52
509.55	29724.80
509.73	29362.02
509.90	29453.30
510.08	29193.50
510.25	29598.41
510.42	29347.98
510.60	29603.10
510.77	29715.44
510.95	30003.33
511.12	29996.31
511.30	30171.85
511.47	29823.11
511.64	30473.78
511.82	30426.96
511.99	30246.74
512.17	30436.33
512.34	30071.20
512.51	30527.61
512.69	30726.55
512.86	30632.93
513.04	31161.89
513.21	31204.02
513.38	30998.06
513.56	30464.41
513.73	31091.68
513.90	31260.20
514.08	30897.41
514.25	31229.77
514.43	31400.63
514.60	31321.05
514.77	31117.42
514.95	31709.58
515.12	31660.43
515.29	31690.85
515.47	31644.04
515.64	31702.56
515.81	31952.99
515.99	31901.50
516.16	31934.27
516.33	31274.24
516.51	32130.87
516.68	31541.06
516.85	31892.14
517.03	31826.60
517.20	31945.97
517.37	32407.06
517.54	32430.46
517.72	32573.24
517.89	32355.57
518.06	32388.33
518.24	32706.65
518.41	32772.18
518.58	32868.14
518.75	32680.90
518.93	33111.56
519.10	32692.60
519.27	33371.36
519.45	33469.66
519.62	33141.99
519.79	33329.23
519.96	33605.41
520.14	33675.63
520.31	33310.50
520.48	33256.67
520.65	33649.88
520.83	33905.00
521.00	33797.34
521.17	33979.90
521.34	34108.63
521.52	34115.65
521.69	34438.64
521.86	34286.51
522.03	34480.77
522.20	34555.67
522.38	34401.19
522.55	34504.18
522.72	34436.30
522.89	34206.93
523.07	34466.73
523.24	34455.03
523.41	34745.25
523.58	35002.71
523.75	34841.21
523.92	34960.58
524.10	35253.15
524.27	35278.89
524.44	35363.15
524.61	35735.30
524.78	35644.02
524.96	35622.95
525.13	35370.18
525.30	35646.36
525.47	35955.31
525.64	35463.80
525.81	35232.08
525.98	35629.98
526.16	35468.48
526.33	35255.49
526.50	35948.29
526.67	35580.82
526.84	35765.73
527.01	35262.51
527.18	35702.53
527.36	36320.43
527.53	36053.61
527.70	36217.45
527.87	36563.85
528.04	36156.60
528.21	36767.48
528.38	36498.31
528.55	36444.48
528.72	36886.84
528.89	36795.56
529.07	36755.77
529.24	36470.23
529.41	36601.30
529.58	37081.11
529.75	36842.37
529.92	36795.56
530.09	36856.42
530.26	36933.65
530.43	37038.98
530.60	37247.29
530.77	36903.23
530.94	37542.19
531.11	37067.06
531.28	37488.36
531.46	37443.89
531.63	37443.89
531.80	37684.97
531.97	37539.85
532.14	37537.51
532.31	36999.19
532.48	37537.51
532.65	37785.61
532.82	37881.57
532.99	38103.92
533.16	37975.19
533.33	37816.04
533.50	38033.71
533.67	38029.02
533.84	37778.59
534.01	37830.08
534.18	38192.86
534.35	38705.44
534.52	38412.87
534.69	38483.09
534.86	38307.55
535.03	38286.48
535.20	38494.79
535.37	38756.93
535.54	38925.45
535.71	38370.74
535.88	38565.01
536.05	38450.32
536.22	38806.08
536.38	38609.48
536.55	38885.66
536.72	38838.85
536.89	38972.26
537.06	38581.39
537.23	39236.74
537.40	39358.45
537.57	39157.16
537.74	39311.64
537.91	39119.71
538.08	39218.02
538.25	38862.26
538.42	39098.65
538.59	39725.91
538.75	39084.61
538.92	39398.24
539.09	39515.26
539.26	39498.88
539.43	39842.94
539.60	39498.88
539.77	39721.23
539.94	39924.86
540.11	39356.11
540.28	39519.95
540.44	39669.74
540.61	39112.69
540.78	39751.66
540.95	39576.12
541.12	39798.47
541.29	40093.38
541.46	40306.37
541.62	40226.79
541.79	40093.38
541.96	40147.21
542.13	40048.91
542.30	39957.63
542.47	40315.73
542.63	40421.05
542.80	40037.20
542.97	40608.29
543.14	41067.04
543.31	40683.19
543.48	40526.38
543.64	40973.42
543.81	41174.70
543.98	40769.79
544.15	41029.59
544.32	40905.54
544.48	41095.13
544.65	41146.62
544.82	41104.49
544.99	40982.78
545.16	41249.60
545.32	40973.42
545.49	41525.78
545.66	41439.18
545.83	41331.52
546.00	41649.83
546.16	41563.23
546.33	41418.12
546.50	41144.28
546.67	41570.25
546.83	40568.51
547.00	41315.14
547.17	41404.08
547.34	41731.75
547.50	41729.41
547.67	41762.18
547.84	41687.28
548.00	41904.95
548.17	41743.45
548.34	41380.67
548.51	42059.43
548.67	42148.37
548.84	41907.29
549.01	41797.29
549.18	41937.72
549.34	42131.98
549.51	42227.95
549.68	42300.50
549.84	42387.10
550.01	42466.68
550.18	42260.71
550.34	41893.25
550.51	42342.63
550.68	41607.70
550.84	42068.79
551.01	42623.50
551.18	42146.03
551.34	42298.16
551.51	42433.91
551.68	42796.70
551.84	42761.59
552.01	42611.79
552.18	42377.74
552.34	42199.86
552.51	42644.56
552.68	42459.66
552.84	42810.74
553.01	43182.88
553.18	42499.45
553.34	42831.80
553.51	42567.32
553.67	42749.88
553.84	42836.48
554.01	43133.73
554.17	43100.97
554.34	42993.30
554.51	42766.27
554.67	43171.18
554.84	43543.33
555.00	42927.77
555.17	43049.47
555.33	43021.39
555.50	42906.70
555.67	43185.22
555.83	43168.84
556.00	43182.88
556.16	43730.57
556.33	43711.84
556.50	43199.27
556.66	43313.95
556.83	43283.53
556.99	43274.16
557.16	43311.61
557.32	43524.60
557.49	43459.07
557.65	42906.70
557.82	43519.92
557.98	43391.19
558.15	43494.18
558.32	43573.75
558.48	43519.92
558.65	43246.08
558.81	43498.86
558.98	43367.79
559.14	43709.50
559.31	43526.94
559.47	43653.33
559.64	43868.66
559.80	43896.75
559.97	43641.63
560.13	43379.49
560.30	43646.31
560.46	43746.95
560.63	43634.61
560.79	44065.27
560.96	44140.16
561.12	44081.65
561.29	44296.98
561.45	43957.60
561.61	43990.37
561.78	43997.39
561.94	43761.00
562.11	43959.94
562.27	43887.39
562.44	44112.08
562.60	43702.48
562.77	43842.92
562.93	43761.00
563.10	43981.01
563.26	43650.99
563.42	44311.02
563.59	44383.58
563.75	44135.48
563.92	44194.00
564.08	43995.05
564.24	44449.11
564.41	44226.76
564.57	43812.49
564.74	44376.56
564.90	44189.31
565.07	43948.24
565.23	43952.92
565.39	44357.83
565.56	44161.23
565.72	43915.47
565.88	44233.78
566.05	43995.05
566.21	44378.90
566.38	44268.89
566.54	43920.15
566.70	44636.36
566.87	44589.55
567.03	44566.14
567.19	44671.46
567.36	44659.76
567.52	44013.77
567.68	44694.87
567.85	44196.34
568.01	44875.09
568.17	44105.06
568.34	44474.86
568.50	44500.61
568.66	44617.63
568.83	44584.86
568.99	44442.09
569.15	44509.97
569.32	44236.12
569.48	44266.55
569.64	44683.17
569.81	44409.32
569.97	44149.53
570.13	44755.72
570.30	44109.74
570.46	44701.89
570.62	44194.00
570.78	44425.71
570.95	44289.96
571.11	45097.44
571.27	44301.66
571.43	44631.68
571.60	44605.93
571.76	44577.84
571.92	44669.12
572.09	44664.44
572.25	45057.65
572.41	44479.54
572.57	44706.57
572.74	45291.71
572.90	44708.91
573.06	44725.30
573.22	44914.88
573.38	44839.98
573.55	44722.96
573.71	44905.52
573.87	44376.56
574.03	44275.91
574.20	44573.16
574.36	44442.09
574.52	45024.89
574.68	44608.27
574.84	44697.21
575.01	44975.73
575.17	45015.52
575.33	44194.00
575.49	44638.70
575.65	44889.13
575.82	45287.03
575.98	44428.05
576.14	45085.74
576.30	44980.42
576.46	44533.37
576.62	44360.17
576.79	44708.91
576.95	44245.49
577.11	44727.64
577.27	44636.36
577.43	45167.66
577.59	44786.15
577.75	44900.84
577.92	44215.06
578.08	44392.94
578.24	44811.90
578.40	44247.83
578.56	44582.52
578.72	45027.23
578.88	44802.53
579.04	44875.09
579.21	44980.42
579.37	44886.79
579.53	44446.77
579.69	44418.69
579.85	44568.48
580.01	45209.79
580.17	44591.89
580.33	44896.16
580.49	45052.97
580.65	44957.01
580.82	44903.18
580.98	44875.09
581.14	44889.13
581.30	45354.90
581.46	44802.53
581.62	44666.78
581.78	44467.84
581.94	45294.05
582.10	44835.30
582.26	45062.33
582.42	45170.00
582.58	45287.03
582.74	44762.75
582.90	44748.70
583.06	44978.07
583.22	44818.92
583.38	45443.84
583.54	45120.85
583.70	45006.16
583.86	45038.93
584.02	45158.30
584.18	44919.56
584.34	44767.43
584.50	45132.55
584.66	44587.21
584.82	44423.37
584.98	45404.05
585.14	45092.76
585.30	44961.69
585.46	45422.78
585.62	45130.21
585.78	44786.15
585.94	44634.02
586.10	44608.27
586.26	45118.51
586.42	44762.75
586.58	45118.51
586.74	45008.50
586.90	44800.19
587.06	44594.23
587.22	45624.06
587.38	44847.00
587.54	45289.37
587.70	45158.30
587.86	45326.81
588.02	45064.67
588.18	45125.53
588.34	45251.92
588.49	44942.97
588.65	44411.67
588.81	44547.42
588.97	44397.62
589.13	44947.65
589.29	45165.32
589.45	45043.61
589.61	45062.33
589.77	45254.26
589.93	45212.13
590.08	45659.17
590.24	45116.17
