SpectraSuite Data File
++++++++++++++++++++++++++++++++++++
Date: Fri Oct 25 11:26:30 EDT 2013
User: price-jones
Dark Spectrum Present: No
Reference Spectrum Present: No
Number of Sampled Component Spectra: 1
Spectrometers: USB2+H05261
Integration Time (usec): 100000 (USB2+H05261)
Spectra Averaged: 1 (USB2+H05261)
Boxcar Smoothing: 0 (USB2+H05261)
Correct for Electrical Dark: No (USB2+H05261)
Strobe/Lamp Enabled: No (USB2+H05261)
Correct for Detector Non-linearity: No (USB2+H05261)
Correct for Stray Light: No (USB2+H05261)
Number of Pixels in Processed Spectrum: 2048
>>>>>Begin Processed Spectral Data<<<<<
365.73	180.22
365.92	180.22
366.12	180.22
366.32	173.20
366.52	135.75
366.72	184.90
366.91	154.48
367.11	194.26
367.31	142.77
367.51	163.84
367.70	117.03
367.90	189.58
368.10	79.58
368.30	133.41
368.49	114.69
368.69	119.37
368.89	159.16
369.09	140.43
369.28	203.63
369.48	229.37
369.68	241.08
369.87	175.54
370.07	215.33
370.27	259.80
370.47	341.72
370.66	617.90
370.86	671.73
371.06	676.41
371.25	662.37
371.45	657.69
371.65	702.16
371.84	681.10
372.04	676.41
372.24	683.44
372.44	751.31
372.63	674.07
372.83	812.17
373.03	774.72
373.22	777.06
373.42	760.67
373.62	702.16
373.81	851.96
374.01	763.01
374.21	828.55
374.40	791.10
374.60	851.96
374.79	795.78
374.99	805.14
375.19	802.80
375.38	835.57
375.58	755.99
375.78	856.64
375.97	870.68
376.17	931.53
376.37	793.44
376.56	772.38
376.76	924.51
376.95	856.64
377.15	833.23
377.35	873.02
377.54	875.36
377.74	933.87
377.93	936.21
378.13	947.92
378.33	924.51
378.52	898.77
378.72	971.32
378.91	983.02
379.11	924.51
379.31	964.30
379.50	833.23
379.70	1083.67
379.89	940.90
380.09	851.96
380.28	1046.22
380.48	1034.52
380.68	959.62
380.87	959.62
381.07	997.07
381.26	957.28
381.46	1032.18
381.65	1046.22
381.85	1055.58
382.04	1160.91
382.24	1015.79
382.43	1057.92
382.63	1060.26
382.83	1125.80
383.02	1118.78
383.22	1097.71
383.41	1165.59
383.61	1034.52
383.80	1144.52
384.00	1160.91
384.19	1130.48
384.39	1090.69
384.58	1193.67
384.78	1158.57
384.97	1214.74
385.17	1177.29
385.36	1142.18
385.56	1151.54
385.75	1198.35
385.95	1198.35
386.14	1277.93
386.34	1249.85
386.53	1275.59
386.72	1191.33
386.92	1252.19
387.11	1254.53
387.31	1207.72
387.50	1273.25
387.70	1299.00
387.89	1259.21
388.09	1254.53
388.28	1289.64
388.48	1315.38
388.67	1390.28
388.86	1284.95
389.06	1364.53
389.25	1371.55
389.45	1371.55
389.64	1350.49
389.84	1448.79
390.03	1376.24
390.22	1427.73
390.42	1359.85
390.61	1444.11
390.81	1399.64
391.00	1387.94
391.19	1413.68
391.39	1462.83
391.58	1366.87
391.78	1432.41
391.97	1444.11
392.16	1432.41
392.36	1586.88
392.55	1439.43
392.75	1504.96
392.94	1533.05
393.13	1530.71
393.33	1483.90
393.52	1540.07
393.71	1561.14
393.91	1717.95
394.10	1558.80
394.29	1568.16
394.49	1554.12
394.68	1708.59
394.88	1619.65
395.07	1694.55
395.26	1568.16
395.46	1675.82
395.65	1776.47
395.84	1675.82
396.04	1792.85
396.23	1778.81
396.42	1879.45
396.62	1818.60
396.81	1851.36
397.00	1778.81
397.19	1813.92
397.39	1839.66
397.58	1858.39
397.77	1734.34
397.97	1898.17
398.16	1919.24
398.35	1776.47
398.55	1804.55
398.74	2017.54
398.93	1937.96
399.12	1881.79
399.32	1959.03
399.51	1923.92
399.70	1991.80
399.90	1973.07
400.09	2036.27
400.28	1902.86
400.47	1963.71
400.67	2125.21
400.86	2054.99
401.05	1991.80
401.24	2031.58
401.44	2101.80
401.63	2129.89
401.82	2125.21
402.01	2169.68
402.21	2183.72
402.40	2216.49
402.59	2118.18
402.78	2223.51
402.97	2263.30
403.17	2298.41
403.36	2312.45
403.55	2317.13
403.74	2438.84
403.93	2382.67
404.13	2354.58
404.32	2420.11
404.51	2363.94
404.70	2375.64
404.89	2417.77
405.09	2485.65
405.28	2445.86
405.47	2464.58
405.66	2525.44
405.85	2637.78
406.05	2487.99
406.24	2565.23
406.43	2450.54
406.62	2551.18
406.81	2654.17
407.00	2597.99
407.20	2546.50
407.39	2675.23
407.58	2588.63
407.77	2705.66
407.96	2717.36
408.15	2722.04
408.34	2679.91
408.54	2848.43
408.73	2813.32
408.92	2740.77
409.11	2822.69
409.30	2897.58
409.49	2843.75
409.68	2925.67
409.87	2972.48
410.07	3066.10
410.26	3091.85
410.45	3007.59
410.64	2953.76
410.83	3129.30
411.02	3070.78
411.21	3201.85
411.40	3197.17
411.59	3225.26
411.78	3185.47
411.98	3225.26
412.17	3218.24
412.36	3433.57
412.55	3414.84
412.74	3442.93
412.93	3447.61
413.12	3325.90
413.31	3520.17
413.50	3386.76
413.69	3529.53
413.88	3597.40
414.07	3541.23
414.26	3611.45
414.45	3492.08
414.64	3719.11
414.83	3786.99
415.02	3857.20
415.22	3894.65
415.41	3908.69
415.60	3929.76
415.79	3871.25
415.98	3988.27
416.17	4009.34
416.36	4044.45
416.55	3995.29
416.74	3941.46
416.93	4032.74
417.12	4035.08
417.31	4128.70
417.50	4259.78
417.69	4163.81
417.88	4346.37
418.07	4236.37
418.26	4334.67
418.45	4397.87
418.64	4519.57
418.83	4479.79
419.02	4500.85
419.21	4451.70
419.39	4547.66
419.58	4629.58
419.77	4451.70
419.96	4741.93
420.15	4531.28
420.34	4486.81
420.53	4461.06
420.72	4671.71
420.91	4606.17
421.10	4709.16
421.29	4807.46
421.48	4720.86
421.67	4770.01
421.86	4880.02
422.05	4868.31
422.24	4819.16
422.43	4924.49
422.61	4917.47
422.80	4954.91
422.99	4877.68
423.18	5013.43
423.37	5036.83
423.56	4908.10
423.75	4997.04
423.94	4889.38
424.13	4638.94
424.32	4858.95
424.50	4938.53
424.69	5193.65
424.88	5111.73
425.07	5029.81
425.26	5125.77
425.45	4891.72
425.64	5034.49
425.83	5053.22
426.01	5359.83
426.20	4990.02
426.39	5074.28
426.58	5107.05
426.77	5177.26
426.96	5266.21
427.15	5186.63
427.33	5123.43
427.52	5254.50
427.71	5343.44
427.90	5301.31
428.09	5348.12
428.28	5394.93
428.46	5191.31
428.65	5350.46
428.84	5633.67
429.03	5593.88
429.22	5404.30
429.40	5455.79
429.59	5469.83
429.78	5488.56
429.97	5247.48
430.16	5448.77
430.34	5650.05
430.53	5589.20
430.72	5729.63
430.91	5769.42
431.10	5713.25
431.28	5610.26
431.47	5902.83
431.66	5970.71
431.85	5729.63
432.03	5830.27
432.22	5926.24
432.41	6090.07
432.60	5841.98
432.79	5912.19
432.97	6040.92
433.16	6064.33
433.35	5900.49
433.54	6132.20
433.72	6167.31
433.91	6108.80
434.10	6157.95
434.28	6043.26
434.47	6186.04
434.66	6424.77
434.85	6228.17
435.03	6296.04
435.22	6338.17
435.41	6415.41
435.59	6354.55
435.78	6450.52
435.97	6651.80
436.16	6497.33
436.34	6494.99
436.53	6490.31
436.72	6537.12
436.90	6567.54
437.09	6665.85
437.28	6485.62
437.46	6658.82
437.65	6750.10
437.84	6792.23
438.02	6679.89
438.21	6874.15
438.40	6574.56
438.58	6977.14
438.77	7075.44
438.96	6878.83
439.14	7023.95
439.33	7180.76
439.52	7297.79
439.70	7346.94
439.89	7398.43
440.08	7250.98
440.26	7365.67
440.45	7419.50
440.63	7468.65
440.82	7534.18
441.01	7487.37
441.19	7716.75
441.38	7831.43
441.57	7686.32
441.75	7698.02
441.94	7950.80
442.12	7957.82
442.31	8152.09
442.50	8145.06
442.68	8121.66
442.87	8180.17
443.05	7997.61
443.24	8475.08
443.43	8191.88
443.61	8177.83
443.80	8578.06
443.98	8037.40
444.17	7920.37
444.35	8290.18
444.54	8435.29
444.73	8409.54
444.91	8313.58
445.10	8435.29
445.28	8365.07
445.47	8236.35
445.65	8449.33
445.84	8381.46
446.02	8575.72
446.21	8535.93
446.39	8500.83
446.58	8435.29
446.77	8599.13
446.95	8439.97
447.14	8287.84
447.32	8564.02
447.51	8428.27
447.69	8585.08
447.88	8587.43
448.06	8697.43
448.25	8592.11
448.43	8608.49
448.62	8465.72
448.80	8587.43
448.99	8758.28
449.17	8781.69
449.36	8697.43
449.54	8751.26
449.73	8982.98
449.91	9095.32
450.10	9046.17
450.28	8992.34
450.46	9046.17
450.65	8968.93
450.83	9048.51
451.02	9053.19
451.20	9172.56
451.39	9205.33
451.57	9090.64
451.76	9114.05
451.94	9167.88
452.13	9394.91
452.31	9373.85
452.49	9078.94
452.68	9406.61
452.86	9425.34
453.05	9598.54
453.23	9481.51
453.42	9373.85
453.60	9462.79
453.78	9516.62
453.97	9392.57
454.15	9678.12
454.34	9504.92
454.52	10019.83
454.70	9799.82
454.89	9715.56
455.07	9928.55
455.26	10059.62
455.44	9820.89
455.62	9682.80
455.81	9914.51
455.99	10066.64
456.17	10141.54
456.36	10108.77
456.54	10225.80
456.73	10298.36
456.91	10375.59
457.09	10342.83
457.28	10726.68
457.46	10490.28
457.64	10424.75
457.83	10511.35
458.01	10448.15
458.19	10827.32
458.38	10473.90
458.56	10614.33
458.74	10619.01
458.93	10602.63
459.11	10637.73
459.29	10785.19
459.48	10937.32
459.66	10885.83
459.84	10764.12
460.03	11115.20
460.21	10963.07
460.39	11164.36
460.57	10981.79
460.76	11180.74
460.94	11220.53
461.12	11344.58
461.31	11225.21
461.49	11152.65
461.67	11239.25
461.85	11698.00
462.04	11503.73
462.22	11311.81
462.40	11538.84
462.59	11520.12
462.77	11283.72
462.95	11410.11
463.13	11683.95
463.32	11557.57
463.50	11831.41
463.68	11925.03
463.86	11978.86
464.05	11566.93
464.23	11688.64
464.41	11707.36
464.59	11786.94
464.78	12145.04
464.96	12051.42
465.14	11885.24
465.32	12079.50
465.50	12159.08
465.69	12226.96
465.87	12243.34
466.05	12006.95
466.23	12173.13
466.41	12233.98
466.60	12458.67
466.78	12278.45
466.96	12425.90
467.14	12091.21
467.32	12341.64
467.51	12830.82
467.69	12138.02
467.87	12226.96
468.05	12484.42
468.23	12664.64
468.41	12400.16
468.60	12596.76
468.78	12828.48
468.96	12549.95
469.14	12891.67
469.32	13034.44
469.50	12835.50
469.69	13064.87
469.87	13114.02
470.05	13139.77
470.23	13118.70
470.41	13305.95
470.59	13418.29
470.77	13172.54
470.95	13343.39
471.14	13671.07
471.32	13081.25
471.50	13724.90
471.68	13563.40
471.86	13689.79
472.04	13951.93
472.22	14167.26
472.40	13710.86
472.58	13855.97
472.77	14211.73
472.95	14143.86
473.13	14328.76
473.31	14197.69
473.49	14277.27
473.67	14375.57
473.85	14263.22
474.03	14611.96
474.21	14726.65
474.39	14705.59
474.57	14799.21
474.75	15000.49
474.93	14839.00
475.12	14761.76
475.30	15234.55
475.48	15002.83
475.66	15346.89
475.84	15197.10
476.02	15426.47
476.20	15098.80
476.38	15868.83
476.56	15981.18
476.74	15793.94
476.92	16006.92
477.10	15702.65
477.28	16189.49
477.46	16137.99
477.64	16402.47
477.82	16594.40
478.00	17067.19
478.18	16615.46
478.36	16788.66
478.54	16989.95
478.72	17153.79
478.90	17118.68
479.08	17521.25
479.26	17764.67
479.44	17860.63
479.62	17813.82
479.80	17930.84
479.98	18302.99
480.16	18932.59
480.34	18377.89
480.52	18593.22
480.70	18724.29
480.88	18567.47
481.06	19171.33
481.24	19075.37
481.41	19227.50
481.59	19239.20
481.77	19424.11
481.95	19592.62
482.13	19700.29
482.31	19613.69
482.49	20156.69
482.67	20205.84
482.85	20624.80
483.03	20535.86
483.21	20739.49
483.39	21238.02
483.57	20847.15
483.74	21247.38
483.92	21476.76
484.10	21656.98
484.28	21546.97
484.46	22178.92
484.64	22242.11
484.82	22178.92
485.00	22548.72
485.18	22780.43
485.35	23030.87
485.53	22948.95
485.71	23229.82
485.89	23665.16
486.07	23363.23
486.25	23290.67
486.43	23721.33
486.61	24013.90
486.78	24301.78
486.96	24273.70
487.14	24868.19
487.32	24662.22
487.50	25076.50
487.68	25043.73
487.85	25282.47
488.03	25631.21
488.21	26071.23
488.39	26008.03
488.57	26064.21
488.75	26408.26
488.92	26511.25
489.10	26782.75
489.28	26672.74
489.46	27026.17
489.64	26761.69
489.81	27960.04
489.99	27300.01
490.17	27754.07
490.35	27988.13
490.53	28278.35
490.70	28804.97
490.88	28687.95
491.06	29003.92
491.24	28786.25
491.41	29076.48
491.59	29380.74
491.77	29312.87
491.95	29619.48
492.13	29780.98
492.30	29898.00
492.48	30012.69
492.66	30668.04
492.84	30157.80
493.01	30668.04
493.19	30834.22
493.37	31119.76
493.54	31150.19
493.72	31915.54
493.90	31578.51
494.08	31545.74
494.25	31899.16
494.43	32058.32
494.61	32123.85
494.79	32847.08
494.96	32718.35
495.14	32481.95
495.32	33125.60
495.49	32863.46
495.67	33589.03
495.85	33736.48
496.02	33752.87
496.20	34064.16
496.38	34312.25
496.55	34190.55
496.73	34824.83
496.91	34522.90
497.09	34742.91
497.26	35529.33
497.44	35016.75
497.62	35222.72
497.79	35775.09
497.97	35552.74
498.14	36107.44
498.32	36451.50
498.50	36219.79
498.67	36552.15
498.85	36634.06
499.03	37139.62
499.20	37034.30
499.38	37020.25
499.56	37003.87
499.73	37511.77
499.91	37663.90
500.08	37837.10
500.26	37404.10
500.44	37694.33
500.61	37858.17
500.79	37717.73
500.97	38155.41
501.14	38703.10
501.32	38677.35
501.49	38693.74
501.67	38703.10
501.84	38869.28
502.02	38789.70
502.20	39117.37
502.37	39157.16
502.55	39108.01
502.72	39459.09
502.90	39599.52
503.07	39559.73
503.25	39955.29
503.43	39648.68
503.60	40301.68
503.78	40289.98
503.95	40142.53
504.13	40634.04
504.30	40818.94
504.48	40416.37
504.65	40966.40
504.83	41081.08
505.01	41198.11
505.18	41118.53
505.36	41453.23
505.53	41383.01
505.71	41778.56
505.88	41783.24
506.06	41668.56
506.23	41848.78
506.41	41907.29
506.58	42014.96
506.76	42614.13
506.93	42522.85
507.11	42192.84
507.28	42754.57
507.46	43175.86
507.63	43140.75
507.81	43805.47
507.98	42927.77
508.16	43086.92
508.33	43489.49
508.50	43725.89
508.68	43906.11
508.85	43863.98
509.03	44083.99
509.20	43910.79
509.38	44493.58
509.55	44453.79
509.73	44458.48
509.90	44271.23
510.08	44718.28
510.25	44449.11
510.42	44879.77
510.60	45780.88
510.77	45031.91
510.95	45698.96
511.12	45361.92
511.30	45188.72
511.47	45422.78
511.64	45675.55
511.82	45762.15
511.99	45916.63
512.17	46167.07
512.34	45986.85
512.51	46564.96
512.69	46553.26
512.86	46473.68
513.04	46894.97
513.21	46429.21
513.38	46752.20
513.56	46733.48
513.73	47124.35
513.90	46948.81
514.08	46789.65
514.25	47540.96
514.43	47367.76
514.60	47562.03
514.77	47232.01
514.95	47791.40
515.12	47454.36
515.29	47852.25
515.47	48170.57
515.64	48296.95
515.81	48093.33
515.99	48282.91
516.16	48577.82
516.33	48350.79
516.51	48406.96
516.68	48535.69
516.85	48652.72
517.03	48858.68
517.20	48999.12
517.37	48467.81
517.54	48369.51
517.72	48844.64
517.89	49237.85
518.06	49200.40
518.24	49558.50
518.41	49296.36
518.58	49408.71
518.75	48959.33
518.93	49727.02
519.10	49712.98
519.27	50061.72
519.45	49759.79
519.62	49705.96
519.79	49900.22
519.96	50183.43
520.14	50197.47
520.31	49989.16
520.48	49970.44
520.65	50038.31
520.83	50614.08
521.00	50864.52
521.17	50564.93
521.34	50707.71
521.52	50897.29
521.69	50960.48
521.86	50941.76
522.03	51072.83
522.20	51311.56
522.38	51578.39
522.55	51749.24
522.72	51664.99
522.89	51189.86
523.07	51711.80
523.24	51337.31
523.41	51746.90
523.58	51580.73
523.75	51969.26
523.92	51723.50
524.10	52266.50
524.27	51943.51
524.44	52100.32
524.61	52128.41
524.78	52439.70
524.96	52261.82
525.13	52343.74
525.30	52350.76
525.47	52697.16
525.64	52467.79
525.81	52523.96
525.98	52884.40
526.16	52722.91
526.33	52615.24
526.50	53155.91
526.67	53036.54
526.84	53296.34
527.01	52933.56
527.18	52861.00
527.36	52989.73
527.53	53083.35
527.70	53312.72
527.87	53567.84
528.04	53406.34
528.21	53567.84
528.38	53345.49
528.55	53624.01
528.72	53581.88
528.89	53343.15
529.07	53490.60
529.24	53504.65
529.41	53972.75
529.58	53834.66
529.75	53670.82
529.92	53734.02
530.09	53841.68
530.26	54340.22
530.43	54007.86
530.60	53640.40
530.77	54101.48
530.94	54096.80
531.11	54075.74
531.28	54057.01
531.46	54314.47
531.63	54281.70
531.80	54291.07
531.97	54644.49
532.14	54349.58
532.31	54272.34
532.48	54719.38
532.65	54649.17
532.82	54412.77
532.99	54623.42
533.16	54412.77
533.33	55119.62
533.50	55021.31
533.67	54845.77
533.84	54948.76
534.01	54986.21
534.18	54923.01
534.35	55192.17
534.52	55356.01
534.69	55121.96
534.86	55573.68
535.03	55058.76
535.20	55145.36
535.37	55641.56
535.54	55388.78
535.71	55213.24
535.88	55636.87
536.05	55526.87
536.22	55435.59
536.38	55714.11
536.55	55796.03
536.72	55749.22
536.89	55681.34
537.06	55636.87
537.23	55599.43
537.40	55599.43
537.57	55800.71
537.74	55936.46
537.91	55814.76
538.08	56034.77
538.25	55702.41
538.42	55971.57
538.59	56046.47
538.75	56154.13
538.92	56126.05
539.09	56285.20
539.26	56165.84
539.43	56245.41
539.60	56327.33
539.77	56058.17
539.94	56395.21
540.11	56243.07
540.28	56477.13
540.44	56570.75
540.61	56505.21
540.78	56409.25
540.95	56268.82
541.12	56577.77
541.29	56491.17
541.46	56561.39
541.62	56683.09
541.79	56711.18
541.96	56591.81
542.13	56552.02
542.30	56633.94
542.47	57123.11
542.63	56954.60
542.80	57038.86
542.97	57336.10
543.14	57322.06
543.31	57317.38
543.48	57212.06
543.64	57673.14
543.81	57478.88
543.98	57340.78
544.15	57378.23
544.32	57563.14
544.48	57712.93
544.65	57338.44
544.82	57270.57
544.99	57289.29
545.16	57588.88
545.32	57635.69
545.49	57752.72
545.66	57684.84
545.83	57670.80
546.00	57668.46
546.16	57762.08
546.33	57696.55
546.50	57490.58
546.67	57851.02
546.83	57621.65
547.00	57937.62
547.17	57844.00
547.34	57743.36
547.50	58148.27
547.67	58213.80
547.84	57958.69
548.00	58021.88
548.17	58129.54
548.34	58082.73
548.51	58223.17
548.67	58272.32
548.84	58166.99
549.01	58230.19
549.18	58197.42
549.34	58237.21
549.51	58464.24
549.68	58475.94
549.84	58356.58
550.01	58487.65
550.18	58447.86
550.34	58583.61
550.51	58592.97
550.68	58459.56
550.84	58370.62
551.01	58485.31
551.18	58698.30
551.34	58464.24
551.51	58745.11
551.68	58899.58
551.84	58702.98
552.01	58674.89
552.18	58749.79
552.34	58597.65
552.51	58780.21
552.68	58607.01
552.84	58721.70
553.01	58939.37
553.18	58990.86
553.34	59075.12
553.51	58766.17
553.67	58913.62
553.84	58812.98
554.01	59040.01
554.17	59063.42
554.34	59143.00
554.51	58960.44
554.67	59222.58
554.84	59000.22
555.00	59112.57
555.17	59199.17
555.33	59283.43
555.50	58777.87
555.67	59054.06
555.83	59196.83
556.00	59040.01
556.16	59508.12
556.33	59332.58
556.50	59374.71
556.66	59295.13
556.83	59243.64
556.99	59367.69
557.16	59540.89
557.32	59552.59
557.49	59700.04
557.65	59636.85
557.82	59330.24
557.98	59512.80
558.15	59770.26
558.32	59533.87
558.48	59386.41
558.65	59475.35
558.81	59458.97
558.98	59700.04
559.14	59700.04
559.31	59807.71
559.47	59662.60
559.64	59620.47
559.80	59667.28
559.97	59709.41
560.13	59536.21
560.30	59554.93
560.46	59952.82
560.63	59882.61
560.79	59519.82
560.96	60065.17
561.12	59772.60
561.29	59828.77
561.45	60006.65
561.61	59990.27
561.78	59863.88
561.94	59765.58
562.11	59774.94
562.27	59779.62
562.44	60001.97
562.60	60004.31
562.77	59870.90
562.93	59971.55
563.10	60121.34
563.26	59924.74
563.42	60264.11
563.59	60030.06
563.75	60093.25
563.92	60072.19
564.08	60020.70
564.24	60182.19
564.41	60273.48
564.57	60207.94
564.74	60175.17
564.90	60062.83
565.07	60023.04
565.23	60364.76
565.39	60273.48
565.56	60310.92
565.72	60210.28
565.88	60367.10
566.05	60097.94
566.21	60364.76
566.38	60210.28
566.54	60360.08
566.70	60273.48
566.87	60278.16
567.03	60196.24
567.19	60303.90
567.36	60294.54
567.52	60423.27
567.68	60636.26
567.85	60441.99
568.01	60240.71
568.17	60259.43
568.34	60456.04
568.50	60343.69
568.66	60404.55
568.83	60280.50
568.99	60505.19
569.15	60530.93
569.32	60210.28
569.48	60566.04
569.64	60711.16
569.81	60535.62
569.97	60292.20
570.13	60432.63
570.30	60285.18
570.46	60526.25
570.62	60484.12
570.78	60451.36
570.95	60612.85
571.11	60795.42
571.27	60406.89
571.43	60566.04
571.60	60678.39
571.76	60676.05
571.92	60566.04
572.09	60481.78
572.25	60666.69
572.41	60662.00
572.57	60470.08
572.74	60748.60
572.90	60659.66
573.06	60685.41
573.22	60779.03
573.38	60563.70
573.55	60732.22
573.71	60860.95
573.87	60683.07
574.03	60416.25
574.20	60734.56
574.36	60683.07
574.52	60858.61
574.68	60718.18
574.84	60891.38
575.01	60912.44
575.17	60718.18
575.33	60844.57
575.49	60669.03
575.65	60910.10
575.82	60900.74
575.98	60708.82
576.14	60968.61
576.30	60844.57
576.46	60701.79
576.62	60884.36
576.79	60942.87
576.95	60727.54
577.11	60874.99
577.27	60692.43
577.43	60839.89
577.59	60926.49
577.75	60757.97
577.92	60734.56
578.08	60856.27
578.24	61013.08
578.40	61151.18
578.56	60905.42
578.72	60898.40
578.88	61045.85
579.04	61162.88
579.21	60781.37
579.37	61106.71
579.53	61015.43
579.69	60793.07
579.85	60891.38
580.01	60772.01
580.17	60889.04
580.33	60970.96
580.49	61045.85
580.65	60985.00
580.82	61020.11
580.98	60654.98
581.14	60860.95
581.30	60985.00
581.46	60917.12
581.62	61001.38
581.78	61015.43
581.94	60858.61
582.10	60898.40
582.26	60832.86
582.42	60963.93
582.58	60980.32
582.74	60907.76
582.90	60907.76
583.06	60963.93
583.22	60795.42
583.38	60973.30
583.54	61130.11
583.70	60835.20
583.86	61029.47
584.02	60992.02
584.18	61095.00
584.34	60907.76
584.50	60830.52
584.66	60959.25
584.82	61078.62
584.98	61172.24
585.14	61237.78
585.30	61017.77
585.46	60996.70
585.62	60966.27
585.78	61118.41
585.94	60807.12
586.10	61055.21
586.26	61010.74
586.42	61071.60
586.58	61036.49
586.74	61123.09
586.90	61010.74
587.06	60956.91
587.22	61230.75
587.38	61366.51
587.54	61200.33
587.70	61254.16
587.86	61069.26
588.02	61097.34
588.18	61296.29
588.34	61146.50
