SpectraSuite Data File
++++++++++++++++++++++++++++++++++++
Date: Fri Oct 25 10:48:06 EDT 2013
User: price-jones
Dark Spectrum Present: No
Reference Spectrum Present: No
Number of Sampled Component Spectra: 1
Spectrometers: USB2+H05261
Integration Time (usec): 100000 (USB2+H05261)
Spectra Averaged: 1 (USB2+H05261)
Boxcar Smoothing: 0 (USB2+H05261)
Correct for Electrical Dark: No (USB2+H05261)
Strobe/Lamp Enabled: No (USB2+H05261)
Correct for Detector Non-linearity: No (USB2+H05261)
Correct for Stray Light: No (USB2+H05261)
Number of Pixels in Processed Spectrum: 2048
>>>>>Begin Processed Spectral Data<<<<<
365.73	147.45
365.92	147.45
366.12	147.45
366.32	110.01
366.52	42.13
366.72	28.09
366.91	81.92
367.11	7.02
367.31	79.58
367.51	84.26
367.70	0.00
367.90	53.83
368.10	35.11
368.30	53.83
368.49	58.51
368.69	0.00
368.89	42.13
369.09	65.54
369.28	117.03
369.48	114.69
369.68	63.19
369.87	147.45
370.07	154.48
370.27	107.66
370.47	194.26
370.66	346.40
370.86	416.62
371.06	423.64
371.25	461.09
371.45	407.25
371.65	514.92
371.84	493.85
372.04	411.93
372.24	425.98
372.44	463.43
372.63	440.02
372.83	528.96
373.03	444.70
373.22	528.96
373.42	514.92
373.62	528.96
373.81	472.79
374.01	538.32
374.21	557.05
374.40	571.09
374.60	496.19
374.79	533.64
374.99	550.03
375.19	554.71
375.38	514.92
375.58	517.26
375.78	596.84
375.97	559.39
376.17	594.50
376.37	571.09
376.56	606.20
376.76	557.05
376.95	585.13
377.15	627.26
377.35	568.75
377.54	615.56
377.74	636.63
377.93	627.26
378.13	643.65
378.33	610.88
378.52	638.97
378.72	711.52
378.91	603.86
379.11	648.33
379.31	585.13
379.50	638.97
379.70	603.86
379.89	627.26
380.09	667.05
380.28	613.22
380.48	615.56
380.68	564.07
380.87	634.29
381.07	615.56
381.26	718.54
381.46	638.97
381.65	638.97
381.85	575.77
382.04	617.90
382.24	674.07
382.43	704.50
382.63	610.88
382.83	671.73
383.02	765.36
383.22	653.01
383.41	688.12
383.61	702.16
383.80	786.42
384.00	678.76
384.19	732.59
384.39	798.12
384.58	765.36
384.78	816.85
384.97	751.31
385.17	746.63
385.36	741.95
385.56	699.82
385.75	851.96
385.95	746.63
386.14	770.04
386.34	781.74
386.53	772.38
386.72	702.16
386.92	849.61
387.11	798.12
387.31	823.87
387.50	709.18
387.70	823.87
387.89	734.93
388.09	830.89
388.28	826.21
388.48	863.66
388.67	917.49
388.86	805.14
389.06	870.68
389.25	894.08
389.45	880.04
389.64	807.48
389.84	957.28
390.03	938.55
390.22	898.77
390.42	887.06
390.61	891.74
390.81	842.59
391.00	889.40
391.19	926.85
391.39	973.66
391.58	882.38
391.78	880.04
391.97	990.05
392.16	976.00
392.36	987.71
392.55	919.83
392.75	945.58
392.94	922.17
393.13	894.08
393.33	945.58
393.52	936.21
393.71	1001.75
393.91	1050.90
394.10	1011.11
394.29	1048.56
394.49	1013.45
394.68	1050.90
394.88	1039.20
395.07	1114.10
395.26	1139.84
395.46	1078.99
395.65	1203.04
395.84	1139.84
396.04	1104.73
396.23	1144.52
396.42	1081.33
396.62	1142.18
396.81	1151.54
397.00	1151.54
397.19	1268.57
397.39	1177.29
397.58	1252.19
397.77	1231.12
397.97	1287.29
398.16	1165.59
398.35	1210.06
398.55	1240.48
398.74	1273.25
398.93	1315.38
399.12	1238.14
399.32	1352.83
399.51	1348.15
399.70	1362.19
399.90	1284.95
400.09	1394.96
400.28	1355.17
400.47	1380.92
400.67	1453.47
400.86	1362.19
401.05	1387.94
401.24	1467.52
401.44	1465.18
401.63	1392.62
401.82	1427.73
402.01	1472.20
402.21	1493.26
402.40	1528.37
402.59	1465.18
402.78	1526.03
402.97	1507.30
403.17	1558.80
403.36	1490.92
403.55	1504.96
403.74	1619.65
403.93	1521.35
404.13	1607.95
404.32	1586.88
404.51	1708.59
404.70	1722.63
404.89	1643.06
405.09	1692.21
405.28	1715.61
405.47	1678.16
405.66	1746.04
405.85	1771.79
406.05	1809.23
406.24	1722.63
406.43	1750.72
406.62	1891.15
406.81	1816.26
407.00	1682.85
407.20	1790.51
407.39	1717.95
407.58	1858.39
407.77	1870.09
407.96	1844.34
408.15	1947.33
408.34	1949.67
408.54	1912.22
408.73	1987.11
408.92	2015.20
409.11	1996.48
409.30	2094.78
409.49	1996.48
409.68	2040.95
409.87	1998.82
410.07	2040.95
410.26	2022.22
410.45	2017.54
410.64	2036.27
410.83	2108.82
411.02	2246.91
411.21	2256.28
411.40	2249.25
411.59	2232.87
411.78	2237.55
411.98	2228.19
412.17	2331.17
412.36	2286.70
412.55	2305.43
412.74	2403.73
412.93	2429.48
413.12	2338.20
413.31	2513.74
413.50	2476.29
413.69	2354.58
413.88	2492.67
414.07	2457.56
414.26	2462.24
414.45	2605.02
414.64	2619.06
414.83	2513.74
415.02	2590.97
415.22	2567.57
415.41	2642.46
415.60	2693.96
415.79	2644.81
415.98	2815.66
416.17	2803.96
416.36	2799.28
416.55	2909.29
416.74	2906.95
416.93	2810.98
417.12	2869.50
417.31	2913.97
417.50	2869.50
417.69	3040.36
417.88	3035.67
418.07	3028.65
418.26	2949.08
418.45	3157.38
418.64	3124.62
418.83	3061.42
419.02	3002.91
419.21	3236.96
419.39	3084.83
419.58	3075.46
419.77	3049.72
419.96	3262.71
420.15	3236.96
420.34	3108.23
420.53	3307.18
420.72	3197.17
420.91	3283.77
421.10	3215.90
421.29	3391.44
421.48	3190.15
421.67	3293.13
421.86	3332.92
422.05	3307.18
422.24	3260.37
422.43	3431.23
422.61	3454.63
422.80	3468.67
422.99	3346.97
423.18	3417.18
423.37	3562.30
423.56	3513.14
423.75	3445.27
423.94	3213.56
424.13	3155.04
424.32	3258.03
424.50	3473.36
424.69	3478.04
424.88	3405.48
425.07	3513.14
425.26	3454.63
425.45	3449.95
425.64	3456.97
425.83	3548.25
426.01	3585.70
426.20	3620.81
426.39	3482.72
426.58	3555.27
426.77	3447.61
426.96	3452.29
427.15	3651.24
427.33	3658.26
427.52	3700.39
427.71	3665.28
427.90	3639.53
428.09	3728.47
428.28	3566.98
428.46	3728.47
428.65	3728.47
428.84	3679.32
429.03	3777.62
429.22	3733.15
429.40	3763.58
429.59	3595.06
429.78	3609.11
429.97	3543.57
430.16	3805.71
430.34	3749.54
430.53	3831.46
430.72	3726.13
430.91	3873.59
431.10	3873.59
431.28	4098.28
431.47	4063.17
431.66	4121.68
431.85	3988.27
432.03	4091.26
432.22	4234.03
432.41	4142.75
432.60	4095.94
432.79	4149.77
432.97	4205.94
433.16	4007.00
433.35	4184.88
433.54	4124.02
433.72	4168.49
433.91	4175.52
434.10	4161.47
434.28	4278.50
434.47	4182.54
434.66	4290.20
434.85	4348.72
435.03	4355.74
435.22	4315.95
435.41	4491.49
435.59	4454.04
435.78	4484.47
435.97	4404.89
436.16	4500.85
436.34	4573.41
436.53	4622.56
436.72	4587.45
436.90	4409.57
437.09	4652.98
437.28	4440.00
437.46	4524.26
437.65	4538.30
437.84	4585.11
438.02	4599.15
438.21	4589.79
438.40	4608.51
438.58	4664.69
438.77	4992.36
438.96	4950.23
439.14	4898.74
439.33	4908.10
439.52	4816.82
439.70	4936.19
439.89	5128.11
440.08	5022.79
440.26	4926.83
440.45	5123.43
440.63	4957.25
440.82	5350.46
441.01	5142.16
441.19	5273.23
441.38	5329.40
441.57	5434.72
441.75	5315.36
441.94	5434.72
442.12	5490.90
442.31	5500.26
442.50	5556.43
442.68	5607.92
442.87	5621.97
443.05	5540.05
443.24	5612.60
443.43	5364.51
443.61	5575.16
443.80	5788.14
443.98	5614.95
444.17	5348.12
444.35	5841.98
444.54	5849.00
444.73	5813.89
444.91	5610.26
445.10	5827.93
445.28	5802.19
445.47	5638.35
445.65	5785.80
445.84	5874.74
446.02	5837.30
446.21	5813.89
446.39	5708.57
446.58	5762.40
446.77	5799.85
446.95	5722.61
447.14	5853.68
447.32	6153.27
447.51	5930.92
447.69	5741.33
447.88	5748.36
448.06	5919.21
448.25	5764.74
448.43	5830.27
448.62	5940.28
448.80	5830.27
448.99	5970.71
449.17	5963.68
449.36	5935.60
449.54	6113.48
449.73	6167.31
449.91	6237.53
450.10	6228.17
450.28	6108.80
450.46	6235.19
450.65	6258.59
450.83	6249.23
451.02	6333.49
451.20	6359.24
451.39	6230.51
451.57	6305.40
451.76	6155.61
451.94	6101.78
452.13	6413.07
452.31	6282.00
452.49	6338.17
452.68	6368.60
452.86	6305.40
453.05	6509.03
453.23	6604.99
453.42	6349.87
453.60	6326.47
453.78	6555.84
453.97	6399.02
454.15	6483.28
454.34	6373.28
454.52	6623.72
454.70	6766.49
454.89	6546.48
455.07	6633.08
455.26	6691.59
455.44	6806.28
455.62	6801.60
455.81	6726.70
455.99	7049.69
456.17	6874.15
456.36	6949.05
456.54	7143.32
456.73	7119.91
456.91	7016.93
457.09	7066.08
457.28	7295.45
457.46	6902.24
457.64	7272.04
457.83	7133.95
458.01	6993.52
458.19	7485.03
458.38	7236.94
458.56	7192.47
458.74	7208.85
458.93	7255.66
459.11	7368.01
459.29	7442.90
459.48	7302.47
459.66	7279.07
459.84	7414.82
460.03	7508.44
460.21	7492.05
460.39	7335.24
460.57	7478.01
460.76	7606.74
460.94	7630.15
461.12	7440.56
461.31	7672.28
461.49	7578.65
461.67	7564.61
461.85	7859.52
462.04	7595.04
462.22	8191.88
462.40	7786.96
462.59	7829.09
462.77	7946.12
462.95	7887.61
463.13	8114.64
463.32	7508.44
463.50	7922.71
463.68	7967.18
463.86	7824.41
464.05	7941.44
464.23	7976.55
464.41	7894.63
464.59	7779.94
464.78	8154.43
464.96	8081.87
465.14	7941.44
465.32	8124.00
465.50	8311.24
465.69	8100.59
465.87	8131.02
466.05	8226.98
466.23	8135.70
466.41	8215.28
466.60	8194.22
466.78	8250.39
466.96	8161.45
467.14	8219.96
467.32	8411.89
467.51	8369.76
467.69	8234.00
467.87	8418.91
468.05	8610.83
468.23	8355.71
468.41	8510.19
468.60	8241.03
468.78	8622.53
468.96	8566.36
469.14	8648.28
469.32	8667.00
469.50	8388.48
469.69	8760.63
469.87	8777.01
470.05	8840.20
470.23	8706.79
470.41	8709.13
470.59	8898.72
470.77	8755.94
470.95	8919.78
471.14	9146.81
471.32	8912.76
471.50	9371.50
471.68	9305.97
471.86	9160.86
472.04	9221.71
472.22	9542.36
472.40	9277.88
472.58	9179.58
472.77	9423.00
472.95	9268.52
473.13	9628.96
473.31	9270.86
473.49	9348.10
473.67	9504.92
473.85	9507.26
474.03	9811.53
474.21	9617.26
474.39	9966.00
474.57	9870.04
474.75	10019.83
474.93	10015.15
475.12	10090.05
475.30	9956.64
475.48	9919.19
475.66	9980.04
475.84	10225.80
476.02	10167.29
476.20	10265.59
476.38	10396.66
476.56	10490.28
476.74	10539.43
476.92	10532.41
477.10	10431.77
477.28	10787.53
477.46	10864.77
477.64	10820.30
477.82	10810.93
478.00	11171.38
478.18	11007.54
478.36	11131.59
478.54	11267.34
478.72	11403.09
478.90	11562.25
479.08	11808.00
479.26	11735.45
479.44	11604.38
479.62	11707.36
479.80	11852.47
479.98	11854.81
480.16	12250.36
480.34	12187.17
480.52	12203.55
480.70	12301.86
480.88	12173.13
481.06	12334.62
481.24	12461.01
481.41	12498.46
481.59	12807.41
481.77	12952.52
481.95	12964.23
482.13	12968.91
482.31	12744.22
482.49	13109.34
482.67	13500.21
482.85	13132.75
483.03	13355.10
483.21	13617.24
483.39	13657.03
483.57	13900.44
483.74	13965.98
483.92	14054.92
484.10	13940.23
484.28	14195.35
484.46	14696.22
484.64	14895.17
484.82	14319.40
485.00	14375.57
485.18	14773.46
485.35	14642.39
485.53	14876.44
485.71	14792.19
485.89	15279.02
486.07	14867.08
486.25	15403.07
486.43	15377.32
486.61	15590.31
486.78	15583.29
486.96	15791.59
487.14	15967.13
487.32	15882.88
487.50	16039.69
487.68	16119.27
487.85	16334.60
488.03	16833.13
488.21	16755.90
488.39	16690.36
488.57	16929.09
488.75	17324.65
488.92	17280.18
489.10	17441.67
489.28	17675.73
489.46	17689.77
489.64	17722.54
489.81	18143.83
489.99	18310.01
490.17	18207.03
490.35	18366.18
490.53	18286.61
490.70	18361.50
490.88	18560.45
491.06	18918.55
491.24	18820.25
491.41	19080.05
491.59	18916.21
491.77	18640.03
491.95	19381.98
492.13	19391.34
492.30	19772.85
492.48	19597.31
492.66	19529.43
492.84	19658.16
493.01	19709.65
493.19	19798.59
493.37	20079.46
493.54	20350.96
493.72	20510.11
493.90	20404.79
494.08	20643.52
494.25	20734.81
494.43	20713.74
494.61	20985.24
494.79	21362.07
494.96	21167.80
495.14	20900.98
495.32	21458.03
495.49	21294.19
495.67	21659.32
495.85	21675.70
496.02	21919.12
496.20	21914.44
496.38	22052.53
496.55	22352.12
496.73	22462.12
496.91	22335.73
497.09	22471.48
497.26	22794.48
497.44	22569.79
497.62	22745.33
497.79	23159.60
497.97	22977.04
498.14	23080.02
498.32	23356.21
498.50	23363.23
498.67	23639.41
498.85	23690.90
499.03	23908.57
499.20	24002.19
499.38	23974.11
499.56	24058.37
499.73	24046.66
499.91	24121.56
500.08	24161.35
500.26	23885.17
500.44	24243.27
500.61	24091.13
500.79	24364.98
500.97	24369.66
501.14	24734.78
501.32	25216.93
501.49	24849.47
501.67	24816.70
501.84	25193.53
502.02	24907.98
502.20	25228.63
502.37	25123.31
502.55	25212.25
502.72	25352.68
502.90	25474.39
503.07	25331.62
503.25	25568.01
503.43	25493.12
503.60	25708.44
503.78	25881.64
503.95	25872.28
504.13	25961.22
504.30	26054.84
504.48	26438.69
504.65	26230.38
504.83	26553.38
505.01	26520.61
505.18	26864.67
505.36	26881.05
505.53	26771.05
505.71	26869.35
505.88	27288.31
506.06	27136.17
506.23	27131.49
506.41	26426.99
506.58	26892.76
506.76	27255.54
506.93	27665.13
507.11	27482.57
507.28	27725.99
507.46	27508.32
507.63	27318.73
507.81	27740.03
507.98	27599.60
508.16	27875.78
508.33	27697.90
508.50	27852.38
508.68	28315.80
508.85	28313.46
509.03	28100.47
509.20	28294.74
509.38	29039.03
509.55	28755.82
509.73	28701.99
509.90	28793.27
510.08	28816.68
510.25	29043.71
510.42	28907.96
510.60	29188.82
510.77	29221.59
510.95	29149.03
511.12	29216.91
511.30	29766.93
511.47	29738.85
511.64	29638.20
511.82	29855.87
511.99	29572.67
512.17	29823.11
512.34	29900.34
512.51	30019.71
512.69	29858.21
512.86	29727.14
513.04	30658.68
513.21	30136.74
513.38	30155.46
513.56	30312.28
513.73	30183.55
513.90	30756.98
514.08	30354.41
514.25	30719.53
514.43	30569.74
514.60	30609.53
514.77	30726.55
514.95	31063.59
515.12	30909.11
515.29	30984.01
515.47	31337.43
515.64	31360.84
515.81	30976.99
515.99	31229.77
516.16	31454.46
516.33	31447.44
516.51	31737.66
516.68	31087.00
516.85	31480.21
517.03	31309.35
517.20	31627.66
517.37	31765.75
517.54	31948.31
517.72	31599.57
517.89	31915.54
518.06	31964.70
518.24	31810.22
518.41	31721.28
518.58	32278.33
518.75	31831.29
518.93	32437.48
519.10	32091.09
519.27	32346.20
519.45	32493.66
519.62	32631.75
519.79	32739.41
519.96	32804.95
520.14	33081.13
520.31	32283.01
520.48	33102.20
520.65	33097.52
520.83	32800.27
521.00	33167.73
521.17	33481.36
521.34	33127.94
521.52	33881.60
521.69	33268.37
521.86	33537.54
522.03	34139.05
522.20	33790.31
522.38	33811.38
522.55	33390.08
522.72	33701.37
522.89	33684.99
523.07	33947.13
523.24	33291.78
523.41	34239.70
523.58	33825.42
523.75	34462.05
523.92	34466.73
524.10	34316.93
524.27	34796.74
524.44	34389.49
524.61	34359.06
524.78	34621.20
524.96	34742.91
525.13	34820.15
525.30	35267.19
525.47	35063.57
525.64	35140.80
525.81	35084.63
525.98	35215.70
526.16	35019.10
526.33	34541.63
526.50	35318.68
526.67	35150.17
526.84	35033.14
527.01	35108.04
527.18	35337.41
527.36	35480.18
527.53	35566.78
527.70	35456.78
527.87	36170.64
528.04	35747.00
528.21	35878.07
528.38	35803.17
528.55	35835.94
528.72	35711.89
528.89	36084.04
529.07	35861.69
529.24	35999.78
529.41	36620.02
529.58	36053.61
529.75	36184.68
529.92	36605.98
530.09	36154.26
530.26	36182.34
530.43	36608.32
530.60	36205.75
530.77	36343.84
530.94	36856.42
531.11	36313.41
531.28	36896.20
531.46	36704.28
531.63	37043.66
531.80	36914.93
531.97	36718.32
532.14	37139.62
532.31	36858.76
532.48	37373.67
532.65	37289.42
532.82	37266.01
532.99	37141.96
533.16	37153.66
533.33	37301.12
533.50	37441.55
533.67	37354.95
533.84	36994.51
534.01	37832.42
534.18	37364.31
534.35	37986.89
534.52	37455.59
534.69	37963.49
534.86	37469.64
535.03	37855.82
535.20	37897.95
535.37	38066.47
535.54	38127.33
535.71	38024.34
535.88	38050.09
536.05	37703.69
536.22	38277.12
536.38	37731.78
536.55	38330.95
536.72	38295.85
536.89	38242.01
537.06	38440.96
537.23	38499.47
537.40	38272.44
537.57	38665.65
537.74	38455.00
537.91	38270.10
538.08	38656.29
538.25	38588.41
538.42	38778.00
538.59	38778.00
538.75	38469.04
538.92	38424.57
539.09	38785.02
539.26	38637.56
539.43	38763.95
539.60	39145.46
539.77	39243.76
539.94	39402.92
540.11	39103.33
540.28	38951.20
540.44	39058.86
540.61	38607.14
540.78	38735.87
540.95	38895.02
541.12	38974.60
541.29	39428.66
541.46	39370.15
541.62	39264.83
541.79	39826.56
541.96	39098.65
542.13	39395.90
542.30	39524.63
542.47	39564.42
542.63	39950.60
542.80	39622.93
542.97	40175.30
543.14	40170.61
543.31	40105.08
543.48	39927.20
543.64	40540.42
543.81	40498.29
543.98	40055.93
544.15	39924.86
544.32	40524.04
544.48	40671.49
544.65	40737.02
544.82	40748.73
544.99	40215.08
545.16	40650.42
545.32	40275.94
545.49	41137.26
545.66	40964.06
545.83	40605.95
546.00	40622.34
546.16	40790.86
546.33	40421.05
546.50	40582.55
546.67	40233.81
546.83	40187.00
547.00	40961.72
547.17	40919.59
547.34	40685.53
547.50	41319.82
547.67	41041.29
547.84	40982.78
548.00	40980.44
548.17	41273.01
548.34	41174.70
548.51	41509.40
548.67	41603.02
548.84	41439.18
549.01	40947.67
549.18	41045.97
549.34	41230.88
549.51	41139.60
549.68	41439.18
549.84	41706.01
550.01	41984.53
550.18	41516.42
550.34	41748.14
550.51	41345.56
550.68	41635.79
550.84	41727.07
551.01	41766.86
551.18	41752.82
551.34	41734.09
551.51	41584.30
551.68	42040.70
551.84	42284.12
552.01	41703.67
552.18	41570.25
552.34	41462.59
552.51	41834.74
552.68	41872.18
552.84	42092.19
553.01	42155.39
553.18	41958.78
553.34	41944.74
553.51	41930.70
553.67	42181.13
553.84	42485.40
554.01	42440.93
554.17	42209.22
554.34	42440.93
554.51	42445.62
554.67	42445.62
554.84	42515.83
555.00	42169.43
555.17	42106.24
555.33	42403.49
555.50	42312.20
555.67	42733.50
555.83	42359.02
556.00	42782.65
556.16	42976.92
556.33	42707.76
556.50	42768.61
556.66	42810.74
556.83	42995.64
556.99	43026.07
557.16	43112.67
557.32	42892.66
557.49	43131.39
557.65	42724.14
557.82	42560.30
557.98	42621.16
558.15	42862.23
558.32	43065.86
558.48	42831.80
558.65	42777.97
558.81	42885.64
558.98	43105.65
559.14	43316.29
559.31	42635.20
559.47	42983.94
559.64	43227.35
559.80	43419.28
559.97	43323.32
560.13	42965.21
560.30	43316.29
560.46	42703.07
560.63	43304.59
560.79	43276.51
560.96	43395.87
561.12	43316.29
561.29	43323.32
561.45	43475.45
561.61	43217.99
561.78	43332.68
561.94	43297.57
562.11	43597.16
562.27	43393.53
562.44	43274.16
562.60	43849.94
562.77	43522.26
562.93	43365.45
563.10	43452.05
563.26	43690.78
563.42	43449.70
563.59	43540.99
563.75	43466.09
563.92	43798.44
564.08	43442.68
564.24	43742.27
564.41	43744.61
564.57	43524.60
564.74	43770.36
564.90	43578.43
565.07	43627.59
565.23	43550.35
565.39	43578.43
565.56	43938.88
565.72	43447.36
565.88	43917.81
566.05	43622.90
566.21	43650.99
566.38	43789.08
566.54	43826.53
566.70	44243.15
566.87	44205.70
567.03	43915.47
567.19	44006.75
567.36	43901.43
567.52	44196.34
567.68	44252.51
567.85	43929.51
568.01	43985.69
568.17	44018.46
568.34	43779.72
568.50	43744.61
568.66	43917.81
568.83	43782.06
568.99	43903.77
569.15	44170.59
569.32	44105.06
569.48	43896.75
569.64	44341.45
569.81	43957.60
569.97	43676.74
570.13	44252.51
570.30	43721.21
570.46	43819.51
570.62	43753.97
570.78	43863.98
570.95	43632.27
571.11	44194.00
571.27	43868.66
571.43	43955.26
571.60	44240.81
571.76	43679.08
571.92	44165.91
572.09	43959.94
572.25	44095.69
572.41	43824.19
572.57	43962.28
572.74	44938.29
572.90	44201.02
573.06	44212.72
573.22	44161.23
573.38	44081.65
573.55	43910.79
573.71	44130.80
573.87	43943.56
574.03	44631.68
574.20	44435.07
574.36	44259.53
574.52	44114.42
574.68	44327.41
574.84	44004.41
575.01	44257.19
575.17	44137.82
575.33	43920.15
575.49	44212.72
575.65	44320.38
575.82	44252.51
575.98	44233.78
576.14	44772.11
576.30	44250.17
576.46	44252.51
576.62	44041.86
576.79	43826.53
576.95	43625.25
577.11	43945.90
577.27	44165.91
577.43	44507.63
577.59	44018.46
577.75	43896.75
577.92	43835.89
578.08	44198.68
578.24	43798.44
578.40	44105.06
578.56	43791.42
578.72	44418.69
578.88	44432.73
579.04	44158.89
579.21	44657.42
579.37	43868.66
579.53	44095.69
579.69	44095.69
579.85	44692.53
580.01	44479.54
580.17	44154.21
580.33	44545.08
580.49	44669.12
580.65	44566.14
580.82	44369.54
580.98	44222.08
581.14	44406.98
581.30	44437.41
581.46	44165.91
581.62	44343.79
581.78	44744.02
581.94	44577.84
582.10	44516.99
582.26	44343.79
582.42	44219.74
582.58	44149.53
582.74	44261.87
582.90	44130.80
583.06	44460.82
583.22	44311.02
583.38	44563.80
583.54	44266.55
583.70	44507.63
583.86	44423.37
584.02	44240.81
584.18	44364.85
584.34	44505.29
584.50	44163.57
584.66	44470.18
584.82	44348.47
584.98	44657.42
585.14	44343.79
585.30	44282.94
585.46	44512.31
585.62	44158.89
585.78	44069.95
585.94	44673.81
586.10	44144.84
586.26	44634.02
586.42	44935.95
586.58	44414.01
586.74	44470.18
586.90	44170.59
587.06	44526.35
587.22	44596.57
587.38	44446.77
587.54	44865.73
587.70	44594.23
587.86	44783.81
588.02	44598.91
588.18	44823.60
588.34	44421.03
588.49	43964.62
588.65	44002.07
588.81	43966.96
588.97	44671.46
589.13	44320.38
589.29	44484.22
589.45	44680.83
589.61	44928.92
589.77	45181.70
589.93	44823.60
590.08	44772.11
590.24	44369.54
