SpectraSuite Data File
++++++++++++++++++++++++++++++++++++
Date: Fri Oct 25 11:26:40 EDT 2013
User: price-jones
Dark Spectrum Present: No
Reference Spectrum Present: No
Number of Sampled Component Spectra: 1
Spectrometers: USB2+H05261
Integration Time (usec): 100000 (USB2+H05261)
Spectra Averaged: 1 (USB2+H05261)
Boxcar Smoothing: 0 (USB2+H05261)
Correct for Electrical Dark: No (USB2+H05261)
Strobe/Lamp Enabled: No (USB2+H05261)
Correct for Detector Non-linearity: No (USB2+H05261)
Correct for Stray Light: No (USB2+H05261)
Number of Pixels in Processed Spectrum: 2048
>>>>>Begin Processed Spectral Data<<<<<
365.73	212.99
365.92	212.99
366.12	212.99
366.32	187.24
366.52	159.16
366.72	222.35
366.91	117.03
367.11	107.66
367.31	147.45
367.51	191.92
367.70	131.07
367.90	135.75
368.10	198.95
368.30	114.69
368.49	182.56
368.69	163.84
368.89	166.18
369.09	91.28
369.28	194.26
369.48	147.45
369.68	93.62
369.87	203.63
370.07	173.20
370.27	264.48
370.47	325.33
370.66	585.13
370.86	681.10
371.06	624.92
371.25	737.27
371.45	636.63
371.65	699.82
371.84	667.05
372.04	706.84
372.24	645.99
372.44	725.57
372.63	755.99
372.83	753.65
373.03	751.31
373.22	772.38
373.42	770.04
373.62	763.01
373.81	833.23
374.01	814.51
374.21	833.23
374.40	802.80
374.60	833.23
374.79	807.48
374.99	798.12
375.19	901.11
375.38	903.45
375.58	819.19
375.78	763.01
375.97	882.38
376.17	858.98
376.37	866.00
376.56	870.68
376.76	915.15
376.95	870.68
377.15	929.19
377.35	908.13
377.54	884.72
377.74	926.85
377.93	896.43
378.13	973.66
378.33	983.02
378.52	940.90
378.72	917.49
378.91	952.60
379.11	919.83
379.31	943.24
379.50	966.64
379.70	950.26
379.89	947.92
380.09	1025.15
380.28	997.07
380.48	983.02
380.68	994.73
380.87	1011.11
381.07	1001.75
381.26	1062.60
381.46	1034.52
381.65	1074.31
381.85	987.71
382.04	994.73
382.24	1043.88
382.43	1142.18
382.63	1128.14
382.83	1135.16
383.02	1060.26
383.22	1160.91
383.41	1064.94
383.61	1130.48
383.80	1174.95
384.00	1198.35
384.19	1074.31
384.39	1118.78
384.58	1090.69
384.78	1125.80
384.97	1179.63
385.17	1055.58
385.36	1181.97
385.56	1184.31
385.75	1198.35
385.95	1242.82
386.14	1146.86
386.34	1193.67
386.53	1153.88
386.72	1191.33
386.92	1233.46
387.11	1207.72
387.31	1291.98
387.50	1284.95
387.70	1259.21
387.89	1270.91
388.09	1254.53
388.28	1289.64
388.48	1277.93
388.67	1327.08
388.86	1336.45
389.06	1296.66
389.25	1409.00
389.45	1355.17
389.64	1299.00
389.84	1462.83
390.03	1266.23
390.22	1310.70
390.42	1425.39
390.61	1350.49
390.81	1345.81
391.00	1308.36
391.19	1387.94
391.39	1479.22
391.58	1460.49
391.78	1425.39
391.97	1458.15
392.16	1554.12
392.36	1502.62
392.55	1542.41
392.75	1579.86
392.94	1493.26
393.13	1509.65
393.33	1586.88
393.52	1547.09
393.71	1654.76
393.91	1664.12
394.10	1643.06
394.29	1558.80
394.49	1530.71
394.68	1689.87
394.88	1633.69
395.07	1764.76
395.26	1724.97
395.46	1764.76
395.65	1699.23
395.84	1694.55
396.04	1743.70
396.23	1694.55
396.42	1802.21
396.62	1736.68
396.81	1809.23
397.00	1734.34
397.19	1748.38
397.39	1851.36
397.58	1830.30
397.77	1839.66
397.97	1834.98
398.16	1872.43
398.35	1832.64
398.55	1921.58
398.74	1923.92
398.93	2010.52
399.12	1937.96
399.32	1870.09
399.51	1998.82
399.70	2059.67
399.90	1909.88
400.09	2050.31
400.28	2019.88
400.47	1998.82
400.67	2066.69
400.86	2132.23
401.05	2134.57
401.24	2073.71
401.44	2033.93
401.63	2143.93
401.82	2169.68
402.01	2076.06
402.21	2174.36
402.40	2176.70
402.59	2188.40
402.78	2235.21
402.97	2277.34
403.17	2237.55
403.36	2230.53
403.55	2209.47
403.74	2335.85
403.93	2356.92
404.13	2368.62
404.32	2303.09
404.51	2324.15
404.70	2452.88
404.89	2445.86
405.09	2502.03
405.28	2523.10
405.47	2502.03
405.66	2588.63
405.85	2544.16
406.05	2518.42
406.24	2602.68
406.43	2621.40
406.62	2703.32
406.81	2635.44
407.00	2612.04
407.20	2640.12
407.39	2569.91
407.58	2705.66
407.77	2736.09
407.96	2775.88
408.15	2813.32
408.34	2773.53
408.54	2883.54
408.73	2860.13
408.92	2820.35
409.11	2892.90
409.30	2911.63
409.49	2899.92
409.68	2897.58
409.87	2960.78
410.07	3002.91
410.26	3049.72
410.45	2935.03
410.64	2984.18
410.83	3117.59
411.02	3197.17
411.21	3166.74
411.40	3166.74
411.59	3316.54
411.78	3152.70
411.98	3213.56
412.17	3246.32
412.36	3293.13
412.55	3463.99
412.74	3389.10
412.93	3494.42
413.12	3485.06
413.31	3669.96
413.50	3522.51
413.69	3578.68
413.88	3513.14
414.07	3660.60
414.26	3548.25
414.45	3672.30
414.64	3705.07
414.83	3756.56
415.02	3786.99
415.22	3908.69
415.41	3866.56
415.60	3896.99
415.79	3892.31
415.98	3967.21
416.17	4046.79
416.36	4025.72
416.55	3911.04
416.74	4074.87
416.93	4184.88
417.12	4184.88
417.31	4297.22
417.50	4091.26
417.69	4259.78
417.88	4344.03
418.07	4236.37
418.26	4278.50
418.45	4353.40
418.64	4486.81
418.83	4367.44
419.02	4468.08
419.21	4652.98
419.39	4393.19
419.58	4475.10
419.77	4599.15
419.96	4601.49
420.15	4620.22
420.34	4634.26
420.53	4725.54
420.72	4585.11
420.91	4648.30
421.10	4844.91
421.29	4812.14
421.48	4739.58
421.67	4781.71
421.86	4566.39
422.05	4959.60
422.24	4880.02
422.43	4926.83
422.61	4975.98
422.80	4961.94
422.99	4936.19
423.18	4997.04
423.37	5013.43
423.56	4898.74
423.75	5046.20
423.94	4961.94
424.13	4744.27
424.32	4819.16
424.50	5055.56
424.69	5076.62
424.88	5116.41
425.07	5118.75
425.26	4945.55
425.45	4997.04
425.64	5062.58
425.83	4847.25
426.01	5128.11
426.20	5076.62
426.39	5006.41
426.58	5048.54
426.77	5172.58
426.96	5266.21
427.15	5121.09
427.33	5298.97
427.52	5172.58
427.71	5336.42
427.90	5254.50
428.09	5327.06
428.28	5467.49
428.46	5327.06
428.65	5383.23
428.84	5497.92
429.03	5507.28
429.22	5437.06
429.40	5537.71
429.59	5460.47
429.78	5320.04
429.97	5383.23
430.16	5490.90
430.34	5638.35
430.53	5746.02
430.72	5762.40
430.91	5645.37
431.10	5860.70
431.28	5769.42
431.47	5746.02
431.66	5781.12
431.85	5809.21
432.03	5905.17
432.22	5949.64
432.41	5968.37
432.60	6012.84
432.79	5851.34
432.97	5912.19
433.16	6064.33
433.35	6113.48
433.54	6099.44
433.72	6232.85
433.91	6108.80
434.10	6246.89
434.28	6181.35
434.47	6026.88
434.66	6209.44
434.85	6326.47
435.03	6399.02
435.22	6354.55
435.41	6572.22
435.59	6356.90
435.78	6403.71
435.97	6434.13
436.16	6494.99
436.34	6532.44
436.53	6384.98
436.72	6822.66
436.90	6494.99
437.09	6867.13
437.28	6438.81
437.46	6516.05
437.65	6827.34
437.84	6782.87
438.02	6717.34
438.21	6668.19
438.40	6684.57
438.58	7019.27
438.77	7002.88
438.96	7023.95
439.14	7140.97
439.33	7243.96
439.52	7293.11
439.70	7105.87
439.89	7445.24
440.08	7461.63
440.26	7410.14
440.45	7332.90
440.63	7590.36
440.82	7658.23
441.01	7557.59
441.19	7796.32
441.38	7789.30
441.57	7707.38
441.75	7836.11
441.94	8149.75
442.12	8011.65
442.31	8257.41
442.50	8037.40
442.68	8049.10
442.87	8044.42
443.05	8070.17
443.24	8341.67
443.43	8444.65
443.61	8196.56
443.80	8444.65
443.98	8215.28
444.17	7894.63
444.35	8393.16
444.54	8496.14
444.73	8362.73
444.91	8475.08
445.10	8301.88
445.28	8329.97
445.47	8430.61
445.65	8404.86
445.84	8641.26
446.02	8610.83
446.21	8657.64
446.39	8376.78
446.58	8592.11
446.77	8477.42
446.95	8379.12
447.14	8498.49
447.32	8472.74
447.51	8526.57
447.69	8360.39
447.88	8383.80
448.06	8524.23
448.25	8461.04
448.43	8882.33
448.62	8650.62
448.80	8791.05
448.99	8762.97
449.17	8800.41
449.36	8674.03
449.54	8772.33
449.73	9027.45
449.91	9245.12
450.10	9029.79
450.28	9123.41
450.46	9088.30
450.65	9004.04
450.83	9184.26
451.02	9142.13
451.20	9284.91
451.39	9275.54
451.57	9114.05
451.76	9062.55
451.94	9256.82
452.13	9516.62
452.31	9167.88
452.49	9156.18
452.68	9357.46
452.86	9369.16
453.05	9547.05
453.23	9650.03
453.42	9430.02
453.60	9298.95
453.78	9748.33
453.97	9411.29
454.15	9444.06
454.34	9383.21
454.52	10017.49
454.70	9783.44
454.89	9827.91
455.07	9827.91
455.26	9998.77
455.44	9954.30
455.62	9879.40
455.81	10047.92
455.99	10148.56
456.17	10026.86
456.36	10108.77
456.54	10150.90
456.73	10197.71
456.91	10321.76
457.09	10466.88
457.28	10567.52
457.46	10300.70
457.64	10485.60
457.83	10534.75
458.01	10406.02
458.19	10764.12
458.38	10443.47
458.56	10796.89
458.74	10693.91
458.93	10789.87
459.11	10733.70
459.29	10832.00
459.48	10862.43
459.66	10885.83
459.84	11012.22
460.03	11138.61
460.21	10951.37
460.39	10977.11
460.57	11316.49
460.76	11192.44
460.94	11253.30
461.12	11220.53
461.31	11136.27
461.49	11293.08
461.67	11241.59
461.85	11606.72
462.04	11215.85
462.22	11592.67
462.40	11576.29
462.59	11379.68
462.77	11517.78
462.95	11559.91
463.13	11688.64
463.32	11728.42
463.50	11728.42
463.68	11903.96
463.86	11878.22
464.05	11571.61
464.23	11751.83
464.41	12053.76
464.59	11616.08
464.78	12145.04
464.96	12077.16
465.14	11808.00
465.32	12322.92
465.50	12175.47
465.69	12376.75
465.87	12346.33
466.05	12376.75
466.23	12273.77
466.41	12098.23
466.60	12477.40
466.78	12114.61
466.96	12208.23
467.14	12432.93
467.32	12278.45
467.51	12566.34
467.69	12233.98
467.87	12615.49
468.05	12718.47
468.23	12730.17
468.41	12465.69
468.60	12720.81
468.78	12655.28
468.96	12390.80
469.14	12940.82
469.32	12901.03
469.50	12886.99
469.69	13172.54
469.87	13149.13
470.05	13060.19
470.23	13053.17
470.41	13247.43
470.59	13635.96
470.77	13130.41
470.95	13233.39
471.14	13633.62
471.32	13437.02
471.50	13767.03
471.68	13699.16
471.86	13664.05
472.04	13694.47
472.22	14265.57
472.40	13755.33
472.58	13977.68
472.77	13900.44
472.95	14244.50
473.13	14548.77
473.31	14218.75
473.49	14214.07
473.67	14052.58
473.85	14567.49
474.03	14520.68
474.21	14789.85
474.39	14707.93
474.57	14829.63
474.75	15119.86
474.93	15026.24
475.12	15077.73
475.30	14981.77
475.48	15176.03
475.66	15272.00
475.84	15459.24
476.02	15403.07
476.20	15407.75
476.38	15885.22
476.56	16044.37
476.74	16107.57
476.92	15740.10
477.10	15796.28
477.28	16002.24
477.46	16168.42
477.64	16311.19
477.82	16758.24
478.00	16690.36
478.18	16842.50
478.36	17032.08
478.54	17170.17
478.72	17345.71
478.90	17586.79
479.08	17736.58
479.26	17781.05
479.44	17738.92
479.62	17933.18
479.80	18302.99
479.98	18258.52
480.16	18581.51
480.34	18359.16
480.52	18831.95
480.70	18953.66
480.88	18408.31
481.06	18892.80
481.24	18941.96
481.41	19058.98
481.59	19374.95
481.77	19470.92
481.95	19889.87
482.13	19833.70
482.31	19730.72
482.49	20421.17
482.67	20072.43
482.85	20528.84
483.03	20861.19
483.21	20950.14
483.39	21027.37
483.57	21039.08
483.74	21462.71
483.92	21256.75
484.10	21071.84
484.28	21659.32
484.46	22239.77
484.64	22537.02
484.82	21818.47
485.00	22469.14
485.18	22920.87
485.35	23061.30
485.53	23227.48
485.71	22951.29
485.89	23644.09
486.07	23536.43
486.25	23534.09
486.43	23325.78
486.61	24294.76
486.78	24224.54
486.96	24287.74
487.14	24580.31
487.32	24723.08
487.50	24446.90
487.68	25032.03
487.85	25369.07
488.03	25443.96
488.21	25991.65
488.39	25891.01
488.57	26169.53
488.75	26157.83
488.92	26630.62
489.10	26761.69
489.28	26670.40
489.46	27304.69
489.64	27297.67
489.81	27688.54
489.99	27740.03
490.17	28058.34
490.35	28400.06
490.53	27929.61
490.70	28439.85
490.88	28517.09
491.06	28891.57
491.24	28603.69
491.41	29317.55
491.59	29479.05
491.77	29521.18
491.95	29858.21
492.13	30260.79
492.30	29961.20
492.48	30480.80
492.66	30272.49
492.84	30253.76
493.01	31075.29
493.19	30932.52
493.37	31147.85
493.54	31583.19
493.72	31449.78
493.90	31728.30
494.08	31559.78
494.25	31878.10
494.43	32098.11
494.61	32222.16
494.79	32453.87
494.96	32357.91
495.14	32582.60
495.32	33460.30
495.49	33041.34
495.67	33544.56
495.85	33542.22
496.02	33776.27
496.20	34265.44
496.38	34026.71
496.55	34064.16
496.73	34918.45
496.91	34518.22
497.09	34892.71
497.26	35047.18
497.44	35079.95
497.62	35232.08
497.79	35887.43
497.97	35594.87
498.14	36105.10
498.32	36053.61
498.50	36135.53
498.67	36783.86
498.85	36884.50
499.03	36947.70
499.20	36999.19
499.38	37188.77
499.56	36907.91
499.73	37385.38
499.91	37123.24
500.08	38171.80
500.26	37689.65
500.44	37764.54
500.61	37558.58
500.79	38183.50
500.97	38522.88
501.14	38972.26
501.32	38686.71
501.49	38836.51
501.67	38543.94
501.84	39194.61
502.02	39049.50
502.20	39370.15
502.37	39732.93
502.55	39365.47
502.72	39847.62
502.90	39639.31
503.07	39718.89
503.25	40081.67
503.43	39744.64
503.60	40332.11
503.78	40084.01
503.95	40147.21
504.13	40395.31
504.30	40650.42
504.48	41200.45
504.65	40900.86
504.83	41043.63
505.01	41092.79
505.18	41467.27
505.36	41808.99
505.53	41673.24
505.71	41600.68
505.88	42359.02
506.06	41642.81
506.23	42040.70
506.41	42164.75
506.58	42539.24
506.76	42258.37
506.93	42270.08
507.11	42391.78
507.28	42590.73
507.46	42632.86
507.63	43232.04
507.81	43313.95
507.98	43180.54
508.16	43648.65
508.33	43175.86
508.50	43995.05
508.68	44006.75
508.85	43962.28
509.03	44191.65
509.20	44039.52
509.38	44552.10
509.55	44512.31
509.73	44327.41
509.90	44905.52
510.08	44704.23
510.25	44704.23
510.42	45272.98
510.60	45141.91
510.77	45432.14
510.95	45595.98
511.12	45102.12
511.30	45268.30
511.47	45282.34
511.64	46204.52
511.82	46199.83
511.99	45839.39
512.17	45904.93
512.34	46162.39
512.51	46686.67
512.69	46394.10
512.86	46799.01
513.04	46815.40
513.21	46794.33
513.38	46749.86
513.56	47257.76
513.73	46974.55
513.90	46829.44
514.08	47178.18
514.25	47217.97
514.43	47566.71
514.60	47695.44
514.77	47657.99
514.95	47777.36
515.12	47728.20
515.29	47800.76
515.47	47885.02
515.64	48121.41
515.81	47831.19
515.99	48119.07
516.16	48435.05
516.33	48629.31
516.51	48928.90
516.68	48872.73
516.85	48659.74
517.03	48931.24
517.20	49165.29
517.37	48942.94
517.54	49202.74
517.72	48872.73
517.89	49226.15
518.06	49317.43
518.24	49345.51
518.41	49432.11
518.58	49600.63
518.75	49556.16
518.93	49769.15
519.10	49645.10
519.27	49996.18
519.45	49570.21
519.62	49965.76
519.79	49841.71
519.96	50370.67
520.14	50436.20
520.31	50124.91
520.48	50527.48
520.65	50504.08
520.83	50691.32
521.00	50904.31
521.17	50567.27
521.34	50663.24
521.52	50923.04
521.69	50775.58
521.86	51161.77
522.03	51297.52
522.20	51192.20
522.38	51599.45
522.55	51557.32
522.72	51489.45
522.89	51583.07
523.07	51964.57
523.24	51519.87
523.41	51941.17
523.58	51987.98
523.75	52037.13
523.92	52079.26
524.10	52470.13
524.27	52100.32
524.44	52296.93
524.61	52280.55
524.78	52336.72
524.96	52474.81
525.13	52556.73
525.30	52425.66
525.47	52720.57
525.64	52694.82
525.81	52507.58
525.98	52935.90
526.16	52507.58
526.33	52694.82
526.50	53111.44
526.67	52790.78
526.84	53270.59
527.01	53034.20
527.18	53176.97
527.36	53336.13
527.53	53195.70
527.70	53427.41
527.87	53296.34
528.04	53422.73
528.21	53705.93
528.38	53448.47
528.55	53794.87
528.72	53492.94
528.89	53319.74
529.07	53422.73
529.24	53572.52
529.41	53712.95
529.58	53928.28
529.75	53865.09
529.92	54021.90
530.09	54078.08
530.26	53984.46
530.43	54122.55
530.60	53862.75
530.77	54300.43
530.94	54211.49
531.11	53916.58
531.28	54162.34
531.46	54361.28
531.63	54445.54
531.80	54557.89
531.97	54532.14
532.14	54529.80
532.31	54604.70
532.48	54412.77
532.65	54536.82
532.82	54707.68
532.99	55068.12
533.16	54450.22
533.33	54883.22
533.50	54997.91
533.67	55018.97
533.84	54604.70
534.01	54944.08
534.18	55054.08
534.35	55515.17
534.52	55274.09
534.69	55192.17
534.86	55283.45
535.03	55035.36
535.20	55356.01
535.37	55253.03
535.54	55756.24
535.71	55428.57
535.88	55484.74
536.05	55358.35
536.22	55451.97
536.38	55669.64
536.55	55688.37
536.72	55646.24
536.89	55751.56
537.06	55798.37
537.23	55849.86
537.40	55805.39
537.57	55695.39
537.74	55814.76
537.91	55896.67
538.08	55992.64
538.25	55880.29
538.42	55973.91
538.59	56196.26
538.75	56074.55
538.92	56102.64
539.09	56191.58
539.26	55938.80
539.43	56205.62
539.60	56516.92
539.77	56559.05
539.94	56437.34
540.11	56439.68
540.28	56554.36
540.44	56500.53
540.61	56523.94
540.78	56512.23
540.95	56678.41
541.12	56460.74
541.29	56516.92
541.46	56662.03
541.62	56732.25
541.79	56978.00
541.96	56502.87
542.13	56781.40
542.30	56891.40
542.47	56884.38
542.63	56835.23
542.80	57139.50
542.97	57483.56
543.14	57502.28
543.31	56952.26
543.48	57322.06
543.64	57668.46
543.81	57322.06
543.98	57532.71
544.15	57455.47
544.32	57623.99
544.48	57834.64
544.65	57420.36
544.82	57439.09
544.99	57408.66
545.16	57455.47
545.32	57462.49
545.49	57705.91
545.66	57757.40
545.83	57785.49
546.00	57726.97
546.16	57609.95
546.33	57663.78
546.50	57567.82
546.67	57907.19
546.83	57427.38
547.00	57841.66
547.17	57954.00
547.34	57881.45
547.50	57907.19
547.67	58183.38
547.84	58176.36
548.00	58101.46
548.17	58520.41
548.34	58223.17
548.51	58431.47
548.67	58241.89
548.84	58103.80
549.01	58300.40
549.18	58262.96
549.34	58501.69
549.51	58323.81
549.68	58408.07
549.84	58288.70
550.01	58436.16
550.18	58557.86
550.34	58569.57
550.51	58291.04
550.68	58471.26
550.84	58358.92
551.01	58621.06
551.18	58665.53
551.34	58445.52
551.51	58653.82
551.68	58710.00
551.84	58672.55
552.01	58618.72
552.18	58770.85
552.34	58468.92
552.51	58941.71
552.68	58520.41
552.84	58801.28
553.01	58939.37
553.18	58911.28
553.34	58997.88
553.51	58871.49
553.67	59098.53
553.84	59086.82
554.01	59150.02
554.17	59028.31
554.34	59152.36
554.51	58885.54
554.67	59231.94
554.84	59131.29
555.00	59084.48
555.17	59171.08
555.33	59154.70
555.50	58887.88
555.67	58951.07
555.83	59166.40
556.00	59248.32
556.16	59491.74
556.33	59341.94
556.50	59337.26
556.66	59330.24
556.83	59334.92
556.99	59264.70
557.16	59547.91
557.32	59599.40
557.49	59854.52
557.65	59437.90
557.82	59386.41
557.98	59540.89
558.15	59643.87
558.32	59636.85
558.48	59503.44
558.65	59594.72
558.81	59398.12
558.98	59646.21
559.14	59803.03
559.31	59730.47
559.47	59821.75
559.64	59763.24
559.80	59875.58
559.97	59887.29
560.13	59653.23
560.30	59686.00
560.46	59873.24
560.63	59826.43
560.79	59929.42
560.96	59711.75
561.12	59948.14
561.29	59936.44
561.45	60016.02
561.61	60069.85
561.78	59737.49
561.94	59936.44
562.11	60217.30
562.27	59838.14
562.44	60053.47
562.60	60299.22
562.77	60104.96
562.93	59985.59
563.10	60083.89
563.26	59920.05
563.42	60207.94
563.59	60065.17
563.75	60074.53
563.92	59976.23
564.08	60104.96
564.24	60224.32
564.41	60381.14
564.57	60296.88
564.74	60259.43
564.90	60100.28
565.07	60355.39
565.23	59980.91
565.39	60299.22
565.56	60395.18
565.72	60343.69
565.88	60420.93
566.05	60144.75
566.21	60280.50
566.38	60280.50
566.54	60299.22
566.70	60561.36
566.87	60533.28
567.03	60182.19
567.19	60357.74
567.36	60236.03
567.52	60495.83
567.68	60505.19
567.85	60217.30
568.01	60397.52
568.17	60184.54
568.34	60449.02
568.50	60324.97
568.66	60423.27
568.83	60376.46
568.99	60247.73
569.15	60554.34
569.32	60615.19
569.48	60453.70
569.64	60523.91
569.81	60486.46
569.97	60383.48
570.13	60769.67
570.30	60369.44
570.46	60619.88
570.62	60605.83
570.78	60418.59
570.95	60568.38
571.11	60757.97
571.27	60584.77
571.43	60479.44
571.60	60748.60
571.76	60678.39
571.92	60720.52
572.09	60563.70
572.25	60587.11
572.41	60633.92
572.57	60626.90
572.74	60802.44
572.90	60645.62
573.06	60729.88
573.22	60795.42
573.38	60746.26
573.55	60739.24
573.71	60863.29
573.87	60734.56
574.03	60575.40
574.20	61015.43
574.36	60481.78
574.52	60767.33
574.68	60774.35
574.84	60910.10
575.01	60809.46
575.17	60753.29
575.33	60858.61
575.49	60715.84
575.65	60839.89
575.82	60769.67
575.98	60968.61
576.14	61071.60
576.30	60652.64
576.46	60781.37
576.62	60757.97
576.79	60961.59
576.95	60853.93
577.11	60999.04
577.27	61010.74
577.43	60762.65
577.59	60856.27
577.75	60772.01
577.92	60842.23
578.08	60865.63
578.24	60753.29
578.40	61095.00
578.56	61041.17
578.72	61038.83
578.88	61048.19
579.04	61087.98
579.21	60882.02
579.37	61169.90
579.53	61003.72
579.69	60809.46
579.85	60797.76
580.01	60865.63
580.17	60746.26
580.33	61052.87
580.49	61066.92
580.65	60992.02
580.82	61048.19
580.98	60823.50
581.14	60874.99
581.30	61097.34
581.46	60856.27
581.62	61062.24
581.78	60963.93
581.94	61069.26
582.10	60914.78
582.26	61013.08
582.42	60858.61
582.58	61066.92
582.74	60900.74
582.90	60975.64
583.06	61034.15
583.22	61027.13
583.38	61038.83
583.54	60945.21
583.70	60933.51
583.86	61008.40
584.02	60989.68
584.18	61226.07
584.34	61013.08
584.50	61146.50
584.66	60921.80
584.82	60917.12
584.98	61214.37
585.14	61277.57
585.30	61109.05
585.46	61024.79
585.62	61001.38
585.78	61244.80
585.94	61027.13
586.10	61001.38
586.26	60961.59
586.42	61176.92
586.58	61176.92
586.74	61106.71
586.90	61235.44
587.06	61137.13
587.22	61183.94
587.38	61223.73
587.54	61099.68
587.70	61270.54
587.86	61251.82
588.02	61254.16
588.18	61228.41
588.34	61214.37
588.49	61380.55
