SpectraSuite Data File
++++++++++++++++++++++++++++++++++++
Date: Fri Oct 25 10:47:59 EDT 2013
User: price-jones
Dark Spectrum Present: No
Reference Spectrum Present: No
Number of Sampled Component Spectra: 1
Spectrometers: USB2+H05261
Integration Time (usec): 100000 (USB2+H05261)
Spectra Averaged: 1 (USB2+H05261)
Boxcar Smoothing: 0 (USB2+H05261)
Correct for Electrical Dark: No (USB2+H05261)
Strobe/Lamp Enabled: No (USB2+H05261)
Correct for Detector Non-linearity: No (USB2+H05261)
Correct for Stray Light: No (USB2+H05261)
Number of Pixels in Processed Spectrum: 2048
>>>>>Begin Processed Spectral Data<<<<<
365.73	212.99
365.92	212.99
366.12	212.99
366.32	114.69
366.52	30.43
366.72	93.62
366.91	53.83
367.11	91.28
367.31	9.36
367.51	14.04
367.70	0.00
367.90	4.68
368.10	30.43
368.30	11.70
368.49	2.34
368.69	77.24
368.89	105.32
369.09	81.92
369.28	0.00
369.48	39.79
369.68	135.75
369.87	102.98
370.07	74.90
370.27	138.09
370.47	194.26
370.66	376.83
370.86	430.66
371.06	416.62
371.25	468.11
371.45	451.72
371.65	416.62
371.84	404.91
372.04	456.40
372.24	482.15
372.44	456.40
372.63	496.19
372.83	456.40
373.03	486.83
373.22	444.70
373.42	482.15
373.62	498.53
373.81	538.32
374.01	512.58
374.21	575.77
374.40	500.87
374.60	610.88
374.79	512.58
374.99	578.11
375.19	615.56
375.38	589.82
375.58	606.20
375.78	585.13
375.97	575.77
376.17	599.18
376.37	545.34
376.56	585.13
376.76	688.12
376.95	627.26
377.15	601.52
377.35	545.34
377.54	575.77
377.74	631.94
377.93	615.56
378.13	557.05
378.33	688.12
378.52	636.63
378.72	603.86
378.91	613.22
379.11	580.45
379.31	596.84
379.50	629.60
379.70	669.39
379.89	653.01
380.09	601.52
380.28	653.01
380.48	620.24
380.68	711.52
380.87	667.05
381.07	655.35
381.26	592.16
381.46	636.63
381.65	704.50
381.85	746.63
382.04	697.48
382.24	695.14
382.43	678.76
382.63	641.31
382.83	601.52
383.02	737.27
383.22	688.12
383.41	678.76
383.61	678.76
383.80	798.12
384.00	629.60
384.19	653.01
384.39	695.14
384.58	727.91
384.78	702.16
384.97	748.97
385.17	720.88
385.36	744.29
385.56	753.65
385.75	770.04
385.95	784.08
386.14	779.40
386.34	753.65
386.53	746.63
386.72	786.42
386.92	819.19
387.11	823.87
387.31	816.85
387.50	777.06
387.70	777.06
387.89	802.80
388.09	784.08
388.28	816.85
388.48	819.19
388.67	816.85
388.86	851.96
389.06	870.68
389.25	894.08
389.45	884.72
389.64	915.15
389.84	954.94
390.03	938.55
390.22	898.77
390.42	952.60
390.61	842.59
390.81	947.92
391.00	973.66
391.19	882.38
391.39	997.07
391.58	978.34
391.78	990.05
391.97	959.62
392.16	924.51
392.36	924.51
392.55	931.53
392.75	1013.45
392.94	908.13
393.13	1006.43
393.33	922.17
393.52	940.90
393.71	1062.60
393.91	1097.71
394.10	1036.86
394.29	1020.47
394.49	1069.62
394.68	1146.86
394.88	1125.80
395.07	1200.69
395.26	1165.59
395.46	1121.12
395.65	1125.80
395.84	1100.05
396.04	1181.97
396.23	1198.35
396.42	1167.93
396.62	1043.88
396.81	1151.54
397.00	1086.01
397.19	1081.33
397.39	1221.76
397.58	1200.69
397.77	1240.48
397.97	1238.14
398.16	1294.32
398.35	1238.14
398.55	1289.64
398.74	1149.20
398.93	1348.15
399.12	1308.36
399.32	1205.38
399.51	1317.72
399.70	1362.19
399.90	1315.38
400.09	1355.17
400.28	1249.85
400.47	1411.34
400.67	1455.81
400.86	1462.83
401.05	1404.32
401.24	1488.58
401.44	1404.32
401.63	1523.69
401.82	1462.83
402.01	1511.99
402.21	1556.46
402.40	1502.62
402.59	1537.73
402.78	1488.58
402.97	1636.03
403.17	1600.93
403.36	1584.54
403.55	1540.07
403.74	1537.73
403.93	1521.35
404.13	1664.12
404.32	1703.91
404.51	1657.10
404.70	1675.82
404.89	1619.65
405.09	1717.95
405.28	1813.92
405.47	1692.21
405.66	1792.85
405.85	1724.97
406.05	1755.40
406.24	1811.57
406.43	1799.87
406.62	1832.64
406.81	1839.66
407.00	1811.57
407.20	1849.02
407.39	1832.64
407.58	1912.22
407.77	1874.77
407.96	1944.99
408.15	2022.22
408.34	1970.73
408.54	2015.20
408.73	2026.90
408.92	1994.14
409.11	1966.05
409.30	2057.33
409.49	1909.88
409.68	2050.31
409.87	2029.24
410.07	2122.87
410.26	1989.46
410.45	2118.18
410.64	2078.40
410.83	2134.57
411.02	2181.38
411.21	2207.13
411.40	2190.74
411.59	2265.64
411.78	2317.13
411.98	2310.11
412.17	2312.45
412.36	2394.37
412.55	2296.07
412.74	2434.16
412.93	2347.56
413.12	2349.90
413.31	2532.46
413.50	2438.84
413.69	2417.77
413.88	2553.52
414.07	2525.44
414.26	2558.21
414.45	2644.81
414.64	2597.99
414.83	2593.31
415.02	2562.89
415.22	2792.26
415.41	2731.41
415.60	2633.10
415.79	2731.41
415.98	2841.41
416.17	2724.38
416.36	2876.52
416.55	2904.60
416.74	2839.07
416.93	2764.17
417.12	2857.79
417.31	2998.23
417.50	2942.05
417.69	3094.19
417.88	2965.46
418.07	3054.40
418.26	3021.63
418.45	3038.02
418.64	3087.17
418.83	3138.66
419.02	3159.72
419.21	3176.11
419.39	3197.17
419.58	3096.53
419.77	3190.15
419.96	3201.85
420.15	3173.77
420.34	3314.20
420.53	3236.96
420.72	3279.09
420.91	3290.79
421.10	3482.72
421.29	3375.05
421.48	3332.92
421.67	3466.33
421.86	3368.03
422.05	3365.69
422.24	3361.01
422.43	3391.44
422.61	3445.27
422.80	3431.23
422.99	3468.67
423.18	3496.76
423.37	3468.67
423.56	3461.65
423.75	3400.80
423.94	3501.44
424.13	3218.24
424.32	3358.67
424.50	3529.53
424.69	3613.79
424.88	3548.25
425.07	3604.42
425.26	3471.01
425.45	3555.27
425.64	3597.40
425.83	3531.87
426.01	3578.68
426.20	3520.17
426.39	3655.92
426.58	3489.74
426.77	3606.77
426.96	3485.06
427.15	3499.10
427.33	3625.49
427.52	3449.95
427.71	3733.15
427.90	3566.98
428.09	3728.47
428.28	3662.94
428.46	3702.73
428.65	3684.00
428.84	3765.92
429.03	3714.43
429.22	3850.18
429.40	3779.97
429.59	3763.58
429.78	3641.87
429.97	3763.58
430.16	3768.26
430.34	3768.26
430.53	3833.80
430.72	3896.99
430.91	3861.88
431.10	4025.72
431.28	4063.17
431.47	4121.68
431.66	4180.20
431.85	4018.70
432.03	4105.30
432.22	4283.18
432.41	4088.92
432.60	4196.58
432.79	4124.02
432.97	4198.92
433.16	4252.75
433.35	4222.33
433.54	4304.25
433.72	4182.54
433.91	4182.54
434.10	4322.97
434.28	4245.73
434.47	4269.14
434.66	4341.69
434.85	4287.86
435.03	4496.17
435.22	4404.89
435.41	4484.47
435.59	4547.66
435.78	4465.74
435.97	4559.36
436.16	4500.85
436.34	4547.66
436.53	4470.42
436.72	4727.88
436.90	4526.60
437.09	4580.43
437.28	4484.47
437.46	4608.51
437.65	4650.64
437.84	4624.90
438.02	4716.18
438.21	4645.96
438.40	4545.32
438.58	4978.32
438.77	4877.68
438.96	4774.69
439.14	4968.96
439.33	4908.10
439.52	5076.62
439.70	5050.88
439.89	5139.82
440.08	5109.39
440.26	5130.45
440.45	5142.16
440.63	5219.39
440.82	5334.08
441.01	5301.31
441.19	5203.01
441.38	5371.53
441.57	5355.15
441.75	5455.79
441.94	5514.30
442.12	5633.67
442.31	5668.78
442.50	5467.49
442.68	5521.32
442.87	5575.16
443.05	5734.31
443.24	5755.38
443.43	5694.52
443.61	5799.85
443.80	5998.79
443.98	5533.03
444.17	5554.09
444.35	5806.87
444.54	5919.21
444.73	5790.49
444.91	5666.44
445.10	5907.51
445.28	5753.04
445.47	5633.67
445.65	5668.78
445.84	5891.13
446.02	5799.85
446.21	5790.49
446.39	5884.11
446.58	5846.66
446.77	5881.77
446.95	5790.49
447.14	5664.10
447.32	5844.32
447.51	5996.45
447.69	5996.45
447.88	5832.62
448.06	5888.79
448.25	5907.51
448.43	5996.45
448.62	5963.68
448.80	5853.68
448.99	6069.01
449.17	6176.67
449.36	6029.22
449.54	6237.53
449.73	6127.52
449.91	6307.74
450.10	6228.17
450.28	6389.66
450.46	6253.91
450.65	6319.45
450.83	6340.51
451.02	6352.21
451.20	6370.94
451.39	6366.26
451.57	6361.58
451.76	6274.98
451.94	6347.53
452.13	6478.60
452.31	6448.18
452.49	6319.45
452.68	6513.71
452.86	6551.16
453.05	6485.62
453.23	6424.77
453.42	6548.82
453.60	6560.52
453.78	6595.63
453.97	6464.56
454.15	6497.33
454.34	6546.48
454.52	6686.91
454.70	6836.70
454.89	6810.96
455.07	6726.70
455.26	6775.85
455.44	6981.82
455.62	6836.70
455.81	6846.07
455.99	6820.32
456.17	6916.28
456.36	6850.75
456.54	6881.18
456.73	7009.90
456.91	7262.68
457.09	7265.02
457.28	7342.26
457.46	7096.50
457.64	7199.49
457.83	7030.97
458.01	6998.20
458.19	7318.86
458.38	7250.98
458.56	7573.97
458.74	7377.37
458.93	7375.03
459.11	7435.88
459.29	7199.49
459.48	7452.27
459.66	7307.15
459.84	7407.80
460.03	7552.91
460.21	7564.61
460.39	7438.22
460.57	7365.67
460.76	7590.36
460.94	7618.44
461.12	7754.19
461.31	7765.90
461.49	7592.70
461.67	7672.28
461.85	7793.98
462.04	7824.41
462.22	8276.13
462.40	7801.01
462.59	7782.28
462.77	7892.29
462.95	7948.46
463.13	7988.25
463.32	7843.14
463.50	8018.68
463.68	8086.55
463.86	7925.05
464.05	7941.44
464.23	8028.04
464.41	8262.09
464.59	8217.62
464.78	8273.79
464.96	8301.88
465.14	7943.78
465.32	8292.52
465.50	8351.03
465.69	8212.94
465.87	8266.77
466.05	8215.28
466.23	8217.62
466.41	8196.56
466.60	8486.78
466.78	8212.94
466.96	8327.63
467.14	8182.51
467.32	8271.45
467.51	8601.47
467.69	8231.66
467.87	8418.91
468.05	8416.57
468.23	8456.36
468.41	8512.53
468.60	8358.05
468.78	8589.77
468.96	8446.99
469.14	8482.10
469.32	8667.00
469.50	8622.53
469.69	8894.04
469.87	8887.01
470.05	8861.27
470.23	8898.72
470.41	8788.71
470.59	8872.97
470.77	8807.44
470.95	9095.32
471.14	8961.91
471.32	8769.99
471.50	9235.75
471.68	9324.69
471.86	9231.07
472.04	9331.72
472.22	9516.62
472.40	9071.92
472.58	9423.00
472.77	9563.43
472.95	9493.21
473.13	9877.06
473.31	9394.91
473.49	9411.29
473.67	9423.00
473.85	9523.64
474.03	9748.33
474.21	9769.40
474.39	9811.53
474.57	10092.39
474.75	10010.47
474.93	9884.08
475.12	10092.39
475.30	10139.20
475.48	9912.17
475.66	10225.80
475.84	10104.09
476.02	10422.41
476.20	10253.89
476.38	10518.37
476.56	10698.59
476.74	10663.48
476.92	10759.44
477.10	10541.77
477.28	11007.54
477.46	10827.32
477.64	10890.51
477.82	11033.29
478.00	11286.06
478.18	11232.23
478.36	11389.05
478.54	11353.94
478.72	11508.41
478.90	11714.38
479.08	11716.72
479.26	11782.26
479.44	11999.93
479.62	11932.05
479.80	12081.85
479.98	12315.90
480.16	12351.01
480.34	12105.25
480.52	12112.27
480.70	12102.91
480.88	12297.17
481.06	12372.07
481.24	12416.54
481.41	12608.47
481.59	13015.72
481.77	12762.94
481.95	12844.86
482.13	13207.64
482.31	12912.74
482.49	13591.49
482.67	13540.00
482.85	13605.53
483.03	13607.87
483.21	13626.60
483.39	14019.81
483.57	13881.72
483.74	13834.91
483.92	14026.83
484.10	14045.55
484.28	14146.20
484.46	14647.07
484.64	14651.75
484.82	14478.55
485.00	14450.47
485.18	14988.79
485.35	14934.96
485.53	14888.15
485.71	14829.63
485.89	15241.57
486.07	15124.54
486.25	15295.40
486.43	15176.03
486.61	15784.57
486.78	15836.06
486.96	15690.95
487.14	16013.95
487.32	15939.05
487.50	16554.61
487.68	16233.96
487.85	16535.88
488.03	16945.48
488.21	16940.80
488.39	16940.80
488.57	17191.23
488.75	17219.32
488.92	17429.97
489.10	17460.40
489.28	17710.83
489.46	17816.16
489.64	17532.95
489.81	18174.26
489.99	18340.44
490.17	18202.35
490.35	18523.00
490.53	18843.65
490.70	18693.86
490.88	18457.46
491.06	18995.79
491.24	18939.62
491.41	18979.40
491.59	18979.40
491.77	19250.91
491.95	19288.35
492.13	19875.83
492.30	19297.72
492.48	19552.84
492.66	19702.63
492.84	19693.27
493.01	20231.59
493.19	20046.69
493.37	20332.23
493.54	20538.20
493.72	20627.14
493.90	20479.69
494.08	20795.66
494.25	21034.39
494.43	20669.27
494.61	21032.05
494.79	21366.75
494.96	21495.48
495.14	21277.81
495.32	21539.95
495.49	21546.97
495.67	21977.63
495.85	21951.88
496.02	21900.39
496.20	22267.86
496.38	22300.62
496.55	22377.86
496.73	22782.77
496.91	22359.14
497.09	22625.96
497.26	22977.04
497.44	22988.74
497.62	23061.30
497.79	23199.39
497.97	23271.95
498.14	23133.86
498.32	23302.37
498.50	23452.17
498.67	23672.18
498.85	23503.66
499.03	23840.70
499.20	23733.03
499.38	24238.59
499.56	24266.67
499.73	24020.92
499.91	24531.15
500.08	24545.20
500.26	24381.36
500.44	24425.83
500.61	24650.52
500.79	24453.92
500.97	24702.01
501.14	24797.98
501.32	24924.36
501.49	24748.82
501.67	25245.02
501.84	25230.98
502.02	24863.51
502.20	25839.51
502.37	25399.49
502.55	25647.59
502.72	25560.99
502.90	25680.36
503.07	25333.96
503.25	25900.37
503.43	25701.42
503.60	25898.03
503.78	26242.09
503.95	26099.31
504.13	26419.97
504.30	25923.77
504.48	26340.39
504.65	26398.90
504.83	26703.17
505.01	27122.13
505.18	26864.67
505.36	27218.09
505.53	26932.54
505.71	26925.52
505.88	27159.58
506.06	26962.97
506.23	27264.90
506.41	27246.18
506.58	27534.06
506.76	27779.82
506.93	27669.81
507.11	27435.76
507.28	27817.27
507.46	27433.42
507.63	27995.15
507.81	27978.76
507.98	27627.68
508.16	28048.98
508.33	28233.88
508.50	28144.94
508.68	28320.48
508.85	28613.05
509.03	28402.40
509.20	28561.56
509.38	28907.96
509.55	28933.70
509.73	28985.19
509.90	28973.49
510.08	28905.62
510.25	29261.38
510.42	29303.51
510.60	29612.46
510.77	29247.33
510.95	29544.58
511.12	29408.83
511.30	29619.48
511.47	29879.28
511.64	29888.64
511.82	30033.75
511.99	29888.64
512.17	30302.92
512.34	29715.44
512.51	29607.78
512.69	30286.53
512.86	30015.03
513.04	30848.26
513.21	30445.69
513.38	30354.41
513.56	30349.73
513.73	30567.40
513.90	30822.51
514.08	30644.63
514.25	30789.75
514.43	30892.73
514.60	31117.42
514.77	31019.12
514.95	31234.45
515.12	31143.17
515.29	30913.80
515.47	31529.36
515.64	31234.45
515.81	31503.61
515.99	31850.01
516.16	31660.43
516.33	31632.34
516.51	31402.97
516.68	31264.88
516.85	31253.17
517.03	31845.33
517.20	31899.16
517.37	32077.04
517.54	31978.74
517.72	31915.54
517.89	32156.62
518.06	31655.75
518.24	31648.72
518.41	32004.49
518.58	32011.51
518.75	31938.95
518.93	32549.83
519.10	32402.38
519.27	32554.51
519.45	32638.77
519.62	32929.00
519.79	33031.98
519.96	32531.11
520.14	33046.02
520.31	33144.33
520.48	33310.50
520.65	32938.36
520.83	33722.44
521.00	33507.11
521.17	33088.15
521.34	33226.24
521.52	33949.47
521.69	33799.68
521.86	34038.41
522.03	33638.18
522.20	33881.60
522.38	33874.57
522.55	34506.52
522.72	34146.08
522.89	34148.42
523.07	34019.69
523.24	34068.84
523.41	34555.67
523.58	34328.64
523.75	34974.63
523.92	34803.77
524.10	34979.31
524.27	34497.16
524.44	34801.43
524.61	34749.93
524.78	35047.18
524.96	35208.68
525.13	35000.37
525.30	35143.14
525.47	35049.52
525.64	34998.03
525.81	35372.52
525.98	35466.14
526.16	35412.31
526.33	35040.16
526.50	35583.16
526.67	35372.52
526.84	35487.20
527.01	35342.09
527.18	35173.57
527.36	35648.70
527.53	35857.01
527.70	36030.21
527.87	35803.17
528.04	35934.24
528.21	36112.13
528.38	36070.00
528.55	36205.75
528.72	36371.92
528.89	36601.30
529.07	36273.62
529.24	36018.50
529.41	36566.19
529.58	36273.62
529.75	36350.86
529.92	36458.52
530.09	36603.64
530.26	37003.87
530.43	36563.85
530.60	36788.54
530.77	36577.89
530.94	37083.45
531.11	36849.39
531.28	36863.44
531.46	37331.54
531.63	37354.95
531.80	36961.74
531.97	36652.79
532.14	36828.33
532.31	37373.67
532.48	37315.16
532.65	37706.03
532.82	37324.52
532.99	37546.87
533.16	37184.09
533.33	37942.42
533.50	37668.58
533.67	37783.27
533.84	37294.10
534.01	37708.37
534.18	37727.10
534.35	38160.09
534.52	37888.59
534.69	37848.80
534.86	38164.78
535.03	38150.73
535.20	37780.93
535.37	38298.19
535.54	38698.42
535.71	38033.71
535.88	38532.24
536.05	38363.72
536.22	38480.75
536.38	38057.11
536.55	38487.77
536.72	38347.34
536.89	38401.17
537.06	38291.16
537.23	38560.33
537.40	38113.28
537.57	38932.47
537.74	38539.26
537.91	39421.64
538.08	39063.54
538.25	38621.18
538.42	38859.91
538.59	38763.95
538.75	38546.28
538.92	38810.76
539.09	39587.82
539.26	39077.58
539.43	39274.19
539.60	39323.34
539.77	39225.04
539.94	39463.77
540.11	39405.26
540.28	39070.56
540.44	39002.69
540.61	38700.76
540.78	38838.85
540.95	39374.83
541.12	39091.63
541.29	39484.84
541.46	39882.73
541.62	39676.76
541.79	39878.05
541.96	39555.05
542.13	39941.24
542.30	39615.91
542.47	39695.49
542.63	39704.85
542.80	39875.71
542.97	40603.61
543.14	40512.33
543.31	40636.38
543.48	40315.73
543.64	40861.07
543.81	40589.57
543.98	40212.74
544.15	40540.42
544.32	40680.85
544.48	40767.45
544.65	40622.34
544.82	41123.21
544.99	40179.98
545.16	40666.81
545.32	40737.02
545.49	41008.53
545.66	40517.01
545.83	40786.18
546.00	41256.62
546.16	40877.46
546.33	40720.64
546.50	40727.66
546.67	40989.80
546.83	40570.85
547.00	41200.45
547.17	41280.03
547.34	41074.06
547.50	41371.31
547.67	41375.99
547.84	41261.30
548.00	41507.06
548.17	41469.61
548.34	41092.79
548.51	41441.53
548.67	41778.56
548.84	41727.07
549.01	41205.13
549.18	41488.34
549.34	41645.15
549.51	41914.31
549.68	41888.57
549.84	41773.88
550.01	41928.36
550.18	41507.06
550.34	41621.75
550.51	41551.53
550.68	41652.17
550.84	41577.28
551.01	42227.95
551.18	42033.68
551.34	41862.82
551.51	42141.35
551.68	41890.91
551.84	42412.85
552.01	41954.10
552.18	42064.11
552.34	42033.68
552.51	42335.61
552.68	42225.60
552.84	42377.74
553.01	42469.02
553.18	42316.89
553.34	42139.00
553.51	42071.13
553.67	42272.42
553.84	42909.04
554.01	42541.58
554.17	42983.94
554.34	42536.90
554.51	42576.69
554.67	43164.16
554.84	42370.72
555.00	42770.95
555.17	42459.66
555.33	42394.12
555.50	42478.38
555.67	42880.95
555.83	43192.25
556.00	42909.04
556.16	43255.44
556.33	42857.55
556.50	42887.98
556.66	42740.52
556.83	42993.30
556.99	43143.09
557.16	42859.89
557.32	42953.51
557.49	42997.98
557.65	43129.05
557.82	42871.59
557.98	43056.50
558.15	43290.55
558.32	43077.56
558.48	43260.12
558.65	42775.63
558.81	43129.05
558.98	43122.03
559.14	43363.11
559.31	43180.54
559.47	43089.26
559.64	43587.80
559.80	43402.89
559.97	43658.01
560.13	43166.50
560.30	43365.45
560.46	43222.67
560.63	42997.98
560.79	43491.83
560.96	43578.43
561.12	43473.11
561.29	43608.86
561.45	43552.69
561.61	43578.43
561.78	43475.45
561.94	43129.05
562.11	43789.08
562.27	43629.93
562.44	43784.40
562.60	43803.13
562.77	43753.97
562.93	44119.10
563.10	44151.87
563.26	43430.98
563.42	43889.73
563.59	43817.17
563.75	43849.94
563.92	43873.34
564.08	43468.43
564.24	43915.47
564.41	43845.26
564.57	43859.30
564.74	43803.13
564.90	43728.23
565.07	43988.03
565.23	44098.03
565.39	43658.01
565.56	44250.17
565.72	43866.32
565.88	43999.73
566.05	44566.14
566.21	43889.73
566.38	43601.84
566.54	44304.00
566.70	44088.67
566.87	44222.08
567.03	44322.72
567.19	44556.78
567.36	44212.72
567.52	43969.30
567.68	44397.62
567.85	43629.93
568.01	43920.15
568.17	43779.72
568.34	44100.37
568.50	44353.15
568.66	44271.23
568.83	44135.48
568.99	43737.59
569.15	44069.95
569.32	43735.25
569.48	43805.47
569.64	44423.37
569.81	44350.81
569.97	44067.61
570.13	44046.54
570.30	44067.61
570.46	43934.20
570.62	43702.48
570.78	43786.74
570.95	44051.22
571.11	44053.56
571.27	44313.36
571.43	44196.34
571.60	44446.77
571.76	43943.56
571.92	44311.02
572.09	44208.04
572.25	44196.34
572.41	43955.26
572.57	44095.69
572.74	44938.29
572.90	44226.76
573.06	44626.99
573.22	44535.71
573.38	44299.32
573.55	43861.64
573.71	44287.62
573.87	44198.68
574.03	44357.83
574.20	44182.29
574.36	44472.52
574.52	44453.79
574.68	43985.69
574.84	44535.71
575.01	44011.43
575.17	44353.15
575.33	43887.39
575.49	44472.52
575.65	44449.11
575.82	44584.86
575.98	43983.35
576.14	44615.29
576.30	44767.43
576.46	44502.95
576.62	44357.83
576.79	44376.56
576.95	44112.08
577.11	44488.90
577.27	44507.63
577.43	44861.05
577.59	44575.50
577.75	44060.58
577.92	44219.74
578.08	44137.82
578.24	44299.32
578.40	44203.36
578.56	44383.58
578.72	44444.43
578.88	44821.26
579.04	44533.37
579.21	44343.79
579.37	44531.03
579.53	44385.92
579.69	44409.32
579.85	44542.74
580.01	44378.90
580.17	44699.55
580.33	44751.04
580.49	44512.31
580.65	44538.05
580.82	44779.13
580.98	44556.78
581.14	44128.46
581.30	44278.25
581.46	44781.47
581.62	44554.44
581.78	44395.28
581.94	44809.56
582.10	44701.89
582.26	44727.64
582.42	45064.67
582.58	44832.96
582.74	44755.72
582.90	44666.78
583.06	44781.47
583.22	44985.10
583.38	44772.11
583.54	44673.81
583.70	44823.60
583.86	44311.02
584.02	44428.05
584.18	44755.72
584.34	44463.16
584.50	44921.90
584.66	44444.43
584.82	44678.49
584.98	44619.97
585.14	44842.32
585.30	44692.53
585.46	44790.83
585.62	44346.13
585.78	44636.36
585.94	44369.54
586.10	44652.74
586.26	44545.08
586.42	44762.75
586.58	44692.53
586.74	44629.34
586.90	44444.43
587.06	44428.05
587.22	44676.15
587.38	44456.14
587.54	44692.53
587.70	44949.99
587.86	44626.99
588.02	44769.77
588.18	45078.72
588.34	44804.88
588.49	45146.59
588.65	44301.66
588.81	44559.12
588.97	44149.53
589.13	44545.08
589.29	44528.69
589.45	44912.54
589.61	44861.05
589.77	45270.64
589.93	44397.62
590.08	45106.80
590.24	44823.60
