SpectraSuite Data File
++++++++++++++++++++++++++++++++++++
Date: Fri Oct 25 11:34:44 EDT 2013
User: price-jones
Dark Spectrum Present: No
Reference Spectrum Present: No
Number of Sampled Component Spectra: 1
Spectrometers: USB2+H05261
Integration Time (usec): 100000 (USB2+H05261)
Spectra Averaged: 1 (USB2+H05261)
Boxcar Smoothing: 0 (USB2+H05261)
Correct for Electrical Dark: No (USB2+H05261)
Strobe/Lamp Enabled: No (USB2+H05261)
Correct for Detector Non-linearity: No (USB2+H05261)
Correct for Stray Light: No (USB2+H05261)
Number of Pixels in Processed Spectrum: 2048
>>>>>Begin Processed Spectral Data<<<<<
365.73	262.14
365.92	262.14
366.12	262.14
366.32	126.39
366.52	187.24
366.72	194.26
366.91	166.18
367.11	175.54
367.31	203.63
367.51	121.71
367.70	191.92
367.90	154.48
368.10	140.43
368.30	154.48
368.49	110.01
368.69	285.55
368.89	245.76
369.09	182.56
369.28	187.24
369.48	180.22
369.68	187.24
369.87	287.89
370.07	238.73
370.27	262.14
370.47	372.15
370.66	475.13
370.86	463.43
371.06	521.94
371.25	470.45
371.45	484.49
371.65	582.79
371.84	547.69
372.04	585.13
372.24	554.71
372.44	589.82
372.63	557.05
372.83	613.22
373.03	608.54
373.22	580.45
373.42	538.32
373.62	643.65
373.81	571.09
374.01	624.92
374.21	678.76
374.40	667.05
374.60	587.47
374.79	622.58
374.99	645.99
375.19	582.79
375.38	627.26
375.58	653.01
375.78	739.61
375.97	697.48
376.17	692.80
376.37	683.44
376.56	620.24
376.76	645.99
376.95	645.99
377.15	678.76
377.35	669.39
377.54	711.52
377.74	732.59
377.93	653.01
378.13	657.69
378.33	683.44
378.52	662.37
378.72	730.25
378.91	753.65
379.11	641.31
379.31	716.20
379.50	641.31
379.70	655.35
379.89	823.87
380.09	709.18
380.28	741.95
380.48	781.74
380.68	734.93
380.87	695.14
381.07	704.50
381.26	784.08
381.46	767.70
381.65	786.42
381.85	758.33
382.04	734.93
382.24	695.14
382.43	697.48
382.63	767.70
382.83	725.57
383.02	844.93
383.22	770.04
383.41	734.93
383.61	779.40
383.80	896.43
384.00	826.21
384.19	809.83
384.39	720.88
384.58	795.78
384.78	819.19
384.97	889.40
385.17	755.99
385.36	777.06
385.56	821.53
385.75	837.91
385.95	828.55
386.14	858.98
386.34	894.08
386.53	912.81
386.72	772.38
386.92	922.17
387.11	957.28
387.31	854.30
387.50	837.91
387.70	847.27
387.89	833.23
388.09	903.45
388.28	868.34
388.48	940.90
388.67	894.08
388.86	887.06
389.06	866.00
389.25	912.81
389.45	987.71
389.64	903.45
389.84	992.39
390.03	901.11
390.22	997.07
390.42	976.00
390.61	908.13
390.81	926.85
391.00	992.39
391.19	992.39
391.39	889.40
391.58	940.90
391.78	1018.13
391.97	987.71
392.16	943.24
392.36	1081.33
392.55	1006.43
392.75	1032.18
392.94	1025.15
393.13	1020.47
393.33	1015.79
393.52	1027.50
393.71	1097.71
393.91	1144.52
394.10	1060.26
394.29	1055.58
394.49	1008.77
394.68	1022.81
394.88	1032.18
395.07	1109.41
395.26	1083.67
395.46	1095.37
395.65	1102.39
395.84	1064.94
396.04	1254.53
396.23	1123.46
396.42	1170.27
396.62	1156.22
396.81	1174.95
397.00	1153.88
397.19	1137.50
397.39	1174.95
397.58	1170.27
397.77	1205.38
397.97	1196.01
398.16	1261.55
398.35	1242.82
398.55	1139.84
398.74	1306.02
398.93	1179.63
399.12	1350.49
399.32	1224.10
399.51	1249.85
399.70	1324.74
399.90	1315.38
400.09	1355.17
400.28	1263.89
400.47	1280.27
400.67	1282.61
400.86	1373.89
401.05	1303.68
401.24	1336.45
401.44	1380.92
401.63	1394.96
401.82	1369.21
402.01	1373.89
402.21	1299.00
402.40	1320.06
402.59	1444.11
402.78	1453.47
402.97	1483.90
403.17	1383.26
403.36	1516.67
403.55	1446.45
403.74	1441.77
403.93	1514.33
404.13	1514.33
404.32	1509.65
404.51	1579.86
404.70	1633.69
404.89	1610.29
405.09	1671.14
405.28	1673.48
405.47	1579.86
405.66	1652.42
405.85	1746.04
406.05	1661.78
406.24	1596.25
406.43	1633.69
406.62	1699.23
406.81	1732.00
407.00	1675.82
407.20	1729.66
407.39	1715.61
407.58	1790.51
407.77	1834.98
407.96	1872.43
408.15	1832.64
408.34	1689.87
408.54	1851.36
408.73	1811.57
408.92	1842.00
409.11	1849.02
409.30	1809.23
409.49	1844.34
409.68	1820.94
409.87	1914.56
410.07	1947.33
410.26	2010.52
410.45	1966.05
410.64	1909.88
410.83	2115.84
411.02	1989.46
411.21	2127.55
411.40	2078.40
411.59	2223.51
411.78	2069.03
411.98	2111.16
412.17	2052.65
412.36	2136.91
412.55	2232.87
412.74	2118.18
412.93	2277.34
413.12	2216.49
413.31	2375.64
413.50	2387.35
413.69	2260.96
413.88	2387.35
414.07	2380.32
414.26	2321.81
414.45	2413.09
414.64	2483.31
414.83	2377.98
415.02	2429.48
415.22	2464.58
415.41	2595.65
415.60	2483.31
415.79	2480.97
415.98	2499.69
416.17	2693.96
416.36	2712.68
416.55	2569.91
416.74	2693.96
416.93	2640.12
417.12	2775.88
417.31	2633.10
417.50	2686.94
417.69	2815.66
417.88	2754.81
418.07	2846.09
418.26	2799.28
418.45	2850.77
418.64	2984.18
418.83	2932.69
419.02	2899.92
419.21	2960.78
419.39	2899.92
419.58	2869.50
419.77	2970.14
419.96	3012.27
420.15	2986.52
420.34	2930.35
420.53	3009.93
420.72	3084.83
420.91	3143.34
421.10	3061.42
421.29	3075.46
421.48	3159.72
421.67	3063.76
421.86	3059.08
422.05	3091.85
422.24	3117.59
422.43	3192.49
422.61	3180.79
422.80	3133.98
422.99	3227.60
423.18	3150.36
423.37	3279.09
423.56	3162.06
423.75	3241.64
423.94	3145.68
424.13	3063.76
424.32	3101.21
424.50	3201.85
424.69	3234.62
424.88	3363.35
425.07	3255.69
425.26	3283.77
425.45	3206.53
425.64	3218.24
425.83	3133.98
426.01	3407.82
426.20	3251.00
426.39	3274.41
426.58	3211.22
426.77	3255.69
426.96	3311.86
427.15	3358.67
427.33	3438.25
427.52	3356.33
427.71	3438.25
427.90	3316.54
428.09	3463.99
428.28	3599.74
428.46	3531.87
428.65	3438.25
428.84	3634.85
429.03	3655.92
429.22	3557.61
429.40	3545.91
429.59	3590.38
429.78	3482.72
429.97	3471.01
430.16	3576.34
430.34	3765.92
430.53	3772.94
430.72	3751.88
430.91	3648.90
431.10	3641.87
431.28	3730.81
431.47	3805.71
431.66	3868.91
431.85	3772.94
432.03	3810.39
432.22	3906.35
432.41	3939.12
432.60	3885.29
432.79	3852.52
432.97	3932.10
433.16	3953.16
433.35	3913.38
433.54	4035.08
433.72	4067.85
433.91	4025.72
434.10	3981.25
434.28	3946.14
434.47	3976.57
434.66	4035.08
434.85	4175.52
435.03	4145.09
435.22	3918.06
435.41	4203.60
435.59	4084.23
435.78	4163.81
435.97	4161.47
436.16	4081.89
436.34	4133.39
436.53	4311.27
436.72	4280.84
436.90	4222.33
437.09	4362.76
437.28	4257.43
437.46	4351.06
437.65	4231.69
437.84	4407.23
438.02	4308.93
438.21	4423.61
438.40	4395.53
438.58	4496.17
438.77	4564.04
438.96	4461.06
439.14	4788.74
439.33	4823.84
439.52	4592.13
439.70	4624.90
439.89	4755.97
440.08	4699.80
440.26	4795.76
440.45	4819.16
440.63	4767.67
440.82	4978.32
441.01	4968.96
441.19	4868.31
441.38	5060.24
441.57	4875.34
441.75	5043.85
441.94	5088.32
442.12	5160.88
442.31	5238.12
442.50	5076.62
442.68	5069.60
442.87	5179.61
443.05	5186.63
443.24	5135.14
443.43	5146.84
443.61	5109.39
443.80	5341.10
443.98	5174.92
444.17	5132.79
444.35	5305.99
444.54	5343.44
444.73	5371.53
444.91	5390.25
445.10	5366.85
445.28	5310.68
445.47	5275.57
445.65	5343.44
445.84	5273.23
446.02	5392.59
446.21	5294.29
446.39	5355.15
446.58	5385.57
446.77	5434.72
446.95	5338.76
447.14	5458.13
447.32	5479.19
447.51	5469.83
447.69	5549.41
447.88	5561.11
448.06	5561.11
448.25	5469.83
448.43	5694.52
448.62	5533.03
448.80	5547.07
448.99	5577.50
449.17	5427.70
449.36	5472.17
449.54	5537.71
449.73	5706.23
449.91	5720.27
450.10	5699.20
450.28	5919.21
450.46	5731.97
450.65	5781.12
450.83	5738.99
451.02	5933.26
451.20	5982.41
451.39	5802.19
451.57	5844.32
451.76	5863.04
451.94	5933.26
452.13	6076.03
452.31	5900.49
452.49	5844.32
452.68	6059.65
452.86	5893.47
453.05	6022.20
453.23	6087.73
453.42	5998.79
453.60	5947.30
453.78	6153.27
453.97	6033.90
454.15	6104.12
454.34	6012.84
454.52	6125.18
454.70	6244.55
454.89	6263.27
455.07	6232.85
455.26	6399.02
455.44	6312.42
455.62	6553.50
455.81	6459.88
455.99	6298.38
456.17	6408.39
456.36	6246.89
456.54	6534.78
456.73	6567.54
456.91	6860.11
457.09	6700.95
457.28	6967.77
457.46	6633.08
457.64	6595.63
457.83	6483.28
458.01	6700.95
458.19	6832.02
458.38	6754.79
458.56	6752.45
458.74	6909.26
458.93	6836.70
459.11	6815.64
459.29	6808.62
459.48	6813.30
459.66	6867.13
459.84	6775.85
460.03	7066.08
460.21	7033.31
460.39	6998.20
460.57	7045.01
460.76	7084.80
460.94	7066.08
461.12	7042.67
461.31	7054.37
461.49	7126.93
461.67	7112.89
461.85	7309.49
462.04	7131.61
462.22	7368.01
462.40	7272.04
462.59	7204.17
462.77	7279.07
462.95	7253.32
463.13	7339.92
463.32	7375.03
463.50	7391.41
463.68	7449.93
463.86	7527.16
464.05	7370.35
464.23	7351.62
464.41	7421.84
464.59	7440.56
464.78	7836.11
464.96	7637.17
465.14	7543.55
465.32	7407.80
465.50	7772.92
465.69	7714.41
465.87	7730.79
466.05	7679.30
466.23	7721.43
466.41	7609.08
466.60	7772.92
466.78	7744.83
466.96	7726.11
467.14	7693.34
467.32	7875.90
467.51	7978.89
467.69	7625.47
467.87	7765.90
468.05	7967.18
468.23	7819.73
468.41	7925.05
468.60	8077.19
468.78	8091.23
468.96	7936.76
469.14	8154.43
469.32	8168.47
469.50	7922.71
469.69	8231.66
469.87	8379.12
470.05	8297.20
470.23	8124.00
470.41	8234.00
470.59	8255.07
470.77	8224.64
470.95	8327.63
471.14	8601.47
471.32	8332.31
471.50	8606.15
471.68	8493.80
471.86	8554.66
472.04	8659.98
472.22	8837.86
472.40	8578.06
472.58	8667.00
472.77	8755.94
472.95	8688.07
473.13	9240.44
473.31	8858.93
473.49	8997.02
473.67	8777.01
473.85	8985.32
474.03	9200.65
474.21	9273.20
474.39	9238.09
474.57	9130.43
474.75	9439.38
474.93	9071.92
475.12	9439.38
475.30	9631.30
475.48	9530.66
475.66	9439.38
475.84	9511.94
476.02	9703.86
476.20	9551.73
476.38	9921.53
476.56	9942.60
476.74	9968.34
476.92	9888.76
477.10	9879.40
477.28	9994.09
477.46	10050.26
477.64	10469.22
477.82	10413.04
478.00	10644.76
478.18	10471.56
478.36	10504.32
478.54	10586.24
478.72	10602.63
478.90	10832.00
479.08	10677.52
479.26	10911.58
479.44	11077.76
479.62	11110.52
479.80	11169.04
479.98	11269.68
480.16	11705.02
480.34	11428.84
480.52	11566.93
480.70	11590.33
480.88	11655.87
481.06	11382.03
481.24	11751.83
481.41	12135.68
481.59	12133.34
481.77	12074.82
481.95	12198.87
482.13	12205.89
482.31	12416.54
482.49	12732.51
482.67	12556.97
482.85	13034.44
483.03	12709.11
483.21	12699.75
483.39	13228.71
483.57	12891.67
483.74	12891.67
483.92	13123.38
484.10	13149.13
484.28	13561.06
484.46	13839.59
484.64	14101.73
484.82	13635.96
485.00	13844.27
485.18	14078.32
485.35	14284.29
485.53	14061.94
485.71	14303.01
485.89	14314.72
486.07	14359.19
486.25	14567.49
486.43	14707.93
486.61	14761.76
486.78	14927.94
486.96	15061.35
487.14	15105.82
487.32	15166.67
487.50	15461.58
487.68	15393.70
487.85	15960.11
488.03	15917.98
488.21	15770.53
488.39	16027.99
488.57	16140.33
488.75	16339.28
488.92	16304.17
489.10	16589.72
489.28	16566.31
489.46	16800.37
489.64	16858.88
489.81	17104.64
489.99	17064.85
490.17	17224.00
490.35	17516.57
490.53	17514.23
490.70	17673.39
490.88	17383.16
491.06	17696.79
491.24	17769.35
491.41	17774.03
491.59	17996.38
491.77	18167.24
491.95	18625.98
492.13	18672.79
492.30	18785.14
492.48	18647.05
492.66	18438.74
492.84	18558.11
493.01	18972.38
493.19	19042.60
493.37	19286.01
493.54	18864.72
493.72	19637.09
493.90	19569.22
494.08	19583.26
494.25	19761.14
494.43	19672.20
494.61	20107.54
494.79	20037.33
494.96	20425.86
495.14	20411.81
495.32	20311.17
495.49	20613.10
495.67	20662.25
495.85	20467.98
496.02	20725.44
496.20	20882.26
496.38	20994.61
496.55	20966.52
496.73	21603.14
496.91	21579.74
497.09	21118.65
497.26	21425.26
497.44	21610.17
497.62	21507.18
497.79	22267.86
497.97	21961.25
498.14	22434.03
498.32	22293.60
498.50	22506.59
498.67	22412.97
498.85	22672.77
499.03	22700.86
499.20	22780.43
499.38	22780.43
499.56	23068.32
499.73	22794.48
499.91	22789.80
500.08	23250.88
500.26	23236.84
500.44	23367.91
500.61	23564.51
500.79	23325.78
500.97	23616.01
501.14	23697.92
501.32	23700.26
501.49	23686.22
501.67	24173.05
501.84	24318.17
502.02	24261.99
502.20	23995.17
502.37	24521.79
502.55	24051.34
502.72	24503.07
502.90	24514.77
503.07	24524.13
503.25	24533.50
503.43	24512.43
503.60	24697.33
503.78	24994.58
503.95	24943.09
504.13	24975.86
504.30	25378.43
504.48	25111.61
504.65	25242.68
504.83	25612.48
505.01	25429.92
505.18	25696.74
505.36	25706.10
505.53	25769.30
505.71	26120.38
505.88	26127.40
506.06	25790.36
506.23	25984.63
506.41	26176.55
506.58	26153.15
506.76	26111.02
506.93	26272.51
507.11	26192.94
507.28	26448.05
507.46	26827.22
507.63	26569.76
507.81	27009.78
507.98	26541.68
508.16	26625.93
508.33	26897.44
508.50	27101.06
508.68	27012.12
508.85	27332.78
509.03	27234.47
509.20	27103.40
509.38	27618.32
509.55	27414.69
509.73	27365.54
509.90	27866.42
510.08	28088.77
510.25	27627.68
510.42	27697.90
510.60	27871.10
510.77	28210.48
510.95	28456.23
511.12	28081.75
511.30	27974.08
511.47	28151.96
511.64	28362.61
511.82	28697.31
511.99	28306.44
512.17	28905.62
512.34	28287.71
512.51	29144.35
512.69	29057.75
512.86	28914.98
513.04	29633.52
513.21	29062.43
513.38	29268.40
513.56	29429.90
513.73	29422.87
513.90	29443.94
514.08	29336.27
514.25	29736.51
514.43	29591.39
514.60	29797.36
514.77	29778.64
514.95	30228.02
515.12	29780.98
515.29	29954.18
515.47	30253.76
515.64	30272.49
515.81	30061.84
515.99	30588.46
516.16	30852.94
516.33	30455.05
516.51	30639.95
516.68	30185.89
516.85	30373.13
517.03	30604.84
517.20	30684.42
517.37	30892.73
517.54	31098.70
517.72	30965.29
517.89	30916.14
518.06	31096.36
518.24	31035.50
518.41	31140.83
518.58	30878.69
518.75	31192.32
518.93	31541.06
519.10	31299.98
519.27	31793.84
519.45	31896.82
519.62	31850.01
519.79	31920.23
519.96	31842.99
520.14	31791.50
520.31	31899.16
520.48	32135.56
520.65	31924.91
520.83	32587.28
521.00	32275.99
521.17	32369.61
521.34	32484.30
521.52	32540.47
521.69	32418.76
521.86	32708.99
522.03	32790.91
522.20	33067.09
522.38	33153.69
522.55	33226.24
522.72	32910.27
522.89	33031.98
523.07	33347.95
523.24	33249.65
523.41	33280.08
523.58	33144.33
523.75	33741.16
523.92	33663.93
524.10	33614.77
524.27	33724.78
524.44	33806.70
524.61	33853.51
524.78	33385.40
524.96	33895.64
525.13	33797.34
525.30	34080.54
525.47	34422.26
525.64	33783.29
525.81	34202.25
525.98	34160.12
526.16	34412.90
526.33	34099.26
526.50	34366.09
526.67	34555.67
526.84	34700.78
527.01	34293.53
527.18	34216.29
527.36	34778.02
527.53	34895.05
527.70	34951.22
527.87	35211.02
528.04	34852.92
528.21	34485.45
528.38	34822.49
528.55	35049.52
528.72	34925.47
528.89	35283.58
529.07	35124.42
529.24	35101.01
529.41	35676.79
529.58	35269.53
529.75	35438.05
529.92	35274.21
530.09	35414.65
530.26	35468.48
530.43	35367.84
530.60	35653.38
530.77	35721.26
530.94	35768.07
531.11	35531.67
531.28	35859.35
531.46	36243.20
531.63	36119.15
531.80	36084.04
531.97	36327.45
532.14	36568.53
532.31	36254.90
532.48	36556.83
532.65	36388.31
532.82	36264.26
532.99	36381.29
533.16	36493.63
533.33	36488.95
533.50	36613.00
533.67	36622.36
533.84	36629.38
534.01	36531.08
534.18	36804.92
534.35	37111.53
534.52	37163.03
534.69	37139.62
534.86	37256.65
535.03	37242.60
535.20	37354.95
535.37	37141.96
535.54	37422.83
535.71	37326.86
535.88	37392.40
536.05	37336.23
536.22	37617.09
536.38	37446.23
536.55	37450.91
536.72	37401.76
536.89	37785.61
537.06	37453.25
537.23	37158.34
537.40	37509.43
537.57	37680.28
537.74	37357.29
537.91	38064.13
538.08	37691.99
538.25	37970.51
538.42	37443.89
538.59	38204.56
538.75	37865.19
538.92	38132.01
539.09	38450.32
539.26	38249.03
539.43	37867.53
539.60	38040.73
539.77	38808.42
539.94	38485.43
540.11	38326.27
540.28	38499.47
540.44	38574.37
540.61	38506.49
540.78	38136.69
540.95	38651.61
541.12	38309.89
541.29	38457.34
541.46	38796.72
541.62	38672.67
541.79	38691.40
541.96	38672.67
542.13	38431.60
542.30	38848.21
542.47	38960.56
542.63	38492.45
542.80	39262.49
542.97	39505.90
543.14	39564.42
543.31	39395.90
543.48	39248.44
543.64	39798.47
543.81	39718.89
543.98	39716.55
544.15	39765.70
544.32	39365.47
544.48	40107.42
544.65	39695.49
544.82	39814.85
544.99	39676.76
545.16	39636.97
545.32	40009.12
545.49	40126.14
545.66	40587.23
545.83	40182.32
546.00	40517.01
546.16	40376.58
546.33	39803.15
546.50	40086.36
546.67	40453.82
546.83	39737.62
547.00	40046.57
547.17	39847.62
547.34	40165.93
547.50	40823.62
547.67	40711.28
547.84	40706.60
548.00	40713.62
548.17	40992.14
548.34	40779.15
548.51	40793.20
548.67	40783.83
548.84	40863.41
549.01	40884.48
549.18	40938.31
549.34	40823.62
549.51	41530.47
549.68	40954.69
549.84	41111.51
550.01	40914.90
550.18	40910.22
550.34	41202.79
550.51	41153.64
550.68	41020.23
550.84	40790.86
551.01	41525.78
551.18	40931.29
551.34	41205.13
551.51	41081.08
551.68	41378.33
551.84	41427.48
552.01	41298.75
552.18	41584.30
552.34	41308.11
552.51	41420.46
552.68	41251.94
552.84	41394.71
553.01	41591.32
553.18	41656.85
553.34	41727.07
553.51	41727.07
553.67	41708.35
553.84	42246.67
554.01	41909.63
554.17	42234.97
554.34	42019.64
554.51	42288.80
554.67	42361.36
554.84	42469.02
555.00	42316.89
555.17	42220.92
555.33	42251.35
555.50	42096.88
555.67	42342.63
555.83	42237.31
556.00	42422.21
556.16	42754.57
556.33	42361.36
556.50	42300.50
556.66	42178.79
556.83	42426.89
556.99	42398.80
557.16	42869.25
557.32	43159.48
557.49	42981.60
557.65	42291.14
557.82	42649.24
557.98	42333.27
558.15	42649.24
558.32	42988.62
558.48	42361.36
558.65	42864.57
558.81	42995.64
558.98	42363.70
559.14	43154.80
559.31	42574.34
559.47	42478.38
559.64	42827.12
559.80	43166.50
559.97	43042.45
560.13	43009.68
560.30	42909.04
560.46	43405.23
560.63	43189.91
560.79	43079.90
560.96	43342.04
561.12	43328.00
561.29	43290.55
561.45	43124.37
561.61	42796.70
561.78	43309.27
561.94	43023.73
562.11	42644.56
562.27	43353.74
562.44	43620.56
562.60	43545.67
562.77	43187.56
562.93	43412.26
563.10	43473.11
563.26	43196.93
563.42	43798.44
563.59	43328.00
563.75	43583.12
563.92	43433.32
564.08	43585.46
564.24	44009.09
564.41	43178.20
564.57	43299.91
564.74	43489.49
564.90	43592.48
565.07	43356.08
565.23	43552.69
565.39	43555.03
565.56	43487.15
565.72	43449.70
565.88	43622.90
566.05	43278.85
566.21	43608.86
566.38	43491.83
566.54	43548.01
566.70	43606.52
566.87	43288.21
567.03	43510.56
567.19	44210.38
567.36	43662.69
567.52	43915.47
567.68	44292.30
567.85	43854.62
568.01	44421.03
568.17	44004.41
568.34	44119.10
568.50	43711.84
568.66	44149.53
568.83	43798.44
568.99	43686.10
569.15	43784.40
569.32	44065.27
569.48	44107.40
569.64	44439.75
569.81	44465.50
569.97	44320.38
570.13	44179.95
570.30	44378.90
570.46	44072.29
570.62	43838.23
570.78	44261.87
570.95	44203.36
571.11	44231.44
571.27	43899.09
571.43	44158.89
571.60	44320.38
571.76	43826.53
571.92	44186.97
572.09	44472.52
572.25	44313.36
572.41	44219.74
572.57	44252.51
572.74	45083.40
572.90	44055.90
573.06	44687.85
573.22	44507.63
573.38	44596.57
573.55	44449.11
573.71	44451.45
573.87	44325.07
574.03	44334.43
574.20	44608.27
574.36	44334.43
574.52	44348.47
574.68	44027.82
574.84	44509.97
575.01	44561.46
575.17	44800.19
575.33	44327.41
575.49	44151.87
575.65	44481.88
575.82	44414.01
575.98	44453.79
576.14	44596.57
576.30	44601.25
576.46	44404.64
576.62	44210.38
576.79	44669.12
576.95	44107.40
577.11	44325.07
577.27	44306.34
577.43	44481.88
577.59	44615.29
577.75	44189.31
577.92	43999.73
578.08	44912.54
578.24	44456.14
578.40	44854.03
578.56	44463.16
578.72	44645.72
578.88	44795.51
579.04	44769.77
579.21	44594.23
579.37	44507.63
579.53	44631.68
579.69	44694.87
579.85	44800.19
580.01	44397.62
580.17	44982.76
580.33	44762.75
580.49	44854.03
580.65	44245.49
580.82	44748.70
580.98	44378.90
581.14	44126.12
581.30	44809.56
581.46	44278.25
581.62	44814.24
581.78	44343.79
581.94	44694.87
582.10	44472.52
582.26	44776.79
582.42	44945.31
582.58	44594.23
582.74	44809.56
582.90	44776.79
583.06	44718.28
583.22	44711.25
583.38	44903.18
583.54	44568.48
583.70	44727.64
583.86	44891.48
584.02	44584.86
584.18	45031.91
584.34	44959.35
584.50	45144.25
584.66	44828.28
584.82	44842.32
584.98	45263.62
585.14	44807.22
585.30	44638.70
585.46	45106.80
585.62	44414.01
585.78	44776.79
585.94	44711.25
586.10	44753.38
586.26	44353.15
586.42	44744.02
586.58	44987.44
586.74	44669.12
586.90	44811.90
587.06	45125.53
587.22	45069.36
587.38	44893.82
587.54	45109.14
587.70	45127.87
587.86	44748.70
588.02	44444.43
588.18	45151.27
588.34	44917.22
588.49	44985.10
588.65	44755.72
588.81	44849.35
588.97	45139.57
589.13	44966.37
589.29	44533.37
589.45	45130.21
589.61	45312.77
589.77	45301.07
589.93	45013.18
590.08	45202.77
590.24	45574.91
