SpectraSuite Data File
++++++++++++++++++++++++++++++++++++
Date: Fri Oct 25 10:44:44 EDT 2013
User: price-jones
Dark Spectrum Present: No
Reference Spectrum Present: No
Number of Sampled Component Spectra: 1
Spectrometers: USB2+H05261
Integration Time (usec): 100000 (USB2+H05261)
Spectra Averaged: 1 (USB2+H05261)
Boxcar Smoothing: 0 (USB2+H05261)
Correct for Electrical Dark: No (USB2+H05261)
Strobe/Lamp Enabled: No (USB2+H05261)
Correct for Detector Non-linearity: No (USB2+H05261)
Correct for Stray Light: No (USB2+H05261)
Number of Pixels in Processed Spectrum: 2048
>>>>>Begin Processed Spectral Data<<<<<
365.73	86.60
365.92	86.60
366.12	86.60
366.32	0.00
366.52	21.06
366.72	65.54
366.91	88.94
367.11	25.75
367.31	25.75
367.51	32.77
367.70	28.09
367.90	49.15
368.10	0.00
368.30	0.00
368.49	0.00
368.69	46.81
368.89	98.30
369.09	77.24
369.28	63.19
369.48	42.13
369.68	98.30
369.87	74.90
370.07	65.54
370.27	133.41
370.47	142.77
370.66	372.15
370.86	404.91
371.06	482.15
371.25	540.66
371.45	423.64
371.65	428.32
371.84	348.74
372.04	479.81
372.24	535.98
372.44	559.39
372.63	479.81
372.83	554.71
373.03	507.90
373.22	505.56
373.42	517.26
373.62	449.38
373.81	514.92
374.01	484.49
374.21	491.51
374.40	512.58
374.60	510.24
374.79	535.98
374.99	615.56
375.19	594.50
375.38	503.22
375.58	587.47
375.78	596.84
375.97	592.16
376.17	608.54
376.37	510.24
376.56	564.07
376.76	554.71
376.95	521.94
377.15	531.30
377.35	645.99
377.54	585.13
377.74	596.84
377.93	568.75
378.13	634.29
378.33	587.47
378.52	608.54
378.72	641.31
378.91	681.10
379.11	580.45
379.31	638.97
379.50	596.84
379.70	681.10
379.89	737.27
380.09	585.13
380.28	674.07
380.48	648.33
380.68	573.43
380.87	683.44
381.07	648.33
381.26	674.07
381.46	671.73
381.65	650.67
381.85	645.99
382.04	746.63
382.24	653.01
382.43	657.69
382.63	641.31
382.83	608.54
383.02	727.91
383.22	741.95
383.41	568.75
383.61	725.57
383.80	716.20
384.00	760.67
384.19	748.97
384.39	709.18
384.58	695.14
384.78	709.18
384.97	777.06
385.17	734.93
385.36	758.33
385.56	760.67
385.75	678.76
385.95	765.36
386.14	755.99
386.34	835.57
386.53	767.70
386.72	807.48
386.92	746.63
387.11	837.91
387.31	741.95
387.50	781.74
387.70	837.91
387.89	751.31
388.09	753.65
388.28	922.17
388.48	795.78
388.67	819.19
388.86	814.51
389.06	821.53
389.25	868.34
389.45	891.74
389.64	854.30
389.84	964.30
390.03	854.30
390.22	976.00
390.42	954.94
390.61	938.55
390.81	950.26
391.00	1022.81
391.19	933.87
391.39	936.21
391.58	997.07
391.78	1048.56
391.97	980.68
392.16	922.17
392.36	992.39
392.55	978.34
392.75	940.90
392.94	959.62
393.13	978.34
393.33	884.72
393.52	1029.84
393.71	1076.65
393.91	1062.60
394.10	1048.56
394.29	1050.90
394.49	1069.62
394.68	1107.07
394.88	1043.88
395.07	1160.91
395.26	1151.54
395.46	1116.44
395.65	1111.75
395.84	1088.35
396.04	1153.88
396.23	1121.12
396.42	1165.59
396.62	1177.29
396.81	1071.97
397.00	1146.86
397.19	1179.63
397.39	1219.42
397.58	1331.76
397.77	1217.08
397.97	1270.91
398.16	1238.14
398.35	1259.21
398.55	1299.00
398.74	1308.36
398.93	1376.24
399.12	1359.85
399.32	1425.39
399.51	1458.15
399.70	1401.98
399.90	1362.19
400.09	1355.17
400.28	1378.58
400.47	1352.83
400.67	1441.77
400.86	1444.11
401.05	1523.69
401.24	1504.96
401.44	1493.26
401.63	1610.29
401.82	1427.73
402.01	1472.20
402.21	1516.67
402.40	1563.48
402.59	1596.25
402.78	1530.71
402.97	1563.48
403.17	1572.84
403.36	1565.82
403.55	1643.06
403.74	1654.76
403.93	1605.61
404.13	1664.12
404.32	1593.90
404.51	1654.76
404.70	1736.68
404.89	1680.50
405.09	1739.02
405.28	1741.36
405.47	1802.21
405.66	1792.85
405.85	1942.64
406.05	1813.92
406.24	1813.92
406.43	1914.56
406.62	1865.41
406.81	1867.75
407.00	1977.75
407.20	1851.36
407.39	1867.75
407.58	1923.92
407.77	2015.20
407.96	1982.43
408.15	2012.86
408.34	2017.54
408.54	1912.22
408.73	1991.80
408.92	2026.90
409.11	2134.57
409.30	2031.58
409.49	2106.48
409.68	2062.01
409.87	2106.48
410.07	2069.03
410.26	2253.94
410.45	2146.27
410.64	2209.47
410.83	2204.78
411.02	2242.23
411.21	2275.00
411.40	2237.55
411.59	2335.85
411.78	2370.96
411.98	2200.10
412.17	2319.47
412.36	2359.26
412.55	2511.39
412.74	2504.37
412.93	2487.99
413.12	2394.37
413.31	2504.37
413.50	2558.21
413.69	2595.65
413.88	2663.53
414.07	2689.28
414.26	2656.51
414.45	2621.40
414.64	2691.62
414.83	2752.47
415.02	2726.72
415.22	2813.32
415.41	2808.64
415.60	2829.71
415.79	2829.71
415.98	2930.35
416.17	2986.52
416.36	2869.50
416.55	2874.18
416.74	2946.73
416.93	2937.37
417.12	2937.37
417.31	2963.12
417.50	2963.12
417.69	3068.44
417.88	3087.17
418.07	3098.87
418.26	3173.77
418.45	3141.00
418.64	3197.17
418.83	3173.77
419.02	3206.53
419.21	3180.79
419.39	3279.09
419.58	3300.16
419.77	3246.32
419.96	3370.37
420.15	3356.33
420.34	3365.69
420.53	3372.71
420.72	3417.18
420.91	3618.47
421.10	3468.67
421.29	3597.40
421.48	3363.35
421.67	3365.69
421.86	3417.18
422.05	3534.21
422.24	3496.76
422.43	3517.83
422.61	3368.03
422.80	3480.38
422.99	3524.85
423.18	3543.57
423.37	3630.17
423.56	3463.99
423.75	3515.48
423.94	3529.53
424.13	3321.22
424.32	3421.86
424.50	3597.40
424.69	3550.59
424.88	3686.34
425.07	3454.63
425.26	3468.67
425.45	3602.08
425.64	3583.36
425.83	3557.61
426.01	3719.11
426.20	3625.49
426.39	3754.22
426.58	3566.98
426.77	3676.98
426.96	3571.66
427.15	3637.19
427.33	3655.92
427.52	3721.45
427.71	3896.99
427.90	3730.81
428.09	3789.33
428.28	3765.92
428.46	3803.37
428.65	3794.01
428.84	3887.63
429.03	3962.53
429.22	3810.39
429.40	3857.20
429.59	3714.43
429.78	3691.02
429.97	3592.72
430.16	3782.31
430.34	3805.71
430.53	3833.80
430.72	3906.35
430.91	3850.18
431.10	3866.56
431.28	4065.51
431.47	4135.73
431.66	4208.28
431.85	4117.00
432.03	4191.90
432.22	4236.37
432.41	4276.16
432.60	4395.53
432.79	4311.27
432.97	4428.29
433.16	4304.25
433.35	4241.05
433.54	4149.77
433.72	4353.40
433.91	4280.84
434.10	4374.46
434.28	4390.84
434.47	4519.57
434.66	4582.77
434.85	4484.47
435.03	4470.42
435.22	4332.33
435.41	4711.50
435.59	4535.96
435.78	4655.33
435.97	4568.73
436.16	4662.35
436.34	4599.15
436.53	4610.86
436.72	4718.52
436.90	4660.01
437.09	4802.78
437.28	4496.17
437.46	4631.92
437.65	4758.31
437.84	4854.27
438.02	4755.97
438.21	4739.58
438.40	4697.46
438.58	5095.35
438.77	5008.75
438.96	5029.81
439.14	5067.26
439.33	5071.94
439.52	5093.01
439.70	5102.37
439.89	5111.73
440.08	5298.97
440.26	4957.25
440.45	5104.71
440.63	5212.37
440.82	5362.17
441.01	5233.44
441.19	5425.36
441.38	5504.94
441.57	5406.64
441.75	5507.28
441.94	5722.61
442.12	5710.91
442.31	5921.56
442.50	5783.46
442.68	5832.62
442.87	5783.46
443.05	5823.25
443.24	6036.24
443.43	5870.06
443.61	5813.89
443.80	6078.37
443.98	5664.10
444.17	5600.90
444.35	5872.40
444.54	6111.14
444.73	6031.56
444.91	5968.37
445.10	5954.32
445.28	5818.57
445.47	5849.00
445.65	5947.30
445.84	5724.95
446.02	5989.43
446.21	5898.15
446.39	5806.87
446.58	5980.07
446.77	6099.44
446.95	5902.83
447.14	6078.37
447.32	6031.56
447.51	6059.65
447.69	6047.94
447.88	6066.67
448.06	6026.88
448.25	6066.67
448.43	6073.69
448.62	5991.77
448.80	6174.33
448.99	6230.51
449.17	6333.49
449.36	6141.57
449.54	6359.24
449.73	6389.66
449.91	6431.79
450.10	6324.13
450.28	6473.92
450.46	6523.07
450.65	6462.22
450.83	6443.49
451.02	6422.43
451.20	6523.07
451.39	6691.59
451.57	6567.54
451.76	6434.13
451.94	6502.01
452.13	6679.89
452.31	6441.15
452.49	6328.81
452.68	6609.67
452.86	6576.91
453.05	6628.40
453.23	6579.25
453.42	6658.82
453.60	6670.53
453.78	6724.36
453.97	6691.59
454.15	6630.74
454.34	6787.55
454.52	6796.92
454.70	6834.36
454.89	6890.54
455.07	6874.15
455.26	6977.14
455.44	7082.46
455.62	6902.24
455.81	7075.44
455.99	7014.59
456.17	7276.73
456.36	7124.59
456.54	7119.91
456.73	7377.37
456.91	7276.73
457.09	7456.95
457.28	7466.31
457.46	7208.85
457.64	7365.67
457.83	7344.60
458.01	7342.26
458.19	7529.50
458.38	7463.97
458.56	7571.63
458.74	7440.56
458.93	7569.29
459.11	7503.76
459.29	7487.37
459.48	7555.25
459.66	7623.12
459.84	7606.74
460.03	7878.24
460.21	7803.35
460.39	7658.23
460.57	7796.32
460.76	7588.02
460.94	7793.98
461.12	7873.56
461.31	7873.56
461.49	7812.71
461.67	7925.05
461.85	8102.93
462.04	7829.09
462.22	7974.21
462.40	8112.30
462.59	8030.38
462.77	8070.17
462.95	8037.40
463.13	8175.49
463.32	8042.08
463.50	8126.34
463.68	8229.32
463.86	8180.17
464.05	8170.81
464.23	8128.68
464.41	8273.79
464.59	8131.02
464.78	8327.63
464.96	7983.57
465.14	8276.13
465.32	8341.67
465.50	8381.46
465.69	8432.95
465.87	8486.78
466.05	8320.60
466.23	8346.35
466.41	8442.31
466.60	8559.34
466.78	8571.04
466.96	8573.38
467.14	8475.08
467.32	8566.36
467.51	8582.74
467.69	8461.04
467.87	8545.30
468.05	8725.52
468.23	8706.79
468.41	8746.58
468.60	8826.16
468.78	8798.07
468.96	8896.38
469.14	8924.46
469.32	8833.18
469.50	8648.28
469.69	9085.96
469.87	9198.31
470.05	8908.08
470.23	8961.91
470.41	9149.15
470.59	8992.34
470.77	9083.62
470.95	9107.02
471.14	9329.38
471.32	9067.24
471.50	9324.69
471.68	9355.12
471.86	9406.61
472.04	9483.85
472.22	9575.13
472.40	9188.94
472.58	9343.42
472.77	9530.66
472.95	9617.26
473.13	9982.38
473.31	9741.31
473.49	9596.20
473.67	9558.75
473.85	9895.78
474.03	10029.20
474.21	10061.96
474.39	10174.31
474.57	9973.02
474.75	10169.63
474.93	10281.97
475.12	10223.46
475.30	10270.27
475.48	10253.89
475.66	10471.56
475.84	10303.04
476.02	10455.17
476.20	10710.29
476.38	10600.29
476.56	11012.22
476.74	10703.27
476.92	10670.50
477.10	10726.68
477.28	11037.97
477.46	11124.57
477.64	11147.97
477.82	11489.69
478.00	11449.90
478.18	11426.50
478.36	11318.83
478.54	11606.72
478.72	11693.32
478.90	11833.75
479.08	11859.49
479.26	11913.33
479.44	12074.82
479.62	12278.45
479.80	12269.09
479.98	12280.79
480.16	12734.85
480.34	12727.83
480.52	12624.85
480.70	12751.24
480.88	12556.97
481.06	12795.71
481.24	12533.57
481.41	13046.15
481.59	12954.87
481.77	13252.11
481.95	13343.39
482.13	13254.45
482.31	13399.57
482.49	13638.30
482.67	13462.76
482.85	13603.19
483.03	13851.29
483.21	14024.49
483.39	14235.14
483.57	14019.81
483.74	14295.99
483.92	14256.20
484.10	14183.65
484.28	14677.50
484.46	14609.62
484.64	14977.09
484.82	14918.57
485.00	14853.04
485.18	15016.88
485.35	15332.85
485.53	15021.56
485.71	15084.75
485.89	15236.89
486.07	15297.74
486.25	15620.74
486.43	15318.81
486.61	15763.51
486.78	15850.11
486.96	16428.22
487.14	16212.89
487.32	16489.07
487.50	16561.63
487.68	16727.81
487.85	16957.18
488.03	17170.17
488.21	17334.01
488.39	17273.15
488.57	17167.83
488.75	17481.46
488.92	17783.39
489.10	18031.49
489.28	17731.90
489.46	18099.36
489.64	18031.49
489.81	18405.97
489.99	18387.25
490.17	18726.63
490.35	18904.51
490.53	18745.35
490.70	19073.03
490.88	18927.91
491.06	19424.11
491.24	19054.30
491.41	19246.23
491.59	19381.98
491.77	19557.52
491.95	19470.92
492.13	19379.64
492.30	19594.96
492.48	20128.61
492.66	20088.82
492.84	20285.42
493.01	20402.45
493.19	20353.30
493.37	20695.02
493.54	21060.14
493.72	21067.16
493.90	21029.71
494.08	21123.33
494.25	21298.88
494.43	21605.49
494.61	21514.20
494.79	21867.63
494.96	21568.04
495.14	21621.87
495.32	21727.19
495.49	21935.50
495.67	21968.27
495.85	22260.84
496.02	22260.84
496.20	22501.91
496.38	23012.15
496.55	22895.12
496.73	23201.73
496.91	22944.27
497.09	23201.73
497.26	22974.70
497.44	22984.06
497.62	23639.41
497.79	23506.00
497.97	23288.33
498.14	23885.17
498.32	23812.61
498.50	23861.76
498.67	24245.61
498.85	23976.45
499.03	24292.42
499.20	24875.21
499.38	24624.78
499.56	24680.95
499.73	24393.06
499.91	24767.55
500.08	24636.48
500.26	24648.18
500.44	24790.95
500.61	25029.69
500.79	24879.89
500.97	24992.24
501.14	25790.36
501.32	25399.49
501.49	25364.39
501.67	24952.45
501.84	25270.76
502.02	25575.03
502.20	26031.44
502.37	26089.95
502.55	25930.80
502.72	26111.02
502.90	25954.20
503.07	26228.04
503.25	26185.91
503.43	26113.36
503.60	26237.41
503.78	26312.30
503.95	26108.68
504.13	26616.57
504.30	26597.85
504.48	26558.06
504.65	27332.78
504.83	27157.24
505.01	27517.68
505.18	26991.06
505.36	27063.61
505.53	27292.99
505.71	27871.10
505.88	27496.61
506.06	27520.02
506.23	27882.80
506.41	27304.69
506.58	27871.10
506.76	28168.35
506.93	27927.27
507.11	28261.97
507.28	27962.38
507.46	28196.43
507.63	27934.29
507.81	28397.72
507.98	28472.62
508.16	28533.47
508.33	28601.35
508.50	28514.75
508.68	28620.07
508.85	28870.51
509.03	28816.68
509.20	29214.57
509.38	29469.69
509.55	29268.40
509.73	29268.40
509.90	29142.01
510.08	29352.66
510.25	29249.67
510.42	29443.94
510.60	29603.10
510.77	29874.60
510.95	29876.94
511.12	29694.38
511.30	30209.29
511.47	30082.91
511.64	30279.51
511.82	30167.16
511.99	30380.15
512.17	30045.46
512.34	30387.18
512.51	30644.63
512.69	30969.97
512.86	30745.28
513.04	30785.07
513.21	30719.53
513.38	30733.57
513.56	30852.94
513.73	30457.39
513.90	31042.53
514.08	30972.31
514.25	31304.67
514.43	31075.29
514.60	31314.03
514.77	31168.91
514.95	31613.62
515.12	31791.50
515.29	31412.33
515.47	31742.35
515.64	32091.09
515.81	31875.76
515.99	31803.20
516.16	31798.52
516.33	32072.36
516.51	32257.26
516.68	31859.37
516.85	31391.26
517.03	31960.02
517.20	31777.45
517.37	32039.59
517.54	32259.60
517.72	32414.08
517.89	32322.80
518.06	31969.38
518.24	32414.08
518.41	32320.46
518.58	32708.99
518.75	32217.47
518.93	32992.19
519.10	32947.72
519.27	32732.39
519.45	32982.83
519.62	33188.80
519.79	32795.59
519.96	33102.20
520.14	33668.61
520.31	33394.76
520.48	33790.31
520.65	33329.23
520.83	33305.82
521.00	33937.77
521.17	33380.72
521.34	33605.41
521.52	34031.39
521.69	34136.71
521.86	34220.97
522.03	34293.53
522.20	34302.89
522.38	34483.11
522.55	34487.79
522.72	34249.06
522.89	34471.41
523.07	34459.71
523.24	34679.72
523.41	34579.07
523.58	34522.90
523.75	35285.92
523.92	35049.52
524.10	35316.34
524.27	34937.18
524.44	35257.83
524.61	35456.78
524.78	35290.60
524.96	35494.22
525.13	35388.90
525.30	35608.91
525.47	35765.73
525.64	35770.41
525.81	35924.88
525.98	35232.08
526.16	35304.64
526.33	35489.54
526.50	35711.89
526.67	35269.53
526.84	35601.89
527.01	35770.41
527.18	35463.80
527.36	35847.64
527.53	36088.72
527.70	36339.16
527.87	36587.25
528.04	35931.90
528.21	36425.76
528.38	36404.69
528.55	36615.34
528.72	36589.59
528.89	36376.61
529.07	36369.58
529.24	36329.80
529.41	36835.35
529.58	36889.18
529.75	36744.07
529.92	36943.02
530.09	36893.86
530.26	36809.61
530.43	37530.49
530.60	36491.29
530.77	37050.68
530.94	37186.43
531.11	37095.15
531.28	37017.91
531.46	37572.62
531.63	37495.38
531.80	37118.56
531.97	37308.14
532.14	37432.19
532.31	37092.81
532.48	37160.69
532.65	37797.31
532.82	37589.00
532.99	37544.53
533.16	38066.47
533.33	37652.20
533.50	38094.56
533.67	37886.25
533.84	37649.86
534.01	37841.78
534.18	38000.94
534.35	37956.47
534.52	38199.88
534.69	38129.67
534.86	38227.97
535.03	38368.40
535.20	38225.63
535.37	38731.18
535.54	38960.56
535.71	38546.28
535.88	38485.43
536.05	38326.27
536.22	38682.03
536.38	38665.65
536.55	38433.94
536.72	38962.90
536.89	38457.34
537.06	38447.98
537.23	38609.48
537.40	39131.42
537.57	38972.26
537.74	38958.22
537.91	39470.79
538.08	39636.97
538.25	38829.49
538.42	39014.39
538.59	39173.55
538.75	38707.78
538.92	39182.91
539.09	39515.26
539.26	39168.87
539.43	39285.89
539.60	39201.63
539.77	39253.12
539.94	39243.76
540.11	39545.69
540.28	39662.72
540.44	39108.01
540.61	39718.89
540.78	39639.31
540.95	39716.55
541.12	39700.17
541.29	39931.88
541.46	39739.96
541.62	39592.50
541.79	40353.18
541.96	39625.27
542.13	39480.16
542.30	40027.84
542.47	39943.58
542.63	40201.04
542.80	40041.88
542.97	40231.47
543.14	40830.65
543.31	40025.50
543.48	40306.37
543.64	41029.59
543.81	40776.81
543.98	40755.75
544.15	40694.89
544.32	41048.32
544.48	40767.45
544.65	40734.68
544.82	40891.50
544.99	40385.94
545.16	40776.81
545.32	40861.07
545.49	41071.72
545.66	41612.38
545.83	41228.54
546.00	41574.94
546.16	41383.01
546.33	40933.63
546.50	40671.49
546.67	41095.13
546.83	41034.27
547.00	41478.97
547.17	41125.55
547.34	41734.09
547.50	41762.18
547.67	41701.32
547.84	41455.57
548.00	41294.07
548.17	41979.85
548.34	41514.08
548.51	41467.27
548.67	41827.71
548.84	41876.86
549.01	41841.76
549.18	41811.33
549.34	41752.82
549.51	42031.34
549.68	42209.22
549.84	42181.13
550.01	41982.19
550.18	41563.23
550.34	42328.59
550.51	42209.22
550.68	41570.25
550.84	41420.46
551.01	41837.08
551.18	41553.87
551.34	42277.10
551.51	42157.73
551.68	42270.08
551.84	42361.36
552.01	42366.04
552.18	42314.55
552.34	42129.64
552.51	42120.28
552.68	42293.48
552.84	42459.66
553.01	42637.54
553.18	42698.39
553.34	42553.28
553.51	42572.00
553.67	42691.37
553.84	42885.64
554.01	42792.01
554.17	42689.03
554.34	42738.18
554.51	42738.18
554.67	43126.71
554.84	42679.67
555.00	42651.58
555.17	42967.55
555.33	42466.68
555.50	43007.34
555.67	42878.61
555.83	42822.44
556.00	42995.64
556.16	43232.04
556.33	43278.85
556.50	42986.28
556.66	43288.21
556.83	42955.85
556.99	43182.88
557.16	43222.67
557.32	43384.17
557.49	43250.76
557.65	42866.91
557.82	43250.76
557.98	43295.23
558.15	43203.95
558.32	43271.82
558.48	43196.93
558.65	43426.30
558.81	43129.05
558.98	43452.05
559.14	43213.31
559.31	43007.34
559.47	43330.34
559.64	43124.37
559.80	43620.56
559.97	43826.53
560.13	43042.45
560.30	42897.34
560.46	43538.65
560.63	43557.37
560.79	43772.70
560.96	43983.35
561.12	43578.43
561.29	43604.18
561.45	43863.98
561.61	43636.95
561.78	43433.32
561.94	42808.40
562.11	44095.69
562.27	43487.15
562.44	43323.32
562.60	43985.69
562.77	43913.13
562.93	43842.92
563.10	43871.00
563.26	43552.69
563.42	43892.07
563.59	43143.09
563.75	43812.49
563.92	43777.38
564.08	44046.54
564.24	44172.93
564.41	43929.51
564.57	43899.09
564.74	44009.09
564.90	43466.09
565.07	44079.31
565.23	43784.40
565.39	43758.66
565.56	43861.64
565.72	43962.28
565.88	44205.70
566.05	44238.47
566.21	43992.71
566.38	43899.09
566.54	44154.21
566.70	44201.02
566.87	44559.12
567.03	44109.74
567.19	44584.86
567.36	44105.06
567.52	44236.12
567.68	44694.87
567.85	44018.46
568.01	43807.81
568.17	44271.23
568.34	44048.88
568.50	44261.87
568.66	44102.71
568.83	44212.72
568.99	44093.35
569.15	44226.76
569.32	44184.63
569.48	44158.89
569.64	44591.89
569.81	44140.16
569.97	44416.35
570.13	44009.09
570.30	43927.17
570.46	43763.34
570.62	44074.63
570.78	43782.06
570.95	44051.22
571.11	44011.43
571.27	44591.89
571.43	44226.76
571.60	44030.16
571.76	44479.54
571.92	44128.46
572.09	43999.73
572.25	44414.01
572.41	44076.97
572.57	44458.48
572.74	44711.25
572.90	44168.25
573.06	44367.20
573.22	44282.94
573.38	44208.04
573.55	44151.87
573.71	44905.52
573.87	44509.97
574.03	44196.34
574.20	44488.90
574.36	44624.65
574.52	44458.48
574.68	44484.22
574.84	44287.62
575.01	44526.35
575.17	44285.28
575.33	44458.48
575.49	44158.89
575.65	44765.09
575.82	44732.32
575.98	44390.60
576.14	44769.77
576.30	45067.02
576.46	44182.29
576.62	44491.24
576.79	44416.35
576.95	43985.69
577.11	44266.55
577.27	44388.26
577.43	44584.86
577.59	44311.02
577.75	44144.84
577.92	43833.55
578.08	44308.68
578.24	43906.11
578.40	44179.95
578.56	44961.69
578.72	44406.98
578.88	44835.30
579.04	44704.23
579.21	44341.45
579.37	44542.74
579.53	44402.30
579.69	44119.10
579.85	44519.33
580.01	44762.75
580.17	44671.46
580.33	44727.64
580.49	44243.15
580.65	44879.77
580.82	44308.68
580.98	44809.56
581.14	44439.75
581.30	45036.59
581.46	44697.21
581.62	44598.91
581.78	44526.35
581.94	44722.96
582.10	44643.38
582.26	44884.45
582.42	44355.49
582.58	44685.51
582.74	44659.76
582.90	44769.77
583.06	44367.20
583.22	45006.16
583.38	44952.33
583.54	44765.09
583.70	44830.62
583.86	44701.89
584.02	44376.56
584.18	44425.71
584.34	44631.68
584.50	44699.55
584.66	44591.89
584.82	44376.56
584.98	44739.34
585.14	44645.72
585.30	44252.51
585.46	44952.33
585.62	44432.73
585.78	44573.16
585.94	44135.48
586.10	44470.18
586.26	44619.97
586.42	44718.28
586.58	44437.41
586.74	44760.40
586.90	44287.62
587.06	44289.96
587.22	44905.52
587.38	44343.79
587.54	44580.18
587.70	44800.19
587.86	44374.22
588.02	45008.50
588.18	44737.00
588.34	44371.88
588.49	44231.44
588.65	44446.77
588.81	44409.32
588.97	44329.75
589.13	44325.07
589.29	44552.10
589.45	44772.11
589.61	44519.33
589.77	44715.93
589.93	45050.63
590.08	44952.33
590.24	45397.03
