SpectraSuite Data File
++++++++++++++++++++++++++++++++++++
Date: Fri Oct 25 11:33:37 EDT 2013
User: price-jones
Dark Spectrum Present: No
Reference Spectrum Present: No
Number of Sampled Component Spectra: 1
Spectrometers: USB2+H05261
Integration Time (usec): 100000 (USB2+H05261)
Spectra Averaged: 1 (USB2+H05261)
Boxcar Smoothing: 0 (USB2+H05261)
Correct for Electrical Dark: No (USB2+H05261)
Strobe/Lamp Enabled: No (USB2+H05261)
Correct for Detector Non-linearity: No (USB2+H05261)
Correct for Stray Light: No (USB2+H05261)
Number of Pixels in Processed Spectrum: 2048
>>>>>Begin Processed Spectral Data<<<<<
365.73	320.65
365.92	320.65
366.12	320.65
366.32	227.03
366.52	210.65
366.72	152.13
366.91	161.50
367.11	234.05
367.31	222.35
367.51	180.22
367.70	173.20
367.90	191.92
368.10	161.50
368.30	100.64
368.49	147.45
368.69	208.31
368.89	189.58
369.09	234.05
369.28	159.16
369.48	208.31
369.68	203.63
369.87	241.08
370.07	217.67
370.27	280.86
370.47	334.70
370.66	486.83
370.86	458.74
371.06	554.71
371.25	596.84
371.45	514.92
371.65	662.37
371.84	638.97
372.04	566.41
372.24	519.60
372.44	580.45
372.63	585.13
372.83	739.61
373.03	629.60
373.22	578.11
373.42	711.52
373.62	662.37
373.81	587.47
374.01	681.10
374.21	580.45
374.40	695.14
374.60	589.82
374.79	622.58
374.99	669.39
375.19	770.04
375.38	763.01
375.58	662.37
375.78	557.05
375.97	641.31
376.17	725.57
376.37	653.01
376.56	718.54
376.76	716.20
376.95	631.94
377.15	751.31
377.35	685.78
377.54	732.59
377.74	601.52
377.93	697.48
378.13	660.03
378.33	730.25
378.52	606.20
378.72	653.01
378.91	681.10
379.11	770.04
379.31	720.88
379.50	699.82
379.70	760.67
379.89	833.23
380.09	667.05
380.28	695.14
380.48	744.29
380.68	737.27
380.87	702.16
381.07	751.31
381.26	758.33
381.46	770.04
381.65	819.19
381.85	802.80
382.04	741.95
382.24	767.70
382.43	823.87
382.63	812.17
382.83	798.12
383.02	774.72
383.22	851.96
383.41	744.29
383.61	788.76
383.80	875.36
384.00	812.17
384.19	713.86
384.39	774.72
384.58	812.17
384.78	814.51
384.97	833.23
385.17	847.27
385.36	856.64
385.56	823.87
385.75	837.91
385.95	844.93
386.14	868.34
386.34	819.19
386.53	847.27
386.72	858.98
386.92	875.36
387.11	884.72
387.31	894.08
387.50	809.83
387.70	919.83
387.89	912.81
388.09	873.02
388.28	866.00
388.48	943.24
388.67	898.77
388.86	912.81
389.06	990.05
389.25	922.17
389.45	917.49
389.64	908.13
389.84	1013.45
390.03	950.26
390.22	1053.24
390.42	1083.67
390.61	882.38
390.81	1018.13
391.00	985.37
391.19	1025.15
391.39	933.87
391.58	1022.81
391.78	1015.79
391.97	1057.92
392.16	971.32
392.36	1067.28
392.55	1025.15
392.75	1100.05
392.94	1018.13
393.13	1102.39
393.33	1029.84
393.52	1100.05
393.71	1088.35
393.91	1076.65
394.10	1083.67
394.29	1146.86
394.49	1158.57
394.68	1104.73
394.88	1125.80
395.07	1083.67
395.26	1107.07
395.46	1144.52
395.65	1055.58
395.84	1188.99
396.04	1233.46
396.23	1263.89
396.42	1254.53
396.62	1203.04
396.81	1111.75
397.00	1256.87
397.19	1186.65
397.39	1259.21
397.58	1226.44
397.77	1226.44
397.97	1179.63
398.16	1196.01
398.35	1235.80
398.55	1275.59
398.74	1210.06
398.93	1289.64
399.12	1280.27
399.32	1254.53
399.51	1327.08
399.70	1387.94
399.90	1313.04
400.09	1366.87
400.28	1315.38
400.47	1341.13
400.67	1446.45
400.86	1350.49
401.05	1369.21
401.24	1308.36
401.44	1486.24
401.63	1514.33
401.82	1519.01
402.01	1479.22
402.21	1409.00
402.40	1516.67
402.59	1490.92
402.78	1497.94
402.97	1652.42
403.17	1523.69
403.36	1504.96
403.55	1563.48
403.74	1666.46
403.93	1570.50
404.13	1586.88
404.32	1600.93
404.51	1582.20
404.70	1626.67
404.89	1675.82
405.09	1732.00
405.28	1664.12
405.47	1753.06
405.66	1778.81
405.85	1689.87
406.05	1722.63
406.24	1717.95
406.43	1724.97
406.62	1755.40
406.81	1802.21
407.00	1851.36
407.20	1739.02
407.39	1842.00
407.58	1914.56
407.77	1877.11
407.96	1844.34
408.15	1912.22
408.34	1830.30
408.54	1944.99
408.73	1839.66
408.92	1926.26
409.11	1912.22
409.30	2010.52
409.49	1954.35
409.68	1933.28
409.87	2169.68
410.07	2094.78
410.26	2106.48
410.45	2026.90
410.64	2165.00
410.83	2087.76
411.02	2129.89
411.21	2162.66
411.40	2153.29
411.59	2146.27
411.78	2211.81
411.98	2195.42
412.17	2172.02
412.36	2263.30
412.55	2321.81
412.74	2338.20
412.93	2380.32
413.12	2422.45
413.31	2450.54
413.50	2443.52
413.69	2445.86
413.88	2352.24
414.07	2445.86
414.26	2466.92
414.45	2478.63
414.64	2595.65
414.83	2623.74
415.02	2593.31
415.22	2600.34
415.41	2630.76
415.60	2668.21
415.79	2649.49
415.98	2834.39
416.17	2651.83
416.36	2700.98
416.55	2684.59
416.74	2906.95
416.93	2731.41
417.12	2822.69
417.31	2874.18
417.50	2775.88
417.69	3045.04
417.88	3007.59
418.07	2920.99
418.26	2876.52
418.45	2993.55
418.64	3089.51
418.83	3000.57
419.02	3021.63
419.21	3136.32
419.39	3016.95
419.58	3028.65
419.77	3063.76
419.96	3115.25
420.15	3131.64
420.34	3068.44
420.53	3232.28
420.72	3162.06
420.91	3208.87
421.10	3236.96
421.29	3384.41
421.48	3166.74
421.67	3302.50
421.86	3316.54
422.05	3328.24
422.24	3361.01
422.43	3318.88
422.61	3431.23
422.80	3438.25
422.99	3412.50
423.18	3375.05
423.37	3595.06
423.56	3403.14
423.75	3456.97
423.94	3447.61
424.13	3183.13
424.32	3307.18
424.50	3468.67
424.69	3463.99
424.88	3431.23
425.07	3440.59
425.26	3375.05
425.45	3545.91
425.64	3290.79
425.83	3426.54
426.01	3442.93
426.20	3391.44
426.39	3421.86
426.58	3473.36
426.77	3576.34
426.96	3569.32
427.15	3646.55
427.33	3419.52
427.52	3534.21
427.71	3660.60
427.90	3604.42
428.09	3599.74
428.28	3620.81
428.46	3845.50
428.65	3784.65
428.84	3805.71
429.03	3756.56
429.22	3829.12
429.40	3716.77
429.59	3721.45
429.78	3639.53
429.97	3772.94
430.16	3686.34
430.34	3861.88
430.53	3950.82
430.72	3861.88
430.91	3815.07
431.10	3997.64
431.28	3875.93
431.47	3932.10
431.66	4058.49
431.85	4004.66
432.03	4021.04
432.22	4161.47
432.41	4039.76
432.60	4016.36
432.79	4117.00
432.97	4238.71
433.16	4131.05
433.35	4095.94
433.54	4161.47
433.72	4147.43
433.91	3974.23
434.10	4177.86
434.28	3995.29
434.47	4320.63
434.66	4304.25
434.85	4308.93
435.03	4301.90
435.22	4393.19
435.41	4461.06
435.59	4390.84
435.78	4622.56
435.97	4451.70
436.16	4449.36
436.34	4344.03
436.53	4479.79
436.72	4547.66
436.90	4329.99
437.09	4531.28
437.28	4454.04
437.46	4571.07
437.65	4559.36
437.84	4664.69
438.02	4465.74
438.21	4648.30
438.40	4566.39
438.58	4784.06
438.77	4884.70
438.96	4737.24
439.14	4809.80
439.33	4784.06
439.52	4940.87
439.70	4964.28
439.89	4966.62
440.08	4938.53
440.26	5088.32
440.45	4971.30
440.63	4985.34
440.82	4985.34
441.01	5090.67
441.19	5118.75
441.38	5184.29
441.57	5291.95
441.75	5186.63
441.94	5310.68
442.12	5366.85
442.31	5582.18
442.50	5371.53
442.68	5467.49
442.87	5411.32
443.05	5460.47
443.24	5563.45
443.43	5495.58
443.61	5497.92
443.80	5528.35
443.98	5434.72
444.17	5364.51
444.35	5565.79
444.54	5603.24
444.73	5661.76
444.91	5628.99
445.10	5748.36
445.28	5680.48
445.47	5617.29
445.65	5626.65
445.84	5614.95
446.02	5750.70
446.21	5837.30
446.39	5624.31
446.58	5680.48
446.77	5696.86
446.95	5624.31
447.14	5710.91
447.32	5809.21
447.51	5760.06
447.69	5633.67
447.88	5813.89
448.06	5750.70
448.25	5849.00
448.43	5795.17
448.62	5708.57
448.80	5650.05
448.99	5722.61
449.17	5926.24
449.36	5856.02
449.54	5935.60
449.73	6120.50
449.91	6162.63
450.10	6064.33
450.28	6211.78
450.46	6174.33
450.65	6146.25
450.83	6015.18
451.02	6171.99
451.20	6202.42
451.39	5968.37
451.57	6272.64
451.76	6153.27
451.94	6179.01
452.13	6239.87
452.31	6366.26
452.49	6150.93
452.68	6361.58
452.86	6239.87
453.05	6338.17
453.23	6450.52
453.42	6424.77
453.60	6359.24
453.78	6300.72
453.97	6408.39
454.15	6361.58
454.34	6555.84
454.52	6743.08
454.70	6640.10
454.89	6651.80
455.07	6815.64
455.26	6658.82
455.44	6677.55
455.62	6736.06
455.81	6778.19
455.99	6696.27
456.17	6843.73
456.36	6801.60
456.54	6935.01
456.73	6773.51
456.91	7103.53
457.09	7126.93
457.28	6970.12
457.46	6991.18
457.64	6902.24
457.83	7129.27
458.01	6981.82
458.19	7234.60
458.38	7077.78
458.56	7178.42
458.74	7290.77
458.93	7211.19
459.11	7286.09
459.29	7206.51
459.48	7227.57
459.66	7185.44
459.84	7321.20
460.03	7536.52
460.21	7478.01
460.39	7370.35
460.57	7499.08
460.76	7545.89
460.94	7426.52
461.12	7527.16
461.31	7538.87
461.49	7737.81
461.67	7454.61
461.85	7620.78
462.04	7625.47
462.22	8201.24
462.40	7744.83
462.59	7737.81
462.77	7763.56
462.95	7812.71
463.13	7669.94
463.32	7712.07
463.50	7896.97
463.68	7918.03
463.86	7943.78
464.05	7936.76
464.23	7758.88
464.41	7999.95
464.59	7733.13
464.78	8086.55
464.96	8187.19
465.14	7894.63
465.32	7988.25
465.50	8203.58
465.69	8049.10
465.87	8163.79
466.05	8128.68
466.23	8262.09
466.41	8194.22
466.60	8212.94
466.78	7939.10
466.96	8124.00
467.14	8182.51
467.32	8381.46
467.51	8493.80
467.69	8098.25
467.87	8278.47
468.05	8580.40
468.23	8390.82
468.41	8283.16
468.60	8294.86
468.78	8669.34
468.96	8304.22
469.14	8472.74
469.32	8552.32
469.50	8594.45
469.69	8791.05
469.87	8765.31
470.05	8769.99
470.23	8641.26
470.41	8802.75
470.59	8842.54
470.77	8959.57
470.95	8994.68
471.14	9146.81
471.32	8809.78
471.50	9121.07
471.68	8978.30
471.86	8931.48
472.04	9048.51
472.22	9406.61
472.40	8957.23
472.58	9214.69
472.77	9308.31
472.95	9350.44
473.13	9619.60
473.31	9497.89
473.49	9355.12
473.67	9146.81
473.85	9413.63
474.03	9951.96
474.21	9699.18
474.39	9909.83
474.57	9624.28
474.75	9900.47
474.93	9804.50
475.12	10033.88
475.30	9987.07
475.48	10111.11
475.66	10218.78
475.84	10186.01
476.02	10066.64
476.20	10176.65
476.38	10415.38
476.56	10707.95
476.74	10614.33
476.92	10600.29
477.10	10464.54
477.28	10775.83
477.46	10710.29
477.64	10942.00
477.82	11021.58
478.00	11169.04
478.18	11124.57
478.36	11234.57
478.54	11391.39
478.72	11417.13
478.90	11583.31
479.08	11550.54
479.26	11566.93
479.44	11758.85
479.62	11854.81
479.80	11719.06
479.98	12077.16
480.16	12285.47
480.34	12145.04
480.52	12212.92
480.70	12177.81
480.88	12142.70
481.06	12468.03
481.24	12423.56
481.41	12601.44
481.59	12664.64
481.77	12861.24
481.95	12978.27
482.13	13043.81
482.31	13095.30
482.49	13273.18
482.67	13118.70
482.85	13338.71
483.03	13661.71
483.21	13881.72
483.39	13825.54
483.57	13717.88
483.74	14200.03
483.92	13933.21
484.10	14087.68
484.28	14183.65
484.46	14590.90
484.64	14628.35
484.82	14434.08
485.00	14698.56
485.18	14829.63
485.35	14754.74
485.53	14775.80
485.71	15063.69
485.89	15482.64
486.07	15279.02
486.25	15449.88
486.43	15604.35
486.61	15719.04
486.78	15597.33
486.96	15852.45
487.14	16121.61
487.32	16362.69
487.50	16311.19
487.68	16402.47
487.85	16816.75
488.03	16798.02
488.21	16931.44
488.39	16854.20
488.57	17137.40
488.75	17078.89
488.92	17472.10
489.10	17607.85
489.28	17607.85
489.46	17860.63
489.64	17820.84
489.81	17851.27
489.99	18230.43
490.17	18384.91
490.35	18450.44
490.53	18338.10
490.70	18455.12
490.88	18553.43
491.06	18960.68
491.24	18834.29
491.41	19056.64
491.59	19325.80
491.77	18925.57
491.95	19178.35
492.13	19562.20
492.30	19503.68
492.48	19854.76
492.66	19772.85
492.84	19915.62
493.01	20278.40
493.19	20161.37
493.37	20126.27
493.54	20500.75
493.72	20765.23
493.90	20606.08
494.08	20624.80
494.25	21179.51
494.43	21113.97
494.61	21231.00
494.79	21287.17
494.96	21036.74
495.14	21432.29
495.32	21891.03
495.49	21748.26
495.67	21898.05
495.85	21958.91
496.02	21940.18
496.20	22232.75
496.38	22466.80
496.55	22522.98
496.73	22911.50
496.91	22637.66
497.09	22560.42
497.26	22946.61
497.44	22822.56
497.62	23325.78
497.79	23337.48
497.97	23487.28
498.14	23496.64
498.32	23559.83
498.50	23812.61
498.67	24156.67
498.85	23817.29
499.03	24212.84
499.20	24372.00
499.38	24233.91
499.56	24566.26
499.73	24559.24
499.91	24671.59
500.08	24521.79
500.26	24617.75
500.44	24952.45
500.61	24891.60
500.79	24671.59
500.97	25099.90
501.14	25376.09
501.32	25127.99
501.49	25448.64
501.67	25645.25
501.84	25582.06
502.02	25535.24
502.20	25883.98
502.37	26120.38
502.55	25666.31
502.72	25947.18
502.90	26134.42
503.07	25874.62
503.25	26298.26
503.43	26064.21
503.60	25970.58
503.78	26466.78
503.95	26740.62
504.13	26787.43
504.30	26757.00
504.48	26604.87
504.65	27002.76
504.83	26754.66
505.01	27077.66
505.18	27384.27
505.36	27550.45
505.53	27363.20
505.71	27468.53
505.88	27417.04
506.06	27204.05
506.23	27953.02
506.41	27660.45
506.58	27824.29
506.76	27810.25
506.93	28371.97
507.11	28116.86
507.28	28311.12
507.46	28266.65
507.63	28442.19
507.81	28837.74
507.98	28189.41
508.16	28718.37
508.33	28346.23
508.50	28893.91
508.68	28797.95
508.85	29139.67
509.03	28788.59
509.20	29102.22
509.38	29226.27
509.55	29184.14
509.73	29392.45
509.90	29628.84
510.08	29586.71
510.25	29340.96
510.42	29570.33
510.60	29839.49
510.77	29748.21
510.95	29837.15
511.12	29570.33
511.30	30026.73
511.47	30148.44
511.64	30136.74
511.82	30635.27
511.99	30389.52
512.17	30419.94
512.34	30347.39
512.51	30766.34
512.69	31016.78
512.86	31044.87
513.04	31147.85
513.21	30658.68
513.38	31257.85
513.56	31409.99
513.73	31077.63
513.90	30918.48
514.08	30986.35
514.25	31524.68
514.43	31377.22
514.60	31618.30
514.77	31658.09
514.95	31562.12
515.12	31295.30
515.29	31489.57
515.47	31608.93
515.64	31910.86
515.81	31985.76
515.99	32041.93
516.16	32631.75
516.33	32404.72
516.51	32364.93
516.68	32606.00
516.85	32594.30
517.03	32423.44
517.20	32786.22
517.37	32617.71
517.54	32718.35
517.72	32833.04
517.89	32959.42
518.06	32938.36
518.24	33319.87
518.41	33242.63
518.58	33326.89
518.75	33111.56
518.93	33422.85
519.10	33233.27
519.27	33720.10
519.45	33413.49
519.62	33731.80
519.79	33813.72
519.96	33666.27
520.14	33684.99
520.31	33567.96
520.48	34277.15
520.65	34216.29
520.83	34831.85
521.00	34356.72
521.17	34110.97
521.34	34387.15
521.52	34424.60
521.69	34775.68
521.86	34639.93
522.03	34939.52
522.20	35161.87
522.38	35054.20
522.55	35000.37
522.72	35030.80
522.89	34827.17
523.07	35386.56
523.24	35199.32
523.41	35456.78
523.58	35440.39
523.75	35651.04
523.92	35304.64
524.10	35227.40
524.27	35941.27
524.44	35725.94
524.61	36376.61
524.78	36210.43
524.96	36175.32
525.13	36123.83
525.30	36140.21
525.47	36392.99
525.64	36699.60
525.81	36320.43
525.98	36392.99
526.16	36165.96
526.33	36203.41
526.50	36407.03
526.67	36067.66
526.84	36582.57
527.01	36500.65
527.18	36570.87
527.36	36809.61
527.53	36790.88
527.70	36994.51
527.87	37230.90
528.04	36788.54
528.21	37361.97
528.38	36821.31
528.55	37537.51
528.72	37439.21
528.89	37308.14
529.07	37514.11
529.24	36886.84
529.41	37413.46
529.58	37450.91
529.75	37450.91
529.92	37752.84
530.09	37794.97
530.26	37446.23
530.43	38218.61
530.60	37525.81
530.77	37488.36
530.94	37689.65
531.11	37757.52
531.28	37708.37
531.46	38075.84
531.63	38298.19
531.80	38176.48
531.97	38583.73
532.14	38412.87
532.31	38567.35
532.48	38417.55
532.65	39070.56
532.82	38565.01
532.99	39000.35
533.16	38719.48
533.33	39002.69
533.50	38869.28
533.67	38785.02
533.84	38899.70
534.01	38597.77
534.18	39152.48
534.35	39452.07
534.52	39189.93
534.69	39264.83
534.86	39194.61
535.03	39271.85
535.20	39353.77
535.37	39728.25
535.54	39789.11
535.71	39138.44
535.88	39400.58
536.05	39803.15
536.22	39915.50
536.38	39945.92
536.55	39681.44
536.72	39878.05
536.89	39519.95
537.06	39533.99
537.23	39896.77
537.40	40020.82
537.57	39660.38
537.74	39608.89
537.91	40549.78
538.08	40250.19
538.25	40280.62
538.42	40500.63
538.59	40849.37
538.75	40325.09
538.92	40755.75
539.09	40699.58
539.26	40128.48
539.43	40495.95
539.60	40563.82
539.77	40748.73
539.94	40753.41
540.11	40959.38
540.28	41427.48
540.44	40891.50
540.61	40884.48
540.78	40601.27
540.95	40966.40
541.12	40971.08
541.29	40863.41
541.46	41338.54
541.62	41167.68
541.79	41144.28
541.96	40959.38
542.13	40797.88
542.30	41200.45
542.47	40957.03
542.63	41319.82
542.80	41401.74
542.97	41633.45
543.14	41743.45
543.31	41970.49
543.48	41998.57
543.64	42099.22
543.81	42120.28
543.98	41942.40
544.15	41940.06
544.32	42260.71
544.48	42497.11
544.65	42464.34
544.82	42045.38
544.99	42150.71
545.16	42422.21
545.32	42480.72
545.49	42260.71
545.66	42478.38
545.83	43054.15
546.00	42981.60
546.16	42557.96
546.33	42473.70
546.50	42572.00
546.67	42773.29
546.83	42359.02
547.00	42784.99
547.17	42822.44
547.34	42597.75
547.50	43033.09
547.67	43475.45
547.84	43267.14
548.00	43082.24
548.17	43718.87
548.34	43299.91
548.51	43611.20
548.67	43316.29
548.84	43126.71
549.01	43555.03
549.18	43161.82
549.34	43533.96
549.51	44060.58
549.68	43540.99
549.84	43248.42
550.01	43723.55
550.18	43433.32
550.34	43667.37
550.51	43962.28
550.68	43672.06
550.84	43482.47
551.01	43924.83
551.18	43227.35
551.34	43840.57
551.51	43985.69
551.68	43655.67
551.84	43803.13
552.01	43753.97
552.18	44184.63
552.34	43775.04
552.51	44093.35
552.68	44004.41
552.84	43973.98
553.01	44491.24
553.18	43985.69
553.34	44416.35
553.51	43978.67
553.67	44399.96
553.84	44184.63
554.01	44767.43
554.17	44409.32
554.34	44704.23
554.51	44725.30
554.67	44807.22
554.84	44484.22
555.00	44460.82
555.17	44598.91
555.33	44706.57
555.50	45029.57
555.67	44584.86
555.83	44615.29
556.00	44891.48
556.16	45296.39
556.33	45118.51
556.50	44804.88
556.66	44603.59
556.83	44832.96
556.99	45390.01
557.16	45436.82
557.32	45151.27
557.49	45539.80
557.65	44662.10
557.82	44800.19
557.98	44952.33
558.15	45029.57
558.32	45272.98
558.48	44844.66
558.65	45228.51
558.81	45399.37
558.98	44964.03
559.14	45064.67
559.31	45436.82
559.47	45177.02
559.64	45694.28
559.80	45469.59
559.97	45684.92
560.13	45186.38
560.30	45462.57
560.46	45574.91
560.63	46019.61
560.79	45860.46
560.96	45734.07
561.12	45312.77
561.29	45968.12
561.45	45329.16
561.61	45483.63
561.78	45771.52
561.94	45560.87
562.11	46120.26
562.27	45937.69
562.44	45614.70
562.60	46054.72
562.77	45785.56
562.93	45780.88
563.10	46319.20
563.26	45801.94
563.42	46258.35
563.59	46279.41
563.75	46087.49
563.92	46167.07
564.08	46103.87
564.24	46094.51
564.41	45965.78
564.57	46075.79
564.74	46258.35
564.90	46167.07
565.07	46028.98
565.23	46085.15
565.39	45904.93
565.56	46344.95
565.72	46085.15
565.88	46270.05
566.05	46237.28
566.21	45989.19
566.38	46241.96
566.54	46848.16
566.70	46356.65
566.87	46206.86
567.03	46270.05
567.19	45993.87
567.36	46277.07
567.52	46115.58
567.68	46433.89
567.85	46590.70
568.01	46497.08
568.17	46401.12
568.34	46532.19
568.50	46497.08
568.66	46005.57
568.83	46410.48
568.99	46284.09
569.15	46354.31
569.32	46106.21
569.48	46550.91
569.64	46754.54
569.81	46064.08
569.97	46681.98
570.13	46534.53
570.30	46464.32
570.46	46480.70
570.62	46796.67
570.78	46909.02
570.95	46953.49
571.11	46848.16
571.27	46433.89
571.43	46623.47
571.60	46534.53
571.76	46632.83
571.92	46590.70
572.09	46288.77
572.25	46681.98
572.41	46681.98
572.57	46597.73
572.74	47014.34
572.90	47164.14
573.06	47110.30
573.22	47171.16
573.38	46834.12
573.55	47082.22
573.71	47536.28
573.87	46878.59
574.03	46883.27
574.20	47187.54
574.36	47199.24
574.52	47171.16
574.68	47058.81
574.84	47409.89
575.01	47248.39
575.17	47224.99
575.33	46930.08
575.49	46801.35
575.65	47379.46
575.82	47166.48
575.98	47098.60
576.14	47620.54
576.30	47136.05
576.46	47152.43
576.62	46990.94
576.79	47000.30
576.95	46581.34
577.11	46909.02
577.27	47026.04
577.43	47309.25
577.59	47304.57
577.75	47342.02
577.92	47086.90
578.08	47157.11
578.24	46855.18
578.40	46988.60
578.56	47227.33
578.72	47075.19
578.88	46932.42
579.04	47236.69
579.21	46951.15
579.37	47515.22
579.53	47351.38
579.69	46878.59
579.85	47082.22
580.01	46796.67
580.17	47028.38
580.33	47262.44
580.49	47157.11
580.65	47185.20
580.82	47140.73
580.98	46878.59
581.14	46754.54
581.30	47400.53
581.46	46880.93
581.62	47267.12
581.78	46588.36
581.94	47421.59
582.10	46920.72
582.26	47550.32
582.42	47126.69
582.58	47402.87
582.74	47384.15
582.90	47482.45
583.06	47882.68
583.22	47723.52
583.38	47461.38
583.54	47683.73
583.70	47339.68
583.86	47271.80
584.02	47503.51
584.18	47508.19
584.34	47407.55
584.50	47758.63
584.66	47550.32
584.82	47480.11
584.98	47653.31
585.14	47833.53
585.30	47342.02
585.46	47409.89
585.62	47199.24
585.78	47276.48
585.94	46972.21
586.10	47470.75
586.26	47760.97
586.42	46944.12
586.58	47440.32
586.74	47246.05
586.90	47386.49
587.06	47412.23
587.22	47477.77
587.38	47398.19
587.54	47779.70
587.70	47510.53
587.86	47426.28
588.02	47360.74
588.18	47210.95
588.34	47154.77
588.49	47391.17
588.65	47660.33
588.81	47126.69
588.97	47779.70
589.13	47613.52
589.29	47751.61
589.45	47875.66
589.61	47791.40
589.77	47798.42
589.93	47615.86
