SpectraSuite Data File
++++++++++++++++++++++++++++++++++++
Date: Fri Oct 25 10:44:17 EDT 2013
User: price-jones
Dark Spectrum Present: No
Reference Spectrum Present: No
Number of Sampled Component Spectra: 1
Spectrometers: USB2+H05261
Integration Time (usec): 100000 (USB2+H05261)
Spectra Averaged: 1 (USB2+H05261)
Boxcar Smoothing: 0 (USB2+H05261)
Correct for Electrical Dark: No (USB2+H05261)
Strobe/Lamp Enabled: No (USB2+H05261)
Correct for Detector Non-linearity: No (USB2+H05261)
Correct for Stray Light: No (USB2+H05261)
Number of Pixels in Processed Spectrum: 2048
>>>>>Begin Processed Spectral Data<<<<<
365.73	156.82
365.92	156.82
366.12	156.82
366.32	56.17
366.52	58.51
366.72	4.68
366.91	4.68
367.11	32.77
367.31	0.00
367.51	28.09
367.70	4.68
367.90	67.88
368.10	14.04
368.30	0.00
368.49	9.36
368.69	126.39
368.89	67.88
369.09	0.00
369.28	23.41
369.48	0.00
369.68	77.24
369.87	74.90
370.07	58.51
370.27	140.43
370.47	201.29
370.66	454.06
370.86	454.06
371.06	503.22
371.25	510.24
371.45	458.74
371.65	479.81
371.84	458.74
372.04	486.83
372.24	500.87
372.44	489.17
372.63	528.96
372.83	566.41
373.03	543.00
373.22	482.15
373.42	528.96
373.62	521.94
373.81	540.66
374.01	557.05
374.21	610.88
374.40	514.92
374.60	587.47
374.79	505.56
374.99	566.41
375.19	540.66
375.38	559.39
375.58	613.22
375.78	599.18
375.97	615.56
376.17	610.88
376.37	538.32
376.56	617.90
376.76	657.69
376.95	648.33
377.15	521.94
377.35	566.41
377.54	601.52
377.74	622.58
377.93	580.45
378.13	585.13
378.33	627.26
378.52	643.65
378.72	777.06
378.91	603.86
379.11	622.58
379.31	692.80
379.50	657.69
379.70	713.86
379.89	716.20
380.09	650.67
380.28	784.08
380.48	662.37
380.68	678.76
380.87	676.41
381.07	641.31
381.26	725.57
381.46	734.93
381.65	713.86
381.85	674.07
382.04	676.41
382.24	734.93
382.43	781.74
382.63	676.41
382.83	716.20
383.02	748.97
383.22	788.76
383.41	746.63
383.61	748.97
383.80	711.52
384.00	744.29
384.19	770.04
384.39	849.61
384.58	781.74
384.78	851.96
384.97	858.98
385.17	861.32
385.36	760.67
385.56	854.30
385.75	795.78
385.95	791.10
386.14	828.55
386.34	823.87
386.53	905.79
386.72	863.66
386.92	901.11
387.11	880.04
387.31	830.89
387.50	943.24
387.70	947.92
387.89	821.53
388.09	938.55
388.28	819.19
388.48	903.45
388.67	929.19
388.86	896.43
389.06	1032.18
389.25	966.64
389.45	1015.79
389.64	1039.20
389.84	1006.43
390.03	1029.84
390.22	1071.97
390.42	1029.84
390.61	992.39
390.81	999.41
391.00	1060.26
391.19	1022.81
391.39	1071.97
391.58	1053.24
391.78	929.19
391.97	1081.33
392.16	1053.24
392.36	1018.13
392.55	1027.50
392.75	980.68
392.94	1034.52
393.13	971.32
393.33	931.53
393.52	1022.81
393.71	1083.67
393.91	1121.12
394.10	1067.28
394.29	1118.78
394.49	1067.28
394.68	1238.14
394.88	1198.35
395.07	1210.06
395.26	1153.88
395.46	1212.40
395.65	1221.76
395.84	1289.64
396.04	1287.29
396.23	1174.95
396.42	1167.93
396.62	1242.82
396.81	1043.88
397.00	1348.15
397.19	1327.08
397.39	1350.49
397.58	1406.66
397.77	1420.71
397.97	1455.81
398.16	1448.79
398.35	1497.94
398.55	1425.39
398.74	1444.11
398.93	1558.80
399.12	1593.90
399.32	1495.60
399.51	1561.14
399.70	1640.72
399.90	1570.50
400.09	1568.16
400.28	1678.16
400.47	1612.63
400.67	1631.35
400.86	1626.67
401.05	1556.46
401.24	1722.63
401.44	1612.63
401.63	1769.44
401.82	1732.00
402.01	1774.13
402.21	1771.79
402.40	1732.00
402.59	1708.59
402.78	1802.21
402.97	1689.87
403.17	1762.42
403.36	1900.52
403.55	1837.32
403.74	2003.50
403.93	1895.83
404.13	1720.29
404.32	1802.21
404.51	1792.85
404.70	2005.84
404.89	1912.22
405.09	2001.16
405.28	1982.43
405.47	1994.14
405.66	1893.49
405.85	2012.86
406.05	1944.99
406.24	1973.07
406.43	2043.29
406.62	2036.27
406.81	2153.29
407.00	2162.66
407.20	2059.67
407.39	2071.37
407.58	2143.93
407.77	2160.31
407.96	2139.25
408.15	2193.08
408.34	2202.44
408.54	2244.57
408.73	2265.64
408.92	2394.37
409.11	2221.17
409.30	2267.98
409.49	2361.60
409.68	2223.51
409.87	2253.94
410.07	2333.51
410.26	2352.24
410.45	2380.32
410.64	2331.17
410.83	2480.97
411.02	2621.40
411.21	2630.76
411.40	2525.44
411.59	2633.10
411.78	2621.40
411.98	2626.08
412.17	2612.04
412.36	2635.44
412.55	2623.74
412.74	2750.13
412.93	2787.58
413.12	2656.51
413.31	2925.67
413.50	2717.36
413.69	2892.90
413.88	2904.60
414.07	2867.16
414.26	2857.79
414.45	3012.27
414.64	2951.42
414.83	3019.29
415.02	3096.53
415.22	3122.27
415.41	3155.04
415.60	3133.98
415.79	3265.05
415.98	3290.79
416.17	3162.06
416.36	3258.03
416.55	3066.10
416.74	3220.58
416.93	3272.07
417.12	3419.52
417.31	3283.77
417.50	3370.37
417.69	3456.97
417.88	3368.03
418.07	3435.91
418.26	3569.32
418.45	3630.17
418.64	3482.72
418.83	3548.25
419.02	3651.24
419.21	3667.62
419.39	3599.74
419.58	3370.37
419.77	3438.25
419.96	3639.53
420.15	3585.70
420.34	3712.09
420.53	3817.41
420.72	3733.15
420.91	3906.35
421.10	3836.14
421.29	3761.24
421.48	3801.03
421.67	3999.98
421.86	3960.19
422.05	3868.91
422.24	3875.93
422.43	3815.07
422.61	3974.23
422.80	3803.37
422.99	3868.91
423.18	4091.26
423.37	3911.04
423.56	3911.04
423.75	4023.38
423.94	3899.33
424.13	3688.68
424.32	3861.88
424.50	3899.33
424.69	3999.98
424.88	4016.36
425.07	3819.75
425.26	3873.59
425.45	3943.80
425.64	3875.93
425.83	3796.35
426.01	4032.74
426.20	3929.76
426.39	4037.42
426.58	3997.64
426.77	3939.12
426.96	3918.06
427.15	3962.53
427.33	4145.09
427.52	4053.81
427.71	4065.51
427.90	4175.52
428.09	4210.62
428.28	4180.20
428.46	4093.60
428.65	4248.07
428.84	4365.10
429.03	4215.30
429.22	4002.32
429.40	4238.71
429.59	4182.54
429.78	4042.11
429.97	3995.29
430.16	3976.57
430.34	4032.74
430.53	4264.46
430.72	4257.43
430.91	4327.65
431.10	4470.42
431.28	4461.06
431.47	4456.38
431.66	4655.33
431.85	4627.24
432.03	4571.07
432.22	4610.86
432.41	4592.13
432.60	4599.15
432.79	4681.07
432.97	4617.88
433.16	4779.37
433.35	4638.94
433.54	4720.86
433.72	4755.97
433.91	4762.99
434.10	4669.37
434.28	4805.12
434.47	4856.61
434.66	4868.31
434.85	4851.93
435.03	4880.02
435.22	4950.23
435.41	5067.26
435.59	4924.49
435.78	4990.02
435.97	5116.41
436.16	5034.49
436.34	5266.21
436.53	4983.00
436.72	5345.78
436.90	5055.56
437.09	5151.52
437.28	5114.07
437.46	5177.26
437.65	5233.44
437.84	5256.84
438.02	5226.42
438.21	5259.18
438.40	5153.86
438.58	5392.59
438.77	5399.62
438.96	5408.98
439.14	5659.42
439.33	5614.95
439.52	5767.08
439.70	5500.26
439.89	5612.60
440.08	5874.74
440.26	5898.15
440.45	5811.55
440.63	5872.40
440.82	5984.75
441.01	5802.19
441.19	5834.96
441.38	6078.37
441.57	6040.92
441.75	6146.25
441.94	6113.48
442.12	6298.38
442.31	6347.53
442.50	6321.79
442.68	6256.25
442.87	6244.55
443.05	6282.00
443.24	6565.20
443.43	6384.98
443.61	6490.31
443.80	6434.13
443.98	6473.92
444.17	6202.42
444.35	6537.12
444.54	6438.81
444.73	6506.69
444.91	6422.43
445.10	6434.13
445.28	6443.49
445.47	6375.62
445.65	6387.32
445.84	6359.24
446.02	6715.00
446.21	6703.29
446.39	6616.69
446.58	6677.55
446.77	6787.55
446.95	6506.69
447.14	6637.76
447.32	6698.61
447.51	6637.76
447.69	6661.16
447.88	6764.15
448.06	6726.70
448.25	6576.91
448.43	6719.68
448.62	6712.66
448.80	6644.78
448.99	6801.60
449.17	6792.23
449.36	6836.70
449.54	6956.07
449.73	6965.43
449.91	7087.14
450.10	7000.54
450.28	7286.09
450.46	7096.50
450.65	7162.04
450.83	7279.07
451.02	7110.55
451.20	7269.70
451.39	7304.81
451.57	7197.15
451.76	7243.96
451.94	7087.14
452.13	7468.65
452.31	7304.81
452.49	7187.79
452.68	7206.51
452.86	7220.55
453.05	7208.85
453.23	7391.41
453.42	7288.43
453.60	7166.72
453.78	7466.31
453.97	7300.13
454.15	7573.97
454.34	7623.12
454.52	7573.97
454.70	7660.57
454.89	7529.50
455.07	7559.93
455.26	7686.32
455.44	7744.83
455.62	7695.68
455.81	7667.60
455.99	7772.92
456.17	7571.63
456.36	7695.68
456.54	7988.25
456.73	8093.57
456.91	8166.13
457.09	8119.32
457.28	8175.49
457.46	7868.88
457.64	8170.81
457.83	8030.38
458.01	7901.65
458.19	8217.62
458.38	8011.65
458.56	8107.62
458.74	8243.37
458.93	8191.88
459.11	8458.70
459.29	8409.54
459.48	8341.67
459.66	8088.89
459.84	8217.62
460.03	8449.33
460.21	8454.02
460.39	8528.91
460.57	8465.72
460.76	8404.86
460.94	8748.92
461.12	8648.28
461.31	8730.20
461.49	8704.45
461.67	8716.16
461.85	9013.40
462.04	8535.93
462.22	8879.99
462.40	9048.51
462.59	8711.47
462.77	8702.11
462.95	8985.32
463.13	8966.59
463.32	8779.35
463.50	8842.54
463.68	8971.27
463.86	9179.58
464.05	8861.27
464.23	9055.53
464.41	8842.54
464.59	8872.97
464.78	9029.79
464.96	9163.20
465.14	9191.28
465.32	9390.23
465.50	9301.29
465.69	9322.35
465.87	9308.31
466.05	9095.32
466.23	9048.51
466.41	9118.73
466.60	9324.69
466.78	9242.78
466.96	9294.27
467.14	9083.62
467.32	9245.12
467.51	9652.37
467.69	9277.88
467.87	9366.82
468.05	9275.54
468.23	9462.79
468.41	9415.98
468.60	9535.34
468.78	9568.11
468.96	9577.47
469.14	9872.38
469.32	9921.53
469.50	9600.88
469.69	9722.59
469.87	9722.59
470.05	9734.29
470.23	10012.81
470.41	9912.17
470.59	9874.72
470.77	9947.28
470.95	9902.81
471.14	10225.80
471.32	9874.72
471.50	10300.70
471.68	10375.59
471.86	10326.44
472.04	10406.02
472.22	10586.24
472.40	10417.72
472.58	10415.38
472.77	10567.52
472.95	10628.37
473.13	10930.30
473.31	10434.11
473.49	10637.73
473.67	10876.47
473.85	10691.57
474.03	11012.22
474.21	10885.83
474.39	11108.18
474.57	10930.30
474.75	11164.36
474.93	11122.23
475.12	11192.44
475.30	11344.58
475.48	11077.76
475.66	11335.21
475.84	11396.07
476.02	11489.69
476.20	11468.62
476.38	11662.89
476.56	11887.58
476.74	11719.06
476.92	11908.65
477.10	11962.48
477.28	11915.67
477.46	11934.39
477.64	12149.72
477.82	12512.50
478.00	12762.94
478.18	12336.96
478.36	12669.32
478.54	12784.01
478.72	12594.42
478.90	12875.29
479.08	12802.73
479.26	13324.67
479.44	12915.08
479.62	13156.15
479.80	13387.86
479.98	13090.62
480.16	13654.69
480.34	13521.27
480.52	13701.50
480.70	13731.92
480.88	13689.79
481.06	13853.63
481.24	13771.71
481.41	14164.92
481.59	14691.54
481.77	14478.55
481.95	14417.70
482.13	14429.40
482.31	14883.47
482.49	14911.55
482.67	14860.06
482.85	15009.86
483.03	15267.31
483.21	15260.29
483.39	15506.05
483.57	15585.63
483.74	15461.58
483.92	15775.21
484.10	15728.40
484.28	15932.03
484.46	16051.39
484.64	16304.17
484.82	16273.74
485.00	16205.87
485.18	16091.18
485.35	16442.26
485.53	15992.88
485.71	16493.76
485.89	16470.35
486.07	16512.48
486.25	16578.01
486.43	16882.28
486.61	16973.56
486.78	17200.60
486.96	17708.49
487.14	17902.76
487.32	17769.35
487.50	17869.99
487.68	18256.18
487.85	18197.67
488.03	18661.09
488.21	18436.40
488.39	18611.94
488.57	18572.15
488.75	18883.44
488.92	19246.23
489.10	19171.33
489.28	19583.26
489.46	19604.33
489.64	19536.45
489.81	20154.35
489.99	20231.59
490.17	20236.27
490.35	20428.20
490.53	20367.34
490.70	20589.69
490.88	20460.96
491.06	20826.09
491.24	20854.17
491.41	20709.06
491.59	20837.79
491.77	20538.20
491.95	21085.89
492.13	21530.59
492.30	21507.18
492.48	21958.91
492.66	21710.81
492.84	21612.51
493.01	22068.91
493.19	22125.08
493.37	22092.32
493.54	22221.05
493.72	22326.37
493.90	22494.89
494.08	23075.34
494.25	22838.95
494.43	23108.11
494.61	23515.36
494.79	23393.65
494.96	23803.25
495.14	23421.74
495.32	23597.28
495.49	23365.57
495.67	23901.55
495.85	24112.20
496.02	24065.39
496.20	24091.13
496.38	24489.03
496.55	24531.15
496.73	25268.42
496.91	24725.42
497.09	25050.75
497.26	25053.09
497.44	25153.74
497.62	24893.94
497.79	25329.28
497.97	24978.20
498.14	25345.66
498.32	25675.68
498.50	25624.18
498.67	26054.84
498.85	26199.96
499.03	26256.13
499.20	26272.51
499.38	26324.01
499.56	26263.15
499.73	26429.33
499.91	26471.46
500.08	26518.27
500.26	26342.73
500.44	26464.44
500.61	27023.83
500.79	26281.88
500.97	26824.88
501.14	27080.00
501.32	26967.65
501.49	26862.33
501.67	27012.12
501.84	27384.27
502.02	27683.86
502.20	28170.69
502.37	27768.12
502.55	27637.05
502.72	28137.92
502.90	28053.66
503.07	27974.08
503.25	28060.68
503.43	28191.75
503.60	28332.18
503.78	28212.82
503.95	28077.07
504.13	28147.28
504.30	28636.45
504.48	28907.96
504.65	28720.71
504.83	28933.70
505.01	28968.81
505.18	29418.19
505.36	29308.19
505.53	29724.80
505.71	29539.90
505.88	29731.83
506.06	29476.71
506.23	29832.47
506.41	29883.96
506.58	30057.16
506.76	29862.90
506.93	30010.35
507.11	30003.33
507.28	29823.11
507.46	30125.04
507.63	30265.47
507.81	30197.59
507.98	30038.44
508.16	30288.87
508.33	30436.33
508.50	30768.68
508.68	30808.47
508.85	31316.37
509.03	31087.00
509.20	30899.75
509.38	31042.53
509.55	31215.72
509.73	31161.89
509.90	31426.37
510.08	31424.03
510.25	31395.95
510.42	31702.56
510.60	31978.74
510.77	31964.70
510.95	32173.00
511.12	31779.79
511.30	31789.16
511.47	32318.12
511.64	32369.61
511.82	32294.71
511.99	32079.38
512.17	32411.74
512.34	32332.16
512.51	32690.26
512.69	32898.57
512.86	32865.80
513.04	33090.49
513.21	33024.96
513.38	32776.86
513.56	32933.68
513.73	32627.07
513.90	33050.70
514.08	32952.40
514.25	33486.04
514.43	33144.33
514.60	33294.12
514.77	33364.34
514.95	33804.36
515.12	33240.29
515.29	33680.31
515.47	33919.04
515.64	33855.85
515.81	33589.03
515.99	34174.16
516.16	33394.76
516.33	33340.93
516.51	33893.30
516.68	33551.58
516.85	33266.03
517.03	33893.30
517.20	33935.43
517.37	34265.44
517.54	34092.24
517.72	33869.89
517.89	33790.31
518.06	34249.06
518.24	34244.38
518.41	34286.51
518.58	34403.53
518.75	34700.78
518.93	34927.81
519.10	34333.32
519.27	35220.38
519.45	35328.05
519.62	35168.89
519.79	35356.13
519.96	35606.57
520.14	35452.09
520.31	35199.32
520.48	35484.86
520.65	35342.09
520.83	36048.93
521.00	35887.43
521.17	35864.03
521.34	35922.54
521.52	36154.26
521.69	36254.90
521.86	36407.03
522.03	36233.83
522.20	36437.46
522.38	36542.78
522.55	36407.03
522.72	36357.88
522.89	36659.81
523.07	36652.79
523.24	36685.56
523.41	36748.75
523.58	36966.42
523.75	37090.47
523.92	37174.73
524.10	37448.57
524.27	37464.96
524.44	37474.32
524.61	37151.32
524.78	37383.04
524.96	37640.50
525.13	37493.04
525.30	37907.32
525.47	37947.11
525.64	38026.68
525.81	37666.24
525.98	37467.30
526.16	37691.99
526.33	37179.41
526.50	37434.53
526.67	37109.19
526.84	37411.12
527.01	37645.18
527.18	37661.56
527.36	38169.46
527.53	38366.06
527.70	38604.80
527.87	38609.48
528.04	38359.04
528.21	38667.99
528.38	38810.76
528.55	39002.69
528.72	38778.00
528.89	39297.59
529.07	38789.70
529.24	38373.08
529.41	39159.50
529.58	38756.93
529.75	38724.16
529.92	39496.54
530.09	39344.41
530.26	39470.79
530.43	39086.95
530.60	39110.35
530.77	39299.94
530.94	39789.11
531.11	39250.78
531.28	39772.72
531.46	39627.61
531.63	39494.20
531.80	39597.18
531.97	39924.86
532.14	39154.82
532.31	39229.72
532.48	39452.07
532.65	39852.30
532.82	39693.15
532.99	39999.76
533.16	39723.57
533.33	40170.61
533.50	40304.02
533.67	39990.39
533.84	39761.02
534.01	39866.34
534.18	40154.23
534.35	40437.44
534.52	40444.46
534.69	40423.39
534.86	40407.01
535.03	40287.64
535.20	40830.65
535.37	40861.07
535.54	41127.89
535.71	40811.92
535.88	40641.06
536.05	40697.24
536.22	40687.87
536.38	40875.12
536.55	41013.21
536.72	40758.09
536.89	40828.30
537.06	40734.68
537.23	40914.90
537.40	41003.85
537.57	41067.04
537.74	40671.49
537.91	41006.19
538.08	41310.46
538.25	41099.81
538.42	40762.77
538.59	41504.72
538.75	41214.49
538.92	41345.56
539.09	41371.31
539.26	41188.75
539.43	41291.73
539.60	41610.04
539.77	41216.83
539.94	41603.02
540.11	41787.92
540.28	41605.36
540.44	41551.53
540.61	41525.78
540.78	41523.44
540.95	41537.49
541.12	41488.34
541.29	41628.77
541.46	41876.86
541.62	42033.68
541.79	42593.07
541.96	41787.92
542.13	41579.62
542.30	41684.94
542.47	42602.43
542.63	42576.69
542.80	42256.03
542.97	42368.38
543.14	42869.25
543.31	42604.77
543.48	42665.63
543.64	43407.58
543.81	43098.62
543.98	43133.73
544.15	42810.74
544.32	43117.35
544.48	43445.02
544.65	43014.37
544.82	42965.21
544.99	43182.88
545.16	43297.57
545.32	43187.56
545.49	43805.47
545.66	43342.04
545.83	43372.47
546.00	43461.41
546.16	43789.08
546.33	43217.99
546.50	43248.42
546.67	43306.93
546.83	43157.14
547.00	43503.54
547.17	42909.04
547.34	43285.87
547.50	43695.46
547.67	44004.41
547.84	43374.81
548.00	43489.49
548.17	43955.26
548.34	43770.36
548.51	44039.52
548.67	43938.88
548.84	43796.10
549.01	43498.86
549.18	43599.50
549.34	43770.36
549.51	44170.59
549.68	43835.89
549.84	43990.37
550.01	43957.60
550.18	44140.16
550.34	44444.43
550.51	43793.76
550.68	44552.10
550.84	43290.55
551.01	44205.70
551.18	44079.31
551.34	43945.90
551.51	44210.38
551.68	44177.61
551.84	44308.68
552.01	43927.17
552.18	44191.65
552.34	44163.57
552.51	44282.94
552.68	44435.07
552.84	44423.37
553.01	44732.32
553.18	44385.92
553.34	44446.77
553.51	44339.11
553.67	44673.81
553.84	44809.56
554.01	45118.51
554.17	44751.04
554.34	45198.09
554.51	45120.85
554.67	44664.44
554.84	44905.52
555.00	44734.66
555.17	44353.15
555.33	45090.42
555.50	44847.00
555.67	45001.48
555.83	44982.76
556.00	44783.81
556.16	45329.16
556.33	44914.88
556.50	44907.86
556.66	45289.37
556.83	44650.40
556.99	45200.43
557.16	45221.49
557.32	45308.09
557.49	45179.36
557.65	45001.48
557.82	44973.39
557.98	45233.19
558.15	44987.44
558.32	45146.59
558.48	45233.19
558.65	45048.29
558.81	45116.17
558.98	45186.38
559.14	45209.79
559.31	45415.76
559.47	45116.17
559.64	45378.31
559.80	45918.97
559.97	45492.99
560.13	45198.09
560.30	45308.09
560.46	45385.33
560.63	45556.19
560.79	45668.53
560.96	45570.23
561.12	45441.50
561.29	45549.17
561.45	45635.77
561.61	45371.28
561.78	45179.36
561.94	44968.71
562.11	45698.96
562.27	45591.30
562.44	45546.82
562.60	45937.69
562.77	45837.05
562.93	45425.12
563.10	45659.17
563.26	45537.46
563.42	45954.08
563.59	45331.50
563.75	45345.54
563.92	45890.88
564.08	46010.25
564.24	46127.28
564.41	45736.41
564.57	45874.50
564.74	45813.65
564.90	45783.22
565.07	45684.92
565.23	45792.58
565.39	45778.54
565.56	45738.75
565.72	45624.06
565.88	45799.60
566.05	45876.84
566.21	45577.25
566.38	45382.99
566.54	45635.77
566.70	46045.36
566.87	46342.61
567.03	45741.09
567.19	46141.32
567.36	46253.67
567.52	45666.19
567.68	45876.84
567.85	45944.72
568.01	46277.07
568.17	45755.13
568.34	46087.49
568.50	45975.14
568.66	45900.25
568.83	45893.22
568.99	45525.76
569.15	45900.25
569.32	45914.29
569.48	45684.92
569.64	46181.11
569.81	46305.16
569.97	46057.06
570.13	45839.39
570.30	45488.31
570.46	45502.35
570.62	45703.64
570.78	45748.11
570.95	45624.06
571.11	46333.24
571.27	45832.37
571.43	45752.79
571.60	45940.04
571.76	46298.14
571.92	46169.41
572.09	46078.13
572.25	45745.77
572.41	45890.88
572.57	46192.81
572.74	46564.96
572.90	46263.03
573.06	46335.59
573.22	46073.45
573.38	46398.78
573.55	45956.42
573.71	46358.99
573.87	46279.41
574.03	45895.56
574.20	46782.63
574.36	46445.59
574.52	46366.01
574.68	46085.15
574.84	46529.85
575.01	45888.54
575.17	46040.68
575.33	46150.68
575.49	46089.83
575.65	46298.14
575.82	45970.46
575.98	45830.03
576.14	45883.86
576.30	45986.85
576.46	45815.99
576.62	45947.06
576.79	46241.96
576.95	46225.58
577.11	46272.39
577.27	46131.96
577.43	46340.27
577.59	46019.61
577.75	46047.70
577.92	45610.02
578.08	45729.39
578.24	45610.02
578.40	46134.30
578.56	46347.29
578.72	46328.56
578.88	46258.35
579.04	46490.06
579.21	46515.81
579.37	46117.92
579.53	46487.72
579.69	46101.53
579.85	46078.13
580.01	46181.11
580.17	46419.84
580.33	46075.79
580.49	46625.81
580.65	46199.83
580.82	46171.75
580.98	46036.00
581.14	46307.50
581.30	46597.73
581.46	46485.38
581.62	46691.35
581.78	46618.79
581.94	46288.77
582.10	46213.88
582.26	46639.86
582.42	46438.57
582.58	46251.33
582.74	46267.71
582.90	46223.24
583.06	46824.76
583.22	46358.99
583.38	46672.62
583.54	46356.65
583.70	46230.26
583.86	46408.14
584.02	46155.36
584.18	46316.86
584.34	46213.88
584.50	46417.50
584.66	46150.68
584.82	46232.60
584.98	46494.74
585.14	46593.04
585.30	46384.74
585.46	46117.92
585.62	46625.81
585.78	46319.20
585.94	45607.68
586.10	46403.46
586.26	46284.09
586.42	46349.63
586.58	46623.47
586.74	46637.51
586.90	46391.76
587.06	46000.89
587.22	46213.88
587.38	45581.93
587.54	46431.55
587.70	46391.76
587.86	46092.17
588.02	46405.80
588.18	46714.75
588.34	46394.10
588.49	45778.54
588.65	45839.39
588.81	45523.42
588.97	46024.29
589.13	45797.26
589.29	46010.25
589.45	46160.05
589.61	46071.10
589.77	46794.33
589.93	45865.14
