SpectraSuite Data File
++++++++++++++++++++++++++++++++++++
Date: Fri Oct 25 10:48:04 EDT 2013
User: price-jones
Dark Spectrum Present: No
Reference Spectrum Present: No
Number of Sampled Component Spectra: 1
Spectrometers: USB2+H05261
Integration Time (usec): 100000 (USB2+H05261)
Spectra Averaged: 1 (USB2+H05261)
Boxcar Smoothing: 0 (USB2+H05261)
Correct for Electrical Dark: No (USB2+H05261)
Strobe/Lamp Enabled: No (USB2+H05261)
Correct for Detector Non-linearity: No (USB2+H05261)
Correct for Stray Light: No (USB2+H05261)
Number of Pixels in Processed Spectrum: 2048
>>>>>Begin Processed Spectral Data<<<<<
365.73	168.52
365.92	168.52
366.12	168.52
366.32	39.79
366.52	0.00
366.72	65.54
366.91	35.11
367.11	0.00
367.31	0.00
367.51	65.54
367.70	0.00
367.90	49.15
368.10	74.90
368.30	18.72
368.49	49.15
368.69	91.28
368.89	67.88
369.09	91.28
369.28	114.69
369.48	21.06
369.68	93.62
369.87	149.79
370.07	107.66
370.27	86.60
370.47	170.86
370.66	365.12
370.86	444.70
371.06	458.74
371.25	433.00
371.45	428.32
371.65	514.92
371.84	444.70
372.04	451.72
372.24	491.51
372.44	486.83
372.63	514.92
372.83	465.77
373.03	533.64
373.22	447.04
373.42	528.96
373.62	498.53
373.81	564.07
374.01	545.34
374.21	566.41
374.40	524.28
374.60	653.01
374.79	538.32
374.99	514.92
375.19	547.69
375.38	568.75
375.58	559.39
375.78	521.94
375.97	613.22
376.17	592.16
376.37	568.75
376.56	587.47
376.76	552.37
376.95	559.39
377.15	653.01
377.35	599.18
377.54	592.16
377.74	543.00
377.93	645.99
378.13	620.24
378.33	641.31
378.52	631.94
378.72	678.76
378.91	634.29
379.11	533.64
379.31	568.75
379.50	617.90
379.70	566.41
379.89	660.03
380.09	695.14
380.28	617.90
380.48	674.07
380.68	634.29
380.87	669.39
381.07	727.91
381.26	685.78
381.46	706.84
381.65	744.29
381.85	732.59
382.04	631.94
382.24	648.33
382.43	653.01
382.63	727.91
382.83	692.80
383.02	741.95
383.22	716.20
383.41	702.16
383.61	704.50
383.80	730.25
384.00	737.27
384.19	774.72
384.39	706.84
384.58	711.52
384.78	772.38
384.97	702.16
385.17	720.88
385.36	739.61
385.56	734.93
385.75	844.93
385.95	809.83
386.14	880.04
386.34	758.33
386.53	830.89
386.72	744.29
386.92	774.72
387.11	786.42
387.31	882.38
387.50	875.36
387.70	779.40
387.89	784.08
388.09	793.44
388.28	877.70
388.48	772.38
388.67	917.49
388.86	870.68
389.06	821.53
389.25	793.44
389.45	896.43
389.64	926.85
389.84	926.85
390.03	877.70
390.22	896.43
390.42	842.59
390.61	837.91
390.81	898.77
391.00	931.53
391.19	926.85
391.39	957.28
391.58	889.40
391.78	964.30
391.97	976.00
392.16	863.66
392.36	961.96
392.55	1004.09
392.75	952.60
392.94	1011.11
393.13	1004.09
393.33	1022.81
393.52	950.26
393.71	1132.82
393.91	1008.77
394.10	1004.09
394.29	1144.52
394.49	1083.67
394.68	1036.86
394.88	985.37
395.07	1196.01
395.26	1076.65
395.46	1090.69
395.65	1123.46
395.84	1144.52
396.04	1097.71
396.23	1153.88
396.42	1125.80
396.62	1100.05
396.81	1179.63
397.00	1050.90
397.19	1135.16
397.39	1179.63
397.58	1174.95
397.77	1196.01
397.97	1284.95
398.16	1212.40
398.35	1294.32
398.55	1191.33
398.74	1273.25
398.93	1299.00
399.12	1313.04
399.32	1263.89
399.51	1207.72
399.70	1336.45
399.90	1315.38
400.09	1411.34
400.28	1343.47
400.47	1315.38
400.67	1280.27
400.86	1364.53
401.05	1441.77
401.24	1411.34
401.44	1488.58
401.63	1416.02
401.82	1394.96
402.01	1481.56
402.21	1469.86
402.40	1483.90
402.59	1495.60
402.78	1446.45
402.97	1519.01
403.17	1568.16
403.36	1507.30
403.55	1605.61
403.74	1612.63
403.93	1549.43
404.13	1650.08
404.32	1577.52
404.51	1629.01
404.70	1678.16
404.89	1610.29
405.09	1722.63
405.28	1696.89
405.47	1610.29
405.66	1703.91
405.85	1846.68
406.05	1729.66
406.24	1729.66
406.43	1661.78
406.62	1699.23
406.81	1853.70
407.00	1884.13
407.20	1764.76
407.39	1785.83
407.58	1884.13
407.77	1809.23
407.96	1935.62
408.15	1832.64
408.34	1867.75
408.54	1797.53
408.73	1867.75
408.92	1912.22
409.11	1846.68
409.30	1998.82
409.49	2040.95
409.68	1984.77
409.87	1952.01
410.07	2113.50
410.26	2043.29
410.45	2172.02
410.64	2094.78
410.83	2179.04
411.02	2076.06
411.21	2214.15
411.40	2211.81
411.59	2218.83
411.78	2143.93
411.98	2253.94
412.17	2251.60
412.36	2310.11
412.55	2312.45
412.74	2277.34
412.93	2310.11
413.12	2267.98
413.31	2434.16
413.50	2534.80
413.69	2326.49
413.88	2424.80
414.07	2513.74
414.26	2483.31
414.45	2530.12
414.64	2511.39
414.83	2612.04
415.02	2780.56
415.22	2654.17
415.41	2717.36
415.60	2731.41
415.79	2717.36
415.98	2808.64
416.17	2768.85
416.36	2771.19
416.55	2731.41
416.74	2803.96
416.93	2869.50
417.12	2846.09
417.31	2841.41
417.50	2897.58
417.69	3000.57
417.88	2904.60
418.07	2925.67
418.26	3040.36
418.45	2953.76
418.64	3157.38
418.83	3070.78
419.02	3096.53
419.21	3150.36
419.39	3229.94
419.58	3164.40
419.77	3033.33
419.96	3215.90
420.15	3260.37
420.34	3129.30
420.53	3232.28
420.72	3311.86
420.91	3208.87
421.10	3176.11
421.29	3433.57
421.48	3321.22
421.67	3358.67
421.86	3365.69
422.05	3335.26
422.24	3297.81
422.43	3368.03
422.61	3339.94
422.80	3576.34
422.99	3295.47
423.18	3478.04
423.37	3480.38
423.56	3576.34
423.75	3473.36
423.94	3515.48
424.13	3293.13
424.32	3276.75
424.50	3372.71
424.69	3520.17
424.88	3604.42
425.07	3370.37
425.26	3353.99
425.45	3506.12
425.64	3468.67
425.83	3485.06
426.01	3496.76
426.20	3513.14
426.39	3524.85
426.58	3606.77
426.77	3623.15
426.96	3611.45
427.15	3426.54
427.33	3503.78
427.52	3606.77
427.71	3655.92
427.90	3538.89
428.09	3665.28
428.28	3604.42
428.46	3702.73
428.65	3705.07
428.84	3726.13
429.03	3861.88
429.22	3653.58
429.40	3674.64
429.59	3791.67
429.78	3637.19
429.97	3562.30
430.16	3632.51
430.34	3777.62
430.53	3873.59
430.72	3847.84
430.91	3763.58
431.10	3911.04
431.28	3929.76
431.47	3999.98
431.66	3983.59
431.85	4039.76
432.03	4161.47
432.22	4205.94
432.41	3901.67
432.60	3978.91
432.79	4133.39
432.97	4095.94
433.16	4365.10
433.35	4119.34
433.54	4269.14
433.72	4255.09
433.91	4067.85
434.10	4184.88
434.28	4147.43
434.47	4320.63
434.66	4313.61
434.85	4351.06
435.03	4407.23
435.22	4318.29
435.41	4486.81
435.59	4397.87
435.78	4344.03
435.97	4510.21
436.16	4482.13
436.34	4409.57
436.53	4627.24
436.72	4615.54
436.90	4566.39
437.09	4559.36
437.28	4395.53
437.46	4545.32
437.65	4510.21
437.84	4678.73
438.02	4578.09
438.21	4613.20
438.40	4498.51
438.58	4617.88
438.77	4856.61
438.96	4727.88
439.14	4898.74
439.33	5039.17
439.52	4997.04
439.70	4957.25
439.89	5057.90
440.08	5067.26
440.26	5055.56
440.45	5008.75
440.63	5032.15
440.82	5233.44
441.01	5205.35
441.19	5205.35
441.38	5411.32
441.57	5437.06
441.75	5294.29
441.94	5453.45
442.12	5336.42
442.31	5511.96
442.50	5404.30
442.68	5544.73
442.87	5542.39
443.05	5628.99
443.24	5699.20
443.43	5640.69
443.61	5717.93
443.80	5689.84
443.98	5514.30
444.17	5554.09
444.35	5659.42
444.54	5687.50
444.73	5493.24
444.91	5692.18
445.10	5727.29
445.28	5657.07
445.47	5638.35
445.65	5764.74
445.84	5738.99
446.02	5689.84
446.21	5827.93
446.39	5729.63
446.58	5893.47
446.77	5792.83
446.95	5680.48
447.14	5905.17
447.32	5856.02
447.51	5788.14
447.69	5802.19
447.88	5851.34
448.06	5902.83
448.25	5884.11
448.43	6005.81
448.62	5982.41
448.80	5914.53
448.99	5966.03
449.17	5944.96
449.36	5982.41
449.54	6015.18
449.73	6143.91
449.91	6193.06
450.10	6183.70
450.28	6148.59
450.46	6221.14
450.65	6162.63
450.83	6443.49
451.02	6132.20
451.20	6272.64
451.39	6410.73
451.57	6118.16
451.76	6387.32
451.94	6101.78
452.13	6504.35
452.31	6490.31
452.49	6265.61
452.68	6487.96
452.86	6242.21
453.05	6441.15
453.23	6452.86
453.42	6392.00
453.60	6253.91
453.78	6483.28
453.97	6541.80
454.15	6494.99
454.34	6614.35
454.52	6665.85
454.70	6633.08
454.89	6476.26
455.07	6722.02
455.26	6675.21
455.44	6607.33
455.62	6729.04
455.81	6820.32
455.99	6920.96
456.17	6881.18
456.36	6794.58
456.54	6942.03
456.73	6993.52
456.91	7215.87
457.09	7012.24
457.28	7098.84
457.46	6967.77
457.64	7108.21
457.83	7119.91
458.01	6927.99
458.19	7386.73
458.38	7283.75
458.56	7353.96
458.74	7229.91
458.93	7302.47
459.11	7431.20
459.29	7375.03
459.48	7424.18
459.66	7360.98
459.84	7417.16
460.03	7578.65
460.21	7262.68
460.39	7386.73
460.57	7470.99
460.76	7407.80
460.94	7510.78
461.12	7562.27
461.31	7513.12
461.49	7859.52
461.67	7763.56
461.85	7761.22
462.04	7510.78
462.22	8212.94
462.40	7868.88
462.59	7950.80
462.77	7620.78
462.95	7934.42
463.13	8081.87
463.32	7812.71
463.50	7927.39
463.68	7955.48
463.86	7906.33
464.05	7906.33
464.23	7948.46
464.41	7948.46
464.59	7854.84
464.78	8241.03
464.96	7838.45
465.14	8067.83
465.32	8154.43
465.50	8336.99
465.69	8098.25
465.87	8175.49
466.05	8177.83
466.23	8142.72
466.41	8234.00
466.60	8304.22
466.78	8131.02
466.96	8077.19
467.14	8269.11
467.32	8278.47
467.51	8531.25
467.69	8135.70
467.87	8299.54
468.05	8479.76
468.23	8266.77
468.41	8388.48
468.60	8507.85
468.78	8395.50
468.96	8470.40
469.14	8613.17
469.32	8772.33
469.50	8358.05
469.69	8535.93
469.87	8697.43
470.05	8650.62
470.23	8901.06
470.41	8568.70
470.59	8908.08
470.77	8631.90
470.95	8631.90
471.14	9018.08
471.32	8683.39
471.50	9095.32
471.68	9149.15
471.86	9146.81
472.04	9352.78
472.22	9350.44
472.40	9181.92
472.58	9401.93
472.77	9312.99
472.95	9500.23
473.13	9680.46
473.31	9331.72
473.49	9446.40
473.67	9371.50
473.85	9507.26
474.03	9717.90
474.21	9783.44
474.39	9771.74
474.57	9872.38
474.75	9727.27
474.93	10015.15
475.12	9783.44
475.30	9872.38
475.48	9769.40
475.66	10253.89
475.84	10010.47
476.02	10361.55
476.20	10298.36
476.38	10436.45
476.56	10647.10
476.74	10443.47
476.92	10494.96
477.10	10588.58
477.28	10778.17
477.46	10759.44
477.64	11105.84
477.82	10946.69
478.00	11115.20
478.18	11084.78
478.36	11194.78
478.54	11351.60
478.72	11382.03
478.90	11538.84
479.08	11548.20
479.26	11707.36
479.44	11742.47
479.62	11798.64
479.80	11824.39
479.98	11899.28
480.16	12203.55
480.34	11882.90
480.52	12355.69
480.70	12210.57
480.88	12222.28
481.06	12372.07
481.24	12325.26
481.41	12491.44
481.59	12830.82
481.77	12641.23
481.95	12837.84
482.13	12961.89
482.31	12922.10
482.49	13188.92
482.67	13163.17
482.85	13336.37
483.03	13373.82
483.21	13544.68
483.39	13490.85
483.57	13757.67
483.74	13823.20
483.92	13905.12
484.10	13961.30
484.28	14071.30
484.46	14260.88
484.64	14565.15
484.82	14162.58
485.00	14406.00
485.18	14628.35
485.35	14932.62
485.53	14731.33
485.71	14831.97
485.89	15119.86
486.07	14867.08
486.25	15098.80
486.43	15187.74
486.61	15386.68
486.78	15573.92
486.96	15658.18
487.14	16107.57
487.32	15786.91
487.50	16044.37
487.68	16182.46
487.85	16475.03
488.03	16727.81
488.21	16587.38
488.39	16980.59
488.57	16893.99
488.75	17053.14
488.92	17209.96
489.10	17245.07
489.28	17523.59
489.46	17525.93
489.64	17577.42
489.81	17926.16
489.99	18022.12
490.17	18073.62
490.35	18171.92
490.53	18181.28
490.70	18625.98
490.88	18345.12
491.06	18534.70
491.24	18555.77
491.41	18628.32
491.59	18960.68
491.77	19073.03
491.95	19016.85
492.13	19339.85
492.30	19405.38
492.48	19463.90
492.66	19590.28
492.84	19541.13
493.01	19695.61
493.19	20020.94
493.37	20044.35
493.54	20240.95
493.72	20482.03
493.90	20365.00
494.08	20561.61
494.25	20922.05
494.43	20830.77
494.61	21018.01
494.79	20933.75
494.96	20893.96
495.14	21156.10
495.32	21322.28
495.49	21785.71
495.67	21359.73
495.85	21893.37
496.02	22029.12
496.20	21755.28
496.38	22263.18
496.55	22263.18
496.73	22586.17
496.91	22127.42
497.09	22293.60
497.26	22689.15
497.44	22831.93
497.62	22888.10
497.79	22951.29
497.97	22909.16
498.14	23117.47
498.32	23288.33
498.50	23480.25
498.67	23365.57
498.85	23428.76
499.03	23484.94
499.20	23931.98
499.38	23714.31
499.56	24018.58
499.73	23873.46
499.91	24362.64
500.08	24318.17
500.26	24276.04
500.44	24079.43
500.61	24533.50
500.79	24325.19
500.97	24552.22
501.14	24676.27
501.32	24814.36
501.49	24582.65
501.67	24765.21
501.84	25010.96
502.02	25404.17
502.20	25530.56
502.37	25467.37
502.55	25593.76
502.72	25385.45
502.90	25680.36
503.07	25151.40
503.25	25998.67
503.43	25455.67
503.60	25951.86
503.78	25701.42
503.95	25972.92
504.13	26274.85
504.30	26441.03
504.48	25954.20
504.65	26174.21
504.83	26551.04
505.01	26754.66
505.18	26335.71
505.36	26876.37
505.53	26869.35
505.71	26836.58
505.88	26778.07
506.06	26616.57
506.23	26932.54
506.41	26670.40
506.58	26937.23
506.76	27337.46
506.93	27374.91
507.11	27253.20
507.28	27468.53
507.46	27391.29
507.63	27810.25
507.81	27997.49
507.98	27510.66
508.16	27854.72
508.33	28212.82
508.50	28067.70
508.68	28170.69
508.85	28304.10
509.03	28140.26
509.20	28463.25
509.38	28868.17
509.55	28489.00
509.73	28580.28
509.90	28957.11
510.08	28458.57
510.25	28444.53
510.42	29186.48
510.60	29029.66
510.77	29422.87
510.95	29457.98
511.12	29109.24
511.30	29399.47
511.47	29474.37
511.64	29439.26
511.82	29776.30
511.99	29455.64
512.17	29848.85
512.34	29593.73
512.51	29780.98
512.69	29944.81
512.86	29895.66
513.04	30064.18
513.21	30113.33
513.38	29883.96
513.56	30209.29
513.73	30230.36
513.90	30682.08
514.08	29883.96
514.25	30569.74
514.43	30567.40
514.60	30735.92
514.77	30892.73
514.95	30635.27
515.12	30515.90
515.29	30923.16
515.47	31299.98
515.64	31225.09
515.81	31098.70
515.99	31035.50
516.16	31346.79
516.33	31051.89
516.51	31545.74
516.68	31122.10
516.85	31292.96
517.03	31592.55
517.20	31571.49
517.37	31412.33
517.54	32271.31
517.72	31885.12
517.89	31969.38
518.06	31835.97
518.24	31945.97
518.41	31793.84
518.58	32364.93
518.75	32086.40
518.93	32369.61
519.10	32091.09
519.27	32479.61
519.45	32369.61
519.62	32840.06
519.79	32505.36
519.96	32669.20
520.14	32910.27
520.31	32549.83
520.48	33427.53
520.65	33209.86
520.83	33160.71
521.00	33195.82
521.17	33109.22
521.34	33127.94
521.52	33617.11
521.69	33425.19
521.86	33792.65
522.03	33574.98
522.20	33996.28
522.38	33567.96
522.55	33853.51
522.72	34033.73
522.89	33497.75
523.07	34007.98
523.24	33626.48
523.41	34157.78
523.58	34022.03
523.75	34382.47
523.92	33701.37
524.10	34150.76
524.27	34576.73
524.44	34455.03
524.61	34237.36
524.78	34721.85
524.96	34888.03
525.13	34698.44
525.30	34953.56
525.47	35182.93
525.64	34785.04
525.81	34913.77
525.98	34911.43
526.16	34536.94
526.33	35047.18
526.50	35196.98
526.67	35218.04
526.84	35021.44
527.01	34995.69
527.18	35101.01
527.36	35491.88
527.53	35777.43
527.70	35653.38
527.87	35845.30
528.04	35646.36
528.21	35658.06
528.38	35576.14
528.55	35882.75
528.72	35665.08
528.89	36362.56
529.07	35686.15
529.24	35889.77
529.41	36030.21
529.58	36275.96
529.75	36170.64
529.92	35985.74
530.09	36299.37
530.26	36952.38
530.43	36589.59
530.60	36006.80
530.77	36353.20
530.94	36638.75
531.11	36648.11
531.28	36933.65
531.46	36617.68
531.63	36715.98
531.80	36638.75
531.97	36861.10
532.14	36982.80
532.31	36737.05
532.48	36858.76
532.65	37057.70
532.82	36556.83
532.99	37553.90
533.16	37118.56
533.33	37289.42
533.50	37483.68
533.67	37605.39
533.84	37305.80
534.01	37493.04
534.18	37467.30
534.35	37869.87
534.52	37333.89
534.69	37490.70
534.86	37680.28
535.03	37425.17
535.20	37942.42
535.37	37968.17
535.54	38087.54
535.71	37603.05
535.88	38213.93
536.05	38057.11
536.22	37867.53
536.38	38206.90
536.55	38253.72
536.72	38342.66
536.89	38176.48
537.06	38059.45
537.23	37717.73
537.40	38007.96
537.57	38082.86
537.74	38520.54
537.91	38494.79
538.08	38382.45
538.25	38314.57
538.42	38398.83
538.59	38857.57
538.75	38398.83
538.92	38677.35
539.09	38815.44
539.26	38857.57
539.43	38829.49
539.60	39002.69
539.77	39136.10
539.94	38616.50
540.11	38799.06
540.28	38712.46
540.44	39079.92
540.61	39047.16
540.78	38899.70
540.95	38960.56
541.12	39171.21
541.29	39152.48
541.46	39360.79
541.62	39379.51
541.79	39721.23
541.96	38813.10
542.13	39138.44
542.30	39728.25
542.47	39861.66
542.63	39899.11
542.80	39754.00
542.97	40392.97
543.14	40294.66
543.31	40027.84
543.48	39793.79
543.64	40348.50
543.81	40121.46
543.98	40257.21
544.15	40463.18
544.32	40484.25
544.48	40528.72
544.65	40669.15
544.82	39819.53
544.99	40212.74
545.16	40374.24
545.32	40495.95
545.49	40765.11
545.66	40512.33
545.83	40779.15
546.00	41371.31
546.16	40744.05
546.33	40634.04
546.50	40488.93
546.67	40465.52
546.83	40411.69
547.00	40687.87
547.17	40423.39
547.34	40556.80
547.50	40921.93
547.67	40924.27
547.84	40748.73
548.00	41174.70
548.17	41174.70
548.34	41123.21
548.51	41640.47
548.67	41298.75
548.84	40950.01
549.01	41319.82
549.18	40952.35
549.34	41401.74
549.51	41251.94
549.68	41743.45
549.84	41516.42
550.01	41488.34
550.18	41331.52
550.34	41645.15
550.51	41308.11
550.68	41347.90
550.84	41343.22
551.01	41654.51
551.18	41413.44
551.34	41572.60
551.51	41558.55
551.68	41804.31
551.84	41923.68
552.01	41677.92
552.18	41731.75
552.34	41881.55
552.51	42047.72
552.68	41745.80
552.84	41968.15
553.01	42504.13
553.18	42361.36
553.34	42150.71
553.51	41923.68
553.67	41972.83
553.84	42223.26
554.01	42632.86
554.17	42246.67
554.34	42408.17
554.51	42504.13
554.67	42560.30
554.84	42464.34
555.00	42499.45
555.17	42122.62
555.33	42749.88
555.50	42258.37
555.67	42656.26
555.83	42391.78
556.00	42789.67
556.16	42550.94
556.33	42667.97
556.50	42604.77
556.66	42890.32
556.83	42342.63
556.99	42862.23
557.16	42754.57
557.32	42777.97
557.49	42834.14
557.65	42396.46
557.82	42836.48
557.98	42335.61
558.15	42817.76
558.32	42773.29
558.48	43002.66
558.65	43093.94
558.81	42363.70
558.98	43157.14
559.14	43072.88
559.31	42660.94
559.47	43337.36
559.64	43199.27
559.80	43473.11
559.97	43344.38
560.13	42967.55
560.30	43072.88
560.46	43494.18
560.63	43569.07
560.79	43201.61
560.96	43812.49
561.12	43381.83
561.29	43246.08
561.45	43590.14
561.61	42810.74
561.78	43461.41
561.94	43339.70
562.11	43271.82
562.27	42820.10
562.44	43325.66
562.60	43398.21
562.77	43772.70
562.93	43430.98
563.10	43725.89
563.26	43100.97
563.42	43463.75
563.59	43180.54
563.75	43468.43
563.92	43880.36
564.08	43910.79
564.24	43842.92
564.41	43730.57
564.57	43735.25
564.74	43367.79
564.90	43489.49
565.07	43821.85
565.23	43283.53
565.39	43517.58
565.56	43587.80
565.72	43442.68
565.88	44055.90
566.05	43847.60
566.21	43690.78
566.38	43461.41
566.54	43234.38
566.70	43934.20
566.87	43887.39
567.03	43800.79
567.19	43896.75
567.36	43978.67
567.52	43473.11
567.68	44158.89
567.85	44053.56
568.01	43782.06
568.17	43667.37
568.34	44004.41
568.50	43868.66
568.66	43749.29
568.83	44109.74
568.99	43786.74
569.15	43922.49
569.32	44058.24
569.48	43615.88
569.64	43793.76
569.81	43871.00
569.97	43957.60
570.13	43924.83
570.30	43887.39
570.46	43924.83
570.62	43388.85
570.78	43695.46
570.95	43765.68
571.11	43945.90
571.27	44643.38
571.43	43725.89
571.60	43889.73
571.76	44060.58
571.92	43786.74
572.09	43538.65
572.25	44025.48
572.41	44271.23
572.57	44093.35
572.74	44533.37
572.90	44128.46
573.06	44032.50
573.22	44367.20
573.38	44306.34
573.55	43456.73
573.71	44416.35
573.87	44027.82
574.03	43775.04
574.20	43810.15
574.36	43758.66
574.52	44212.72
574.68	44334.43
574.84	44336.77
575.01	44175.27
575.17	44472.52
575.33	44198.68
575.49	44130.80
575.65	44320.38
575.82	44622.31
575.98	44156.55
576.14	44112.08
576.30	44348.47
576.46	44418.69
576.62	44069.95
576.79	44201.02
576.95	43739.93
577.11	43779.72
577.27	44002.07
577.43	44320.38
577.59	44046.54
577.75	44083.99
577.92	43583.12
578.08	43927.17
578.24	43878.02
578.40	43931.86
578.56	44116.76
578.72	44449.11
578.88	44378.90
579.04	44367.20
579.21	43978.67
579.37	43875.68
579.53	44245.49
579.69	44074.63
579.85	44203.36
580.01	44275.91
580.17	44456.14
580.33	44308.68
580.49	44718.28
580.65	44203.36
580.82	44493.58
580.98	43910.79
581.14	44165.91
581.30	44486.56
581.46	44215.06
581.62	44514.65
581.78	44060.58
581.94	44598.91
582.10	44205.70
582.26	44748.70
582.42	44414.01
582.58	44486.56
582.74	44140.16
582.90	44289.96
583.06	44446.77
583.22	44339.11
583.38	44760.40
583.54	44474.86
583.70	44261.87
583.86	44196.34
584.02	44177.61
584.18	44453.79
584.34	44348.47
584.50	44399.96
584.66	44500.61
584.82	44313.36
584.98	44519.33
585.14	44938.29
585.30	44467.84
585.46	44416.35
585.62	43955.26
585.78	44783.81
585.94	44282.94
586.10	44322.72
586.26	44238.47
586.42	44488.90
586.58	44460.82
586.74	44573.16
586.90	44369.54
587.06	44512.31
587.22	44409.32
587.38	44748.70
587.54	44516.99
587.70	44610.61
587.86	44818.92
588.02	44002.07
588.18	44914.88
588.34	44444.43
588.49	44299.32
588.65	44332.09
588.81	43941.22
588.97	44388.26
589.13	44428.05
589.29	44371.88
589.45	44612.95
589.61	44825.94
589.77	44870.41
589.93	44680.83
590.08	44767.43
590.24	44706.57
590.40	44753.38
