SpectraSuite Data File
++++++++++++++++++++++++++++++++++++
Date: Fri Oct 25 10:44:03 EDT 2013
User: price-jones
Dark Spectrum Present: No
Reference Spectrum Present: No
Number of Sampled Component Spectra: 1
Spectrometers: USB2+H05261
Integration Time (usec): 100000 (USB2+H05261)
Spectra Averaged: 1 (USB2+H05261)
Boxcar Smoothing: 0 (USB2+H05261)
Correct for Electrical Dark: No (USB2+H05261)
Strobe/Lamp Enabled: No (USB2+H05261)
Correct for Detector Non-linearity: No (USB2+H05261)
Correct for Stray Light: No (USB2+H05261)
Number of Pixels in Processed Spectrum: 2048
>>>>>Begin Processed Spectral Data<<<<<
365.73	140.43
365.92	140.43
366.12	140.43
366.32	60.85
366.52	30.43
366.72	79.58
366.91	37.45
367.11	70.22
367.31	39.79
367.51	60.85
367.70	35.11
367.90	0.00
368.10	77.24
368.30	58.51
368.49	30.43
368.69	58.51
368.89	0.00
369.09	0.00
369.28	79.58
369.48	88.94
369.68	95.96
369.87	86.60
370.07	60.85
370.27	152.13
370.47	205.97
370.66	454.06
370.86	458.74
371.06	477.47
371.25	423.64
371.45	447.04
371.65	447.04
371.84	421.30
372.04	463.43
372.24	505.56
372.44	491.51
372.63	500.87
372.83	475.13
373.03	477.47
373.22	578.11
373.42	512.58
373.62	564.07
373.81	545.34
374.01	617.90
374.21	596.84
374.40	589.82
374.60	610.88
374.79	571.09
374.99	552.37
375.19	641.31
375.38	636.63
375.58	615.56
375.78	662.37
375.97	608.54
376.17	671.73
376.37	629.60
376.56	561.73
376.76	528.96
376.95	561.73
377.15	657.69
377.35	662.37
377.54	692.80
377.74	615.56
377.93	650.67
378.13	629.60
378.33	645.99
378.52	681.10
378.72	674.07
378.91	676.41
379.11	709.18
379.31	610.88
379.50	643.65
379.70	681.10
379.89	725.57
380.09	692.80
380.28	695.14
380.48	767.70
380.68	702.16
380.87	695.14
381.07	770.04
381.26	699.82
381.46	802.80
381.65	755.99
381.85	711.52
382.04	709.18
382.24	699.82
382.43	732.59
382.63	732.59
382.83	688.12
383.02	772.38
383.22	713.86
383.41	657.69
383.61	718.54
383.80	732.59
384.00	844.93
384.19	809.83
384.39	835.57
384.58	858.98
384.78	844.93
384.97	784.08
385.17	847.27
385.36	830.89
385.56	877.70
385.75	847.27
385.95	863.66
386.14	938.55
386.34	870.68
386.53	954.94
386.72	910.47
386.92	887.06
387.11	882.38
387.31	915.15
387.50	901.11
387.70	896.43
387.89	987.71
388.09	891.74
388.28	954.94
388.48	971.32
388.67	908.13
388.86	980.68
389.06	947.92
389.25	1034.52
389.45	1034.52
389.64	985.37
389.84	1039.20
390.03	1036.86
390.22	1046.22
390.42	1107.07
390.61	1053.24
390.81	1057.92
391.00	1055.58
391.19	1186.65
391.39	1118.78
391.58	994.73
391.78	1081.33
391.97	1041.54
392.16	1027.50
392.36	1046.22
392.55	1090.69
392.75	976.00
392.94	1064.94
393.13	983.02
393.33	1025.15
393.52	1013.45
393.71	1076.65
393.91	1118.78
394.10	1146.86
394.29	1160.91
394.49	1235.80
394.68	1242.82
394.88	1313.04
395.07	1299.00
395.26	1256.87
395.46	1210.06
395.65	1294.32
395.84	1254.53
396.04	1397.30
396.23	1177.29
396.42	1172.61
396.62	1259.21
396.81	1280.27
397.00	1259.21
397.19	1352.83
397.39	1411.34
397.58	1500.28
397.77	1507.30
397.97	1434.75
398.16	1528.37
398.35	1526.03
398.55	1528.37
398.74	1521.35
398.93	1565.82
399.12	1589.22
399.32	1488.58
399.51	1556.46
399.70	1631.35
399.90	1699.23
400.09	1621.99
400.28	1753.06
400.47	1703.91
400.67	1806.89
400.86	1715.61
401.05	1851.36
401.24	1762.42
401.44	1818.60
401.63	1790.51
401.82	1741.36
402.01	1846.68
402.21	1774.13
402.40	1844.34
402.59	1949.67
402.78	1853.70
402.97	1851.36
403.17	1902.86
403.36	1921.58
403.55	1914.56
403.74	1905.20
403.93	1933.28
404.13	1984.77
404.32	1870.09
404.51	1973.07
404.70	1947.33
404.89	1954.35
405.09	2108.82
405.28	2099.46
405.47	2083.08
405.66	2003.50
405.85	2052.65
406.05	2073.71
406.24	2190.74
406.43	2200.10
406.62	2200.10
406.81	2235.21
407.00	2113.50
407.20	2122.87
407.39	2162.66
407.58	2256.28
407.77	2312.45
407.96	2399.05
408.15	2342.88
408.34	2333.51
408.54	2375.64
408.73	2448.20
408.92	2473.95
409.11	2464.58
409.30	2410.75
409.49	2443.52
409.68	2368.62
409.87	2338.20
410.07	2480.97
410.26	2382.67
410.45	2375.64
410.64	2597.99
410.83	2583.95
411.02	2696.30
411.21	2722.04
411.40	2661.19
411.59	2696.30
411.78	2717.36
411.98	2778.22
412.17	2684.59
412.36	2782.90
412.55	2829.71
412.74	2942.05
412.93	2946.73
413.12	2846.09
413.31	3141.00
413.50	2860.13
413.69	2897.58
413.88	3054.40
414.07	3045.04
414.26	3075.46
414.45	2981.84
414.64	3101.21
414.83	3398.46
415.02	3138.66
415.22	3185.47
415.41	3307.18
415.60	3201.85
415.79	3396.12
415.98	3382.07
416.17	3449.95
416.36	3246.32
416.55	3356.33
416.74	3475.70
416.93	3403.14
417.12	3318.88
417.31	3588.04
417.50	3655.92
417.69	3655.92
417.88	3595.06
418.07	3555.27
418.26	3534.21
418.45	3616.13
418.64	3639.53
418.83	3618.47
419.02	3768.26
419.21	3712.09
419.39	3749.54
419.58	3688.68
419.77	3735.50
419.96	3885.29
420.15	3894.65
420.34	3932.10
420.53	3911.04
420.72	4037.42
420.91	3983.59
421.10	3822.09
421.29	3988.27
421.48	4018.70
421.67	4058.49
421.86	3934.44
422.05	3967.21
422.24	3896.99
422.43	4002.32
422.61	4128.70
422.80	3969.55
422.99	4109.98
423.18	4072.53
423.37	4212.96
423.56	4229.35
423.75	4095.94
423.94	4102.96
424.13	3719.11
424.32	4084.23
424.50	4135.73
424.69	4053.81
424.88	3901.67
425.07	4016.36
425.26	4091.26
425.45	4112.32
425.64	4126.36
425.83	4234.03
426.01	4227.01
426.20	4135.73
426.39	4184.88
426.58	4283.18
426.77	4255.09
426.96	4119.34
427.15	4177.86
427.33	4219.99
427.52	4152.11
427.71	4348.72
427.90	4318.29
428.09	4449.36
428.28	4257.43
428.46	4493.83
428.65	4344.03
428.84	4358.08
429.03	4397.87
429.22	4278.50
429.40	4219.99
429.59	4315.95
429.78	3908.69
429.97	4086.58
430.16	4098.28
430.34	4203.60
430.53	4369.78
430.72	4318.29
430.91	4236.37
431.10	4503.19
431.28	4748.95
431.47	4741.93
431.66	4863.63
431.85	4669.37
432.03	4772.35
432.22	4994.70
432.41	4868.31
432.60	4922.15
432.79	4844.91
432.97	4802.78
433.16	4842.57
433.35	4821.50
433.54	4823.84
433.72	4816.82
433.91	4835.55
434.10	5011.09
434.28	4788.74
434.47	4933.85
434.66	5067.26
434.85	5158.54
435.03	5167.90
435.22	5121.09
435.41	5289.61
435.59	5226.42
435.78	5301.31
435.97	5348.12
436.16	5357.49
436.34	5350.46
436.53	5446.43
436.72	5401.96
436.90	5338.76
437.09	5350.46
437.28	5434.72
437.46	5420.68
437.65	5345.78
437.84	5486.22
438.02	5350.46
438.21	5514.30
438.40	5343.44
438.58	5565.79
438.77	5626.65
438.96	5533.03
439.14	5619.63
439.33	5757.72
439.52	5989.43
439.70	5858.36
439.89	5863.04
440.08	5959.00
440.26	5956.66
440.45	5870.06
440.63	6129.86
440.82	6307.74
441.01	6242.21
441.19	6193.06
441.38	6473.92
441.57	6228.17
441.75	6408.39
441.94	6520.73
442.12	6546.48
442.31	6518.39
442.50	6672.87
442.68	6651.80
442.87	6466.90
443.05	6511.37
443.24	6644.78
443.43	6424.77
443.61	6715.00
443.80	6918.62
443.98	6619.04
444.17	6586.27
444.35	6745.42
444.54	6794.58
444.73	6724.36
444.91	6729.04
445.10	6885.86
445.28	6839.05
445.47	6630.74
445.65	6682.23
445.84	6864.79
446.02	6876.49
446.21	6789.89
446.39	6822.66
446.58	6876.49
446.77	7115.23
446.95	6867.13
447.14	6918.62
447.32	7098.84
447.51	6895.22
447.69	6942.03
447.88	6775.85
448.06	6803.94
448.25	6939.69
448.43	7021.61
448.62	7194.81
448.80	6920.96
448.99	7066.08
449.17	7243.96
449.36	7023.95
449.54	7302.47
449.73	7346.94
449.91	7349.28
450.10	7431.20
450.28	7576.31
450.46	7566.95
450.65	7314.17
450.83	7344.60
451.02	7604.40
451.20	7688.66
451.39	7618.44
451.57	7384.39
451.76	7585.68
451.94	7531.84
452.13	7646.53
452.31	7611.42
452.49	7499.08
452.68	7445.24
452.86	7496.74
453.05	7613.76
453.23	7723.77
453.42	7609.08
453.60	7578.65
453.78	7751.85
453.97	7831.43
454.15	7693.34
454.34	7761.22
454.52	7859.52
454.70	7812.71
454.89	7854.84
455.07	7798.66
455.26	7894.63
455.44	8154.43
455.62	8084.21
455.81	8028.04
455.99	8205.92
456.17	8121.66
456.36	8262.09
456.54	8145.06
456.73	8402.52
456.91	8449.33
457.09	8383.80
457.28	8566.36
457.46	8285.50
457.64	8564.02
457.83	8468.06
458.01	8259.75
458.19	8837.86
458.38	8554.66
458.56	8688.07
458.74	8659.98
458.93	8493.80
459.11	8704.45
459.29	8664.66
459.48	8652.96
459.66	8683.39
459.84	8622.53
460.03	9032.13
460.21	8961.91
460.39	8753.60
460.57	8767.65
460.76	8999.36
460.94	9053.19
461.12	8931.48
461.31	9022.77
461.49	9163.20
461.67	8802.75
461.85	9067.24
462.04	9170.22
462.22	9680.46
462.40	9238.09
462.59	9109.36
462.77	9102.34
462.95	9383.21
463.13	9231.07
463.32	9331.72
463.50	9525.98
463.68	9399.59
463.86	9404.27
464.05	9446.40
464.23	9233.41
464.41	9430.02
464.59	9275.54
464.78	9727.27
464.96	9460.45
465.14	9420.66
465.32	9710.88
465.50	9488.53
465.69	9818.55
465.87	9577.47
466.05	9575.13
466.23	9460.45
466.41	9490.87
466.60	9870.04
466.78	9584.49
466.96	9626.62
467.14	9650.03
467.32	9554.07
467.51	9916.85
467.69	9767.06
467.87	9703.86
468.05	9989.41
468.23	9970.68
468.41	9760.03
468.60	9898.13
468.78	10171.97
468.96	9966.00
469.14	9898.13
469.32	10085.37
469.50	9968.34
469.69	10265.59
469.87	10120.48
470.05	10279.63
470.23	10221.12
470.41	10132.18
470.59	10391.98
470.77	10509.01
470.95	10499.64
471.14	10501.98
471.32	10483.26
471.50	10897.53
471.68	10686.89
471.86	10574.54
472.04	10871.79
472.22	11021.58
472.40	10696.25
472.58	10902.22
472.77	11035.63
472.95	11162.01
473.13	11358.62
473.31	10878.81
473.49	10663.48
473.67	11208.83
473.85	11300.11
474.03	11634.80
474.21	11522.46
474.39	11456.92
474.57	11449.90
474.75	11681.61
474.93	11508.41
475.12	11728.42
475.30	11768.21
475.48	11683.95
475.66	11616.08
475.84	11648.85
476.02	11815.02
476.20	11784.60
476.38	12049.08
476.56	12362.71
476.74	12156.74
476.92	12182.49
477.10	12575.70
477.28	12475.06
477.46	12561.66
477.64	12898.69
477.82	12924.44
478.00	13142.11
478.18	12940.82
478.36	12999.34
478.54	13362.12
478.72	12889.33
478.90	13266.16
479.08	13848.95
479.26	13610.22
479.44	13678.09
479.62	13764.69
479.80	13668.73
479.98	14061.94
480.16	14115.77
480.34	14104.07
480.52	14279.61
480.70	14106.41
480.88	14190.67
481.06	14368.55
481.24	14483.24
481.41	14967.73
481.59	15136.24
481.77	14672.82
481.95	14974.75
482.13	15316.47
482.31	14960.70
482.49	15669.89
482.67	15625.42
482.85	15995.22
483.03	15627.76
483.21	15922.66
483.39	16170.76
483.57	16037.35
483.74	15850.11
483.92	16271.40
484.10	16072.46
484.28	16400.13
484.46	16767.60
484.64	17034.42
484.82	16585.04
485.00	16526.52
485.18	16704.40
485.35	16753.55
485.53	16535.88
485.71	16788.66
485.89	16896.33
486.07	17247.41
486.25	17406.56
486.43	17518.91
486.61	17535.29
486.78	18192.98
486.96	18082.98
487.14	18024.47
487.32	18321.71
487.50	18780.46
487.68	18616.62
487.85	19466.24
488.03	19176.01
488.21	19288.35
488.39	19264.95
488.57	19190.05
488.75	19644.12
488.92	19782.21
489.10	20011.58
489.28	20278.40
489.46	20290.10
489.64	20449.26
489.81	20886.94
489.99	21139.72
490.17	21034.39
490.35	21287.17
490.53	21205.25
490.70	21202.91
490.88	21226.32
491.06	21635.91
491.24	21303.56
491.41	21380.79
491.59	21497.82
491.77	21507.18
491.95	21759.96
492.13	22066.57
492.30	22235.09
492.48	22448.08
492.66	22188.28
492.84	22764.05
493.01	22700.86
493.19	22780.43
493.37	23257.90
493.54	23019.17
493.72	23358.55
493.90	23374.93
494.08	23592.60
494.25	24109.86
494.43	24098.16
494.61	24327.53
494.79	24620.10
494.96	24629.46
495.14	24257.31
495.32	24690.31
495.49	24287.74
495.67	24599.03
495.85	24720.74
496.02	25060.12
496.20	25287.15
496.38	25448.64
496.55	25701.42
496.73	26164.85
496.91	25661.63
497.09	25832.49
497.26	25996.33
497.44	25722.49
497.62	25991.65
497.79	26075.91
497.97	26031.44
498.14	26153.15
498.32	26321.66
498.50	26834.24
498.67	27033.19
498.85	26977.01
499.03	27204.05
499.20	27157.24
499.38	27173.62
499.56	27110.43
499.73	27442.78
499.91	27459.16
500.08	27321.07
500.26	27503.64
500.44	27316.39
500.61	27477.89
500.79	27489.59
500.97	27655.77
501.14	27871.10
501.32	27992.81
501.49	28203.46
501.67	28198.77
501.84	28292.40
502.02	28203.46
502.20	28776.89
502.37	29331.59
502.55	28783.91
502.72	28847.10
502.90	28898.59
503.07	28854.12
503.25	29092.86
503.43	28877.53
503.60	29221.59
503.78	29142.01
503.95	28903.28
504.13	29441.60
504.30	29699.06
504.48	29296.49
504.65	29710.76
504.83	29937.79
505.01	29853.53
505.18	30094.61
505.36	30637.61
505.53	30506.54
505.71	30747.62
505.88	30583.78
506.06	30391.86
506.23	30483.14
506.41	30309.94
506.58	30508.88
506.76	31079.97
506.93	30988.69
507.11	31278.92
507.28	31014.44
507.46	30635.27
507.63	30939.54
507.81	31349.14
507.98	31035.50
508.16	31297.64
508.33	31882.78
508.50	31882.78
508.68	32095.77
508.85	32121.51
509.03	32187.05
509.20	32196.41
509.38	32009.17
509.55	32212.79
509.73	32304.07
509.90	32577.92
510.08	32240.88
510.25	32217.47
510.42	32128.53
510.60	32566.21
510.77	32563.87
510.95	32662.18
511.12	32914.95
511.30	33549.24
511.47	33294.12
511.64	33701.37
511.82	33401.79
511.99	33502.43
512.17	33273.06
512.34	33097.52
512.51	33612.43
512.69	33970.54
512.86	34078.20
513.04	33914.36
513.21	33610.09
513.38	33900.32
513.56	34096.92
513.73	33638.18
513.90	34455.03
514.08	34281.83
514.25	34223.31
514.43	34522.90
514.60	34555.67
514.77	34373.11
514.95	34838.87
515.12	34782.70
515.29	34785.04
515.47	34909.09
515.64	35372.52
515.81	34862.28
515.99	34806.11
516.16	34888.03
516.33	34558.01
516.51	34375.45
516.68	34223.31
516.85	34319.28
517.03	34160.12
517.20	34820.15
517.37	35374.86
517.54	35585.50
517.72	35117.40
517.89	34768.66
518.06	34838.87
518.24	35154.85
518.41	35278.89
518.58	35494.22
518.75	35328.05
518.93	36137.87
519.10	36264.26
519.27	35920.20
519.45	36254.90
519.62	36634.06
519.79	36360.22
519.96	36240.86
520.14	36346.18
520.31	36219.79
520.48	36395.33
520.65	36580.23
520.83	37453.25
521.00	37125.58
521.17	37415.80
521.34	37139.62
521.52	37345.59
521.69	37132.60
521.86	36982.80
522.03	37254.31
522.20	37504.74
522.38	37415.80
522.55	37834.76
522.72	37493.04
522.89	37294.10
523.07	37759.86
523.24	37640.50
523.41	37940.08
523.58	37982.21
523.75	38508.83
523.92	38363.72
524.10	38710.12
524.27	38864.60
524.44	38630.54
524.61	38440.96
524.78	38377.76
524.96	38237.33
525.13	38630.54
525.30	38728.84
525.47	38946.51
525.64	38682.03
525.81	38906.73
525.98	38684.37
526.16	38024.34
526.33	38476.07
526.50	38705.44
526.67	38326.27
526.84	38637.56
527.01	38799.06
527.18	39009.71
527.36	39288.23
527.53	39414.62
527.70	39407.60
527.87	39761.02
528.04	39339.72
528.21	39599.52
528.38	39868.69
528.55	39873.37
528.72	40233.81
528.89	40093.38
529.07	39835.92
529.24	39475.48
529.41	39777.40
529.58	40175.30
529.75	40086.36
529.92	39704.85
530.09	40226.79
530.26	40079.33
530.43	40481.91
530.60	39817.19
530.77	40128.48
530.94	40809.58
531.11	40121.46
531.28	40278.28
531.46	40608.29
531.63	40828.30
531.80	40486.59
531.97	40439.78
532.14	40610.64
532.31	39992.73
532.48	40348.50
532.65	40884.48
532.82	40760.43
532.99	41125.55
533.16	40877.46
533.33	41230.88
533.50	41450.89
533.67	40935.97
533.84	41228.54
534.01	41031.93
534.18	40804.90
534.35	41263.64
534.52	41069.38
534.69	41249.60
534.86	41308.11
535.03	41682.60
535.20	41886.23
535.37	42337.95
535.54	42298.16
535.71	41502.38
535.88	41940.06
536.05	42066.45
536.22	41734.09
536.38	42167.09
536.55	41666.22
536.72	41811.33
536.89	41703.67
537.06	42150.71
537.23	42197.52
537.40	41823.03
537.57	42106.24
537.74	42277.10
537.91	42691.37
538.08	42541.58
538.25	42298.16
538.42	42251.35
538.59	42586.05
538.75	42443.27
538.92	42354.33
539.09	42644.56
539.26	42452.64
539.43	42838.83
539.60	42555.62
539.77	42234.97
539.94	42794.36
540.11	42153.05
540.28	42445.62
540.44	42972.24
540.61	42550.94
540.78	42513.49
540.95	42295.82
541.12	42756.91
541.29	42951.17
541.46	42794.36
541.62	43143.09
541.79	43232.04
541.96	42541.58
542.13	43016.71
542.30	42918.40
542.47	43206.29
542.63	43318.64
542.80	43220.33
542.97	43459.07
543.14	43761.00
543.31	43889.73
543.48	43845.26
543.64	44488.90
543.81	43824.19
543.98	43519.92
544.15	43903.77
544.32	44397.62
544.48	44259.53
544.65	43587.80
544.82	44311.02
544.99	44018.46
545.16	44219.74
545.32	43915.47
545.49	44336.77
545.66	44734.66
545.83	44442.09
546.00	44140.16
546.16	44205.70
546.33	44437.41
546.50	44224.42
546.67	44402.30
546.83	44147.18
547.00	44231.44
547.17	43875.68
547.34	44186.97
547.50	43948.24
547.67	44531.03
547.84	44460.82
548.00	44629.34
548.17	45111.49
548.34	44587.21
548.51	44968.71
548.67	45081.06
548.84	44926.58
549.01	44783.81
549.18	44889.13
549.34	44596.57
549.51	45425.12
549.68	44921.90
549.84	45057.65
550.01	45326.81
550.18	44987.44
550.34	45223.83
550.51	45265.96
550.68	45237.87
550.84	44694.87
551.01	44945.31
551.18	45514.06
551.34	45261.28
551.51	45605.34
551.68	45780.88
551.84	45181.70
552.01	45298.73
552.18	45144.25
552.34	44547.42
552.51	45705.98
552.68	45167.66
552.84	45640.45
553.01	45497.67
553.18	45652.15
553.34	45446.18
553.51	44992.12
553.67	45600.66
553.84	46248.99
554.01	45769.18
554.17	45654.49
554.34	45979.82
554.51	45745.77
554.67	45701.30
554.84	45804.28
555.00	45853.44
555.17	45649.81
555.33	45830.03
555.50	45525.76
555.67	45930.67
555.83	45741.09
556.00	46012.59
556.16	46150.68
556.33	45907.27
556.50	45661.51
556.66	45666.19
556.83	46073.45
556.99	46253.67
557.16	45923.65
557.32	46354.31
557.49	45916.63
557.65	45888.54
557.82	46607.09
557.98	46045.36
558.15	46141.32
558.32	45923.65
558.48	45684.92
558.65	45883.86
558.81	45893.22
558.98	46253.67
559.14	45598.32
559.31	46089.83
559.47	46335.59
559.64	46443.25
559.80	46239.62
559.97	46326.22
560.13	46108.55
560.30	46373.03
560.46	46351.97
560.63	46464.32
560.79	46679.64
560.96	46504.10
561.12	46548.57
561.29	46588.36
561.45	46272.39
561.61	46820.08
561.78	46436.23
561.94	46232.60
562.11	46380.06
562.27	46440.91
562.44	46803.69
562.60	46782.63
562.77	46939.44
562.93	46726.46
563.10	46534.53
563.26	46192.81
563.42	46766.24
563.59	46284.09
563.75	46349.63
563.92	46602.41
564.08	46356.65
564.24	46878.59
564.41	46733.48
564.57	46899.65
564.74	46796.67
564.90	46892.63
565.07	46906.68
565.23	46796.67
565.39	46689.01
565.56	46712.41
565.72	46370.69
565.88	46377.72
566.05	46525.17
566.21	46553.26
566.38	46770.93
566.54	46784.97
566.70	46803.69
566.87	46906.68
567.03	46759.22
567.19	47105.62
567.36	46693.69
567.52	46705.39
567.68	46806.03
567.85	46707.73
568.01	46777.95
568.17	46747.52
568.34	46593.04
568.50	46976.89
568.66	46937.10
568.83	46941.78
568.99	46902.00
569.15	46639.86
569.32	46625.81
569.48	46651.56
569.64	46969.87
569.81	47089.24
569.97	46773.27
570.13	46784.97
570.30	46431.55
570.46	46476.02
570.62	46174.09
570.78	46684.33
570.95	46335.59
571.11	46740.50
571.27	46955.83
571.43	46962.85
571.60	46836.46
571.76	46979.23
571.92	46923.06
572.09	46623.47
572.25	46536.87
572.41	46794.33
572.57	46866.89
572.74	47026.04
572.90	46691.35
573.06	47002.64
573.22	47344.36
573.38	46906.68
573.55	47004.98
573.71	47295.21
573.87	47068.17
574.03	47004.98
574.20	47051.79
574.36	47047.11
574.52	46930.08
574.68	46864.55
574.84	47136.05
575.01	47065.83
575.17	47248.39
575.33	46616.45
575.49	46689.01
575.65	47393.51
575.82	47082.22
575.98	46621.13
576.14	47096.26
576.30	47049.45
576.46	47075.19
576.62	47260.10
576.79	47016.68
576.95	47047.11
577.11	47196.90
577.27	46784.97
577.43	46983.91
577.59	47044.77
577.75	46745.18
577.92	46476.02
578.08	46628.15
578.24	47026.04
578.40	46773.27
578.56	46684.33
578.72	46974.55
578.88	47222.65
579.04	47187.54
579.21	46689.01
579.37	46686.67
579.53	46913.70
579.69	47063.49
579.85	47042.43
580.01	47180.52
580.17	47077.54
580.33	47187.54
580.49	47250.74
580.65	46890.29
580.82	47274.14
580.98	46979.23
581.14	46232.60
581.30	47180.52
581.46	47033.07
581.62	47077.54
581.78	46916.04
581.94	47461.38
582.10	46972.21
582.26	47159.45
582.42	47241.37
582.58	47068.17
582.74	47164.14
582.90	47391.17
583.06	47576.07
583.22	47435.64
583.38	47367.76
583.54	47318.61
583.70	47077.54
583.86	47496.49
584.02	46588.36
584.18	47349.04
584.34	47150.09
584.50	47243.71
584.66	46761.56
584.82	46670.28
584.98	46990.94
585.14	47105.62
585.30	46948.81
585.46	47051.79
585.62	47084.56
585.78	46754.54
585.94	46646.88
586.10	47185.20
586.26	46834.12
586.42	47100.94
586.58	47173.50
586.74	47414.57
586.90	46897.31
587.06	46983.91
587.22	47065.83
587.38	46712.41
587.54	47070.51
587.70	47042.43
587.86	47342.02
588.02	47042.43
588.18	47243.71
588.34	46768.58
588.49	46560.28
588.65	46527.51
588.81	46469.00
588.97	46588.36
589.13	46148.34
589.29	46344.95
589.45	47124.35
589.61	47042.43
589.77	47239.03
