SpectraSuite Data File
++++++++++++++++++++++++++++++++++++
Date: Fri Oct 25 11:33:41 EDT 2013
User: price-jones
Dark Spectrum Present: No
Reference Spectrum Present: No
Number of Sampled Component Spectra: 1
Spectrometers: USB2+H05261
Integration Time (usec): 100000 (USB2+H05261)
Spectra Averaged: 1 (USB2+H05261)
Boxcar Smoothing: 0 (USB2+H05261)
Correct for Electrical Dark: No (USB2+H05261)
Strobe/Lamp Enabled: No (USB2+H05261)
Correct for Detector Non-linearity: No (USB2+H05261)
Correct for Stray Light: No (USB2+H05261)
Number of Pixels in Processed Spectrum: 2048
>>>>>Begin Processed Spectral Data<<<<<
365.73	252.78
365.92	252.78
366.12	252.78
366.32	203.63
366.52	187.24
366.72	142.77
366.91	227.03
367.11	184.90
367.31	163.84
367.51	271.50
367.70	198.95
367.90	201.29
368.10	91.28
368.30	175.54
368.49	217.67
368.69	264.48
368.89	156.82
369.09	196.60
369.28	177.88
369.48	243.42
369.68	248.10
369.87	203.63
370.07	292.57
370.27	215.33
370.47	332.36
370.66	451.72
370.86	407.25
371.06	514.92
371.25	533.64
371.45	559.39
371.65	545.34
371.84	580.45
372.04	533.64
372.24	564.07
372.44	550.03
372.63	622.58
372.83	587.47
373.03	641.31
373.22	613.22
373.42	634.29
373.62	636.63
373.81	650.67
374.01	643.65
374.21	622.58
374.40	566.41
374.60	669.39
374.79	744.29
374.99	688.12
375.19	683.44
375.38	641.31
375.58	653.01
375.78	645.99
375.97	667.05
376.17	678.76
376.37	629.60
376.56	648.33
376.76	720.88
376.95	671.73
377.15	741.95
377.35	772.38
377.54	636.63
377.74	718.54
377.93	702.16
378.13	744.29
378.33	695.14
378.52	723.23
378.72	711.52
378.91	791.10
379.11	734.93
379.31	709.18
379.50	732.59
379.70	814.51
379.89	737.27
380.09	765.36
380.28	772.38
380.48	760.67
380.68	746.63
380.87	767.70
381.07	807.48
381.26	830.89
381.46	732.59
381.65	788.76
381.85	739.61
382.04	791.10
382.24	798.12
382.43	784.08
382.63	765.36
382.83	819.19
383.02	814.51
383.22	851.96
383.41	814.51
383.61	755.99
383.80	809.83
384.00	809.83
384.19	812.17
384.39	807.48
384.58	765.36
384.78	800.46
384.97	858.98
385.17	819.19
385.36	812.17
385.56	861.32
385.75	800.46
385.95	793.44
386.14	873.02
386.34	805.14
386.53	877.70
386.72	835.57
386.92	943.24
387.11	901.11
387.31	828.55
387.50	856.64
387.70	903.45
387.89	910.47
388.09	805.14
388.28	992.39
388.48	936.21
388.67	945.58
388.86	1055.58
389.06	954.94
389.25	894.08
389.45	908.13
389.64	887.06
389.84	866.00
390.03	924.51
390.22	917.49
390.42	985.37
390.61	952.60
390.81	1029.84
391.00	992.39
391.19	966.64
391.39	994.73
391.58	966.64
391.78	990.05
391.97	1006.43
392.16	1034.52
392.36	1001.75
392.55	1097.71
392.75	1032.18
392.94	945.58
393.13	1060.26
393.33	1018.13
393.52	1011.11
393.71	1165.59
393.91	1153.88
394.10	1027.50
394.29	1100.05
394.49	1057.92
394.68	1149.20
394.88	1086.01
395.07	1074.31
395.26	1144.52
395.46	1170.27
395.65	1205.38
395.84	1177.29
396.04	1219.42
396.23	1137.50
396.42	1235.80
396.62	1207.72
396.81	1207.72
397.00	1184.31
397.19	1207.72
397.39	1151.54
397.58	1256.87
397.77	1193.67
397.97	1284.95
398.16	1289.64
398.35	1306.02
398.55	1191.33
398.74	1256.87
398.93	1310.70
399.12	1329.42
399.32	1210.06
399.51	1254.53
399.70	1444.11
399.90	1334.11
400.09	1252.19
400.28	1425.39
400.47	1355.17
400.67	1418.36
400.86	1423.05
401.05	1380.92
401.24	1378.58
401.44	1460.49
401.63	1432.41
401.82	1446.45
402.01	1493.26
402.21	1516.67
402.40	1406.66
402.59	1362.19
402.78	1423.05
402.97	1488.58
403.17	1673.48
403.36	1570.50
403.55	1507.30
403.74	1713.27
403.93	1650.08
404.13	1629.01
404.32	1680.50
404.51	1544.75
404.70	1734.34
404.89	1575.18
405.09	1767.10
405.28	1621.99
405.47	1696.89
405.66	1631.35
405.85	1680.50
406.05	1654.76
406.24	1668.80
406.43	1764.76
406.62	1785.83
406.81	1746.04
407.00	1769.44
407.20	1708.59
407.39	1806.89
407.58	1799.87
407.77	1877.11
407.96	1832.64
408.15	1837.32
408.34	1844.34
408.54	1963.71
408.73	1907.54
408.92	1764.76
409.11	1881.79
409.30	1991.80
409.49	2050.31
409.68	2001.16
409.87	2062.01
410.07	1973.07
410.26	2003.50
410.45	1973.07
410.64	2176.70
410.83	2104.14
411.02	2179.04
411.21	2218.83
411.40	2160.31
411.59	2246.91
411.78	2230.53
411.98	2235.21
412.17	2258.62
412.36	2267.98
412.55	2321.81
412.74	2303.09
412.93	2375.64
413.12	2305.43
413.31	2377.98
413.50	2307.77
413.69	2370.96
413.88	2413.09
414.07	2406.07
414.26	2583.95
414.45	2544.16
414.64	2502.03
414.83	2619.06
415.02	2560.55
415.22	2555.86
415.41	2654.17
415.60	2654.17
415.79	2569.91
415.98	2806.30
416.17	2661.19
416.36	2691.62
416.55	2750.13
416.74	2801.62
416.93	2773.53
417.12	2815.66
417.31	2803.96
417.50	2813.32
417.69	2953.76
417.88	2888.22
418.07	2899.92
418.26	2963.12
418.45	2998.23
418.64	3136.32
418.83	2963.12
419.02	3077.80
419.21	3012.27
419.39	3105.89
419.58	3157.38
419.77	3164.40
419.96	3133.98
420.15	3222.92
420.34	3126.96
420.53	3169.09
420.72	3215.90
420.91	3234.62
421.10	3297.81
421.29	3265.05
421.48	3169.09
421.67	3239.30
421.86	3283.77
422.05	3215.90
422.24	3297.81
422.43	3283.77
422.61	3393.78
422.80	3398.46
422.99	3396.12
423.18	3375.05
423.37	3501.44
423.56	3445.27
423.75	3351.65
423.94	3246.32
424.13	3082.49
424.32	3356.33
424.50	3375.05
424.69	3482.72
424.88	3627.83
425.07	3199.51
425.26	3281.43
425.45	3503.78
425.64	3433.57
425.83	3379.73
426.01	3555.27
426.20	3393.78
426.39	3503.78
426.58	3384.41
426.77	3342.28
426.96	3730.81
427.15	3576.34
427.33	3499.10
427.52	3503.78
427.71	3660.60
427.90	3644.21
428.09	3555.27
428.28	3630.17
428.46	3578.68
428.65	3681.66
428.84	3749.54
429.03	3803.37
429.22	3719.11
429.40	3758.90
429.59	3791.67
429.78	3702.73
429.97	3662.94
430.16	3803.37
430.34	3943.80
430.53	3889.97
430.72	3901.67
430.91	3845.50
431.10	3939.12
431.28	3840.82
431.47	4002.32
431.66	4135.73
431.85	3880.61
432.03	4196.58
432.22	4105.30
432.41	3969.55
432.60	4102.96
432.79	4121.68
432.97	4086.58
433.16	4046.79
433.35	4107.64
433.54	4140.41
433.72	4334.67
433.91	4112.32
434.10	4304.25
434.28	4147.43
434.47	4201.26
434.66	4297.22
434.85	4465.74
435.03	4390.84
435.22	4432.97
435.41	4393.19
435.59	4294.88
435.78	4348.72
435.97	4470.42
436.16	4355.74
436.34	4505.53
436.53	4421.27
436.72	4524.26
436.90	4440.00
437.09	4683.41
437.28	4386.16
437.46	4507.87
437.65	4535.96
437.84	4634.26
438.02	4613.20
438.21	4571.07
438.40	4568.73
438.58	4737.24
438.77	4781.71
438.96	4657.67
439.14	4777.03
439.33	4809.80
439.52	4938.53
439.70	5046.20
439.89	5029.81
440.08	5167.90
440.26	4924.49
440.45	4975.98
440.63	4999.38
440.82	5053.22
441.01	5076.62
441.19	5198.33
441.38	5282.59
441.57	5144.50
441.75	5423.02
441.94	5313.02
442.12	5263.86
442.31	5446.43
442.50	5500.26
442.68	5526.00
442.87	5418.34
443.05	5434.72
443.24	5526.00
443.43	5521.32
443.61	5497.92
443.80	5502.60
443.98	5479.19
444.17	5200.67
444.35	5521.32
444.54	5713.25
444.73	5678.14
444.91	5652.39
445.10	5652.39
445.28	5750.70
445.47	5528.35
445.65	5636.01
445.84	5776.44
446.02	5825.59
446.21	5774.10
446.39	5722.61
446.58	5867.72
446.77	5898.15
446.95	5570.48
447.14	5731.97
447.32	5961.34
447.51	5720.27
447.69	5715.59
447.88	5813.89
448.06	5717.93
448.25	5753.04
448.43	5734.31
448.62	5713.25
448.80	5844.32
448.99	5760.06
449.17	6026.88
449.36	5898.15
449.54	6071.35
449.73	6064.33
449.91	6045.60
450.10	6097.10
450.28	6029.22
450.46	6300.72
450.65	6026.88
450.83	6221.14
451.02	6045.60
451.20	6188.38
451.39	6162.63
451.57	6253.91
451.76	6289.02
451.94	6183.70
452.13	6338.17
452.31	6424.77
452.49	6076.03
452.68	6333.49
452.86	6340.51
453.05	6134.54
453.23	6408.39
453.42	6422.43
453.60	6399.02
453.78	6420.09
453.97	6366.26
454.15	6469.24
454.34	6502.01
454.52	6546.48
454.70	6651.80
454.89	6539.46
455.07	6520.73
455.26	6555.84
455.44	6787.55
455.62	6574.56
455.81	6633.08
455.99	6780.53
456.17	6892.88
456.36	6932.67
456.54	6654.14
456.73	6913.94
456.91	7096.50
457.09	6984.16
457.28	7080.12
457.46	6946.71
457.64	6787.55
457.83	7033.31
458.01	6951.39
458.19	7213.53
458.38	7131.61
458.56	7192.47
458.74	7288.43
458.93	7232.26
459.11	7213.53
459.29	7183.10
459.48	7302.47
459.66	7089.48
459.84	7274.38
460.03	7428.86
460.21	7344.60
460.39	7372.69
460.57	7337.58
460.76	7400.77
460.94	7370.35
461.12	7492.05
461.31	7424.18
461.49	7332.90
461.67	7473.33
461.85	7686.32
462.04	7524.82
462.22	8081.87
462.40	7742.49
462.59	7634.83
462.77	7695.68
462.95	7651.21
463.13	7702.70
463.32	7871.22
463.50	7817.39
463.68	7906.33
463.86	7894.63
464.05	7847.82
464.23	8070.17
464.41	8032.72
464.59	7967.18
464.78	8058.46
464.96	8030.38
465.14	7978.89
465.32	8093.57
465.50	7995.27
465.69	8241.03
465.87	8079.53
466.05	8149.75
466.23	7948.46
466.41	8301.88
466.60	8301.88
466.78	8074.85
466.96	8203.58
467.14	8152.09
467.32	8194.22
467.51	8341.67
467.69	8205.92
467.87	8475.08
468.05	8449.33
468.23	8374.44
468.41	8187.19
468.60	8559.34
468.78	8592.11
468.96	8283.16
469.14	8547.64
469.32	8788.71
469.50	8421.25
469.69	8821.48
469.87	8894.04
470.05	8690.41
470.23	8877.65
470.41	8793.39
470.59	8765.31
470.77	8697.43
470.95	8737.22
471.14	8968.93
471.32	8814.46
471.50	9043.83
471.68	9067.24
471.86	9111.71
472.04	9022.77
472.22	9322.35
472.40	9371.50
472.58	9146.81
472.77	9376.19
472.95	9390.23
473.13	9727.27
473.31	9413.63
473.49	9305.97
473.67	9385.55
473.85	9399.59
474.03	9624.28
474.21	9638.33
474.39	9748.33
474.57	9863.02
474.75	9963.66
474.93	10104.09
475.12	9844.29
475.30	10005.79
475.48	9973.02
475.66	9933.23
475.84	10022.17
476.02	10209.42
476.20	10040.90
476.38	10375.59
476.56	10656.46
476.74	10649.44
476.92	10530.07
477.10	10469.22
477.28	10698.59
477.46	10647.10
477.64	10717.31
477.82	11103.50
478.00	11169.04
478.18	10932.64
478.36	11391.39
478.54	11393.73
478.72	11295.43
478.90	11372.66
479.08	11740.13
479.26	11653.53
479.44	11613.74
479.62	11889.92
479.80	12018.65
479.98	12229.30
480.16	12142.70
480.34	12072.48
480.52	12351.01
480.70	12180.15
480.88	12297.17
481.06	12320.58
481.24	12416.54
481.41	12615.49
481.59	12894.01
481.77	12746.56
481.95	13025.08
482.13	13090.62
482.31	13004.02
482.49	13362.12
482.67	13151.47
482.85	13392.55
483.03	13720.22
483.21	13776.39
483.39	13940.23
483.57	13841.93
483.74	13781.07
483.92	14270.25
484.10	14031.51
484.28	14251.52
484.46	14471.53
484.64	14862.40
484.82	14431.74
485.00	14656.43
485.18	14920.92
485.35	15007.52
485.53	14817.93
485.71	14953.68
485.89	15548.18
486.07	15571.58
486.25	15475.62
486.43	15555.20
486.61	15740.10
486.78	16116.93
486.96	15932.03
487.14	16208.21
487.32	16191.83
487.50	16390.77
487.68	16435.24
487.85	16414.18
488.03	16830.79
488.21	17048.46
488.39	17118.68
488.57	17055.48
488.75	17043.78
488.92	17334.01
489.10	17516.57
489.28	17605.51
489.46	17806.80
489.64	17703.81
489.81	18148.51
489.99	18396.61
490.17	18307.67
490.35	18391.93
490.53	18485.55
490.70	18902.17
490.88	18658.75
491.06	19061.32
491.24	18927.91
491.41	19033.24
491.59	19066.00
491.77	18998.13
491.95	19332.82
492.13	19688.59
492.30	19566.88
492.48	19857.10
492.66	19730.72
492.84	20009.24
493.01	20091.16
493.19	19922.64
493.37	20723.10
493.54	20329.89
493.72	20556.93
493.90	20676.29
494.08	21128.02
494.25	20900.98
494.43	20966.52
494.61	21181.85
494.79	21333.98
494.96	21310.58
495.14	21556.33
495.32	21766.98
495.49	21797.41
495.67	21891.03
495.85	21869.97
496.02	22176.58
496.20	22361.48
496.38	22389.56
496.55	22354.46
496.73	23026.19
496.91	22398.93
497.09	22761.71
497.26	22916.19
497.44	22864.69
497.62	22963.00
497.79	23342.16
497.97	23426.42
498.14	23756.44
498.32	23707.29
498.50	23981.13
498.67	23557.49
498.85	24086.45
499.03	24032.62
499.20	23969.43
499.38	24252.63
499.56	24493.71
499.73	24355.61
499.91	24474.98
500.08	25043.73
500.26	24432.85
500.44	24924.36
500.61	24758.19
500.79	24814.36
500.97	24994.58
501.14	25268.42
501.32	25057.78
501.49	25509.50
501.67	25303.53
501.84	25287.15
502.02	25696.74
502.20	25982.29
502.37	25556.31
502.55	25795.04
502.72	25907.39
502.90	26010.37
503.07	25717.81
503.25	26410.60
503.43	26218.68
503.60	26480.82
503.78	26403.58
503.95	26403.58
504.13	26705.51
504.30	26508.91
504.48	26548.70
504.65	26574.44
504.83	26834.24
505.01	27000.42
505.18	27248.52
505.36	27218.09
505.53	27028.51
505.71	27253.20
505.88	27580.87
506.06	27374.91
506.23	27950.68
506.41	27335.12
506.58	27805.56
506.76	28130.90
506.93	27693.22
507.11	27981.10
507.28	28196.43
507.46	28421.13
507.63	28669.22
507.81	28549.85
507.98	28563.90
508.16	28254.95
508.33	28528.79
508.50	28868.17
508.68	28629.43
508.85	29120.95
509.03	28973.49
509.20	29039.03
509.38	29638.20
509.55	29118.60
509.73	29003.92
509.90	29743.53
510.08	29441.60
510.25	29567.99
510.42	30082.91
510.60	29584.37
510.77	29930.77
510.95	29982.26
511.12	29961.20
511.30	30487.82
511.47	30223.34
511.64	29991.62
511.82	30522.93
511.99	30366.11
512.17	30616.55
512.34	30602.50
512.51	30962.95
512.69	30925.50
512.86	30852.94
513.04	31171.25
513.21	31117.42
513.38	30745.28
513.56	31033.16
513.73	30824.86
513.90	31417.01
514.08	31288.28
514.25	31346.79
514.43	31278.92
514.60	31861.71
514.77	31438.08
514.95	31763.41
515.12	31405.31
515.29	31658.09
515.47	31899.16
515.64	32173.00
515.81	32023.21
515.99	32147.26
516.16	32374.29
516.33	32257.26
516.51	32470.25
516.68	32336.84
516.85	32409.40
517.03	32804.95
517.20	32959.42
517.37	32514.72
517.54	33200.50
517.72	32851.76
517.89	33134.96
518.06	32982.83
518.24	32692.60
518.41	33020.28
518.58	33160.71
518.75	33141.99
518.93	33411.15
519.10	33221.56
519.27	33656.90
519.45	33354.97
519.62	34117.99
519.79	33560.94
519.96	33795.00
520.14	33722.44
520.31	33708.40
520.48	34085.22
520.65	33979.90
520.83	34237.36
521.00	34384.81
521.17	34127.35
521.34	34419.92
521.52	34305.23
521.69	34572.05
521.86	34958.24
522.03	34815.47
522.20	35035.48
522.38	35019.10
522.55	34998.03
522.72	35232.08
522.89	35498.91
523.07	35557.42
523.24	35496.56
523.41	35335.07
523.58	35012.07
523.75	35629.98
523.92	35208.68
524.10	35735.30
524.27	35658.06
524.44	35681.47
524.61	36095.74
524.78	35426.35
524.96	35803.17
525.13	35847.64
525.30	36210.43
525.47	36170.64
525.64	36208.09
525.81	36371.92
525.98	36407.03
526.16	35885.09
526.33	35978.72
526.50	36706.62
526.67	36432.78
526.84	36690.24
527.01	36531.08
527.18	36245.54
527.36	36751.09
527.53	36994.51
527.70	37139.62
527.87	37256.65
528.04	36676.19
528.21	36837.69
528.38	37263.67
528.55	37277.71
528.72	37062.38
528.89	36662.15
529.07	37450.91
529.24	37186.43
529.41	37771.57
529.58	37207.50
529.75	37691.99
529.92	37553.90
530.09	37731.78
530.26	37591.34
530.43	38052.43
530.60	37656.88
530.77	37565.60
530.94	37680.28
531.11	38117.96
531.28	37851.14
531.46	37998.60
531.63	38157.75
531.80	38078.18
531.97	38164.78
532.14	38150.73
532.31	38078.18
532.48	38539.26
532.65	38384.79
532.82	38602.46
532.99	38684.37
533.16	38520.54
533.33	38508.83
533.50	38801.40
533.67	38457.34
533.84	38422.23
534.01	38946.51
534.18	38745.23
534.35	39566.76
534.52	39058.86
534.69	39634.63
534.86	39737.62
535.03	39304.62
535.20	39302.28
535.37	39466.11
535.54	39683.78
535.71	39718.89
535.88	39651.02
536.05	39791.45
536.22	39952.94
536.38	39821.87
536.55	39641.65
536.72	39875.71
536.89	39758.68
537.06	39718.89
537.23	40275.94
537.40	39470.79
537.57	39819.53
537.74	39723.57
537.91	40472.54
538.08	40308.71
538.25	39964.65
538.42	40439.78
538.59	40502.97
538.75	40418.71
538.92	40261.90
539.09	40800.22
539.26	40528.72
539.43	40364.88
539.60	40645.74
539.77	40687.87
539.94	41134.92
540.11	40545.10
540.28	40947.67
540.44	40875.12
540.61	40748.73
540.78	40353.18
540.95	40903.20
541.12	40945.33
541.29	40870.43
541.46	40844.69
541.62	41275.35
541.79	41120.87
541.96	40982.78
542.13	40320.41
542.30	40725.32
542.47	41436.84
542.63	41570.25
542.80	41228.54
542.97	41282.37
543.14	41811.33
543.31	41298.75
543.48	41771.54
543.64	42321.57
543.81	42445.62
543.98	42293.48
544.15	41766.86
544.32	42319.23
544.48	42043.04
544.65	42377.74
544.82	42572.00
544.99	41610.04
545.16	42052.41
545.32	41961.12
545.49	42674.99
545.66	42579.03
545.83	42319.23
546.00	42567.32
546.16	42885.64
546.33	42314.55
546.50	42232.63
546.67	42616.47
546.83	42199.86
547.00	42590.73
547.17	42913.72
547.34	42904.36
547.50	42887.98
547.67	43178.20
547.84	42983.94
548.00	42939.47
548.17	43283.53
548.34	42876.27
548.51	43672.06
548.67	43328.00
548.84	43496.52
549.01	43138.41
549.18	42876.27
549.34	43208.63
549.51	43562.05
549.68	43564.39
549.84	43615.88
550.01	43302.25
550.18	43349.06
550.34	43592.48
550.51	43491.83
550.68	44039.52
550.84	43753.97
551.01	44170.59
551.18	43313.95
551.34	43732.91
551.51	43854.62
551.68	43885.04
551.84	43791.42
552.01	43777.38
552.18	43613.54
552.34	44102.71
552.51	44011.43
552.68	43941.22
552.84	43962.28
553.01	44402.30
553.18	44079.31
553.34	44053.56
553.51	44332.09
553.67	44477.20
553.84	44507.63
554.01	44023.14
554.17	44229.10
554.34	44699.55
554.51	44217.40
554.67	44837.64
554.84	44727.64
555.00	44584.86
555.17	44559.12
555.33	44783.81
555.50	44664.44
555.67	44484.22
555.83	44959.35
556.00	44830.62
556.16	45275.32
556.33	44552.10
556.50	45038.93
556.66	45102.12
556.83	44456.14
556.99	45272.98
557.16	45291.71
557.32	44957.01
557.49	45207.45
557.65	45088.08
557.82	45385.33
557.98	44769.77
558.15	45113.83
558.32	45275.32
558.48	45242.56
558.65	45195.74
558.81	45462.57
558.98	44975.73
559.14	45434.48
559.31	45492.99
559.47	44879.77
559.64	45289.37
559.80	45628.74
559.97	45530.44
560.13	45500.01
560.30	45607.68
560.46	45834.71
560.63	45272.98
560.79	45858.12
560.96	45792.58
561.12	45797.26
561.29	45551.51
561.45	46017.27
561.61	45415.76
561.78	45397.03
561.94	45804.28
562.11	45413.41
562.27	45556.19
562.44	46005.57
562.60	45869.82
562.77	45949.40
562.93	45462.57
563.10	45998.55
563.26	45684.92
563.42	46417.50
563.59	45462.57
563.75	45757.47
563.92	46178.77
564.08	45961.10
564.24	46141.32
564.41	46024.29
564.57	45872.16
564.74	45893.22
564.90	45497.67
565.07	46106.21
565.23	45865.14
565.39	45799.60
565.56	46192.81
565.72	45780.88
565.88	46209.20
566.05	46146.00
566.21	46419.84
566.38	46192.81
566.54	46567.30
566.70	46447.93
566.87	46110.89
567.03	46050.04
567.19	46401.12
567.36	46267.71
567.52	46265.37
567.68	46789.65
567.85	46569.64
568.01	46380.06
568.17	46344.95
568.34	46703.05
568.50	46653.90
568.66	46370.69
568.83	46539.21
568.99	46417.50
569.15	46567.30
569.32	46204.52
569.48	46586.02
569.64	46653.90
569.81	46520.49
569.97	46525.17
570.13	46649.22
570.30	46485.38
570.46	46333.24
570.62	46607.09
570.78	46890.29
570.95	47201.58
571.11	46894.97
571.27	46611.77
571.43	46824.76
571.60	46665.60
571.76	46555.60
571.92	46473.68
572.09	46429.21
572.25	46665.60
572.41	46689.01
572.57	47150.09
572.74	47124.35
572.90	46658.58
573.06	46569.64
573.22	47033.07
573.38	47171.16
573.55	47077.54
573.71	47105.62
573.87	46803.69
574.03	46660.92
574.20	47192.22
574.36	46564.96
574.52	47014.34
574.68	46841.14
574.84	47047.11
575.01	46841.14
575.17	46969.87
575.33	46894.97
575.49	47014.34
575.65	47054.13
575.82	47194.56
575.98	46948.81
576.14	47290.52
576.30	47255.42
576.46	47098.60
576.62	46553.26
576.79	47033.07
576.95	46972.21
577.11	46707.73
577.27	47035.41
577.43	46995.62
577.59	47112.64
577.75	47002.64
577.92	46674.96
578.08	47030.72
578.24	47232.01
578.40	47086.90
578.56	47327.97
578.72	47370.10
578.88	47416.91
579.04	47386.49
579.21	47267.12
579.37	47215.63
579.53	47203.92
579.69	47100.94
579.85	46806.03
580.01	47236.69
580.17	47171.16
580.33	47519.90
580.49	47274.14
580.65	47391.17
580.82	47084.56
580.98	47098.60
581.14	47337.33
581.30	47281.16
581.46	47227.33
581.62	47435.64
581.78	46777.95
581.94	47409.89
582.10	47133.71
582.26	47707.14
582.42	47236.69
582.58	47199.24
582.74	47393.51
582.90	47098.60
583.06	47559.69
583.22	47168.82
583.38	46953.49
583.54	47667.35
583.70	47267.12
583.86	47281.16
584.02	47126.69
584.18	47344.36
584.34	47440.32
584.50	47363.08
584.66	47180.52
584.82	47861.61
584.98	47583.09
585.14	47180.52
585.30	47566.71
585.46	47566.71
585.62	47327.97
585.78	47468.40
585.94	47267.12
586.10	47124.35
586.26	47515.22
586.42	47110.30
586.58	47594.79
586.74	47171.16
586.90	47192.22
587.06	47440.32
587.22	47320.95
587.38	47309.25
587.54	48009.07
587.70	47419.25
587.86	47732.89
588.02	47487.13
588.18	47295.21
588.34	47655.65
588.49	47196.90
588.65	47594.79
588.81	47246.05
588.97	47648.63
589.13	47117.32
589.29	47655.65
589.45	47632.24
589.61	47896.72
589.77	47515.22
589.93	47557.35
590.08	47505.85
