SpectraSuite Data File
++++++++++++++++++++++++++++++++++++
Date: Fri Oct 25 11:23:53 EDT 2013
User: price-jones
Dark Spectrum Present: No
Reference Spectrum Present: No
Number of Sampled Component Spectra: 1
Spectrometers: USB2+H05261
Integration Time (usec): 100000 (USB2+H05261)
Spectra Averaged: 1 (USB2+H05261)
Boxcar Smoothing: 0 (USB2+H05261)
Correct for Electrical Dark: No (USB2+H05261)
Strobe/Lamp Enabled: No (USB2+H05261)
Correct for Detector Non-linearity: No (USB2+H05261)
Correct for Stray Light: No (USB2+H05261)
Number of Pixels in Processed Spectrum: 2048
>>>>>Begin Processed Spectral Data<<<<<
365.73	255.12
365.92	255.12
366.12	255.12
366.32	173.20
366.52	159.16
366.72	215.33
366.91	88.94
367.11	117.03
367.31	95.96
367.51	93.62
367.70	124.05
367.90	131.07
368.10	145.11
368.30	140.43
368.49	98.30
368.69	112.35
368.89	173.20
369.09	138.09
369.28	182.56
369.48	147.45
369.68	154.48
369.87	131.07
370.07	224.69
370.27	255.12
370.47	285.55
370.66	528.96
370.86	585.13
371.06	629.60
371.25	674.07
371.45	692.80
371.65	664.71
371.84	631.94
372.04	669.39
372.24	748.97
372.44	662.37
372.63	723.23
372.83	755.99
373.03	664.71
373.22	770.04
373.42	837.91
373.62	709.18
373.81	734.93
374.01	812.17
374.21	767.70
374.40	805.14
374.60	880.04
374.79	784.08
374.99	819.19
375.19	812.17
375.38	873.02
375.58	814.51
375.78	891.74
375.97	786.42
376.17	880.04
376.37	875.36
376.56	884.72
376.76	924.51
376.95	830.89
377.15	933.87
377.35	964.30
377.54	903.45
377.74	880.04
377.93	821.53
378.13	976.00
378.33	985.37
378.52	915.15
378.72	961.96
378.91	912.81
379.11	887.06
379.31	901.11
379.50	898.77
379.70	957.28
379.89	959.62
380.09	961.96
380.28	1041.54
380.48	1015.79
380.68	980.68
380.87	1043.88
381.07	1015.79
381.26	973.66
381.46	1008.77
381.65	1064.94
381.85	1036.86
382.04	1130.48
382.24	1102.39
382.43	1142.18
382.63	1006.43
382.83	1104.73
383.02	1114.10
383.22	1076.65
383.41	1050.90
383.61	1123.46
383.80	1203.04
384.00	1132.82
384.19	1118.78
384.39	1212.40
384.58	1153.88
384.78	1102.39
384.97	1242.82
385.17	1158.57
385.36	1130.48
385.56	1104.73
385.75	1170.27
385.95	1142.18
386.14	1205.38
386.34	1186.65
386.53	1210.06
386.72	1158.57
386.92	1109.41
387.11	1280.27
387.31	1235.80
387.50	1294.32
387.70	1334.11
387.89	1294.32
388.09	1299.00
388.28	1308.36
388.48	1240.48
388.67	1296.66
388.86	1287.29
389.06	1320.06
389.25	1380.92
389.45	1345.81
389.64	1390.28
389.84	1359.85
390.03	1385.60
390.22	1394.96
390.42	1348.15
390.61	1371.55
390.81	1460.49
391.00	1392.62
391.19	1444.11
391.39	1504.96
391.58	1425.39
391.78	1423.05
391.97	1561.14
392.16	1371.55
392.36	1551.78
392.55	1607.95
392.75	1476.88
392.94	1526.03
393.13	1437.09
393.33	1514.33
393.52	1554.12
393.71	1631.35
393.91	1607.95
394.10	1645.40
394.29	1575.18
394.49	1556.46
394.68	1579.86
394.88	1619.65
395.07	1699.23
395.26	1647.74
395.46	1701.57
395.65	1633.69
395.84	1678.16
396.04	1743.70
396.23	1776.47
396.42	1867.75
396.62	1795.19
396.81	1870.09
397.00	1818.60
397.19	1788.17
397.39	1785.83
397.58	1823.28
397.77	1783.49
397.97	1842.00
398.16	1923.92
398.35	1874.77
398.55	1844.34
398.74	1867.75
398.93	1989.46
399.12	1977.75
399.32	1872.43
399.51	1881.79
399.70	2031.58
399.90	2029.24
400.09	1940.30
400.28	2111.16
400.47	2094.78
400.67	2157.97
400.86	2031.58
401.05	2092.44
401.24	2083.08
401.44	2169.68
401.63	2181.38
401.82	2118.18
402.01	2085.42
402.21	2078.40
402.40	2237.55
402.59	2312.45
402.78	2239.89
402.97	2181.38
403.17	2193.08
403.36	2146.27
403.55	2347.56
403.74	2303.09
403.93	2310.11
404.13	2434.16
404.32	2298.41
404.51	2466.92
404.70	2492.67
404.89	2396.71
405.09	2485.65
405.28	2518.42
405.47	2464.58
405.66	2452.88
405.85	2424.80
406.05	2513.74
406.24	2562.89
406.43	2581.61
406.62	2644.81
406.81	2663.53
407.00	2562.89
407.20	2595.65
407.39	2560.55
407.58	2675.23
407.77	2745.45
407.96	2747.79
408.15	2792.26
408.34	2649.49
408.54	2878.86
408.73	2834.39
408.92	2726.72
409.11	2829.71
409.30	2878.86
409.49	2871.84
409.68	2853.11
409.87	2871.84
410.07	3033.33
410.26	2944.39
410.45	3019.29
410.64	3005.25
410.83	3082.49
411.02	3152.70
411.21	3246.32
411.40	3201.85
411.59	3272.07
411.78	3239.30
411.98	3276.75
412.17	3325.90
412.36	3365.69
412.55	3412.50
412.74	3304.84
412.93	3471.01
413.12	3494.42
413.31	3487.40
413.50	3557.61
413.69	3541.23
413.88	3602.08
414.07	3529.53
414.26	3595.06
414.45	3667.62
414.64	3679.32
414.83	3740.18
415.02	3796.35
415.22	3894.65
415.41	3852.52
415.60	3927.42
415.79	4117.00
415.98	3920.40
416.17	3976.57
416.36	4065.51
416.55	3873.59
416.74	4074.87
416.93	4070.19
417.12	4021.04
417.31	3997.64
417.50	4058.49
417.69	4388.50
417.88	4292.54
418.07	4285.52
418.26	4280.84
418.45	4304.25
418.64	4348.72
418.83	4482.13
419.02	4454.04
419.21	4629.58
419.39	4571.07
419.58	4456.38
419.77	4463.40
419.96	4676.39
420.15	4706.82
420.34	4557.02
420.53	4603.83
420.72	4620.22
420.91	4699.80
421.10	4887.04
421.29	4718.52
421.48	4755.97
421.67	4767.67
421.86	4863.63
422.05	4828.53
422.24	4807.46
422.43	4837.89
422.61	4898.74
422.80	5036.83
422.99	4938.53
423.18	5139.82
423.37	4938.53
423.56	4926.83
423.75	4784.06
423.94	4788.74
424.13	4692.77
424.32	4800.44
424.50	5083.64
424.69	5144.50
424.88	5123.43
425.07	4957.25
425.26	4978.32
425.45	4903.42
425.64	4882.36
425.83	4919.81
426.01	5048.54
426.20	5104.71
426.39	4926.83
426.58	5027.47
426.77	5128.11
426.96	5198.33
427.15	5008.75
427.33	5128.11
427.52	5238.12
427.71	5238.12
427.90	5301.31
428.09	5444.09
428.28	5308.34
428.46	5540.05
428.65	5359.83
428.84	5682.82
429.03	5610.26
429.22	5270.89
429.40	5329.40
429.59	5572.82
429.78	5287.27
429.97	5329.40
430.16	5523.66
430.34	5643.03
430.53	5659.42
430.72	5579.84
430.91	5631.33
431.10	5750.70
431.28	5731.97
431.47	5874.74
431.66	5973.05
431.85	5659.42
432.03	5881.77
432.22	6031.56
432.41	5837.30
432.60	5865.38
432.79	6008.16
432.97	5881.77
433.16	6153.27
433.35	6047.94
433.54	6244.55
433.72	6284.34
433.91	6111.14
434.10	6162.63
434.28	6097.10
434.47	6162.63
434.66	6263.27
434.85	6483.28
435.03	6408.39
435.22	6289.02
435.41	6499.67
435.59	6520.73
435.78	6530.09
435.97	6324.13
436.16	6466.90
436.34	6548.82
436.53	6520.73
436.72	6502.01
436.90	6504.35
437.09	6707.98
437.28	6576.91
437.46	6752.45
437.65	6555.84
437.84	6668.19
438.02	6710.32
438.21	6888.20
438.40	6785.21
438.58	7101.19
438.77	7112.89
438.96	6874.15
439.14	7342.26
439.33	7300.13
439.52	7138.63
439.70	7143.32
439.89	7403.11
440.08	7510.78
440.26	7375.03
440.45	7559.93
440.63	7417.16
440.82	7569.29
441.01	7463.97
441.19	7885.26
441.38	7758.88
441.57	7681.64
441.75	7847.82
441.94	7927.39
442.12	7957.82
442.31	7913.35
442.50	8229.32
442.68	7918.03
442.87	8102.93
443.05	8004.63
443.24	8189.53
443.43	8154.43
443.61	8280.82
443.80	8386.14
443.98	8088.89
444.17	7847.82
444.35	8313.58
444.54	8470.40
444.73	8299.54
444.91	8496.14
445.10	8386.14
445.28	8301.88
445.47	8102.93
445.65	8379.12
445.84	8657.64
446.02	8592.11
446.21	8454.02
446.39	8463.38
446.58	8500.83
446.77	8519.55
446.95	8264.43
447.14	8587.43
447.32	8688.07
447.51	8482.10
447.69	8538.27
447.88	8755.94
448.06	8486.78
448.25	8692.75
448.43	8842.54
448.62	8578.06
448.80	8517.21
448.99	8821.48
449.17	8706.79
449.36	8552.32
449.54	8816.80
449.73	9034.47
449.91	9064.89
450.10	9011.06
450.28	9008.72
450.46	8973.61
450.65	9144.47
450.83	9071.92
451.02	9149.15
451.20	9366.82
451.39	9303.63
451.57	9312.99
451.76	9071.92
451.94	9034.47
452.13	9355.12
452.31	9364.48
452.49	9268.52
452.68	9320.01
452.86	9404.27
453.05	9441.72
453.23	9521.30
453.42	9376.19
453.60	9369.16
453.78	9619.60
453.97	9568.11
454.15	9467.47
454.34	9392.57
454.52	9729.61
454.70	9741.31
454.89	9853.66
455.07	9860.68
455.26	10003.45
455.44	10281.97
455.62	9954.30
455.81	9818.55
455.99	10200.05
456.17	10026.86
456.36	10064.30
456.54	10059.62
456.73	10068.98
456.91	10523.05
457.09	10424.75
457.28	10635.39
457.46	10265.59
457.64	10614.33
457.83	10523.05
458.01	10626.03
458.19	10766.46
458.38	10572.20
458.56	10719.65
458.74	10649.44
458.93	10846.04
459.11	10796.89
459.29	10719.65
459.48	10810.93
459.66	10752.42
459.84	11080.10
460.03	10860.09
460.21	10977.11
460.39	11218.19
460.57	10904.56
460.76	11232.23
460.94	11108.18
461.12	11157.33
461.31	11328.19
461.49	11019.24
461.67	11269.68
461.85	11564.59
462.04	11346.92
462.22	11705.02
462.40	11585.65
462.59	11627.78
462.77	11538.84
462.95	11906.31
463.13	11641.82
463.32	11765.87
463.50	11763.53
463.68	11751.83
463.86	11894.60
464.05	11836.09
464.23	11822.05
464.41	11908.65
464.59	11676.93
464.78	12133.34
464.96	12128.66
465.14	12201.21
465.32	12259.73
465.50	12187.17
465.69	12599.10
465.87	12168.45
466.05	12098.23
466.23	12248.02
466.41	12133.34
466.60	12482.08
466.78	12325.26
466.96	12278.45
467.14	12381.43
467.32	12343.99
467.51	12456.33
467.69	12226.96
467.87	12531.23
468.05	12552.29
468.23	12596.76
468.41	12402.50
468.60	12784.01
468.78	12840.18
468.96	12741.88
469.14	12814.43
469.32	13004.02
469.50	12510.16
469.69	12905.71
469.87	13069.55
470.05	13238.07
470.23	13329.35
470.41	13202.96
470.59	13256.79
470.77	13455.74
470.95	13362.12
471.14	13523.62
471.32	13008.70
471.50	13748.31
471.68	13750.65
471.86	13781.07
472.04	13757.67
472.22	14155.56
472.40	13774.05
472.58	14242.16
472.77	13902.78
472.95	14319.40
473.13	14621.33
473.31	14047.90
473.49	14455.15
473.67	14080.66
473.85	14319.40
474.03	14698.56
474.21	14658.78
474.39	15047.30
474.57	14609.62
474.75	15047.30
474.93	15000.49
475.12	15204.12
475.30	15103.48
475.48	15061.35
475.66	15110.50
475.84	15236.89
476.02	15578.61
476.20	15461.58
476.38	15655.84
476.56	16037.35
476.74	16058.42
476.92	15936.71
477.10	15892.24
477.28	16231.62
477.46	16262.04
477.64	16521.84
477.82	16601.42
478.00	17050.80
478.18	16713.77
478.36	17048.46
478.54	17231.02
478.72	17270.81
478.90	17507.21
479.08	17577.42
479.26	17879.35
479.44	17860.63
479.62	17977.65
479.80	18391.93
479.98	18204.69
480.16	18551.09
480.34	18609.60
480.52	18548.75
480.70	18558.11
480.88	18459.81
481.06	18869.40
481.24	18991.11
481.41	19016.85
481.59	19536.45
481.77	19674.54
481.95	19737.74
482.13	19950.73
482.31	19770.51
482.49	20217.55
482.67	20053.71
482.85	20226.91
483.03	20671.61
483.21	20795.66
483.39	21135.04
483.57	21296.53
483.74	20746.51
483.92	21401.86
484.10	21317.60
484.28	21944.86
484.46	22066.57
484.64	22670.43
484.82	22092.32
485.00	22492.55
485.18	23051.94
485.35	23047.26
485.53	22970.02
485.71	23314.08
485.89	23527.06
486.07	23632.39
486.25	23449.83
486.43	23683.88
486.61	24121.56
486.78	24044.32
486.96	24018.58
487.14	24882.24
487.32	24629.46
487.50	25151.40
487.68	25055.43
487.85	25371.41
488.03	25532.90
488.21	26019.74
488.39	25759.94
488.57	26094.63
488.75	26438.69
488.92	26452.73
489.10	26757.00
489.28	27108.08
489.46	27470.87
489.64	27168.94
489.81	27536.40
489.99	28039.62
490.17	28025.57
490.35	28327.50
490.53	28170.69
490.70	28360.27
490.88	28334.53
491.06	28493.68
491.24	28957.11
491.41	29167.76
491.59	29486.07
491.77	29467.34
491.95	29600.76
492.13	29888.64
492.30	30171.85
492.48	30094.61
492.66	30352.07
492.84	30834.22
493.01	30979.33
493.19	30398.88
493.37	31152.53
493.54	31267.22
493.72	31634.68
493.90	31658.09
494.08	32011.51
494.25	32048.96
494.43	32158.96
494.61	32477.27
494.79	32477.27
494.96	32655.15
495.14	32769.84
495.32	33001.55
495.49	33738.82
495.67	33401.79
495.85	33626.48
496.02	33752.87
496.20	34174.16
496.38	34064.16
496.55	34134.37
496.73	35030.80
496.91	34597.80
497.09	34855.26
497.26	34883.34
497.44	35143.14
497.62	35211.02
497.79	35985.74
497.97	35798.49
498.14	36191.70
498.32	36442.14
498.50	36404.69
498.67	36535.76
498.85	36690.24
499.03	36692.58
499.20	36531.08
499.38	37074.09
499.56	37305.80
499.73	36921.95
499.91	37336.23
500.08	37684.97
500.26	37514.11
500.44	37518.79
500.61	38124.99
500.79	37757.52
500.97	38525.22
501.14	39054.18
501.32	38602.46
501.49	38934.81
501.67	39115.03
501.84	38895.02
502.02	39285.89
502.20	39433.35
502.37	39356.11
502.55	39587.82
502.72	39601.86
502.90	39695.49
503.07	39983.37
503.25	40140.19
503.43	39880.39
503.60	40435.10
503.78	40755.75
503.95	40889.16
504.13	40659.79
504.30	40910.22
504.48	40804.90
504.65	40842.35
504.83	41202.79
505.01	41497.70
505.18	41563.23
505.36	41258.96
505.53	41249.60
505.71	42059.43
505.88	41942.40
506.06	41645.15
506.23	41858.14
506.41	42557.96
506.58	42579.03
506.76	42366.04
506.93	42422.21
507.11	42469.02
507.28	42923.08
507.46	43173.52
507.63	43089.26
507.81	43477.79
507.98	43236.72
508.16	43117.35
508.33	43634.61
508.50	43498.86
508.68	43690.78
508.85	43887.39
509.03	43810.15
509.20	44245.49
509.38	44500.61
509.55	44870.41
509.73	44680.83
509.90	44978.07
510.08	44849.35
510.25	44809.56
510.42	45006.16
510.60	45202.77
510.77	45205.11
510.95	45783.22
511.12	45137.23
511.30	45593.64
511.47	45832.37
511.64	45684.92
511.82	46195.15
511.99	46115.58
512.17	46251.33
512.34	46153.02
512.51	46337.93
512.69	46902.00
512.86	46588.36
513.04	46962.85
513.21	47098.60
513.38	46960.51
513.56	47178.18
513.73	46939.44
513.90	46862.21
514.08	47332.65
514.25	47187.54
514.43	47882.68
514.60	47409.89
514.77	47655.65
514.95	47512.88
515.12	47814.80
515.29	47707.14
515.47	48046.52
515.64	48212.70
515.81	47913.11
515.99	48449.09
516.16	48741.66
516.33	48608.25
516.51	48790.81
516.68	48783.79
516.85	48823.58
517.03	49113.80
517.20	49181.68
517.37	48975.71
517.54	49305.73
517.72	49184.02
517.89	49209.76
518.06	49434.45
518.24	49635.74
518.41	49308.07
518.58	49485.95
518.75	49530.42
518.93	49736.38
519.10	49523.40
519.27	49867.45
519.45	49911.92
519.62	50131.93
519.79	50258.32
519.96	49815.96
520.14	50258.32
520.31	50468.97
520.48	50761.54
520.65	50955.80
520.83	50869.20
521.00	50768.56
521.17	50864.52
521.34	50693.66
521.52	51175.81
521.69	50878.57
521.86	51203.90
522.03	51330.29
522.20	51517.53
522.38	51412.21
522.55	51437.95
522.72	51672.01
522.89	51442.63
523.07	52039.47
523.24	51835.84
523.41	51819.46
523.58	51627.54
523.75	51950.53
523.92	51927.13
524.10	52413.96
524.27	52334.38
524.44	52369.49
524.61	52240.76
524.78	52102.67
524.96	52308.63
525.13	52498.22
525.30	52659.71
525.47	52699.50
525.64	52662.05
525.81	52685.46
525.98	52945.26
526.16	52629.29
526.33	52736.95
526.50	53034.20
526.67	52959.30
526.84	53188.67
527.01	52781.42
527.18	53223.78
527.36	53394.64
527.53	53373.58
527.70	53546.78
527.87	53712.95
528.04	53305.70
528.21	53404.00
528.38	53422.73
528.55	53673.16
528.72	53528.05
528.89	53759.76
529.07	53708.27
529.24	53719.98
529.41	54066.38
529.58	53799.55
529.75	53991.48
529.92	53979.78
530.09	53879.13
530.26	53942.33
530.43	54246.60
530.60	53750.40
530.77	54115.53
530.94	54216.17
531.11	54145.95
531.28	54333.20
531.46	54585.97
531.63	54679.60
531.80	54518.10
531.97	54452.56
532.14	54583.63
532.31	54454.90
532.48	54415.11
532.65	54735.77
532.82	54674.91
532.99	54789.60
533.16	54782.58
533.33	54906.63
533.50	55150.04
533.67	55133.66
533.84	54719.38
534.01	54974.50
534.18	55105.57
534.35	55458.99
534.52	55386.44
534.69	55405.16
534.86	55456.65
535.03	55171.11
535.20	55112.59
535.37	55561.98
535.54	55508.14
535.71	55337.29
535.88	55508.14
536.05	55646.24
536.22	55966.89
536.38	55803.05
536.55	55702.41
536.72	55583.04
536.89	55847.52
537.06	55899.01
537.23	55969.23
537.40	55559.64
537.57	55629.85
537.74	55934.12
537.91	56044.13
538.08	56030.08
538.25	55887.31
538.42	56254.78
538.59	56016.04
538.75	55969.23
538.92	56214.99
539.09	56479.47
539.26	56451.38
539.43	56303.93
539.60	56472.45
539.77	56423.29
539.94	56734.59
540.11	56491.17
540.28	56502.87
540.44	56495.85
540.61	56535.64
540.78	56552.02
540.95	56608.20
541.12	56877.36
541.29	56545.00
541.46	56853.95
541.62	56748.63
541.79	56886.72
541.96	56502.87
542.13	56828.21
542.30	56842.25
542.47	57045.88
542.63	56842.25
542.80	56914.81
542.97	57179.29
543.14	57446.11
543.31	57202.69
543.48	57141.84
543.64	57560.79
543.81	57502.28
543.98	57640.37
544.15	57368.87
544.32	57635.69
544.48	57677.82
544.65	57380.57
544.82	57600.58
544.99	57359.51
545.16	57649.74
545.32	57832.30
545.49	57801.87
545.66	57991.45
545.83	57752.72
546.00	57939.96
546.16	57776.12
546.33	57918.90
546.50	57703.57
546.67	57689.52
546.83	57483.56
547.00	57939.96
547.17	57853.36
547.34	58059.33
547.50	58166.99
547.67	58272.32
547.84	58232.53
548.00	58230.19
548.17	58419.77
548.34	58122.52
548.51	58337.85
548.67	58363.60
548.84	58206.78
549.01	58115.50
549.18	58370.62
549.34	58312.11
549.51	58506.37
549.68	58616.38
549.84	58403.39
550.01	58482.97
550.18	58529.78
550.34	58651.48
550.51	58944.05
550.68	58628.08
550.84	58426.79
551.01	58796.60
551.18	58684.25
551.34	58623.40
551.51	58691.27
551.68	58829.37
551.84	58548.50
552.01	58796.60
552.18	58915.96
552.34	58721.70
552.51	58829.37
552.68	58511.05
552.84	58843.41
553.01	59096.19
553.18	59091.51
553.34	58871.49
553.51	58859.79
553.67	58908.94
553.84	59018.95
554.01	59018.95
554.17	59168.74
554.34	59224.92
554.51	59065.76
554.67	59114.91
554.84	59044.69
555.00	59363.01
555.17	59110.23
555.33	59208.53
555.50	59051.72
555.67	59070.44
555.83	59049.38
556.00	59281.09
556.16	59494.08
556.33	59473.01
556.50	59402.80
556.66	59419.18
556.83	59384.07
556.99	59671.96
557.16	59664.94
557.32	59578.34
557.49	59803.03
557.65	59428.54
557.82	59447.27
557.98	59597.06
558.15	59590.04
558.32	59552.59
558.48	59269.39
558.65	59583.02
558.81	59629.83
558.98	59723.45
559.14	59735.15
559.31	59819.41
559.47	59709.41
559.64	59842.82
559.80	59810.05
559.97	60004.31
560.13	59667.28
560.30	59821.75
560.46	59686.00
560.63	59791.33
560.79	59948.14
560.96	59964.52
561.12	60203.26
561.29	60009.00
561.45	60058.15
561.61	59941.12
561.78	59868.56
561.94	59913.03
562.11	59887.29
562.27	60116.66
562.44	60095.60
562.60	60030.06
562.77	60083.89
562.93	59887.29
563.10	60048.78
563.26	59920.05
563.42	60467.74
563.59	60065.17
563.75	60067.51
563.92	60275.82
564.08	60158.79
564.24	60196.24
564.41	60212.62
564.57	60294.54
564.74	60168.15
564.90	60367.10
565.07	60191.56
565.23	60203.26
565.39	60470.08
565.56	60257.09
565.72	60191.56
565.88	60406.89
566.05	60207.94
566.21	60420.93
566.38	60360.08
566.54	60423.27
566.70	60282.84
566.87	60516.89
567.03	60294.54
567.19	60603.49
567.36	60615.19
567.52	60327.31
567.68	60605.83
567.85	60439.65
568.01	60605.83
568.17	60687.75
568.34	60357.74
568.50	60355.39
568.66	60444.33
568.83	60580.09
568.99	60331.99
569.15	60626.90
569.32	60568.38
569.48	60456.04
569.64	60718.18
569.81	60437.31
569.97	60437.31
570.13	60432.63
570.30	60355.39
570.46	60636.26
570.62	60699.45
570.78	60617.53
570.95	60664.35
571.11	60631.58
571.27	60500.51
571.43	60811.80
571.60	60720.52
571.76	60905.42
571.92	60839.89
572.09	60786.05
572.25	60603.49
572.41	60591.79
572.57	60495.83
572.74	60980.32
572.90	60704.13
573.06	60961.59
573.22	60706.47
573.38	60928.83
573.55	60725.20
573.71	61073.94
573.87	60821.16
574.03	60704.13
574.20	60755.63
574.36	60769.67
574.52	60746.26
574.68	60867.97
574.84	60889.04
575.01	60811.80
575.17	60954.57
575.33	60853.93
575.49	60830.52
575.65	60980.32
575.82	60811.80
575.98	61022.45
576.14	61169.90
576.30	61052.87
576.46	60797.76
576.62	60891.38
576.79	60900.74
576.95	60772.01
577.11	60935.85
577.27	60893.72
577.43	60874.99
577.59	60699.45
577.75	61001.38
577.92	60954.57
578.08	60783.71
578.24	61055.21
578.40	61202.67
578.56	61069.26
578.72	60975.64
578.88	61031.81
579.04	61226.07
579.21	61003.72
579.37	61172.24
579.53	61223.73
579.69	60907.76
579.85	61062.24
580.01	60835.20
580.17	60762.65
580.33	61139.47
580.49	60952.23
580.65	60954.57
580.82	60893.72
580.98	60931.17
581.14	60821.16
581.30	61291.61
581.46	60924.14
581.62	61343.10
581.78	60898.40
581.94	61078.62
582.10	60942.87
582.26	61083.30
582.42	61010.74
582.58	60931.17
582.74	61057.56
582.90	61113.73
583.06	61003.72
583.22	61095.00
583.38	61020.11
583.54	61123.09
583.70	61120.75
583.86	61050.53
584.02	60905.42
584.18	61235.44
584.34	61050.53
584.50	61029.47
584.66	60898.40
584.82	60858.61
584.98	61106.71
585.14	61228.41
585.30	61027.13
585.46	61134.79
585.62	61069.26
585.78	61272.88
585.94	61041.17
586.10	61066.92
586.26	61034.15
586.42	61123.09
586.58	61207.35
586.74	61197.99
586.90	61188.63
587.06	61130.11
587.22	61034.15
587.38	61202.67
587.54	61155.86
587.70	61413.32
587.86	61160.54
588.02	61169.90
588.18	61387.57
588.34	61300.97
588.49	61125.43
