SpectraSuite Data File
++++++++++++++++++++++++++++++++++++
Date: Fri Oct 25 10:44:22 EDT 2013
User: price-jones
Dark Spectrum Present: No
Reference Spectrum Present: No
Number of Sampled Component Spectra: 1
Spectrometers: USB2+H05261
Integration Time (usec): 100000 (USB2+H05261)
Spectra Averaged: 1 (USB2+H05261)
Boxcar Smoothing: 0 (USB2+H05261)
Correct for Electrical Dark: No (USB2+H05261)
Strobe/Lamp Enabled: No (USB2+H05261)
Correct for Detector Non-linearity: No (USB2+H05261)
Correct for Stray Light: No (USB2+H05261)
Number of Pixels in Processed Spectrum: 2048
>>>>>Begin Processed Spectral Data<<<<<
365.73	147.45
365.92	147.45
366.12	147.45
366.32	30.43
366.52	49.15
366.72	9.36
366.91	0.00
367.11	18.72
367.31	0.00
367.51	32.77
367.70	0.00
367.90	58.51
368.10	60.85
368.30	51.49
368.49	37.45
368.69	91.28
368.89	32.77
369.09	4.68
369.28	44.47
369.48	0.00
369.68	58.51
369.87	60.85
370.07	91.28
370.27	100.64
370.47	222.35
370.66	397.89
370.86	430.66
371.06	496.19
371.25	465.77
371.45	510.24
371.65	493.85
371.84	461.09
372.04	468.11
372.24	496.19
372.44	538.32
372.63	585.13
372.83	496.19
373.03	414.27
373.22	528.96
373.42	489.17
373.62	517.26
373.81	524.28
374.01	514.92
374.21	643.65
374.40	582.79
374.60	543.00
374.79	589.82
374.99	564.07
375.19	608.54
375.38	627.26
375.58	594.50
375.78	587.47
375.97	660.03
376.17	587.47
376.37	589.82
376.56	650.67
376.76	671.73
376.95	697.48
377.15	711.52
377.35	695.14
377.54	678.76
377.74	664.71
377.93	660.03
378.13	739.61
378.33	697.48
378.52	690.46
378.72	683.44
378.91	709.18
379.11	727.91
379.31	725.57
379.50	627.26
379.70	720.88
379.89	720.88
380.09	702.16
380.28	622.58
380.48	664.71
380.68	660.03
380.87	716.20
381.07	678.76
381.26	772.38
381.46	671.73
381.65	716.20
381.85	692.80
382.04	669.39
382.24	772.38
382.43	767.70
382.63	784.08
382.83	777.06
383.02	706.84
383.22	739.61
383.41	636.63
383.61	711.52
383.80	788.76
384.00	753.65
384.19	798.12
384.39	777.06
384.58	854.30
384.78	894.08
384.97	868.34
385.17	833.23
385.36	873.02
385.56	798.12
385.75	791.10
385.95	835.57
386.14	924.51
386.34	880.04
386.53	830.89
386.72	805.14
386.92	856.64
387.11	896.43
387.31	898.77
387.50	940.90
387.70	847.27
387.89	884.72
388.09	905.79
388.28	884.72
388.48	880.04
388.67	924.51
388.86	950.26
389.06	954.94
389.25	1027.50
389.45	1048.56
389.64	985.37
389.84	990.05
390.03	950.26
390.22	987.71
390.42	985.37
390.61	1104.73
390.81	1043.88
391.00	1034.52
391.19	1060.26
391.39	1095.37
391.58	1046.22
391.78	1029.84
391.97	990.05
392.16	1116.44
392.36	1029.84
392.55	1048.56
392.75	997.07
392.94	1032.18
393.13	1116.44
393.33	1064.94
393.52	1083.67
393.71	1158.57
393.91	1149.20
394.10	1167.93
394.29	1200.69
394.49	1191.33
394.68	1263.89
394.88	1256.87
395.07	1275.59
395.26	1303.68
395.46	1284.95
395.65	1205.38
395.84	1294.32
396.04	1329.42
396.23	1282.61
396.42	1193.67
396.62	1186.65
396.81	1261.55
397.00	1188.99
397.19	1359.85
397.39	1287.29
397.58	1378.58
397.77	1423.05
397.97	1430.07
398.16	1409.00
398.35	1544.75
398.55	1444.11
398.74	1511.99
398.93	1533.05
399.12	1582.20
399.32	1535.39
399.51	1633.69
399.70	1650.08
399.90	1612.63
400.09	1746.04
400.28	1591.56
400.47	1643.06
400.67	1760.08
400.86	1696.89
401.05	1710.93
401.24	1837.32
401.44	1760.08
401.63	1912.22
401.82	1678.16
402.01	1764.76
402.21	1734.34
402.40	1820.94
402.59	1762.42
402.78	1809.23
402.97	1902.86
403.17	1762.42
403.36	1907.54
403.55	1926.26
403.74	1966.05
403.93	1975.41
404.13	1975.41
404.32	1881.79
404.51	1905.20
404.70	2015.20
404.89	1989.46
405.09	2099.46
405.28	1998.82
405.47	1930.94
405.66	2115.84
405.85	2017.54
406.05	1942.64
406.24	2085.42
406.43	2150.95
406.62	2101.80
406.81	2223.51
407.00	2146.27
407.20	2188.40
407.39	2181.38
407.58	2209.47
407.77	2275.00
407.96	2368.62
408.15	2305.43
408.34	2258.62
408.54	2326.49
408.73	2373.30
408.92	2431.82
409.11	2417.77
409.30	2361.60
409.49	2396.71
409.68	2394.37
409.87	2427.14
410.07	2396.71
410.26	2483.31
410.45	2579.27
410.64	2567.57
410.83	2548.84
411.02	2724.38
411.21	2757.15
411.40	2703.32
411.59	2752.47
411.78	2806.30
411.98	2726.72
412.17	2684.59
412.36	2813.32
412.55	2808.64
412.74	2829.71
412.93	2906.95
413.12	2827.37
413.31	3052.06
413.50	2979.50
413.69	3028.65
413.88	2988.86
414.07	3150.36
414.26	3096.53
414.45	3035.67
414.64	2993.55
414.83	3178.45
415.02	3129.30
415.22	3218.24
415.41	3218.24
415.60	3204.19
415.79	3384.41
415.98	3269.73
416.17	3307.18
416.36	3398.46
416.55	3342.28
416.74	3456.97
416.93	3435.91
417.12	3342.28
417.31	3508.46
417.50	3536.55
417.69	3426.54
417.88	3510.80
418.07	3644.21
418.26	3695.71
418.45	3618.47
418.64	3768.26
418.83	3606.77
419.02	3782.31
419.21	3744.86
419.39	3854.86
419.58	3590.38
419.77	3728.47
419.96	3784.65
420.15	3953.16
420.34	3831.46
420.53	3854.86
420.72	3847.84
420.91	3962.53
421.10	3908.69
421.29	4072.53
421.48	3892.31
421.67	3969.55
421.86	3885.29
422.05	3840.82
422.24	3850.18
422.43	4037.42
422.61	4112.32
422.80	4109.98
422.99	4025.72
423.18	4070.19
423.37	4058.49
423.56	4046.79
423.75	4187.22
423.94	3908.69
424.13	3880.61
424.32	3840.82
424.50	4070.19
424.69	4140.41
424.88	4184.88
425.07	4133.39
425.26	3999.98
425.45	3934.44
425.64	4098.28
425.83	4007.00
426.01	4219.99
426.20	4243.39
426.39	4065.51
426.58	4091.26
426.77	4086.58
426.96	4135.73
427.15	4058.49
427.33	4210.62
427.52	4266.80
427.71	4217.65
427.90	4241.05
428.09	4449.36
428.28	4315.95
428.46	4344.03
428.65	4346.37
428.84	4496.17
429.03	4599.15
429.22	4278.50
429.40	4262.12
429.59	4196.58
429.78	4049.13
429.97	3995.29
430.16	4077.21
430.34	4147.43
430.53	4313.61
430.72	4463.40
430.91	4341.69
431.10	4393.19
431.28	4702.14
431.47	4716.18
431.66	4961.94
431.85	4706.82
432.03	4753.63
432.22	4777.03
432.41	4746.61
432.60	4849.59
432.79	4868.31
432.97	4954.91
433.16	4910.44
433.35	4858.95
433.54	4781.71
433.72	4847.25
433.91	4777.03
434.10	4933.85
434.28	4990.02
434.47	4931.51
434.66	5041.51
434.85	5018.11
435.03	5107.05
435.22	5142.16
435.41	5350.46
435.59	5259.18
435.78	5329.40
435.97	5413.66
436.16	5359.83
436.34	5268.55
436.53	5270.89
436.72	5437.06
436.90	5203.01
437.09	5273.23
437.28	5378.55
437.46	5504.94
437.65	5453.45
437.84	5380.89
438.02	5465.15
438.21	5341.10
438.40	5170.24
438.58	5530.69
438.77	5568.13
438.96	5488.56
439.14	5696.86
439.33	5748.36
439.52	5930.92
439.70	5783.46
439.89	5837.30
440.08	5916.87
440.26	5757.72
440.45	5816.23
440.63	6181.35
440.82	6155.61
441.01	6242.21
441.19	6193.06
441.38	6265.61
441.57	6368.60
441.75	6164.97
441.94	6651.80
442.12	6413.07
442.31	6448.18
442.50	6551.16
442.68	6471.58
442.87	6616.69
443.05	6518.39
443.24	6621.38
443.43	6768.83
443.61	6689.25
443.80	7068.42
443.98	6494.99
444.17	6590.95
444.35	6820.32
444.54	6773.51
444.73	6846.07
444.91	6614.35
445.10	6640.10
445.28	6775.85
445.47	6572.22
445.65	6654.14
445.84	6490.31
446.02	6843.73
446.21	6841.39
446.39	6743.08
446.58	6944.37
446.77	6970.12
446.95	6600.31
447.14	6953.73
447.32	7105.87
447.51	6953.73
447.69	6853.09
447.88	7087.14
448.06	6925.65
448.25	7112.89
448.43	6951.39
448.62	6932.67
448.80	6902.24
448.99	7063.74
449.17	7129.27
449.36	7002.88
449.54	7143.32
449.73	7108.21
449.91	7389.07
450.10	7363.33
450.28	7599.72
450.46	7445.24
450.65	7379.71
450.83	7524.82
451.02	7557.59
451.20	7403.11
451.39	7426.52
451.57	7487.37
451.76	7564.61
451.94	7510.78
452.13	7428.86
452.31	7290.77
452.49	7337.58
452.68	7480.35
452.86	7396.09
453.05	7555.25
453.23	7637.17
453.42	7665.25
453.60	7637.17
453.78	7878.24
453.97	7747.17
454.15	7735.47
454.34	7810.37
454.52	7662.91
454.70	7941.44
454.89	7824.41
455.07	7838.45
455.26	8021.02
455.44	7925.05
455.62	7932.08
455.81	8095.91
455.99	8044.42
456.17	8301.88
456.36	8095.91
456.54	8262.09
456.73	8187.19
456.91	8332.31
457.09	8545.30
457.28	8521.89
457.46	8329.97
457.64	8461.04
457.83	8435.29
458.01	8292.52
458.19	8505.51
458.38	8374.44
458.56	8348.69
458.74	8664.66
458.93	8547.64
459.11	8678.71
459.29	8585.08
459.48	8655.30
459.66	8535.93
459.84	8629.56
460.03	8798.07
460.21	8966.59
460.39	8786.37
460.57	8772.33
460.76	8746.58
460.94	8954.89
461.12	8908.08
461.31	8936.17
461.49	8985.32
461.67	8957.23
461.85	9179.58
462.04	9078.94
462.22	9144.47
462.40	9158.52
462.59	9195.96
462.77	9231.07
462.95	9516.62
463.13	9214.69
463.32	9174.90
463.50	9434.70
463.68	9392.57
463.86	9336.40
464.05	9315.33
464.23	9252.14
464.41	9474.49
464.59	9170.22
464.78	9446.40
464.96	9357.46
465.14	9434.70
465.32	9509.60
465.50	9680.46
465.69	9650.03
465.87	9518.96
466.05	9502.58
466.23	9479.17
466.41	9549.39
466.60	9734.29
466.78	9547.05
466.96	9563.43
467.14	9448.74
467.32	9792.80
467.51	9710.88
467.69	9324.69
467.87	9638.33
468.05	9886.42
468.23	9757.69
468.41	9858.34
468.60	9944.94
468.78	10127.50
468.96	9820.89
469.14	10071.33
469.32	10113.45
469.50	9795.14
469.69	9905.15
469.87	10246.87
470.05	10317.08
470.23	10347.51
470.41	10242.18
470.59	10377.94
470.77	10141.54
470.95	10296.02
471.14	10590.92
471.32	10373.25
471.50	10654.12
471.68	10649.44
471.86	10808.59
472.04	10796.89
472.22	11112.86
472.40	10731.36
472.58	10640.08
472.77	10684.55
472.95	11136.27
473.13	11218.19
473.31	10977.11
473.49	11066.05
473.67	11133.93
473.85	11241.59
474.03	11096.48
474.21	11229.89
474.39	11470.97
474.57	11473.31
474.75	11506.07
474.93	11573.95
475.12	11382.03
475.30	11775.24
475.48	11573.95
475.66	11702.68
475.84	11833.75
476.02	11613.74
476.20	11674.59
476.38	11985.88
476.56	12425.90
476.74	12109.93
476.92	12255.04
477.10	12634.21
477.28	12652.94
477.46	12507.82
477.64	12716.13
477.82	12814.43
478.00	13071.89
478.18	12903.37
478.36	13004.02
478.54	13132.75
478.72	13041.46
478.90	13362.12
479.08	13392.55
479.26	13614.90
479.44	13598.51
479.62	13647.66
479.80	13769.37
479.98	14057.26
480.16	14085.34
480.34	13909.80
480.52	14242.16
480.70	14286.63
480.88	14139.18
481.06	14389.61
481.24	14490.26
481.41	14684.52
481.59	14979.43
481.77	15035.60
481.95	14932.62
482.13	14953.68
482.31	15023.90
482.49	15571.58
482.67	15445.20
482.85	15953.09
483.03	15463.92
483.21	15903.94
483.39	15843.09
483.57	15882.88
483.74	15943.73
483.92	16212.89
484.10	16074.80
484.28	16393.11
484.46	16690.36
484.64	16952.50
484.82	16638.87
485.00	16865.90
485.18	17132.72
485.35	16802.71
485.53	16636.53
485.71	16578.01
485.89	17067.19
486.07	16685.68
486.25	17521.25
486.43	17188.89
486.61	17778.71
486.78	17607.85
486.96	18164.90
487.14	18319.37
487.32	18356.82
487.50	18642.37
487.68	18876.42
487.85	18878.76
488.03	19328.14
488.21	19243.88
488.39	19063.66
488.57	19435.81
488.75	19337.51
488.92	19800.93
489.10	19915.62
489.28	19847.74
489.46	20140.31
489.64	20350.96
489.81	20875.24
489.99	20645.87
490.17	21231.00
490.35	21514.20
490.53	20987.58
490.70	21453.35
490.88	21188.87
491.06	21312.92
491.24	21181.85
491.41	21322.28
491.59	21228.66
491.77	21144.40
491.95	21893.37
492.13	21809.11
492.30	22345.09
492.48	22232.75
492.66	22700.86
492.84	22574.47
493.01	22691.49
493.19	22984.06
493.37	22761.71
493.54	22946.61
493.72	23311.74
493.90	23428.76
494.08	23662.82
494.25	23950.70
494.43	23868.78
494.61	24173.05
494.79	23864.10
494.96	24243.27
495.14	24552.22
495.32	24634.14
495.49	24589.67
495.67	24676.27
495.85	24933.73
496.02	25170.12
496.20	25273.10
496.38	25308.21
496.55	25790.36
496.73	25591.42
496.91	25443.96
497.09	25685.04
497.26	26043.14
497.44	25902.71
497.62	26108.68
497.79	26005.69
497.97	25736.53
498.14	26324.01
498.32	26281.88
498.50	26553.38
498.67	26731.26
498.85	27063.61
499.03	26946.59
499.20	27339.80
499.38	27140.85
499.56	26920.84
499.73	27323.41
499.91	27262.56
500.08	26969.99
500.26	27225.11
500.44	27171.28
500.61	27627.68
500.79	27489.59
500.97	27906.21
501.14	28334.53
501.32	27817.27
501.49	27878.12
501.67	27845.35
501.84	28184.73
502.02	28229.20
502.20	28903.28
502.37	28800.29
502.55	28465.60
502.72	29043.71
502.90	29219.25
503.07	28725.39
503.25	29001.58
503.43	28685.61
503.60	29397.13
503.78	28985.19
503.95	29132.65
504.13	29427.56
504.30	29589.05
504.48	29502.45
504.65	29535.22
504.83	30136.74
505.01	30040.78
505.18	30113.33
505.36	30206.95
505.53	30199.93
505.71	30480.80
505.88	30555.69
506.06	30567.40
506.23	30422.28
506.41	30539.31
506.58	30373.13
506.76	30719.53
506.93	31255.51
507.11	30998.06
507.28	30696.13
507.46	30742.94
507.63	30981.67
507.81	31199.34
507.98	30974.65
508.16	31330.41
508.33	31608.93
508.50	31615.96
508.68	31409.99
508.85	32233.86
509.03	31948.31
509.20	32084.06
509.38	31899.16
509.55	32231.52
509.73	32142.58
509.90	32318.12
510.08	32170.66
510.25	32044.27
510.42	32091.09
510.60	32734.73
510.77	32650.47
510.95	32816.65
511.12	33088.15
511.30	33060.07
511.47	33563.28
511.64	33305.82
511.82	33734.14
511.99	32664.52
512.17	33240.29
512.34	32891.55
512.51	33619.46
512.69	33975.22
512.86	33425.19
513.04	33750.52
513.21	33818.40
513.38	33624.14
513.56	33675.63
513.73	33479.02
513.90	33977.56
514.08	34132.03
514.25	34183.52
514.43	34326.30
514.60	34307.57
514.77	34073.52
514.95	34471.41
515.12	34487.79
515.29	34473.75
515.47	35096.33
515.64	35028.46
515.81	34618.86
515.99	35040.16
516.16	34588.44
516.33	34176.50
516.51	34157.78
516.68	34483.11
516.85	34267.78
517.03	34497.16
517.20	34768.66
517.37	35101.01
517.54	34976.97
517.72	35346.77
517.89	34892.71
518.06	34955.90
518.24	34806.11
518.41	34862.28
518.58	35604.23
518.75	35173.57
518.93	35644.02
519.10	35700.19
519.27	36229.15
519.45	35690.83
519.62	36149.57
519.79	36301.71
519.96	36182.34
520.14	36589.59
520.31	35831.26
520.48	36760.45
520.65	36451.50
520.83	37132.60
521.00	36666.83
521.17	36914.93
521.34	37270.69
521.52	37013.23
521.69	37132.60
521.86	37244.94
522.03	37074.09
522.20	37294.10
522.38	37804.33
522.55	37270.69
522.72	36996.85
522.89	37343.25
523.07	38040.73
523.24	37806.67
523.41	37916.68
523.58	37385.38
523.75	37865.19
523.92	38485.43
524.10	38522.88
524.27	38593.09
524.44	38630.54
524.61	38384.79
524.78	38415.21
524.96	38429.26
525.13	38698.42
525.30	38703.10
525.47	39129.08
525.64	38988.64
525.81	38616.50
525.98	38319.25
526.16	38316.91
526.33	38178.82
526.50	38253.72
526.67	38014.98
526.84	38211.59
527.01	37902.64
527.18	38389.47
527.36	39358.45
527.53	39201.63
527.70	39215.68
527.87	39220.36
528.04	39313.98
528.21	39587.82
528.38	39494.20
528.55	39812.51
528.72	39931.88
528.89	39641.65
529.07	39784.43
529.24	39440.37
529.41	39838.26
529.58	39728.25
529.75	39564.42
529.92	39920.18
530.09	40053.59
530.26	40388.28
530.43	40388.28
530.60	40219.77
530.77	39763.36
530.94	40634.04
531.11	40282.96
531.28	40760.43
531.46	40746.39
531.63	40802.56
531.80	40666.81
531.97	40617.66
532.14	40680.85
532.31	40170.61
532.48	39894.43
532.65	40385.94
532.82	40666.81
532.99	40739.36
533.16	40830.65
533.33	40800.22
533.50	41436.84
533.67	40931.29
533.84	40961.72
534.01	41099.81
534.18	41392.37
534.35	41340.88
534.52	41289.39
534.69	41254.28
534.86	41429.82
535.03	41713.03
535.20	41755.16
535.37	41940.06
535.54	41876.86
535.71	41773.88
535.88	41687.28
536.05	41619.41
536.22	41493.02
536.38	41773.88
536.55	41619.41
536.72	41897.93
536.89	41715.37
537.06	41612.38
537.23	41907.29
537.40	41956.44
537.57	41823.03
537.74	42141.35
537.91	42588.39
538.08	42394.12
538.25	41750.48
538.42	42124.96
538.59	42361.36
538.75	42253.69
538.92	42183.48
539.09	42789.67
539.26	42478.38
539.43	42232.63
539.60	42387.10
539.77	42595.41
539.94	42630.52
540.11	42014.96
540.28	42492.43
540.44	42344.97
540.61	42581.37
540.78	42487.74
540.95	42436.25
541.12	42330.93
541.29	42747.54
541.46	42490.09
541.62	43119.69
541.79	43550.35
541.96	42801.38
542.13	43299.91
542.30	43243.74
542.47	42909.04
542.63	42981.60
542.80	43461.41
542.97	43662.69
543.14	43409.92
543.31	43407.58
543.48	43833.55
543.64	44189.31
543.81	43793.76
543.98	43800.79
544.15	43739.93
544.32	44083.99
544.48	43849.94
544.65	44011.43
544.82	44079.31
544.99	43510.56
545.16	43789.08
545.32	44170.59
545.49	44516.99
545.66	44414.01
545.83	44107.40
546.00	44346.13
546.16	44037.18
546.33	43908.45
546.50	44182.29
546.67	44271.23
546.83	43936.54
547.00	44399.96
547.17	44217.40
547.34	44191.65
547.50	44655.08
547.67	44549.76
547.84	44531.03
548.00	44966.37
548.17	44659.76
548.34	44584.86
548.51	44683.17
548.67	44531.03
548.84	44811.90
549.01	44762.75
549.18	44676.15
549.34	44858.71
549.51	45209.79
549.68	45120.85
549.84	45141.91
550.01	45006.16
550.18	45165.32
550.34	44631.68
550.51	45015.52
550.68	44659.76
550.84	44657.42
551.01	44863.39
551.18	45048.29
551.34	45001.48
551.51	45471.93
551.68	45170.00
551.84	45132.55
552.01	45165.32
552.18	44968.71
552.34	45200.43
552.51	44898.50
552.68	45284.68
552.84	45301.07
553.01	44924.24
553.18	45528.10
553.34	45471.93
553.51	45450.86
553.67	45331.50
553.84	45841.73
554.01	45720.02
554.17	45294.05
554.34	45904.93
554.51	45773.86
554.67	45415.76
554.84	46033.66
555.00	45755.13
555.17	46045.36
555.33	45727.05
555.50	45577.25
555.67	45734.07
555.83	45549.17
556.00	45385.33
556.16	45911.95
556.33	45551.51
556.50	45443.84
556.66	45947.06
556.83	45432.14
556.99	46108.55
557.16	45951.74
557.32	45860.46
557.49	46248.99
557.65	45827.69
557.82	45949.40
557.98	46188.13
558.15	46171.75
558.32	45998.55
558.48	45565.55
558.65	46251.33
558.81	45603.00
558.98	45902.59
559.14	45986.85
559.31	45708.32
559.47	46321.54
559.64	46321.54
559.80	46293.46
559.97	46270.05
560.13	46157.70
560.30	46047.70
560.46	46181.11
560.63	46501.76
560.79	46452.61
560.96	46461.97
561.12	46499.42
561.29	46220.90
561.45	46553.26
561.61	46391.76
561.78	46307.50
561.94	46354.31
562.11	46375.37
562.27	46122.60
562.44	46597.73
562.60	46593.04
562.77	46705.39
562.93	46344.95
563.10	46602.41
563.26	46188.13
563.42	46391.76
563.59	46471.34
563.75	46211.54
563.92	46735.82
564.08	46419.84
564.24	46541.55
564.41	46625.81
564.57	46508.79
564.74	46560.28
564.90	46698.37
565.07	46476.02
565.23	46571.98
565.39	46246.65
565.56	46497.08
565.72	46239.62
565.88	46859.87
566.05	46447.93
566.21	46312.18
566.38	46560.28
566.54	46529.85
566.70	46925.40
566.87	46967.53
567.03	46742.84
567.19	47042.43
567.36	47049.45
567.52	46358.99
567.68	46735.82
567.85	46543.89
568.01	46843.48
568.17	46504.10
568.34	46239.62
568.50	47000.30
568.66	46635.17
568.83	46351.97
568.99	46684.33
569.15	46319.20
569.32	46988.60
569.48	46749.86
569.64	47320.95
569.81	47021.36
569.97	46480.70
570.13	46747.52
570.30	46382.40
570.46	46286.43
570.62	46457.29
570.78	46258.35
570.95	46681.98
571.11	46820.08
571.27	46653.90
571.43	46726.46
571.60	47012.00
571.76	46717.09
571.92	46684.33
572.09	46571.98
572.25	46590.70
572.41	47077.54
572.57	46986.25
572.74	47063.49
572.90	46705.39
573.06	46684.33
573.22	46890.29
573.38	47079.88
573.55	46724.11
573.71	47517.56
573.87	46974.55
574.03	46712.41
574.20	47075.19
574.36	46806.03
574.52	46838.80
574.68	46983.91
574.84	46944.12
575.01	46576.66
575.17	46836.46
575.33	46333.24
575.49	46429.21
575.65	47419.25
575.82	46770.93
575.98	46560.28
576.14	47037.75
576.30	47037.75
576.46	47159.45
576.62	46813.05
576.79	47019.02
576.95	46384.74
577.11	47236.69
577.27	47356.06
577.43	47084.56
577.59	46866.89
577.75	47093.92
577.92	46810.71
578.08	46316.86
578.24	46635.17
578.40	46693.69
578.56	46597.73
578.72	46883.27
578.88	47419.25
579.04	47093.92
579.21	47262.44
579.37	46930.08
579.53	46993.28
579.69	46733.48
579.85	46635.17
580.01	47178.18
580.17	47203.92
580.33	47248.39
580.49	47232.01
580.65	47243.71
580.82	47274.14
580.98	47021.36
581.14	46855.18
581.30	47386.49
581.46	47316.27
581.62	47044.77
581.78	46810.71
581.94	47519.90
582.10	47288.18
582.26	47154.77
582.42	47271.80
582.58	47028.38
582.74	47241.37
582.90	47131.37
583.06	47267.12
583.22	47461.38
583.38	47398.19
583.54	47234.35
583.70	46834.12
583.86	46988.60
584.02	46911.36
584.18	47283.50
584.34	46951.15
584.50	47004.98
584.66	46878.59
584.82	47058.81
584.98	47175.84
585.14	47033.07
585.30	46794.33
585.46	47400.53
585.62	46820.08
585.78	47222.65
585.94	46527.51
586.10	46873.91
586.26	46937.10
586.42	47126.69
586.58	47344.36
586.74	47232.01
586.90	46660.92
587.06	47002.64
587.22	46969.87
587.38	47540.96
587.54	47243.71
587.70	47320.95
587.86	47590.11
588.02	47327.97
588.18	46997.96
588.34	46906.68
588.49	46574.32
588.65	46227.92
588.81	46653.90
588.97	46431.55
589.13	46440.91
589.29	46454.95
589.45	46983.91
589.61	46656.24
589.77	47138.39
589.93	47269.46
