SpectraSuite Data File
++++++++++++++++++++++++++++++++++++
Date: Fri Oct 25 11:23:12 EDT 2013
User: price-jones
Dark Spectrum Present: No
Reference Spectrum Present: No
Number of Sampled Component Spectra: 1
Spectrometers: USB2+H05261
Integration Time (usec): 100000 (USB2+H05261)
Spectra Averaged: 1 (USB2+H05261)
Boxcar Smoothing: 0 (USB2+H05261)
Correct for Electrical Dark: No (USB2+H05261)
Strobe/Lamp Enabled: No (USB2+H05261)
Correct for Detector Non-linearity: No (USB2+H05261)
Correct for Stray Light: No (USB2+H05261)
Number of Pixels in Processed Spectrum: 2048
>>>>>Begin Processed Spectral Data<<<<<
365.73	287.89
365.92	287.89
366.12	287.89
366.32	159.16
366.52	72.56
366.72	133.41
366.91	86.60
367.11	91.28
367.31	128.73
367.51	128.73
367.70	124.05
367.90	95.96
368.10	147.45
368.30	95.96
368.49	77.24
368.69	56.17
368.89	154.48
369.09	42.13
369.28	196.60
369.48	159.16
369.68	98.30
369.87	177.88
370.07	182.56
370.27	191.92
370.47	318.31
370.66	596.84
370.86	627.26
371.06	662.37
371.25	592.16
371.45	643.65
371.65	636.63
371.84	620.24
372.04	599.18
372.24	774.72
372.44	695.14
372.63	732.59
372.83	725.57
373.03	653.01
373.22	702.16
373.42	744.29
373.62	784.08
373.81	826.21
374.01	807.48
374.21	830.89
374.40	711.52
374.60	798.12
374.79	755.99
374.99	819.19
375.19	898.77
375.38	847.27
375.58	821.53
375.78	732.59
375.97	842.59
376.17	931.53
376.37	929.19
376.56	894.08
376.76	866.00
376.95	861.32
377.15	889.40
377.35	896.43
377.54	903.45
377.74	863.66
377.93	912.81
378.13	798.12
378.33	947.92
378.52	985.37
378.72	1015.79
378.91	1015.79
379.11	915.15
379.31	863.66
379.50	908.13
379.70	1020.47
379.89	1107.07
380.09	905.79
380.28	990.05
380.48	999.41
380.68	1064.94
380.87	1032.18
381.07	1011.11
381.26	1057.92
381.46	1055.58
381.65	1032.18
381.85	1008.77
382.04	1053.24
382.24	1146.86
382.43	966.64
382.63	1081.33
382.83	1029.84
383.02	1055.58
383.22	1109.41
383.41	1086.01
383.61	1137.50
383.80	1081.33
384.00	1153.88
384.19	1139.84
384.39	1057.92
384.58	1104.73
384.78	1100.05
384.97	1153.88
385.17	1100.05
385.36	1121.12
385.56	1167.93
385.75	1111.75
385.95	1165.59
386.14	1256.87
386.34	1235.80
386.53	1231.12
386.72	1240.48
386.92	1273.25
387.11	1254.53
387.31	1294.32
387.50	1270.91
387.70	1261.55
387.89	1245.16
388.09	1282.61
388.28	1327.08
388.48	1289.64
388.67	1259.21
388.86	1334.11
389.06	1373.89
389.25	1345.81
389.45	1266.23
389.64	1313.04
389.84	1416.02
390.03	1350.49
390.22	1364.53
390.42	1437.09
390.61	1425.39
390.81	1467.52
391.00	1420.71
391.19	1406.66
391.39	1465.18
391.58	1472.20
391.78	1430.07
391.97	1575.18
392.16	1551.78
392.36	1558.80
392.55	1514.33
392.75	1500.28
392.94	1469.86
393.13	1458.15
393.33	1614.97
393.52	1523.69
393.71	1411.34
393.91	1584.54
394.10	1565.82
394.29	1540.07
394.49	1612.63
394.68	1621.99
394.88	1647.74
395.07	1739.02
395.26	1685.19
395.46	1668.80
395.65	1640.72
395.84	1799.87
396.04	1799.87
396.23	1802.21
396.42	1720.29
396.62	1657.10
396.81	1837.32
397.00	1781.15
397.19	1788.17
397.39	1809.23
397.58	1870.09
397.77	1834.98
397.97	1949.67
398.16	1926.26
398.35	1984.77
398.55	1902.86
398.74	1886.47
398.93	2008.18
399.12	2008.18
399.32	1898.17
399.51	1961.37
399.70	2047.97
399.90	1961.37
400.09	2022.22
400.28	2127.55
400.47	2078.40
400.67	2008.18
400.86	2132.23
401.05	2139.25
401.24	2132.23
401.44	2073.71
401.63	2176.70
401.82	2218.83
402.01	2197.76
402.21	2202.44
402.40	2120.53
402.59	2195.42
402.78	2317.13
402.97	2216.49
403.17	2228.19
403.36	2279.68
403.55	2312.45
403.74	2300.75
403.93	2441.18
404.13	2406.07
404.32	2396.71
404.51	2427.14
404.70	2462.24
404.89	2527.78
405.09	2539.48
405.28	2525.44
405.47	2546.50
405.66	2485.65
405.85	2436.50
406.05	2511.39
406.24	2640.12
406.43	2576.93
406.62	2679.91
406.81	2829.71
407.00	2548.84
407.20	2719.70
407.39	2724.38
407.58	2729.06
407.77	2717.36
407.96	2724.38
408.15	2897.58
408.34	2815.66
408.54	2736.09
408.73	2869.50
408.92	2892.90
409.11	2960.78
409.30	2822.69
409.49	2974.82
409.68	2951.42
409.87	2951.42
410.07	3033.33
410.26	3021.63
410.45	3141.00
410.64	3061.42
410.83	3141.00
411.02	3159.72
411.21	3169.09
411.40	3141.00
411.59	3234.62
411.78	3288.45
411.98	3339.94
412.17	3260.37
412.36	3389.10
412.55	3449.95
412.74	3330.58
412.93	3410.16
413.12	3386.76
413.31	3574.00
413.50	3515.48
413.69	3466.33
413.88	3606.77
414.07	3566.98
414.26	3709.75
414.45	3705.07
414.64	3698.05
414.83	3798.69
415.02	3934.44
415.22	3805.71
415.41	3857.20
415.60	3847.84
415.79	3868.91
415.98	4044.45
416.17	4044.45
416.36	3906.35
416.55	4095.94
416.74	4095.94
416.93	4002.32
417.12	4227.01
417.31	4231.69
417.50	4084.23
417.69	4278.50
417.88	4409.57
418.07	4290.20
418.26	4416.59
418.45	4423.61
418.64	4573.41
418.83	4557.02
419.02	4432.97
419.21	4500.85
419.39	4667.03
419.58	4713.84
419.77	4477.44
419.96	4610.86
420.15	4589.79
420.34	4486.81
420.53	4709.16
420.72	4720.86
420.91	4704.48
421.10	4912.78
421.29	4929.17
421.48	4564.04
421.67	4828.53
421.86	4758.31
422.05	4868.31
422.24	5020.45
422.43	4919.81
422.61	5027.47
422.80	4992.36
422.99	5053.22
423.18	4863.63
423.37	5071.94
423.56	4950.23
423.75	4915.12
423.94	5008.75
424.13	4734.90
424.32	4828.53
424.50	4964.28
424.69	5310.68
424.88	5114.07
425.07	5078.96
425.26	5055.56
425.45	5018.11
425.64	4938.53
425.83	5076.62
426.01	5231.10
426.20	5027.47
426.39	5142.16
426.58	5032.15
426.77	5135.14
426.96	5238.12
427.15	5186.63
427.33	5111.73
427.52	5324.72
427.71	5322.38
427.90	5425.36
428.09	5376.21
428.28	5334.08
428.46	5376.21
428.65	5404.30
428.84	5479.19
429.03	5507.28
429.22	5378.55
429.40	5547.07
429.59	5497.92
429.78	5423.02
429.97	5160.88
430.16	5633.67
430.34	5572.82
430.53	5706.23
430.72	5832.62
430.91	5722.61
431.10	5701.54
431.28	5954.32
431.47	5867.72
431.66	5994.11
431.85	5881.77
432.03	5825.59
432.22	5902.83
432.41	5912.19
432.60	5820.91
432.79	6155.61
432.97	6237.53
433.16	6267.95
433.35	6036.24
433.54	6071.35
433.72	6331.15
433.91	6085.39
434.10	6242.21
434.28	6111.14
434.47	6417.75
434.66	6384.98
434.85	6539.46
435.03	6373.28
435.22	6462.22
435.41	6532.44
435.59	6579.25
435.78	6363.92
435.97	6551.16
436.16	6483.28
436.34	6670.53
436.53	6502.01
436.72	6855.43
436.90	6492.65
437.09	6551.16
437.28	6562.86
437.46	6738.40
437.65	6778.19
437.84	6848.41
438.02	6775.85
438.21	6822.66
438.40	6869.47
438.58	7007.56
438.77	7218.21
438.96	6981.82
439.14	7105.87
439.33	7054.37
439.52	7133.95
439.70	7325.88
439.89	7456.95
440.08	7566.95
440.26	7595.04
440.45	7400.77
440.63	7485.03
440.82	7632.49
441.01	7660.57
441.19	7775.26
441.38	7920.37
441.57	7847.82
441.75	8018.68
441.94	7953.14
442.12	7943.78
442.31	8269.11
442.50	8013.99
442.68	8196.56
442.87	8070.17
443.05	8156.77
443.24	8196.56
443.43	8358.05
443.61	8273.79
443.80	8423.59
443.98	7939.10
444.17	7955.48
444.35	8226.98
444.54	8482.10
444.73	7955.48
444.91	8379.12
445.10	8538.27
445.28	8369.76
445.47	8456.36
445.65	8374.44
445.84	8664.66
446.02	8683.39
446.21	8437.63
446.39	8456.36
446.58	8500.83
446.77	8603.81
446.95	8517.21
447.14	8454.02
447.32	8760.63
447.51	8549.98
447.69	8531.25
447.88	8571.04
448.06	8627.21
448.25	8788.71
448.43	8681.05
448.62	8788.71
448.80	8596.79
448.99	8877.65
449.17	8844.88
449.36	8685.73
449.54	8769.99
449.73	9092.98
449.91	9048.51
450.10	9064.89
450.28	9008.72
450.46	9053.19
450.65	9191.28
450.83	9041.49
451.02	9085.96
451.20	9383.21
451.39	9135.11
451.57	9387.89
451.76	9071.92
451.94	9163.20
452.13	9411.29
452.31	9434.70
452.49	9217.03
452.68	9497.89
452.86	9240.44
453.05	9472.15
453.23	9586.83
453.42	9448.74
453.60	9394.91
453.78	9745.99
453.97	9708.54
454.15	9668.75
454.34	9577.47
454.52	9900.47
454.70	9785.78
454.89	9738.97
455.07	10066.64
455.26	9809.19
455.44	10024.51
455.62	10047.92
455.81	10232.82
455.99	10083.03
456.17	10260.91
456.36	10321.76
456.54	10391.98
456.73	10298.36
456.91	10649.44
457.09	10445.81
457.28	10499.64
457.46	10445.81
457.64	10738.38
457.83	10534.75
458.01	10445.81
458.19	10668.16
458.38	10611.99
458.56	10869.45
458.74	10913.92
458.93	11000.52
459.11	10736.04
459.29	11035.63
459.48	10846.04
459.66	10899.87
459.84	11136.27
460.03	11166.70
460.21	11150.31
460.39	11066.05
460.57	10970.09
460.76	11012.22
460.94	11288.40
461.12	11129.25
461.31	11311.81
461.49	11407.77
461.67	11030.94
461.85	11473.31
462.04	11653.53
462.22	11641.82
462.40	11709.70
462.59	11276.70
462.77	11625.44
462.95	11616.08
463.13	11789.28
463.32	11981.20
463.50	12093.55
463.68	11805.66
463.86	12023.33
464.05	12006.95
464.23	11901.62
464.41	12138.02
464.59	11894.60
464.78	12112.27
464.96	12210.57
465.14	11826.73
465.32	12154.40
465.50	12243.34
465.69	12318.24
465.87	12348.67
466.05	12142.70
466.23	12538.25
466.41	12411.86
466.60	12526.55
466.78	12608.47
466.96	12339.30
467.14	12379.09
467.32	12386.12
467.51	12709.11
467.69	12306.54
467.87	12613.15
468.05	12751.24
468.23	12507.82
468.41	12606.13
468.60	12643.57
468.78	12744.22
468.96	12659.96
469.14	13025.08
469.32	13186.58
469.50	12844.86
469.69	13095.30
469.87	13369.14
470.05	13114.02
470.23	13334.03
470.41	13593.83
470.59	13228.71
470.77	13221.69
470.95	13366.80
471.14	13778.73
471.32	13334.03
471.50	13532.98
471.68	13570.43
471.86	13853.63
472.04	13947.25
472.22	14193.01
472.40	13872.36
472.58	13954.27
472.77	14132.15
472.95	14534.73
473.13	15030.92
473.31	14064.28
473.49	14230.46
473.67	14537.07
473.85	14654.09
474.03	14771.12
474.21	14831.97
474.39	14972.41
474.57	14843.68
474.75	14925.60
474.93	15164.33
475.12	15335.19
475.30	15061.35
475.48	15199.44
475.66	15501.37
475.84	15281.36
476.02	15531.80
476.20	15515.41
476.38	15735.42
476.56	16437.58
476.74	16128.63
476.92	15955.43
477.10	15845.43
477.28	16376.73
477.46	16479.71
477.64	16542.91
477.82	16898.67
478.00	17233.36
478.18	16912.71
478.36	17114.00
478.54	17607.85
478.72	17336.35
478.90	17710.83
479.08	17743.60
479.26	18108.72
479.44	17942.55
479.62	17909.78
479.80	18410.65
479.98	18324.05
480.16	18761.73
480.34	18625.98
480.52	18766.42
480.70	18993.45
480.88	18766.42
481.06	18967.70
481.24	19115.16
481.41	19421.77
481.59	19536.45
481.77	19742.42
481.95	19777.53
482.13	19812.63
482.31	19714.33
482.49	20711.40
482.67	20365.00
482.85	21027.37
483.03	21057.80
483.21	20716.08
483.39	21191.21
483.57	21003.97
483.74	21322.28
483.92	21759.96
484.10	21319.94
484.28	21923.80
484.46	22401.27
484.64	22642.34
484.82	22143.81
485.00	22544.04
485.18	23204.07
485.35	23185.35
485.53	22731.28
485.71	23131.51
485.89	23707.29
486.07	23573.88
486.25	23784.52
486.43	23686.22
486.61	24343.91
486.78	24334.55
486.96	24786.27
487.14	24945.43
487.32	24816.70
487.50	25420.56
487.68	25165.44
487.85	25530.56
488.03	25713.13
488.21	25972.92
488.39	26012.71
488.57	26600.19
488.75	26305.28
488.92	26925.52
489.10	27173.62
489.28	27063.61
489.46	27817.27
489.64	27522.36
489.81	28048.98
489.99	27456.82
490.17	28098.13
490.35	28325.16
490.53	28903.28
490.70	28994.56
490.88	28786.25
491.06	29509.47
491.24	29315.21
491.41	29249.67
491.59	29876.94
491.77	29989.28
491.95	29986.94
492.13	30218.66
492.30	30433.99
492.48	30340.36
492.66	30859.96
492.84	30719.53
493.01	31072.95
493.19	31140.83
493.37	31730.64
493.54	31791.50
493.72	31541.06
493.90	32156.62
494.08	31974.06
494.25	32505.36
494.43	32512.38
494.61	32526.42
494.79	33060.07
494.96	33118.58
495.14	33137.30
495.32	33848.83
495.49	33289.44
495.67	33177.09
495.85	33909.68
496.02	34389.49
496.20	34508.86
496.38	34705.46
496.55	34595.46
496.73	35084.63
496.91	35063.57
497.09	35519.97
497.26	35639.34
497.44	35243.79
497.62	35367.84
497.79	36046.59
497.97	36229.15
498.14	36486.61
498.32	36664.49
498.50	36603.64
498.67	36945.36
498.85	36900.89
499.03	37085.79
499.20	37193.45
499.38	37329.20
499.56	37488.36
499.73	38176.48
499.91	38115.62
500.08	38244.35
500.26	37785.61
500.44	38087.54
500.61	38246.69
500.79	38384.79
500.97	38572.03
501.14	39241.42
501.32	39082.27
501.49	39035.45
501.67	39274.19
501.84	39438.03
502.02	39292.91
502.20	39199.29
502.37	39594.84
502.55	40402.33
502.72	39716.55
502.90	40240.83
503.07	39966.99
503.25	39927.20
503.43	40034.86
503.60	40666.81
503.78	40442.12
503.95	40304.02
504.13	41031.93
504.30	41462.59
504.48	40751.07
504.65	41106.83
504.83	41291.73
505.01	41750.48
505.18	41783.24
505.36	41698.98
505.53	41280.03
505.71	42099.22
505.88	42021.98
506.06	42300.50
506.23	42574.34
506.41	42298.16
506.58	42527.53
506.76	42586.05
506.93	43035.43
507.11	43047.13
507.28	43206.29
507.46	43028.41
507.63	43416.94
507.81	43910.79
507.98	43215.65
508.16	43435.66
508.33	43821.85
508.50	43803.13
508.68	44170.59
508.85	44715.93
509.03	44194.00
509.20	44847.00
509.38	44926.58
509.55	44926.58
509.73	45144.25
509.90	45153.62
510.08	44971.05
510.25	45001.48
510.42	45565.55
510.60	45769.18
510.77	45624.06
510.95	46080.47
511.12	45268.30
511.30	45942.38
511.47	46225.58
511.64	46085.15
511.82	46548.57
511.99	46284.09
512.17	46555.60
512.34	46108.55
512.51	46733.48
512.69	47096.26
512.86	46593.04
513.04	47475.43
513.21	46972.21
513.38	47297.55
513.56	47767.99
513.73	47409.89
513.90	47210.95
514.08	47454.36
514.25	47639.26
514.43	47725.86
514.60	48184.61
514.77	47765.65
514.95	48025.45
515.12	47807.78
515.29	47945.87
515.47	48540.37
515.64	48282.91
515.81	48257.17
515.99	48928.90
516.16	49139.55
516.33	49366.58
516.51	49310.41
516.68	48877.41
516.85	48914.86
517.03	49258.91
517.20	49125.50
517.37	49422.75
517.54	49371.26
517.72	49696.59
517.89	49462.54
518.06	49476.58
518.24	49591.27
518.41	49647.44
518.58	50071.08
518.75	49958.73
518.93	49996.18
519.10	49837.03
519.27	50532.17
519.45	50326.20
519.62	50681.96
519.79	50241.94
519.96	50571.96
520.14	50241.94
520.31	50827.07
520.48	50885.59
520.65	50864.52
520.83	51292.84
521.00	51004.95
521.17	51360.72
521.34	51360.72
521.52	51260.07
521.69	51093.89
521.86	51435.61
522.03	51470.72
522.20	51737.54
522.38	51625.20
522.55	51643.92
522.72	51587.75
522.89	51807.76
523.07	52196.29
523.24	51924.78
523.41	52126.07
523.58	51655.62
523.75	52484.17
523.92	52301.61
524.10	52432.68
524.27	52575.45
524.44	52540.35
524.61	52521.62
524.78	52617.58
524.96	52633.97
525.13	52959.30
525.30	52655.03
525.47	52912.49
525.64	52755.68
525.81	52772.06
525.98	52842.27
526.16	52687.80
526.33	52774.40
526.50	53434.43
526.67	53195.70
526.84	53404.00
527.01	53301.02
527.18	53244.85
527.36	53521.03
527.53	53364.21
527.70	53689.55
527.87	53670.82
528.04	53448.47
528.21	53471.88
528.38	53801.89
528.55	53897.86
528.72	53888.49
528.89	54068.72
529.07	53478.90
529.24	53757.42
529.41	53932.96
529.58	54089.78
529.75	54167.02
529.92	54220.85
530.09	54372.99
530.26	54340.22
530.43	54365.96
530.60	54010.20
530.77	53972.75
530.94	54426.82
531.11	54312.13
531.28	54415.11
531.46	54642.15
531.63	54719.38
531.80	54480.65
531.97	54745.13
532.14	54913.65
532.31	54866.84
532.48	55107.91
532.65	54993.23
532.82	54838.75
532.99	55075.15
533.16	55152.38
533.33	55093.87
533.50	55433.25
533.67	55089.19
533.84	54834.07
534.01	55267.07
534.18	55480.06
534.35	55753.90
534.52	55569.00
534.69	55447.29
534.86	55608.79
535.03	55395.80
535.20	55458.99
535.37	55922.42
535.54	55936.46
535.71	55515.17
535.88	55690.71
536.05	55849.86
536.22	55915.40
536.38	56083.92
536.55	55957.53
536.72	55831.14
536.89	55847.52
537.06	55882.63
537.23	56034.77
537.40	55810.07
537.57	55891.99
537.74	56193.92
537.91	56243.07
538.08	56238.39
538.25	56121.37
538.42	56580.11
538.59	56633.94
538.75	56212.65
538.92	56280.52
539.09	56425.64
539.26	56453.72
539.43	56126.05
539.60	56573.09
539.77	56411.59
539.94	56626.92
540.11	56697.14
540.28	56676.07
540.44	56666.71
540.61	56807.14
540.78	56788.42
540.95	56676.07
541.12	56645.65
541.29	56793.10
541.46	56783.74
541.62	56914.81
541.79	57207.37
541.96	56746.29
542.13	56765.01
542.30	56980.34
542.47	57162.90
542.63	57123.11
542.80	57226.10
542.97	57441.43
543.14	57448.45
543.31	57359.51
543.48	57530.37
543.64	57621.65
543.81	57680.16
543.98	57394.62
544.15	57581.86
544.32	57865.06
544.48	57942.30
544.65	57925.92
544.82	57790.17
544.99	57670.80
545.16	57836.98
545.32	57846.34
545.49	58082.73
545.66	58101.46
545.83	57982.09
546.00	58024.22
546.16	58005.50
546.33	57766.76
546.50	57836.98
546.67	57928.26
546.83	57743.36
547.00	58281.68
547.17	58192.74
547.34	58239.55
547.50	58429.13
547.67	58295.72
547.84	58220.83
548.00	58522.76
548.17	58628.08
548.34	58267.64
548.51	58599.99
548.67	58602.33
548.84	58511.05
549.01	58487.65
549.18	58564.88
549.34	58335.51
549.51	58550.84
549.68	58775.53
549.84	58731.06
550.01	58567.23
550.18	58590.63
550.34	58796.60
550.51	58745.11
550.68	58784.90
550.84	58248.91
551.01	58894.90
551.18	58761.49
551.34	58742.77
551.51	58752.13
551.68	58646.80
551.84	58820.00
552.01	58857.45
552.18	58922.99
552.34	58686.59
552.51	59023.63
552.68	58983.84
552.84	58981.50
553.01	59351.30
553.18	59063.42
553.34	59203.85
553.51	59009.59
553.67	59126.61
553.84	59175.76
554.01	59178.10
554.17	59395.77
554.34	59231.94
554.51	59253.00
554.67	59473.01
554.84	59255.34
555.00	59159.38
555.17	59250.66
555.33	59262.36
555.50	59047.04
555.67	59330.24
555.83	59372.37
556.00	59543.23
556.16	59559.61
556.33	59545.57
556.50	59531.53
556.66	59833.46
556.83	59334.92
556.99	59760.90
557.16	59803.03
557.32	59772.60
557.49	59763.24
557.65	59606.42
557.82	59739.83
557.98	59648.55
558.15	59714.09
558.32	59765.58
558.48	59821.75
558.65	59676.64
558.81	59742.17
558.98	59807.71
559.14	60081.55
559.31	59875.58
559.47	59917.71
559.64	60048.78
559.80	60074.53
559.97	60151.77
560.13	59791.33
560.30	59966.87
560.46	59880.27
560.63	60140.07
560.79	60102.62
560.96	60186.88
561.12	60219.64
561.29	60221.98
561.45	60037.08
561.61	60016.02
561.78	60111.98
561.94	60156.45
562.11	60245.39
562.27	60189.22
562.44	60154.11
562.60	60392.84
562.77	60364.76
562.93	60074.53
563.10	60310.92
563.26	60266.45
563.42	60547.32
563.59	60329.65
563.75	60472.42
563.92	60413.91
564.08	60416.25
564.24	60491.15
564.41	60383.48
564.57	60439.65
564.74	60416.25
564.90	60376.46
565.07	60303.90
565.23	60271.14
565.39	60371.78
565.56	60519.23
565.72	60350.71
565.88	60537.96
566.05	60413.91
566.21	60383.48
566.38	60715.84
566.54	60566.04
566.70	60643.28
566.87	60849.25
567.03	60502.85
567.19	60685.41
567.36	60666.69
567.52	60465.40
567.68	61078.62
567.85	60561.36
568.01	60636.26
568.17	60643.28
568.34	60809.46
568.50	60654.98
568.66	60619.88
568.83	60734.56
568.99	60549.66
569.15	60662.00
569.32	60753.29
569.48	60715.84
569.64	60589.45
569.81	60797.76
569.97	60610.51
570.13	60678.39
570.30	60692.43
570.46	60764.99
570.62	60764.99
570.78	60722.86
570.95	60608.17
571.11	60910.10
571.27	60830.52
571.43	60720.52
571.60	60980.32
571.76	60982.66
571.92	60772.01
572.09	60802.44
572.25	60985.00
572.41	60781.37
572.57	60830.52
572.74	61310.33
572.90	60746.26
573.06	61041.17
573.22	61050.53
573.38	60938.19
573.55	60959.25
573.71	61207.35
573.87	60788.39
574.03	60814.14
574.20	61113.73
574.36	60816.48
574.52	60968.61
574.68	60996.70
574.84	61109.05
575.01	61127.77
575.17	60973.30
575.33	61008.40
575.49	61043.51
575.65	60872.65
575.82	61197.99
575.98	61109.05
576.14	61186.28
576.30	61296.29
576.46	61041.17
576.62	61029.47
576.79	61031.81
576.95	60985.00
577.11	60987.34
577.27	61214.37
577.43	61263.52
577.59	60980.32
577.75	61078.62
577.92	60994.36
578.08	61062.24
578.24	61155.86
578.40	61190.97
578.56	61102.03
578.72	60977.98
578.88	61237.78
579.04	61277.57
579.21	61298.63
579.37	61399.27
579.53	61315.01
579.69	60975.64
579.85	61116.07
580.01	60935.85
580.17	61165.22
580.33	61254.16
580.49	61284.59
580.65	61305.65
580.82	61209.69
580.98	61104.37
581.14	61052.87
581.30	61331.40
581.46	61069.26
581.62	61293.95
581.78	61020.11
581.94	61176.92
582.10	61176.92
582.26	61120.75
582.42	61109.05
582.58	61172.24
582.74	60994.36
582.90	61202.67
583.06	61148.84
583.22	61160.54
583.38	61158.20
583.54	61249.48
583.70	61495.24
583.86	61223.73
584.02	61127.77
584.18	61307.99
584.34	61263.52
584.50	61284.59
584.66	61247.14
584.82	60963.93
584.98	61406.30
585.14	61258.84
585.30	61097.34
585.46	61315.01
585.62	61219.05
585.78	61359.48
585.94	61319.70
586.10	61429.70
586.26	61378.21
586.42	61410.98
586.58	61268.20
586.74	61315.01
586.90	61265.86
587.06	61399.27
587.22	61216.71
587.38	61406.30
587.54	61460.13
587.70	61605.24
587.86	61350.12
588.02	61205.01
588.18	61413.32
588.34	61310.33
588.49	61212.03
