SpectraSuite Data File
++++++++++++++++++++++++++++++++++++
Date: Fri Oct 25 10:47:14 EDT 2013
User: price-jones
Dark Spectrum Present: No
Reference Spectrum Present: No
Number of Sampled Component Spectra: 1
Spectrometers: USB2+H05261
Integration Time (usec): 100000 (USB2+H05261)
Spectra Averaged: 1 (USB2+H05261)
Boxcar Smoothing: 0 (USB2+H05261)
Correct for Electrical Dark: No (USB2+H05261)
Strobe/Lamp Enabled: No (USB2+H05261)
Correct for Detector Non-linearity: No (USB2+H05261)
Correct for Stray Light: No (USB2+H05261)
Number of Pixels in Processed Spectrum: 2048
>>>>>Begin Processed Spectral Data<<<<<
365.73	102.98
365.92	102.98
366.12	102.98
366.32	35.11
366.52	77.24
366.72	58.51
366.91	46.81
367.11	0.00
367.31	4.68
367.51	42.13
367.70	2.34
367.90	67.88
368.10	0.00
368.30	35.11
368.49	7.02
368.69	98.30
368.89	0.00
369.09	63.19
369.28	70.22
369.48	25.75
369.68	100.64
369.87	110.01
370.07	49.15
370.27	161.50
370.47	180.22
370.66	327.68
370.86	397.89
371.06	393.21
371.25	404.91
371.45	339.38
371.65	461.09
371.84	458.74
372.04	505.56
372.24	383.85
372.44	503.22
372.63	482.15
372.83	519.60
373.03	528.96
373.22	482.15
373.42	545.34
373.62	507.90
373.81	484.49
374.01	493.85
374.21	468.11
374.40	545.34
374.60	493.85
374.79	465.77
374.99	456.40
375.19	660.03
375.38	620.24
375.58	484.49
375.78	559.39
375.97	615.56
376.17	610.88
376.37	559.39
376.56	538.32
376.76	566.41
376.95	601.52
377.15	550.03
377.35	557.05
377.54	603.86
377.74	557.05
377.93	538.32
378.13	669.39
378.33	610.88
378.52	606.20
378.72	615.56
378.91	582.79
379.11	613.22
379.31	603.86
379.50	603.86
379.70	575.77
379.89	683.44
380.09	561.73
380.28	608.54
380.48	582.79
380.68	648.33
380.87	599.18
381.07	638.97
381.26	622.58
381.46	638.97
381.65	737.27
381.85	674.07
382.04	638.97
382.24	662.37
382.43	624.92
382.63	645.99
382.83	660.03
383.02	617.90
383.22	732.59
383.41	720.88
383.61	674.07
383.80	648.33
384.00	746.63
384.19	660.03
384.39	641.31
384.58	720.88
384.78	699.82
384.97	758.33
385.17	748.97
385.36	812.17
385.56	709.18
385.75	627.26
385.95	730.25
386.14	823.87
386.34	835.57
386.53	753.65
386.72	737.27
386.92	751.31
387.11	800.46
387.31	833.23
387.50	875.36
387.70	887.06
387.89	823.87
388.09	866.00
388.28	816.85
388.48	791.10
388.67	870.68
388.86	889.40
389.06	844.93
389.25	896.43
389.45	873.02
389.64	774.72
389.84	884.72
390.03	861.32
390.22	835.57
390.42	945.58
390.61	922.17
390.81	856.64
391.00	917.49
391.19	933.87
391.39	976.00
391.58	931.53
391.78	870.68
391.97	954.94
392.16	980.68
392.36	994.73
392.55	896.43
392.75	945.58
392.94	884.72
393.13	980.68
393.33	959.62
393.52	1013.45
393.71	1050.90
393.91	1020.47
394.10	994.73
394.29	978.34
394.49	1034.52
394.68	992.39
394.88	973.66
395.07	1022.81
395.26	1050.90
395.46	1078.99
395.65	1207.72
395.84	1055.58
396.04	1081.33
396.23	1048.56
396.42	1163.25
396.62	1135.16
396.81	1095.37
397.00	1041.54
397.19	1252.19
397.39	1135.16
397.58	1235.80
397.77	1149.20
397.97	1235.80
398.16	1231.12
398.35	1228.78
398.55	1270.91
398.74	1303.68
398.93	1268.57
399.12	1261.55
399.32	1249.85
399.51	1277.93
399.70	1350.49
399.90	1303.68
400.09	1362.19
400.28	1352.83
400.47	1322.40
400.67	1350.49
400.86	1390.28
401.05	1355.17
401.24	1444.11
401.44	1416.02
401.63	1406.66
401.82	1432.41
402.01	1385.60
402.21	1441.77
402.40	1521.35
402.59	1425.39
402.78	1465.18
402.97	1490.92
403.17	1507.30
403.36	1462.83
403.55	1465.18
403.74	1596.25
403.93	1533.05
404.13	1533.05
404.32	1526.03
404.51	1469.86
404.70	1645.40
404.89	1603.27
405.09	1771.79
405.28	1699.23
405.47	1621.99
405.66	1769.44
405.85	1657.10
406.05	1638.38
406.24	1666.46
406.43	1746.04
406.62	1802.21
406.81	1713.27
407.00	1654.76
407.20	1818.60
407.39	1813.92
407.58	1888.81
407.77	1778.81
407.96	1877.11
408.15	1823.28
408.34	1870.09
408.54	1959.03
408.73	1984.77
408.92	1930.94
409.11	1916.90
409.30	1935.62
409.49	1881.79
409.68	1874.77
409.87	1926.26
410.07	2080.74
410.26	2132.23
410.45	1954.35
410.64	2045.63
410.83	2207.13
411.02	2022.22
411.21	2221.17
411.40	2073.71
411.59	2165.00
411.78	2249.25
411.98	2104.14
412.17	2200.10
412.36	2300.75
412.55	2200.10
412.74	2282.02
412.93	2249.25
413.12	2342.88
413.31	2310.11
413.50	2408.41
413.69	2436.50
413.88	2495.01
414.07	2525.44
414.26	2490.33
414.45	2445.86
414.64	2495.01
414.83	2633.10
415.02	2665.87
415.22	2637.78
415.41	2796.94
415.60	2656.51
415.79	2665.87
415.98	2803.96
416.17	2843.75
416.36	2782.90
416.55	2726.72
416.74	2909.29
416.93	2766.51
417.12	2775.88
417.31	2850.77
417.50	2892.90
417.69	2963.12
417.88	2972.48
418.07	2867.16
418.26	3016.95
418.45	2867.16
418.64	3075.46
418.83	3089.51
419.02	3045.04
419.21	3066.10
419.39	3152.70
419.58	3124.62
419.77	2895.24
419.96	3162.06
420.15	3141.00
420.34	3197.17
420.53	3225.26
420.72	3183.13
420.91	3297.81
421.10	3206.53
421.29	3382.07
421.48	3206.53
421.67	3349.31
421.86	3375.05
422.05	3309.52
422.24	3342.28
422.43	3227.60
422.61	3316.54
422.80	3318.88
422.99	3335.26
423.18	3431.23
423.37	3433.57
423.56	3471.01
423.75	3475.70
423.94	3351.65
424.13	3246.32
424.32	3325.90
424.50	3311.86
424.69	3424.20
424.88	3534.21
425.07	3438.25
425.26	3361.01
425.45	3538.89
425.64	3478.04
425.83	3332.92
426.01	3611.45
426.20	3431.23
426.39	3478.04
426.58	3311.86
426.77	3407.82
426.96	3431.23
427.15	3520.17
427.33	3489.74
427.52	3531.87
427.71	3700.39
427.90	3599.74
428.09	3574.00
428.28	3627.83
428.46	3660.60
428.65	3676.98
428.84	3808.05
429.03	3801.03
429.22	3513.14
429.40	3836.14
429.59	3698.05
429.78	3700.39
429.97	3555.27
430.16	3611.45
430.34	3662.94
430.53	3859.54
430.72	3719.11
430.91	3770.60
431.10	3740.18
431.28	3882.95
431.47	4063.17
431.66	3990.61
431.85	3957.85
432.03	4042.11
432.22	4035.08
432.41	3983.59
432.60	3868.91
432.79	4025.72
432.97	4124.02
433.16	4044.45
433.35	3988.27
433.54	4126.36
433.72	4180.20
433.91	4056.15
434.10	4035.08
434.28	4072.53
434.47	4180.20
434.66	4262.12
434.85	4189.56
435.03	4318.29
435.22	4458.72
435.41	4365.10
435.59	4454.04
435.78	4407.23
435.97	4407.23
436.16	4528.94
436.34	4372.12
436.53	4411.91
436.72	4575.75
436.90	4264.46
437.09	4482.13
437.28	4292.54
437.46	4540.64
437.65	4561.70
437.84	4613.20
438.02	4500.85
438.21	4514.89
438.40	4468.08
438.58	4713.84
438.77	4779.37
438.96	4835.55
439.14	4802.78
439.33	4868.31
439.52	4903.42
439.70	4894.06
439.89	5022.79
440.08	5067.26
440.26	5062.58
440.45	5034.49
440.63	5128.11
440.82	5205.35
441.01	5018.11
441.19	5233.44
441.38	5359.83
441.57	5160.88
441.75	5366.85
441.94	5411.32
442.12	5561.11
442.31	5425.36
442.50	5455.79
442.68	5518.98
442.87	5540.05
443.05	5626.65
443.24	5720.27
443.43	5523.66
443.61	5654.73
443.80	5778.78
443.98	5533.03
444.17	5493.24
444.35	5631.33
444.54	5614.95
444.73	5582.18
444.91	5434.72
445.10	5565.79
445.28	5596.22
445.47	5668.78
445.65	5701.54
445.84	5589.20
446.02	5879.43
446.21	5535.37
446.39	5598.56
446.58	5734.31
446.77	5825.59
446.95	5720.27
447.14	5736.65
447.32	5823.25
447.51	5802.19
447.69	5778.78
447.88	5907.51
448.06	5771.76
448.25	5811.55
448.43	5645.37
448.62	5703.89
448.80	5849.00
448.99	5837.30
449.17	5898.15
449.36	5905.17
449.54	6054.97
449.73	6003.47
449.91	6057.31
450.10	6047.94
450.28	6195.40
450.46	5996.45
450.65	6193.06
450.83	6282.00
451.02	6174.33
451.20	6167.31
451.39	6354.55
451.57	6167.31
451.76	6076.03
451.94	6303.06
452.13	6291.36
452.31	6333.49
452.49	6092.41
452.68	6296.04
452.86	6267.95
453.05	6345.19
453.23	6218.80
453.42	6246.89
453.60	6190.72
453.78	6450.52
453.97	6483.28
454.15	6244.55
454.34	6319.45
454.52	6612.01
454.70	6441.15
454.89	6595.63
455.07	6637.76
455.26	6654.14
455.44	6670.53
455.62	6670.53
455.81	6513.71
455.99	6539.46
456.17	6719.68
456.36	6682.23
456.54	6794.58
456.73	6740.74
456.91	7054.37
457.09	7030.97
457.28	7335.24
457.46	7002.88
457.64	6981.82
457.83	7105.87
458.01	6897.56
458.19	7297.79
458.38	7061.40
458.56	7229.91
458.74	7056.72
458.93	7110.55
459.11	7103.53
459.29	7211.19
459.48	7171.40
459.66	7157.36
459.84	7206.51
460.03	7314.17
460.21	7342.26
460.39	7351.62
460.57	7365.67
460.76	7337.58
460.94	7461.63
461.12	7569.29
461.31	7672.28
461.49	7576.31
461.67	7517.80
461.85	7691.00
462.04	7691.00
462.22	8119.32
462.40	7997.61
462.59	7838.45
462.77	7782.28
462.95	7805.69
463.13	7686.32
463.32	7716.75
463.50	7761.22
463.68	7693.34
463.86	7740.15
464.05	7765.90
464.23	7784.62
464.41	7960.16
464.59	7784.62
464.78	7992.93
464.96	7988.25
465.14	7763.56
465.32	7992.93
465.50	7953.14
465.69	8133.36
465.87	8081.87
466.05	8063.15
466.23	8032.72
466.41	8109.96
466.60	8198.90
466.78	8126.34
466.96	8219.96
467.14	8332.31
467.32	8222.30
467.51	8198.90
467.69	8294.86
467.87	8339.33
468.05	8393.16
468.23	8184.85
468.41	8236.35
468.60	8234.00
468.78	8486.78
468.96	8442.31
469.14	8514.87
469.32	8568.70
469.50	8269.11
469.69	8449.33
469.87	8821.48
470.05	8706.79
470.23	8751.26
470.41	8805.10
470.59	8793.39
470.77	8617.85
470.95	8678.71
471.14	8891.70
471.32	8751.26
471.50	8952.55
471.68	8912.76
471.86	9060.21
472.04	9249.80
472.22	9263.84
472.40	9069.58
472.58	9193.62
472.77	9376.19
472.95	9458.10
473.13	9612.58
473.31	9336.40
473.49	9226.39
473.67	9432.36
473.85	9408.95
474.03	9689.82
474.21	9750.67
474.39	9748.33
474.57	9860.68
474.75	9774.08
474.93	9724.93
475.12	9659.39
475.30	10078.35
475.48	10087.71
475.66	9926.21
475.84	10001.11
476.02	10164.95
476.20	10232.82
476.38	10183.67
476.56	10588.58
476.74	10445.81
476.92	10429.43
477.10	10361.55
477.28	10548.79
477.46	10518.37
477.64	10579.22
477.82	10862.43
478.00	11087.12
478.18	11033.29
478.36	11082.44
478.54	11232.23
478.72	11468.62
478.90	11590.33
479.08	11281.38
479.26	11475.65
479.44	11662.89
479.62	11658.21
479.80	11662.89
479.98	11655.87
480.16	12147.38
480.34	11950.78
480.52	11906.31
480.70	12161.42
480.88	11812.68
481.06	12238.66
481.24	12086.53
481.41	12233.98
481.59	12713.79
481.77	12753.58
481.95	12596.76
482.13	12589.74
482.31	12849.54
482.49	13221.69
482.67	13209.98
482.85	13160.83
483.03	13289.56
483.21	13530.64
483.39	13785.76
483.57	13486.17
483.74	13991.72
483.92	13774.05
484.10	13839.59
484.28	13905.12
484.46	14251.52
484.64	14534.73
484.82	14251.52
485.00	14256.20
485.18	14668.14
485.35	14796.87
485.53	14801.55
485.71	14551.11
485.89	15192.42
486.07	14848.36
486.25	14960.70
486.43	15084.75
486.61	15428.81
486.78	15496.69
486.96	15428.81
487.14	15719.04
487.32	15885.22
487.50	16180.12
487.68	15971.82
487.85	16491.41
488.03	16585.04
488.21	16510.14
488.39	16957.18
488.57	16830.79
488.75	16783.98
488.92	17081.23
489.10	17207.62
489.28	17312.94
489.46	17469.76
489.64	17598.49
489.81	17743.60
489.99	17949.57
490.17	18022.12
490.35	18202.35
490.53	18050.21
490.70	18331.08
490.88	18239.79
491.06	18553.43
491.24	18445.76
491.41	18703.22
491.59	18731.31
491.77	18810.89
491.95	19152.60
492.13	19159.63
492.30	19295.38
492.48	19534.11
492.66	19262.61
492.84	19543.47
493.01	19693.27
493.19	19515.39
493.37	20100.52
493.54	20065.41
493.72	20475.01
493.90	20025.62
494.08	20393.09
494.25	20737.15
494.43	20416.49
494.61	20954.82
494.79	20821.41
494.96	20645.87
495.14	21013.33
495.32	21184.19
495.49	21205.25
495.67	21516.54
495.85	21556.33
496.02	21542.29
496.20	21848.90
496.38	21860.60
496.55	22033.80
496.73	22513.61
496.91	22111.04
497.09	21921.46
497.26	22604.89
497.44	22480.85
497.62	22469.14
497.79	23070.66
497.97	22824.90
498.14	23278.97
498.32	22934.91
498.50	23117.47
498.67	23257.90
498.85	23517.70
499.03	23704.95
499.20	23201.73
499.38	23576.22
499.56	23812.61
499.73	24006.87
499.91	23836.02
500.08	23889.85
500.26	23646.43
500.44	24067.73
500.61	23751.76
500.79	24341.57
500.97	24514.77
501.14	24741.80
501.32	24526.47
501.49	24861.17
501.67	24915.00
501.84	24978.20
502.02	24992.24
502.20	24809.68
502.37	25214.59
502.55	25156.08
502.72	25193.53
502.90	25177.14
503.07	25277.79
503.25	25291.83
503.43	25179.48
503.60	25759.94
503.78	25441.62
503.95	25429.92
504.13	25757.60
504.30	26078.25
504.48	25762.28
504.65	26115.70
504.83	26405.92
505.01	26302.94
505.18	26370.82
505.36	26569.76
505.53	26204.64
505.71	26752.32
505.88	26452.73
506.06	26536.99
506.23	26913.82
506.41	26579.12
506.58	26984.04
506.76	26962.97
506.93	27009.78
507.11	27190.00
507.28	27103.40
507.46	27077.66
507.63	27543.42
507.81	27634.71
507.98	27513.00
508.16	27566.83
508.33	27847.69
508.50	28268.99
508.68	27990.47
508.85	28311.12
509.03	27929.61
509.20	28072.39
509.38	28280.69
509.55	28463.25
509.73	28844.76
509.90	28638.80
510.08	28678.58
510.25	28730.08
510.42	28753.48
510.60	28947.75
510.77	29252.02
510.95	29280.10
511.12	28982.85
511.30	29163.08
511.47	29338.62
511.64	29528.20
511.82	29502.45
511.99	29380.74
512.17	29579.69
512.34	29439.26
512.51	29565.65
512.69	29724.80
512.86	29930.77
513.04	30106.31
513.21	29951.84
513.38	29928.43
513.56	29848.85
513.73	30005.67
513.90	30349.73
514.08	29806.72
514.25	30441.01
514.43	30649.32
514.60	29937.79
514.77	30291.21
514.95	30834.22
515.12	30773.36
515.29	30658.68
515.47	30455.05
515.64	31166.57
515.81	30897.41
515.99	31047.21
516.16	31044.87
516.33	31290.62
516.51	31386.58
516.68	31278.92
516.85	31051.89
517.03	31068.27
517.20	31084.65
517.37	31323.39
517.54	31159.55
517.72	31824.26
517.89	31508.29
518.06	31702.56
518.24	31807.88
518.41	31838.31
518.58	31988.10
518.75	31964.70
518.93	31974.06
519.10	32088.74
519.27	32182.37
519.45	32252.58
519.62	32168.32
519.79	32493.66
519.96	32414.08
520.14	32582.60
520.31	32598.98
520.48	32666.86
520.65	32591.96
520.83	33144.33
521.00	32840.06
521.17	33118.58
521.34	33212.20
521.52	32996.87
521.69	33350.29
521.86	33521.15
522.03	33195.82
522.20	33212.20
522.38	33565.62
522.55	33867.55
522.72	33528.17
522.89	33715.42
523.07	33418.17
523.24	33457.96
523.41	33921.38
523.58	33631.16
523.75	34347.36
523.92	34117.99
524.10	34202.25
524.27	34326.30
524.44	34089.90
524.61	34125.01
524.78	34866.96
524.96	34866.96
525.13	34731.21
525.30	34639.93
525.47	34932.50
525.64	34515.88
525.81	34700.78
525.98	34857.60
526.16	34719.51
526.33	35143.14
526.50	35346.77
526.67	34820.15
526.84	35035.48
527.01	35082.29
527.18	34991.01
527.36	35445.07
527.53	35157.19
527.70	35601.89
527.87	35468.48
528.04	35108.04
528.21	35374.86
528.38	35426.35
528.55	35655.72
528.72	36037.23
528.89	35817.22
529.07	35665.08
529.24	35597.21
529.41	36421.08
529.58	35526.99
529.75	35866.37
529.92	36275.96
530.09	36252.56
530.26	36308.73
530.43	36268.94
530.60	36201.07
530.77	36177.66
530.94	36514.70
531.11	35871.05
531.28	36598.96
531.46	36575.55
531.63	36535.76
531.80	36629.38
531.97	36290.01
532.14	36561.51
532.31	36872.80
532.48	36889.18
532.65	37184.09
532.82	36886.84
532.99	37198.13
533.16	36783.86
533.33	37113.87
533.50	37399.42
533.67	37177.07
533.84	36821.31
534.01	37289.42
534.18	37504.74
534.35	37390.06
534.52	37385.38
534.69	37785.61
534.86	37713.05
535.03	37703.69
535.20	37593.68
535.37	37603.05
535.54	37881.57
535.71	37722.41
535.88	38286.48
536.05	37926.04
536.22	38047.75
536.38	38087.54
536.55	37937.74
536.72	38029.02
536.89	37574.96
537.06	37776.25
537.23	38003.28
537.40	38000.94
537.57	38204.56
537.74	38036.05
537.91	38089.88
538.08	38639.90
538.25	38288.82
538.42	38265.42
538.59	38555.64
538.75	38171.80
538.92	38288.82
539.09	38632.88
539.26	38543.94
539.43	38494.79
539.60	38789.70
539.77	38700.76
539.94	38579.05
540.11	38733.53
540.28	38663.31
540.44	38719.48
540.61	38160.09
540.78	38684.37
540.95	39119.71
541.12	38969.92
541.29	38902.04
541.46	39136.10
541.62	39248.44
541.79	38960.56
541.96	38614.16
542.13	39035.45
542.30	39012.05
542.47	39143.12
542.63	39393.56
542.80	39271.85
542.97	40018.48
543.14	40348.50
543.31	39737.62
543.48	39791.45
543.64	40416.37
543.81	39985.71
543.98	40006.78
544.15	39878.05
544.32	39920.18
544.48	40467.86
544.65	40533.40
544.82	40369.56
544.99	39798.47
545.16	40135.51
545.32	40285.30
545.49	40446.80
545.66	40528.72
545.83	40355.52
546.00	40863.41
546.16	40332.11
546.33	39959.97
546.50	40577.87
546.67	40509.99
546.83	40121.46
547.00	40222.11
547.17	40531.06
547.34	40451.48
547.50	40837.67
547.67	41048.32
547.84	40591.91
548.00	41219.17
548.17	41137.26
548.34	40910.22
548.51	41132.57
548.67	41298.75
548.84	41116.19
549.01	41298.75
549.18	40821.28
549.34	41195.77
549.51	40928.95
549.68	41441.53
549.84	41457.91
550.01	41102.15
550.18	41230.88
550.34	41200.45
550.51	41144.28
550.68	41163.00
550.84	40828.30
551.01	41495.36
551.18	41275.35
551.34	41244.92
551.51	41787.92
551.68	41514.08
551.84	41790.27
552.01	41607.70
552.18	42036.02
552.34	41350.24
552.51	41944.74
552.68	41305.77
552.84	41734.09
553.01	41930.70
553.18	41462.59
553.34	41937.72
553.51	41326.84
553.67	41715.37
553.84	41956.44
554.01	42057.09
554.17	41881.55
554.34	42347.31
554.51	42160.07
554.67	42738.18
554.84	41963.46
555.00	42426.89
555.17	42033.68
555.33	42361.36
555.50	42342.63
555.67	42174.11
555.83	42249.01
556.00	42462.00
556.16	42682.01
556.33	42728.82
556.50	42682.01
556.66	42515.83
556.83	42424.55
556.99	42895.00
557.16	43103.31
557.32	42637.54
557.49	42670.31
557.65	42078.15
557.82	42075.81
557.98	42300.50
558.15	42864.57
558.32	42955.85
558.48	42749.88
558.65	42199.86
558.81	42131.98
558.98	42946.49
559.14	42639.88
559.31	42644.56
559.47	42679.67
559.64	43494.18
559.80	42794.36
559.97	43098.62
560.13	42621.16
560.30	42614.13
560.46	43143.09
560.63	42595.41
560.79	42845.85
560.96	43473.11
561.12	42593.07
561.29	43072.88
561.45	42684.35
561.61	43164.16
561.78	43037.77
561.94	43236.72
562.11	43091.60
562.27	42843.51
562.44	43192.25
562.60	43339.70
562.77	43234.38
562.93	42885.64
563.10	43189.91
563.26	43086.92
563.42	43056.50
563.59	43093.94
563.75	43119.69
563.92	43599.50
564.08	43316.29
564.24	43793.76
564.41	43353.74
564.57	43386.51
564.74	43283.53
564.90	43051.81
565.07	43819.51
565.23	43559.71
565.39	43868.66
565.56	43454.39
565.72	43576.09
565.88	43679.08
566.05	43295.23
566.21	43508.22
566.38	42967.55
566.54	43711.84
566.70	43768.02
566.87	43810.15
567.03	43452.05
567.19	43779.72
567.36	43824.19
567.52	43260.12
567.68	43620.56
567.85	43599.50
568.01	43880.36
568.17	43580.78
568.34	44023.14
568.50	43552.69
568.66	43660.35
568.83	43966.96
568.99	43489.49
569.15	43562.05
569.32	43423.96
569.48	43398.21
569.64	43491.83
569.81	43917.81
569.97	43557.37
570.13	43812.49
570.30	43391.19
570.46	43304.59
570.62	43587.80
570.78	43388.85
570.95	43468.43
571.11	44222.08
571.27	43765.68
571.43	43344.38
571.60	44025.48
571.76	43782.06
571.92	44158.89
572.09	43962.28
572.25	43679.08
572.41	44069.95
572.57	43683.76
572.74	44477.20
572.90	43852.28
573.06	44009.09
573.22	44116.76
573.38	43786.74
573.55	43772.70
573.71	44055.90
573.87	43634.61
574.03	44058.24
574.20	43641.63
574.36	43924.83
574.52	44168.25
574.68	44329.75
574.84	44556.78
575.01	43777.38
575.17	43728.23
575.33	44130.80
575.49	43971.64
575.65	44442.09
575.82	44444.43
575.98	44039.52
576.14	44439.75
576.30	44065.27
576.46	43693.12
576.62	44016.11
576.79	43786.74
576.95	43695.46
577.11	44156.55
577.27	44013.77
577.43	43753.97
577.59	43854.62
577.75	43943.56
577.92	44058.24
578.08	43826.53
578.24	43587.80
578.40	43973.98
578.56	43810.15
578.72	44538.05
578.88	43976.33
579.04	44119.10
579.21	44229.10
579.37	44020.80
579.53	43894.41
579.69	44137.82
579.85	44198.68
580.01	44217.40
580.17	44020.80
580.33	44341.45
580.49	44147.18
580.65	44205.70
580.82	44231.44
580.98	44149.53
581.14	44062.93
581.30	44364.85
581.46	43992.71
581.62	44179.95
581.78	44304.00
581.94	44172.93
582.10	44158.89
582.26	43885.04
582.42	44186.97
582.58	44128.46
582.74	43746.95
582.90	44451.45
583.06	44456.14
583.22	44615.29
583.38	44657.42
583.54	44217.40
583.70	43981.01
583.86	44128.46
584.02	44079.31
584.18	44322.72
584.34	44418.69
584.50	44676.15
584.66	44343.79
584.82	43761.00
584.98	44374.22
585.14	43983.35
585.30	44238.47
585.46	44294.64
585.62	43739.93
585.78	44051.22
585.94	43793.76
586.10	44067.61
586.26	44048.88
586.42	44439.75
586.58	44376.56
586.74	44219.74
586.90	44086.33
587.06	43969.30
587.22	44156.55
587.38	43873.34
587.54	44446.77
587.70	44676.15
587.86	44793.17
588.02	44334.43
588.18	44505.29
588.34	44072.29
588.49	44053.56
588.65	43929.51
588.81	44313.36
588.97	44341.45
589.13	44208.04
589.29	44360.17
589.45	44680.83
589.61	44514.65
589.77	44568.48
589.93	44470.18
590.08	44437.41
590.24	44205.70
590.40	44252.51
