SpectraSuite Data File
++++++++++++++++++++++++++++++++++++
Date: Fri Oct 25 11:23:15 EDT 2013
User: price-jones
Dark Spectrum Present: No
Reference Spectrum Present: No
Number of Sampled Component Spectra: 1
Spectrometers: USB2+H05261
Integration Time (usec): 100000 (USB2+H05261)
Spectra Averaged: 1 (USB2+H05261)
Boxcar Smoothing: 0 (USB2+H05261)
Correct for Electrical Dark: No (USB2+H05261)
Strobe/Lamp Enabled: No (USB2+H05261)
Correct for Detector Non-linearity: No (USB2+H05261)
Correct for Stray Light: No (USB2+H05261)
Number of Pixels in Processed Spectrum: 2048
>>>>>Begin Processed Spectral Data<<<<<
365.73	145.11
365.92	145.11
366.12	145.11
366.32	131.07
366.52	91.28
366.72	168.52
366.91	63.19
367.11	105.32
367.31	180.22
367.51	191.92
367.70	152.13
367.90	60.85
368.10	70.22
368.30	147.45
368.49	124.05
368.69	201.29
368.89	142.77
369.09	159.16
369.28	119.37
369.48	100.64
369.68	205.97
369.87	142.77
370.07	156.82
370.27	241.08
370.47	348.74
370.66	578.11
370.86	641.31
371.06	697.48
371.25	655.35
371.45	688.12
371.65	706.84
371.84	596.84
372.04	657.69
372.24	643.65
372.44	727.91
372.63	709.18
372.83	692.80
373.03	798.12
373.22	798.12
373.42	802.80
373.62	704.50
373.81	821.53
374.01	795.78
374.21	791.10
374.40	849.61
374.60	823.87
374.79	849.61
374.99	786.42
375.19	819.19
375.38	805.14
375.58	816.85
375.78	830.89
375.97	901.11
376.17	903.45
376.37	917.49
376.56	926.85
376.76	889.40
376.95	856.64
377.15	875.36
377.35	858.98
377.54	905.79
377.74	940.90
377.93	858.98
378.13	1025.15
378.33	980.68
378.52	959.62
378.72	898.77
378.91	1018.13
379.11	889.40
379.31	957.28
379.50	905.79
379.70	959.62
379.89	994.73
380.09	1043.88
380.28	961.96
380.48	940.90
380.68	1027.50
380.87	1057.92
381.07	1027.50
381.26	1067.28
381.46	1029.84
381.65	1011.11
381.85	1013.45
382.04	973.66
382.24	1020.47
382.43	1018.13
382.63	1029.84
382.83	1022.81
383.02	1083.67
383.22	1135.16
383.41	1062.60
383.61	1095.37
383.80	1114.10
384.00	1132.82
384.19	1104.73
384.39	1142.18
384.58	1198.35
384.78	1210.06
384.97	1219.42
385.17	1191.33
385.36	1217.08
385.56	1172.61
385.75	1200.69
385.95	1287.29
386.14	1193.67
386.34	1259.21
386.53	1261.55
386.72	1144.52
386.92	1163.25
387.11	1259.21
387.31	1205.38
387.50	1270.91
387.70	1270.91
387.89	1282.61
388.09	1205.38
388.28	1343.47
388.48	1273.25
388.67	1341.13
388.86	1287.29
389.06	1261.55
389.25	1308.36
389.45	1280.27
389.64	1401.98
389.84	1348.15
390.03	1366.87
390.22	1401.98
390.42	1437.09
390.61	1448.79
390.81	1420.71
391.00	1387.94
391.19	1439.43
391.39	1528.37
391.58	1453.47
391.78	1547.09
391.97	1497.94
392.16	1455.81
392.36	1530.71
392.55	1530.71
392.75	1495.60
392.94	1535.39
393.13	1500.28
393.33	1551.78
393.52	1575.18
393.71	1533.05
393.91	1584.54
394.10	1638.38
394.29	1629.01
394.49	1682.85
394.68	1638.38
394.88	1621.99
395.07	1746.04
395.26	1657.10
395.46	1668.80
395.65	1703.91
395.84	1748.38
396.04	1827.96
396.23	1820.94
396.42	1769.44
396.62	1790.51
396.81	1811.57
397.00	1790.51
397.19	1783.49
397.39	1792.85
397.58	1851.36
397.77	1921.58
397.97	1856.04
398.16	1804.55
398.35	1973.07
398.55	1842.00
398.74	1930.94
398.93	1921.58
399.12	1966.05
399.32	2022.22
399.51	1907.54
399.70	2005.84
399.90	1989.46
400.09	2066.69
400.28	2101.80
400.47	1952.01
400.67	2150.95
400.86	2062.01
401.05	1975.41
401.24	2078.40
401.44	2174.36
401.63	2160.31
401.82	2265.64
402.01	2108.82
402.21	2080.74
402.40	2162.66
402.59	2141.59
402.78	2424.80
402.97	2286.70
403.17	2387.35
403.36	2291.38
403.55	2298.41
403.74	2363.94
403.93	2338.20
404.13	2445.86
404.32	2359.26
404.51	2448.20
404.70	2448.20
404.89	2448.20
405.09	2509.05
405.28	2455.22
405.47	2387.35
405.66	2525.44
405.85	2473.95
406.05	2572.25
406.24	2569.91
406.43	2640.12
406.62	2562.89
406.81	2640.12
407.00	2530.12
407.20	2551.18
407.39	2614.38
407.58	2691.62
407.77	2799.28
407.96	2773.53
408.15	2782.90
408.34	2719.70
408.54	2839.07
408.73	2792.26
408.92	2829.71
409.11	2843.75
409.30	2895.24
409.49	2869.50
409.68	2920.99
409.87	2979.50
410.07	3063.76
410.26	3045.04
410.45	2953.76
410.64	3066.10
410.83	3131.64
411.02	3047.38
411.21	3215.90
411.40	3201.85
411.59	3206.53
411.78	3246.32
411.98	3136.32
412.17	3239.30
412.36	3318.88
412.55	3368.03
412.74	3478.04
412.93	3339.94
413.12	3382.07
413.31	3562.30
413.50	3506.12
413.69	3569.32
413.88	3695.71
414.07	3595.06
414.26	3630.17
414.45	3648.90
414.64	3810.39
414.83	3721.45
415.02	3772.94
415.22	3779.97
415.41	3915.72
415.60	3932.10
415.79	3822.09
415.98	4098.28
416.17	4166.15
416.36	3943.80
416.55	4025.72
416.74	4109.98
416.93	4072.53
417.12	4264.46
417.31	4217.65
417.50	4320.63
417.69	4276.16
417.88	4374.46
418.07	4367.44
418.26	4325.31
418.45	4447.02
418.64	4552.34
418.83	4379.14
419.02	4475.10
419.21	4617.88
419.39	4535.96
419.58	4674.05
419.77	4568.73
419.96	4566.39
420.15	4674.05
420.34	4533.62
420.53	4678.73
420.72	4744.27
420.91	4884.70
421.10	4898.74
421.29	4844.91
421.48	4636.60
421.67	4760.65
421.86	4828.53
422.05	4950.23
422.24	4917.47
422.43	4968.96
422.61	5025.13
422.80	5018.11
422.99	4992.36
423.18	5013.43
423.37	5151.52
423.56	4929.17
423.75	4938.53
423.94	4858.95
424.13	4664.69
424.32	4762.99
424.50	4999.38
424.69	5132.79
424.88	5125.77
425.07	5011.09
425.26	4938.53
425.45	4966.62
425.64	5093.01
425.83	5001.72
426.01	5172.58
426.20	5081.30
426.39	5151.52
426.58	5085.98
426.77	5137.48
426.96	5156.20
427.15	5195.99
427.33	5254.50
427.52	5245.14
427.71	5219.39
427.90	5446.43
428.09	5416.00
428.28	5427.70
428.46	5537.71
428.65	5425.36
428.84	5584.52
429.03	5568.13
429.22	5331.74
429.40	5528.35
429.59	5586.86
429.78	5327.06
429.97	5310.68
430.16	5528.35
430.34	5710.91
430.53	5650.05
430.72	5746.02
430.91	5692.18
431.10	5612.60
431.28	5940.28
431.47	5914.53
431.66	5966.03
431.85	5991.77
432.03	6071.35
432.22	6047.94
432.41	6017.52
432.60	6073.69
432.79	6059.65
432.97	6139.23
433.16	6157.95
433.35	6132.20
433.54	6050.28
433.72	6181.35
433.91	6225.82
434.10	6225.82
434.28	6150.93
434.47	6125.18
434.66	6237.53
434.85	6274.98
435.03	6415.41
435.22	6345.19
435.41	6693.93
435.59	6616.69
435.78	6476.26
435.97	6637.76
436.16	6429.45
436.34	6455.20
436.53	6689.25
436.72	6832.02
436.90	6677.55
437.09	6726.70
437.28	6623.72
437.46	6684.57
437.65	6724.36
437.84	6787.55
438.02	6918.62
438.21	6881.18
438.40	6820.32
438.58	7110.55
438.77	7112.89
438.96	7087.14
439.14	7105.87
439.33	7370.35
439.52	7215.87
439.70	7248.64
439.89	7328.22
440.08	7478.01
440.26	7618.44
440.45	7520.14
440.63	7419.50
440.82	7793.98
441.01	7637.17
441.19	7744.83
441.38	7887.61
441.57	7960.16
441.75	8016.33
441.94	8091.23
442.12	7918.03
442.31	8002.29
442.50	8198.90
442.68	8095.91
442.87	8011.65
443.05	8063.15
443.24	8257.41
443.43	8196.56
443.61	8362.73
443.80	8580.40
443.98	8229.32
444.17	8063.15
444.35	8269.11
444.54	8369.76
444.73	8219.96
444.91	8332.31
445.10	8439.97
445.28	8367.42
445.47	8571.04
445.65	8519.55
445.84	8557.00
446.02	8627.21
446.21	8329.97
446.39	8526.57
446.58	8554.66
446.77	8636.58
446.95	8479.76
447.14	8695.09
447.32	8573.38
447.51	8402.52
447.69	8528.91
447.88	8622.53
448.06	8575.72
448.25	8575.72
448.43	8819.14
448.62	8643.60
448.80	8774.67
448.99	8807.44
449.17	8781.69
449.36	8737.22
449.54	8966.59
449.73	9050.85
449.91	8966.59
450.10	9224.05
450.28	9296.61
450.46	9198.31
450.65	9043.83
450.83	9104.68
451.02	9174.90
451.20	9212.35
451.39	9104.68
451.57	9165.54
451.76	9275.54
451.94	9327.03
452.13	9579.81
452.31	9540.02
452.49	9317.67
452.68	9357.46
452.86	9327.03
453.05	9399.59
453.23	9626.62
453.42	9600.88
453.60	9584.49
453.78	9811.53
453.97	9525.98
454.15	9647.69
454.34	9596.20
454.52	9748.33
454.70	9790.46
454.89	9935.57
455.07	9781.10
455.26	9998.77
455.44	10066.64
455.62	9886.42
455.81	10064.30
455.99	10024.51
456.17	10106.43
456.36	10148.56
456.54	10005.79
456.73	10452.83
456.91	10602.63
457.09	10340.49
457.28	10518.37
457.46	10438.79
457.64	10630.71
457.83	10621.35
458.01	10497.30
458.19	10724.33
458.38	10459.85
458.56	10796.89
458.74	10850.72
458.93	10558.16
459.11	10839.02
459.29	10841.36
459.48	10860.09
459.66	11087.12
459.84	10761.78
460.03	11059.03
460.21	11147.97
460.39	11234.57
460.57	11112.86
460.76	11309.47
460.94	11363.30
461.12	11372.66
461.31	11440.54
461.49	11370.32
461.67	11325.85
461.85	11616.08
462.04	11222.87
462.22	11754.17
462.40	11534.16
462.59	11836.09
462.77	11719.06
462.95	11602.04
463.13	11585.65
463.32	11616.08
463.50	11997.59
463.68	11960.14
463.86	11964.82
464.05	11920.35
464.23	11602.04
464.41	11934.39
464.59	12081.85
464.78	12121.63
464.96	11899.28
465.14	12123.98
465.32	12339.30
465.50	12320.58
465.69	12322.92
465.87	11946.09
466.05	12358.03
466.23	12332.28
466.41	12461.01
466.60	12657.62
466.78	12287.81
466.96	12358.03
467.14	12407.18
467.32	12526.55
467.51	12706.77
467.69	12131.00
467.87	12594.42
468.05	12720.81
468.23	12659.96
468.41	12681.02
468.60	12603.78
468.78	12966.57
468.96	12779.32
469.14	12978.27
469.32	12896.35
469.50	12816.77
469.69	13179.56
469.87	13205.30
470.05	13050.83
470.23	13170.19
470.41	13219.35
470.59	13540.00
470.77	13404.25
470.95	13472.12
471.14	13486.17
471.32	13334.03
471.50	13841.93
471.68	13696.82
471.86	13444.04
472.04	13610.22
472.22	14150.88
472.40	13610.22
472.58	14010.45
472.77	14279.61
472.95	14537.07
473.13	14703.25
473.31	14092.37
473.49	14436.42
473.67	14373.23
473.85	14642.39
474.03	14780.48
474.21	14558.13
474.39	14724.31
474.57	14944.32
474.75	15112.84
474.93	15077.73
475.12	14972.41
475.30	15161.99
475.48	15517.75
475.66	15379.66
475.84	15117.52
476.02	15419.45
476.20	15496.69
476.38	15733.08
476.56	16285.45
476.74	16278.43
476.92	16156.72
477.10	15707.34
477.28	16360.34
477.46	16383.75
477.64	16486.73
477.82	17003.99
478.00	17224.00
478.18	17102.29
478.36	17032.08
478.54	17128.04
478.72	17294.22
478.90	17507.21
479.08	17729.56
479.26	17628.92
479.44	17785.73
479.62	17848.93
479.80	18405.97
479.98	18349.80
480.16	18600.24
480.34	18356.82
480.52	19068.34
480.70	18789.82
480.88	18553.43
481.06	18726.63
481.24	18731.31
481.41	19227.50
481.59	19873.49
481.77	19775.19
481.95	19817.32
482.13	19754.12
482.31	20177.76
482.49	20538.20
482.67	20233.93
482.85	20851.83
483.03	21120.99
483.21	21282.49
483.39	20950.14
483.57	21003.97
483.74	21420.58
483.92	21521.23
484.10	21738.90
484.28	22073.59
484.46	22099.34
484.64	22892.78
484.82	22071.25
485.00	22480.85
485.18	23047.26
485.35	23082.36
485.53	22867.03
485.71	23548.13
485.89	23803.25
486.07	23398.34
486.25	23702.61
486.43	23812.61
486.61	24374.34
486.78	24374.34
486.96	24386.04
487.14	24898.62
487.32	24786.27
487.50	25233.32
487.68	25350.34
487.85	25642.91
488.03	25631.21
488.21	26057.18
488.39	26242.09
488.57	25900.37
488.75	26422.31
488.92	26499.55
489.10	27236.81
489.28	27255.54
489.46	27388.95
489.64	27683.86
489.81	27859.40
489.99	28114.52
490.17	27679.18
490.35	28311.12
490.53	28474.96
490.70	28657.52
490.88	28486.66
491.06	29612.46
491.24	28996.90
491.41	29467.34
491.59	29467.34
491.77	29504.79
491.95	29867.58
492.13	30073.54
492.30	30323.98
492.48	30326.32
492.66	30609.53
492.84	30707.83
493.01	30991.03
493.19	30857.62
493.37	31269.56
493.54	31658.09
493.72	31512.97
493.90	31728.30
494.08	31938.95
494.25	32205.77
494.43	32327.48
494.61	32591.96
494.79	33132.62
494.96	33310.50
495.14	33095.18
495.32	33677.97
495.49	33483.70
495.67	33577.33
495.85	33879.25
496.02	34073.52
496.20	34265.44
496.38	34113.31
496.55	34256.08
496.73	34892.71
496.91	34974.63
497.09	35173.57
497.26	35309.32
497.44	35620.61
497.62	36032.55
497.79	36362.56
497.97	35606.57
498.14	36238.51
498.32	36896.20
498.50	36414.05
498.67	36975.78
498.85	36725.35
499.03	37046.00
499.20	37062.38
499.38	37177.07
499.56	37701.35
499.73	37516.45
499.91	37881.57
500.08	38082.86
500.26	37832.42
500.44	38284.14
500.61	38401.17
500.79	38808.42
500.97	38834.17
501.14	39112.69
501.32	39077.58
501.49	38878.64
501.67	39091.63
501.84	39372.49
502.02	39288.23
502.20	39435.69
502.37	39611.23
502.55	39346.75
502.72	39800.81
502.90	39948.26
503.07	40009.12
503.25	40332.11
503.43	40055.93
503.60	40172.96
503.78	40608.29
503.95	40823.62
504.13	40945.33
504.30	41401.74
504.48	40851.71
504.65	41537.49
504.83	41525.78
505.01	41914.31
505.18	41462.59
505.36	42033.68
505.53	41628.77
505.71	41736.43
505.88	42642.22
506.06	41848.78
506.23	42773.29
506.41	42494.77
506.58	42696.05
506.76	42815.42
506.93	42347.31
507.11	42946.49
507.28	42623.50
507.46	42951.17
507.63	43360.76
507.81	43517.58
507.98	43281.19
508.16	43466.09
508.33	44086.33
508.50	43613.54
508.68	44184.63
508.85	44538.05
509.03	44100.37
509.20	44313.36
509.38	44959.35
509.55	45258.94
509.73	44631.68
509.90	44935.95
510.08	44886.79
510.25	44891.48
510.42	45209.79
510.60	45340.86
510.77	45532.78
510.95	45886.20
511.12	45825.35
511.30	45551.51
511.47	46078.13
511.64	45567.89
511.82	46780.29
511.99	46195.15
512.17	46380.06
512.34	46267.71
512.51	46808.37
512.69	46801.35
512.86	46557.94
513.04	47168.82
513.21	47201.58
513.38	47002.64
513.56	47744.59
513.73	47274.14
513.90	47491.81
514.08	47239.03
514.25	47643.94
514.43	47767.99
514.60	47894.38
514.77	47903.74
514.95	47973.96
515.12	48264.19
515.29	47969.28
515.47	48161.20
515.64	48636.33
515.81	48378.87
515.99	48577.82
516.16	48982.73
516.33	48868.05
516.51	49212.10
516.68	48699.53
516.85	49186.36
517.03	49116.14
517.20	49303.38
517.37	49415.73
517.54	49092.74
517.72	49556.16
517.89	49177.00
518.06	49579.57
518.24	49675.53
518.41	49661.49
518.58	49724.68
518.75	49605.31
518.93	50363.65
519.10	49921.29
519.27	50440.89
519.45	50106.19
519.62	50370.67
519.79	50583.66
519.96	50532.17
520.14	50536.85
520.31	50660.90
520.48	50534.51
520.65	50300.45
520.83	51285.82
521.00	51068.15
521.17	50806.01
521.34	51140.71
521.52	51379.44
521.69	50939.42
521.86	51384.12
522.03	51360.72
522.20	51522.21
522.38	51707.12
522.55	51826.48
522.72	51828.82
522.89	51704.77
523.07	52250.12
523.24	51636.90
523.41	52224.37
523.58	51742.22
523.75	52467.79
523.92	52257.14
524.10	52376.51
524.27	52306.29
524.44	52313.31
524.61	52566.09
524.78	52573.11
524.96	52650.35
525.13	52577.79
525.30	52736.95
525.47	52959.30
525.64	52720.57
525.81	52748.65
525.98	53308.04
526.16	53055.26
526.33	52889.09
526.50	53504.65
526.67	52996.75
526.84	53518.69
527.01	52968.66
527.18	53127.82
527.36	53174.63
527.53	53499.97
527.70	53701.25
527.87	53635.72
528.04	53577.20
528.21	53921.26
528.38	53687.21
528.55	53825.30
528.72	53925.94
528.89	53609.97
529.07	54082.76
529.24	53478.90
529.41	53879.13
529.58	53717.64
529.75	53993.82
529.92	53986.80
530.09	54152.97
530.26	54218.51
530.43	54438.52
530.60	54354.26
530.77	54188.08
530.94	54553.21
531.11	54267.66
531.28	54614.06
531.46	54585.97
531.63	54574.27
531.80	54614.06
531.97	54883.22
532.14	54827.05
532.31	54649.17
532.48	54775.56
532.65	54684.28
532.82	54752.15
532.99	55161.75
533.16	54859.82
533.33	55072.81
533.50	55348.99
533.67	55187.49
533.84	55011.95
534.01	55229.62
534.18	55220.26
534.35	55515.17
534.52	55416.86
534.69	55496.44
534.86	55606.45
535.03	55498.78
535.20	55480.06
535.37	55454.31
535.54	55931.78
535.71	55573.68
535.88	55664.96
536.05	55838.16
536.22	55994.98
536.38	55952.85
536.55	55772.63
536.72	56060.51
536.89	55842.84
537.06	55650.92
537.23	56039.45
537.40	55807.73
537.57	55966.89
537.74	56027.74
537.91	56329.67
538.08	56097.96
538.25	56100.30
538.42	56177.54
538.59	56383.51
538.75	56282.86
538.92	56409.25
539.09	56439.68
539.26	56460.74
539.43	56423.29
539.60	56409.25
539.77	56683.09
539.94	56582.45
540.11	56664.37
540.28	56811.82
540.44	56746.29
540.61	56704.16
540.78	56753.31
540.95	56753.31
541.12	56657.35
541.29	56573.09
541.46	56853.95
541.62	56783.74
541.79	56825.87
541.96	56633.94
542.13	56980.34
542.30	56800.12
542.47	57031.83
542.63	57181.63
542.80	57186.31
542.97	57333.76
543.14	57518.67
543.31	57645.05
543.48	57329.08
543.64	57577.18
543.81	57518.67
543.98	57490.58
544.15	57544.41
544.32	57890.81
544.48	57808.89
544.65	57642.71
544.82	57879.11
544.99	57574.84
545.16	57766.76
545.32	57652.08
545.49	57946.98
545.66	57914.22
545.83	57858.04
546.00	58232.53
546.16	57965.71
546.33	57965.71
546.50	57867.40
546.67	57930.60
546.83	57673.14
547.00	58005.50
547.17	57925.92
547.34	57811.23
547.50	58052.31
547.67	58314.45
547.84	58274.66
548.00	58145.93
548.17	58550.84
548.34	58585.95
548.51	58447.86
548.67	58361.26
548.84	58344.87
549.01	58511.05
549.18	58541.48
549.34	58316.79
549.51	58513.39
549.68	58637.44
549.84	58707.66
550.01	58681.91
550.18	58450.20
550.34	58717.02
550.51	58810.64
550.68	58852.77
550.84	58590.63
551.01	58602.33
551.18	58951.07
551.34	59023.63
551.51	58784.90
551.68	58773.19
551.84	58892.56
552.01	58731.06
552.18	58967.46
552.34	58822.34
552.51	58944.05
552.68	58869.15
552.84	58894.90
553.01	59217.89
553.18	59161.72
553.34	59175.76
553.51	58892.56
553.67	59042.35
553.84	59126.61
554.01	59182.79
554.17	59264.70
554.34	59135.98
554.51	59199.17
554.67	59316.20
554.84	59227.26
555.00	59339.60
555.17	59274.07
555.33	59185.13
555.50	59196.83
555.67	59412.16
555.83	59271.73
556.00	59341.94
556.16	59454.29
556.33	59634.51
556.50	59540.89
556.66	59421.52
556.83	59271.73
556.99	59648.55
557.16	59861.54
557.32	59835.80
557.49	59868.56
557.65	59587.70
557.82	59760.90
557.98	59646.21
558.15	59634.51
558.32	59746.86
558.48	59887.29
558.65	59653.23
558.81	59891.97
558.98	59793.67
559.14	59983.25
559.31	59903.67
559.47	59964.52
559.64	59976.23
559.80	59898.99
559.97	60116.66
560.13	59763.24
560.30	59875.58
560.46	59950.48
560.63	60095.60
560.79	60058.15
560.96	60257.09
561.12	60090.91
561.29	60191.56
561.45	60067.51
561.61	59973.89
561.78	60121.34
561.94	60104.96
562.11	59931.76
562.27	59999.63
562.44	60392.84
562.60	60252.41
562.77	60158.79
562.93	60310.92
563.10	60273.48
563.26	60175.17
563.42	60488.80
563.59	60229.01
563.75	60315.61
563.92	60072.19
564.08	60224.32
564.24	60411.57
564.41	60329.65
564.57	60397.52
564.74	60224.32
564.90	60275.82
565.07	60336.67
565.23	60472.42
565.39	60374.12
565.56	60449.02
565.72	60324.97
565.88	60544.98
566.05	60388.16
566.21	60320.29
566.38	60650.30
566.54	60446.68
566.70	60540.30
566.87	60598.81
567.03	60528.59
567.19	60860.95
567.36	60507.53
567.52	60484.12
567.68	60863.29
567.85	60509.87
568.01	60736.90
568.17	60385.82
568.34	60598.81
568.50	60982.66
568.66	60521.57
568.83	60769.67
568.99	60465.40
569.15	60570.72
569.32	60701.79
569.48	60507.53
569.64	60685.41
569.81	60701.79
569.97	60509.87
570.13	60720.52
570.30	60769.67
570.46	60596.47
570.62	60837.54
570.78	60633.92
570.95	60584.77
571.11	60896.06
571.27	60575.40
571.43	60800.10
571.60	60739.24
571.76	60839.89
571.92	60874.99
572.09	60917.12
572.25	60809.46
572.41	60692.43
572.57	60942.87
572.74	61160.54
572.90	60781.37
573.06	61027.13
573.22	60779.03
573.38	60985.00
573.55	60903.08
573.71	60903.08
573.87	61024.79
574.03	60715.84
574.20	61020.11
574.36	60940.53
574.52	61048.19
574.68	60975.64
574.84	61249.48
575.01	61095.00
575.17	61137.13
575.33	60907.76
575.49	60987.34
575.65	60907.76
575.82	61020.11
575.98	61001.38
576.14	61223.73
576.30	61050.53
576.46	61092.66
576.62	61045.85
576.79	60896.06
576.95	60945.21
577.11	61003.72
577.27	61062.24
577.43	60970.96
577.59	60886.70
577.75	60975.64
577.92	61017.77
578.08	61099.68
578.24	60975.64
578.40	61368.85
578.56	61432.04
578.72	61254.16
578.88	61340.76
579.04	61380.55
579.21	61261.18
579.37	61242.46
579.53	61214.37
579.69	60837.54
579.85	60970.96
580.01	60996.70
580.17	60985.00
580.33	61043.51
580.49	61167.56
580.65	61020.11
580.82	61298.63
580.98	60919.46
581.14	61087.98
581.30	61174.58
581.46	61048.19
581.62	61073.94
581.78	61095.00
581.94	61251.82
582.10	61165.22
582.26	61242.46
582.42	60996.70
582.58	61293.95
582.74	61148.84
582.90	61338.42
583.06	61055.21
583.22	60931.17
583.38	61031.81
583.54	61310.33
583.70	61352.46
583.86	61336.08
584.02	61029.47
584.18	61361.82
584.34	61195.65
584.50	61099.68
584.66	61130.11
584.82	61038.83
584.98	61478.85
585.14	61418.00
585.30	61212.03
585.46	61258.84
585.62	61319.70
585.78	61263.52
585.94	61090.32
586.10	61279.91
586.26	61207.35
586.42	61317.35
586.58	61408.64
586.74	61172.24
586.90	61031.81
587.06	61326.72
587.22	61598.22
587.38	61221.39
587.54	61357.14
587.70	61474.17
587.86	61226.07
588.02	61146.50
588.18	61354.80
588.34	61380.55
