SpectraSuite Data File
++++++++++++++++++++++++++++++++++++
Date: Fri Oct 25 10:47:58 EDT 2013
User: price-jones
Dark Spectrum Present: No
Reference Spectrum Present: No
Number of Sampled Component Spectra: 1
Spectrometers: USB2+H05261
Integration Time (usec): 100000 (USB2+H05261)
Spectra Averaged: 1 (USB2+H05261)
Boxcar Smoothing: 0 (USB2+H05261)
Correct for Electrical Dark: No (USB2+H05261)
Strobe/Lamp Enabled: No (USB2+H05261)
Correct for Detector Non-linearity: No (USB2+H05261)
Correct for Stray Light: No (USB2+H05261)
Number of Pixels in Processed Spectrum: 2048
>>>>>Begin Processed Spectral Data<<<<<
365.73	182.56
365.92	182.56
366.12	182.56
366.32	2.34
366.52	46.81
366.72	84.26
366.91	0.00
367.11	16.38
367.31	16.38
367.51	0.00
367.70	51.49
367.90	0.00
368.10	37.45
368.30	77.24
368.49	98.30
368.69	60.85
368.89	77.24
369.09	37.45
369.28	93.62
369.48	0.00
369.68	0.00
369.87	81.92
370.07	77.24
370.27	121.71
370.47	177.88
370.66	358.10
370.86	468.11
371.06	475.13
371.25	451.72
371.45	440.02
371.65	435.34
371.84	512.58
372.04	491.51
372.24	470.45
372.44	500.87
372.63	465.77
372.83	442.36
373.03	528.96
373.22	524.28
373.42	582.79
373.62	571.09
373.81	514.92
374.01	545.34
374.21	573.43
374.40	475.13
374.60	507.90
374.79	491.51
374.99	528.96
375.19	585.13
375.38	575.77
375.58	601.52
375.78	608.54
375.97	578.11
376.17	613.22
376.37	669.39
376.56	638.97
376.76	688.12
376.95	624.92
377.15	624.92
377.35	594.50
377.54	573.43
377.74	648.33
377.93	594.50
378.13	657.69
378.33	561.73
378.52	613.22
378.72	543.00
378.91	648.33
379.11	601.52
379.31	601.52
379.50	601.52
379.70	678.76
379.89	676.41
380.09	606.20
380.28	636.63
380.48	685.78
380.68	711.52
380.87	711.52
381.07	655.35
381.26	664.71
381.46	676.41
381.65	674.07
381.85	706.84
382.04	643.65
382.24	697.48
382.43	741.95
382.63	610.88
382.83	655.35
383.02	699.82
383.22	767.70
383.41	695.14
383.61	786.42
383.80	713.86
384.00	755.99
384.19	781.74
384.39	690.46
384.58	814.51
384.78	727.91
384.97	823.87
385.17	699.82
385.36	784.08
385.56	746.63
385.75	755.99
385.95	770.04
386.14	791.10
386.34	737.27
386.53	685.78
386.72	758.33
386.92	784.08
387.11	786.42
387.31	795.78
387.50	823.87
387.70	734.93
387.89	758.33
388.09	828.55
388.28	746.63
388.48	779.40
388.67	788.76
388.86	863.66
389.06	961.96
389.25	875.36
389.45	887.06
389.64	917.49
389.84	863.66
390.03	863.66
390.22	910.47
390.42	961.96
390.61	961.96
390.81	936.21
391.00	837.91
391.19	976.00
391.39	1027.50
391.58	908.13
391.78	961.96
391.97	940.90
392.16	870.68
392.36	1011.11
392.55	980.68
392.75	884.72
392.94	933.87
393.13	933.87
393.33	922.17
393.52	959.62
393.71	959.62
393.91	957.28
394.10	990.05
394.29	1043.88
394.49	1036.86
394.68	1172.61
394.88	1125.80
395.07	1167.93
395.26	1111.75
395.46	1062.60
395.65	1083.67
395.84	1090.69
396.04	1196.01
396.23	1078.99
396.42	1193.67
396.62	1219.42
396.81	1011.11
397.00	1095.37
397.19	1163.25
397.39	1254.53
397.58	1266.23
397.77	1256.87
397.97	1235.80
398.16	1245.16
398.35	1313.04
398.55	1235.80
398.74	1343.47
398.93	1315.38
399.12	1291.98
399.32	1303.68
399.51	1371.55
399.70	1404.32
399.90	1397.30
400.09	1357.51
400.28	1455.81
400.47	1357.51
400.67	1458.15
400.86	1420.71
401.05	1430.07
401.24	1448.79
401.44	1448.79
401.63	1455.81
401.82	1551.78
402.01	1481.56
402.21	1497.94
402.40	1551.78
402.59	1507.30
402.78	1586.88
402.97	1568.16
403.17	1610.29
403.36	1540.07
403.55	1610.29
403.74	1647.74
403.93	1708.59
404.13	1652.42
404.32	1701.57
404.51	1703.91
404.70	1739.02
404.89	1631.35
405.09	1671.14
405.28	1638.38
405.47	1624.33
405.66	1739.02
405.85	1687.53
406.05	1724.97
406.24	1720.29
406.43	1769.44
406.62	1757.74
406.81	1947.33
407.00	1818.60
407.20	1802.21
407.39	1879.45
407.58	1923.92
407.77	1954.35
407.96	1937.96
408.15	1935.62
408.34	1923.92
408.54	1959.03
408.73	1984.77
408.92	2148.61
409.11	1959.03
409.30	2026.90
409.49	1926.26
409.68	2022.22
409.87	2073.71
410.07	2160.31
410.26	2209.47
410.45	2066.69
410.64	2127.55
410.83	2165.00
411.02	2211.81
411.21	2176.70
411.40	2223.51
411.59	2265.64
411.78	2260.96
411.98	2354.58
412.17	2289.04
412.36	2286.70
412.55	2363.94
412.74	2377.98
412.93	2438.84
413.12	2438.84
413.31	2523.10
413.50	2539.48
413.69	2551.18
413.88	2562.89
414.07	2572.25
414.26	2569.91
414.45	2462.24
414.64	2619.06
414.83	2722.04
415.02	2715.02
415.22	2782.90
415.41	2794.60
415.60	2773.53
415.79	2860.13
415.98	2843.75
416.17	2806.30
416.36	2958.44
416.55	2841.41
416.74	2918.65
416.93	2801.62
417.12	2963.12
417.31	2923.33
417.50	2906.95
417.69	3066.10
417.88	3082.49
418.07	3009.93
418.26	3143.34
418.45	3098.87
418.64	3215.90
418.83	3061.42
419.02	3157.38
419.21	3342.28
419.39	3077.80
419.58	3112.91
419.77	3166.74
419.96	3302.50
420.15	3150.36
420.34	3318.88
420.53	3272.07
420.72	3372.71
420.91	3325.90
421.10	3318.88
421.29	3426.54
421.48	3307.18
421.67	3471.01
421.86	3346.97
422.05	3185.47
422.24	3225.26
422.43	3384.41
422.61	3534.21
422.80	3480.38
422.99	3391.44
423.18	3424.20
423.37	3620.81
423.56	3555.27
423.75	3522.51
423.94	3438.25
424.13	3262.71
424.32	3365.69
424.50	3447.61
424.69	3499.10
424.88	3482.72
425.07	3412.50
425.26	3510.80
425.45	3449.95
425.64	3428.88
425.83	3475.70
426.01	3578.68
426.20	3599.74
426.39	3550.59
426.58	3440.59
426.77	3552.93
426.96	3527.19
427.15	3611.45
427.33	3655.92
427.52	3702.73
427.71	3791.67
427.90	3765.92
428.09	3747.20
428.28	3789.33
428.46	3779.97
428.65	3751.88
428.84	3880.61
429.03	3871.25
429.22	3763.58
429.40	3805.71
429.59	3695.71
429.78	3618.47
429.97	3613.79
430.16	3751.88
430.34	3728.47
430.53	3936.78
430.72	3904.01
430.91	3894.65
431.10	3906.35
431.28	4114.66
431.47	4074.87
431.66	4051.47
431.85	4095.94
432.03	4091.26
432.22	4325.31
432.41	4152.11
432.60	4124.02
432.79	4210.62
432.97	4374.46
433.16	4290.20
433.35	4147.43
433.54	4032.74
433.72	4180.20
433.91	4194.24
434.10	4346.37
434.28	4257.43
434.47	4365.10
434.66	4390.84
434.85	4390.84
435.03	4372.12
435.22	4463.40
435.41	4667.03
435.59	4540.64
435.78	4582.77
435.97	4484.47
436.16	4489.15
436.34	4601.49
436.53	4662.35
436.72	4713.84
436.90	4519.57
437.09	4777.03
437.28	4638.94
437.46	4678.73
437.65	4657.67
437.84	4671.71
438.02	4617.88
438.21	4737.24
438.40	4573.41
438.58	4905.76
438.77	4905.76
438.96	4856.61
439.14	4877.68
439.33	5039.17
439.52	5048.54
439.70	5018.11
439.89	4999.38
440.08	5142.16
440.26	5207.69
440.45	5310.68
440.63	5160.88
440.82	5343.44
441.01	5224.08
441.19	5359.83
441.38	5394.93
441.57	5172.58
441.75	5565.79
441.94	5645.37
442.12	5675.80
442.31	5589.20
442.50	5605.58
442.68	5476.85
442.87	5671.12
443.05	5650.05
443.24	5710.91
443.43	5591.54
443.61	5633.67
443.80	5820.91
443.98	5643.03
444.17	5682.82
444.35	5748.36
444.54	6019.86
444.73	5664.10
444.91	5816.23
445.10	5921.56
445.28	5806.87
445.47	5701.54
445.65	5675.80
445.84	5888.79
446.02	5973.05
446.21	5664.10
446.39	5841.98
446.58	5813.89
446.77	5954.32
446.95	5685.16
447.14	5982.41
447.32	6052.63
447.51	5947.30
447.69	5898.15
447.88	5905.17
448.06	6050.28
448.25	6099.44
448.43	6050.28
448.62	5898.15
448.80	5874.74
448.99	6017.52
449.17	5956.66
449.36	6038.58
449.54	6134.54
449.73	6153.27
449.91	6120.50
450.10	6384.98
450.28	6429.45
450.46	6370.94
450.65	6422.43
450.83	6314.77
451.02	6352.21
451.20	6492.65
451.39	6363.92
451.57	6420.09
451.76	6389.66
451.94	6354.55
452.13	6532.44
452.31	6382.64
452.49	6340.51
452.68	6523.07
452.86	6413.07
453.05	6513.71
453.23	6619.04
453.42	6457.54
453.60	6546.48
453.78	6677.55
453.97	6583.93
454.15	6499.67
454.34	6679.89
454.52	6696.27
454.70	6726.70
454.89	6808.62
455.07	6715.00
455.26	6846.07
455.44	6925.65
455.62	6977.14
455.81	6775.85
455.99	7021.61
456.17	6984.16
456.36	6902.24
456.54	6965.43
456.73	7070.76
456.91	7213.53
457.09	7187.79
457.28	7452.27
457.46	7176.08
457.64	7180.76
457.83	7360.98
458.01	7290.77
458.19	7358.64
458.38	7321.20
458.56	7424.18
458.74	7330.56
458.93	7424.18
459.11	7400.77
459.29	7353.96
459.48	7499.08
459.66	7517.80
459.84	7485.03
460.03	7742.49
460.21	7482.69
460.39	7744.83
460.57	7803.35
460.76	7625.47
460.94	7728.45
461.12	7686.32
461.31	7691.00
461.49	7707.38
461.67	7784.62
461.85	7758.88
462.04	7683.98
462.22	8252.73
462.40	7955.48
462.59	7873.56
462.77	8049.10
462.95	8065.49
463.13	8053.78
463.32	7864.20
463.50	8114.64
463.68	8184.85
463.86	8116.98
464.05	7871.22
464.23	8081.87
464.41	8285.50
464.59	7983.57
464.78	8105.28
464.96	8107.62
465.14	8006.97
465.32	8376.78
465.50	8376.78
465.69	8308.90
465.87	8290.18
466.05	8210.60
466.23	8292.52
466.41	8231.66
466.60	8409.54
466.78	8407.20
466.96	8418.91
467.14	8301.88
467.32	8587.43
467.51	8519.55
467.69	8154.43
467.87	8439.97
468.05	8671.68
468.23	8470.40
468.41	8507.85
468.60	8393.16
468.78	8681.05
468.96	8437.63
469.14	8690.41
469.32	8767.65
469.50	8571.04
469.69	8622.53
469.87	8898.72
470.05	8851.91
470.23	8762.97
470.41	9092.98
470.59	9111.71
470.77	9092.98
470.95	9041.49
471.14	9348.10
471.32	9011.06
471.50	9202.99
471.68	9376.19
471.86	9348.10
472.04	9291.93
472.22	9493.21
472.40	9249.80
472.58	9364.48
472.77	9324.69
472.95	9633.64
473.13	9722.59
473.31	9495.55
473.49	9596.20
473.67	9577.47
473.85	9446.40
474.03	9923.87
474.21	9937.91
474.39	9921.53
474.57	9991.75
474.75	9804.50
474.93	9926.21
475.12	10029.20
475.30	10068.98
475.48	10061.96
475.66	10251.55
475.84	10321.76
476.02	10590.92
476.20	10441.13
476.38	10450.49
476.56	10745.40
476.74	10693.91
476.92	10714.97
477.10	10892.85
477.28	10789.87
477.46	10829.66
477.64	11147.97
477.82	11105.84
478.00	11419.47
478.18	11255.64
478.36	11272.02
478.54	11314.15
478.72	11424.15
478.90	11576.29
479.08	11833.75
479.26	11941.41
479.44	11934.39
479.62	11962.48
479.80	12107.59
479.98	12049.08
480.16	12351.01
480.34	12250.36
480.52	12498.46
480.70	12411.86
480.88	12257.39
481.06	12341.64
481.24	12549.95
481.41	12748.90
481.59	12877.63
481.77	12978.27
481.95	12947.84
482.13	13078.91
482.31	13172.54
482.49	13708.52
482.67	13469.78
482.85	13699.16
483.03	13668.73
483.21	13902.78
483.39	13968.32
483.57	14286.63
483.74	14403.66
483.92	14139.18
484.10	14001.08
484.28	14239.82
484.46	14728.99
484.64	14817.93
484.82	14558.13
485.00	14817.93
485.18	14960.70
485.35	15279.02
485.53	14953.68
485.71	14920.92
485.89	15215.82
486.07	15428.81
486.25	15243.91
486.43	15349.23
486.61	15625.42
486.78	16070.12
486.96	15704.99
487.14	16109.91
487.32	16205.87
487.50	16074.80
487.68	16798.02
487.85	16854.20
488.03	16985.27
488.21	17099.95
488.39	17011.01
488.57	17362.09
488.75	17455.72
488.92	17628.92
489.10	17617.21
489.28	17860.63
489.46	17907.44
489.64	17816.16
489.81	18293.63
489.99	18347.46
490.17	18459.81
490.35	19019.19
490.53	18501.93
490.70	18714.92
490.88	18698.54
491.06	19037.92
491.24	18707.90
491.41	18953.66
491.59	18883.44
491.77	19068.34
491.95	19538.79
492.13	19616.03
492.30	19878.17
492.48	19683.91
492.66	19836.04
492.84	19826.68
493.01	20294.79
493.19	20463.30
493.37	20833.11
493.54	20360.32
493.72	20800.34
493.90	20489.05
494.08	20929.07
494.25	21238.02
494.43	21600.80
494.61	21238.02
494.79	21502.50
494.96	21109.29
495.14	21448.67
495.32	21605.49
495.49	21982.31
495.67	21755.28
495.85	22111.04
496.02	22003.38
496.20	21996.35
496.38	22438.72
496.55	22424.67
496.73	22953.63
496.91	22862.35
497.09	22876.40
497.26	23005.13
497.44	22871.72
497.62	23274.29
497.79	23346.84
497.97	23321.10
498.14	23473.23
498.32	23857.08
498.50	23477.91
498.67	23796.23
498.85	23796.23
499.03	24332.21
499.20	24088.79
499.38	23899.21
499.56	24205.82
499.73	24596.69
499.91	24407.11
500.08	24720.74
500.26	24105.18
500.44	24615.41
500.61	24659.88
500.79	24400.08
500.97	24959.47
501.14	25294.17
501.32	25207.57
501.49	24854.15
501.67	25448.64
501.84	25343.32
502.02	25184.16
502.20	25631.21
502.37	25560.99
502.55	25579.71
502.72	25795.04
502.90	26019.74
503.07	25731.85
503.25	26436.35
503.43	25846.54
503.60	26122.72
503.78	26412.95
503.95	26045.48
504.13	26316.98
504.30	26623.59
504.48	26419.97
504.65	26675.09
504.83	26939.57
505.01	27115.11
505.18	26778.07
505.36	27295.33
505.53	27381.93
505.71	27110.43
505.88	27250.86
506.06	27124.47
506.23	27257.88
506.41	27009.78
506.58	27438.10
506.76	27449.80
506.93	27835.99
507.11	27454.48
507.28	27817.27
507.46	27627.68
507.63	27985.79
507.81	27941.32
507.98	27964.72
508.16	28229.20
508.33	28519.43
508.50	28477.30
508.68	28566.24
508.85	28629.43
509.03	28512.41
509.20	28826.04
509.38	28926.68
509.55	28940.72
509.73	29186.48
509.90	29228.61
510.08	29200.52
510.25	29326.91
510.42	29329.25
510.60	29331.59
510.77	29507.13
510.95	29523.52
511.12	29156.05
511.30	29645.23
511.47	29785.66
511.64	30089.93
511.82	29694.38
511.99	29736.51
512.17	30382.49
512.34	29853.53
512.51	30508.88
512.69	30621.23
512.86	30412.92
513.04	30649.32
513.21	30597.82
513.38	30546.33
513.56	30703.15
513.73	30593.14
513.90	30946.56
514.08	31051.89
514.25	31147.85
514.43	31016.78
514.60	30583.78
514.77	30843.58
514.95	31115.08
515.12	31182.96
515.29	31246.15
515.47	31690.85
515.64	31475.52
515.81	31835.97
515.99	31330.41
516.16	31803.20
516.33	31618.30
516.51	31878.10
516.68	31569.15
516.85	31489.57
517.03	31646.38
517.20	31960.02
517.37	31850.01
517.54	31887.46
517.72	32051.30
517.89	32416.42
518.06	32343.86
518.24	32109.81
518.41	32121.51
518.58	32603.66
518.75	32357.91
518.93	32811.97
519.10	32491.32
519.27	32875.16
519.45	32943.04
519.62	32996.87
519.79	32961.76
519.96	33240.29
520.14	33233.27
520.31	33259.01
520.48	32999.21
520.65	33425.19
520.83	33668.61
521.00	33670.95
521.17	33589.03
521.34	33720.10
521.52	34127.35
521.69	33586.69
521.86	33970.54
522.03	34352.04
522.20	33909.68
522.38	34323.96
522.55	34155.44
522.72	33984.58
522.89	34132.03
523.07	34206.93
523.24	34127.35
523.41	34572.05
523.58	34567.37
523.75	34923.13
523.92	34733.55
524.10	34834.19
524.27	35014.41
524.44	35002.71
524.61	35002.71
524.78	35356.13
524.96	35171.23
525.13	35494.22
525.30	35604.23
525.47	35395.92
525.64	35077.61
525.81	35274.21
525.98	35613.59
526.16	35030.80
526.33	35555.08
526.50	35695.51
526.67	35438.05
526.84	35267.19
527.01	35498.91
527.18	35864.03
527.36	35782.11
527.53	36114.47
527.70	35878.07
527.87	36273.62
528.04	35892.12
528.21	35952.97
528.38	36079.36
528.55	36531.08
528.72	36542.78
528.89	36638.75
529.07	35990.42
529.24	36369.58
529.41	36580.23
529.58	36514.70
529.75	36685.56
529.92	36865.78
530.09	36730.03
530.26	36730.03
530.43	36964.08
530.60	36512.36
530.77	36641.09
530.94	37064.72
531.11	36950.04
531.28	37462.61
531.46	37425.17
531.63	36975.78
531.80	37228.56
531.97	37130.26
532.14	37949.45
532.31	36966.42
532.48	37493.04
532.65	37820.72
532.82	37518.79
532.99	37813.70
533.16	37696.67
533.33	38017.32
533.50	38082.86
533.67	38237.33
533.84	37331.54
534.01	37912.00
534.18	37947.11
534.35	38045.41
534.52	38029.02
534.69	38253.72
534.86	38099.24
535.03	37741.14
535.20	38595.43
535.37	38616.50
535.54	38586.07
535.71	38330.95
535.88	38253.72
536.05	38307.55
536.22	38164.78
536.38	38457.34
536.55	38478.41
536.72	38483.09
536.89	38471.39
537.06	38565.01
537.23	39110.35
537.40	38539.26
537.57	38974.60
537.74	38986.30
537.91	39199.29
538.08	38742.89
538.25	38576.71
538.42	39243.76
538.59	39154.82
538.75	38925.45
538.92	39175.89
539.09	39084.61
539.26	39384.19
539.43	38951.20
539.60	39297.59
539.77	39136.10
539.94	39311.64
540.11	39049.50
540.28	38899.70
540.44	39091.63
540.61	39044.82
540.78	39447.39
540.95	39522.29
541.12	39636.97
541.29	39662.72
541.46	39805.49
541.62	39847.62
541.79	39768.04
541.96	39702.51
542.13	39966.99
542.30	39950.60
542.47	39824.22
542.63	39789.11
542.80	39758.68
542.97	40392.97
543.14	40711.28
543.31	40755.75
543.48	40542.76
543.64	41045.97
543.81	40854.05
543.98	40521.69
544.15	40727.66
544.32	40601.27
544.48	41060.02
544.65	41326.84
544.82	41221.52
544.99	40610.64
545.16	40423.39
545.32	40734.68
545.49	41031.93
545.66	41113.85
545.83	40987.46
546.00	41298.75
546.16	41001.50
546.33	40985.12
546.50	40739.36
546.67	41127.89
546.83	40821.28
547.00	41060.02
547.17	41109.17
547.34	40973.42
547.50	41055.34
547.67	41425.14
547.84	41289.39
548.00	41621.75
548.17	41684.94
548.34	41722.39
548.51	41670.90
548.67	41607.70
548.84	42005.59
549.01	41649.83
549.18	41675.58
549.34	41867.50
549.51	41745.80
549.68	41738.77
549.84	42068.79
550.01	42021.98
550.18	42342.63
550.34	41830.05
550.51	41537.49
550.68	41951.76
550.84	41703.67
551.01	42178.79
551.18	42241.99
551.34	42307.52
551.51	42110.92
551.68	42466.68
551.84	42335.61
552.01	41525.78
552.18	41687.28
552.34	42195.18
552.51	42700.73
552.68	42347.31
552.84	42616.47
553.01	42789.67
553.18	42342.63
553.34	42424.55
553.51	42581.37
553.67	42564.98
553.84	42775.63
554.01	42693.71
554.17	42925.42
554.34	42775.63
554.51	42557.96
554.67	42885.64
554.84	42445.62
555.00	42309.86
555.17	42703.07
555.33	42642.22
555.50	42756.91
555.67	42780.31
555.83	42227.95
556.00	43000.32
556.16	43381.83
556.33	42806.06
556.50	42880.95
556.66	43175.86
556.83	42827.12
556.99	43409.92
557.16	43124.37
557.32	43098.62
557.49	43161.82
557.65	42885.64
557.82	42705.41
557.98	43225.01
558.15	42834.14
558.32	43473.11
558.48	43543.33
558.65	43255.44
558.81	43356.08
558.98	43496.52
559.14	43178.20
559.31	43552.69
559.47	43250.76
559.64	43505.88
559.80	43768.02
559.97	43349.06
560.13	42810.74
560.30	43302.25
560.46	43707.16
560.63	43466.09
560.79	43358.42
560.96	43929.51
561.12	43583.12
561.29	43643.97
561.45	43365.45
561.61	43611.20
561.78	43150.12
561.94	43470.77
562.11	43442.68
562.27	43711.84
562.44	43454.39
562.60	44041.86
562.77	43683.76
562.93	43606.52
563.10	44371.88
563.26	43578.43
563.42	44018.46
563.59	43775.04
563.75	43777.38
563.92	43999.73
564.08	44264.21
564.24	43906.11
564.41	44186.97
564.57	43971.64
564.74	44013.77
564.90	44074.63
565.07	43508.22
565.23	43714.19
565.39	43634.61
565.56	43964.62
565.72	43878.02
565.88	43725.89
566.05	44278.25
566.21	43973.98
566.38	43763.34
566.54	43768.02
566.70	44109.74
566.87	44692.53
567.03	43878.02
567.19	44556.78
567.36	44172.93
567.52	43688.44
567.68	44222.08
567.85	44088.67
568.01	43957.60
568.17	43945.90
568.34	44355.49
568.50	44135.48
568.66	43711.84
568.83	44093.35
568.99	43679.08
569.15	44311.02
569.32	44016.11
569.48	43936.54
569.64	44446.77
569.81	44301.66
569.97	43992.71
570.13	44126.12
570.30	43936.54
570.46	44336.77
570.62	43971.64
570.78	43889.73
570.95	44296.98
571.11	44610.61
571.27	44535.71
571.43	44383.58
571.60	44268.89
571.76	44406.98
571.92	43959.94
572.09	44289.96
572.25	44706.57
572.41	44397.62
572.57	44385.92
572.74	44739.34
572.90	44215.06
573.06	44516.99
573.22	44704.23
573.38	44505.29
573.55	44318.04
573.71	44259.53
573.87	44144.84
574.03	44016.11
574.20	44404.64
574.36	44039.52
574.52	44708.91
574.68	44315.70
574.84	44524.01
575.01	44383.58
575.17	44100.37
575.33	44275.91
575.49	44591.89
575.65	44760.40
575.82	44811.90
575.98	44566.14
576.14	44746.36
576.30	44865.73
576.46	44554.44
576.62	44350.81
576.79	44463.16
576.95	44065.27
577.11	44364.85
577.27	44247.83
577.43	44907.86
577.59	44514.65
577.75	44395.28
577.92	44369.54
578.08	44299.32
578.24	44395.28
578.40	44800.19
578.56	44556.78
578.72	44322.72
578.88	44643.38
579.04	44573.16
579.21	44666.78
579.37	44224.42
579.53	44790.83
579.69	44477.20
579.85	44645.72
580.01	44975.73
580.17	44835.30
580.33	44788.49
580.49	44655.08
580.65	45027.23
580.82	44767.43
580.98	44320.38
581.14	44280.60
581.30	44631.68
581.46	44437.41
581.62	44942.97
581.78	44608.27
581.94	44545.08
582.10	44790.83
582.26	45095.10
582.42	44629.34
582.58	44484.22
582.74	45036.59
582.90	44442.09
583.06	44994.46
583.22	45038.93
583.38	44947.65
583.54	45305.75
583.70	44837.64
583.86	44652.74
584.02	44509.97
584.18	44442.09
584.34	44839.98
584.50	44685.51
584.66	44584.86
584.82	44830.62
584.98	45050.63
585.14	45268.30
585.30	44737.00
585.46	44814.24
585.62	44629.34
585.78	44786.15
585.94	44519.33
586.10	44360.17
586.26	44807.22
586.42	44802.53
586.58	44935.95
586.74	45015.52
586.90	44741.68
587.06	44392.94
587.22	45331.50
587.38	44781.47
587.54	45481.29
587.70	45244.90
587.86	44966.37
588.02	44514.65
588.18	44893.82
588.34	44664.44
588.49	44332.09
588.65	44814.24
588.81	44376.56
588.97	44823.60
589.13	44224.42
589.29	44477.20
589.45	44994.46
589.61	45118.51
589.77	45137.23
589.93	45050.63
590.08	44954.67
590.24	44589.55
590.40	45015.52
