SpectraSuite Data File
++++++++++++++++++++++++++++++++++++
Date: Fri Oct 25 11:23:41 EDT 2013
User: price-jones
Dark Spectrum Present: No
Reference Spectrum Present: No
Number of Sampled Component Spectra: 1
Spectrometers: USB2+H05261
Integration Time (usec): 100000 (USB2+H05261)
Spectra Averaged: 1 (USB2+H05261)
Boxcar Smoothing: 0 (USB2+H05261)
Correct for Electrical Dark: No (USB2+H05261)
Strobe/Lamp Enabled: No (USB2+H05261)
Correct for Detector Non-linearity: No (USB2+H05261)
Correct for Stray Light: No (USB2+H05261)
Number of Pixels in Processed Spectrum: 2048
>>>>>Begin Processed Spectral Data<<<<<
365.73	238.73
365.92	238.73
366.12	238.73
366.32	124.05
366.52	177.88
366.72	135.75
366.91	170.86
367.11	124.05
367.31	168.52
367.51	105.32
367.70	147.45
367.90	135.75
368.10	161.50
368.30	117.03
368.49	166.18
368.69	173.20
368.89	154.48
369.09	187.24
369.28	215.33
369.48	184.90
369.68	159.16
369.87	182.56
370.07	180.22
370.27	229.37
370.47	257.46
370.66	606.20
370.86	655.35
371.06	753.65
371.25	704.50
371.45	631.94
371.65	725.57
371.84	720.88
372.04	655.35
372.24	685.78
372.44	753.65
372.63	807.48
372.83	786.42
373.03	734.93
373.22	774.72
373.42	781.74
373.62	788.76
373.81	779.40
374.01	770.04
374.21	690.46
374.40	856.64
374.60	800.46
374.79	807.48
374.99	798.12
375.19	847.27
375.38	840.25
375.58	912.81
375.78	901.11
375.97	837.91
376.17	891.74
376.37	854.30
376.56	870.68
376.76	947.92
376.95	910.47
377.15	854.30
377.35	856.64
377.54	837.91
377.74	917.49
377.93	940.90
378.13	898.77
378.33	887.06
378.52	880.04
378.72	983.02
378.91	884.72
379.11	945.58
379.31	947.92
379.50	924.51
379.70	976.00
379.89	1015.79
380.09	964.30
380.28	994.73
380.48	929.19
380.68	1013.45
380.87	1008.77
381.07	1036.86
381.26	1071.97
381.46	1015.79
381.65	1055.58
381.85	1057.92
382.04	1144.52
382.24	1153.88
382.43	1081.33
382.63	1055.58
382.83	1086.01
383.02	1100.05
383.22	1104.73
383.41	1196.01
383.61	1146.86
383.80	1074.31
384.00	1165.59
384.19	1111.75
384.39	1125.80
384.58	1149.20
384.78	976.00
384.97	1177.29
385.17	1116.44
385.36	1151.54
385.56	1057.92
385.75	1114.10
385.95	1193.67
386.14	1184.31
386.34	1291.98
386.53	1238.14
386.72	1086.01
386.92	1179.63
387.11	1238.14
387.31	1299.00
387.50	1296.66
387.70	1254.53
387.89	1322.40
388.09	1380.92
388.28	1252.19
388.48	1170.27
388.67	1308.36
388.86	1357.51
389.06	1277.93
389.25	1310.70
389.45	1306.02
389.64	1336.45
389.84	1380.92
390.03	1341.13
390.22	1380.92
390.42	1394.96
390.61	1366.87
390.81	1380.92
391.00	1439.43
391.19	1460.49
391.39	1418.36
391.58	1497.94
391.78	1504.96
391.97	1521.35
392.16	1570.50
392.36	1509.65
392.55	1500.28
392.75	1589.22
392.94	1495.60
393.13	1504.96
393.33	1509.65
393.52	1483.90
393.71	1554.12
393.91	1645.40
394.10	1521.35
394.29	1479.22
394.49	1554.12
394.68	1638.38
394.88	1675.82
395.07	1640.72
395.26	1734.34
395.46	1785.83
395.65	1621.99
395.84	1727.32
396.04	1722.63
396.23	1739.02
396.42	1682.85
396.62	1804.55
396.81	1825.62
397.00	1799.87
397.19	1792.85
397.39	1778.81
397.58	1813.92
397.77	1834.98
397.97	1823.28
398.16	1823.28
398.35	1888.81
398.55	1764.76
398.74	1888.81
398.93	1973.07
399.12	1973.07
399.32	1902.86
399.51	1895.83
399.70	2019.88
399.90	1900.52
400.09	2008.18
400.28	2104.14
400.47	1989.46
400.67	2099.46
400.86	2108.82
401.05	2029.24
401.24	2036.27
401.44	2094.78
401.63	2122.87
401.82	2101.80
402.01	2005.84
402.21	2239.89
402.40	2150.95
402.59	2204.78
402.78	2197.76
402.97	2223.51
403.17	2321.81
403.36	2340.54
403.55	2209.47
403.74	2380.32
403.93	2342.88
404.13	2366.28
404.32	2296.07
404.51	2478.63
404.70	2452.88
404.89	2431.82
405.09	2431.82
405.28	2436.50
405.47	2502.03
405.66	2408.41
405.85	2490.33
406.05	2609.70
406.24	2534.80
406.43	2628.42
406.62	2597.99
406.81	2719.70
407.00	2581.61
407.20	2693.96
407.39	2644.81
407.58	2677.57
407.77	2686.94
407.96	2768.85
408.15	2778.22
408.34	2759.49
408.54	2801.62
408.73	2736.09
408.92	2780.56
409.11	2848.43
409.30	2846.09
409.49	2773.53
409.68	2995.89
409.87	2925.67
410.07	2963.12
410.26	2892.90
410.45	3157.38
410.64	2888.22
410.83	3061.42
411.02	3082.49
411.21	3190.15
411.40	3082.49
411.59	3197.17
411.78	3295.47
411.98	3281.43
412.17	3150.36
412.36	3272.07
412.55	3435.91
412.74	3379.73
412.93	3459.31
413.12	3358.67
413.31	3527.19
413.50	3421.86
413.69	3475.70
413.88	3623.15
414.07	3585.70
414.26	3637.19
414.45	3625.49
414.64	3833.80
414.83	3866.56
415.02	3878.27
415.22	3854.86
415.41	3925.08
415.60	3985.93
415.79	3794.01
415.98	3875.93
416.17	4079.55
416.36	3955.51
416.55	4042.11
416.74	4109.98
416.93	4170.83
417.12	4170.83
417.31	4212.96
417.50	4348.72
417.69	4248.07
417.88	4294.88
418.07	4121.68
418.26	4292.54
418.45	4461.06
418.64	4437.66
418.83	4561.70
419.02	4308.93
419.21	4414.25
419.39	4505.53
419.58	4552.34
419.77	4271.48
419.96	4561.70
420.15	4624.90
420.34	4720.86
420.53	4662.35
420.72	4765.33
420.91	4739.58
421.10	4594.47
421.29	4954.91
421.48	4713.84
421.67	4648.30
421.86	4734.90
422.05	4856.61
422.24	4896.40
422.43	4901.08
422.61	4889.38
422.80	4978.32
422.99	4755.97
423.18	4882.36
423.37	5036.83
423.56	4903.42
423.75	5015.77
423.94	4734.90
424.13	4575.75
424.32	4683.41
424.50	4994.70
424.69	5097.69
424.88	5057.90
425.07	4873.00
425.26	4931.51
425.45	4961.94
425.64	4905.76
425.83	5071.94
426.01	5039.17
426.20	5027.47
426.39	5184.29
426.58	5146.84
426.77	5027.47
426.96	4990.02
427.15	5205.35
427.33	5195.99
427.52	5252.16
427.71	5231.10
427.90	5259.18
428.09	5366.85
428.28	5404.30
428.46	5401.96
428.65	5425.36
428.84	5584.52
429.03	5624.31
429.22	5343.44
429.40	5530.69
429.59	5516.64
429.78	5284.93
429.97	5345.78
430.16	5488.56
430.34	5605.58
430.53	5638.35
430.72	5680.48
430.91	5575.16
431.10	5743.67
431.28	5799.85
431.47	5804.53
431.66	5799.85
431.85	5734.31
432.03	5898.15
432.22	6050.28
432.41	6031.56
432.60	6092.41
432.79	5982.41
432.97	6015.18
433.16	5970.71
433.35	6029.22
433.54	6167.31
433.72	6129.86
433.91	6274.98
434.10	6083.05
434.28	6057.31
434.47	6352.21
434.66	6132.20
434.85	6286.68
435.03	6207.10
435.22	6352.21
435.41	6602.65
435.59	6506.69
435.78	6452.86
435.97	6436.47
436.16	6359.24
436.34	6396.68
436.53	6520.73
436.72	6651.80
436.90	6497.33
437.09	6551.16
437.28	6579.25
437.46	6719.68
437.65	6736.06
437.84	6583.93
438.02	6626.06
438.21	6750.10
438.40	6541.80
438.58	6991.18
438.77	6970.12
438.96	6967.77
439.14	7131.61
439.33	7166.72
439.52	7129.27
439.70	7185.44
439.89	7459.29
440.08	7431.20
440.26	7433.54
440.45	7346.94
440.63	7506.10
440.82	7735.47
441.01	7562.27
441.19	7564.61
441.38	7733.13
441.57	7793.98
441.75	7840.79
441.94	7971.86
442.12	7981.23
442.31	8049.10
442.50	7946.12
442.68	8243.37
442.87	8201.24
443.05	8124.00
443.24	8149.75
443.43	8121.66
443.61	8161.45
443.80	8505.51
443.98	8088.89
444.17	7829.09
444.35	8248.05
444.54	8542.96
444.73	8294.86
444.91	8468.06
445.10	8264.43
445.28	8479.76
445.47	8266.77
445.65	8133.36
445.84	8402.52
446.02	8627.21
446.21	8603.81
446.39	8451.67
446.58	8652.96
446.77	8851.91
446.95	8390.82
447.14	8624.87
447.32	8737.22
447.51	8627.21
447.69	8512.53
447.88	8678.71
448.06	8549.98
448.25	8423.59
448.43	8573.38
448.62	8542.96
448.80	8718.50
448.99	8606.15
449.17	8669.34
449.36	8561.68
449.54	9008.72
449.73	8791.05
449.91	9195.96
450.10	9001.70
450.28	9001.70
450.46	9184.26
450.65	8997.02
450.83	9081.28
451.02	9053.19
451.20	9102.34
451.39	9455.76
451.57	9289.59
451.76	9343.42
451.94	9177.24
452.13	9486.19
452.31	9261.50
452.49	9268.52
452.68	9568.11
452.86	9195.96
453.05	9500.23
453.23	9584.49
453.42	9607.90
453.60	9413.63
453.78	9523.64
453.97	9659.39
454.15	9474.49
454.34	9467.47
454.52	9715.56
454.70	9841.95
454.89	9741.31
455.07	9900.47
455.26	10012.81
455.44	9926.21
455.62	9930.89
455.81	10026.86
455.99	10108.77
456.17	10094.73
456.36	10101.75
456.54	10265.59
456.73	10387.30
456.91	10520.71
457.09	10389.64
457.28	10504.32
457.46	10387.30
457.64	10516.03
457.83	10356.87
458.01	10445.81
458.19	10843.70
458.38	10555.82
458.56	10789.87
458.74	10506.66
458.93	10759.44
459.11	10799.23
459.29	10721.99
459.48	10670.50
459.66	11037.97
459.84	10930.30
460.03	10953.71
460.21	11098.82
460.39	11021.58
460.57	11035.63
460.76	11246.27
460.94	11243.93
461.12	11187.76
461.31	11108.18
461.49	11321.17
461.67	11197.12
461.85	11499.05
462.04	11360.96
462.22	11669.91
462.40	11623.10
462.59	11609.06
462.77	11506.07
462.95	11740.13
463.13	11702.68
463.32	11466.28
463.50	11826.73
463.68	11819.71
463.86	11950.78
464.05	11590.33
464.23	11630.12
464.41	11948.43
464.59	11737.79
464.78	12196.53
464.96	12070.14
465.14	11817.36
465.32	12325.26
465.50	12044.40
465.69	12081.85
465.87	12159.08
466.05	12091.21
466.23	12128.66
466.41	12180.15
466.60	12262.07
466.78	12109.93
466.96	12336.96
467.14	12269.09
467.32	12306.54
467.51	12486.76
467.69	12189.51
467.87	12301.86
468.05	12489.10
468.23	12430.59
468.41	12435.27
468.60	12634.21
468.78	12903.37
468.96	12758.26
469.14	12835.50
469.32	12917.42
469.50	12844.86
469.69	13018.06
469.87	13074.23
470.05	13191.26
470.23	13172.54
470.41	13193.60
470.59	13261.48
470.77	13184.24
470.95	13373.82
471.14	13722.56
471.32	13341.05
471.50	13701.50
471.68	13642.98
471.86	13827.88
472.04	13830.23
472.22	14167.26
472.40	13790.44
472.58	13755.33
472.77	13748.31
472.95	14052.58
473.13	14555.79
473.31	14024.49
473.49	13947.25
473.67	14277.27
473.85	14394.29
474.03	14663.46
474.21	14593.24
474.39	14904.53
474.57	14785.16
474.75	14977.09
474.93	14941.98
475.12	15096.46
475.30	15124.54
475.48	15066.03
475.66	15206.46
475.84	15440.51
476.02	15225.18
476.20	15503.71
476.38	15688.61
476.56	16245.66
476.74	15960.11
476.92	15992.88
477.10	15763.51
477.28	16142.67
477.46	16304.17
477.64	16362.69
477.82	16772.28
478.00	17167.83
478.18	16772.28
478.36	17266.13
478.54	17170.17
478.72	17191.23
478.90	17504.87
479.08	17605.51
479.26	17965.95
479.44	17989.36
479.62	17947.23
479.80	17905.10
479.98	18331.08
480.16	18675.13
480.34	18494.91
480.52	19049.62
480.70	18874.08
480.88	18611.94
481.06	18897.49
481.24	19012.17
481.41	19133.88
481.59	19307.08
481.77	19690.93
481.95	19482.62
482.13	19697.95
482.31	19798.59
482.49	20259.68
482.67	20341.60
482.85	20800.34
483.03	20587.35
483.21	20833.11
483.39	21200.57
483.57	21057.80
483.74	21104.61
483.92	21357.39
484.10	21268.45
484.28	21710.81
484.46	22242.11
484.64	22588.51
484.82	22087.64
485.00	22384.88
485.18	22555.74
485.35	23386.63
485.53	23030.87
485.71	22925.55
485.89	23786.86
486.07	23222.80
486.25	23307.05
486.43	23782.18
486.61	24123.90
486.78	24034.96
486.96	23817.29
487.14	24762.87
487.32	24819.04
487.50	24842.45
487.68	25015.65
487.85	25280.13
488.03	25649.93
488.21	25979.95
488.39	25993.99
488.57	26426.99
488.75	26316.98
488.92	26319.32
489.10	26759.34
489.28	26946.59
489.46	27278.94
489.64	26827.22
489.81	27744.71
489.99	27899.19
490.17	27845.35
490.35	28173.03
490.53	28723.05
490.70	28484.32
490.88	28149.62
491.06	29149.03
491.24	28971.15
491.41	29242.65
491.59	29305.85
491.77	29436.92
491.95	29701.40
492.13	29972.90
492.30	30286.53
492.48	30326.32
492.66	30387.18
492.84	30623.57
493.01	30485.48
493.19	30981.67
493.37	31098.70
493.54	31351.48
493.72	31400.63
493.90	31566.81
494.08	31599.57
494.25	32329.82
494.43	31924.91
494.61	32507.70
494.79	32613.02
494.96	32816.65
495.14	32978.15
495.32	33261.35
495.49	33036.66
495.67	33483.70
495.85	33553.92
496.02	34024.37
496.20	33972.88
496.38	34302.89
496.55	34450.35
496.73	34899.73
496.91	34602.48
497.09	35215.70
497.26	35023.78
497.44	35360.81
497.62	35583.16
497.79	36018.50
497.97	35644.02
498.14	35735.30
498.32	36341.50
498.50	36252.56
498.67	37034.30
498.85	36882.16
499.03	36966.42
499.20	36996.85
499.38	37038.98
499.56	37298.78
499.73	37535.17
499.91	37436.87
500.08	37752.84
500.26	37282.39
500.44	38087.54
500.61	38026.68
500.79	37778.59
500.97	38384.79
501.14	38780.34
501.32	38487.77
501.49	38909.07
501.67	38700.76
501.84	39246.10
502.02	39180.57
502.20	39330.36
502.37	39639.31
502.55	39241.42
502.72	40004.44
502.90	39992.73
503.07	39889.75
503.25	40308.71
503.43	40020.82
503.60	40477.22
503.78	40158.91
503.95	40229.13
504.13	40364.88
504.30	41130.23
504.48	40893.84
504.65	40804.90
504.83	41177.04
505.01	41823.03
505.18	41155.98
505.36	41691.96
505.53	41050.66
505.71	41848.78
505.88	41977.51
506.06	41773.88
506.23	42337.95
506.41	41799.63
506.58	42265.39
506.76	42368.38
506.93	42930.11
507.11	42691.37
507.28	42485.40
507.46	42801.38
507.63	43210.97
507.81	43494.18
507.98	43220.33
508.16	43381.83
508.33	43557.37
508.50	43658.01
508.68	43856.96
508.85	44236.12
509.03	43704.82
509.20	44039.52
509.38	44346.13
509.55	44706.57
509.73	44615.29
509.90	44830.62
510.08	44825.94
510.25	45041.27
510.42	44935.95
510.60	45354.90
510.77	45691.94
510.95	45544.48
511.12	45345.54
511.30	45361.92
511.47	45277.66
511.64	45291.71
511.82	46021.95
511.99	45621.72
512.17	45820.67
512.34	46438.57
512.51	46536.87
512.69	46532.19
512.86	46373.03
513.04	46557.94
513.21	46775.61
513.38	46546.23
513.56	47267.12
513.73	46766.24
513.90	47372.44
514.08	47313.93
514.25	47386.49
514.43	47459.04
514.60	47695.44
514.77	47583.09
514.95	48013.75
515.12	47735.23
515.29	48275.89
515.47	47833.53
515.64	48112.05
515.81	48130.78
515.99	48381.21
516.16	48896.13
516.33	48435.05
516.51	48626.97
516.68	48332.06
516.85	48559.09
517.03	49261.26
517.20	49062.31
517.37	49069.33
517.54	49165.29
517.72	49308.07
517.89	49116.14
518.06	49502.33
518.24	49331.47
518.41	49610.00
518.58	49546.80
518.75	49294.02
518.93	49696.59
519.10	49373.60
519.27	49673.19
519.45	50005.55
519.62	50234.92
519.79	50225.56
519.96	50103.85
520.14	50560.25
520.31	50153.00
520.48	50824.73
520.65	50487.70
520.83	50450.25
521.00	50946.44
521.17	50719.41
521.34	50747.50
521.52	50813.03
521.69	51157.09
521.86	50787.28
522.03	51234.33
522.20	51501.15
522.38	51714.14
522.55	51690.73
522.72	51444.98
522.89	51599.45
523.07	51826.48
523.24	51466.04
523.41	51648.60
523.58	51363.06
523.75	51957.55
523.92	51943.51
524.10	52130.75
524.27	52100.32
524.44	52100.32
524.61	51978.62
524.78	52718.23
524.96	52369.49
525.13	52350.76
525.30	52680.78
525.47	52758.02
525.64	52870.36
525.81	52413.96
525.98	52758.02
526.16	52624.60
526.33	52919.51
526.50	52926.53
526.67	52818.87
526.84	53036.54
527.01	53095.05
527.18	52980.37
527.36	53284.64
527.53	53340.81
527.70	53614.65
527.87	53687.21
528.04	53258.89
528.21	53619.33
528.38	53457.84
528.55	53783.17
528.72	53425.07
528.89	53446.13
529.07	53406.34
529.24	53544.44
529.41	54082.76
529.58	53846.36
529.75	54089.78
529.92	53827.64
530.09	53951.69
530.26	54120.21
530.43	54129.57
530.60	54000.84
530.77	53984.46
530.94	54157.66
531.11	53860.41
531.28	54115.53
531.46	54461.93
531.63	54178.72
531.80	54520.44
531.97	54623.42
532.14	54670.23
532.31	54438.52
532.48	54850.45
532.65	54831.73
532.82	54581.29
532.99	54670.23
533.16	54717.04
533.33	54993.23
533.50	55171.11
533.67	54855.14
533.84	54607.04
534.01	55164.09
534.18	55173.45
534.35	55171.11
534.52	55150.04
534.69	55299.84
534.86	55246.00
535.03	55150.04
535.20	55309.20
535.37	55634.53
535.54	55547.93
535.71	55250.69
535.88	55482.40
536.05	55428.57
536.22	55695.39
536.38	55777.31
536.55	55817.10
536.72	55849.86
536.89	55515.17
537.06	56109.66
537.23	55632.19
537.40	55650.92
537.57	55784.33
537.74	55896.67
537.91	56116.68
538.08	56097.96
538.25	56088.60
538.42	55695.39
538.59	56287.54
538.75	55896.67
538.92	56247.75
539.09	56116.68
539.26	56435.00
539.43	56207.97
539.60	56324.99
539.77	56378.82
539.94	56631.60
540.11	56547.34
540.28	56772.03
540.44	56912.47
540.61	56418.61
540.78	56460.74
540.95	56626.92
541.12	56420.95
541.29	56664.37
541.46	56793.10
541.62	56568.41
541.79	56741.61
541.96	56556.70
542.13	56559.05
542.30	56603.52
542.47	57003.75
542.63	56961.62
542.80	56835.23
542.97	56980.34
543.14	57361.85
543.31	57127.80
543.48	57586.54
543.64	57649.74
543.81	57623.99
543.98	57310.36
544.15	57385.25
544.32	57453.13
544.48	57574.84
544.65	57616.97
544.82	57542.07
544.99	57277.59
545.16	57677.82
545.32	57420.36
545.49	57832.30
545.66	57736.34
545.83	57769.10
546.00	57811.23
546.16	57883.79
546.33	57743.36
546.50	57654.42
546.67	57750.38
546.83	57701.23
547.00	57946.98
547.17	57942.30
547.34	57879.11
547.50	57914.22
547.67	58045.29
547.84	57998.48
548.00	58169.33
548.17	58468.92
548.34	58131.89
548.51	58199.76
548.67	58129.54
548.84	58262.96
549.01	58293.38
549.18	58309.77
549.34	58361.26
549.51	58398.71
549.68	58504.03
549.84	58464.24
550.01	58459.56
550.18	58244.23
550.34	58773.19
550.51	58609.35
550.68	58471.26
550.84	58365.94
551.01	58525.10
551.18	58749.79
551.34	58712.34
551.51	58599.99
551.68	58688.93
551.84	58585.95
552.01	58660.85
552.18	58932.35
552.34	58700.64
552.51	58871.49
552.68	58733.40
552.84	58852.77
553.01	59121.93
553.18	58934.69
553.34	58850.43
553.51	58838.73
553.67	58857.45
553.84	58932.35
554.01	59325.56
554.17	59133.63
554.34	58948.73
554.51	59274.07
554.67	58981.50
554.84	59061.08
555.00	59150.02
555.17	59143.00
555.33	59189.81
555.50	59018.95
555.67	59079.80
555.83	59079.80
556.00	59210.87
556.16	59423.86
556.33	59592.38
556.50	59210.87
556.66	59613.44
556.83	59140.66
556.99	59372.37
557.16	59597.06
557.32	59456.63
557.49	59627.49
557.65	59433.22
557.82	59458.97
557.98	59414.50
558.15	59583.02
558.32	59744.51
558.48	59526.84
558.65	59522.16
558.81	59447.27
558.98	59702.38
559.14	59587.70
559.31	59756.22
559.47	59721.11
559.64	59798.35
559.80	59927.08
559.97	59812.39
560.13	59671.96
560.30	59739.83
560.46	59877.93
560.63	60065.17
560.79	59957.50
560.96	60046.44
561.12	60041.76
561.29	60004.31
561.45	59957.50
561.61	59884.95
561.78	60072.19
561.94	59994.95
562.11	59882.61
562.27	59966.87
562.44	60158.79
562.60	60231.35
562.77	60259.43
562.93	60067.51
563.10	60163.47
563.26	60161.13
563.42	60374.12
563.59	60219.64
563.75	60083.89
563.92	60111.98
564.08	59980.91
564.24	60252.41
564.41	60289.86
564.57	60177.51
564.74	60224.32
564.90	60254.75
565.07	60238.37
565.23	60250.07
565.39	60383.48
565.56	60193.90
565.72	60430.29
565.88	60299.22
566.05	60306.24
566.21	60257.09
566.38	60467.74
566.54	60367.10
566.70	60514.55
566.87	60430.29
567.03	60207.94
567.19	60537.96
567.36	60449.02
567.52	60388.16
567.68	60750.94
567.85	60460.72
568.01	60601.15
568.17	60404.55
568.34	60631.58
568.50	60430.29
568.66	60425.61
568.83	60587.11
568.99	60341.35
569.15	60516.89
569.32	60463.06
569.48	60481.78
569.64	60610.51
569.81	60566.04
569.97	60498.17
570.13	60760.31
570.30	60521.57
570.46	60570.72
570.62	60741.58
570.78	60559.02
570.95	60479.44
571.11	60783.71
571.27	60678.39
571.43	60650.30
571.60	60720.52
571.76	60608.17
571.92	60587.11
572.09	60760.31
572.25	60732.22
572.41	60734.56
572.57	60626.90
572.74	60933.51
572.90	60680.73
573.06	60725.20
573.22	60790.73
573.38	60846.91
573.55	60802.44
573.71	60938.19
573.87	60844.57
574.03	60622.22
574.20	60671.37
574.36	60907.76
574.52	60619.88
574.68	60942.87
574.84	60683.07
575.01	60919.46
575.17	61057.56
575.33	60671.37
575.49	60662.00
575.65	60823.50
575.82	61087.98
575.98	60776.69
576.14	61127.77
576.30	61120.75
576.46	60708.82
576.62	60699.45
576.79	60835.20
576.95	60870.31
577.11	60757.97
577.27	60832.86
577.43	60849.25
577.59	60893.72
577.75	60690.09
577.92	60706.47
578.08	60884.36
578.24	60945.21
578.40	61034.15
578.56	61144.16
578.72	60954.57
578.88	61249.48
579.04	61200.33
579.21	61073.94
579.37	61057.56
579.53	61069.26
579.69	60645.62
579.85	61020.11
580.01	60910.10
580.17	60846.91
580.33	61162.88
580.49	60992.02
580.65	61013.08
580.82	60804.78
580.98	61017.77
581.14	61085.64
581.30	61141.81
581.46	60720.52
581.62	61087.98
581.78	60963.93
581.94	61006.06
582.10	61087.98
582.26	60977.98
582.42	60860.95
582.58	61181.60
582.74	60884.36
582.90	60940.53
583.06	61015.43
583.22	60898.40
583.38	61022.45
583.54	61052.87
583.70	61066.92
583.86	61041.17
584.02	60870.31
584.18	61275.22
584.34	61062.24
584.50	61242.46
584.66	60966.27
584.82	60867.97
584.98	61169.90
585.14	61139.47
585.30	61169.90
585.46	61265.86
585.62	61052.87
585.78	61233.10
585.94	60975.64
586.10	61277.57
586.26	61113.73
586.42	61160.54
586.58	61132.45
586.74	61052.87
586.90	61045.85
587.06	61205.01
587.22	61132.45
587.38	61254.16
587.54	61485.87
587.70	61448.42
587.86	61235.44
588.02	61284.59
588.18	61111.39
588.34	61130.11
