SpectraSuite Data File
++++++++++++++++++++++++++++++++++++
Date: Fri Oct 25 10:43:26 EDT 2013
User: price-jones
Dark Spectrum Present: No
Reference Spectrum Present: No
Number of Sampled Component Spectra: 1
Spectrometers: USB2+H05261
Integration Time (usec): 100000 (USB2+H05261)
Spectra Averaged: 1 (USB2+H05261)
Boxcar Smoothing: 0 (USB2+H05261)
Correct for Electrical Dark: No (USB2+H05261)
Strobe/Lamp Enabled: No (USB2+H05261)
Correct for Detector Non-linearity: No (USB2+H05261)
Correct for Stray Light: No (USB2+H05261)
Number of Pixels in Processed Spectrum: 2048
>>>>>Begin Processed Spectral Data<<<<<
365.73	81.92
365.92	81.92
366.12	81.92
366.32	30.43
366.52	0.00
366.72	42.13
366.91	67.88
367.11	32.77
367.31	4.68
367.51	0.00
367.70	46.81
367.90	0.00
368.10	56.17
368.30	37.45
368.49	2.34
368.69	49.15
368.89	53.83
369.09	72.56
369.28	18.72
369.48	46.81
369.68	63.19
369.87	95.96
370.07	159.16
370.27	100.64
370.47	173.20
370.66	435.34
370.86	437.68
371.06	442.36
371.25	477.47
371.45	461.09
371.65	489.17
371.84	418.96
372.04	489.17
372.24	526.62
372.44	447.04
372.63	533.64
372.83	510.24
373.03	545.34
373.22	498.53
373.42	510.24
373.62	550.03
373.81	552.37
374.01	587.47
374.21	547.69
374.40	465.77
374.60	580.45
374.79	528.96
374.99	580.45
375.19	660.03
375.38	664.71
375.58	645.99
375.78	634.29
375.97	641.31
376.17	638.97
376.37	638.97
376.56	648.33
376.76	566.41
376.95	643.65
377.15	617.90
377.35	587.47
377.54	622.58
377.74	683.44
377.93	645.99
378.13	620.24
378.33	685.78
378.52	699.82
378.72	662.37
378.91	725.57
379.11	571.09
379.31	620.24
379.50	617.90
379.70	711.52
379.89	643.65
380.09	615.56
380.28	653.01
380.48	709.18
380.68	695.14
380.87	655.35
381.07	730.25
381.26	681.10
381.46	660.03
381.65	723.23
381.85	720.88
382.04	641.31
382.24	730.25
382.43	702.16
382.63	606.20
382.83	702.16
383.02	730.25
383.22	713.86
383.41	706.84
383.61	767.70
383.80	781.74
384.00	730.25
384.19	802.80
384.39	844.93
384.58	800.46
384.78	835.57
384.97	809.83
385.17	720.88
385.36	709.18
385.56	758.33
385.75	784.08
385.95	774.72
386.14	812.17
386.34	828.55
386.53	821.53
386.72	919.83
386.92	887.06
387.11	908.13
387.31	873.02
387.50	882.38
387.70	823.87
387.89	854.30
388.09	840.25
388.28	866.00
388.48	844.93
388.67	828.55
388.86	854.30
389.06	976.00
389.25	887.06
389.45	929.19
389.64	936.21
389.84	997.07
390.03	1050.90
390.22	1015.79
390.42	954.94
390.61	957.28
390.81	938.55
391.00	1043.88
391.19	1086.01
391.39	1071.97
391.58	992.39
391.78	961.96
391.97	1055.58
392.16	952.60
392.36	938.55
392.55	1043.88
392.75	1013.45
392.94	1027.50
393.13	1006.43
393.33	994.73
393.52	1086.01
393.71	1109.41
393.91	1001.75
394.10	1090.69
394.29	1057.92
394.49	1102.39
394.68	1179.63
394.88	1142.18
395.07	1179.63
395.26	1186.65
395.46	1224.10
395.65	1231.12
395.84	1205.38
396.04	1212.40
396.23	1109.41
396.42	1139.84
396.62	1149.20
396.81	1191.33
397.00	1118.78
397.19	1266.23
397.39	1315.38
397.58	1322.40
397.77	1352.83
397.97	1380.92
398.16	1341.13
398.35	1495.60
398.55	1439.43
398.74	1528.37
398.93	1544.75
399.12	1495.60
399.32	1383.26
399.51	1526.03
399.70	1488.58
399.90	1514.33
400.09	1556.46
400.28	1661.78
400.47	1596.25
400.67	1549.43
400.86	1521.35
401.05	1582.20
401.24	1598.59
401.44	1701.57
401.63	1675.82
401.82	1666.46
402.01	1631.35
402.21	1685.19
402.40	1755.40
402.59	1645.40
402.78	1778.81
402.97	1638.38
403.17	1834.98
403.36	1732.00
403.55	1834.98
403.74	1893.49
403.93	1849.02
404.13	1900.52
404.32	1797.53
404.51	1888.81
404.70	1846.68
404.89	1872.43
405.09	1961.37
405.28	1937.96
405.47	1900.52
405.66	1966.05
405.85	1963.71
406.05	1987.11
406.24	1961.37
406.43	1998.82
406.62	2083.08
406.81	2038.61
407.00	2139.25
407.20	2024.56
407.39	2071.37
407.58	2127.55
407.77	2188.40
407.96	2221.17
408.15	2291.38
408.34	2143.93
408.54	2190.74
408.73	2293.72
408.92	2260.96
409.11	2291.38
409.30	2277.34
409.49	2307.77
409.68	2214.15
409.87	2289.04
410.07	2181.38
410.26	2328.83
410.45	2237.55
410.64	2387.35
410.83	2396.71
411.02	2417.77
411.21	2485.65
411.40	2511.39
411.59	2487.99
411.78	2562.89
411.98	2548.84
412.17	2487.99
412.36	2696.30
412.55	2581.61
412.74	2708.00
412.93	2703.32
413.12	2630.76
413.31	2808.64
413.50	2661.19
413.69	2771.19
413.88	2888.22
414.07	2818.00
414.26	2951.42
414.45	2906.95
414.64	2916.31
414.83	2904.60
415.02	3180.79
415.22	3005.25
415.41	3084.83
415.60	2991.20
415.79	3061.42
415.98	3145.68
416.17	3110.57
416.36	3173.77
416.55	3274.41
416.74	3187.81
416.93	3126.96
417.12	3152.70
417.31	3260.37
417.50	3339.94
417.69	3515.48
417.88	3344.63
418.07	3304.84
418.26	3372.71
418.45	3356.33
418.64	3431.23
418.83	3424.20
419.02	3529.53
419.21	3611.45
419.39	3559.95
419.58	3400.80
419.77	3508.46
419.96	3571.66
420.15	3508.46
420.34	3653.58
420.53	3684.00
420.72	3618.47
420.91	3634.85
421.10	3782.31
421.29	3976.57
421.48	3761.24
421.67	3733.15
421.86	3548.25
422.05	3763.58
422.24	3712.09
422.43	3698.05
422.61	3810.39
422.80	3808.05
422.99	3758.90
423.18	3971.89
423.37	3925.08
423.56	3880.61
423.75	3808.05
423.94	3812.73
424.13	3562.30
424.32	3695.71
424.50	3925.08
424.69	4023.38
424.88	3859.54
425.07	3850.18
425.26	3756.56
425.45	3871.25
425.64	3915.72
425.83	3791.67
426.01	3967.21
426.20	3950.82
426.39	3934.44
426.58	3922.74
426.77	3857.20
426.96	3751.88
427.15	3887.63
427.33	4044.45
427.52	3988.27
427.71	4140.41
427.90	4098.28
428.09	4037.42
428.28	4072.53
428.46	4205.94
428.65	4149.77
428.84	4161.47
429.03	4205.94
429.22	4142.75
429.40	4053.81
429.59	4145.09
429.78	3864.22
429.97	3882.95
430.16	3995.29
430.34	4117.00
430.53	4147.43
430.72	4138.07
430.91	4154.45
431.10	4369.78
431.28	4566.39
431.47	4550.00
431.66	4505.53
431.85	4470.42
432.03	4585.11
432.22	4507.87
432.41	4472.76
432.60	4557.02
432.79	4662.35
432.97	4685.75
433.16	4491.49
433.35	4727.88
433.54	4601.49
433.72	4596.81
433.91	4568.73
434.10	4571.07
434.28	4566.39
434.47	4805.12
434.66	4791.08
434.85	4779.37
435.03	4929.17
435.22	4936.19
435.41	4929.17
435.59	4950.23
435.78	4929.17
435.97	4947.89
436.16	5022.79
436.34	5004.07
436.53	5107.05
436.72	5142.16
436.90	4936.19
437.09	5015.77
437.28	4908.10
437.46	4985.34
437.65	5074.28
437.84	5214.71
438.02	5074.28
438.21	5172.58
438.40	4997.04
438.58	5256.84
438.77	5322.38
438.96	5296.63
439.14	5301.31
439.33	5495.58
439.52	5547.07
439.70	5514.30
439.89	5540.05
440.08	5621.97
440.26	5701.54
440.45	5626.65
440.63	5757.72
440.82	5823.25
441.01	5856.02
441.19	5930.92
441.38	6036.24
441.57	6008.16
441.75	5928.58
441.94	6286.68
442.12	6115.82
442.31	6237.53
442.50	6148.59
442.68	6303.06
442.87	6207.10
443.05	6057.31
443.24	6516.05
443.43	6349.87
443.61	6399.02
443.80	6553.50
443.98	6050.28
444.17	5996.45
444.35	6408.39
444.54	6457.54
444.73	6480.94
444.91	6373.28
445.10	6263.27
445.28	6286.68
445.47	6141.57
445.65	6296.04
445.84	6373.28
446.02	6551.16
446.21	6361.58
446.39	6532.44
446.58	6672.87
446.77	6555.84
446.95	6497.33
447.14	6469.24
447.32	6647.12
447.51	6441.15
447.69	6548.82
447.88	6562.86
448.06	6506.69
448.25	6567.54
448.43	6602.65
448.62	6567.54
448.80	6752.45
448.99	6626.06
449.17	6553.50
449.36	6558.18
449.54	6796.92
449.73	6780.53
449.91	6839.05
450.10	7056.72
450.28	7124.59
450.46	7000.54
450.65	7136.29
450.83	7052.03
451.02	7159.70
451.20	7194.81
451.39	7108.21
451.57	7068.42
451.76	7033.31
451.94	6803.94
452.13	7080.12
452.31	6909.26
452.49	6789.89
452.68	7201.83
452.86	6937.35
453.05	7068.42
453.23	7059.06
453.42	6977.14
453.60	7117.57
453.78	7314.17
453.97	7021.61
454.15	7213.53
454.34	7110.55
454.52	7204.17
454.70	7527.16
454.89	7431.20
455.07	7400.77
455.26	7311.83
455.44	7485.03
455.62	7588.02
455.81	7529.50
455.99	7499.08
456.17	7737.81
456.36	7632.49
456.54	7751.85
456.73	7831.43
456.91	7908.67
457.09	8084.21
457.28	8049.10
457.46	7889.95
457.64	7929.74
457.83	8074.85
458.01	7915.69
458.19	8032.72
458.38	8042.08
458.56	8088.89
458.74	8039.74
458.93	7934.42
459.11	8063.15
459.29	8114.64
459.48	8028.04
459.66	8037.40
459.84	8131.02
460.03	8435.29
460.21	8435.29
460.39	8376.78
460.57	8217.62
460.76	8617.85
460.94	8777.01
461.12	8358.05
461.31	8491.46
461.49	8280.82
461.67	8322.94
461.85	8585.08
462.04	8587.43
462.22	9053.19
462.40	8809.78
462.59	8542.96
462.77	8702.11
462.95	8753.60
463.13	8823.82
463.32	8627.21
463.50	8765.31
463.68	8802.75
463.86	8901.06
464.05	8650.62
464.23	8800.41
464.41	8657.64
464.59	8662.32
464.78	8917.44
464.96	8741.90
465.14	8975.95
465.32	9020.42
465.50	9064.89
465.69	9046.17
465.87	9039.15
466.05	9064.89
466.23	9074.26
466.41	9029.79
466.60	9083.62
466.78	9085.96
466.96	9081.28
467.14	9191.28
467.32	9341.08
467.51	9111.71
467.69	9008.72
467.87	9373.85
468.05	9366.82
468.23	9153.84
468.41	9401.93
468.60	9125.75
468.78	9259.16
468.96	9369.16
469.14	9628.96
469.32	9547.05
469.50	9074.26
469.69	9603.22
469.87	9617.26
470.05	9554.07
470.23	9600.88
470.41	9633.64
470.59	9701.52
470.77	9724.93
470.95	9657.05
471.14	9856.00
471.32	9792.80
471.50	9998.77
471.68	9949.62
471.86	10111.11
472.04	10204.74
472.22	10387.30
472.40	10139.20
472.58	10265.59
472.77	10363.89
472.95	10391.98
473.13	10464.54
473.31	10375.59
473.49	10293.68
473.67	10399.00
473.85	10490.28
474.03	10995.84
474.21	10883.49
474.39	11098.82
474.57	10822.64
474.75	10843.70
474.93	10906.90
475.12	10972.43
475.30	11026.26
475.48	11145.63
475.66	10965.41
475.84	10934.98
476.02	11133.93
476.20	11028.60
476.38	11393.73
476.56	11681.61
476.74	11733.11
476.92	11538.84
477.10	11665.23
477.28	12084.19
477.46	11866.52
477.64	11946.09
477.82	12175.47
478.00	12060.78
478.18	12369.73
478.36	12322.92
478.54	12255.04
478.72	12533.57
478.90	12549.95
479.08	12671.66
479.26	12870.61
479.44	12978.27
479.62	12861.24
479.80	12987.63
479.98	13111.68
480.16	13472.12
480.34	13277.86
480.52	13462.76
480.70	13607.87
480.88	13177.22
481.06	13713.20
481.24	13855.97
481.41	13888.74
481.59	13874.70
481.77	14228.12
481.95	14085.34
482.13	14001.08
482.31	14221.10
482.49	14764.10
482.67	14707.93
482.85	14649.41
483.03	15080.07
483.21	15028.58
483.39	15126.88
483.57	15044.96
483.74	15241.57
483.92	15185.40
484.10	15122.20
484.28	15447.54
484.46	15845.43
484.64	16229.27
484.82	16002.24
485.00	15936.71
485.18	15955.43
485.35	16262.04
485.53	15866.49
485.71	15679.25
485.89	16123.95
486.07	16381.41
486.25	16416.52
486.43	16269.06
486.61	16666.95
486.78	16917.39
486.96	17216.98
487.14	17198.26
487.32	17579.76
487.50	17710.83
487.68	17589.13
487.85	18197.67
488.03	18043.19
488.21	18359.16
488.39	18160.22
488.57	18256.18
488.75	18422.36
488.92	18782.80
489.10	19030.90
489.28	18841.31
489.46	19503.68
489.64	18885.78
489.81	19494.32
489.99	19793.91
490.17	20027.96
490.35	20013.92
490.53	19873.49
490.70	19906.26
490.88	20439.90
491.06	20407.13
491.24	20566.29
491.41	20320.53
491.59	20290.10
491.77	20100.52
491.95	20865.88
492.13	20975.88
492.30	21174.83
492.48	21308.24
492.66	21280.15
492.84	21528.25
493.01	21511.86
493.19	21729.53
493.37	21621.87
493.54	21928.48
493.72	22129.77
493.90	21933.16
494.08	22412.97
494.25	22750.01
494.43	22960.66
494.61	22918.53
494.79	22958.31
494.96	22801.50
495.14	23129.17
495.32	23262.58
495.49	22972.36
495.67	23342.16
495.85	23606.64
496.02	23550.47
496.20	24023.26
496.38	23779.84
496.55	23831.33
496.73	24769.89
496.91	24491.37
497.09	24482.00
497.26	24629.46
497.44	24629.46
497.62	24601.37
497.79	24821.38
497.97	24891.60
498.14	24840.11
498.32	25474.39
498.50	25537.59
498.67	25544.61
498.85	25556.31
499.03	25984.63
499.20	25722.49
499.38	25759.94
499.56	25738.87
499.73	25874.62
499.91	25905.05
500.08	26410.60
500.26	25790.36
500.44	26087.61
500.61	26504.23
500.79	26125.06
500.97	26911.48
501.14	26796.79
501.32	27080.00
501.49	26588.49
501.67	26974.67
501.84	26768.71
502.02	27126.81
502.20	27082.34
502.37	27271.92
502.55	27264.90
502.72	27674.49
502.90	27634.71
503.07	27580.87
503.25	27651.09
503.43	27564.49
503.60	27889.82
503.78	27894.50
503.95	27765.78
504.13	28121.54
504.30	28254.95
504.48	28072.39
504.65	28514.75
504.83	28374.31
505.01	28470.28
505.18	28673.90
505.36	29144.35
505.53	28886.89
505.71	29184.14
505.88	29160.73
506.06	28751.14
506.23	28985.19
506.41	29116.26
506.58	29483.73
506.76	29151.37
506.93	29619.48
507.11	29420.53
507.28	29418.19
507.46	29254.36
507.63	29448.62
507.81	29816.08
507.98	29621.82
508.16	29635.86
508.33	29982.26
508.50	30139.08
508.68	30143.76
508.85	30419.94
509.03	30445.69
509.20	30586.12
509.38	30284.19
509.55	30951.24
509.73	30691.44
509.90	30934.86
510.08	30937.20
510.25	31103.38
510.42	31150.19
510.60	31491.91
510.77	31372.54
510.95	31840.65
511.12	31648.72
511.30	31653.40
511.47	31758.73
511.64	32219.81
511.82	31714.26
511.99	31934.27
512.17	31576.17
512.34	31487.23
512.51	32098.11
512.69	32074.70
512.86	31913.20
513.04	32203.43
513.21	32268.97
513.38	32037.25
513.56	32573.24
513.73	32198.75
513.90	32407.06
514.08	32229.18
514.25	32519.40
514.43	32959.42
514.60	32945.38
514.77	32591.96
514.95	33083.47
515.12	33256.67
515.29	33247.31
515.47	33638.18
515.64	33495.41
515.81	33017.94
515.99	33301.14
516.16	33226.24
516.33	33315.19
516.51	33404.13
516.68	32758.14
516.85	32699.62
517.03	33226.24
517.20	33682.65
517.37	33806.70
517.54	33869.89
517.72	33635.84
517.89	33481.36
518.06	33628.82
518.24	33879.25
518.41	33603.07
518.58	33858.19
518.75	34129.69
518.93	34040.75
519.10	34354.38
519.27	34515.88
519.45	34429.28
519.62	34471.41
519.79	34672.70
519.96	34515.88
520.14	35089.31
520.31	34742.91
520.48	34815.47
520.65	34974.63
520.83	35536.35
521.00	35206.34
521.17	35601.89
521.34	35695.51
521.52	35255.49
521.69	35653.38
521.86	35433.37
522.03	35491.88
522.20	35262.51
522.38	35786.79
522.55	35646.36
522.72	35812.54
522.89	35880.41
523.07	35967.01
523.24	36362.56
523.41	36346.18
523.58	36217.45
523.75	36907.91
523.92	36877.48
524.10	36353.20
524.27	36493.63
524.44	36423.42
524.61	36631.72
524.78	36966.42
524.96	36837.69
525.13	36648.11
525.30	37404.10
525.47	37715.39
525.64	36868.12
525.81	36959.40
525.98	37212.18
526.16	36620.02
526.33	36828.33
526.50	37104.51
526.67	36577.89
526.84	36762.79
527.01	37275.37
527.18	37069.40
527.36	37853.48
527.53	37713.05
527.70	37797.31
527.87	37794.97
528.04	37652.20
528.21	37827.74
528.38	38054.77
528.55	38541.60
528.72	38047.75
528.89	38082.86
529.07	38253.72
529.24	38155.41
529.41	38185.84
529.58	37895.61
529.75	38146.05
529.92	38864.60
530.09	38677.35
530.26	38085.20
530.43	38504.15
530.60	38204.56
530.77	38569.69
530.94	39124.40
531.11	38438.62
531.28	38590.75
531.46	38857.57
531.63	38955.88
531.80	38895.02
531.97	38843.53
532.14	38754.59
532.31	38398.83
532.48	39014.39
532.65	38742.89
532.82	39185.25
532.99	39274.19
533.16	39459.09
533.33	39402.92
533.50	39503.56
533.67	38911.41
533.84	39241.42
534.01	39791.45
534.18	39519.95
534.35	40023.16
534.52	39218.02
534.69	39700.17
534.86	40179.98
535.03	39812.51
535.20	40252.53
535.37	40266.58
535.54	40189.34
535.71	40025.50
535.88	40268.92
536.05	40282.96
536.22	40273.60
536.38	39957.63
536.55	40268.92
536.72	40275.94
536.89	39910.82
537.06	39866.34
537.23	40053.59
537.40	40533.40
537.57	40797.88
537.74	40634.04
537.91	40961.72
538.08	40320.41
538.25	40521.69
538.42	40495.95
538.59	41088.10
538.75	40526.38
538.92	40854.05
539.09	40643.40
539.26	40495.95
539.43	40797.88
539.60	41015.55
539.77	40868.09
539.94	40879.80
540.11	41071.72
540.28	41074.06
540.44	40865.75
540.61	41092.79
540.78	40430.41
540.95	41106.83
541.12	40985.12
541.29	40971.08
541.46	41404.08
541.62	41464.93
541.79	41411.10
541.96	41172.36
542.13	41193.43
542.30	41357.27
542.47	41394.71
542.63	41404.08
542.80	41619.41
542.97	42106.24
543.14	42120.28
543.31	41837.08
543.48	41958.78
543.64	42050.06
543.81	42089.85
543.98	42220.92
544.15	42335.61
544.32	42021.98
544.48	42454.98
544.65	42410.51
544.82	42370.72
544.99	42300.50
545.16	42569.66
545.32	42246.67
545.49	42749.88
545.66	42387.10
545.83	42401.14
546.00	42408.17
546.16	42136.66
546.33	42602.43
546.50	42155.39
546.67	42820.10
546.83	42199.86
547.00	42738.18
547.17	42672.65
547.34	42541.58
547.50	42607.11
547.67	43203.95
547.84	42976.92
548.00	42827.12
548.17	43201.61
548.34	43384.17
548.51	43529.28
548.67	43098.62
548.84	43402.89
549.01	43084.58
549.18	42761.59
549.34	43178.20
549.51	43215.65
549.68	43412.26
549.84	43363.11
550.01	43276.51
550.18	43201.61
550.34	43473.11
550.51	43065.86
550.68	43388.85
550.84	43274.16
551.01	43548.01
551.18	43227.35
551.34	43309.27
551.51	43679.08
551.68	43772.70
551.84	43604.18
552.01	43409.92
552.18	43856.96
552.34	43370.13
552.51	43976.33
552.68	43899.09
552.84	43761.00
553.01	44088.67
553.18	43335.02
553.34	44294.64
553.51	44215.06
553.67	44039.52
553.84	44369.54
554.01	44179.95
554.17	44231.44
554.34	44243.15
554.51	43732.91
554.67	44622.31
554.84	43908.45
555.00	44252.51
555.17	43990.37
555.33	44095.69
555.50	44041.86
555.67	44690.19
555.83	43859.30
556.00	44318.04
556.16	44425.71
556.33	44128.46
556.50	44538.05
556.66	44385.92
556.83	44154.21
556.99	44524.01
557.16	44491.24
557.32	44624.65
557.49	44608.27
557.65	44472.52
557.82	44566.14
557.98	44219.74
558.15	44779.13
558.32	44446.77
558.48	44556.78
558.65	44397.62
558.81	44315.70
558.98	44341.45
559.14	44449.11
559.31	44383.58
559.47	44343.79
559.64	44872.75
559.80	44839.98
559.97	44648.06
560.13	44325.07
560.30	44839.98
560.46	45071.70
560.63	45193.40
560.79	44802.53
560.96	44982.76
561.12	44856.37
561.29	44575.50
561.45	44374.22
561.61	44837.64
561.78	45081.06
561.94	44505.29
562.11	44692.53
562.27	44472.52
562.44	44671.46
562.60	44992.12
562.77	45095.10
562.93	45478.95
563.10	45043.61
563.26	44645.72
563.42	45162.98
563.59	45001.48
563.75	45336.18
563.92	45123.19
564.08	44919.56
564.24	45317.45
564.41	44889.13
564.57	44975.73
564.74	45006.16
564.90	45151.27
565.07	45385.33
565.23	45170.00
565.39	45272.98
565.56	45272.98
565.72	44531.03
565.88	44856.37
566.05	44865.73
566.21	44992.12
566.38	45277.66
566.54	45081.06
566.70	45869.82
566.87	45563.21
567.03	45151.27
567.19	46028.98
567.36	44952.33
567.52	45563.21
567.68	45092.76
567.85	45193.40
568.01	45553.85
568.17	44863.39
568.34	45659.17
568.50	45322.13
568.66	45265.96
568.83	45198.09
568.99	44959.35
569.15	45600.66
569.32	45457.88
569.48	44947.65
569.64	45511.72
569.81	45579.59
569.97	45556.19
570.13	45308.09
570.30	45446.18
570.46	44729.98
570.62	45413.41
570.78	44917.22
570.95	44992.12
571.11	45141.91
571.27	45387.67
571.43	45375.97
571.60	45574.91
571.76	45579.59
571.92	46010.25
572.09	45464.91
572.25	45652.15
572.41	45661.51
572.57	45785.56
572.74	46223.24
572.90	45375.97
573.06	45949.40
573.22	45844.07
573.38	45485.97
573.55	45228.51
573.71	45638.11
573.87	45490.65
574.03	45406.39
574.20	45448.52
574.36	45336.18
574.52	45698.96
574.68	45734.07
574.84	45661.51
575.01	45088.08
575.17	45750.45
575.33	45277.66
575.49	45069.36
575.65	45565.55
575.82	45776.20
575.98	45144.25
576.14	45581.93
576.30	45741.09
576.46	45628.74
576.62	45329.16
576.79	45446.18
576.95	45148.93
577.11	45675.55
577.27	45677.90
577.43	45624.06
577.59	45247.24
577.75	45041.27
577.92	45347.88
578.08	45167.66
578.24	45205.11
578.40	45317.45
578.56	45661.51
578.72	45698.96
578.88	45617.04
579.04	45968.12
579.21	45284.68
579.37	45670.87
579.53	45523.42
579.69	45268.30
579.85	45427.46
580.01	45483.63
580.17	45422.78
580.33	45223.83
580.49	45743.43
580.65	45794.92
580.82	45436.82
580.98	45567.89
581.14	45146.59
581.30	45397.03
581.46	45387.67
581.62	45792.58
581.78	45996.21
581.94	45799.60
582.10	45551.51
582.26	45514.06
582.42	45420.44
582.58	45600.66
582.74	45514.06
582.90	45535.12
583.06	45801.94
583.22	45729.39
583.38	45794.92
583.54	46038.34
583.70	45890.88
583.86	46162.39
584.02	45537.46
584.18	45614.70
584.34	45551.51
584.50	45752.79
584.66	45312.77
584.82	45593.64
584.98	45909.61
585.14	45666.19
585.30	45462.57
585.46	45579.59
585.62	45390.01
585.78	45624.06
585.94	45670.87
586.10	45280.00
586.26	45488.31
586.42	45925.99
586.58	45879.18
586.74	45691.94
586.90	45649.81
587.06	45780.88
587.22	46089.83
587.38	45256.60
587.54	45727.05
587.70	45890.88
587.86	45546.82
588.02	46064.08
588.18	46061.74
588.34	45855.78
588.49	45219.15
588.65	44847.00
588.81	45282.34
588.97	45148.93
589.13	45694.28
589.29	45001.48
589.45	45544.48
589.61	45481.29
589.77	45830.03
589.93	45584.27
590.08	45893.22
