SpectraSuite Data File
++++++++++++++++++++++++++++++++++++
Date: Fri Oct 25 10:43:22 EDT 2013
User: price-jones
Dark Spectrum Present: No
Reference Spectrum Present: No
Number of Sampled Component Spectra: 1
Spectrometers: USB2+H05261
Integration Time (usec): 100000 (USB2+H05261)
Spectra Averaged: 1 (USB2+H05261)
Boxcar Smoothing: 0 (USB2+H05261)
Correct for Electrical Dark: No (USB2+H05261)
Strobe/Lamp Enabled: No (USB2+H05261)
Correct for Detector Non-linearity: No (USB2+H05261)
Correct for Stray Light: No (USB2+H05261)
Number of Pixels in Processed Spectrum: 2048
>>>>>Begin Processed Spectral Data<<<<<
365.73	56.17
365.92	56.17
366.12	56.17
366.32	0.00
366.52	0.00
366.72	23.41
366.91	23.41
367.11	4.68
367.31	0.00
367.51	30.43
367.70	0.00
367.90	93.62
368.10	0.00
368.30	14.04
368.49	28.09
368.69	46.81
368.89	79.58
369.09	0.00
369.28	21.06
369.48	46.81
369.68	81.92
369.87	35.11
370.07	16.38
370.27	126.39
370.47	191.92
370.66	360.44
370.86	388.53
371.06	449.38
371.25	498.53
371.45	421.30
371.65	418.96
371.84	430.66
372.04	440.02
372.24	468.11
372.44	475.13
372.63	512.58
372.83	524.28
373.03	491.51
373.22	482.15
373.42	498.53
373.62	507.90
373.81	545.34
374.01	498.53
374.21	545.34
374.40	531.30
374.60	561.73
374.79	566.41
374.99	624.92
375.19	585.13
375.38	559.39
375.58	613.22
375.78	601.52
375.97	582.79
376.17	657.69
376.37	603.86
376.56	636.63
376.76	636.63
376.95	566.41
377.15	674.07
377.35	636.63
377.54	685.78
377.74	596.84
377.93	636.63
378.13	706.84
378.33	660.03
378.52	692.80
378.72	662.37
378.91	685.78
379.11	669.39
379.31	697.48
379.50	716.20
379.70	739.61
379.89	727.91
380.09	706.84
380.28	683.44
380.48	718.54
380.68	655.35
380.87	781.74
381.07	753.65
381.26	770.04
381.46	704.50
381.65	711.52
381.85	767.70
382.04	784.08
382.24	683.44
382.43	660.03
382.63	704.50
382.83	702.16
383.02	692.80
383.22	821.53
383.41	718.54
383.61	788.76
383.80	788.76
384.00	608.54
384.19	770.04
384.39	770.04
384.58	774.72
384.78	842.59
384.97	844.93
385.17	732.59
385.36	758.33
385.56	765.36
385.75	706.84
385.95	786.42
386.14	856.64
386.34	830.89
386.53	809.83
386.72	877.70
386.92	922.17
387.11	903.45
387.31	875.36
387.50	898.77
387.70	938.55
387.89	816.85
388.09	973.66
388.28	922.17
388.48	851.96
388.67	954.94
388.86	940.90
389.06	938.55
389.25	931.53
389.45	980.68
389.64	983.02
389.84	973.66
390.03	1046.22
390.22	1081.33
390.42	1025.15
390.61	922.17
390.81	898.77
391.00	1078.99
391.19	1018.13
391.39	1109.41
391.58	1114.10
391.78	1041.54
391.97	1046.22
392.16	950.26
392.36	1104.73
392.55	1046.22
392.75	1008.77
392.94	1008.77
393.13	1006.43
393.33	1001.75
393.52	1086.01
393.71	1071.97
393.91	1104.73
394.10	1116.44
394.29	1114.10
394.49	1086.01
394.68	1203.04
394.88	1287.29
395.07	1345.81
395.26	1118.78
395.46	1165.59
395.65	1324.74
395.84	1282.61
396.04	1263.89
396.23	1196.01
396.42	1128.14
396.62	1160.91
396.81	1207.72
397.00	1193.67
397.19	1291.98
397.39	1331.76
397.58	1301.34
397.77	1355.17
397.97	1462.83
398.16	1486.24
398.35	1453.47
398.55	1474.54
398.74	1458.15
398.93	1472.20
399.12	1584.54
399.32	1523.69
399.51	1565.82
399.70	1579.86
399.90	1453.47
400.09	1614.97
400.28	1633.69
400.47	1614.97
400.67	1640.72
400.86	1633.69
401.05	1645.40
401.24	1703.91
401.44	1746.04
401.63	1797.53
401.82	1696.89
402.01	1689.87
402.21	1638.38
402.40	1757.74
402.59	1746.04
402.78	1849.02
402.97	1757.74
403.17	1771.79
403.36	1689.87
403.55	1846.68
403.74	1853.70
403.93	1902.86
404.13	1919.24
404.32	1757.74
404.51	1919.24
404.70	1914.56
404.89	1907.54
405.09	2031.58
405.28	1952.01
405.47	1830.30
405.66	1968.39
405.85	2066.69
406.05	1956.69
406.24	2017.54
406.43	2064.35
406.62	2064.35
406.81	2160.31
407.00	2078.40
407.20	2087.76
407.39	2127.55
407.58	2157.97
407.77	2108.82
407.96	2225.85
408.15	2190.74
408.34	2270.32
408.54	2162.66
408.73	2331.17
408.92	2312.45
409.11	2345.22
409.30	2385.01
409.49	2335.85
409.68	2279.68
409.87	2373.30
410.07	2324.15
410.26	2380.32
410.45	2394.37
410.64	2452.88
410.83	2370.96
411.02	2569.91
411.21	2663.53
411.40	2490.33
411.59	2614.38
411.78	2525.44
411.98	2583.95
412.17	2583.95
412.36	2672.89
412.55	2775.88
412.74	2832.05
412.93	2764.17
413.12	2740.77
413.31	2916.31
413.50	2904.60
413.69	2897.58
413.88	2881.20
414.07	2850.77
414.26	2981.84
414.45	3112.91
414.64	2925.67
414.83	3049.72
415.02	3012.27
415.22	3063.76
415.41	3042.70
415.60	3213.56
415.79	3225.26
415.98	3276.75
416.17	3082.49
416.36	3353.99
416.55	3220.58
416.74	3194.83
416.93	3358.67
417.12	3426.54
417.31	3307.18
417.50	3321.22
417.69	3471.01
417.88	3440.59
418.07	3569.32
418.26	3445.27
418.45	3478.04
418.64	3676.98
418.83	3630.17
419.02	3644.21
419.21	3695.71
419.39	3581.02
419.58	3473.36
419.77	3655.92
419.96	3740.18
420.15	3644.21
420.34	3620.81
420.53	3831.46
420.72	3819.75
420.91	3801.03
421.10	3861.88
421.29	3824.44
421.48	3723.79
421.67	3852.52
421.86	3857.20
422.05	3742.52
422.24	3850.18
422.43	3873.59
422.61	3927.42
422.80	3887.63
422.99	3887.63
423.18	4140.41
423.37	4091.26
423.56	3899.33
423.75	3969.55
423.94	3906.35
424.13	3712.09
424.32	3941.46
424.50	3936.78
424.69	4173.18
424.88	4049.13
425.07	3950.82
425.26	3908.69
425.45	3976.57
425.64	4208.28
425.83	3896.99
426.01	4039.76
426.20	4109.98
426.39	3957.85
426.58	4042.11
426.77	3892.31
426.96	3964.87
427.15	4023.38
427.33	4140.41
427.52	4119.34
427.71	4180.20
427.90	4175.52
428.09	4079.55
428.28	4117.00
428.46	4187.22
428.65	4166.15
428.84	4250.41
429.03	4227.01
429.22	4084.23
429.40	4212.96
429.59	4212.96
429.78	4021.04
429.97	3981.25
430.16	3936.78
430.34	4156.79
430.53	4196.58
430.72	4128.70
430.91	4362.76
431.10	4397.87
431.28	4573.41
431.47	4648.30
431.66	4795.76
431.85	4463.40
432.03	4608.51
432.22	4709.16
432.41	4622.56
432.60	4781.71
432.79	4667.03
432.97	4781.71
433.16	4887.04
433.35	4765.33
433.54	4652.98
433.72	4627.24
433.91	4627.24
434.10	4706.82
434.28	4830.87
434.47	4814.48
434.66	4884.70
434.85	5095.35
435.03	4880.02
435.22	4842.57
435.41	5046.20
435.59	5064.92
435.78	5130.45
435.97	5156.20
436.16	4983.00
436.34	5228.76
436.53	5235.78
436.72	5149.18
436.90	5203.01
437.09	5228.76
437.28	5177.26
437.46	5301.31
437.65	5242.80
437.84	5296.63
438.02	5200.67
438.21	5245.14
438.40	5062.58
438.58	5479.19
438.77	5500.26
438.96	5441.75
439.14	5551.75
439.33	5643.03
439.52	5579.84
439.70	5809.21
439.89	5589.20
440.08	5724.95
440.26	5769.42
440.45	5710.91
440.63	5907.51
440.82	5912.19
441.01	5977.73
441.19	5975.39
441.38	6155.61
441.57	6179.01
441.75	6246.89
441.94	6338.17
442.12	6356.90
442.31	6387.32
442.50	6417.75
442.68	6408.39
442.87	6314.77
443.05	6445.84
443.24	6572.22
443.43	6457.54
443.61	6614.35
443.80	6644.78
443.98	6621.38
444.17	6265.61
444.35	6644.78
444.54	6656.48
444.73	6506.69
444.91	6450.52
445.10	6476.26
445.28	6431.79
445.47	6492.65
445.65	6347.53
445.84	6668.19
446.02	6518.39
446.21	6509.03
446.39	6642.44
446.58	6722.02
446.77	6628.40
446.95	6663.51
447.14	6614.35
447.32	6745.42
447.51	6761.81
447.69	6775.85
447.88	6766.49
448.06	6733.72
448.25	6665.85
448.43	6815.64
448.62	6679.89
448.80	6836.70
448.99	6829.68
449.17	6902.24
449.36	6902.24
449.54	6998.20
449.73	7318.86
449.91	7131.61
450.10	7243.96
450.28	7122.25
450.46	7295.45
450.65	7169.06
450.83	7314.17
451.02	7241.62
451.20	7461.63
451.39	7463.97
451.57	7389.07
451.76	7255.66
451.94	7265.02
452.13	7311.83
452.31	7356.30
452.49	7166.72
452.68	7176.08
452.86	7236.94
453.05	7480.35
453.23	7227.57
453.42	7403.11
453.60	7447.58
453.78	7517.80
453.97	7452.27
454.15	7421.84
454.34	7346.94
454.52	7468.65
454.70	7545.89
454.89	7639.51
455.07	7590.36
455.26	7662.91
455.44	7735.47
455.62	7714.41
455.81	7873.56
455.99	7997.61
456.17	7873.56
456.36	7779.94
456.54	7889.95
456.73	7992.93
456.91	8163.79
457.09	8044.42
457.28	8313.58
457.46	8138.04
457.64	8276.13
457.83	8112.30
458.01	7981.23
458.19	8255.07
458.38	7960.16
458.56	8388.48
458.74	8271.45
458.93	8435.29
459.11	8383.80
459.29	8290.18
459.48	8248.05
459.66	8498.49
459.84	8615.51
460.03	8545.30
460.21	8418.91
460.39	8446.99
460.57	8552.32
460.76	8669.34
460.94	8676.37
461.12	8615.51
461.31	8489.12
461.49	8601.47
461.67	8636.58
461.85	8704.45
462.04	8994.68
462.22	9308.31
462.40	8812.12
462.59	9060.21
462.77	8938.51
462.95	8891.70
463.13	9130.43
463.32	9165.54
463.50	9013.40
463.68	9074.26
463.86	9144.47
464.05	8999.36
464.23	8982.98
464.41	9158.52
464.59	8767.65
464.78	9165.54
464.96	9303.63
465.14	9132.77
465.32	9195.96
465.50	9320.01
465.69	9418.32
465.87	9277.88
466.05	9160.86
466.23	9247.46
466.41	9348.10
466.60	9369.16
466.78	9163.20
466.96	9301.29
467.14	9418.32
467.32	9481.51
467.51	9357.46
467.69	9191.28
467.87	9533.00
468.05	9535.34
468.23	9411.29
468.41	9324.69
468.60	9380.87
468.78	9596.20
468.96	9540.02
469.14	9643.01
469.32	9975.36
469.50	9628.96
469.69	9797.48
469.87	9851.31
470.05	9980.04
470.23	10073.67
470.41	9764.72
470.59	9827.91
470.77	9893.44
470.95	10113.45
471.14	10190.69
471.32	9907.49
471.50	10551.14
471.68	10204.74
471.86	10284.31
472.04	10551.14
472.22	10668.16
472.40	10235.16
472.58	10413.04
472.77	10420.06
472.95	10829.66
473.13	10881.15
473.31	10616.67
473.49	10532.41
473.67	10773.49
473.85	10792.21
474.03	11000.52
474.21	11101.16
474.39	11225.21
474.57	11012.22
474.75	11239.25
474.93	11281.38
475.12	11239.25
475.30	11330.53
475.48	11475.65
475.66	11131.59
475.84	11501.39
476.02	11557.57
476.20	11468.62
476.38	11700.34
476.56	11793.96
476.74	11847.79
476.92	11882.90
477.10	11880.56
477.28	12016.31
477.46	12116.95
477.64	12320.58
477.82	12666.98
478.00	12732.51
478.18	12556.97
478.36	12650.60
478.54	12484.42
478.72	12903.37
478.90	13081.25
479.08	13041.46
479.26	13085.94
479.44	13322.33
479.62	13118.70
479.80	13308.29
479.98	13497.87
480.16	13774.05
480.34	13465.10
480.52	13855.97
480.70	13848.95
480.88	13619.58
481.06	13954.27
481.24	14066.62
481.41	14310.04
481.59	14370.89
481.77	14333.44
481.95	14157.90
482.13	14523.02
482.31	14544.09
482.49	14946.66
482.67	14937.30
482.85	14986.45
483.03	15145.61
483.21	15073.05
483.39	15606.69
483.57	15529.45
483.74	15454.56
483.92	15716.70
484.10	15648.82
484.28	16049.05
484.46	15939.05
484.64	16608.44
484.82	16145.02
485.00	16269.06
485.18	16271.40
485.35	16582.70
485.53	16170.76
485.71	16191.83
485.89	16540.57
486.07	16182.46
486.25	16627.17
486.43	16964.20
486.61	17060.16
486.78	17160.81
486.96	17245.07
487.14	17867.65
487.32	17975.31
487.50	18176.60
487.68	18052.55
487.85	18532.36
488.03	18789.82
488.21	18663.43
488.39	18691.52
488.57	18787.48
488.75	18731.31
488.92	19152.60
489.10	19487.30
489.28	19349.21
489.46	19789.23
489.64	19782.21
489.81	20245.63
489.99	20367.34
490.17	20355.64
490.35	20449.26
490.53	20533.52
490.70	20245.63
490.88	20482.03
491.06	20936.09
491.24	21221.64
491.41	20989.92
491.59	20872.90
491.77	20627.14
491.95	21125.68
492.13	21448.67
492.30	21575.06
492.48	21727.19
492.66	22003.38
492.84	22197.64
493.01	22394.25
493.19	22024.44
493.37	22270.20
493.54	22075.93
493.72	22838.95
493.90	22522.98
494.08	23168.96
494.25	23405.36
494.43	23431.10
494.61	23634.73
494.79	23510.68
494.96	23454.51
495.14	23407.70
495.32	23789.20
495.49	23606.64
495.67	23763.46
495.85	24243.27
496.02	24364.98
496.20	24219.86
496.38	24423.49
496.55	25078.84
496.73	25207.57
496.91	24950.11
497.09	25090.54
497.26	25432.26
497.44	25247.36
497.62	25090.54
497.79	25607.80
497.97	24982.88
498.14	25385.45
498.32	25837.17
498.50	25748.23
498.67	26160.17
498.85	26394.22
499.03	26258.47
499.20	26223.36
499.38	26279.54
499.56	26679.77
499.73	26455.08
499.91	26614.23
500.08	26618.91
500.26	26466.78
500.44	26747.64
500.61	26899.78
500.79	26562.74
500.97	26857.65
501.14	27197.02
501.32	27094.04
501.49	27054.25
501.67	27220.43
501.84	27391.29
502.02	27498.95
502.20	27660.45
502.37	27608.96
502.55	27955.36
502.72	27941.32
502.90	27899.19
503.07	28161.33
503.25	27810.25
503.43	28011.53
503.60	27915.57
503.78	27995.15
503.95	28112.17
504.13	28414.10
504.30	28790.93
504.48	28432.83
504.65	28947.75
504.83	29050.73
505.01	29462.66
505.18	29184.14
505.36	29589.05
505.53	29200.52
505.71	29837.15
505.88	30085.25
506.06	29525.86
506.23	29591.39
506.41	29661.61
506.58	29773.95
506.76	29804.38
506.93	30099.29
507.11	30073.54
507.28	30045.46
507.46	29720.12
507.63	30101.63
507.81	30195.25
507.98	30174.19
508.16	30551.01
508.33	30789.75
508.50	30991.03
508.68	30492.50
508.85	31208.70
509.03	30904.43
509.20	31051.89
509.38	31152.53
509.55	31480.21
509.73	31292.96
509.90	31545.74
510.08	31604.25
510.25	31585.53
510.42	31669.79
510.60	32264.28
510.77	31772.77
510.95	32091.09
511.12	31864.05
511.30	32313.44
511.47	32741.75
511.64	32608.34
511.82	32339.18
511.99	32437.48
512.17	32519.40
512.34	32339.18
512.51	32135.56
512.69	32847.08
512.86	32730.05
513.04	32877.51
513.21	33422.85
513.38	33151.35
513.56	32657.49
513.73	33186.46
513.90	33041.34
514.08	33249.65
514.25	32994.53
514.43	33539.88
514.60	33390.08
514.77	33392.42
514.95	33701.37
515.12	33528.17
515.29	33642.86
515.47	33825.42
515.64	34286.51
515.81	33745.84
515.99	34040.75
516.16	33895.64
516.33	33172.41
516.51	33642.86
516.68	33270.72
516.85	33191.14
517.03	33694.35
517.20	33621.80
517.37	34543.97
517.54	34548.65
517.72	34316.93
517.89	33907.34
518.06	34195.23
518.24	34321.62
518.41	34298.21
518.58	34373.11
518.75	34806.11
518.93	35185.27
519.10	34714.83
519.27	35065.91
519.45	34717.17
519.62	35229.74
519.79	35744.66
519.96	35519.97
520.14	35522.31
520.31	34937.18
520.48	35625.29
520.65	35707.21
520.83	35655.72
521.00	35889.77
521.17	36016.16
521.34	36016.16
521.52	36133.19
521.69	36048.93
521.86	36133.19
522.03	36605.98
522.20	36524.06
522.38	36556.83
522.55	36491.29
522.72	36257.24
522.89	36416.40
523.07	37254.31
523.24	36627.04
523.41	36968.76
523.58	36638.75
523.75	37102.17
523.92	36835.35
524.10	37027.28
524.27	37153.66
524.44	37364.31
524.61	37469.64
524.78	37701.35
524.96	37516.45
525.13	36940.68
525.30	37745.82
525.47	38003.28
525.64	38000.94
525.81	37689.65
525.98	37869.87
526.16	37596.03
526.33	36877.48
526.50	37521.13
526.67	37446.23
526.84	37256.65
527.01	37809.01
527.18	37846.46
527.36	38000.94
527.53	37862.85
527.70	38602.46
527.87	38312.23
528.04	38284.14
528.21	38284.14
528.38	38560.33
528.55	39035.45
528.72	38778.00
528.89	38937.15
529.07	38560.33
529.24	38635.22
529.41	38258.40
529.58	38703.10
529.75	39028.43
529.92	39250.78
530.09	39077.58
530.26	39412.28
530.43	39543.35
530.60	39145.46
530.77	39161.84
530.94	39290.57
531.11	39611.23
531.28	39299.94
531.46	39714.21
531.63	39356.11
531.80	39545.69
531.97	39761.02
532.14	39775.06
532.31	39292.91
532.48	39356.11
532.65	39695.49
532.82	39641.65
532.99	39606.55
533.16	39908.47
533.33	39983.37
533.50	40037.20
533.67	40109.76
533.84	40055.93
534.01	40304.02
534.18	40191.68
534.35	39957.63
534.52	40250.19
534.69	40355.52
534.86	40201.04
535.03	40418.71
535.20	40517.01
535.37	40919.59
535.54	41177.04
535.71	40509.99
535.88	40933.63
536.05	41008.53
536.22	40994.48
536.38	40971.08
536.55	40795.54
536.72	40737.02
536.89	40332.11
537.06	40940.65
537.23	40926.61
537.40	41055.34
537.57	41244.92
537.74	40851.71
537.91	41287.05
538.08	41308.11
538.25	41001.50
538.42	40886.82
538.59	41373.65
538.75	40652.76
538.92	41425.14
539.09	41289.39
539.26	41511.74
539.43	41118.53
539.60	41418.12
539.77	41446.21
539.94	41462.59
540.11	41251.94
540.28	41113.85
540.44	41593.66
540.61	41235.56
540.78	41361.95
540.95	41390.03
541.12	41418.12
541.29	41874.52
541.46	41897.93
541.62	41944.74
541.79	41895.59
541.96	41486.00
542.13	41706.01
542.30	41729.41
542.47	42078.15
542.63	41825.37
542.80	42543.92
542.97	42597.75
543.14	42377.74
543.31	42653.92
543.48	42443.27
543.64	43288.21
543.81	42939.47
543.98	42993.30
544.15	42401.14
544.32	42815.42
544.48	43311.61
544.65	42590.73
544.82	43229.69
544.99	42279.44
545.16	42883.30
545.32	43093.94
545.49	43335.02
545.66	43555.03
545.83	43044.79
546.00	43107.99
546.16	43131.39
546.33	43065.86
546.50	42962.87
546.67	43688.44
546.83	42539.24
547.00	43281.19
547.17	43414.60
547.34	43274.16
547.50	43412.26
547.67	43533.96
547.84	43625.25
548.00	43679.08
548.17	43697.80
548.34	43459.07
548.51	44055.90
548.67	43922.49
548.84	43826.53
549.01	43524.60
549.18	43510.56
549.34	43679.08
549.51	43950.58
549.68	43763.34
549.84	43702.48
550.01	44397.62
550.18	43737.59
550.34	44048.88
550.51	43835.89
550.68	44011.43
550.84	43688.44
551.01	44231.44
551.18	43966.96
551.34	44369.54
551.51	43913.13
551.68	43931.86
551.84	43978.67
552.01	43859.30
552.18	44076.97
552.34	43798.44
552.51	44680.83
552.68	44025.48
552.84	44657.42
553.01	44636.36
553.18	44460.82
553.34	44559.12
553.51	44465.50
553.67	44545.08
553.84	44442.09
554.01	44961.69
554.17	44680.83
554.34	44608.27
554.51	44645.72
554.67	44968.71
554.84	44816.58
555.00	44676.15
555.17	44715.93
555.33	44975.73
555.50	44687.85
555.67	44832.96
555.83	44980.42
556.00	44816.58
556.16	44839.98
556.33	44917.22
556.50	44737.00
556.66	44491.24
556.83	44655.08
556.99	44596.57
557.16	45052.97
557.32	44933.60
557.49	45188.72
557.65	44858.71
557.82	44889.13
557.98	44690.19
558.15	45228.51
558.32	45144.25
558.48	44671.46
558.65	44519.33
558.81	44685.51
558.98	44980.42
559.14	45193.40
559.31	44708.91
559.47	45272.98
559.64	44954.67
559.80	45375.97
559.97	45385.33
560.13	45024.89
560.30	45263.62
560.46	45322.13
560.63	45174.68
560.79	45509.38
560.96	45502.35
561.12	45375.97
561.29	45057.65
561.45	45593.64
561.61	45385.33
561.78	45331.50
561.94	44886.79
562.11	44954.67
562.27	45148.93
562.44	45642.79
562.60	45399.37
562.77	45361.92
562.93	45654.49
563.10	45591.30
563.26	45095.10
563.42	45755.13
563.59	45390.01
563.75	45581.93
563.92	45556.19
564.08	45563.21
564.24	45925.99
564.41	45546.82
564.57	45998.55
564.74	45694.28
564.90	45549.17
565.07	45345.54
565.23	45624.06
565.39	45221.49
565.56	45935.35
565.72	45188.72
565.88	45497.67
566.05	45490.65
566.21	46047.70
566.38	45401.71
566.54	45890.88
566.70	46012.59
566.87	46241.96
567.03	46134.30
567.19	46213.88
567.36	45986.85
567.52	46153.02
567.68	45752.79
567.85	45511.72
568.01	45474.27
568.17	45457.88
568.34	45776.20
568.50	45593.64
568.66	45518.74
568.83	45820.67
568.99	45261.28
569.15	45731.73
569.32	45865.14
569.48	45844.07
569.64	46274.73
569.81	46157.70
569.97	45876.84
570.13	45780.88
570.30	44921.90
570.46	45598.32
570.62	45308.09
570.78	45495.33
570.95	45392.35
571.11	45745.77
571.27	45766.84
571.43	45797.26
571.60	45869.82
571.76	45546.82
571.92	45977.48
572.09	46131.96
572.25	46031.32
572.41	46234.94
572.57	45881.52
572.74	46279.41
572.90	46183.45
573.06	46014.93
573.22	45663.85
573.38	45989.19
573.55	45642.79
573.71	46305.16
573.87	45956.42
574.03	45567.89
574.20	46024.29
574.36	45935.35
574.52	46040.68
574.68	45923.65
574.84	45666.19
575.01	45991.53
575.17	46291.12
575.33	45743.43
575.49	45539.80
575.65	45862.80
575.82	46155.36
575.98	45687.26
576.14	46211.54
576.30	45897.91
576.46	45909.61
576.62	46110.89
576.79	45846.41
576.95	45778.54
577.11	45820.67
577.27	46295.80
577.43	45961.10
577.59	45626.40
577.75	45996.21
577.92	45656.83
578.08	45425.12
578.24	45677.90
578.40	45860.46
578.56	45684.92
578.72	46136.64
578.88	46075.79
579.04	46138.98
579.21	45855.78
579.37	45778.54
579.53	46071.10
579.69	45701.30
579.85	46216.22
580.01	46256.01
580.17	46033.66
580.33	46099.19
580.49	45996.21
580.65	45694.28
580.82	46071.10
580.98	45944.72
581.14	45846.41
581.30	46227.92
581.46	46295.80
581.62	45890.88
581.78	46188.13
581.94	46202.18
582.10	46162.39
582.26	45963.44
582.42	46033.66
582.58	46092.17
582.74	46401.12
582.90	46160.05
583.06	46546.23
583.22	45925.99
583.38	46377.72
583.54	46426.87
583.70	46167.07
583.86	46213.88
584.02	45965.78
584.18	46237.28
584.34	46749.86
584.50	46012.59
584.66	46143.66
584.82	45944.72
584.98	46101.53
585.14	46295.80
585.30	45626.40
585.46	46351.97
585.62	45743.43
585.78	45820.67
585.94	45701.30
586.10	45865.14
586.26	46375.37
586.42	45940.04
586.58	46478.36
586.74	45940.04
586.90	45940.04
587.06	45811.31
587.22	46220.90
587.38	46127.28
587.54	46012.59
587.70	46300.48
587.86	45900.25
588.02	45951.74
588.18	45982.16
588.34	46005.57
588.49	45883.86
588.65	45272.98
588.81	45900.25
588.97	45549.17
589.13	45427.46
589.29	45698.96
589.45	45797.26
589.61	46225.58
589.77	46188.13
589.93	46082.81
590.08	46061.74
