SpectraSuite Data File
++++++++++++++++++++++++++++++++++++
Date: Fri Oct 25 10:44:01 EDT 2013
User: price-jones
Dark Spectrum Present: No
Reference Spectrum Present: No
Number of Sampled Component Spectra: 1
Spectrometers: USB2+H05261
Integration Time (usec): 100000 (USB2+H05261)
Spectra Averaged: 1 (USB2+H05261)
Boxcar Smoothing: 0 (USB2+H05261)
Correct for Electrical Dark: No (USB2+H05261)
Strobe/Lamp Enabled: No (USB2+H05261)
Correct for Detector Non-linearity: No (USB2+H05261)
Correct for Stray Light: No (USB2+H05261)
Number of Pixels in Processed Spectrum: 2048
>>>>>Begin Processed Spectral Data<<<<<
365.73	152.13
365.92	152.13
366.12	152.13
366.32	44.47
366.52	18.72
366.72	58.51
366.91	16.38
367.11	25.75
367.31	0.00
367.51	67.88
367.70	58.51
367.90	21.06
368.10	30.43
368.30	0.00
368.49	9.36
368.69	81.92
368.89	0.00
369.09	0.00
369.28	14.04
369.48	0.00
369.68	114.69
369.87	74.90
370.07	98.30
370.27	100.64
370.47	133.41
370.66	430.66
370.86	428.32
371.06	437.68
371.25	482.15
371.45	440.02
371.65	493.85
371.84	475.13
372.04	461.09
372.24	526.62
372.44	486.83
372.63	578.11
372.83	554.71
373.03	512.58
373.22	505.56
373.42	477.47
373.62	566.41
373.81	561.73
374.01	617.90
374.21	550.03
374.40	566.41
374.60	669.39
374.79	486.83
374.99	580.45
375.19	582.79
375.38	512.58
375.58	507.90
375.78	709.18
375.97	559.39
376.17	636.63
376.37	596.84
376.56	660.03
376.76	676.41
376.95	664.71
377.15	657.69
377.35	608.54
377.54	571.09
377.74	688.12
377.93	636.63
378.13	681.10
378.33	676.41
378.52	676.41
378.72	655.35
378.91	685.78
379.11	589.82
379.31	650.67
379.50	634.29
379.70	636.63
379.89	643.65
380.09	631.94
380.28	702.16
380.48	671.73
380.68	704.50
380.87	638.97
381.07	711.52
381.26	781.74
381.46	767.70
381.65	753.65
381.85	753.65
382.04	737.27
382.24	699.82
382.43	648.33
382.63	674.07
382.83	774.72
383.02	685.78
383.22	767.70
383.41	746.63
383.61	763.01
383.80	887.06
384.00	760.67
384.19	786.42
384.39	765.36
384.58	866.00
384.78	837.91
384.97	791.10
385.17	791.10
385.36	795.78
385.56	784.08
385.75	887.06
385.95	868.34
386.14	805.14
386.34	858.98
386.53	884.72
386.72	784.08
386.92	849.61
387.11	861.32
387.31	910.47
387.50	873.02
387.70	828.55
387.89	919.83
388.09	887.06
388.28	950.26
388.48	875.36
388.67	917.49
388.86	931.53
389.06	990.05
389.25	1004.09
389.45	1001.75
389.64	1032.18
389.84	1048.56
390.03	957.28
390.22	1048.56
390.42	1104.73
390.61	1046.22
390.81	1146.86
391.00	1074.31
391.19	1090.69
391.39	1025.15
391.58	1125.80
391.78	1083.67
391.97	1041.54
392.16	1088.35
392.36	1036.86
392.55	1015.79
392.75	999.41
392.94	973.66
393.13	1060.26
393.33	987.71
393.52	1100.05
393.71	1132.82
393.91	1064.94
394.10	1086.01
394.29	1226.44
394.49	1228.78
394.68	1214.74
394.88	1153.88
395.07	1210.06
395.26	1280.27
395.46	1217.08
395.65	1313.04
395.84	1238.14
396.04	1200.69
396.23	1193.67
396.42	1144.52
396.62	1142.18
396.81	1252.19
397.00	1184.31
397.19	1294.32
397.39	1357.51
397.58	1458.15
397.77	1483.90
397.97	1310.70
398.16	1488.58
398.35	1413.68
398.55	1516.67
398.74	1451.13
398.93	1544.75
399.12	1460.49
399.32	1387.94
399.51	1519.01
399.70	1671.14
399.90	1661.78
400.09	1596.25
400.28	1682.85
400.47	1537.73
400.67	1689.87
400.86	1715.61
401.05	1774.13
401.24	1748.38
401.44	1860.73
401.63	1753.06
401.82	1818.60
402.01	1664.12
402.21	1778.81
402.40	1736.68
402.59	1675.82
402.78	1764.76
402.97	1825.62
403.17	1834.98
403.36	1886.47
403.55	1893.49
403.74	1919.24
403.93	1881.79
404.13	1891.15
404.32	1893.49
404.51	1844.34
404.70	1914.56
404.89	1937.96
405.09	1963.71
405.28	2001.16
405.47	1895.83
405.66	2094.78
405.85	2143.93
406.05	1987.11
406.24	2148.61
406.43	2026.90
406.62	2132.23
406.81	2104.14
407.00	2150.95
407.20	2069.03
407.39	2052.65
407.58	2263.30
407.77	2263.30
407.96	2279.68
408.15	2317.13
408.34	2242.23
408.54	2366.28
408.73	2441.18
408.92	2368.62
409.11	2237.55
409.30	2338.20
409.49	2328.83
409.68	2251.60
409.87	2331.17
410.07	2429.48
410.26	2359.26
410.45	2583.95
410.64	2487.99
410.83	2506.71
411.02	2607.36
411.21	2759.49
411.40	2567.57
411.59	2663.53
411.78	2597.99
411.98	2642.46
412.17	2778.22
412.36	2684.59
412.55	2825.03
412.74	2773.53
412.93	2761.83
413.12	2771.19
413.31	2960.78
413.50	3014.61
413.69	2850.77
413.88	2979.50
414.07	2930.35
414.26	3000.57
414.45	2956.10
414.64	3030.99
414.83	3190.15
415.02	3077.80
415.22	3227.60
415.41	3241.64
415.60	3082.49
415.79	3201.85
415.98	3297.81
416.17	3393.78
416.36	3349.31
416.55	3276.75
416.74	3281.43
416.93	3258.03
417.12	3438.25
417.31	3517.83
417.50	3527.19
417.69	3529.53
417.88	3590.38
418.07	3480.38
418.26	3377.39
418.45	3588.04
418.64	3662.94
418.83	3588.04
419.02	3695.71
419.21	3698.05
419.39	3618.47
419.58	3501.44
419.77	3672.30
419.96	3651.24
420.15	3735.50
420.34	3735.50
420.53	3925.08
420.72	3866.56
420.91	3950.82
421.10	3726.13
421.29	3988.27
421.48	3978.91
421.67	3934.44
421.86	3803.37
422.05	4002.32
422.24	3805.71
422.43	3847.84
422.61	3899.33
422.80	3911.04
422.99	3932.10
423.18	4058.49
423.37	4039.76
423.56	4077.21
423.75	4138.07
423.94	3943.80
424.13	3782.31
424.32	3866.56
424.50	3955.51
424.69	4107.64
424.88	4004.66
425.07	3985.93
425.26	4002.32
425.45	3957.85
425.64	3941.46
425.83	3957.85
426.01	4058.49
426.20	4156.79
426.39	4182.54
426.58	3948.48
426.77	4049.13
426.96	4168.49
427.15	4044.45
427.33	4203.60
427.52	4205.94
427.71	4348.72
427.90	4290.20
428.09	4299.56
428.28	4318.29
428.46	4255.09
428.65	4332.33
428.84	4468.08
429.03	4369.78
429.22	4348.72
429.40	4152.11
429.59	4269.14
429.78	4079.55
429.97	3995.29
430.16	4053.81
430.34	4177.86
430.53	4149.77
430.72	4299.56
430.91	4166.15
431.10	4376.80
431.28	4568.73
431.47	4786.40
431.66	4765.33
431.85	4685.75
432.03	4685.75
432.22	4720.86
432.41	4770.01
432.60	4875.34
432.79	4786.40
432.97	5057.90
433.16	4875.34
433.35	4667.03
433.54	4662.35
433.72	4723.20
433.91	4645.96
434.10	4805.12
434.28	4873.00
434.47	5043.85
434.66	5013.43
434.85	5004.07
435.03	5191.31
435.22	5137.48
435.41	5179.61
435.59	5078.96
435.78	5128.11
435.97	5256.84
436.16	5277.91
436.34	5195.99
436.53	5411.32
436.72	5495.58
436.90	5224.08
437.09	5315.36
437.28	5242.80
437.46	5128.11
437.65	5188.97
437.84	5235.78
438.02	5291.95
438.21	5238.12
438.40	5203.01
438.58	5526.00
438.77	5540.05
438.96	5556.43
439.14	5734.31
439.33	5699.20
439.52	5860.70
439.70	5612.60
439.89	5860.70
440.08	5858.36
440.26	5781.12
440.45	5748.36
440.63	6122.84
440.82	6153.27
441.01	5930.92
441.19	6113.48
441.38	6251.57
441.57	6139.23
441.75	6317.11
441.94	6483.28
442.12	6438.81
442.31	6375.62
442.50	6635.42
442.68	6469.24
442.87	6415.41
443.05	6583.93
443.24	6675.21
443.43	6438.81
443.61	6628.40
443.80	6857.77
443.98	6581.59
444.17	6317.11
444.35	6686.91
444.54	6782.87
444.73	6759.47
444.91	6628.40
445.10	6480.94
445.28	6590.95
445.47	6464.56
445.65	6530.09
445.84	6630.74
446.02	6745.42
446.21	6644.78
446.39	6609.67
446.58	6958.41
446.77	6899.90
446.95	6626.06
447.14	6731.38
447.32	6913.94
447.51	6661.16
447.69	6736.06
447.88	6918.62
448.06	6862.45
448.25	7082.46
448.43	6984.16
448.62	6771.17
448.80	6841.39
448.99	6918.62
449.17	7108.21
449.36	7124.59
449.54	7063.74
449.73	7103.53
449.91	7365.67
450.10	7396.09
450.28	7318.86
450.46	7559.93
450.65	7494.40
450.83	7337.58
451.02	7183.10
451.20	7267.36
451.39	7379.71
451.57	7311.83
451.76	7459.29
451.94	7335.24
452.13	7349.28
452.31	7379.71
452.49	7302.47
452.68	7335.24
452.86	7389.07
453.05	7482.69
453.23	7555.25
453.42	7510.78
453.60	7452.27
453.78	7665.25
453.97	7534.18
454.15	7503.76
454.34	7555.25
454.52	7611.42
454.70	7611.42
454.89	7737.81
455.07	7681.64
455.26	7714.41
455.44	8042.08
455.62	7960.16
455.81	7866.54
455.99	7915.69
456.17	8016.33
456.36	8084.21
456.54	8327.63
456.73	8006.97
456.91	8381.46
457.09	8348.69
457.28	8379.12
457.46	8402.52
457.64	8105.28
457.83	8496.14
458.01	8327.63
458.19	8374.44
458.38	8219.96
458.56	8404.86
458.74	8390.82
458.93	8278.47
459.11	8404.86
459.29	8393.16
459.48	8545.30
459.66	8521.89
459.84	8634.24
460.03	8592.11
460.21	8542.96
460.39	8830.84
460.57	8564.02
460.76	8671.68
460.94	8901.06
461.12	8791.05
461.31	8980.64
461.49	8762.97
461.67	8938.51
461.85	8887.01
462.04	8849.57
462.22	9605.56
462.40	9163.20
462.59	9149.15
462.77	8851.91
462.95	9296.61
463.13	9062.55
463.32	9121.07
463.50	9254.48
463.68	9036.81
463.86	9327.03
464.05	8992.34
464.23	9142.13
464.41	9121.07
464.59	9200.65
464.78	9591.52
464.96	9348.10
465.14	9186.60
465.32	9378.53
465.50	9350.44
465.69	9540.02
465.87	9254.48
466.05	9357.46
466.23	9240.44
466.41	9411.29
466.60	9467.47
466.78	9437.04
466.96	9446.40
467.14	9413.63
467.32	9717.90
467.51	9671.09
467.69	9394.91
467.87	9708.54
468.05	9891.10
468.23	9542.36
468.41	9668.75
468.60	9556.41
468.78	9774.08
468.96	9610.24
469.14	9928.55
469.32	10148.56
469.50	9816.21
469.69	9795.14
469.87	9888.76
470.05	9893.44
470.23	10033.88
470.41	10139.20
470.59	10242.18
470.77	10176.65
470.95	10251.55
471.14	10408.36
471.32	10244.52
471.50	10459.85
471.68	10509.01
471.86	10516.03
472.04	10586.24
472.22	10658.80
472.40	10328.78
472.58	10410.70
472.77	10768.80
472.95	10836.68
473.13	10960.73
473.31	11000.52
473.49	10635.39
473.67	10841.36
473.85	10923.28
474.03	11417.13
474.21	11262.66
474.39	11147.97
474.57	11295.43
474.75	11573.95
474.93	11541.18
475.12	11515.44
475.30	11676.93
475.48	11599.70
475.66	11426.50
475.84	11447.56
476.02	11398.41
476.20	11758.85
476.38	11810.34
476.56	12011.63
476.74	12049.08
476.92	12226.96
477.10	12219.94
477.28	12388.46
477.46	12222.28
477.64	12608.47
477.82	12526.55
478.00	12807.41
478.18	12901.03
478.36	12959.55
478.54	13004.02
478.72	12898.69
478.90	13207.64
479.08	13252.11
479.26	13331.69
479.44	13640.64
479.62	13542.34
479.80	13591.49
479.98	13769.37
480.16	13987.04
480.34	13743.63
480.52	14129.81
480.70	14113.43
480.88	14141.52
481.06	14246.84
481.24	14235.14
481.41	14569.83
481.59	14654.09
481.77	14579.20
481.95	14401.32
482.13	14782.82
482.31	14984.11
482.49	15187.74
482.67	14817.93
482.85	15234.55
483.03	15358.60
483.21	15536.48
483.39	15737.76
483.57	15489.67
483.74	15817.34
483.92	16100.55
484.10	15906.28
484.28	16175.44
484.46	16479.71
484.64	16521.84
484.82	16491.41
485.00	16561.63
485.18	16732.49
485.35	16659.93
485.53	16493.76
485.71	16236.30
485.89	16840.15
486.07	16692.70
486.25	16823.77
486.43	17053.14
486.61	17331.67
486.78	17582.10
486.96	17830.20
487.14	17996.38
487.32	17994.04
487.50	18335.76
487.68	18377.89
487.85	18728.97
488.03	18946.64
488.21	18876.42
488.39	19028.56
488.57	18972.38
488.75	19133.88
488.92	19229.84
489.10	19634.75
489.28	20002.22
489.46	20245.63
489.64	19950.73
489.81	20606.08
489.99	20772.25
490.17	20753.53
490.35	20716.08
490.53	20858.85
490.70	21404.20
490.88	21085.89
491.06	21333.98
491.24	20999.29
491.41	21043.76
491.59	21298.88
491.77	21216.96
491.95	21565.70
492.13	21614.85
492.30	22178.92
492.48	22136.79
492.66	22295.94
492.84	22080.61
493.01	22721.92
493.19	22445.74
493.37	22565.10
493.54	22871.72
493.72	22824.90
493.90	22974.70
494.08	23220.45
494.25	23587.92
494.43	23716.65
494.61	23644.09
494.79	24212.84
494.96	23946.02
495.14	23847.72
495.32	24067.73
495.49	24423.49
495.67	24306.46
495.85	24891.60
496.02	24907.98
496.20	24781.59
496.38	25135.01
496.55	25050.75
496.73	25425.24
496.91	25207.57
497.09	25532.90
497.26	25745.89
497.44	25668.66
497.62	25373.75
497.79	25809.09
497.97	25572.69
498.14	26047.82
498.32	25848.88
498.50	26204.64
498.67	26705.51
498.85	26368.48
499.03	26426.99
499.20	26679.77
499.38	26953.61
499.56	26693.81
499.73	26984.04
499.91	27190.00
500.08	26888.07
500.26	26541.68
500.44	27290.65
500.61	27063.61
500.79	26984.04
500.97	26881.05
501.14	27484.91
501.32	27669.81
501.49	27400.65
501.67	27445.12
501.84	27632.36
502.02	27782.16
502.20	27988.13
502.37	28381.34
502.55	28540.49
502.72	28580.28
502.90	28388.36
503.07	28313.46
503.25	28793.27
503.43	28479.64
503.60	28664.54
503.78	28666.88
503.95	28292.40
504.13	29216.91
504.30	29343.30
504.48	29223.93
504.65	29614.80
504.83	29766.93
505.01	29642.88
505.18	29593.73
505.36	29589.05
505.53	29876.94
505.71	30242.06
505.88	30197.59
506.06	29818.42
506.23	29996.31
506.41	30106.31
506.58	30536.97
506.76	30499.52
506.93	30349.73
507.11	30651.66
507.28	30487.82
507.46	30415.26
507.63	30862.30
507.81	30642.29
507.98	30726.55
508.16	30923.16
508.33	31192.32
508.50	31292.96
508.68	31342.11
508.85	31695.53
509.03	31409.99
509.20	31564.46
509.38	31723.62
509.55	31934.27
509.73	31906.18
509.90	31672.13
510.08	32119.17
510.25	32112.15
510.42	32243.22
510.60	32393.01
510.77	32528.77
510.95	32542.81
511.12	32456.21
511.30	32830.69
511.47	33099.86
511.64	32582.60
511.82	33149.01
511.99	32676.22
512.17	33324.55
512.34	32879.85
512.51	33202.84
512.69	33455.62
512.86	33137.30
513.04	33577.33
513.21	33301.14
513.38	33462.64
513.56	33352.63
513.73	33282.42
513.90	33659.24
514.08	33345.61
514.25	33958.83
514.43	34251.40
514.60	33951.81
514.77	33956.49
514.95	34082.88
515.12	33902.66
515.29	34340.34
515.47	34696.10
515.64	34663.33
515.81	34103.95
515.99	34354.38
516.16	34567.37
516.33	34024.37
516.51	34059.48
516.68	33670.95
516.85	34064.16
517.03	34284.17
517.20	34206.93
517.37	34742.91
517.54	34852.92
517.72	34642.27
517.89	34370.77
518.06	34202.25
518.24	34672.70
518.41	34855.26
518.58	35204.00
518.75	34806.11
518.93	35674.45
519.10	35398.26
519.27	35672.10
519.45	35566.78
519.62	36032.55
519.79	35976.37
519.96	35655.72
520.14	35864.03
520.31	35924.88
520.48	36257.24
520.65	36002.12
520.83	36404.69
521.00	36416.40
521.17	36472.57
521.34	36720.66
521.52	36830.67
521.69	36910.25
521.86	36952.38
522.03	36907.91
522.20	37081.11
522.38	36973.44
522.55	36617.68
522.72	36847.05
522.89	37081.11
523.07	37539.85
523.24	37212.18
523.41	37530.49
523.58	37219.20
523.75	38073.49
523.92	37769.22
524.10	37476.66
524.27	37785.61
524.44	37752.84
524.61	38253.72
524.78	38000.94
524.96	38115.62
525.13	38277.12
525.30	38321.59
525.47	38298.19
525.64	38368.40
525.81	38267.76
525.98	38139.03
526.16	37830.08
526.33	37984.55
526.50	38246.69
526.67	37783.27
526.84	37731.78
527.01	38471.39
527.18	38251.38
527.36	38719.48
527.53	38951.20
527.70	38986.30
527.87	38988.64
528.04	38939.49
528.21	39356.11
528.38	39133.76
528.55	39246.10
528.72	39636.97
528.89	39510.58
529.07	39126.74
529.24	38920.77
529.41	39833.58
529.58	39730.59
529.75	39564.42
529.92	39978.69
530.09	39672.08
530.26	39732.93
530.43	39765.70
530.60	40304.02
530.77	39601.86
530.94	40194.02
531.11	39899.11
531.28	39798.47
531.46	40257.21
531.63	40243.17
531.80	39873.37
531.97	39782.09
532.14	40081.67
532.31	39770.38
532.48	40023.16
532.65	40205.72
532.82	40135.51
532.99	40378.92
533.16	40713.62
533.33	40589.57
533.50	40657.45
533.67	40531.06
533.84	40339.13
534.01	40762.77
534.18	40465.52
534.35	40954.69
534.52	40877.46
534.69	40978.10
534.86	41031.93
535.03	41493.02
535.20	41521.10
535.37	41457.91
535.54	41968.15
535.71	41464.93
535.88	41179.39
536.05	41275.35
536.22	41280.03
536.38	41116.19
536.55	41308.11
536.72	40938.31
536.89	41090.44
537.06	41359.61
537.23	41518.76
537.40	41588.98
537.57	41631.11
537.74	42197.52
537.91	42424.55
538.08	41743.45
538.25	41930.70
538.42	41827.71
538.59	42003.25
538.75	41530.47
538.92	42019.64
539.09	42103.90
539.26	42040.70
539.43	41965.81
539.60	41654.51
539.77	41984.53
539.94	41785.58
540.11	41773.88
540.28	41773.88
540.44	42103.90
540.61	41862.82
540.78	42010.28
540.95	41904.95
541.12	42550.94
541.29	42419.87
541.46	42398.80
541.62	42227.95
541.79	42862.23
541.96	42019.64
542.13	42284.12
542.30	42712.44
542.47	42431.57
542.63	42679.67
542.80	42843.51
542.97	42857.55
543.14	43349.06
543.31	43650.99
543.48	42909.04
543.64	43842.92
543.81	43777.38
543.98	43625.25
544.15	43601.84
544.32	43634.61
544.48	43814.83
544.65	43557.37
544.82	43770.36
544.99	43143.09
545.16	43819.51
545.32	43318.64
545.49	44023.14
545.66	44275.91
545.83	44179.95
546.00	43852.28
546.16	43360.76
546.33	43758.66
546.50	43201.61
546.67	43639.29
546.83	43922.49
547.00	44102.71
547.17	43959.94
547.34	43969.30
547.50	43611.20
547.67	43779.72
547.84	43950.58
548.00	44463.16
548.17	44208.04
548.34	44392.94
548.51	44217.40
548.67	44610.61
548.84	44374.22
549.01	43688.44
549.18	44545.08
549.34	44629.34
549.51	44463.16
549.68	44582.52
549.84	44446.77
550.01	44914.88
550.18	44629.34
550.34	44451.45
550.51	44664.44
550.68	44603.59
550.84	44250.17
551.01	44828.28
551.18	44327.41
551.34	44961.69
551.51	44788.49
551.68	44697.21
551.84	44994.46
552.01	44729.98
552.18	44652.74
552.34	44720.62
552.51	44741.68
552.68	44868.07
552.84	44900.84
553.01	45043.61
553.18	44921.90
553.34	45003.82
553.51	44662.10
553.67	45062.33
553.84	45277.66
554.01	44844.66
554.17	45652.15
554.34	45387.67
554.51	45645.13
554.67	45352.56
554.84	45226.17
555.00	45088.08
555.17	44856.37
555.33	45230.85
555.50	45359.58
555.67	45120.85
555.83	45008.50
556.00	45382.99
556.16	45500.01
556.33	45975.14
556.50	45462.57
556.66	45977.48
556.83	45223.83
556.99	45497.67
557.16	45640.45
557.32	45654.49
557.49	45806.62
557.65	45441.50
557.82	45799.60
557.98	45581.93
558.15	45944.72
558.32	45504.70
558.48	45123.19
558.65	45855.78
558.81	45492.99
558.98	45406.39
559.14	45490.65
559.31	45937.69
559.47	45713.00
559.64	45804.28
559.80	46043.02
559.97	46225.58
560.13	45427.46
560.30	45780.88
560.46	46047.70
560.63	46003.23
560.79	46150.68
560.96	46113.23
561.12	45900.25
561.29	45935.35
561.45	45937.69
561.61	46066.42
561.78	46085.15
561.94	45680.24
562.11	45755.13
562.27	45841.73
562.44	46375.37
562.60	46057.06
562.77	46492.40
562.93	45834.71
563.10	46045.36
563.26	45523.42
563.42	46419.84
563.59	46036.00
563.75	45998.55
563.92	46319.20
564.08	46227.92
564.24	46567.30
564.41	45832.37
564.57	45780.88
564.74	46148.34
564.90	46096.85
565.07	46213.88
565.23	46672.62
565.39	46190.47
565.56	46370.69
565.72	46066.42
565.88	45977.48
566.05	46469.00
566.21	46272.39
566.38	46522.83
566.54	46260.69
566.70	46536.87
566.87	46373.03
567.03	46398.78
567.19	46766.24
567.36	46312.18
567.52	46146.00
567.68	46660.92
567.85	45727.05
568.01	46380.06
568.17	46190.47
568.34	46614.11
568.50	46504.10
568.66	46202.18
568.83	46497.08
568.99	46120.26
569.15	46136.64
569.32	46169.41
569.48	46108.55
569.64	46600.07
569.81	46904.34
569.97	46370.69
570.13	46356.65
570.30	46061.74
570.46	45797.26
570.62	46370.69
570.78	46164.73
570.95	46143.66
571.11	46635.17
571.27	46043.02
571.43	45881.52
571.60	46440.91
571.76	46312.18
571.92	46490.06
572.09	46747.52
572.25	46621.13
572.41	46291.12
572.57	46291.12
572.74	46876.25
572.90	46721.77
573.06	46569.64
573.22	46569.64
573.38	46590.70
573.55	46307.50
573.71	46887.95
573.87	46857.52
574.03	46726.46
574.20	46731.14
574.36	46841.14
574.52	47051.79
574.68	46253.67
574.84	46784.97
575.01	46452.61
575.17	46639.86
575.33	46295.80
575.49	46321.54
575.65	46920.72
575.82	46684.33
575.98	46419.84
576.14	46609.43
576.30	46784.97
576.46	46508.79
576.62	46747.52
576.79	46412.82
576.95	46389.42
577.11	46447.93
577.27	46829.44
577.43	46754.54
577.59	46354.31
577.75	46277.07
577.92	45951.74
578.08	46316.86
578.24	46146.00
578.40	46590.70
578.56	46677.30
578.72	46405.80
578.88	46911.36
579.04	46639.86
579.21	46445.59
579.37	46431.55
579.53	46794.33
579.69	46408.14
579.85	46759.22
580.01	46595.38
580.17	46625.81
580.33	46691.35
580.49	46775.61
580.65	46983.91
580.82	46461.97
580.98	46391.76
581.14	46518.15
581.30	46824.76
581.46	46438.57
581.62	46368.35
581.78	46646.88
581.94	46890.29
582.10	46698.37
582.26	46766.24
582.42	46703.05
582.58	46876.25
582.74	46902.00
582.90	46880.93
583.06	47098.60
583.22	46773.27
583.38	47044.77
583.54	47491.81
583.70	46471.34
583.86	47166.48
584.02	46672.62
584.18	46527.51
584.34	46848.16
584.50	46939.44
584.66	46539.21
584.82	46499.42
584.98	46595.38
585.14	46775.61
585.30	46557.94
585.46	46953.49
585.62	46312.18
585.78	46307.50
585.94	46363.67
586.10	46461.97
586.26	46469.00
586.42	46967.53
586.58	47229.67
586.74	46597.73
586.90	46698.37
587.06	46307.50
587.22	46848.16
587.38	46321.54
587.54	46951.15
587.70	46906.68
587.86	46986.25
588.02	46799.01
588.18	46883.27
588.34	46747.52
588.49	46131.96
588.65	45918.97
588.81	46314.52
588.97	46478.36
589.13	46239.62
589.29	46492.40
589.45	46192.81
589.61	46651.56
589.77	46927.74
589.93	46836.46
