SpectraSuite Data File
++++++++++++++++++++++++++++++++++++
Date: Fri Oct 25 10:44:05 EDT 2013
User: price-jones
Dark Spectrum Present: No
Reference Spectrum Present: No
Number of Sampled Component Spectra: 1
Spectrometers: USB2+H05261
Integration Time (usec): 100000 (USB2+H05261)
Spectra Averaged: 1 (USB2+H05261)
Boxcar Smoothing: 0 (USB2+H05261)
Correct for Electrical Dark: No (USB2+H05261)
Strobe/Lamp Enabled: No (USB2+H05261)
Correct for Detector Non-linearity: No (USB2+H05261)
Correct for Stray Light: No (USB2+H05261)
Number of Pixels in Processed Spectrum: 2048
>>>>>Begin Processed Spectral Data<<<<<
365.73	128.73
365.92	128.73
366.12	128.73
366.32	49.15
366.52	0.00
366.72	56.17
366.91	51.49
367.11	77.24
367.31	46.81
367.51	0.00
367.70	0.00
367.90	42.13
368.10	0.00
368.30	60.85
368.49	28.09
368.69	51.49
368.89	121.71
369.09	9.36
369.28	124.05
369.48	65.54
369.68	86.60
369.87	91.28
370.07	79.58
370.27	145.11
370.47	196.60
370.66	414.27
370.86	376.83
371.06	423.64
371.25	491.51
371.45	379.17
371.65	486.83
371.84	390.87
372.04	512.58
372.24	531.30
372.44	482.15
372.63	512.58
372.83	587.47
373.03	589.82
373.22	472.79
373.42	557.05
373.62	550.03
373.81	561.73
374.01	573.43
374.21	566.41
374.40	510.24
374.60	594.50
374.79	585.13
374.99	538.32
375.19	615.56
375.38	655.35
375.58	566.41
375.78	660.03
375.97	596.84
376.17	681.10
376.37	627.26
376.56	594.50
376.76	622.58
376.95	631.94
377.15	690.46
377.35	610.88
377.54	655.35
377.74	662.37
377.93	617.90
378.13	685.78
378.33	702.16
378.52	697.48
378.72	596.84
378.91	636.63
379.11	732.59
379.31	667.05
379.50	610.88
379.70	699.82
379.89	718.54
380.09	683.44
380.28	620.24
380.48	763.01
380.68	643.65
380.87	730.25
381.07	645.99
381.26	741.95
381.46	718.54
381.65	674.07
381.85	690.46
382.04	734.93
382.24	739.61
382.43	763.01
382.63	634.29
382.83	730.25
383.02	709.18
383.22	767.70
383.41	727.91
383.61	753.65
383.80	833.23
384.00	772.38
384.19	798.12
384.39	781.74
384.58	791.10
384.78	765.36
384.97	826.21
385.17	844.93
385.36	828.55
385.56	807.48
385.75	809.83
385.95	910.47
386.14	884.72
386.34	884.72
386.53	856.64
386.72	807.48
386.92	763.01
387.11	901.11
387.31	884.72
387.50	929.19
387.70	905.79
387.89	858.98
388.09	940.90
388.28	915.15
388.48	873.02
388.67	954.94
388.86	1041.54
389.06	917.49
389.25	844.93
389.45	1006.43
389.64	983.02
389.84	983.02
390.03	1011.11
390.22	990.05
390.42	1001.75
390.61	1036.86
390.81	1104.73
391.00	1060.26
391.19	1149.20
391.39	1020.47
391.58	1139.84
391.78	999.41
391.97	1069.62
392.16	997.07
392.36	1036.86
392.55	1020.47
392.75	1071.97
392.94	978.34
393.13	1008.77
393.33	1022.81
393.52	1039.20
393.71	1111.75
393.91	1093.03
394.10	1153.88
394.29	1191.33
394.49	1172.61
394.68	1210.06
394.88	1235.80
395.07	1256.87
395.26	1345.81
395.46	1287.29
395.65	1256.87
395.84	1191.33
396.04	1306.02
396.23	1109.41
396.42	1184.31
396.62	1266.23
396.81	1249.85
397.00	1336.45
397.19	1291.98
397.39	1324.74
397.58	1357.51
397.77	1385.60
397.97	1416.02
398.16	1458.15
398.35	1535.39
398.55	1423.05
398.74	1451.13
398.93	1673.48
399.12	1462.83
399.32	1432.41
399.51	1582.20
399.70	1584.54
399.90	1514.33
400.09	1556.46
400.28	1710.93
400.47	1739.02
400.67	1664.12
400.86	1689.87
401.05	1605.61
401.24	1764.76
401.44	1750.72
401.63	1771.79
401.82	1834.98
402.01	1732.00
402.21	1746.04
402.40	1874.77
402.59	1877.11
402.78	1853.70
402.97	1792.85
403.17	1790.51
403.36	1879.45
403.55	1827.96
403.74	1785.83
403.93	1895.83
404.13	1860.73
404.32	1795.19
404.51	1959.03
404.70	2010.52
404.89	1895.83
405.09	1961.37
405.28	1989.46
405.47	1989.46
405.66	2003.50
405.85	1966.05
406.05	2015.20
406.24	2043.29
406.43	2078.40
406.62	2169.68
406.81	2275.00
407.00	2214.15
407.20	2183.72
407.39	2214.15
407.58	2286.70
407.77	2246.91
407.96	2291.38
408.15	2289.04
408.34	2267.98
408.54	2342.88
408.73	2260.96
408.92	2385.01
409.11	2263.30
409.30	2303.09
409.49	2331.17
409.68	2331.17
409.87	2373.30
410.07	2366.28
410.26	2485.65
410.45	2487.99
410.64	2443.52
410.83	2511.39
411.02	2544.16
411.21	2717.36
411.40	2630.76
411.59	2672.89
411.78	2722.04
411.98	2696.30
412.17	2708.00
412.36	2712.68
412.55	2682.25
412.74	2834.39
412.93	2810.98
413.12	2771.19
413.31	2911.63
413.50	3000.57
413.69	2918.65
413.88	2974.82
414.07	2977.16
414.26	3016.95
414.45	3091.85
414.64	2986.52
414.83	3084.83
415.02	3112.91
415.22	3028.65
415.41	3335.26
415.60	3155.04
415.79	3321.22
415.98	3337.60
416.17	3346.97
416.36	3337.60
416.55	3304.84
416.74	3424.20
416.93	3318.88
417.12	3344.63
417.31	3421.86
417.50	3339.94
417.69	3510.80
417.88	3559.95
418.07	3602.08
418.26	3534.21
418.45	3520.17
418.64	3672.30
418.83	3698.05
419.02	3613.79
419.21	3667.62
419.39	3686.34
419.58	3772.94
419.77	3623.15
419.96	3712.09
420.15	3810.39
420.34	3641.87
420.53	3904.01
420.72	3985.93
420.91	3896.99
421.10	3904.01
421.29	3911.04
421.48	3997.64
421.67	3913.38
421.86	3904.01
422.05	3908.69
422.24	3840.82
422.43	3868.91
422.61	4084.23
422.80	3875.93
422.99	3978.91
423.18	4021.04
423.37	4100.62
423.56	4011.68
423.75	3969.55
423.94	3969.55
424.13	3782.31
424.32	4018.70
424.50	4042.11
424.69	4079.55
424.88	4095.94
425.07	4119.34
425.26	3927.42
425.45	3964.87
425.64	4056.15
425.83	4077.21
426.01	4140.41
426.20	4234.03
426.39	4203.60
426.58	4156.79
426.77	3983.59
426.96	3915.72
427.15	4063.17
427.33	4060.83
427.52	4133.39
427.71	4119.34
427.90	4236.37
428.09	4301.90
428.28	4367.44
428.46	4280.84
428.65	4297.22
428.84	4386.16
429.03	4411.91
429.22	4250.41
429.40	4278.50
429.59	4163.81
429.78	4044.45
429.97	3983.59
430.16	4203.60
430.34	4102.96
430.53	4212.96
430.72	4278.50
430.91	4273.82
431.10	4505.53
431.28	4643.62
431.47	4865.97
431.66	4741.93
431.85	4685.75
432.03	4517.23
432.22	4837.89
432.41	4741.93
432.60	4723.20
432.79	4863.63
432.97	4929.17
433.16	4784.06
433.35	4802.78
433.54	4812.14
433.72	4865.97
433.91	4826.18
434.10	4849.59
434.28	4842.57
434.47	4905.76
434.66	5025.13
434.85	5041.51
435.03	5102.37
435.22	5144.50
435.41	5329.40
435.59	5149.18
435.78	5228.76
435.97	5238.12
436.16	5364.51
436.34	5212.37
436.53	5139.82
436.72	5467.49
436.90	5219.39
437.09	5329.40
437.28	5179.61
437.46	5287.27
437.65	5294.29
437.84	5345.78
438.02	5219.39
438.21	5210.03
438.40	5188.97
438.58	5406.64
438.77	5437.06
438.96	5626.65
439.14	5853.68
439.33	5764.74
439.52	5849.00
439.70	5701.54
439.89	5790.49
440.08	5937.94
440.26	5825.59
440.45	5984.75
440.63	5982.41
440.82	6171.99
441.01	6022.20
441.19	6118.16
441.38	6256.25
441.57	6282.00
441.75	6384.98
441.94	6321.79
442.12	6317.11
442.31	6546.48
442.50	6480.94
442.68	6403.71
442.87	6654.14
443.05	6464.56
443.24	6527.75
443.43	6616.69
443.61	6616.69
443.80	6654.14
443.98	6366.26
444.17	6434.13
444.35	6729.04
444.54	6698.61
444.73	6745.42
444.91	6738.40
445.10	6623.72
445.28	6586.27
445.47	6347.53
445.65	6745.42
445.84	6560.52
446.02	6752.45
446.21	6583.93
446.39	6693.93
446.58	6736.06
446.77	6895.22
446.95	6705.63
447.14	6918.62
447.32	6986.50
447.51	6757.13
447.69	6766.49
447.88	6801.60
448.06	6759.47
448.25	6944.37
448.43	7070.76
448.62	6759.47
448.80	6836.70
448.99	7037.99
449.17	6984.16
449.36	6855.43
449.54	7124.59
449.73	7155.02
449.91	7206.51
450.10	7300.13
450.28	7555.25
450.46	7330.56
450.65	7370.35
450.83	7531.84
451.02	7506.10
451.20	7496.74
451.39	7478.01
451.57	7527.16
451.76	7349.28
451.94	7435.88
452.13	7510.78
452.31	7400.77
452.49	7166.72
452.68	7288.43
452.86	7323.54
453.05	7396.09
453.23	7564.61
453.42	7311.83
453.60	7604.40
453.78	7662.91
453.97	7377.37
454.15	7618.44
454.34	7508.44
454.52	7655.89
454.70	7585.68
454.89	7569.29
455.07	7618.44
455.26	7885.26
455.44	7955.48
455.62	7932.08
455.81	7983.57
455.99	7985.91
456.17	7894.63
456.36	8023.36
456.54	8053.78
456.73	8177.83
456.91	8351.03
457.09	8308.90
457.28	8425.93
457.46	8152.09
457.64	8507.85
457.83	8292.52
458.01	8297.20
458.19	8498.49
458.38	8294.86
458.56	8472.74
458.74	8229.32
458.93	8468.06
459.11	8329.97
459.29	8526.57
459.48	8477.42
459.66	8425.93
459.84	8650.62
460.03	8741.90
460.21	8688.07
460.39	8692.75
460.57	8713.81
460.76	8957.23
460.94	8945.53
461.12	8961.91
461.31	8868.29
461.49	8788.71
461.67	8898.72
461.85	9029.79
462.04	8978.30
462.22	9441.72
462.40	9088.30
462.59	9130.43
462.77	9193.62
462.95	9219.37
463.13	9057.87
463.32	9214.69
463.50	9102.34
463.68	9371.50
463.86	9287.25
464.05	9188.94
464.23	9277.88
464.41	9352.78
464.59	9219.37
464.78	9359.80
464.96	9343.42
465.14	9179.58
465.32	9439.38
465.50	9315.33
465.69	9535.34
465.87	9490.87
466.05	9378.53
466.23	9430.02
466.41	9507.26
466.60	9694.50
466.78	9420.66
466.96	9458.10
467.14	9525.98
467.32	9682.80
467.51	9624.28
467.69	9411.29
467.87	9345.76
468.05	9928.55
468.23	9500.23
468.41	9668.75
468.60	9572.79
468.78	9877.06
468.96	9703.86
469.14	9923.87
469.32	10031.54
469.50	9628.96
469.69	9996.43
469.87	10059.62
470.05	9867.70
470.23	10012.81
470.41	9951.96
470.59	10230.48
470.77	10064.30
470.95	10068.98
471.14	10422.41
471.32	10298.36
471.50	10459.85
471.68	10630.71
471.86	10523.05
472.04	10712.63
472.22	10771.15
472.40	10609.65
472.58	10527.73
472.77	10794.55
472.95	10558.16
473.13	11194.78
473.31	10794.55
473.49	10888.17
473.67	10726.68
473.85	11037.97
474.03	11164.36
474.21	11302.45
474.39	11178.40
474.57	11337.56
474.75	11468.62
474.93	11527.14
475.12	11438.20
475.30	11550.54
475.48	11297.77
475.66	11489.69
475.84	11410.11
476.02	11719.06
476.20	11620.76
476.38	11854.81
476.56	12142.70
476.74	12170.79
476.92	11946.09
477.10	11892.26
477.28	12266.75
477.46	12390.80
477.64	12271.43
477.82	12814.43
478.00	12954.87
478.18	12657.62
478.36	12809.75
478.54	13095.30
478.72	12968.91
478.90	13029.76
479.08	13329.35
479.26	13305.95
479.44	13577.45
479.62	13614.90
479.80	13366.80
479.98	13790.44
480.16	14017.47
480.34	13710.86
480.52	14256.20
480.70	14160.24
480.88	13949.59
481.06	14279.61
481.24	14174.28
481.41	14628.35
481.59	14827.29
481.77	14637.71
481.95	14878.79
482.13	14672.82
482.31	15087.09
482.49	15407.75
482.67	15255.61
482.85	15112.84
483.03	15452.22
483.21	15627.76
483.39	15726.06
483.57	15672.23
483.74	15737.76
483.92	15925.00
484.10	15932.03
484.28	16240.98
484.46	16231.62
484.64	16666.95
484.82	16383.75
485.00	16645.89
485.18	16781.64
485.35	16971.22
485.53	16334.60
485.71	16552.27
485.89	16978.25
486.07	16748.87
486.25	16915.05
486.43	17060.16
486.61	17474.44
486.78	17694.45
486.96	17862.97
487.14	17818.50
487.32	17951.91
487.50	18207.03
487.68	18555.77
487.85	18455.12
488.03	18719.60
488.21	18838.97
488.39	18799.18
488.57	18932.59
488.75	19136.22
488.92	19293.04
489.10	19384.32
489.28	19922.64
489.46	20266.70
489.64	20079.46
489.81	20690.34
489.99	20580.33
490.17	20566.29
490.35	21090.57
490.53	20645.87
490.70	20856.51
490.88	20629.48
491.06	21256.75
491.24	21055.46
491.41	21160.78
491.59	21088.23
491.77	20992.26
491.95	21586.76
492.13	21741.24
492.30	21979.97
492.48	22253.81
492.66	22270.20
492.84	22324.03
493.01	22513.61
493.19	22623.62
493.37	22773.41
493.54	22881.08
493.72	23461.53
493.90	23229.82
494.08	23255.56
494.25	23730.69
494.43	23805.59
494.61	24046.66
494.79	24147.31
494.96	23978.79
495.14	24119.22
495.32	24357.96
495.49	24215.18
495.67	24346.25
495.85	24606.05
496.02	24545.20
496.20	25233.32
496.38	24856.49
496.55	25291.83
496.73	25783.34
496.91	25127.99
497.09	25696.74
497.26	25895.69
497.44	25544.61
497.62	25413.54
497.79	25792.70
497.97	25790.36
498.14	26167.19
498.32	26099.31
498.50	26389.54
498.67	26508.91
498.85	26522.95
499.03	26298.26
499.20	26504.23
499.38	26661.04
499.56	26864.67
499.73	26771.05
499.91	26986.38
500.08	27054.25
500.26	26607.21
500.44	27386.61
500.61	27302.35
500.79	27131.49
500.97	27065.96
501.14	27742.37
501.32	27339.80
501.49	27789.18
501.67	27861.74
501.84	27665.13
502.02	27871.10
502.20	27854.72
502.37	28357.93
502.55	28393.04
502.72	28755.82
502.90	28629.43
503.07	28460.91
503.25	28914.98
503.43	28587.30
503.60	28800.29
503.78	28922.00
503.95	28479.64
504.13	28800.29
504.30	29415.85
504.48	29509.47
504.65	29703.74
504.83	29453.30
505.01	29542.24
505.18	29619.48
505.36	30185.89
505.53	30099.29
505.71	30139.08
505.88	30085.25
506.06	29722.46
506.23	30410.58
506.41	30047.80
506.58	30171.85
506.76	30415.26
506.93	30764.00
507.11	30579.10
507.28	30185.89
507.46	30382.49
507.63	30728.89
507.81	30534.63
507.98	30118.01
508.16	31089.34
508.33	30998.06
508.50	31332.75
508.68	31709.58
508.85	31613.62
509.03	31796.18
509.20	31381.90
509.38	31948.31
509.55	31885.12
509.73	31812.56
509.90	31807.88
510.08	32121.51
510.25	31814.90
510.42	32332.16
510.60	32275.99
510.77	32374.29
510.95	32500.68
511.12	32240.88
511.30	32797.93
511.47	33277.74
511.64	32938.36
511.82	32884.53
511.99	32732.39
512.17	33125.60
512.34	32823.67
512.51	33130.28
512.69	33284.76
512.86	33596.05
513.04	33589.03
513.21	33406.47
513.38	33738.82
513.56	33684.99
513.73	33240.29
513.90	33483.70
514.08	33764.57
514.25	34162.46
514.43	33766.91
514.60	33937.77
514.77	33558.60
514.95	34604.82
515.12	34349.70
515.29	34380.13
515.47	34742.91
515.64	34728.87
515.81	34445.66
515.99	34455.03
516.16	34078.20
516.33	33893.30
516.51	34033.73
516.68	34115.65
516.85	33844.15
517.03	33837.12
517.20	34443.32
517.37	34817.81
517.54	35014.41
517.72	34520.56
517.89	34827.17
518.06	34548.65
518.24	34665.67
518.41	34944.20
518.58	34998.03
518.75	35335.07
518.93	35232.08
519.10	35592.53
519.27	35812.54
519.45	35728.28
519.62	35817.22
519.79	35929.56
519.96	36058.29
520.14	36107.44
520.31	36084.04
520.48	35992.76
520.65	36208.09
520.83	36488.95
521.00	36402.35
521.17	36521.72
521.34	36753.43
521.52	36758.11
521.69	36683.22
521.86	36992.17
522.03	37043.66
522.20	36861.10
522.38	36856.42
522.55	36945.36
522.72	37181.75
522.89	37083.45
523.07	37312.82
523.24	36954.72
523.41	37771.57
523.58	37074.09
523.75	38007.96
523.92	37773.91
524.10	37783.27
524.27	38110.94
524.44	37867.53
524.61	38127.33
524.78	38382.45
524.96	38029.02
525.13	38494.79
525.30	38096.90
525.47	38572.03
525.64	38185.84
525.81	38218.61
525.98	38136.69
526.16	38108.60
526.33	37731.78
526.50	38543.94
526.67	37951.79
526.84	38164.78
527.01	38443.30
527.18	38408.19
527.36	38672.67
527.53	38962.90
527.70	39255.46
527.87	38862.26
528.04	38712.46
528.21	38859.91
528.38	39232.06
528.55	39468.45
528.72	39608.89
528.89	39636.97
529.07	39047.16
529.24	38946.51
529.41	39552.71
529.58	39150.14
529.75	39393.56
529.92	39344.41
530.09	39824.22
530.26	39629.95
530.43	40371.90
530.60	39943.58
530.77	39629.95
530.94	40360.20
531.11	40105.08
531.28	40116.78
531.46	40168.27
531.63	40793.20
531.80	40236.15
531.97	40194.02
532.14	40271.26
532.31	40034.86
532.48	40039.54
532.65	40231.47
532.82	40156.57
532.99	40725.32
533.16	40294.66
533.33	40224.45
533.50	40722.98
533.67	40765.11
533.84	40421.05
534.01	40708.94
534.18	40737.02
534.35	41095.13
534.52	40601.27
534.69	40910.22
534.86	41146.62
535.03	40893.84
535.20	41680.26
535.37	41345.56
535.54	41551.53
535.71	41476.63
535.88	41301.09
536.05	41212.15
536.22	41490.68
536.38	41647.49
536.55	41387.69
536.72	41661.54
536.89	41298.75
537.06	41406.42
537.23	42036.02
537.40	41603.02
537.57	41511.74
537.74	41666.22
537.91	42157.73
538.08	41975.17
538.25	41598.34
538.42	42218.58
538.59	42356.67
538.75	41495.36
538.92	42021.98
539.09	41963.46
539.26	42227.95
539.43	41858.14
539.60	41715.37
539.77	42370.72
539.94	42204.54
540.11	42169.43
540.28	42029.00
540.44	42260.71
540.61	42321.57
540.78	42160.07
540.95	42185.82
541.12	42330.93
541.29	42389.44
541.46	42597.75
541.62	42822.44
541.79	42862.23
541.96	42710.10
542.13	42492.43
542.30	42541.58
542.47	42686.69
542.63	42773.29
542.80	42817.76
542.97	43278.85
543.14	43143.09
543.31	43168.84
543.48	43157.14
543.64	43660.35
543.81	43304.59
543.98	43835.89
544.15	43463.75
544.32	43882.70
544.48	43672.06
544.65	43739.93
544.82	43835.89
544.99	43267.14
545.16	43725.89
545.32	43363.11
545.49	43955.26
545.66	44154.21
545.83	44140.16
546.00	44287.62
546.16	44034.84
546.33	43721.21
546.50	43576.09
546.67	43805.47
546.83	43693.12
547.00	43585.46
547.17	43620.56
547.34	43931.86
547.50	43597.16
547.67	43901.43
547.84	44322.72
548.00	44737.00
548.17	44699.55
548.34	44685.51
548.51	44842.32
548.67	44313.36
548.84	44259.53
549.01	44046.54
549.18	44500.61
549.34	44809.56
549.51	44741.68
549.68	44935.95
549.84	44554.44
550.01	44734.66
550.18	44411.67
550.34	44704.23
550.51	44561.46
550.68	44624.65
550.84	44388.26
551.01	44907.86
551.18	44832.96
551.34	44975.73
551.51	45125.53
551.68	44882.11
551.84	44971.05
552.01	44678.49
552.18	44987.44
552.34	44884.45
552.51	44919.56
552.68	44949.99
552.84	45186.38
553.01	45462.57
553.18	45092.76
553.34	45301.07
553.51	45097.44
553.67	44858.71
553.84	45916.63
554.01	45631.08
554.17	45301.07
554.34	45982.16
554.51	45748.11
554.67	45937.69
554.84	45595.98
555.00	45247.24
555.17	45422.78
555.33	45560.87
555.50	45357.24
555.67	45132.55
555.83	45364.26
556.00	45298.73
556.16	45670.87
556.33	45483.63
556.50	45497.67
556.66	45647.47
556.83	45591.30
556.99	45502.35
557.16	45713.00
557.32	45521.08
557.49	45638.11
557.65	45277.66
557.82	45790.24
557.98	45820.67
558.15	45897.91
558.32	45918.97
558.48	45500.01
558.65	45963.44
558.81	45593.64
558.98	45656.83
559.14	45588.95
559.31	45324.47
559.47	45696.62
559.64	46073.45
559.80	46391.76
559.97	45895.56
560.13	45621.72
560.30	45586.61
560.46	45677.90
560.63	46014.93
560.79	46138.98
560.96	46288.77
561.12	46211.54
561.29	46246.65
561.45	46101.53
561.61	46270.05
561.78	45661.51
561.94	45949.40
562.11	46162.39
562.27	46082.81
562.44	46691.35
562.60	46387.08
562.77	46305.16
562.93	46389.42
563.10	45808.96
563.26	45900.25
563.42	46396.44
563.59	46050.04
563.75	46082.81
563.92	46527.51
564.08	46461.97
564.24	46705.39
564.41	46295.80
564.57	46344.95
564.74	46342.61
564.90	46199.83
565.07	46300.48
565.23	46326.22
565.39	46347.29
565.56	46036.00
565.72	46028.98
565.88	46506.44
566.05	46375.37
566.21	46593.04
566.38	46363.67
566.54	46541.55
566.70	46656.24
566.87	46745.18
567.03	46277.07
567.19	46951.15
567.36	46590.70
567.52	46583.68
567.68	46452.61
567.85	46450.27
568.01	46752.20
568.17	46258.35
568.34	46873.91
568.50	46728.80
568.66	46225.58
568.83	46480.70
568.99	46328.56
569.15	46185.79
569.32	46553.26
569.48	46658.58
569.64	46646.88
569.81	46749.86
569.97	46394.10
570.13	46628.15
570.30	46054.72
570.46	46012.59
570.62	46087.49
570.78	45848.75
570.95	46225.58
571.11	46904.34
571.27	46288.77
571.43	46080.47
571.60	46260.69
571.76	46689.01
571.92	46490.06
572.09	46937.10
572.25	46326.22
572.41	46581.34
572.57	46464.32
572.74	46962.85
572.90	46855.18
573.06	46693.69
573.22	46761.56
573.38	46696.03
573.55	46120.26
573.71	46630.49
573.87	46988.60
574.03	46618.79
574.20	46354.31
574.36	46429.21
574.52	46426.87
574.68	46824.76
574.84	46588.36
575.01	46623.47
575.17	46550.91
575.33	46473.68
575.49	46115.58
575.65	46756.88
575.82	46597.73
575.98	46408.14
576.14	46857.52
576.30	46319.20
576.46	46700.71
576.62	46611.77
576.79	46555.60
576.95	46335.59
577.11	46815.40
577.27	46625.81
577.43	46887.95
577.59	46518.15
577.75	46394.10
577.92	46527.51
578.08	46476.02
578.24	46293.46
578.40	46436.23
578.56	46560.28
578.72	46799.01
578.88	47000.30
579.04	46714.75
579.21	46525.17
579.37	46611.77
579.53	46562.62
579.69	46557.94
579.85	46508.79
580.01	46717.09
580.17	46773.27
580.33	46822.42
580.49	46696.03
580.65	47232.01
580.82	46958.17
580.98	46380.06
581.14	46990.94
581.30	46777.95
581.46	47126.69
581.62	46525.17
581.78	46602.41
581.94	47222.65
582.10	46773.27
582.26	46740.50
582.42	46927.74
582.58	47129.03
582.74	46930.08
582.90	46724.11
583.06	46972.21
583.22	46651.56
583.38	47054.13
583.54	46967.53
583.70	47304.57
583.86	46927.74
584.02	46841.14
584.18	46972.21
584.34	46831.78
584.50	46693.69
584.66	46354.31
584.82	46667.94
584.98	46827.10
585.14	46579.00
585.30	46927.74
585.46	46808.37
585.62	46391.76
585.78	46637.51
585.94	46415.16
586.10	46508.79
586.26	46478.36
586.42	47051.79
586.58	46864.55
586.74	46600.07
586.90	46625.81
587.06	46902.00
587.22	46997.96
587.38	46691.35
587.54	47019.02
587.70	46857.52
587.86	46417.50
588.02	46679.64
588.18	46986.25
588.34	47199.24
588.49	46117.92
588.65	46047.70
588.81	46562.62
588.97	46314.52
589.13	46141.32
589.29	46494.74
589.45	46616.45
589.61	46876.25
589.77	46906.68
589.93	46745.18
