SpectraSuite Data File
++++++++++++++++++++++++++++++++++++
Date: Fri Oct 25 11:25:26 EDT 2013
User: price-jones
Dark Spectrum Present: No
Reference Spectrum Present: No
Number of Sampled Component Spectra: 1
Spectrometers: USB2+H05261
Integration Time (usec): 100000 (USB2+H05261)
Spectra Averaged: 1 (USB2+H05261)
Boxcar Smoothing: 0 (USB2+H05261)
Correct for Electrical Dark: No (USB2+H05261)
Strobe/Lamp Enabled: No (USB2+H05261)
Correct for Detector Non-linearity: No (USB2+H05261)
Correct for Stray Light: No (USB2+H05261)
Number of Pixels in Processed Spectrum: 2048
>>>>>Begin Processed Spectral Data<<<<<
365.73	217.67
365.92	217.67
366.12	217.67
366.32	215.33
366.52	191.92
366.72	93.62
366.91	74.90
367.11	126.39
367.31	191.92
367.51	189.58
367.70	112.35
367.90	110.01
368.10	154.48
368.30	110.01
368.49	128.73
368.69	135.75
368.89	191.92
369.09	161.50
369.28	217.67
369.48	88.94
369.68	182.56
369.87	238.73
370.07	182.56
370.27	250.44
370.47	285.55
370.66	585.13
370.86	622.58
371.06	650.67
371.25	669.39
371.45	603.86
371.65	676.41
371.84	617.90
372.04	667.05
372.24	678.76
372.44	685.78
372.63	739.61
372.83	741.95
373.03	765.36
373.22	709.18
373.42	739.61
373.62	795.78
373.81	716.20
374.01	795.78
374.21	760.67
374.40	802.80
374.60	800.46
374.79	755.99
374.99	814.51
375.19	807.48
375.38	835.57
375.58	830.89
375.78	854.30
375.97	938.55
376.17	931.53
376.37	870.68
376.56	849.61
376.76	823.87
376.95	891.74
377.15	821.53
377.35	940.90
377.54	952.60
377.74	903.45
377.93	877.70
378.13	917.49
378.33	910.47
378.52	959.62
378.72	891.74
378.91	887.06
379.11	922.17
379.31	915.15
379.50	959.62
379.70	999.41
379.89	997.07
380.09	952.60
380.28	943.24
380.48	1011.11
380.68	1013.45
380.87	926.85
381.07	1090.69
381.26	1011.11
381.46	999.41
381.65	1020.47
381.85	1034.52
382.04	1064.94
382.24	1071.97
382.43	1102.39
382.63	1055.58
382.83	1083.67
383.02	1172.61
383.22	1135.16
383.41	1015.79
383.61	1097.71
383.80	1196.01
384.00	1146.86
384.19	1071.97
384.39	1151.54
384.58	1102.39
384.78	1210.06
384.97	1114.10
385.17	1198.35
385.36	1163.25
385.56	1198.35
385.75	1256.87
385.95	1151.54
386.14	1193.67
386.34	1249.85
386.53	1125.80
386.72	1170.27
386.92	1221.76
387.11	1334.11
387.31	1219.42
387.50	1275.59
387.70	1282.61
387.89	1193.67
388.09	1327.08
388.28	1259.21
388.48	1263.89
388.67	1362.19
388.86	1287.29
389.06	1270.91
389.25	1284.95
389.45	1373.89
389.64	1385.60
389.84	1376.24
390.03	1362.19
390.22	1343.47
390.42	1313.04
390.61	1385.60
390.81	1399.64
391.00	1390.28
391.19	1448.79
391.39	1383.26
391.58	1401.98
391.78	1425.39
391.97	1420.71
392.16	1446.45
392.36	1500.28
392.55	1476.88
392.75	1493.26
392.94	1572.84
393.13	1579.86
393.33	1451.13
393.52	1561.14
393.71	1549.43
393.91	1650.08
394.10	1629.01
394.29	1614.97
394.49	1495.60
394.68	1556.46
394.88	1584.54
395.07	1640.72
395.26	1572.84
395.46	1680.50
395.65	1764.76
395.84	1799.87
396.04	1755.40
396.23	1703.91
396.42	1654.76
396.62	1762.42
396.81	1799.87
397.00	1710.93
397.19	1720.29
397.39	1748.38
397.58	1823.28
397.77	1846.68
397.97	1849.02
398.16	1804.55
398.35	1970.73
398.55	1900.52
398.74	1963.71
398.93	1940.30
399.12	1996.48
399.32	1912.22
399.51	1867.75
399.70	1982.43
399.90	1942.64
400.09	2029.24
400.28	2008.18
400.47	2106.48
400.67	2108.82
400.86	2106.48
401.05	1923.92
401.24	1994.14
401.44	2101.80
401.63	2064.35
401.82	2073.71
402.01	2083.08
402.21	2125.21
402.40	2223.51
402.59	2392.03
402.78	2043.29
402.97	2286.70
403.17	2263.30
403.36	2200.10
403.55	2260.96
403.74	2300.75
403.93	2225.85
404.13	2317.13
404.32	2422.45
404.51	2359.26
404.70	2392.03
404.89	2382.67
405.09	2539.48
405.28	2410.75
405.47	2572.25
405.66	2417.77
405.85	2502.03
406.05	2534.80
406.24	2626.08
406.43	2635.44
406.62	2609.70
406.81	2640.12
407.00	2572.25
407.20	2605.02
407.39	2495.01
407.58	2684.59
407.77	2679.91
407.96	2740.77
408.15	2794.60
408.34	2717.36
408.54	2722.04
408.73	2773.53
408.92	2766.51
409.11	2885.88
409.30	2789.92
409.49	2825.03
409.68	2822.69
409.87	2963.12
410.07	2951.42
410.26	2883.54
410.45	3000.57
410.64	2995.89
410.83	3112.91
411.02	3042.70
411.21	3145.68
411.40	3056.74
411.59	3213.56
411.78	3054.40
411.98	3272.07
412.17	3173.77
412.36	3262.71
412.55	3229.94
412.74	3391.44
412.93	3370.37
413.12	3260.37
413.31	3524.85
413.50	3466.33
413.69	3389.10
413.88	3665.28
414.07	3501.44
414.26	3639.53
414.45	3719.11
414.64	3618.47
414.83	3674.64
415.02	3733.15
415.22	3676.98
415.41	3847.84
415.60	3805.71
415.79	3871.25
415.98	3941.46
416.17	3971.89
416.36	4035.08
416.55	3941.46
416.74	4028.06
416.93	4077.21
417.12	4032.74
417.31	4046.79
417.50	4088.92
417.69	4145.09
417.88	4210.62
418.07	4081.89
418.26	4250.41
418.45	4337.01
418.64	4440.00
418.83	4407.23
419.02	4285.52
419.21	4432.97
419.39	4432.97
419.58	4334.67
419.77	4442.34
419.96	4409.57
420.15	4634.26
420.34	4517.23
420.53	4507.87
420.72	4702.14
420.91	4610.86
421.10	4706.82
421.29	4833.21
421.48	4580.43
421.67	4753.63
421.86	4814.48
422.05	4739.58
422.24	4795.76
422.43	4819.16
422.61	4966.62
422.80	4828.53
422.99	4884.70
423.18	4744.27
423.37	4945.55
423.56	4898.74
423.75	4882.36
423.94	4739.58
424.13	4704.48
424.32	4716.18
424.50	5046.20
424.69	5071.94
424.88	5097.69
425.07	4830.87
425.26	4901.08
425.45	4830.87
425.64	4938.53
425.83	4943.21
426.01	4919.81
426.20	5146.84
426.39	4992.36
426.58	4947.89
426.77	5027.47
426.96	4947.89
427.15	5144.50
427.33	5142.16
427.52	5252.16
427.71	5245.14
427.90	5203.01
428.09	5345.78
428.28	5401.96
428.46	5313.02
428.65	5298.97
428.84	5518.98
429.03	5530.69
429.22	5224.08
429.40	5614.95
429.59	5549.41
429.78	5174.92
429.97	5177.26
430.16	5434.72
430.34	5650.05
430.53	5495.58
430.72	5687.50
430.91	5596.22
431.10	5563.45
431.28	5757.72
431.47	5724.95
431.66	5909.85
431.85	5750.70
432.03	5898.15
432.22	5902.83
432.41	5774.10
432.60	5846.66
432.79	5856.02
432.97	5823.25
433.16	5949.64
433.35	5989.43
433.54	6061.99
433.72	6164.97
433.91	6101.78
434.10	6066.67
434.28	6223.48
434.47	6113.48
434.66	6221.14
434.85	6113.48
435.03	6106.46
435.22	6076.03
435.41	6459.88
435.59	6239.87
435.78	6471.58
435.97	6307.74
436.16	6544.14
436.34	6431.79
436.53	6445.84
436.72	6541.80
436.90	6354.55
437.09	6612.01
437.28	6352.21
437.46	6459.88
437.65	6506.69
437.84	6862.45
438.02	6953.73
438.21	6771.17
438.40	6569.88
438.58	6960.75
438.77	7061.40
438.96	7035.65
439.14	7059.06
439.33	7314.17
439.52	7157.36
439.70	7059.06
439.89	7349.28
440.08	7304.81
440.26	7197.15
440.45	7063.74
440.63	7412.48
440.82	7463.97
441.01	7510.78
441.19	7417.16
441.38	7744.83
441.57	7730.79
441.75	7651.21
441.94	7815.05
442.12	7854.84
442.31	7840.79
442.50	7826.75
442.68	7812.71
442.87	7913.35
443.05	8018.68
443.24	8025.70
443.43	8248.05
443.61	8102.93
443.80	8512.53
443.98	8037.40
444.17	7726.11
444.35	8091.23
444.54	8203.58
444.73	8358.05
444.91	8196.56
445.10	8397.84
445.28	8257.41
445.47	8271.45
445.65	8273.79
445.84	8360.39
446.02	8336.99
446.21	8311.24
446.39	8351.03
446.58	8592.11
446.77	8395.50
446.95	8168.47
447.14	8374.44
447.32	8542.96
447.51	8414.23
447.69	8299.54
447.88	8470.40
448.06	8325.29
448.25	8393.16
448.43	8449.33
448.62	8376.78
448.80	8549.98
448.99	8634.24
449.17	8547.64
449.36	8592.11
449.54	8627.21
449.73	8987.66
449.91	8807.44
450.10	9095.32
450.28	9153.84
450.46	8875.31
450.65	9022.77
450.83	9137.45
451.02	9139.79
451.20	9235.75
451.39	9092.98
451.57	8945.53
451.76	8950.21
451.94	9102.34
452.13	8973.61
452.31	9177.24
452.49	9118.73
452.68	9158.52
452.86	9245.12
453.05	9544.70
453.23	9488.53
453.42	9137.45
453.60	9284.91
453.78	9385.55
453.97	9357.46
454.15	9418.32
454.34	9352.78
454.52	9474.49
454.70	9757.69
454.89	9671.09
455.07	9633.64
455.26	9942.60
455.44	9853.66
455.62	10071.33
455.81	9724.93
455.99	9856.00
456.17	10038.56
456.36	10139.20
456.54	10078.35
456.73	10399.00
456.91	10363.89
457.09	10413.04
457.28	10597.95
457.46	10218.78
457.64	10487.94
457.83	10368.57
458.01	10312.40
458.19	10497.30
458.38	10452.83
458.56	10469.22
458.74	10647.10
458.93	10705.61
459.11	10647.10
459.29	10707.95
459.48	10918.60
459.66	10555.82
459.84	10689.23
460.03	11180.74
460.21	10895.19
460.39	10953.71
460.57	10960.73
460.76	10956.05
460.94	11068.39
461.12	11115.20
461.31	11365.64
461.49	11007.54
461.67	11269.68
461.85	11311.81
462.04	11082.44
462.22	11660.55
462.40	11412.45
462.59	11562.25
462.77	11513.10
462.95	11597.35
463.13	11461.60
463.32	11300.11
463.50	11412.45
463.68	11707.36
463.86	11702.68
464.05	11740.13
464.23	11737.79
464.41	11735.45
464.59	11676.93
464.78	12154.40
464.96	11831.41
465.14	11763.53
465.32	11929.71
465.50	11943.75
465.69	12039.72
465.87	11913.33
466.05	12114.61
466.23	12004.61
466.41	12030.35
466.60	12329.94
466.78	12079.50
466.96	12058.44
467.14	12135.68
467.32	12269.09
467.51	12514.84
467.69	12030.35
467.87	12381.43
468.05	12674.00
468.23	12477.40
468.41	12212.92
468.60	12458.67
468.78	12641.23
468.96	12334.62
469.14	12821.45
469.32	12739.54
469.50	12594.42
469.69	12795.71
469.87	12826.14
470.05	13083.59
470.23	13032.10
470.41	13160.83
470.59	12989.97
470.77	12898.69
470.95	13425.31
471.14	13212.32
471.32	12784.01
471.50	13422.97
471.68	13399.57
471.86	13774.05
472.04	13619.58
472.22	13839.59
472.40	13497.87
472.58	13802.14
472.77	13799.80
472.95	13879.38
473.13	14427.06
473.31	13771.71
473.49	13980.02
473.67	14106.41
473.85	14370.89
474.03	14445.79
474.21	14651.75
474.39	14375.57
474.57	14541.75
474.75	14768.78
474.93	14867.08
475.12	14560.47
475.30	14860.06
475.48	14857.72
475.66	15073.05
475.84	15173.69
476.02	15267.31
476.20	15012.20
476.38	15555.20
476.56	15751.81
476.74	15805.64
476.92	15609.03
477.10	15419.45
477.28	16245.66
477.46	15763.51
477.64	16264.38
477.82	16690.36
478.00	16924.41
478.18	16643.55
478.36	16662.27
478.54	17025.06
478.72	16688.02
478.90	17235.70
479.08	17460.40
479.26	17713.17
479.44	17369.12
479.62	17532.95
479.80	17848.93
479.98	17900.42
480.16	18384.91
480.34	18335.76
480.52	18235.11
480.70	18284.26
480.88	18551.09
481.06	18604.92
481.24	18497.25
481.41	19096.43
481.59	19058.98
481.77	19356.23
481.95	19208.78
482.13	19646.46
482.31	19639.44
482.49	20152.01
482.67	20252.66
482.85	20018.60
483.03	20805.02
483.21	20460.96
483.39	20767.57
483.57	20606.08
483.74	21135.04
483.92	21305.90
484.10	21179.51
484.28	21324.62
484.46	21752.94
484.64	22242.11
484.82	21986.99
485.00	22345.09
485.18	22796.82
485.35	22602.55
485.53	22745.33
485.71	22867.03
485.89	23379.61
486.07	23187.69
486.25	23187.69
486.43	23573.88
486.61	23494.30
486.78	23728.35
486.96	24182.42
487.14	24329.87
487.32	24498.39
487.50	24505.41
487.68	24510.09
487.85	25127.99
488.03	25380.77
488.21	25575.03
488.39	25399.49
488.57	25699.08
488.75	26029.10
488.92	26096.97
489.10	26579.12
489.28	26349.75
489.46	26977.01
489.64	26558.06
489.81	27655.77
489.99	27747.05
490.17	27473.21
490.35	28081.75
490.53	27536.40
490.70	28353.25
490.88	27871.10
491.06	28762.84
491.24	28521.77
491.41	29006.26
491.59	28856.46
491.77	29326.91
491.95	29223.93
492.13	29336.27
492.30	29818.42
492.48	29710.76
492.66	29752.89
492.84	30279.51
493.01	30347.39
493.19	30202.27
493.37	30836.56
493.54	30754.64
493.72	31138.49
493.90	30974.65
494.08	31747.03
494.25	31721.28
494.43	31742.35
494.61	32002.14
494.79	31945.97
494.96	32327.48
495.14	32772.18
495.32	32758.14
495.49	32676.22
495.67	32837.72
495.85	33195.82
496.02	33682.65
496.20	33762.23
496.38	33394.76
496.55	34174.16
496.73	34326.30
496.91	34227.99
497.09	34572.05
497.26	34632.91
497.44	34679.72
497.62	34883.34
497.79	35501.25
497.97	35143.14
498.14	35599.55
498.32	35702.53
498.50	36058.29
498.67	36229.15
498.85	36161.28
499.03	36655.13
499.20	36287.67
499.38	36659.81
499.56	36877.48
499.73	36608.32
499.91	36982.80
500.08	37198.13
500.26	36840.03
500.44	37502.40
500.61	37820.72
500.79	37483.68
500.97	37816.04
501.14	38026.68
501.32	38164.78
501.49	38314.57
501.67	38593.09
501.84	38408.19
502.02	38323.93
502.20	38565.01
502.37	39047.16
502.55	38675.01
502.72	39351.43
502.90	39571.44
503.07	39112.69
503.25	39541.01
503.43	39356.11
503.60	39541.01
503.78	39824.22
503.95	40467.86
504.13	39920.18
504.30	40463.18
504.48	40545.10
504.65	40273.60
504.83	40542.76
505.01	40980.44
505.18	40840.01
505.36	40804.90
505.53	40907.88
505.71	41415.78
505.88	41263.64
506.06	41146.62
506.23	41837.08
506.41	41146.62
506.58	41469.61
506.76	41888.57
506.93	42040.70
507.11	41638.13
507.28	42265.39
507.46	42082.83
507.63	42539.24
507.81	42909.04
507.98	42206.88
508.16	42897.34
508.33	43089.26
508.50	43117.35
508.68	42897.34
508.85	43683.76
509.03	43377.15
509.20	43555.03
509.38	44140.16
509.55	43941.22
509.73	44278.25
509.90	44278.25
510.08	44304.00
510.25	44151.87
510.42	44535.71
510.60	44760.40
510.77	44624.65
510.95	45097.44
511.12	44809.56
511.30	44629.34
511.47	44921.90
511.64	45418.10
511.82	45698.96
511.99	44575.50
512.17	45560.87
512.34	45350.22
512.51	46129.62
512.69	46012.59
512.86	46267.71
513.04	46382.40
513.21	46239.62
513.38	46347.29
513.56	46703.05
513.73	46380.06
513.90	46586.02
514.08	46246.65
514.25	46916.04
514.43	46789.65
514.60	47154.77
514.77	47103.28
514.95	47669.69
515.12	47320.95
515.29	46997.96
515.47	47526.92
515.64	47695.44
515.81	47323.29
515.99	47583.09
516.16	48200.99
516.33	48102.69
516.51	48275.89
516.68	47966.94
516.85	48334.40
517.03	48142.48
517.20	48411.64
517.37	48795.49
517.54	48645.69
517.72	48261.85
517.89	48603.56
518.06	48823.58
518.24	49132.53
518.41	48985.07
518.58	49191.04
518.75	49244.87
518.93	49097.42
519.10	49134.87
519.27	49490.63
519.45	48879.75
519.62	49354.88
519.79	49570.21
519.96	49207.42
520.14	49872.14
520.31	49935.33
520.48	49846.39
520.65	50279.39
520.83	50188.11
521.00	50515.78
521.17	50337.90
521.34	50646.85
521.52	50520.46
521.69	50628.13
521.86	50663.24
522.03	50731.11
522.20	50995.59
522.38	51522.21
522.55	50953.46
522.72	51044.74
522.89	51140.71
523.07	51489.45
523.24	50937.08
523.41	51243.69
523.58	51227.31
523.75	51433.27
523.92	51686.05
524.10	51540.94
524.27	51861.59
524.44	51803.08
524.61	51987.98
524.78	51690.73
524.96	51866.27
525.13	52046.49
525.30	52238.42
525.47	52247.78
525.64	51945.85
525.81	52261.82
525.98	52226.71
526.16	52416.30
526.33	52268.84
526.50	52821.21
526.67	52484.17
526.84	52626.95
527.01	52369.49
527.18	52626.95
527.36	52523.96
527.53	52701.84
527.70	53191.01
527.87	52975.69
528.04	52807.17
528.21	53158.25
528.38	53137.18
528.55	53378.26
528.72	53195.70
528.89	53085.69
529.07	53474.22
529.24	53057.60
529.41	53640.40
529.58	53443.79
529.75	53380.60
529.92	53577.20
530.09	53750.40
530.26	53909.56
530.43	53869.77
530.60	53628.69
530.77	53638.06
530.94	53724.66
531.11	53609.97
531.28	53649.76
531.46	53907.22
531.63	54155.32
531.80	54108.50
531.97	54300.43
532.14	54394.05
532.31	54096.80
532.48	54244.26
532.65	54253.62
532.82	54461.93
532.99	54621.08
533.16	54031.27
533.33	54578.95
533.50	54588.31
533.67	54585.97
533.84	54347.24
534.01	54740.45
534.18	54653.85
534.35	55082.17
534.52	54787.26
534.69	55145.36
534.86	55063.44
535.03	54628.10
535.20	54677.25
535.37	54965.14
535.54	55030.68
535.71	55072.81
535.88	55231.96
536.05	54986.21
536.22	55248.35
536.38	55337.29
536.55	55501.12
536.72	55353.67
536.89	55372.39
537.06	55334.95
537.23	55615.81
537.40	55154.72
537.57	55538.57
537.74	55536.23
537.91	55781.99
538.08	55604.11
538.25	55278.77
538.42	55646.24
538.59	55693.05
538.75	55636.87
538.92	55690.71
539.09	55849.86
539.26	55901.36
539.43	56023.06
539.60	56320.31
539.77	56009.02
539.94	56231.37
540.11	55920.08
540.28	56320.31
540.44	56081.58
540.61	56109.66
540.78	56271.16
540.95	56432.66
541.12	56308.61
541.29	56128.39
541.46	56425.64
541.62	56212.65
541.79	56680.75
541.96	56254.78
542.13	56313.29
542.30	56502.87
542.47	56430.32
542.63	56552.02
542.80	56804.80
542.97	56701.82
543.14	56961.62
543.31	56858.63
543.48	56938.21
543.64	57347.81
543.81	57141.84
543.98	57066.94
544.15	57071.62
544.32	57165.24
544.48	57432.07
544.65	57326.74
544.82	56963.96
544.99	57457.81
545.16	57059.92
545.32	57092.69
545.49	57457.81
545.66	57396.96
545.83	57230.78
546.00	57645.05
546.16	57443.77
546.33	57373.55
546.50	57343.12
546.67	57509.30
546.83	57364.19
547.00	57612.29
547.17	57439.09
547.34	57544.41
547.50	57773.78
547.67	57907.19
547.84	57769.10
548.00	57965.71
548.17	58019.54
548.34	58021.88
548.51	57979.75
548.67	58113.16
548.84	58075.71
549.01	57888.47
549.18	57982.09
549.34	58127.20
549.51	57853.36
549.68	58234.87
549.84	58143.59
550.01	58277.00
550.18	58054.65
550.34	58174.02
550.51	58288.70
550.68	58129.54
550.84	58085.07
551.01	58248.91
551.18	58129.54
551.34	58148.27
551.51	58398.71
551.68	58574.25
551.84	58443.18
552.01	58396.37
552.18	58494.67
552.34	58298.06
552.51	58387.00
552.68	58443.18
552.84	58415.09
553.01	58862.13
553.18	58368.28
553.34	58698.30
553.51	58602.33
553.67	58808.30
553.84	58787.24
554.01	58740.42
554.17	59098.53
554.34	58899.58
554.51	58782.55
554.67	58908.94
554.84	58944.05
555.00	58714.68
555.17	58878.52
555.33	58932.35
555.50	58614.04
555.67	58740.42
555.83	58763.83
556.00	58932.35
556.16	59236.62
556.33	59112.57
556.50	58934.69
556.66	59171.08
556.83	59072.78
556.99	59220.23
557.16	59168.74
557.32	59339.60
557.49	59386.41
557.65	58962.78
557.82	59339.60
557.98	59288.11
558.15	59185.13
558.32	59135.98
558.48	59112.57
558.65	59299.81
558.81	59313.86
558.98	59334.92
559.14	59311.52
559.31	59309.18
559.47	59428.54
559.64	59653.23
559.80	59482.37
559.97	59604.08
560.13	59419.18
560.30	59377.05
560.46	59526.84
560.63	59585.36
560.79	59489.40
560.96	59695.36
561.12	59700.04
561.29	59557.27
561.45	59625.15
561.61	59721.11
561.78	59655.57
561.94	59437.90
562.11	59686.00
562.27	59730.47
562.44	59714.09
562.60	60039.42
562.77	59845.16
562.93	59796.01
563.10	59978.57
563.26	59730.47
563.42	60107.30
563.59	59709.41
563.75	59781.96
563.92	59987.93
564.08	59718.77
564.24	59987.93
564.41	60030.06
564.57	59957.50
564.74	59976.23
564.90	59915.37
565.07	59924.74
565.23	59824.09
565.39	59950.48
565.56	60191.56
565.72	60210.28
565.88	60001.97
566.05	59948.14
566.21	60006.65
566.38	59831.11
566.54	60081.55
566.70	60137.72
566.87	60163.47
567.03	59681.32
567.19	60126.02
567.36	59952.82
567.52	60170.49
567.68	60226.66
567.85	60133.04
568.01	60095.60
568.17	60119.00
568.34	60203.26
568.50	60140.07
568.66	60170.49
568.83	60168.15
568.99	60123.68
569.15	60193.90
569.32	60119.00
569.48	60121.34
569.64	60322.63
569.81	60191.56
569.97	60264.11
570.13	60182.19
570.30	60104.96
570.46	60334.33
570.62	60261.77
570.78	60163.47
570.95	60217.30
571.11	60434.97
571.27	60313.26
571.43	60355.39
571.60	60418.59
571.76	60278.16
571.92	60329.65
572.09	60444.33
572.25	60177.51
572.41	60296.88
572.57	60348.37
572.74	60472.42
572.90	60303.90
573.06	60463.06
573.22	60322.63
573.38	60650.30
573.55	60549.66
573.71	60856.27
573.87	60449.02
574.03	60207.94
574.20	60317.95
574.36	60449.02
574.52	60662.00
574.68	60472.42
574.84	60516.89
575.01	60580.09
575.17	60472.42
575.33	60612.85
575.49	60334.33
575.65	60701.79
575.82	60566.04
575.98	60552.00
576.14	60757.97
576.30	60680.73
576.46	60591.79
576.62	60509.87
576.79	60552.00
576.95	60271.14
577.11	60486.46
577.27	60736.90
577.43	60512.21
577.59	60498.17
577.75	60523.91
577.92	60535.62
578.08	60566.04
578.24	60683.07
578.40	60849.25
578.56	60849.25
578.72	60825.84
578.88	60615.19
579.04	60940.53
579.21	60739.24
579.37	60874.99
579.53	60755.63
579.69	60514.55
579.85	60631.58
580.01	60654.98
580.17	60619.88
580.33	60631.58
580.49	60935.85
580.65	60720.52
580.82	60608.17
580.98	60537.96
581.14	60657.32
581.30	60935.85
581.46	60839.89
581.62	60882.02
581.78	60528.59
581.94	60722.86
582.10	60786.05
582.26	60718.18
582.42	60676.05
582.58	60514.55
582.74	60835.20
582.90	60874.99
583.06	60729.88
583.22	60671.37
583.38	60764.99
583.54	60711.16
583.70	60764.99
583.86	60825.84
584.02	60704.13
584.18	60772.01
584.34	60676.05
584.50	60874.99
584.66	60636.26
584.82	60687.75
584.98	60926.49
585.14	60977.98
585.30	60683.07
585.46	60708.82
585.62	60788.39
585.78	60856.27
585.94	60669.03
586.10	60807.12
586.26	60748.60
586.42	60896.06
586.58	60835.20
586.74	60898.40
586.90	60638.60
587.06	60774.35
587.22	61064.58
587.38	60933.51
587.54	60914.78
587.70	61022.45
587.86	60757.97
588.02	60917.12
588.18	60917.12
588.34	60722.86
588.49	60877.33
