SpectraSuite Data File
++++++++++++++++++++++++++++++++++++
Date: Fri Oct 25 10:48:24 EDT 2013
User: price-jones
Dark Spectrum Present: No
Reference Spectrum Present: No
Number of Sampled Component Spectra: 1
Spectrometers: USB2+H05261
Integration Time (usec): 100000 (USB2+H05261)
Spectra Averaged: 1 (USB2+H05261)
Boxcar Smoothing: 0 (USB2+H05261)
Correct for Electrical Dark: No (USB2+H05261)
Strobe/Lamp Enabled: No (USB2+H05261)
Correct for Detector Non-linearity: No (USB2+H05261)
Correct for Stray Light: No (USB2+H05261)
Number of Pixels in Processed Spectrum: 2048
>>>>>Begin Processed Spectral Data<<<<<
365.73	161.50
365.92	161.50
366.12	161.50
366.32	98.30
366.52	9.36
366.72	32.77
366.91	11.70
367.11	18.72
367.31	77.24
367.51	7.02
367.70	23.41
367.90	37.45
368.10	11.70
368.30	9.36
368.49	56.17
368.69	49.15
368.89	81.92
369.09	21.06
369.28	88.94
369.48	84.26
369.68	88.94
369.87	100.64
370.07	65.54
370.27	177.88
370.47	311.29
370.66	341.72
370.86	433.00
371.06	465.77
371.25	477.47
371.45	514.92
371.65	458.74
371.84	505.56
372.04	418.96
372.24	505.56
372.44	447.04
372.63	512.58
372.83	587.47
373.03	519.60
373.22	575.77
373.42	463.43
373.62	503.22
373.81	479.81
374.01	552.37
374.21	543.00
374.40	571.09
374.60	615.56
374.79	575.77
374.99	550.03
375.19	615.56
375.38	571.09
375.58	617.90
375.78	629.60
375.97	676.41
376.17	613.22
376.37	634.29
376.56	587.47
376.76	573.43
376.95	641.31
377.15	603.86
377.35	720.88
377.54	622.58
377.74	664.71
377.93	655.35
378.13	592.16
378.33	725.57
378.52	737.27
378.72	711.52
378.91	690.46
379.11	660.03
379.31	660.03
379.50	688.12
379.70	683.44
379.89	695.14
380.09	716.20
380.28	685.78
380.48	734.93
380.68	706.84
380.87	748.97
381.07	706.84
381.26	695.14
381.46	746.63
381.65	734.93
381.85	727.91
382.04	725.57
382.24	718.54
382.43	751.31
382.63	709.18
382.83	664.71
383.02	746.63
383.22	695.14
383.41	723.23
383.61	765.36
383.80	837.91
384.00	798.12
384.19	720.88
384.39	734.93
384.58	847.27
384.78	732.59
384.97	821.53
385.17	821.53
385.36	805.14
385.56	720.88
385.75	777.06
385.95	788.76
386.14	866.00
386.34	889.40
386.53	809.83
386.72	798.12
386.92	889.40
387.11	884.72
387.31	971.32
387.50	894.08
387.70	866.00
387.89	844.93
388.09	905.79
388.28	908.13
388.48	830.89
388.67	919.83
388.86	980.68
389.06	922.17
389.25	854.30
389.45	875.36
389.64	961.96
389.84	1048.56
390.03	1041.54
390.22	987.71
390.42	1043.88
390.61	1060.26
390.81	985.37
391.00	1032.18
391.19	1046.22
391.39	1135.16
391.58	1076.65
391.78	1050.90
391.97	1064.94
392.16	997.07
392.36	1025.15
392.55	976.00
392.75	1034.52
392.94	992.39
393.13	1015.79
393.33	1032.18
393.52	1029.84
393.71	1055.58
393.91	1088.35
394.10	1160.91
394.29	1057.92
394.49	1156.22
394.68	1184.31
394.88	1158.57
395.07	1249.85
395.26	1245.16
395.46	1219.42
395.65	1184.31
395.84	1158.57
396.04	1245.16
396.23	1259.21
396.42	1097.71
396.62	1198.35
396.81	1214.74
397.00	1242.82
397.19	1228.78
397.39	1184.31
397.58	1371.55
397.77	1263.89
397.97	1366.87
398.16	1366.87
398.35	1401.98
398.55	1490.92
398.74	1444.11
398.93	1420.71
399.12	1376.24
399.32	1437.09
399.51	1406.66
399.70	1582.20
399.90	1476.88
400.09	1441.77
400.28	1500.28
400.47	1516.67
400.67	1626.67
400.86	1640.72
401.05	1598.59
401.24	1558.80
401.44	1596.25
401.63	1638.38
401.82	1624.33
402.01	1650.08
402.21	1493.26
402.40	1699.23
402.59	1629.01
402.78	1769.44
402.97	1762.42
403.17	1795.19
403.36	1710.93
403.55	1760.08
403.74	1748.38
403.93	1708.59
404.13	1743.70
404.32	1818.60
404.51	1755.40
404.70	1884.13
404.89	1834.98
405.09	1891.15
405.28	1881.79
405.47	1865.41
405.66	1973.07
405.85	1994.14
406.05	1982.43
406.24	2047.97
406.43	2001.16
406.62	2071.37
406.81	2052.65
407.00	2040.95
407.20	1977.75
407.39	1970.73
407.58	2003.50
407.77	2036.27
407.96	2209.47
408.15	2207.13
408.34	2223.51
408.54	2202.44
408.73	2153.29
408.92	2237.55
409.11	2319.47
409.30	2265.64
409.49	2141.59
409.68	2120.53
409.87	2239.89
410.07	2256.28
410.26	2272.66
410.45	2235.21
410.64	2424.80
410.83	2487.99
411.02	2429.48
411.21	2647.15
411.40	2413.09
411.59	2476.29
411.78	2518.42
411.98	2427.14
412.17	2574.59
412.36	2499.69
412.55	2616.72
412.74	2593.31
412.93	2672.89
413.12	2661.19
413.31	2906.95
413.50	2686.94
413.69	2843.75
413.88	2829.71
414.07	2743.11
414.26	2944.39
414.45	2768.85
414.64	2906.95
414.83	3084.83
415.02	2918.65
415.22	2846.09
415.41	3005.25
415.60	3089.51
415.79	2998.23
415.98	3145.68
416.17	3169.09
416.36	3129.30
416.55	3141.00
416.74	3101.21
416.93	3220.58
417.12	3178.45
417.31	3194.83
417.50	3166.74
417.69	3353.99
417.88	3328.24
418.07	3290.79
418.26	3433.57
418.45	3368.03
418.64	3517.83
418.83	3440.59
419.02	3471.01
419.21	3468.67
419.39	3361.01
419.58	3501.44
419.77	3309.52
419.96	3428.88
420.15	3541.23
420.34	3681.66
420.53	3557.61
420.72	3691.02
420.91	3672.30
421.10	3679.32
421.29	3686.34
421.48	3768.26
421.67	3864.22
421.86	3698.05
422.05	3709.75
422.24	3688.68
422.43	3597.40
422.61	3695.71
422.80	3815.07
422.99	3740.18
423.18	3801.03
423.37	3854.86
423.56	3889.97
423.75	3955.51
423.94	3712.09
424.13	3611.45
424.32	3772.94
424.50	3770.60
424.69	3798.69
424.88	3918.06
425.07	3838.48
425.26	3641.87
425.45	3915.72
425.64	3929.76
425.83	3714.43
426.01	4067.85
426.20	3852.52
426.39	3885.29
426.58	3812.73
426.77	3779.97
426.96	3836.14
427.15	3819.75
427.33	3957.85
427.52	3906.35
427.71	3988.27
427.90	4063.17
428.09	4102.96
428.28	4021.04
428.46	3976.57
428.65	3983.59
428.84	4166.15
429.03	4032.74
429.22	4049.13
429.40	4189.56
429.59	3999.98
429.78	3936.78
429.97	3871.25
430.16	4046.79
430.34	4117.00
430.53	4159.13
430.72	4271.48
430.91	4081.89
431.10	4308.93
431.28	4404.89
431.47	4585.11
431.66	4542.98
431.85	4409.57
432.03	4589.79
432.22	4550.00
432.41	4540.64
432.60	4528.94
432.79	4561.70
432.97	4517.23
433.16	4629.58
433.35	4538.30
433.54	4568.73
433.72	4507.87
433.91	4554.68
434.10	4704.48
434.28	4657.67
434.47	4657.67
434.66	4863.63
434.85	4634.26
435.03	4868.31
435.22	4734.90
435.41	4975.98
435.59	5004.07
435.78	4947.89
435.97	4798.10
436.16	4959.60
436.34	5013.43
436.53	5128.11
436.72	5170.24
436.90	4910.44
437.09	5100.03
437.28	4880.02
437.46	4954.91
437.65	5097.69
437.84	5205.35
438.02	4861.29
438.21	5036.83
438.40	4966.62
438.58	5137.48
438.77	5203.01
438.96	5289.61
439.14	5518.98
439.33	5322.38
439.52	5488.56
439.70	5455.79
439.89	5589.20
440.08	5603.24
440.26	5631.33
440.45	5652.39
440.63	5713.25
440.82	5731.97
441.01	5701.54
441.19	5944.96
441.38	5870.06
441.57	6057.31
441.75	6076.03
441.94	6036.24
442.12	6129.86
442.31	6235.19
442.50	6050.28
442.68	6134.54
442.87	6099.44
443.05	6092.41
443.24	6246.89
443.43	6164.97
443.61	6305.40
443.80	6455.20
443.98	6190.72
444.17	6204.76
444.35	6230.51
444.54	6443.49
444.73	6434.13
444.91	6560.52
445.10	6307.74
445.28	6218.80
445.47	6249.23
445.65	6396.68
445.84	6331.15
446.02	6410.73
446.21	6303.06
446.39	6387.32
446.58	6492.65
446.77	6516.05
446.95	6408.39
447.14	6609.67
447.32	6626.06
447.51	6656.48
447.69	6530.09
447.88	6530.09
448.06	6530.09
448.25	6619.04
448.43	6740.74
448.62	6466.90
448.80	6513.71
448.99	6562.86
449.17	6719.68
449.36	6775.85
449.54	6775.85
449.73	6822.66
449.91	6855.43
450.10	6750.10
450.28	7070.76
450.46	6927.99
450.65	6909.26
450.83	6995.86
451.02	6883.52
451.20	6991.18
451.39	7094.16
451.57	7089.48
451.76	6995.86
451.94	6986.50
452.13	7056.72
452.31	7075.44
452.49	6888.20
452.68	7075.44
452.86	7042.67
453.05	7077.78
453.23	7229.91
453.42	7253.32
453.60	7075.44
453.78	7250.98
453.97	7208.85
454.15	7063.74
454.34	7164.38
454.52	7370.35
454.70	7375.03
454.89	7293.11
455.07	7302.47
455.26	7330.56
455.44	7501.42
455.62	7358.64
455.81	7674.62
455.99	7522.48
456.17	7681.64
456.36	7674.62
456.54	7604.40
456.73	7861.86
456.91	8049.10
457.09	7693.34
457.28	7901.65
457.46	7833.77
457.64	7843.14
457.83	8046.76
458.01	7648.87
458.19	8142.72
458.38	7889.95
458.56	8039.74
458.74	7941.44
458.93	7964.84
459.11	7920.37
459.29	8149.75
459.48	8224.64
459.66	8058.46
459.84	8266.77
460.03	8107.62
460.21	8269.11
460.39	8273.79
460.57	7988.25
460.76	8404.86
460.94	8423.59
461.12	8325.29
461.31	8423.59
461.49	8379.12
461.67	8355.71
461.85	8610.83
462.04	8367.42
462.22	8994.68
462.40	8643.60
462.59	8622.53
462.77	8692.75
462.95	8587.43
463.13	8667.00
463.32	8580.40
463.50	8758.28
463.68	8868.29
463.86	8791.05
464.05	8638.92
464.23	8678.71
464.41	8879.99
464.59	8769.99
464.78	8681.05
464.96	8971.27
465.14	8795.73
465.32	8854.25
465.50	8835.52
465.69	8901.06
465.87	9022.77
466.05	8769.99
466.23	8936.17
466.41	9181.92
466.60	9212.35
466.78	8748.92
466.96	8968.93
467.14	9069.58
467.32	9118.73
467.51	9280.22
467.69	8938.51
467.87	9179.58
468.05	9390.23
468.23	9233.41
468.41	9121.07
468.60	9486.19
468.78	9439.38
468.96	9444.06
469.14	9511.94
469.32	9448.74
469.50	9371.50
469.69	9394.91
469.87	9518.96
470.05	9551.73
470.23	9535.34
470.41	9268.52
470.59	9621.94
470.77	9750.67
470.95	9738.97
471.14	9877.06
471.32	9790.46
471.50	10024.51
471.68	10188.35
471.86	10080.69
472.04	10239.84
472.22	10181.33
472.40	10064.30
472.58	9879.40
472.77	10106.43
472.95	10366.23
473.13	10909.24
473.31	10438.79
473.49	10263.25
473.67	10305.38
473.85	10429.43
474.03	10534.75
474.21	10597.95
474.39	10794.55
474.57	10958.39
474.75	10771.15
474.93	11047.33
475.12	10864.77
475.30	11014.56
475.48	10956.05
475.66	11075.42
475.84	11073.07
476.02	11293.08
476.20	11084.78
476.38	11138.61
476.56	11545.86
476.74	11353.94
476.92	11669.91
477.10	11641.82
477.28	11772.89
477.46	11999.93
477.64	12051.42
477.82	12011.63
478.00	12219.94
478.18	12123.98
478.36	12187.17
478.54	12243.34
478.72	12236.32
478.90	12489.10
479.08	12685.70
479.26	12961.89
479.44	13151.47
479.62	12952.52
479.80	12751.24
479.98	13198.28
480.16	13352.76
480.34	13202.96
480.52	13252.11
480.70	13397.23
480.88	13406.59
481.06	13743.63
481.24	13706.18
481.41	13872.36
481.59	13994.06
481.77	13963.64
481.95	14068.96
482.13	14300.67
482.31	14246.84
482.49	14574.52
482.67	14686.86
482.85	14508.98
483.03	14759.42
483.21	14913.89
483.39	14923.26
483.57	14939.64
483.74	15403.07
483.92	15267.31
484.10	15328.17
484.28	15400.72
484.46	15920.32
484.64	15957.77
484.82	15892.24
485.00	15681.59
485.18	15770.53
485.35	16093.52
485.53	15939.05
485.71	15955.43
485.89	16315.87
486.07	16175.44
486.25	16421.20
486.43	16819.09
486.61	16823.77
486.78	16617.80
486.96	17114.00
487.14	17472.10
487.32	17490.82
487.50	17425.29
487.68	17886.37
487.85	17963.61
488.03	18108.72
488.21	18038.51
488.39	18171.92
488.57	18438.74
488.75	18373.21
488.92	18841.31
489.10	18827.27
489.28	18845.99
489.46	19307.08
489.64	19157.28
489.81	19690.93
489.99	19571.56
490.17	19662.84
490.35	19908.60
490.53	19988.18
490.70	20161.37
490.88	20016.26
491.06	20603.74
491.24	20163.72
491.41	20327.55
491.59	20357.98
491.77	20673.95
491.95	20702.04
492.13	20964.18
492.30	21219.30
492.48	20938.43
492.66	21493.14
492.84	21652.30
493.01	21902.73
493.19	21797.41
493.37	22022.10
493.54	21659.32
493.72	22071.25
493.90	22115.72
494.08	21926.14
494.25	22352.12
494.43	22754.69
494.61	23164.28
494.79	23040.23
494.96	22899.80
495.14	22946.61
495.32	23227.48
495.49	23143.22
495.67	23693.24
495.85	23351.52
496.02	23864.10
496.20	23576.22
496.38	23440.47
496.55	23903.89
496.73	24678.61
496.91	23934.32
497.09	24421.15
497.26	24570.94
497.44	24297.10
497.62	24599.03
497.79	25125.65
497.97	24734.78
498.14	24680.95
498.32	25067.14
498.50	25020.33
498.67	25420.56
498.85	25486.09
499.03	25724.83
499.20	25493.12
499.38	25853.56
499.56	25715.47
499.73	26008.03
499.91	26096.97
500.08	26075.91
500.26	26017.40
500.44	26356.77
500.61	26324.01
500.79	25846.54
500.97	26955.95
501.14	26483.16
501.32	26761.69
501.49	26621.25
501.67	26321.66
501.84	27019.14
502.02	26857.65
502.20	27295.33
502.37	27157.24
502.55	27461.51
502.72	27536.40
502.90	27501.29
503.07	27487.25
503.25	27704.92
503.43	27587.89
503.60	27665.13
503.78	27676.83
503.95	27995.15
504.13	27850.03
504.30	28320.48
504.48	27819.61
504.65	28219.84
504.83	28318.14
505.01	28350.91
505.18	28697.31
505.36	29043.71
505.53	28837.74
505.71	28875.19
505.88	29448.62
506.06	29095.20
506.23	29153.71
506.41	28968.81
506.58	29324.57
506.76	29549.26
506.93	29577.35
507.11	29455.64
507.28	29610.12
507.46	29675.65
507.63	29633.52
507.81	29741.19
507.98	29757.57
508.16	30148.44
508.33	29869.92
508.50	30373.13
508.68	30263.13
508.85	30190.57
509.03	30359.09
509.20	30796.77
509.38	30691.44
509.55	30670.38
509.73	30773.36
509.90	30733.57
510.08	30850.60
510.25	30785.07
510.42	31323.39
510.60	31211.04
510.77	31229.77
510.95	31646.38
511.12	31557.44
511.30	31611.28
511.47	32196.41
511.64	31660.43
511.82	31988.10
511.99	31611.28
512.17	32163.64
512.34	31842.99
512.51	32158.96
512.69	31857.03
512.86	32467.91
513.04	32584.94
513.21	32175.34
513.38	32264.28
513.56	31730.64
513.73	32147.26
513.90	32510.04
514.08	32559.19
514.25	32652.81
514.43	33062.41
514.60	32549.83
514.77	32804.95
514.95	32912.61
515.12	32968.79
515.29	33177.09
515.47	33184.12
515.64	33752.87
515.81	33345.61
515.99	33469.66
516.16	33144.33
516.33	32811.97
516.51	33397.10
516.68	32872.82
516.85	32952.40
517.03	32938.36
517.20	33565.62
517.37	33764.57
517.54	34155.44
517.72	33937.77
517.89	33518.81
518.06	33935.43
518.24	33795.00
518.41	34143.74
518.58	34197.57
518.75	34249.06
518.93	34632.91
519.10	34263.10
519.27	34487.79
519.45	34513.54
519.62	34766.32
519.79	34998.03
519.96	35262.51
520.14	35166.55
520.31	34806.11
520.48	35290.60
520.65	34899.73
520.83	35669.76
521.00	35384.22
521.17	35211.02
521.34	35196.98
521.52	35833.60
521.69	36006.80
521.86	36196.38
522.03	36172.98
522.20	36163.62
522.38	35732.96
522.55	36240.86
522.72	35997.44
522.89	35913.18
523.07	36112.13
523.24	36027.87
523.41	36191.70
523.58	36355.54
523.75	36872.80
523.92	37324.52
524.10	36636.41
524.27	36549.81
524.44	36889.18
524.61	37090.47
524.78	37312.82
524.96	37118.56
525.13	37010.89
525.30	37415.80
525.47	37383.04
525.64	37111.53
525.81	37310.48
525.98	37455.59
526.16	36683.22
526.33	36905.57
526.50	37474.32
526.67	37244.94
526.84	37179.41
527.01	37170.05
527.18	37415.80
527.36	37642.84
527.53	38014.98
527.70	37759.86
527.87	37979.87
528.04	37902.64
528.21	38080.52
528.38	37895.61
528.55	38494.79
528.72	38604.80
528.89	38522.88
529.07	38679.69
529.24	38160.09
529.41	38139.03
529.58	37900.29
529.75	37940.08
529.92	38766.29
530.09	38431.60
530.26	38689.06
530.43	39093.97
530.60	38675.01
530.77	38780.34
530.94	39239.08
531.11	38639.90
531.28	38923.11
531.46	39285.89
531.63	39208.65
531.80	38878.64
531.97	39098.65
532.14	38888.00
532.31	38834.17
532.48	39201.63
532.65	39517.60
532.82	39566.76
532.99	39526.97
533.16	39157.16
533.33	39531.65
533.50	39655.70
533.67	39992.73
533.84	39601.86
534.01	39920.18
534.18	39667.40
534.35	40315.73
534.52	39796.13
534.69	39992.73
534.86	40084.01
535.03	40069.97
535.20	40079.33
535.37	40301.68
535.54	40439.78
535.71	40175.30
535.88	40325.09
536.05	40095.72
536.22	40128.48
536.38	40863.41
536.55	40589.57
536.72	40580.21
536.89	40144.87
537.06	40608.29
537.23	40884.48
537.40	40708.94
537.57	40582.55
537.74	40772.13
537.91	40825.96
538.08	40680.85
538.25	40690.21
538.42	40622.34
538.59	41083.42
538.75	40746.39
538.92	41013.21
539.09	40830.65
539.26	40919.59
539.43	40769.79
539.60	41516.42
539.77	41500.04
539.94	41455.57
540.11	40559.14
540.28	41158.32
540.44	41120.87
540.61	41202.79
540.78	41041.29
540.95	41184.07
541.12	41628.77
541.29	41198.11
541.46	41251.94
541.62	41436.84
541.79	41790.27
541.96	41277.69
542.13	41729.41
542.30	41453.23
542.47	42021.98
542.63	41867.50
542.80	41652.17
542.97	42281.78
543.14	42375.40
543.31	42150.71
543.48	42279.44
543.64	42684.35
543.81	42344.97
543.98	42337.95
544.15	42209.22
544.32	42506.47
544.48	43126.71
544.65	43026.07
544.82	42801.38
544.99	42375.40
545.16	42754.57
545.32	42377.74
545.49	43028.41
545.66	42990.96
545.83	42527.53
546.00	43239.06
546.16	42904.36
546.33	42902.02
546.50	42831.80
546.67	42759.25
546.83	42574.34
547.00	43187.56
547.17	42939.47
547.34	42871.59
547.50	43161.82
547.67	43115.01
547.84	43100.97
548.00	43330.34
548.17	43498.86
548.34	42965.21
548.51	43735.25
548.67	43613.54
548.84	43449.70
549.01	43749.29
549.18	43641.63
549.34	43555.03
549.51	43796.10
549.68	43634.61
549.84	43388.85
550.01	43903.77
550.18	43440.34
550.34	43578.43
550.51	43669.72
550.68	43608.86
550.84	43779.72
551.01	43793.76
551.18	43735.25
551.34	43636.95
551.51	43693.12
551.68	43835.89
551.84	44385.92
552.01	43592.48
552.18	43873.34
552.34	43620.56
552.51	44690.19
552.68	43529.28
552.84	44292.30
553.01	44664.44
553.18	44266.55
553.34	44219.74
553.51	43899.09
553.67	43922.49
553.84	44453.79
554.01	44505.29
554.17	44652.74
554.34	44811.90
554.51	44837.64
554.67	44580.18
554.84	44751.04
555.00	44481.88
555.17	44737.00
555.33	44629.34
555.50	44425.71
555.67	44573.16
555.83	44481.88
556.00	44861.05
556.16	44823.60
556.33	44767.43
556.50	44666.78
556.66	44882.11
556.83	44411.67
556.99	44903.18
557.16	44975.73
557.32	44570.82
557.49	44334.43
557.65	44673.81
557.82	45242.56
557.98	45064.67
558.15	45081.06
558.32	45148.93
558.48	45076.38
558.65	44713.59
558.81	44643.38
558.98	44828.28
559.14	45127.87
559.31	44964.03
559.47	45010.84
559.64	45565.55
559.80	45703.64
559.97	45158.30
560.13	45099.78
560.30	44793.17
560.46	45127.87
560.63	44835.30
560.79	45170.00
560.96	45280.00
561.12	45352.56
561.29	45036.59
561.45	45450.86
561.61	45687.26
561.78	45305.75
561.94	45130.21
562.11	45200.43
562.27	45485.97
562.44	45113.83
562.60	45635.77
562.77	45691.94
562.93	45382.99
563.10	45446.18
563.26	45071.70
563.42	45406.39
563.59	45633.42
563.75	45553.85
563.92	45633.42
564.08	45635.77
564.24	45769.18
564.41	45382.99
564.57	45778.54
564.74	45834.71
564.90	45947.06
565.07	45624.06
565.23	45876.84
565.39	45666.19
565.56	45591.30
565.72	45464.91
565.88	45923.65
566.05	45677.90
566.21	45525.76
566.38	45741.09
566.54	45778.54
566.70	45993.87
566.87	45890.88
567.03	45729.39
567.19	46028.98
567.36	45961.10
567.52	45595.98
567.68	45528.10
567.85	45996.21
568.01	45961.10
568.17	45628.74
568.34	45450.86
568.50	45806.62
568.66	45476.61
568.83	45776.20
568.99	45502.35
569.15	45247.24
569.32	46174.09
569.48	45523.42
569.64	45940.04
569.81	46115.58
569.97	46138.98
570.13	46082.81
570.30	45818.33
570.46	45607.68
570.62	45607.68
570.78	45411.07
570.95	45584.27
571.11	45972.80
571.27	45696.62
571.43	45897.91
571.60	46204.52
571.76	45921.31
571.92	45918.97
572.09	46045.36
572.25	46012.59
572.41	45823.01
572.57	46185.79
572.74	46401.12
572.90	46054.72
573.06	45677.90
573.22	45792.58
573.38	46028.98
573.55	46410.48
573.71	45619.38
573.87	45691.94
574.03	46078.13
574.20	45888.54
574.36	46239.62
574.52	45965.78
574.68	46115.58
574.84	46110.89
575.01	45972.80
575.17	46302.82
575.33	46092.17
575.49	45947.06
575.65	46204.52
575.82	46370.69
575.98	46019.61
576.14	46569.64
576.30	46138.98
576.46	45975.14
576.62	45663.85
576.79	45947.06
576.95	45818.33
577.11	46220.90
577.27	46082.81
577.43	46291.12
577.59	46450.27
577.75	46064.08
577.92	45549.17
578.08	45858.12
578.24	45666.19
578.40	45944.72
578.56	46391.76
578.72	46358.99
578.88	45944.72
579.04	46106.21
579.21	45867.48
579.37	45682.58
579.53	45710.66
579.69	45916.63
579.85	46382.40
580.01	46089.83
580.17	46270.05
580.33	46532.19
580.49	46251.33
580.65	46342.61
580.82	46281.75
580.98	45808.96
581.14	45984.51
581.30	46492.40
581.46	46075.79
581.62	46309.84
581.78	46410.48
581.94	46459.63
582.10	46366.01
582.26	46522.83
582.42	46106.21
582.58	46574.32
582.74	45993.87
582.90	46138.98
583.06	46340.27
583.22	46368.35
583.38	46181.11
583.54	46410.48
583.70	46412.82
583.86	46216.22
584.02	45991.53
584.18	46731.14
584.34	46298.14
584.50	45895.56
584.66	46136.64
584.82	46368.35
584.98	46780.29
585.14	46351.97
585.30	45993.87
585.46	46167.07
585.62	46127.28
585.78	45996.21
585.94	46003.23
586.10	45977.48
586.26	46078.13
586.42	46157.70
586.58	46347.29
586.74	46670.28
586.90	46408.14
587.06	45727.05
587.22	46651.56
587.38	46253.67
587.54	46403.46
587.70	46660.92
587.86	46469.00
588.02	46050.04
588.18	46646.88
588.34	45989.19
588.49	45757.47
588.65	45626.40
588.81	46096.85
588.97	45661.51
589.13	45846.41
589.29	46050.04
589.45	46220.90
589.61	46094.51
589.77	46340.27
589.93	46527.51
