SpectraSuite Data File
++++++++++++++++++++++++++++++++++++
Date: Fri Oct 25 11:25:28 EDT 2013
User: price-jones
Dark Spectrum Present: No
Reference Spectrum Present: No
Number of Sampled Component Spectra: 1
Spectrometers: USB2+H05261
Integration Time (usec): 100000 (USB2+H05261)
Spectra Averaged: 1 (USB2+H05261)
Boxcar Smoothing: 0 (USB2+H05261)
Correct for Electrical Dark: No (USB2+H05261)
Strobe/Lamp Enabled: No (USB2+H05261)
Correct for Detector Non-linearity: No (USB2+H05261)
Correct for Stray Light: No (USB2+H05261)
Number of Pixels in Processed Spectrum: 2048
>>>>>Begin Processed Spectral Data<<<<<
365.73	196.60
365.92	196.60
366.12	196.60
366.32	163.84
366.52	180.22
366.72	163.84
366.91	107.66
367.11	173.20
367.31	95.96
367.51	110.01
367.70	117.03
367.90	138.09
368.10	126.39
368.30	168.52
368.49	117.03
368.69	208.31
368.89	163.84
369.09	102.98
369.28	112.35
369.48	227.03
369.68	220.01
369.87	152.13
370.07	102.98
370.27	252.78
370.47	339.38
370.66	575.77
370.86	636.63
371.06	650.67
371.25	706.84
371.45	624.92
371.65	709.18
371.84	704.50
372.04	690.46
372.24	732.59
372.44	667.05
372.63	702.16
372.83	767.70
373.03	720.88
373.22	746.63
373.42	744.29
373.62	812.17
373.81	779.40
374.01	847.27
374.21	830.89
374.40	821.53
374.60	823.87
374.79	781.74
374.99	856.64
375.19	732.59
375.38	868.34
375.58	842.59
375.78	901.11
375.97	889.40
376.17	908.13
376.37	877.70
376.56	870.68
376.76	861.32
376.95	739.61
377.15	891.74
377.35	875.36
377.54	915.15
377.74	830.89
377.93	849.61
378.13	863.66
378.33	938.55
378.52	961.96
378.72	983.02
378.91	943.24
379.11	926.85
379.31	943.24
379.50	884.72
379.70	1022.81
379.89	983.02
380.09	992.39
380.28	985.37
380.48	1013.45
380.68	980.68
380.87	926.85
381.07	1025.15
381.26	1018.13
381.46	1074.31
381.65	957.28
381.85	1020.47
382.04	1076.65
382.24	1036.86
382.43	1097.71
382.63	994.73
382.83	1088.35
383.02	1097.71
383.22	1146.86
383.41	1135.16
383.61	1137.50
383.80	1125.80
384.00	1163.25
384.19	1186.65
384.39	1212.40
384.58	1128.14
384.78	1219.42
384.97	1172.61
385.17	1090.69
385.36	1198.35
385.56	1090.69
385.75	1076.65
385.95	1186.65
386.14	1151.54
386.34	1186.65
386.53	1242.82
386.72	1191.33
386.92	1233.46
387.11	1198.35
387.31	1273.25
387.50	1324.74
387.70	1231.12
387.89	1303.68
388.09	1252.19
388.28	1240.48
388.48	1348.15
388.67	1315.38
388.86	1268.57
389.06	1313.04
389.25	1350.49
389.45	1256.87
389.64	1345.81
389.84	1411.34
390.03	1404.32
390.22	1317.72
390.42	1416.02
390.61	1366.87
390.81	1348.15
391.00	1401.98
391.19	1411.34
391.39	1486.24
391.58	1441.77
391.78	1439.43
391.97	1488.58
392.16	1474.54
392.36	1593.90
392.55	1439.43
392.75	1563.48
392.94	1521.35
393.13	1427.73
393.33	1547.09
393.52	1568.16
393.71	1605.61
393.91	1572.84
394.10	1558.80
394.29	1614.97
394.49	1584.54
394.68	1624.33
394.88	1598.59
395.07	1774.13
395.26	1652.42
395.46	1708.59
395.65	1764.76
395.84	1708.59
396.04	1769.44
396.23	1713.27
396.42	1694.55
396.62	1804.55
396.81	1778.81
397.00	1792.85
397.19	1907.54
397.39	1816.26
397.58	1778.81
397.77	1851.36
397.97	1781.15
398.16	1820.94
398.35	1844.34
398.55	1937.96
398.74	1825.62
398.93	2026.90
399.12	1851.36
399.32	1921.58
399.51	1893.49
399.70	1907.54
399.90	1893.49
400.09	2033.93
400.28	2033.93
400.47	1944.99
400.67	2059.67
400.86	2071.37
401.05	2038.61
401.24	2139.25
401.44	2148.61
401.63	2125.21
401.82	2071.37
402.01	2132.23
402.21	2195.42
402.40	2282.02
402.59	2136.91
402.78	2270.32
402.97	2162.66
403.17	2232.87
403.36	2291.38
403.55	2228.19
403.74	2293.72
403.93	2256.28
404.13	2466.92
404.32	2382.67
404.51	2251.60
404.70	2424.80
404.89	2471.61
405.09	2497.35
405.28	2380.32
405.47	2359.26
405.66	2478.63
405.85	2513.74
406.05	2455.22
406.24	2565.23
406.43	2600.34
406.62	2684.59
406.81	2590.97
407.00	2553.52
407.20	2614.38
407.39	2647.15
407.58	2642.46
407.77	2764.17
407.96	2670.55
408.15	2771.19
408.34	2670.55
408.54	2768.85
408.73	2731.41
408.92	2773.53
409.11	2916.31
409.30	2705.66
409.49	2974.82
409.68	2930.35
409.87	2848.43
410.07	2972.48
410.26	3054.40
410.45	3021.63
410.64	3014.61
410.83	3143.34
411.02	3171.43
411.21	3112.91
411.40	3218.24
411.59	3173.77
411.78	3267.39
411.98	3192.49
412.17	3304.84
412.36	3227.60
412.55	3307.18
412.74	3281.43
412.93	3344.63
413.12	3211.22
413.31	3513.14
413.50	3485.06
413.69	3433.57
413.88	3515.48
414.07	3550.59
414.26	3634.85
414.45	3726.13
414.64	3545.91
414.83	3613.79
415.02	3688.68
415.22	3861.88
415.41	3871.25
415.60	3918.06
415.79	3805.71
415.98	3934.44
416.17	3985.93
416.36	3990.61
416.55	4009.34
416.74	4189.56
416.93	3946.14
417.12	4173.18
417.31	4107.64
417.50	3990.61
417.69	4320.63
417.88	4423.61
418.07	4252.75
418.26	4287.86
418.45	4329.99
418.64	4557.02
418.83	4428.29
419.02	4454.04
419.21	4461.06
419.39	4542.98
419.58	4500.85
419.77	4404.89
419.96	4505.53
420.15	4610.86
420.34	4601.49
420.53	4662.35
420.72	4662.35
420.91	4601.49
421.10	4814.48
421.29	4718.52
421.48	4617.88
421.67	4837.89
421.86	4678.73
422.05	4765.33
422.24	4851.93
422.43	4905.76
422.61	4915.12
422.80	4896.40
422.99	4835.55
423.18	4922.15
423.37	5064.92
423.56	4840.23
423.75	4940.87
423.94	4858.95
424.13	4587.45
424.32	4809.80
424.50	4933.85
424.69	5146.84
424.88	5130.45
425.07	4938.53
425.26	4898.74
425.45	4929.17
425.64	4957.25
425.83	5036.83
426.01	4943.21
426.20	5020.45
426.39	4985.34
426.58	4922.15
426.77	4957.25
426.96	5088.32
427.15	5130.45
427.33	5151.52
427.52	5102.37
427.71	5298.97
427.90	5144.50
428.09	5359.83
428.28	5233.44
428.46	5366.85
428.65	5355.15
428.84	5643.03
429.03	5493.24
429.22	5294.29
429.40	5334.08
429.59	5504.94
429.78	5263.86
429.97	5273.23
430.16	5448.77
430.34	5523.66
430.53	5603.24
430.72	5722.61
430.91	5521.32
431.10	5612.60
431.28	5792.83
431.47	5748.36
431.66	5919.21
431.85	5717.93
432.03	5755.38
432.22	5970.71
432.41	5902.83
432.60	5734.31
432.79	5886.45
432.97	5942.62
433.16	5802.19
433.35	6015.18
433.54	6113.48
433.72	5968.37
433.91	6094.76
434.10	6160.29
434.28	6038.58
434.47	6216.46
434.66	6260.93
434.85	6139.23
435.03	6420.09
435.22	6286.68
435.41	6431.79
435.59	6267.95
435.78	6352.21
435.97	6450.52
436.16	6209.44
436.34	6406.05
436.53	6424.77
436.72	6539.46
436.90	6349.87
437.09	6630.74
437.28	6396.68
437.46	6574.56
437.65	6511.37
437.84	6731.38
438.02	6523.07
438.21	6628.40
438.40	6658.82
438.58	6965.43
438.77	6895.22
438.96	6949.05
439.14	7126.93
439.33	7091.82
439.52	7220.55
439.70	7136.29
439.89	7482.69
440.08	7330.56
440.26	7281.41
440.45	7267.36
440.63	7332.90
440.82	7459.29
441.01	7496.74
441.19	7428.86
441.38	7562.27
441.57	7597.38
441.75	7789.30
441.94	7880.58
442.12	7967.18
442.31	7964.84
442.50	7925.05
442.68	7744.83
442.87	8173.15
443.05	8072.51
443.24	8231.66
443.43	8023.36
443.61	8201.24
443.80	8470.40
443.98	8184.85
444.17	7726.11
444.35	8168.47
444.54	8322.94
444.73	8355.71
444.91	8266.77
445.10	8329.97
445.28	8552.32
445.47	8318.26
445.65	8280.82
445.84	8451.67
446.02	8540.61
446.21	8372.10
446.39	8472.74
446.58	8280.82
446.77	8126.34
446.95	8070.17
447.14	8390.82
447.32	8514.87
447.51	8322.94
447.69	8212.94
447.88	8390.82
448.06	8449.33
448.25	8262.09
448.43	8559.34
448.62	8601.47
448.80	8442.31
448.99	8636.58
449.17	8652.96
449.36	8566.36
449.54	8828.50
449.73	8816.80
449.91	8667.00
450.10	8952.55
450.28	8936.17
450.46	8882.33
450.65	8990.00
450.83	9202.99
451.02	8975.95
451.20	9020.42
451.39	9034.47
451.57	9097.66
451.76	9184.26
451.94	9104.68
452.13	9343.42
452.31	9125.75
452.49	9163.20
452.68	9336.40
452.86	9081.28
453.05	9371.50
453.23	9277.88
453.42	9245.12
453.60	9282.56
453.78	9376.19
453.97	9245.12
454.15	9535.34
454.34	9469.81
454.52	9511.94
454.70	9439.38
454.89	9830.25
455.07	9715.56
455.26	9926.21
455.44	9949.62
455.62	9710.88
455.81	10059.62
455.99	10125.16
456.17	9893.44
456.36	9984.73
456.54	10083.03
456.73	10394.32
456.91	10146.22
457.09	10391.98
457.28	10504.32
457.46	10246.87
457.64	10347.51
457.83	10459.85
458.01	10143.88
458.19	10665.82
458.38	10387.30
458.56	10445.81
458.74	10511.35
458.93	10656.46
459.11	10541.77
459.29	10766.46
459.48	10876.47
459.66	10707.95
459.84	10597.95
460.03	11009.88
460.21	10867.11
460.39	10942.00
460.57	10939.66
460.76	10974.77
460.94	11075.42
461.12	10942.00
461.31	10965.41
461.49	11023.92
461.67	11122.23
461.85	11440.54
462.04	11180.74
462.22	11946.09
462.40	11473.31
462.59	11384.37
462.77	11332.87
462.95	11625.44
463.13	11709.70
463.32	11573.95
463.50	11698.00
463.68	11520.12
463.86	11695.66
464.05	11485.01
464.23	11878.22
464.41	11728.42
464.59	11580.97
464.78	12081.85
464.96	11765.87
465.14	11690.98
465.32	11908.65
465.50	12018.65
465.69	11868.86
465.87	12196.53
466.05	12002.27
466.23	12182.49
466.41	12159.08
466.60	12379.09
466.78	11997.59
466.96	12173.13
467.14	12084.19
467.32	12196.53
467.51	12315.90
467.69	12131.00
467.87	12187.17
468.05	12360.37
468.23	12262.07
468.41	12152.06
468.60	12556.97
468.78	12713.79
468.96	12449.31
469.14	12674.00
469.32	12720.81
469.50	12482.08
469.69	12898.69
469.87	13062.53
470.05	13006.36
470.23	13032.10
470.41	13366.80
470.59	13102.32
470.77	13015.72
470.95	13359.78
471.14	13406.59
471.32	12975.93
471.50	13511.91
471.68	13638.30
471.86	13523.62
472.04	13788.10
472.22	13940.23
472.40	13682.77
472.58	13839.59
472.77	13755.33
472.95	14204.71
473.13	14602.60
473.31	13970.66
473.49	13921.51
473.67	14101.73
473.85	13738.94
474.03	14534.73
474.21	14628.35
474.39	14846.02
474.57	14544.09
474.75	14759.42
474.93	15054.33
475.12	14778.14
475.30	15185.40
475.48	14609.62
475.66	14874.10
475.84	15154.97
476.02	15597.33
476.20	15161.99
476.38	15508.39
476.56	15946.07
476.74	16049.05
476.92	15990.54
477.10	15396.04
477.28	15915.64
477.46	15929.69
477.64	16493.76
477.82	16219.91
478.00	16835.47
478.18	16723.13
478.36	16882.28
478.54	17132.72
478.72	17048.46
478.90	16865.90
479.08	17092.93
479.26	17451.03
479.44	17659.34
479.62	17942.55
479.80	18183.62
479.98	18157.88
480.16	18237.45
480.34	18162.56
480.52	18284.26
480.70	18452.78
480.88	18415.34
481.06	18904.51
481.24	18628.32
481.41	18923.23
481.59	19204.10
481.77	19185.37
481.95	19601.99
482.13	19463.90
482.31	19454.53
482.49	20357.98
482.67	19974.13
482.85	20449.26
483.03	20650.55
483.21	20753.53
483.39	21085.89
483.57	20596.71
483.74	21020.35
483.92	21261.43
484.10	20851.83
484.28	21827.84
484.46	21998.70
484.64	22258.49
484.82	21603.14
485.00	22190.62
485.18	22721.92
485.35	22897.46
485.53	22492.55
485.71	22752.35
485.89	23000.44
486.07	23040.23
486.25	23300.03
486.43	23374.93
486.61	23716.65
486.78	23920.28
486.96	23761.12
487.14	24559.24
487.32	24526.47
487.50	24631.80
487.68	24706.70
487.85	25263.74
488.03	25064.80
488.21	25975.27
488.39	25703.76
488.57	25916.75
488.75	26096.97
488.92	26347.41
489.10	26307.62
489.28	26555.72
489.46	26969.99
489.64	26869.35
489.81	27480.23
489.99	27573.85
490.17	27779.82
490.35	27908.55
490.53	28257.29
490.70	28329.84
490.88	28114.52
491.06	28163.67
491.24	28706.67
491.41	28617.73
491.59	29048.39
491.77	29448.62
491.95	29404.15
492.13	29453.30
492.30	29542.24
492.48	29593.73
492.66	30082.91
492.84	30155.46
493.01	30724.21
493.19	30621.23
493.37	30892.73
493.54	31007.42
493.72	31325.73
493.90	31075.29
494.08	31714.26
494.25	31697.88
494.43	31740.00
494.61	32158.96
494.79	32554.51
494.96	31945.97
495.14	32563.87
495.32	33090.49
495.49	33123.26
495.67	33214.54
495.85	33509.45
496.02	33851.17
496.20	34181.18
496.38	33825.42
496.55	34022.03
496.73	34543.97
496.91	34323.96
497.09	34522.90
497.26	34946.54
497.44	34295.87
497.62	34775.68
497.79	35744.66
497.97	35278.89
498.14	35669.76
498.32	36229.15
498.50	35756.36
498.67	36444.48
498.85	36093.40
499.03	36091.06
499.20	36437.46
499.38	36601.30
499.56	36449.16
499.73	36950.04
499.91	37071.75
500.08	37584.32
500.26	36877.48
500.44	37460.27
500.61	37443.89
500.79	37535.17
500.97	37811.35
501.14	38295.85
501.32	38302.87
501.49	38405.85
501.67	38576.71
501.84	38511.17
502.02	39138.44
502.20	39012.05
502.37	38955.88
502.55	38902.04
502.72	38927.79
502.90	39480.16
503.07	39367.81
503.25	39810.17
503.43	39330.36
503.60	39880.39
503.78	39901.45
503.95	40177.64
504.13	40446.80
504.30	40416.37
504.48	40126.14
504.65	40678.51
504.83	40971.08
505.01	41104.49
505.18	41216.83
505.36	41373.65
505.53	41139.60
505.71	41265.99
505.88	41551.53
506.06	41577.28
506.23	41134.92
506.41	42057.09
506.58	41949.42
506.76	42153.05
506.93	42401.14
507.11	42157.73
507.28	42078.15
507.46	42286.46
507.63	42490.09
507.81	42909.04
507.98	42464.34
508.16	42829.46
508.33	43260.12
508.50	43042.45
508.68	43201.61
508.85	43552.69
509.03	43758.66
509.20	43735.25
509.38	43683.76
509.55	44020.80
509.73	44140.16
509.90	44189.31
510.08	44137.82
510.25	44477.20
510.42	44266.55
510.60	44924.24
510.77	45038.93
510.95	45668.53
511.12	44914.88
511.30	45043.61
511.47	45579.59
511.64	45071.70
511.82	45769.18
511.99	45668.53
512.17	45507.04
512.34	45837.05
512.51	45984.51
512.69	46211.54
512.86	45909.61
513.04	46164.73
513.21	46131.96
513.38	46607.09
513.56	46471.34
513.73	46461.97
513.90	46707.73
514.08	46642.20
514.25	46974.55
514.43	46857.52
514.60	46911.36
514.77	47002.64
514.95	47695.44
515.12	47414.57
515.29	47360.74
515.47	47845.23
515.64	47779.70
515.81	47456.70
515.99	48144.82
516.16	48072.26
516.33	47807.78
516.51	48687.82
516.68	48023.11
516.85	48081.63
517.03	48687.82
517.20	48942.94
517.37	48189.29
517.54	48666.76
517.72	48582.50
517.89	49123.16
518.06	49003.80
518.24	48971.03
518.41	48949.96
518.58	49345.51
518.75	48788.47
518.93	49146.57
519.10	49242.53
519.27	49254.23
519.45	49848.73
519.62	49312.75
519.79	49666.17
519.96	49801.92
520.14	49937.67
520.31	50071.08
520.48	49855.75
520.65	50223.22
520.83	50246.62
521.00	50417.48
521.17	50255.98
521.34	50497.06
521.52	50312.16
521.69	50766.22
521.86	50468.97
522.03	50791.97
522.20	51189.86
522.38	50997.93
522.55	51316.25
522.72	51349.01
522.89	51089.21
523.07	51667.33
523.24	51461.36
523.41	51278.80
523.58	51377.10
523.75	51660.30
523.92	51526.89
524.10	51569.02
524.27	52074.58
524.44	52009.04
524.61	51660.30
524.78	51789.03
524.96	52226.71
525.13	52158.84
525.30	52060.54
525.47	52423.32
525.64	51948.19
525.81	52545.03
525.98	52423.32
526.16	52428.00
526.33	52542.69
526.50	53045.90
526.67	52278.21
526.84	52879.72
527.01	52837.59
527.18	52687.80
527.36	52933.56
527.53	52725.25
527.70	53312.72
527.87	53188.67
528.04	52872.70
528.21	53277.61
528.38	53078.67
528.55	53394.64
528.72	53003.77
528.89	53373.58
529.07	53181.65
529.24	53392.30
529.41	53331.45
529.58	53769.13
529.75	53544.44
529.92	53521.03
530.09	53635.72
530.26	53635.72
530.43	53937.65
530.60	53490.60
530.77	53642.74
530.94	54195.10
531.11	53778.49
531.28	54155.32
531.46	54209.15
531.63	53944.67
531.80	53982.12
531.97	54073.40
532.14	54129.57
532.31	53951.69
532.48	54312.13
532.65	54522.78
532.82	54377.67
532.99	54466.61
533.16	54145.95
533.33	54543.84
533.50	54745.13
533.67	54639.81
533.84	54506.40
534.01	54784.92
534.18	55025.99
534.35	55271.75
534.52	54813.01
534.69	55002.59
534.86	55091.53
535.03	54583.63
535.20	55180.47
535.37	55210.90
535.54	55143.02
535.71	55217.92
535.88	55178.13
536.05	55323.24
536.22	55423.89
536.38	55318.56
536.55	55393.46
536.72	55501.12
536.89	55325.58
537.06	55276.43
537.23	55501.12
537.40	55627.51
537.57	55414.52
537.74	55756.24
537.91	55838.16
538.08	55739.86
538.25	55611.13
538.42	55725.81
538.59	56083.92
538.75	55880.29
538.92	55842.84
539.09	55992.64
539.26	56069.87
539.43	55931.78
539.60	56238.39
539.77	56149.45
539.94	56310.95
540.11	55863.91
540.28	56275.84
540.44	56198.60
540.61	56048.81
540.78	56184.56
540.95	56278.18
541.12	56406.91
541.29	56420.95
541.46	56299.25
541.62	56554.36
541.79	56587.13
541.96	56493.51
542.13	56446.70
542.30	56807.14
542.47	56580.11
542.63	56802.46
542.80	56865.66
542.97	56746.29
543.14	56912.47
543.31	56978.00
543.48	57073.96
543.64	57265.89
543.81	57233.12
543.98	57205.03
544.15	57237.80
544.32	57144.18
544.48	57464.83
544.65	57118.43
544.82	57361.85
544.99	57160.56
545.16	57244.82
545.32	57254.18
545.49	57813.57
545.66	57558.45
545.83	57591.22
546.00	57450.79
546.16	57509.30
546.33	57521.01
546.50	57497.60
546.67	57523.35
546.83	57272.91
547.00	57539.73
547.17	57591.22
547.34	57652.08
547.50	57860.38
547.67	57963.37
547.84	57726.97
548.00	58134.23
548.17	58085.07
548.34	57883.79
548.51	58038.26
548.67	57993.79
548.84	58031.24
549.01	57853.36
549.18	58181.04
549.34	58071.03
549.51	58253.59
549.68	58309.77
549.84	58204.44
550.01	58258.27
550.18	58099.12
550.34	58223.17
550.51	58440.84
550.68	58185.72
550.84	57930.60
551.01	58354.24
551.18	58344.87
551.34	58333.17
551.51	58410.41
551.68	58543.82
551.84	58277.00
552.01	58387.00
552.18	58560.20
552.34	58408.07
552.51	58518.07
552.68	58532.12
552.84	58527.44
553.01	58698.30
553.18	58527.44
553.34	58674.89
553.51	58504.03
553.67	58798.94
553.84	58688.93
554.01	58651.48
554.17	58834.05
554.34	58958.09
554.51	58855.11
554.67	58941.71
554.84	58962.78
555.00	58759.15
555.17	58822.34
555.33	58635.10
555.50	58656.17
555.67	58958.09
555.83	58969.80
556.00	59040.01
556.16	59353.65
556.33	59007.25
556.50	59086.82
556.66	59114.91
556.83	59143.00
556.99	59423.86
557.16	59320.88
557.32	59449.61
557.49	59451.95
557.65	59243.64
557.82	59180.45
557.98	59260.02
558.15	59384.07
558.32	59386.41
558.48	59157.04
558.65	59058.74
558.81	59374.71
558.98	59643.87
559.14	59370.03
559.31	59580.68
559.47	59604.08
559.64	59683.66
559.80	59447.27
559.97	59690.68
560.13	59245.98
560.30	59449.61
560.46	59639.19
560.63	59695.36
560.79	59709.41
560.96	59587.70
561.12	59737.49
561.29	59793.67
561.45	59831.11
561.61	59756.22
561.78	59629.83
561.94	59561.95
562.11	59601.74
562.27	59678.98
562.44	59739.83
562.60	60027.72
562.77	59831.11
562.93	59746.86
563.10	59959.84
563.26	59737.49
563.42	60128.36
563.59	59901.33
563.75	59810.05
563.92	59915.37
564.08	59636.85
564.24	59936.44
564.41	60006.65
564.57	60037.08
564.74	59962.18
564.90	60018.36
565.07	59803.03
565.23	59849.84
565.39	59971.55
565.56	60086.23
565.72	59906.01
565.88	60142.41
566.05	60193.90
566.21	59985.59
566.38	60219.64
566.54	59950.48
566.70	60231.35
566.87	60271.14
567.03	60114.32
567.19	60296.88
567.36	60119.00
567.52	60161.13
567.68	60266.45
567.85	60528.59
568.01	60374.12
568.17	60224.32
568.34	60381.14
568.50	60182.19
568.66	59992.61
568.83	60289.86
568.99	60158.79
569.15	60343.69
569.32	60226.66
569.48	60294.54
569.64	60474.76
569.81	60264.11
569.97	60203.26
570.13	60247.73
570.30	60299.22
570.46	60346.03
570.62	60470.08
570.78	60371.78
570.95	60119.00
571.11	60383.48
571.27	60451.36
571.43	60395.18
571.60	60413.91
571.76	60264.11
571.92	60425.61
572.09	60434.97
572.25	60285.18
572.41	60472.42
572.57	60229.01
572.74	60605.83
572.90	60348.37
573.06	60507.53
573.22	60449.02
573.38	60505.19
573.55	60441.99
573.71	60547.32
573.87	60427.95
574.03	60413.91
574.20	60495.83
574.36	60498.17
574.52	60533.28
574.68	60547.32
574.84	60591.79
575.01	60561.36
575.17	60676.05
575.33	60444.33
575.49	60479.44
575.65	60449.02
575.82	60463.06
575.98	60608.17
576.14	60690.09
576.30	60732.22
576.46	60563.70
576.62	60570.72
576.79	60755.63
576.95	60566.04
577.11	60444.33
577.27	60722.86
577.43	60484.12
577.59	60741.58
577.75	60671.37
577.92	60446.68
578.08	60673.71
578.24	60552.00
578.40	60835.20
578.56	60921.80
578.72	60615.19
578.88	60907.76
579.04	60966.27
579.21	60793.07
579.37	60821.16
579.53	60587.11
579.69	60603.49
579.85	60678.39
580.01	60526.25
580.17	60594.13
580.33	60858.61
580.49	60837.54
580.65	60720.52
580.82	60624.56
580.98	60582.43
581.14	60575.40
581.30	60872.65
581.46	60793.07
581.62	60640.94
581.78	60701.79
581.94	60687.75
582.10	60853.93
582.26	60921.80
582.42	60706.47
582.58	60739.24
582.74	60739.24
582.90	60849.25
583.06	60830.52
583.22	60626.90
583.38	60999.04
583.54	60704.13
583.70	60896.06
583.86	60914.78
584.02	60790.73
584.18	61041.17
584.34	60816.48
584.50	60860.95
584.66	60776.69
584.82	60605.83
584.98	61020.11
585.14	61055.21
585.30	60814.14
585.46	60877.33
585.62	61017.77
585.78	60947.55
585.94	60776.69
586.10	60846.91
586.26	61036.49
586.42	60952.23
586.58	61155.86
586.74	61003.72
586.90	60884.36
587.06	60807.12
587.22	61031.81
587.38	60963.93
587.54	61228.41
587.70	60952.23
587.86	61099.68
588.02	60708.82
588.18	60942.87
588.34	60858.61
588.49	60938.19
