SpectraSuite Data File
++++++++++++++++++++++++++++++++++++
Date: Fri Oct 25 11:34:06 EDT 2013
User: price-jones
Dark Spectrum Present: No
Reference Spectrum Present: No
Number of Sampled Component Spectra: 1
Spectrometers: USB2+H05261
Integration Time (usec): 100000 (USB2+H05261)
Spectra Averaged: 1 (USB2+H05261)
Boxcar Smoothing: 0 (USB2+H05261)
Correct for Electrical Dark: No (USB2+H05261)
Strobe/Lamp Enabled: No (USB2+H05261)
Correct for Detector Non-linearity: No (USB2+H05261)
Correct for Stray Light: No (USB2+H05261)
Number of Pixels in Processed Spectrum: 2048
>>>>>Begin Processed Spectral Data<<<<<
365.73	273.84
365.92	273.84
366.12	273.84
366.32	229.37
366.52	222.35
366.72	138.09
366.91	170.86
367.11	201.29
367.31	156.82
367.51	177.88
367.70	231.71
367.90	184.90
368.10	145.11
368.30	138.09
368.49	177.88
368.69	234.05
368.89	236.39
369.09	184.90
369.28	194.26
369.48	236.39
369.68	201.29
369.87	238.73
370.07	283.20
370.27	327.68
370.47	348.74
370.66	472.79
370.86	503.22
371.06	475.13
371.25	545.34
371.45	531.30
371.65	547.69
371.84	489.17
372.04	505.56
372.24	517.26
372.44	582.79
372.63	561.73
372.83	636.63
373.03	559.39
373.22	648.33
373.42	606.20
373.62	636.63
373.81	596.84
374.01	620.24
374.21	603.86
374.40	631.94
374.60	653.01
374.79	620.24
374.99	629.60
375.19	638.97
375.38	629.60
375.58	669.39
375.78	636.63
375.97	653.01
376.17	718.54
376.37	660.03
376.56	669.39
376.76	585.13
376.95	622.58
377.15	725.57
377.35	667.05
377.54	720.88
377.74	643.65
377.93	603.86
378.13	657.69
378.33	634.29
378.52	667.05
378.72	695.14
378.91	727.91
379.11	627.26
379.31	655.35
379.50	636.63
379.70	748.97
379.89	711.52
380.09	760.67
380.28	709.18
380.48	704.50
380.68	753.65
380.87	690.46
381.07	723.23
381.26	734.93
381.46	774.72
381.65	730.25
381.85	748.97
382.04	711.52
382.24	812.17
382.43	760.67
382.63	755.99
382.83	821.53
383.02	793.44
383.22	863.66
383.41	863.66
383.61	800.46
383.80	732.59
384.00	765.36
384.19	795.78
384.39	866.00
384.58	772.38
384.78	870.68
384.97	784.08
385.17	798.12
385.36	795.78
385.56	819.19
385.75	840.25
385.95	800.46
386.14	877.70
386.34	880.04
386.53	809.83
386.72	849.61
386.92	901.11
387.11	870.68
387.31	821.53
387.50	863.66
387.70	819.19
387.89	1013.45
388.09	861.32
388.28	943.24
388.48	905.79
388.67	896.43
388.86	896.43
389.06	931.53
389.25	908.13
389.45	896.43
389.64	976.00
389.84	924.51
390.03	990.05
390.22	917.49
390.42	978.34
390.61	875.36
390.81	987.71
391.00	980.68
391.19	1025.15
391.39	1036.86
391.58	985.37
391.78	985.37
391.97	1022.81
392.16	1034.52
392.36	1071.97
392.55	985.37
392.75	1022.81
392.94	1093.03
393.13	1158.57
393.33	985.37
393.52	1086.01
393.71	1128.14
393.91	1053.24
394.10	1013.45
394.29	1102.39
394.49	1102.39
394.68	1004.09
394.88	1104.73
395.07	1167.93
395.26	1123.46
395.46	1102.39
395.65	1205.38
395.84	1097.71
396.04	1196.01
396.23	1130.48
396.42	1137.50
396.62	1165.59
396.81	1221.76
397.00	1181.97
397.19	1186.65
397.39	1193.67
397.58	1212.40
397.77	1179.63
397.97	1235.80
398.16	1238.14
398.35	1261.55
398.55	1306.02
398.74	1320.06
398.93	1238.14
399.12	1308.36
399.32	1282.61
399.51	1327.08
399.70	1362.19
399.90	1310.70
400.09	1355.17
400.28	1385.60
400.47	1334.11
400.67	1434.75
400.86	1387.94
401.05	1380.92
401.24	1373.89
401.44	1488.58
401.63	1434.75
401.82	1350.49
402.01	1479.22
402.21	1451.13
402.40	1434.75
402.59	1385.60
402.78	1479.22
402.97	1423.05
403.17	1474.54
403.36	1598.59
403.55	1603.27
403.74	1671.14
403.93	1540.07
404.13	1647.74
404.32	1542.41
404.51	1619.65
404.70	1664.12
404.89	1504.96
405.09	1636.03
405.28	1643.06
405.47	1584.54
405.66	1640.72
405.85	1727.32
406.05	1659.44
406.24	1614.97
406.43	1621.99
406.62	1802.21
406.81	1879.45
407.00	1664.12
407.20	1741.36
407.39	1785.83
407.58	1802.21
407.77	1851.36
407.96	1905.20
408.15	1865.41
408.34	1811.57
408.54	1914.56
408.73	1937.96
408.92	1923.92
409.11	1944.99
409.30	1914.56
409.49	1923.92
409.68	2008.18
409.87	2015.20
410.07	1968.39
410.26	2033.93
410.45	2031.58
410.64	2101.80
410.83	2150.95
411.02	1977.75
411.21	2057.33
411.40	2036.27
411.59	2235.21
411.78	2190.74
411.98	2183.72
412.17	2174.36
412.36	2267.98
412.55	2256.28
412.74	2214.15
412.93	2256.28
413.12	2249.25
413.31	2298.41
413.50	2422.45
413.69	2335.85
413.88	2448.20
414.07	2443.52
414.26	2457.56
414.45	2502.03
414.64	2473.95
414.83	2548.84
415.02	2537.14
415.22	2600.34
415.41	2583.95
415.60	2633.10
415.79	2612.04
415.98	2633.10
416.17	2640.12
416.36	2586.29
416.55	2658.85
416.74	2621.40
416.93	2696.30
417.12	2710.34
417.31	2986.52
417.50	2803.96
417.69	2892.90
417.88	2862.48
418.07	2895.24
418.26	2846.09
418.45	2937.37
418.64	3145.68
418.83	3066.10
419.02	2916.31
419.21	3038.02
419.39	3035.67
419.58	3023.97
419.77	2981.84
419.96	3042.70
420.15	3070.78
420.34	3030.99
420.53	3124.62
420.72	3206.53
420.91	3112.91
421.10	3162.06
421.29	3220.58
421.48	3248.66
421.67	3309.52
421.86	3145.68
422.05	3302.50
422.24	3222.92
422.43	3213.56
422.61	3391.44
422.80	3323.56
422.99	3342.28
423.18	3349.31
423.37	3405.48
423.56	3251.00
423.75	3288.45
423.94	3325.90
424.13	3197.17
424.32	3227.60
424.50	3159.72
424.69	3358.67
424.88	3499.10
425.07	3501.44
425.26	3452.29
425.45	3288.45
425.64	3407.82
425.83	3318.88
426.01	3400.80
426.20	3501.44
426.39	3353.99
426.58	3426.54
426.77	3405.48
426.96	3403.14
427.15	3471.01
427.33	3482.72
427.52	3461.65
427.71	3618.47
427.90	3557.61
428.09	3712.09
428.28	3651.24
428.46	3730.81
428.65	3667.62
428.84	3705.07
429.03	3751.88
429.22	3644.21
429.40	3843.16
429.59	3744.86
429.78	3482.72
429.97	3550.59
430.16	3707.41
430.34	3588.04
430.53	3789.33
430.72	3838.48
430.91	3761.24
431.10	3791.67
431.28	3899.33
431.47	3786.99
431.66	3990.61
431.85	3887.63
432.03	3964.87
432.22	4044.45
432.41	3985.93
432.60	3950.82
432.79	4051.47
432.97	4072.53
433.16	4009.34
433.35	3974.23
433.54	4161.47
433.72	4248.07
433.91	4159.13
434.10	4241.05
434.28	4196.58
434.47	4180.20
434.66	4098.28
434.85	4030.40
435.03	4334.67
435.22	4252.75
435.41	4381.48
435.59	4248.07
435.78	4304.25
435.97	4470.42
436.16	4182.54
436.34	4234.03
436.53	4278.50
436.72	4519.57
436.90	4442.34
437.09	4468.08
437.28	4360.42
437.46	4510.21
437.65	4461.06
437.84	4582.77
438.02	4559.36
438.21	4578.09
438.40	4493.83
438.58	4629.58
438.77	4711.50
438.96	4641.28
439.14	4873.00
439.33	4751.29
439.52	4734.90
439.70	4828.53
439.89	4868.31
440.08	4889.38
440.26	4943.21
440.45	4882.36
440.63	5041.51
440.82	5046.20
441.01	4959.60
441.19	5123.43
441.38	5298.97
441.57	5121.09
441.75	5111.73
441.94	5366.85
442.12	5242.80
442.31	5399.62
442.50	5380.89
442.68	5352.81
442.87	5444.09
443.05	5371.53
443.24	5465.15
443.43	5521.32
443.61	5561.11
443.80	5465.15
443.98	5380.89
444.17	5280.25
444.35	5493.24
444.54	5591.54
444.73	5584.52
444.91	5540.05
445.10	5479.19
445.28	5504.94
445.47	5357.49
445.65	5441.75
445.84	5504.94
446.02	5720.27
446.21	5584.52
446.39	5692.18
446.58	5483.88
446.77	5603.24
446.95	5516.64
447.14	5654.73
447.32	5640.69
447.51	5731.97
447.69	5717.93
447.88	5509.62
448.06	5666.44
448.25	5701.54
448.43	5710.91
448.62	5778.78
448.80	5724.95
448.99	5774.10
449.17	5755.38
449.36	5746.02
449.54	5884.11
449.73	5940.28
449.91	5832.62
450.10	5797.51
450.28	5940.28
450.46	5982.41
450.65	6080.71
450.83	6022.20
451.02	5949.64
451.20	6155.61
451.39	5989.43
451.57	6155.61
451.76	6083.05
451.94	6253.91
452.13	6434.13
452.31	6225.82
452.49	6174.33
452.68	6087.73
452.86	6101.78
453.05	6237.53
453.23	6050.28
453.42	6251.57
453.60	6359.24
453.78	6387.32
453.97	6293.70
454.15	6153.27
454.34	6214.12
454.52	6502.01
454.70	6403.71
454.89	6441.15
455.07	6349.87
455.26	6422.43
455.44	6504.35
455.62	6537.12
455.81	6490.31
455.99	6640.10
456.17	6572.22
456.36	6700.95
456.54	6665.85
456.73	6637.76
456.91	6899.90
457.09	6974.80
457.28	7045.01
457.46	6740.74
457.64	6972.46
457.83	6925.65
458.01	6789.89
458.19	7037.99
458.38	6906.92
458.56	7145.66
458.74	6771.17
458.93	7030.97
459.11	7054.37
459.29	7143.32
459.48	7206.51
459.66	7194.81
459.84	7372.69
460.03	7339.92
460.21	7272.04
460.39	7241.62
460.57	7246.30
460.76	7286.09
460.94	7386.73
461.12	7293.11
461.31	7541.21
461.49	7183.10
461.67	7166.72
461.85	7569.29
462.04	7344.60
462.22	7768.24
462.40	7527.16
462.59	7620.78
462.77	7564.61
462.95	7501.42
463.13	7676.96
463.32	7569.29
463.50	7672.28
463.68	7850.16
463.86	7861.86
464.05	7761.22
464.23	7632.49
464.41	7740.15
464.59	7702.70
464.78	7946.12
464.96	7955.48
465.14	7798.66
465.32	7889.95
465.50	7985.91
465.69	8109.96
465.87	7920.37
466.05	7826.75
466.23	7929.74
466.41	7990.59
466.60	8088.89
466.78	7929.74
466.96	7889.95
467.14	8032.72
467.32	8205.92
467.51	8217.62
467.69	8119.32
467.87	8116.98
468.05	8315.92
468.23	8086.55
468.41	7939.10
468.60	8336.99
468.78	8381.46
468.96	8229.32
469.14	8208.26
469.32	8496.14
469.50	8266.77
469.69	8383.80
469.87	8667.00
470.05	8458.70
470.23	8540.61
470.41	8615.51
470.59	8784.03
470.77	8636.58
470.95	8697.43
471.14	8957.23
471.32	8676.37
471.50	8802.75
471.68	8947.87
471.86	9067.24
472.04	9064.89
472.22	8968.93
472.40	8905.74
472.58	9018.08
472.77	9128.09
472.95	9228.73
473.13	9390.23
473.31	9228.73
473.49	9172.56
473.67	9184.26
473.85	9528.32
474.03	9502.58
474.21	9582.15
474.39	9605.56
474.57	9511.94
474.75	9734.29
474.93	9685.14
475.12	9633.64
475.30	9671.09
475.48	9635.99
475.66	10061.96
475.84	9919.19
476.02	10073.67
476.20	10059.62
476.38	10370.91
476.56	10436.45
476.74	10260.91
476.92	10265.59
477.10	10207.08
477.28	10265.59
477.46	10490.28
477.64	10476.24
477.82	10848.38
478.00	11056.69
478.18	10738.38
478.36	10944.34
478.54	11028.60
478.72	11082.44
478.90	11140.95
479.08	11447.56
479.26	11239.25
479.44	11793.96
479.62	11367.98
479.80	11735.45
479.98	11981.20
480.16	12173.13
480.34	11808.00
480.52	12145.04
480.70	12315.90
480.88	11833.75
481.06	11903.96
481.24	12049.08
481.41	12128.66
481.59	12695.07
481.77	12552.29
481.95	12669.32
482.13	12666.98
482.31	12610.81
482.49	13064.87
482.67	13163.17
482.85	13193.60
483.03	13303.60
483.21	13418.29
483.39	13317.65
483.57	13312.97
483.74	13554.04
483.92	13839.59
484.10	13572.77
484.28	13942.57
484.46	14370.89
484.64	14391.95
484.82	14225.78
485.00	14340.46
485.18	14736.01
485.35	14953.68
485.53	14628.35
485.71	14656.43
485.89	15180.71
486.07	14867.08
486.25	15061.35
486.43	15410.09
486.61	15169.01
486.78	15377.32
486.96	15449.88
487.14	15854.79
487.32	15712.02
487.50	15983.52
487.68	16107.57
487.85	16360.34
488.03	16355.66
488.21	16664.61
488.39	16435.24
488.57	16603.76
488.75	16816.75
488.92	16924.41
489.10	17013.35
489.28	17298.90
489.46	17296.56
489.64	17418.27
489.81	17853.61
489.99	17757.64
490.17	17764.67
490.35	18162.56
490.53	18223.41
490.70	18169.58
490.88	18106.38
491.06	18352.14
491.24	18284.26
491.41	18679.82
491.59	18843.65
491.77	18780.46
491.95	19087.07
492.13	18771.10
492.30	19332.82
492.48	19314.10
492.66	19187.71
492.84	19431.13
493.01	19585.60
493.19	20006.90
493.37	20063.07
493.54	20030.30
493.72	20224.57
493.90	20009.24
494.08	20173.08
494.25	20271.38
494.43	20577.99
494.61	20678.63
494.79	20737.15
494.96	20688.00
495.14	20943.11
495.32	21544.63
495.49	21261.43
495.67	21282.49
495.85	21532.93
496.02	21572.72
496.20	21785.71
496.38	21626.55
496.55	22040.82
496.73	22326.37
496.91	22462.12
497.09	22232.75
497.26	22438.72
497.44	22387.22
497.62	22551.06
497.79	22923.21
497.97	22532.34
498.14	23241.52
498.32	23049.60
498.50	23274.29
498.67	23854.74
498.85	23410.04
499.03	23487.28
499.20	23417.06
499.38	23917.93
499.56	23852.40
499.73	23639.41
499.91	23889.85
500.08	24123.90
500.26	24077.09
500.44	24421.15
500.61	24135.60
500.79	24240.93
500.97	24430.51
501.14	24931.39
501.32	24559.24
501.49	24554.56
501.67	24638.82
501.84	25165.44
502.02	24840.11
502.20	25298.85
502.37	25345.66
502.55	25305.87
502.72	25331.62
502.90	25652.27
503.07	25153.74
503.25	25387.79
503.43	25624.18
503.60	25647.59
503.78	25933.14
503.95	25752.91
504.13	26003.35
504.30	26017.40
504.48	26047.82
504.65	26267.83
504.83	26562.74
505.01	26305.28
505.18	26412.95
505.36	26642.32
505.53	26443.37
505.71	26614.23
505.88	27033.19
506.06	26529.97
506.23	26939.57
506.41	26780.41
506.58	27133.83
506.76	27374.91
506.93	27454.48
507.11	27517.68
507.28	27545.76
507.46	27480.23
507.63	27702.58
507.81	27957.70
507.98	27363.20
508.16	28041.96
508.33	27985.79
508.50	28114.52
508.68	27793.86
508.85	28088.77
509.03	27906.21
509.20	28161.33
509.38	28723.05
509.55	28458.57
509.73	28797.95
509.90	28313.46
510.08	28741.78
510.25	28966.47
510.42	28954.77
510.60	29209.89
510.77	29081.16
510.95	29413.51
511.12	29144.35
511.30	29062.43
511.47	29607.78
511.64	29635.86
511.82	29553.94
511.99	29694.38
512.17	29743.53
512.34	29322.23
512.51	30169.51
512.69	30139.08
512.86	30125.04
513.04	30249.08
513.21	30164.82
513.38	30302.92
513.56	30871.67
513.73	30441.01
513.90	30525.27
514.08	30672.72
514.25	30721.87
514.43	31281.26
514.60	30703.15
514.77	30857.62
514.95	31047.21
515.12	31094.02
515.29	31049.55
515.47	31299.98
515.64	31175.94
515.81	31133.81
515.99	31543.40
516.16	31903.84
516.33	31527.02
516.51	31634.68
516.68	31644.04
516.85	31665.11
517.03	32144.92
517.20	31732.98
517.37	31754.05
517.54	32011.51
517.72	32521.74
517.89	32130.87
518.06	32144.92
518.24	31840.65
518.41	32156.62
518.58	32542.81
518.75	32346.20
518.93	32460.89
519.10	32336.84
519.27	32648.13
519.45	32662.18
519.62	32631.75
519.79	32615.37
519.96	33130.28
520.14	33383.06
520.31	33022.62
520.48	33078.79
520.65	33500.09
520.83	33500.09
521.00	33731.80
521.17	33816.06
521.34	33834.78
521.52	33715.42
521.69	33680.31
521.86	33998.62
522.03	33937.77
522.20	34440.98
522.38	34305.23
522.55	34541.63
522.72	34174.16
522.89	34445.66
523.07	34258.42
523.24	34567.37
523.41	34665.67
523.58	34433.96
523.75	34787.38
523.92	34979.31
524.10	34986.33
524.27	35248.47
524.44	34621.20
524.61	35147.82
524.78	34841.21
524.96	35150.17
525.13	35697.85
525.30	35501.25
525.47	35405.28
525.64	35232.08
525.81	35534.01
525.98	35033.14
526.16	35639.34
526.33	35592.53
526.50	35945.95
526.67	35695.51
526.84	35756.36
527.01	35702.53
527.18	36205.75
527.36	35849.99
527.53	36315.75
527.70	36381.29
527.87	36418.74
528.04	36285.33
528.21	36533.42
528.38	36421.08
528.55	36697.26
528.72	36444.48
528.89	36481.93
529.07	36697.26
529.24	36364.90
529.41	36603.64
529.58	36720.66
529.75	36802.58
529.92	36938.33
530.09	37022.59
530.26	36971.10
530.43	36914.93
530.60	36678.54
530.77	36687.90
530.94	37181.75
531.11	36854.08
531.28	37048.34
531.46	37156.00
531.63	37797.31
531.80	37404.10
531.97	37483.68
532.14	37523.47
532.31	37361.97
532.48	37991.58
532.65	37841.78
532.82	37689.65
532.99	37830.08
533.16	37591.34
533.33	37937.74
533.50	37722.41
533.67	38419.89
533.84	37656.88
534.01	37743.48
534.18	37951.79
534.35	38595.43
534.52	38557.99
534.69	38447.98
534.86	38728.84
535.03	38089.88
535.20	38857.57
535.37	38382.45
535.54	38967.58
535.71	38539.26
535.88	38813.10
536.05	38763.95
536.22	39110.35
536.38	39096.31
536.55	38904.38
536.72	38789.70
536.89	38789.70
537.06	39213.34
537.23	39100.99
537.40	39124.40
537.57	38944.17
537.74	39636.97
537.91	39367.81
538.08	39573.78
538.25	39461.43
538.42	39538.67
538.59	39489.52
538.75	39409.94
538.92	39847.62
539.09	39632.29
539.26	39707.19
539.43	40009.12
539.60	39962.31
539.77	39772.72
539.94	39817.19
540.11	39648.68
540.28	40023.16
540.44	40158.91
540.61	39339.72
540.78	39555.05
540.95	39629.95
541.12	39934.22
541.29	39529.31
541.46	40301.68
541.62	40294.66
541.79	40306.37
541.96	40016.14
542.13	40175.30
542.30	39856.98
542.47	40388.28
542.63	40198.70
542.80	40570.85
542.97	40783.83
543.14	41614.72
543.31	41336.20
543.48	41060.02
543.64	41385.35
543.81	40961.72
543.98	41041.29
544.15	40898.52
544.32	41151.30
544.48	41542.17
544.65	41696.64
544.82	41497.70
544.99	41148.96
545.16	41413.44
545.32	41148.96
545.49	41553.87
545.66	41572.60
545.83	41567.91
546.00	41808.99
546.16	41874.52
546.33	41942.40
546.50	41237.90
546.67	41638.13
546.83	41219.17
547.00	41984.53
547.17	41752.82
547.34	41628.77
547.50	42181.13
547.67	42714.78
547.84	41977.51
548.00	41958.78
548.17	42536.90
548.34	42440.93
548.51	42314.55
548.67	42422.21
548.84	42653.92
549.01	42204.54
549.18	42064.11
549.34	42447.96
549.51	42499.45
549.68	42604.77
549.84	42169.43
550.01	42649.24
550.18	42478.38
550.34	42504.13
550.51	42724.14
550.68	43086.92
550.84	42239.65
551.01	43255.44
551.18	42770.95
551.34	42611.79
551.51	43430.98
551.68	42815.42
551.84	42974.58
552.01	42653.92
552.18	43377.15
552.34	43002.66
552.51	43189.91
552.68	42880.95
552.84	43112.67
553.01	43309.27
553.18	43370.13
553.34	43082.24
553.51	43180.54
553.67	43320.98
553.84	43470.77
554.01	43374.81
554.17	43313.95
554.34	43325.66
554.51	43777.38
554.67	43739.93
554.84	43910.79
555.00	43753.97
555.17	44009.09
555.33	43372.47
555.50	43578.43
555.67	43573.75
555.83	43643.97
556.00	43831.21
556.16	44531.03
556.33	43742.27
556.50	44055.90
556.66	43821.85
556.83	43784.40
556.99	44254.85
557.16	44254.85
557.32	44179.95
557.49	44570.82
557.65	44013.77
557.82	44095.69
557.98	44175.27
558.15	44299.32
558.32	44371.88
558.48	43924.83
558.65	44378.90
558.81	44493.58
558.98	44149.53
559.14	44308.68
559.31	44320.38
559.47	44435.07
559.64	44458.48
559.80	44076.97
559.97	44879.77
560.13	44201.02
560.30	44734.66
560.46	45160.64
560.63	45031.91
560.79	44451.45
560.96	44861.05
561.12	44772.11
561.29	44556.78
561.45	44774.45
561.61	44877.43
561.78	44615.29
561.94	44713.59
562.11	44816.58
562.27	44463.16
562.44	45015.52
562.60	45198.09
562.77	45038.93
562.93	44713.59
563.10	45525.76
563.26	45202.77
563.42	45148.93
563.59	44348.47
563.75	44940.63
563.92	45132.55
564.08	45052.97
564.24	45113.83
564.41	45118.51
564.57	45022.54
564.74	45064.67
564.90	45137.23
565.07	45193.40
565.23	45230.85
565.39	45036.59
565.56	45301.07
565.72	45425.12
565.88	45352.56
566.05	45394.69
566.21	45457.88
566.38	44886.79
566.54	45134.89
566.70	45471.93
566.87	45357.24
567.03	45272.98
567.19	45497.67
567.36	45249.58
567.52	45434.48
567.68	45944.72
567.85	45198.09
568.01	45937.69
568.17	45649.81
568.34	45427.46
568.50	45673.21
568.66	45282.34
568.83	45584.27
568.99	45492.99
569.15	45375.97
569.32	45729.39
569.48	45815.99
569.64	45717.68
569.81	45900.25
569.97	45574.91
570.13	45715.34
570.30	45588.95
570.46	45703.64
570.62	45717.68
570.78	45460.23
570.95	45743.43
571.11	45837.05
571.27	45432.14
571.43	45823.01
571.60	45553.85
571.76	45748.11
571.92	46197.49
572.09	45834.71
572.25	45647.47
572.41	45865.14
572.57	46024.29
572.74	46216.22
572.90	45603.00
573.06	46218.56
573.22	46113.23
573.38	46103.87
573.55	45769.18
573.71	46272.39
573.87	45778.54
574.03	46277.07
574.20	46038.34
574.36	45766.84
574.52	46375.37
574.68	45848.75
574.84	46309.84
575.01	45996.21
575.17	46164.73
575.33	45858.12
575.49	45808.96
575.65	46096.85
575.82	46176.43
575.98	45691.94
576.14	45916.63
576.30	46068.76
576.46	45799.60
576.62	45820.67
576.79	45993.87
576.95	45834.71
577.11	45993.87
577.27	46106.21
577.43	46052.38
577.59	46134.30
577.75	45872.16
577.92	45998.55
578.08	45858.12
578.24	45942.38
578.40	46199.83
578.56	46738.16
578.72	46557.94
578.88	46192.81
579.04	46286.43
579.21	46457.29
579.37	46454.95
579.53	46312.18
579.69	46244.30
579.85	46026.63
580.01	46541.55
580.17	46087.49
580.33	46403.46
580.49	46007.91
580.65	46078.13
580.82	46295.80
580.98	46120.26
581.14	45710.66
581.30	46476.02
581.46	46410.48
581.62	46213.88
581.78	46047.70
581.94	46490.06
582.10	46286.43
582.26	46513.47
582.42	46349.63
582.58	46476.02
582.74	46129.62
582.90	45949.40
583.06	46777.95
583.22	45799.60
583.38	46155.36
583.54	46520.49
583.70	46588.36
583.86	46497.08
584.02	46529.85
584.18	46588.36
584.34	46546.23
584.50	46485.38
584.66	46422.19
584.82	46178.77
584.98	46705.39
585.14	46595.38
585.30	46064.08
585.46	46354.31
585.62	46305.16
585.78	46349.63
585.94	46117.92
586.10	46408.14
586.26	46305.16
586.42	46691.35
586.58	46579.00
586.74	46569.64
586.90	46546.23
587.06	46712.41
587.22	46958.17
587.38	45982.16
587.54	46878.59
587.70	46979.23
587.86	46815.40
588.02	46532.19
588.18	46288.77
588.34	46740.50
588.49	46471.34
588.65	46211.54
588.81	46630.49
588.97	46859.87
589.13	46520.49
589.29	46904.34
589.45	46880.93
589.61	46728.80
589.77	46876.25
589.93	46583.68
590.08	46541.55
