SpectraSuite Data File
++++++++++++++++++++++++++++++++++++
Date: Fri Oct 25 11:23:53 EDT 2013
User: price-jones
Dark Spectrum Present: No
Reference Spectrum Present: No
Number of Sampled Component Spectra: 1
Spectrometers: USB2+H05261
Integration Time (usec): 100000 (USB2+H05261)
Spectra Averaged: 1 (USB2+H05261)
Boxcar Smoothing: 0 (USB2+H05261)
Correct for Electrical Dark: No (USB2+H05261)
Strobe/Lamp Enabled: No (USB2+H05261)
Correct for Detector Non-linearity: No (USB2+H05261)
Correct for Stray Light: No (USB2+H05261)
Number of Pixels in Processed Spectrum: 2048
>>>>>Begin Processed Spectral Data<<<<<
365.73	231.71
365.92	231.71
366.12	231.71
366.32	121.71
366.52	60.85
366.72	180.22
366.91	84.26
367.11	147.45
367.31	170.86
367.51	79.58
367.70	159.16
367.90	142.77
368.10	53.83
368.30	72.56
368.49	149.79
368.69	147.45
368.89	126.39
369.09	86.60
369.28	187.24
369.48	210.65
369.68	149.79
369.87	210.65
370.07	145.11
370.27	182.56
370.47	341.72
370.66	573.43
370.86	657.69
371.06	582.79
371.25	737.27
371.45	638.97
371.65	744.29
371.84	608.54
372.04	610.88
372.24	753.65
372.44	660.03
372.63	751.31
372.83	802.80
373.03	777.06
373.22	748.97
373.42	669.39
373.62	814.51
373.81	805.14
374.01	873.02
374.21	767.70
374.40	737.27
374.60	840.25
374.79	798.12
374.99	816.85
375.19	828.55
375.38	891.74
375.58	819.19
375.78	861.32
375.97	837.91
376.17	947.92
376.37	809.83
376.56	898.77
376.76	868.34
376.95	866.00
377.15	863.66
377.35	814.51
377.54	947.92
377.74	929.19
377.93	868.34
378.13	940.90
378.33	1006.43
378.52	905.79
378.72	903.45
378.91	964.30
379.11	936.21
379.31	947.92
379.50	877.70
379.70	922.17
379.89	936.21
380.09	924.51
380.28	945.58
380.48	994.73
380.68	983.02
380.87	898.77
381.07	917.49
381.26	1006.43
381.46	1013.45
381.65	1036.86
381.85	1064.94
382.04	1036.86
382.24	1064.94
382.43	1039.20
382.63	1027.50
382.83	1102.39
383.02	1104.73
383.22	1078.99
383.41	1118.78
383.61	1118.78
383.80	1224.10
384.00	1111.75
384.19	1163.25
384.39	1144.52
384.58	1107.07
384.78	1125.80
384.97	1118.78
385.17	1188.99
385.36	1188.99
385.56	1186.65
385.75	1170.27
385.95	1163.25
386.14	1186.65
386.34	1212.40
386.53	1174.95
386.72	1153.88
386.92	1186.65
387.11	1270.91
387.31	1306.02
387.50	1198.35
387.70	1280.27
387.89	1327.08
388.09	1240.48
388.28	1263.89
388.48	1259.21
388.67	1310.70
388.86	1327.08
389.06	1181.97
389.25	1355.17
389.45	1334.11
389.64	1345.81
389.84	1334.11
390.03	1327.08
390.22	1348.15
390.42	1369.21
390.61	1320.06
390.81	1352.83
391.00	1448.79
391.19	1437.09
391.39	1500.28
391.58	1460.49
391.78	1533.05
391.97	1413.68
392.16	1558.80
392.36	1589.22
392.55	1549.43
392.75	1530.71
392.94	1497.94
393.13	1533.05
393.33	1514.33
393.52	1647.74
393.71	1640.72
393.91	1561.14
394.10	1556.46
394.29	1476.88
394.49	1610.29
394.68	1593.90
394.88	1689.87
395.07	1671.14
395.26	1753.06
395.46	1680.50
395.65	1617.31
395.84	1743.70
396.04	1818.60
396.23	1614.97
396.42	1701.57
396.62	1708.59
396.81	1736.68
397.00	1746.04
397.19	1788.17
397.39	1760.08
397.58	1788.17
397.77	1844.34
397.97	1809.23
398.16	1823.28
398.35	1933.28
398.55	1898.17
398.74	1912.22
398.93	1907.54
399.12	1933.28
399.32	1923.92
399.51	1952.01
399.70	1891.15
399.90	1980.09
400.09	2026.90
400.28	2087.76
400.47	2036.27
400.67	2017.54
400.86	2031.58
401.05	2031.58
401.24	2022.22
401.44	2092.44
401.63	2209.47
401.82	2106.48
402.01	2176.70
402.21	2057.33
402.40	2160.31
402.59	2160.31
402.78	2139.25
402.97	2403.73
403.17	2300.75
403.36	2349.90
403.55	2324.15
403.74	2403.73
403.93	2307.77
404.13	2354.58
404.32	2253.94
404.51	2333.51
404.70	2464.58
404.89	2492.67
405.09	2469.27
405.28	2469.27
405.47	2537.14
405.66	2422.45
405.85	2443.52
406.05	2558.21
406.24	2499.69
406.43	2572.25
406.62	2700.98
406.81	2649.49
407.00	2691.62
407.20	2647.15
407.39	2642.46
407.58	2656.51
407.77	2640.12
407.96	2754.81
408.15	2752.47
408.34	2656.51
408.54	2663.53
408.73	2897.58
408.92	2890.56
409.11	2953.76
409.30	2810.98
409.49	2820.35
409.68	2963.12
409.87	2953.76
410.07	2998.23
410.26	2977.16
410.45	2986.52
410.64	2970.14
410.83	3005.25
411.02	3030.99
411.21	3157.38
411.40	3150.36
411.59	3204.19
411.78	3232.28
411.98	3314.20
412.17	3307.18
412.36	3323.56
412.55	3262.71
412.74	3412.50
412.93	3391.44
413.12	3440.59
413.31	3674.64
413.50	3562.30
413.69	3447.61
413.88	3531.87
414.07	3613.79
414.26	3592.72
414.45	3716.77
414.64	3714.43
414.83	3693.37
415.02	3789.33
415.22	3932.10
415.41	4035.08
415.60	3861.88
415.79	3936.78
415.98	3819.75
416.17	3983.59
416.36	4007.00
416.55	4028.06
416.74	4081.89
416.93	4011.68
417.12	4004.66
417.31	4046.79
417.50	4091.26
417.69	4372.12
417.88	4404.89
418.07	4208.28
418.26	4348.72
418.45	4266.80
418.64	4503.19
418.83	4374.46
419.02	4491.49
419.21	4542.98
419.39	4510.21
419.58	4475.10
419.77	4519.57
419.96	4545.32
420.15	4470.42
420.34	4582.77
420.53	4660.01
420.72	4844.91
420.91	4774.69
421.10	4634.26
421.29	4779.37
421.48	4968.96
421.67	4798.10
421.86	4737.24
422.05	4861.29
422.24	4781.71
422.43	4863.63
422.61	4875.34
422.80	4732.56
422.99	4835.55
423.18	5018.11
423.37	5184.29
423.56	4849.59
423.75	4823.84
423.94	4842.57
424.13	4606.17
424.32	4734.90
424.50	4985.34
424.69	5256.84
424.88	5158.54
425.07	5029.81
425.26	5137.48
425.45	4938.53
425.64	4961.94
425.83	5060.24
426.01	5107.05
426.20	4950.23
426.39	4985.34
426.58	5303.65
426.77	5130.45
426.96	5249.82
427.15	5109.39
427.33	5224.08
427.52	5224.08
427.71	5305.99
427.90	5305.99
428.09	5366.85
428.28	5273.23
428.46	5434.72
428.65	5420.68
428.84	5495.58
429.03	5586.86
429.22	5343.44
429.40	5341.10
429.59	5579.84
429.78	5270.89
429.97	5371.53
430.16	5526.00
430.34	5682.82
430.53	5685.16
430.72	5617.29
430.91	5633.67
431.10	5694.52
431.28	5743.67
431.47	5832.62
431.66	5799.85
431.85	5905.17
432.03	5996.45
432.22	5916.87
432.41	5930.92
432.60	5926.24
432.79	6057.31
432.97	6024.54
433.16	6251.57
433.35	6019.86
433.54	6005.81
433.72	6256.25
433.91	6193.06
434.10	6167.31
434.28	6237.53
434.47	6127.52
434.66	6506.69
434.85	6286.68
435.03	6291.36
435.22	6298.38
435.41	6389.66
435.59	6590.95
435.78	6544.14
435.97	6516.05
436.16	6443.49
436.34	6487.96
436.53	6326.47
436.72	6579.25
436.90	6471.58
437.09	6658.82
437.28	6375.62
437.46	6583.93
437.65	6558.18
437.84	6862.45
438.02	6801.60
438.21	6579.25
438.40	6787.55
438.58	7005.22
438.77	7047.35
438.96	6881.18
439.14	7021.61
439.33	7005.22
439.52	7187.79
439.70	7330.56
439.89	7321.20
440.08	7325.88
440.26	7552.91
440.45	7332.90
440.63	7618.44
440.82	7517.80
441.01	7672.28
441.19	7679.30
441.38	7927.39
441.57	7552.91
441.75	7976.55
441.94	7985.91
442.12	7960.16
442.31	7838.45
442.50	8088.89
442.68	7957.82
442.87	8168.47
443.05	8348.69
443.24	8322.94
443.43	8009.31
443.61	8234.00
443.80	8580.40
443.98	8035.06
444.17	7976.55
444.35	8360.39
444.54	8411.89
444.73	8416.57
444.91	8407.20
445.10	8423.59
445.28	8313.58
445.47	8297.20
445.65	8196.56
445.84	8547.64
446.02	8498.49
446.21	8418.91
446.39	8425.93
446.58	8465.72
446.77	8320.60
446.95	8449.33
447.14	8397.84
447.32	8650.62
447.51	8496.14
447.69	8596.79
447.88	8561.68
448.06	8421.25
448.25	8531.25
448.43	8652.96
448.62	8617.85
448.80	8676.37
448.99	8592.11
449.17	8641.26
449.36	8685.73
449.54	9034.47
449.73	9011.06
449.91	9114.05
450.10	8926.80
450.28	9071.92
450.46	9100.00
450.65	9100.00
450.83	9043.83
451.02	9034.47
451.20	9090.64
451.39	9022.77
451.57	9231.07
451.76	8926.80
451.94	9231.07
452.13	9345.76
452.31	9231.07
452.49	9317.67
452.68	9275.54
452.86	9217.03
453.05	9518.96
453.23	9654.71
453.42	9373.85
453.60	9238.09
453.78	9673.43
453.97	9345.76
454.15	9495.55
454.34	9430.02
454.52	9790.46
454.70	9633.64
454.89	9654.71
455.07	9799.82
455.26	10134.52
455.44	9884.08
455.62	9860.68
455.81	9823.23
455.99	9980.04
456.17	10083.03
456.36	10157.92
456.54	10108.77
456.73	10293.68
456.91	10651.78
457.09	10504.32
457.28	10679.86
457.46	10415.38
457.64	10621.35
457.83	10516.03
458.01	10373.25
458.19	10743.06
458.38	10490.28
458.56	10815.62
458.74	10810.93
458.93	10902.22
459.11	10820.30
459.29	10780.51
459.48	10883.49
459.66	11075.42
459.84	11197.12
460.03	10972.43
460.21	10974.77
460.39	10832.00
460.57	10785.19
460.76	11147.97
460.94	11342.24
461.12	11257.98
461.31	11052.01
461.49	11384.37
461.67	11199.46
461.85	11569.27
462.04	11220.53
462.22	11660.55
462.40	11550.54
462.59	11410.11
462.77	11522.46
462.95	11618.42
463.13	11630.12
463.32	11445.22
463.50	11782.26
463.68	11606.72
463.86	11999.93
464.05	11658.21
464.23	11669.91
464.41	11861.84
464.59	11800.98
464.78	12262.07
464.96	12131.00
465.14	11960.14
465.32	12187.17
465.50	12259.73
465.69	12180.15
465.87	12156.74
466.05	12116.95
466.23	12381.43
466.41	12327.60
466.60	12585.06
466.78	12006.95
466.96	12383.77
467.14	12425.90
467.32	12346.33
467.51	12606.13
467.69	12126.32
467.87	12634.21
468.05	12905.71
468.23	12428.24
468.41	12512.50
468.60	12833.16
468.78	12982.95
468.96	12748.90
469.14	12767.62
469.32	13078.91
469.50	12692.73
469.69	12992.31
469.87	13425.31
470.05	13362.12
470.23	13383.18
470.41	13142.11
470.59	13198.28
470.77	13294.24
470.95	13245.09
471.14	13579.79
471.32	13280.20
471.50	13556.38
471.68	13675.75
471.86	13671.07
472.04	13804.48
472.22	14136.84
472.40	13745.97
472.58	13825.54
472.77	13799.80
472.95	14242.16
473.13	14668.14
473.31	14141.52
473.49	14597.92
473.67	14174.28
473.85	14614.30
474.03	14691.54
474.21	14717.29
474.39	15066.03
474.57	14752.40
474.75	14831.97
474.93	14843.68
475.12	14890.49
475.30	15103.48
475.48	15009.86
475.66	15367.96
475.84	15314.13
476.02	15421.79
476.20	15487.32
476.38	15922.66
476.56	16173.10
476.74	16072.46
476.92	15962.45
477.10	15836.06
477.28	16294.81
477.46	16397.79
477.64	16358.00
477.82	16662.27
478.00	17109.32
478.18	16971.22
478.36	17132.72
478.54	17139.74
478.72	17062.51
478.90	17481.46
479.08	17444.01
479.26	17862.97
479.44	17724.88
479.62	17944.89
479.80	17872.33
479.98	18211.71
480.16	18506.62
480.34	18625.98
480.52	18703.22
480.70	18911.53
480.88	18579.17
481.06	18745.35
481.24	18843.65
481.41	19073.03
481.59	19363.25
481.77	19679.22
481.95	19569.22
482.13	19632.41
482.31	19929.66
482.49	20175.42
482.67	20372.02
482.85	20414.15
483.03	20542.88
483.21	21034.39
483.39	21186.53
483.57	21008.65
483.74	21249.72
483.92	21474.42
484.10	21249.72
484.28	21907.41
484.46	21984.65
484.64	22569.79
484.82	21759.96
485.00	22293.60
485.18	22820.22
485.35	22845.97
485.53	22862.35
485.71	23304.71
485.89	23396.00
486.07	23285.99
486.25	23339.82
486.43	23587.92
486.61	23960.06
486.78	24046.66
486.96	24311.14
487.14	24685.63
487.32	24388.38
487.50	24919.68
487.68	25071.82
487.85	25301.19
488.03	25399.49
488.21	26073.57
488.39	26195.28
488.57	26450.39
488.75	26075.91
488.92	26574.44
489.10	26752.32
489.28	26885.73
489.46	27384.27
489.64	27007.44
489.81	27190.00
489.99	27953.02
490.17	27693.22
490.35	28166.01
490.53	28273.67
490.70	28706.67
490.88	28046.64
491.06	29071.79
491.24	28933.70
491.41	29205.20
491.59	29387.77
491.77	29387.77
491.95	29631.18
492.13	29926.09
492.30	30199.93
492.48	30260.79
492.66	30333.34
492.84	30265.47
493.01	30621.23
493.19	30576.76
493.37	31295.30
493.54	31189.98
493.72	31875.76
493.90	31655.75
494.08	32086.40
494.25	32002.14
494.43	31999.80
494.61	32304.07
494.79	32666.86
494.96	32704.31
495.14	32790.91
495.32	33104.54
495.49	33446.26
495.67	33043.68
495.85	33727.12
496.02	34078.20
496.20	34108.63
496.38	34073.52
496.55	34405.88
496.73	34953.56
496.91	35096.33
497.09	35068.25
497.26	35086.97
497.44	34939.52
497.62	35379.54
497.79	35770.41
497.97	35667.42
498.14	36065.31
498.32	36142.55
498.50	36598.96
498.67	36634.06
498.85	36526.40
499.03	36685.56
499.20	37139.62
499.38	37158.34
499.56	37151.32
499.73	37303.46
499.91	37158.34
500.08	37558.58
500.26	37624.11
500.44	37851.14
500.61	38384.79
500.79	37909.66
500.97	38490.11
501.14	38663.31
501.32	38321.59
501.49	38754.59
501.67	38955.88
501.84	39433.35
502.02	39096.31
502.20	39311.64
502.37	39379.51
502.55	39108.01
502.72	39519.95
502.90	39894.43
503.07	39674.42
503.25	40346.15
503.43	39892.09
503.60	40458.50
503.78	40264.24
503.95	40690.21
504.13	40645.74
504.30	40713.62
504.48	40879.80
504.65	40905.54
504.83	40865.75
505.01	41411.10
505.18	41361.95
505.36	41560.89
505.53	41385.35
505.71	41684.94
505.88	41792.61
506.06	41556.21
506.23	41933.04
506.41	42003.25
506.58	41928.36
506.76	42263.05
506.93	42553.28
507.11	42349.65
507.28	42309.86
507.46	43267.14
507.63	42958.19
507.81	43302.25
507.98	43035.43
508.16	43337.36
508.33	43419.28
508.50	43257.78
508.68	43803.13
508.85	44069.95
509.03	43899.09
509.20	44072.29
509.38	44725.30
509.55	44540.39
509.73	44336.77
509.90	45017.86
510.08	45134.89
510.25	44854.03
510.42	45134.89
510.60	45015.52
510.77	45563.21
510.95	45478.95
511.12	45869.82
511.30	45457.88
511.47	45633.42
511.64	45265.96
511.82	46347.29
511.99	45628.74
512.17	46134.30
512.34	45638.11
512.51	46391.76
512.69	46672.62
512.86	46527.51
513.04	46773.27
513.21	46483.04
513.38	47098.60
513.56	47082.22
513.73	46817.74
513.90	47206.26
514.08	47157.11
514.25	47264.78
514.43	47632.24
514.60	47313.93
514.77	47543.30
514.95	47723.52
515.12	47973.96
515.29	47337.33
515.47	48615.27
515.64	48079.28
515.81	48086.31
515.99	48402.28
516.16	48570.80
516.33	48570.80
516.51	48762.72
516.68	48446.75
516.85	48830.60
517.03	49064.65
517.20	48999.12
517.37	49106.78
517.54	48828.26
517.72	49420.41
517.89	49198.06
518.06	49467.22
518.24	49631.06
518.41	49504.67
518.58	49415.73
518.75	49279.98
518.93	49822.98
519.10	49387.64
519.27	49830.01
519.45	49890.86
519.62	50110.87
519.79	50260.66
519.96	50108.53
520.14	50272.37
520.31	50616.43
520.48	50363.65
520.65	50429.18
520.83	50717.07
521.00	51004.95
521.17	50810.69
521.34	50866.86
521.52	50822.39
521.69	50637.49
521.86	51161.77
522.03	51194.54
522.20	51192.20
522.38	51854.57
522.55	51611.15
522.72	51435.61
522.89	51379.44
523.07	51447.32
523.24	51756.27
523.41	51824.14
523.58	51409.87
523.75	52072.24
523.92	51770.31
524.10	52093.30
524.27	52289.91
524.44	52121.39
524.61	51971.60
524.78	52481.83
524.96	52364.81
525.13	52303.95
525.30	52472.47
525.47	52598.86
525.64	52811.85
525.81	52699.50
525.98	52676.10
526.16	52470.13
526.33	52561.41
526.50	53034.20
526.67	52835.25
526.84	52830.57
527.01	53139.52
527.18	53013.13
527.36	53076.33
527.53	53441.45
527.70	53312.72
527.87	53567.84
528.04	53427.41
528.21	53352.51
528.38	53649.76
528.55	53862.75
528.72	53675.51
528.89	53497.62
529.07	53546.78
529.24	53932.96
529.41	53743.38
529.58	53654.44
529.75	53719.98
529.92	53829.98
530.09	53947.01
530.26	54080.42
530.43	54073.40
530.60	53815.94
530.77	53975.09
530.94	54398.73
531.11	54136.59
531.28	54419.80
531.46	54213.83
531.63	54192.76
531.80	54356.60
531.97	54614.06
532.14	54412.77
532.31	54468.95
532.48	54775.56
532.65	54787.26
532.82	54667.89
532.99	54969.82
533.16	54728.75
533.33	55007.27
533.50	55128.98
533.67	55100.89
533.84	54777.90
534.01	54852.80
534.18	55152.38
534.35	55332.60
534.52	55309.20
534.69	55248.35
534.86	55353.67
535.03	55138.34
535.20	55072.81
535.37	55402.82
535.54	55639.22
535.71	55473.04
535.88	55571.34
536.05	55510.49
536.22	55629.85
536.38	55529.21
536.55	55629.85
536.72	55697.73
536.89	55889.65
537.06	55880.29
537.23	55884.97
537.40	55786.67
537.57	55592.40
537.74	56055.83
537.91	56123.71
538.08	55957.53
538.25	55842.84
538.42	56163.50
538.59	56149.45
538.75	56018.38
538.92	56151.79
539.09	56453.72
539.26	56383.51
539.43	56083.92
539.60	56348.40
539.77	56261.80
539.94	56699.48
540.11	56664.37
540.28	56554.36
540.44	56580.11
540.61	56348.40
540.78	56573.09
540.95	56598.83
541.12	56364.78
541.29	56446.70
541.46	56671.39
541.62	56804.80
541.79	56956.94
541.96	56491.17
542.13	56640.96
542.30	56662.03
542.47	57010.77
542.63	56992.04
542.80	57008.43
542.97	57106.73
543.14	57361.85
543.31	57532.71
543.48	57382.91
543.64	57586.54
543.81	57453.13
543.98	57488.24
544.15	57511.64
544.32	57633.35
544.48	57872.09
544.65	57450.79
544.82	57635.69
544.99	57230.78
545.16	57694.21
545.32	57523.35
545.49	57621.65
545.66	57755.06
545.83	57741.02
546.00	57776.12
546.16	57570.16
546.33	57860.38
546.50	57551.43
546.67	57860.38
546.83	57670.80
547.00	57752.72
547.17	57883.79
547.34	57895.49
547.50	57993.79
547.67	58288.70
547.84	58103.80
548.00	58131.89
548.17	58291.04
548.34	58258.27
548.51	58557.86
548.67	58204.44
548.84	58108.48
549.01	58148.27
549.18	58192.74
549.34	58279.34
549.51	58443.18
549.68	58438.50
549.84	58557.86
550.01	58499.35
550.18	58492.33
550.34	58599.99
550.51	58452.54
550.68	58628.08
550.84	58307.43
551.01	58660.85
551.18	58780.21
551.34	58681.91
551.51	58745.11
551.68	58761.49
551.84	58733.40
552.01	58361.26
552.18	58892.56
552.34	58796.60
552.51	58880.86
552.68	58738.08
552.84	58705.32
553.01	59042.35
553.18	58960.44
553.34	59220.23
553.51	58674.89
553.67	58777.87
553.84	59234.28
554.01	59107.89
554.17	59016.61
554.34	59072.78
554.51	59124.27
554.67	59107.89
554.84	59032.99
555.00	59037.67
555.17	58841.07
555.33	59096.19
555.50	59171.08
555.67	59103.21
555.83	58878.52
556.00	59238.96
556.16	59524.50
556.33	59454.29
556.50	59269.39
556.66	59419.18
556.83	59281.09
556.99	59447.27
557.16	59662.60
557.32	59494.08
557.49	59810.05
557.65	59578.34
557.82	59660.26
557.98	59255.34
558.15	59454.29
558.32	59515.14
558.48	59671.96
558.65	59592.38
558.81	59688.34
558.98	59681.32
559.14	59697.70
559.31	59683.66
559.47	59774.94
559.64	59704.73
559.80	59681.32
559.97	59746.86
560.13	59770.26
560.30	59714.09
560.46	59758.56
560.63	59980.91
560.79	59735.15
560.96	60006.65
561.12	59812.39
561.29	59997.29
561.45	59948.14
561.61	59742.17
561.78	59906.01
561.94	59882.61
562.11	60039.42
562.27	59964.52
562.44	60207.94
562.60	60163.47
562.77	60266.45
562.93	59922.40
563.10	60186.88
563.26	59791.33
563.42	60243.05
563.59	60030.06
563.75	59985.59
563.92	60154.11
564.08	60168.15
564.24	60217.30
564.41	60317.95
564.57	60257.09
564.74	60135.38
564.90	60449.02
565.07	60219.64
565.23	60343.69
565.39	60219.64
565.56	60266.45
565.72	60299.22
565.88	60477.10
566.05	60308.58
566.21	60229.01
566.38	60371.78
566.54	60491.15
566.70	60444.33
566.87	60390.50
567.03	60219.64
567.19	60474.76
567.36	60224.32
567.52	60362.42
567.68	60561.36
567.85	60458.38
568.01	60427.95
568.17	60275.82
568.34	60587.11
568.50	60495.83
568.66	60392.84
568.83	60472.42
568.99	60425.61
569.15	60596.47
569.32	60456.04
569.48	60652.64
569.64	60584.77
569.81	60687.75
569.97	60449.02
570.13	60458.38
570.30	60348.37
570.46	60584.77
570.62	60715.84
570.78	60411.57
570.95	60486.46
571.11	60914.78
571.27	60626.90
571.43	60706.47
571.60	60800.10
571.76	60720.52
571.92	60687.75
572.09	60793.07
572.25	60917.12
572.41	60512.21
572.57	60907.76
572.74	60867.97
572.90	60715.84
573.06	60750.94
573.22	60519.23
573.38	60779.03
573.55	60559.02
573.71	60989.68
573.87	60814.14
574.03	60528.59
574.20	60619.88
574.36	60762.65
574.52	60741.58
574.68	60856.27
574.84	60860.95
575.01	60776.69
575.17	60729.88
575.33	60694.77
575.49	60650.30
575.65	60818.82
575.82	60877.33
575.98	61017.77
576.14	61102.03
576.30	60886.70
576.46	61059.90
576.62	61001.38
576.79	60762.65
576.95	60727.54
577.11	60856.27
577.27	60891.38
577.43	60867.97
577.59	60605.83
577.75	60893.72
577.92	60764.99
578.08	60832.86
578.24	60877.33
578.40	61050.53
578.56	61043.51
578.72	60867.97
578.88	61029.47
579.04	61153.52
579.21	61085.64
579.37	60956.91
579.53	61134.79
579.69	60842.23
579.85	60966.27
580.01	61155.86
580.17	60797.76
580.33	61123.09
580.49	61242.46
580.65	60996.70
580.82	60942.87
580.98	60947.55
581.14	60966.27
581.30	61003.72
581.46	60905.42
581.62	60919.46
581.78	61153.52
581.94	60952.23
582.10	61006.06
582.26	61008.40
582.42	60830.52
582.58	61095.00
582.74	61087.98
582.90	60963.93
583.06	60879.67
583.22	60889.04
583.38	61076.28
583.54	61020.11
583.70	61024.79
583.86	61078.62
584.02	60907.76
584.18	61258.84
584.34	60959.25
584.50	61078.62
584.66	61066.92
584.82	60931.17
584.98	61141.81
585.14	61092.66
585.30	61031.81
585.46	61183.94
585.62	60996.70
585.78	61130.11
585.94	61020.11
586.10	61265.86
586.26	61132.45
586.42	61083.30
586.58	61319.70
586.74	60977.98
586.90	61172.24
587.06	61137.13
587.22	61240.12
587.38	61230.75
587.54	61373.53
587.70	61268.20
587.86	61284.59
588.02	61071.60
588.18	61359.48
588.34	60996.70
588.49	61104.37
