SpectraSuite Data File
++++++++++++++++++++++++++++++++++++
Date: Fri Oct 25 11:26:14 EDT 2013
User: price-jones
Dark Spectrum Present: No
Reference Spectrum Present: No
Number of Sampled Component Spectra: 1
Spectrometers: USB2+H05261
Integration Time (usec): 100000 (USB2+H05261)
Spectra Averaged: 1 (USB2+H05261)
Boxcar Smoothing: 0 (USB2+H05261)
Correct for Electrical Dark: No (USB2+H05261)
Strobe/Lamp Enabled: No (USB2+H05261)
Correct for Detector Non-linearity: No (USB2+H05261)
Correct for Stray Light: No (USB2+H05261)
Number of Pixels in Processed Spectrum: 2048
>>>>>Begin Processed Spectral Data<<<<<
365.73	224.69
365.92	224.69
366.12	224.69
366.32	60.85
366.52	147.45
366.72	182.56
366.91	145.11
367.11	184.90
367.31	142.77
367.51	121.71
367.70	102.98
367.90	135.75
368.10	147.45
368.30	159.16
368.49	124.05
368.69	159.16
368.89	131.07
369.09	205.97
369.28	198.95
369.48	166.18
369.68	222.35
369.87	252.78
370.07	262.14
370.27	259.80
370.47	339.38
370.66	582.79
370.86	685.78
371.06	678.76
371.25	695.14
371.45	645.99
371.65	711.52
371.84	685.78
372.04	685.78
372.24	739.61
372.44	734.93
372.63	685.78
372.83	866.00
373.03	770.04
373.22	791.10
373.42	781.74
373.62	713.86
373.81	842.59
374.01	763.01
374.21	765.36
374.40	861.32
374.60	856.64
374.79	772.38
374.99	746.63
375.19	929.19
375.38	833.23
375.58	866.00
375.78	814.51
375.97	828.55
376.17	802.80
376.37	807.48
376.56	842.59
376.76	866.00
376.95	866.00
377.15	922.17
377.35	936.21
377.54	945.58
377.74	959.62
377.93	954.94
378.13	966.64
378.33	924.51
378.52	847.27
378.72	877.70
378.91	1022.81
379.11	926.85
379.31	973.66
379.50	978.34
379.70	940.90
379.89	964.30
380.09	947.92
380.28	971.32
380.48	1004.09
380.68	931.53
380.87	1109.41
381.07	1015.79
381.26	964.30
381.46	1071.97
381.65	1050.90
381.85	1078.99
382.04	1006.43
382.24	1088.35
382.43	1046.22
382.63	1076.65
382.83	997.07
383.02	1167.93
383.22	1088.35
383.41	1088.35
383.61	1121.12
383.80	1172.61
384.00	1111.75
384.19	1114.10
384.39	1240.48
384.58	1256.87
384.78	1179.63
384.97	1149.20
385.17	1097.71
385.36	1174.95
385.56	1083.67
385.75	1123.46
385.95	1184.31
386.14	1181.97
386.34	1203.04
386.53	1179.63
386.72	1188.99
386.92	1296.66
387.11	1338.79
387.31	1299.00
387.50	1198.35
387.70	1217.08
387.89	1284.95
388.09	1203.04
388.28	1301.34
388.48	1226.44
388.67	1324.74
388.86	1303.68
389.06	1282.61
389.25	1343.47
389.45	1291.98
389.64	1282.61
389.84	1362.19
390.03	1275.59
390.22	1411.34
390.42	1434.75
390.61	1380.92
390.81	1352.83
391.00	1401.98
391.19	1544.75
391.39	1441.77
391.58	1472.20
391.78	1519.01
391.97	1430.07
392.16	1439.43
392.36	1479.22
392.55	1474.54
392.75	1591.56
392.94	1479.22
393.13	1490.92
393.33	1420.71
393.52	1474.54
393.71	1535.39
393.91	1547.09
394.10	1605.61
394.29	1558.80
394.49	1703.91
394.68	1664.12
394.88	1565.82
395.07	1729.66
395.26	1629.01
395.46	1713.27
395.65	1629.01
395.84	1746.04
396.04	1832.64
396.23	1666.46
396.42	1668.80
396.62	1799.87
396.81	1771.79
397.00	1771.79
397.19	1881.79
397.39	1727.32
397.58	1846.68
397.77	1785.83
397.97	1872.43
398.16	1921.58
398.35	1891.15
398.55	1867.75
398.74	1921.58
398.93	1916.90
399.12	1928.60
399.32	1905.20
399.51	1825.62
399.70	2080.74
399.90	1994.14
400.09	1947.33
400.28	1982.43
400.47	1942.64
400.67	2050.31
400.86	1940.30
401.05	1959.03
401.24	1963.71
401.44	2153.29
401.63	2136.91
401.82	2228.19
402.01	2101.80
402.21	2071.37
402.40	2094.78
402.59	2092.44
402.78	2167.34
402.97	2223.51
403.17	2242.23
403.36	2235.21
403.55	2169.68
403.74	2277.34
403.93	2406.07
404.13	2260.96
404.32	2352.24
404.51	2340.54
404.70	2457.56
404.89	2466.92
405.09	2572.25
405.28	2363.94
405.47	2495.01
405.66	2464.58
405.85	2462.24
406.05	2504.37
406.24	2546.50
406.43	2565.23
406.62	2558.21
406.81	2497.35
407.00	2626.08
407.20	2649.49
407.39	2602.68
407.58	2771.19
407.77	2799.28
407.96	2761.83
408.15	2750.13
408.34	2745.45
408.54	2726.72
408.73	2885.88
408.92	2792.26
409.11	2897.58
409.30	2850.77
409.49	2862.48
409.68	2906.95
409.87	2862.48
410.07	3030.99
410.26	3021.63
410.45	2981.84
410.64	3038.02
410.83	3141.00
411.02	3059.08
411.21	3035.67
411.40	3082.49
411.59	3304.84
411.78	3215.90
411.98	3269.73
412.17	3248.66
412.36	3260.37
412.55	3262.71
412.74	3330.58
412.93	3372.71
413.12	3365.69
413.31	3522.51
413.50	3424.20
413.69	3510.80
413.88	3536.55
414.07	3538.89
414.26	3571.66
414.45	3721.45
414.64	3627.83
414.83	3655.92
415.02	3782.31
415.22	3838.48
415.41	3791.67
415.60	3794.01
415.79	3751.88
415.98	3857.20
416.17	3934.44
416.36	3864.22
416.55	3976.57
416.74	3988.27
416.93	3981.25
417.12	4198.92
417.31	4067.85
417.50	4140.41
417.69	4278.50
417.88	4402.55
418.07	4301.90
418.26	4170.83
418.45	4201.26
418.64	4381.48
418.83	4348.72
419.02	4472.76
419.21	4601.49
419.39	4428.29
419.58	4470.42
419.77	4339.35
419.96	4493.83
420.15	4706.82
420.34	4608.51
420.53	4575.75
420.72	4585.11
420.91	4585.11
421.10	4777.03
421.29	4798.10
421.48	4477.44
421.67	4585.11
421.86	4674.05
422.05	4954.91
422.24	4807.46
422.43	4861.29
422.61	5008.75
422.80	4901.08
422.99	4884.70
423.18	4912.78
423.37	4882.36
423.56	4947.89
423.75	4945.55
423.94	4669.37
424.13	4648.30
424.32	4760.65
424.50	4917.47
424.69	5022.79
424.88	4961.94
425.07	4964.28
425.26	4875.34
425.45	5076.62
425.64	4854.27
425.83	4898.74
426.01	5041.51
426.20	5027.47
426.39	5060.24
426.58	5181.95
426.77	4987.68
426.96	5039.17
427.15	5179.61
427.33	5118.75
427.52	5210.03
427.71	5198.33
427.90	5193.65
428.09	5362.17
428.28	5324.72
428.46	5191.31
428.65	5188.97
428.84	5530.69
429.03	5394.93
429.22	5329.40
429.40	5408.98
429.59	5336.42
429.78	5324.72
429.97	5270.89
430.16	5554.09
430.34	5650.05
430.53	5727.29
430.72	5731.97
430.91	5675.80
431.10	5659.42
431.28	5774.10
431.47	5764.74
431.66	5689.84
431.85	5799.85
432.03	5781.12
432.22	5781.12
432.41	5933.26
432.60	5928.58
432.79	5937.94
432.97	6017.52
433.16	5987.09
433.35	5989.43
433.54	6031.56
433.72	6125.18
433.91	6015.18
434.10	6157.95
434.28	6181.35
434.47	6064.33
434.66	6263.27
434.85	6228.17
435.03	6361.58
435.22	6174.33
435.41	6499.67
435.59	6312.42
435.78	6420.09
435.97	6352.21
436.16	6487.96
436.34	6530.09
436.53	6555.84
436.72	6532.44
436.90	6544.14
437.09	6813.30
437.28	6511.37
437.46	6619.04
437.65	6621.38
437.84	6773.51
438.02	6612.01
438.21	6810.96
438.40	6558.18
438.58	6864.79
438.77	7002.88
438.96	6871.81
439.14	7157.36
439.33	7148.00
439.52	7152.68
439.70	7382.05
439.89	7227.57
440.08	7176.08
440.26	7365.67
440.45	7478.01
440.63	7274.38
440.82	7501.42
441.01	7676.96
441.19	7683.98
441.38	7700.36
441.57	7536.52
441.75	7733.13
441.94	7920.37
442.12	7936.76
442.31	7985.91
442.50	7995.27
442.68	7953.14
442.87	7971.86
443.05	8140.38
443.24	8009.31
443.43	8098.25
443.61	8177.83
443.80	8498.49
443.98	8119.32
444.17	7698.02
444.35	8287.84
444.54	8327.63
444.73	8245.71
444.91	8163.79
445.10	8395.50
445.28	8393.16
445.47	8226.98
445.65	8379.12
445.84	8381.46
446.02	8437.63
446.21	8201.24
446.39	8456.36
446.58	8393.16
446.77	8472.74
446.95	8182.51
447.14	8222.30
447.32	8549.98
447.51	8442.31
447.69	8397.84
447.88	8592.11
448.06	8498.49
448.25	8374.44
448.43	8557.00
448.62	8557.00
448.80	8489.12
448.99	8587.43
449.17	8711.47
449.36	8472.74
449.54	8641.26
449.73	8978.30
449.91	9001.70
450.10	9057.87
450.28	8879.99
450.46	8884.67
450.65	8987.66
450.83	8872.97
451.02	9144.47
451.20	9144.47
451.39	9188.94
451.57	9114.05
451.76	8994.68
451.94	9130.43
452.13	9352.78
452.31	9401.93
452.49	8982.98
452.68	9291.93
452.86	9195.96
453.05	9324.69
453.23	9329.38
453.42	9198.31
453.60	9329.38
453.78	9467.47
453.97	9362.14
454.15	9530.66
454.34	9373.85
454.52	9607.90
454.70	9568.11
454.89	9741.31
455.07	9797.48
455.26	10015.15
455.44	9813.87
455.62	9760.03
455.81	9895.78
455.99	10050.26
456.17	9987.07
456.36	10033.88
456.54	10106.43
456.73	10228.14
456.91	10321.76
457.09	10410.70
457.28	10635.39
457.46	10223.46
457.64	10448.15
457.83	10684.55
458.01	10546.45
458.19	10813.28
458.38	10450.49
458.56	10506.66
458.74	10621.35
458.93	10752.42
459.11	10640.08
459.29	10707.95
459.48	10750.08
459.66	10714.97
459.84	10754.76
460.03	10862.43
460.21	10801.57
460.39	10794.55
460.57	10946.69
460.76	11061.37
460.94	11129.25
461.12	11023.92
461.31	10951.37
461.49	11389.05
461.67	11154.99
461.85	11417.13
462.04	11538.84
462.22	11690.98
462.40	11585.65
462.59	11342.24
462.77	11723.74
462.95	11363.30
463.13	11396.07
463.32	11573.95
463.50	11683.95
463.68	11721.40
463.86	11896.94
464.05	11702.68
464.23	11735.45
464.41	11850.13
464.59	11442.88
464.78	11889.92
464.96	11768.21
465.14	11644.17
465.32	12037.38
465.50	12002.27
465.69	12088.87
465.87	12119.29
466.05	11812.68
466.23	12020.99
466.41	12175.47
466.60	12283.13
466.78	12180.15
466.96	12142.70
467.14	12149.72
467.32	12189.51
467.51	12650.60
467.69	12105.25
467.87	12257.39
468.05	12580.38
468.23	12184.83
468.41	12343.99
468.60	12662.30
468.78	12685.70
468.96	12498.46
469.14	12657.62
469.32	12676.34
469.50	12734.85
469.69	12851.88
469.87	12924.44
470.05	12950.18
470.23	12919.76
470.41	13071.89
470.59	13362.12
470.77	12947.84
470.95	13109.34
471.14	13394.89
471.32	13036.78
471.50	13537.66
471.68	13544.68
471.86	13769.37
472.04	13561.06
472.22	13884.06
472.40	13720.22
472.58	13741.29
472.77	13893.42
472.95	14139.18
473.13	14647.07
473.31	13785.76
473.49	13891.08
473.67	13928.53
473.85	14195.35
474.03	14394.29
474.21	14499.62
474.39	14602.60
474.57	14768.78
474.75	14768.78
474.93	15059.01
475.12	14771.12
475.30	14944.32
475.48	15037.94
475.66	14995.81
475.84	15115.18
476.02	15417.11
476.20	15225.18
476.38	15548.18
476.56	15831.38
476.74	15693.29
476.92	15777.55
477.10	15632.44
477.28	16065.44
477.46	15927.35
477.64	16030.33
477.82	16437.58
478.00	16872.92
478.18	16697.38
478.36	16690.36
478.54	16994.63
478.72	17027.40
478.90	17479.12
479.08	17085.91
479.26	17806.80
479.44	17682.75
479.62	17673.39
479.80	17972.97
479.98	17965.95
480.16	18569.81
480.34	18054.89
480.52	18492.57
480.70	18487.89
480.88	18288.95
481.06	18452.78
481.24	18895.14
481.41	19124.52
481.59	19058.98
481.77	19601.99
481.95	19503.68
482.13	19740.08
482.31	19829.02
482.49	20180.10
482.67	20381.38
482.85	20217.55
483.03	20592.03
483.21	20774.60
483.39	20959.50
483.57	20837.79
483.74	20772.25
483.92	20903.32
484.10	21074.18
484.28	21390.16
484.46	21750.60
484.64	22171.89
484.82	21647.61
485.00	21624.21
485.18	22546.38
485.35	22663.41
485.53	22377.86
485.71	23082.36
485.89	23372.59
486.07	23159.60
486.25	23012.15
486.43	23349.18
486.61	23241.52
486.78	24231.57
486.96	23983.47
487.14	24432.85
487.32	24524.13
487.50	24844.79
487.68	24779.25
487.85	25144.38
488.03	25633.55
488.21	25600.78
488.39	25841.85
488.57	26059.52
488.75	26218.68
488.92	26459.76
489.10	26279.54
489.28	26391.88
489.46	27002.76
489.64	26834.24
489.81	27445.12
489.99	27611.30
490.17	27194.68
490.35	27784.50
490.53	27875.78
490.70	27985.79
490.88	28002.17
491.06	28713.69
491.24	28582.62
491.41	29097.54
491.59	28804.97
491.77	29144.35
491.95	29472.03
492.13	29820.77
492.30	29563.31
492.48	30073.54
492.66	29867.58
492.84	30246.74
493.01	30492.50
493.19	30272.49
493.37	30831.88
493.54	30888.05
493.72	31168.91
493.90	31171.25
494.08	31452.12
494.25	31632.34
494.43	31592.55
494.61	32360.25
494.79	32170.66
494.96	32177.68
495.14	32697.28
495.32	32884.53
495.49	32863.46
495.67	32704.31
495.85	33542.22
496.02	33443.91
496.20	33919.04
496.38	33876.91
496.55	34007.98
496.73	34548.65
496.91	34054.79
497.09	34508.86
497.26	34801.43
497.44	34618.86
497.62	35058.88
497.79	35501.25
497.97	35129.10
498.14	35803.17
498.32	35826.58
498.50	35847.64
498.67	36222.13
498.85	36222.13
499.03	36376.61
499.20	36746.41
499.38	36657.47
499.56	36868.12
499.73	37013.23
499.91	37046.00
500.08	37148.98
500.26	37319.84
500.44	37462.61
500.61	37315.16
500.79	37518.79
500.97	38005.62
501.14	38274.78
501.32	37933.06
501.49	38312.23
501.67	38389.47
501.84	39356.11
502.02	38649.27
502.20	38761.61
502.37	38941.83
502.55	38827.15
502.72	39136.10
502.90	38988.64
503.07	39423.98
503.25	39782.09
503.43	39533.99
503.60	39892.09
503.78	39700.17
503.95	40121.46
504.13	39754.00
504.30	40603.61
504.48	40596.59
504.65	40762.77
504.83	40467.86
505.01	41146.62
505.18	40882.14
505.36	41261.30
505.53	40875.12
505.71	41413.44
505.88	41263.64
506.06	41574.94
506.23	41340.88
506.41	41057.68
506.58	41806.65
506.76	42092.19
506.93	42387.10
507.11	42064.11
507.28	42403.49
507.46	42522.85
507.63	42394.12
507.81	42845.85
507.98	42801.38
508.16	43159.48
508.33	43533.96
508.50	43339.70
508.68	43150.12
508.85	43667.37
509.03	43353.74
509.20	44030.16
509.38	44013.77
509.55	44060.58
509.73	43936.54
509.90	44023.14
510.08	44301.66
510.25	44966.37
510.42	44488.90
510.60	44582.52
510.77	45003.82
510.95	45497.67
511.12	45230.85
511.30	44886.79
511.47	45422.78
511.64	45113.83
511.82	45741.09
511.99	45359.58
512.17	45619.38
512.34	45378.31
512.51	45991.53
512.69	46068.76
512.86	46281.75
513.04	46312.18
513.21	46469.00
513.38	46527.51
513.56	46707.73
513.73	46831.78
513.90	46632.83
514.08	46258.35
514.25	46909.02
514.43	47515.22
514.60	47351.38
514.77	47009.66
514.95	47489.47
515.12	47173.50
515.29	47587.77
515.47	47374.78
515.64	47847.57
515.81	47433.30
515.99	47763.31
516.16	48130.78
516.33	48477.18
516.51	48219.72
516.68	48332.06
516.85	48271.21
517.03	48463.13
517.20	48697.19
517.37	48236.10
517.54	48828.26
517.72	48409.30
517.89	48821.23
518.06	48807.19
518.24	49265.94
518.41	49195.72
518.58	48959.33
518.75	49298.70
518.93	49553.82
519.10	49256.57
519.27	49244.87
519.45	49584.25
519.62	49598.29
519.79	49801.92
519.96	49862.77
520.14	50040.65
520.31	49918.95
520.48	50010.23
520.65	50138.96
520.83	50471.31
521.00	50309.82
521.17	50506.42
521.34	50237.26
521.52	50710.05
521.69	50426.84
521.86	50777.92
522.03	51023.68
522.20	50724.09
522.38	51374.76
522.55	51009.64
522.72	51061.13
522.89	51407.53
523.07	51332.63
523.24	51332.63
523.41	51426.25
523.58	51079.85
523.75	51517.53
523.92	51449.66
524.10	51730.52
524.27	51997.34
524.44	51737.54
524.61	51856.91
524.78	51894.36
524.96	51875.63
525.13	52149.48
525.30	52172.88
525.47	52371.83
525.64	52346.08
525.81	52041.81
525.98	52472.47
526.16	52458.43
526.33	52392.89
526.50	52753.33
526.67	52369.49
526.84	52692.48
527.01	52650.35
527.18	52556.73
527.36	52846.96
527.53	52931.22
527.70	53336.13
527.87	53312.72
528.04	52797.80
528.21	53010.79
528.38	53270.59
528.55	53205.06
528.72	53553.80
528.89	52882.06
529.07	53202.72
529.24	53546.78
529.41	53743.38
529.58	53485.92
529.75	53483.58
529.92	53495.28
530.09	53563.16
530.26	53607.63
530.43	53902.54
530.60	53448.47
530.77	53635.72
530.94	54068.72
531.11	53858.07
531.28	54047.65
531.46	53968.07
531.63	54017.22
531.80	54141.27
531.97	54024.25
532.14	54169.36
532.31	54188.08
532.48	54113.19
532.65	54433.84
532.82	54328.52
532.99	54726.41
533.16	54262.98
533.33	54485.33
533.50	54752.15
533.67	54693.64
533.84	54745.13
534.01	54789.60
534.18	54485.33
534.35	54820.03
534.52	54717.04
534.69	55100.89
534.86	54876.20
535.03	54616.40
535.20	55056.42
535.37	55309.20
535.54	55021.31
535.71	54967.48
535.88	55344.31
536.05	55119.62
536.22	55304.52
536.38	55299.84
536.55	55320.90
536.72	55491.76
536.89	55079.83
537.06	55451.97
537.23	55501.12
537.40	55426.23
537.57	55767.94
537.74	55440.27
537.91	55774.97
538.08	55756.24
538.25	55538.57
538.42	55849.86
538.59	55957.53
538.75	55650.92
538.92	55903.70
539.09	55936.46
539.26	55929.44
539.43	55980.93
539.60	55983.27
539.77	56112.00
539.94	56193.92
540.11	56128.39
540.28	56207.97
540.44	56107.32
540.61	56292.22
540.78	56076.90
540.95	56456.06
541.12	56172.86
541.29	56226.69
541.46	56549.68
541.62	56439.68
541.79	56416.27
541.96	56397.55
542.13	56727.56
542.30	56484.15
542.47	56692.46
542.63	56722.88
542.80	56886.72
542.97	56947.57
543.14	57062.26
543.31	57048.22
543.48	57066.94
543.64	57212.06
543.81	57169.93
543.98	57151.20
544.15	56994.39
544.32	57303.34
544.48	57324.40
544.65	57048.22
544.82	57396.96
544.99	57226.10
545.16	57244.82
545.32	57350.15
545.49	57467.17
545.66	57577.18
545.83	57535.05
546.00	57588.88
546.16	57504.62
546.33	57275.25
546.50	57116.09
546.67	57268.23
546.83	57188.65
547.00	57483.56
547.17	57453.13
547.34	57626.33
547.50	57748.04
547.67	57836.98
547.84	57790.17
548.00	57935.28
548.17	57921.24
548.34	57939.96
548.51	58176.36
548.67	57869.75
548.84	57820.59
549.01	57860.38
549.18	57954.00
549.34	58085.07
549.51	58223.17
549.68	58284.02
549.84	58134.23
550.01	58244.23
550.18	57939.96
550.34	58120.18
550.51	58337.85
550.68	58265.30
550.84	58056.99
551.01	58450.20
551.18	58300.40
551.34	58136.57
551.51	58347.21
551.68	58614.04
551.84	58342.53
552.01	58478.28
552.18	58628.08
552.34	58398.71
552.51	58632.76
552.68	58190.40
552.84	58595.31
553.01	58440.84
553.18	58770.85
553.34	58761.49
553.51	58731.06
553.67	58738.08
553.84	58536.80
554.01	58869.15
554.17	58787.24
554.34	58953.41
554.51	58784.90
554.67	58885.54
554.84	58756.81
555.00	58714.68
555.17	58798.94
555.33	58850.43
555.50	58939.37
555.67	58794.26
555.83	59011.93
556.00	58988.52
556.16	59269.39
556.33	59213.21
556.50	59040.01
556.66	59175.76
556.83	59086.82
556.99	59309.18
557.16	59468.33
557.32	59320.88
557.49	59540.89
557.65	59152.36
557.82	59180.45
557.98	59323.22
558.15	59224.92
558.32	59229.60
558.48	59365.35
558.65	59334.92
558.81	59220.23
558.98	59529.19
559.14	59412.16
559.31	59437.90
559.47	59552.59
559.64	59697.70
559.80	59437.90
559.97	59597.06
560.13	59419.18
560.30	59461.31
560.46	59419.18
560.63	59758.56
560.79	59489.40
560.96	59664.94
561.12	59784.30
561.29	59590.04
561.45	59744.51
561.61	59585.36
561.78	59664.94
561.94	59737.49
562.11	59781.96
562.27	59845.16
562.44	59952.82
562.60	60053.47
562.77	59803.03
562.93	59688.34
563.10	59929.42
563.26	59636.85
563.42	60154.11
563.59	59781.96
563.75	59873.24
563.92	59828.77
564.08	59805.37
564.24	60027.72
564.41	59788.98
564.57	60037.08
564.74	59983.25
564.90	59978.57
565.07	59985.59
565.23	60149.43
565.39	59964.52
565.56	60067.51
565.72	60018.36
565.88	60065.17
566.05	59964.52
566.21	59744.51
566.38	60182.19
566.54	60083.89
566.70	60280.50
566.87	60229.01
567.03	60034.74
567.19	60252.41
567.36	60072.19
567.52	60095.60
567.68	60446.68
567.85	60158.79
568.01	60116.66
568.17	60224.32
568.34	60432.63
568.50	60266.45
568.66	60177.51
568.83	60463.06
568.99	59983.25
569.15	60142.41
569.32	60046.44
569.48	60147.09
569.64	60196.24
569.81	60437.31
569.97	60388.16
570.13	60214.96
570.30	60133.04
570.46	60367.10
570.62	60355.39
570.78	60226.66
570.95	60095.60
571.11	60474.76
571.27	60280.50
571.43	60313.26
571.60	60402.21
571.76	60456.04
571.92	60591.79
572.09	60350.71
572.25	60156.45
572.41	60170.49
572.57	60303.90
572.74	60678.39
572.90	60552.00
573.06	60507.53
573.22	60413.91
573.38	60458.38
573.55	60427.95
573.71	60748.60
573.87	60575.40
574.03	60367.10
574.20	60439.65
574.36	60629.24
574.52	60537.96
574.68	60559.02
574.84	60580.09
575.01	60441.99
575.17	60535.62
575.33	60694.77
575.49	60444.33
575.65	60580.09
575.82	60650.30
575.98	60582.43
576.14	60699.45
576.30	60617.53
576.46	60376.46
576.62	60498.17
576.79	60486.46
576.95	60444.33
577.11	60640.94
577.27	60844.57
577.43	60720.52
577.59	60617.53
577.75	60760.31
577.92	60516.89
578.08	60727.54
578.24	60596.47
578.40	60640.94
578.56	60839.89
578.72	60624.56
578.88	60736.90
579.04	60903.08
579.21	60729.88
579.37	60807.12
579.53	60718.18
579.69	60608.17
579.85	60622.22
580.01	60647.96
580.17	60566.04
580.33	60755.63
580.49	60851.59
580.65	60795.42
580.82	60870.31
580.98	60594.13
581.14	60788.39
581.30	60797.76
581.46	60631.58
581.62	60842.23
581.78	60687.75
581.94	60781.37
582.10	60786.05
582.26	60753.29
582.42	60708.82
582.58	60772.01
582.74	60767.33
582.90	60832.86
583.06	60704.13
583.22	60568.38
583.38	60757.97
583.54	60715.84
583.70	60807.12
583.86	60828.18
584.02	60690.09
584.18	60804.78
584.34	60928.83
584.50	60846.91
584.66	60846.91
584.82	60594.13
584.98	61029.47
585.14	61013.08
585.30	60999.04
585.46	60959.25
585.62	60800.10
585.78	60882.02
585.94	60530.93
586.10	60797.76
586.26	60900.74
586.42	60898.40
586.58	60980.32
586.74	60823.50
586.90	60931.17
587.06	60788.39
587.22	60900.74
587.38	60846.91
587.54	61024.79
587.70	60975.64
587.86	60900.74
588.02	60989.68
588.18	60898.40
588.34	60886.70
588.49	60973.30
