SpectraSuite Data File
++++++++++++++++++++++++++++++++++++
Date: Fri Oct 25 11:25:55 EDT 2013
User: price-jones
Dark Spectrum Present: No
Reference Spectrum Present: No
Number of Sampled Component Spectra: 1
Spectrometers: USB2+H05261
Integration Time (usec): 100000 (USB2+H05261)
Spectra Averaged: 1 (USB2+H05261)
Boxcar Smoothing: 0 (USB2+H05261)
Correct for Electrical Dark: No (USB2+H05261)
Strobe/Lamp Enabled: No (USB2+H05261)
Correct for Detector Non-linearity: No (USB2+H05261)
Correct for Stray Light: No (USB2+H05261)
Number of Pixels in Processed Spectrum: 2048
>>>>>Begin Processed Spectral Data<<<<<
365.73	231.71
365.92	231.71
366.12	231.71
366.32	95.96
366.52	154.48
366.72	133.41
366.91	149.79
367.11	138.09
367.31	180.22
367.51	107.66
367.70	168.52
367.90	175.54
368.10	142.77
368.30	180.22
368.49	170.86
368.69	147.45
368.89	180.22
369.09	177.88
369.28	220.01
369.48	149.79
369.68	124.05
369.87	191.92
370.07	224.69
370.27	236.39
370.47	351.08
370.66	543.00
370.86	601.52
371.06	695.14
371.25	730.25
371.45	655.35
371.65	786.42
371.84	641.31
372.04	594.50
372.24	706.84
372.44	688.12
372.63	784.08
372.83	805.14
373.03	725.57
373.22	711.52
373.42	772.38
373.62	699.82
373.81	798.12
374.01	800.46
374.21	837.91
374.40	807.48
374.60	961.96
374.79	758.33
374.99	816.85
375.19	842.59
375.38	898.77
375.58	858.98
375.78	826.21
375.97	809.83
376.17	854.30
376.37	933.87
376.56	863.66
376.76	851.96
376.95	889.40
377.15	917.49
377.35	844.93
377.54	940.90
377.74	943.24
377.93	868.34
378.13	959.62
378.33	947.92
378.52	915.15
378.72	943.24
378.91	973.66
379.11	924.51
379.31	959.62
379.50	987.71
379.70	940.90
379.89	952.60
380.09	924.51
380.28	961.96
380.48	929.19
380.68	924.51
380.87	943.24
381.07	971.32
381.26	1001.75
381.46	997.07
381.65	1086.01
381.85	940.90
382.04	1004.09
382.24	1039.20
382.43	1062.60
382.63	1071.97
382.83	1093.03
383.02	1144.52
383.22	1008.77
383.41	1076.65
383.61	1139.84
383.80	1139.84
384.00	1100.05
384.19	1053.24
384.39	1088.35
384.58	1163.25
384.78	1083.67
384.97	1179.63
385.17	1170.27
385.36	1181.97
385.56	1132.82
385.75	1156.22
385.95	1144.52
386.14	1259.21
386.34	1308.36
386.53	1151.54
386.72	1111.75
386.92	1219.42
387.11	1289.64
387.31	1184.31
387.50	1334.11
387.70	1296.66
387.89	1221.76
388.09	1287.29
388.28	1299.00
388.48	1301.34
388.67	1362.19
388.86	1338.79
389.06	1303.68
389.25	1373.89
389.45	1203.04
389.64	1411.34
389.84	1409.00
390.03	1343.47
390.22	1366.87
390.42	1427.73
390.61	1310.70
390.81	1409.00
391.00	1355.17
391.19	1453.47
391.39	1322.40
391.58	1385.60
391.78	1511.99
391.97	1455.81
392.16	1439.43
392.36	1511.99
392.55	1486.24
392.75	1542.41
392.94	1460.49
393.13	1568.16
393.33	1495.60
393.52	1481.56
393.71	1621.99
393.91	1561.14
394.10	1586.88
394.29	1617.31
394.49	1689.87
394.68	1605.61
394.88	1659.44
395.07	1701.57
395.26	1701.57
395.46	1736.68
395.65	1699.23
395.84	1741.36
396.04	1792.85
396.23	1724.97
396.42	1729.66
396.62	1654.76
396.81	1797.53
397.00	1809.23
397.19	1633.69
397.39	1839.66
397.58	1839.66
397.77	1774.13
397.97	1881.79
398.16	1867.75
398.35	1799.87
398.55	1818.60
398.74	1905.20
398.93	1846.68
399.12	1940.30
399.32	1942.64
399.51	1916.90
399.70	2038.61
399.90	1952.01
400.09	1907.54
400.28	1966.05
400.47	2008.18
400.67	2031.58
400.86	2172.02
401.05	1982.43
401.24	2122.87
401.44	2136.91
401.63	2122.87
401.82	2118.18
402.01	2211.81
402.21	2139.25
402.40	2251.60
402.59	2207.13
402.78	2267.98
402.97	2246.91
403.17	2193.08
403.36	2345.22
403.55	2258.62
403.74	2324.15
403.93	2380.32
404.13	2406.07
404.32	2335.85
404.51	2392.03
404.70	2394.37
404.89	2429.48
405.09	2485.65
405.28	2443.52
405.47	2464.58
405.66	2401.39
405.85	2558.21
406.05	2504.37
406.24	2495.01
406.43	2473.95
406.62	2600.34
406.81	2593.31
407.00	2576.93
407.20	2574.59
407.39	2555.86
407.58	2698.64
407.77	2738.43
407.96	2818.00
408.15	2647.15
408.34	2733.75
408.54	2750.13
408.73	2874.18
408.92	2787.58
409.11	2916.31
409.30	2937.37
409.49	2874.18
409.68	2853.11
409.87	3002.91
410.07	3145.68
410.26	2979.50
410.45	2963.12
410.64	3103.55
410.83	3133.98
411.02	3094.19
411.21	3276.75
411.40	3089.51
411.59	3178.45
411.78	3164.40
411.98	3180.79
412.17	3150.36
412.36	3351.65
412.55	3274.41
412.74	3382.07
412.93	3346.97
413.12	3251.00
413.31	3339.94
413.50	3538.89
413.69	3562.30
413.88	3653.58
414.07	3637.19
414.26	3686.34
414.45	3627.83
414.64	3700.39
414.83	3705.07
415.02	3730.81
415.22	3838.48
415.41	3831.46
415.60	3782.31
415.79	3789.33
415.98	3894.65
416.17	3922.74
416.36	4004.66
416.55	3882.95
416.74	3932.10
416.93	3946.14
417.12	4070.19
417.31	4124.02
417.50	4231.69
417.69	4271.48
417.88	4238.71
418.07	4285.52
418.26	4299.56
418.45	4351.06
418.64	4533.62
418.83	4472.76
419.02	4360.42
419.21	4367.44
419.39	4496.17
419.58	4344.03
419.77	4470.42
419.96	4580.43
420.15	4631.92
420.34	4636.60
420.53	4580.43
420.72	4664.69
420.91	4802.78
421.10	4706.82
421.29	4779.37
421.48	4739.58
421.67	4690.43
421.86	4709.16
422.05	4781.71
422.24	4741.93
422.43	5078.96
422.61	4889.38
422.80	4762.99
422.99	4854.27
423.18	4894.06
423.37	5032.15
423.56	4903.42
423.75	4865.97
423.94	4842.57
424.13	4575.75
424.32	4720.86
424.50	5027.47
424.69	5158.54
424.88	5055.56
425.07	4833.21
425.26	4873.00
425.45	4931.51
425.64	4999.38
425.83	4858.95
426.01	5111.73
426.20	4999.38
426.39	5118.75
426.58	5090.67
426.77	5088.32
426.96	5060.24
427.15	4987.68
427.33	5289.61
427.52	5146.84
427.71	5153.86
427.90	5100.03
428.09	5317.70
428.28	5338.76
428.46	5313.02
428.65	5291.95
428.84	5507.28
429.03	5577.50
429.22	5348.12
429.40	5591.54
429.59	5448.77
429.78	5200.67
429.97	5093.01
430.16	5511.96
430.34	5502.60
430.53	5495.58
430.72	5668.78
430.91	5617.29
431.10	5605.58
431.28	5589.20
431.47	5827.93
431.66	5926.24
431.85	5736.65
432.03	6005.81
432.22	5977.73
432.41	6094.76
432.60	5858.36
432.79	5849.00
432.97	5839.64
433.16	5891.13
433.35	5973.05
433.54	6069.01
433.72	6040.92
433.91	6045.60
434.10	6143.91
434.28	5973.05
434.47	6036.24
434.66	6054.97
434.85	6160.29
435.03	6260.93
435.22	6202.42
435.41	6373.28
435.59	6420.09
435.78	6464.56
435.97	6443.49
436.16	6270.30
436.34	6450.52
436.53	6459.88
436.72	6497.33
436.90	6555.84
437.09	6537.12
437.28	6480.94
437.46	6626.06
437.65	6558.18
437.84	6717.34
438.02	6628.40
438.21	6682.23
438.40	6569.88
438.58	6808.62
438.77	7129.27
438.96	6876.49
439.14	7009.90
439.33	7136.29
439.52	7098.84
439.70	7222.89
439.89	7363.33
440.08	7449.93
440.26	7307.15
440.45	7424.18
440.63	7337.58
440.82	7499.08
441.01	7454.61
441.19	7700.36
441.38	7705.04
441.57	7906.33
441.75	7660.57
441.94	8081.87
442.12	8058.46
442.31	8039.74
442.50	7967.18
442.68	7946.12
442.87	8042.08
443.05	7955.48
443.24	8018.68
443.43	8189.53
443.61	8306.56
443.80	8456.36
443.98	7964.84
444.17	7784.62
444.35	8119.32
444.54	8468.06
444.73	8081.87
444.91	8276.13
445.10	8269.11
445.28	8374.44
445.47	8334.65
445.65	8264.43
445.84	8304.22
446.02	8468.06
446.21	8589.77
446.39	8451.67
446.58	8351.03
446.77	8482.10
446.95	8264.43
447.14	8435.29
447.32	8568.70
447.51	8482.10
447.69	8299.54
447.88	8517.21
448.06	8552.32
448.25	8524.23
448.43	8568.70
448.62	8498.49
448.80	8559.34
448.99	8439.97
449.17	8615.51
449.36	8652.96
449.54	8643.60
449.73	8802.75
449.91	8945.53
450.10	8961.91
450.28	8908.08
450.46	8959.57
450.65	8887.01
450.83	9170.22
451.02	9057.87
451.20	9139.79
451.39	9097.66
451.57	9043.83
451.76	9071.92
451.94	9069.58
452.13	9362.14
452.31	9378.53
452.49	9212.35
452.68	9202.99
452.86	9261.50
453.05	9469.81
453.23	9549.39
453.42	9312.99
453.60	9369.16
453.78	9509.60
453.97	9291.93
454.15	9521.30
454.34	9528.32
454.52	9500.23
454.70	9600.88
454.89	9643.01
455.07	9647.69
455.26	9837.27
455.44	9722.59
455.62	9839.61
455.81	9713.22
455.99	9914.51
456.17	9884.08
456.36	10153.24
456.54	9991.75
456.73	10279.63
456.91	10312.40
457.09	10345.17
457.28	10656.46
457.46	10099.41
457.64	10611.99
457.83	10399.00
458.01	10258.57
458.19	10726.68
458.38	10569.86
458.56	10651.78
458.74	10520.71
458.93	10623.69
459.11	10574.54
459.29	10654.12
459.48	10714.97
459.66	10649.44
459.84	10848.38
460.03	10942.00
460.21	11094.14
460.39	11014.56
460.57	10874.13
460.76	10939.66
460.94	11157.33
461.12	11012.22
461.31	11087.12
461.49	11126.91
461.67	10960.73
461.85	11351.60
462.04	11159.67
462.22	11845.45
462.40	11485.01
462.59	11335.21
462.77	11487.35
462.95	11592.67
463.13	11571.61
463.32	11438.20
463.50	11606.72
463.68	11733.11
463.86	11632.46
464.05	11648.85
464.23	11658.21
464.41	12030.35
464.59	11707.36
464.78	12145.04
464.96	11730.76
465.14	11861.84
465.32	12135.68
465.50	12217.60
465.69	12037.38
465.87	12084.19
466.05	12147.38
466.23	12023.33
466.41	11922.69
466.60	12332.28
466.78	11990.56
466.96	12142.70
467.14	12107.59
467.32	12533.57
467.51	12430.59
467.69	12262.07
467.87	12283.13
468.05	12606.13
468.23	12339.30
468.41	12360.37
468.60	12470.37
468.78	12910.40
468.96	12414.20
469.14	12531.23
469.32	12842.52
469.50	12622.51
469.69	12713.79
469.87	13027.42
470.05	13015.72
470.23	13092.96
470.41	12917.42
470.59	13289.56
470.77	13085.94
470.95	13329.35
471.14	13523.62
471.32	13083.59
471.50	13586.81
471.68	13472.12
471.86	13528.30
472.04	13816.18
472.22	13947.25
472.40	13554.04
472.58	13940.23
472.77	13912.14
472.95	13963.64
473.13	14253.86
473.31	14094.71
473.49	14237.48
473.67	14160.24
473.85	14157.90
474.03	14574.52
474.21	14654.09
474.39	14731.33
474.57	14778.14
474.75	15044.96
474.93	15037.94
475.12	14864.74
475.30	15051.99
475.48	14860.06
475.66	15101.14
475.84	15112.84
476.02	15377.32
476.20	15253.27
476.38	15660.52
476.56	16009.26
476.74	15672.23
476.92	15831.38
477.10	15763.51
477.28	16189.49
477.46	16116.93
477.64	16383.75
477.82	16306.51
478.00	16982.93
478.18	16528.86
478.36	16486.73
478.54	16994.63
478.72	16774.62
478.90	17312.94
479.08	17294.22
479.26	17420.61
479.44	17638.28
479.62	18104.04
479.80	18078.30
479.98	18073.62
480.16	18485.55
480.34	18122.77
480.52	18455.12
480.70	18761.73
480.88	18368.52
481.06	18773.44
481.24	18724.29
481.41	18682.16
481.59	19033.24
481.77	19431.13
481.95	19541.13
482.13	19620.71
482.31	19693.27
482.49	20006.90
482.67	20276.06
482.85	20336.91
483.03	20116.90
483.21	20814.38
483.39	21015.67
483.57	20844.81
483.74	21039.08
483.92	21151.42
484.10	21053.12
484.28	21390.16
484.46	22040.82
484.64	22094.66
484.82	22169.55
485.00	22427.01
485.18	22822.56
485.35	22848.31
485.53	22775.75
485.71	22803.84
485.89	23618.35
486.07	23311.74
486.25	23264.92
486.43	23487.28
486.61	24023.26
486.78	24081.77
486.96	23922.62
487.14	24582.65
487.32	24400.08
487.50	24582.65
487.68	24884.58
487.85	25085.86
488.03	25394.81
488.21	25759.94
488.39	25282.47
488.57	25771.64
488.75	25998.67
488.92	26036.12
489.10	26466.78
489.28	26778.07
489.46	27077.66
489.64	26607.21
489.81	27620.66
489.99	27365.54
490.17	27618.32
490.35	27772.80
490.53	27938.97
490.70	27957.70
490.88	28154.30
491.06	29015.62
491.24	28652.84
491.41	28837.74
491.59	29083.50
491.77	29095.20
491.95	29259.04
492.13	29912.05
492.30	29603.10
492.48	30146.10
492.66	30361.43
492.84	30237.38
493.01	30422.28
493.19	30785.07
493.37	31061.25
493.54	30981.67
493.72	31328.07
493.90	31274.24
494.08	31590.21
494.25	32121.51
494.43	31789.16
494.61	32332.16
494.79	31922.57
494.96	32385.99
495.14	32811.97
495.32	33235.61
495.49	32643.45
495.67	32837.72
495.85	33261.35
496.02	33483.70
496.20	33799.68
496.38	33787.97
496.55	34122.67
496.73	34785.04
496.91	34831.85
497.09	34668.02
497.26	34712.49
497.44	34651.63
497.62	35028.46
497.79	35688.49
497.97	35201.66
498.14	35957.65
498.32	36266.60
498.50	35704.87
498.67	36196.38
498.85	35833.60
499.03	36395.33
499.20	36605.98
499.38	36755.77
499.56	36435.12
499.73	37137.28
499.91	37158.34
500.08	37352.61
500.26	37237.92
500.44	37394.74
500.61	37514.11
500.79	37179.41
500.97	37916.68
501.14	38036.05
501.32	38759.27
501.49	38602.46
501.67	38389.47
501.84	38904.38
502.02	38520.54
502.20	39028.43
502.37	39040.14
502.55	39271.85
502.72	39229.72
502.90	39100.99
503.07	39325.68
503.25	39613.57
503.43	39328.02
503.60	39835.92
503.78	40098.06
503.95	40308.71
504.13	40680.85
504.30	40294.66
504.48	40163.59
504.65	40385.94
504.83	40907.88
505.01	41406.42
505.18	41048.32
505.36	41024.91
505.53	40762.77
505.71	41188.75
505.88	41682.60
506.06	40982.78
506.23	41425.14
506.41	41399.40
506.58	41745.80
506.76	41755.16
506.93	42174.11
507.11	42349.65
507.28	42642.22
507.46	42307.52
507.63	43014.37
507.81	42600.09
507.98	42546.26
508.16	42990.96
508.33	43543.33
508.50	43323.32
508.68	43658.01
508.85	43742.27
509.03	43662.69
509.20	44098.03
509.38	43650.99
509.55	44039.52
509.73	44339.11
509.90	44746.36
510.08	44203.36
510.25	44540.39
510.42	44397.62
510.60	44783.81
510.77	45127.87
510.95	45478.95
511.12	45015.52
511.30	45109.14
511.47	45179.36
511.64	45242.56
511.82	45874.50
511.99	45303.41
512.17	45825.35
512.34	45729.39
512.51	46197.49
512.69	46218.56
512.86	46209.20
513.04	46466.66
513.21	46469.00
513.38	46387.08
513.56	46579.00
513.73	46195.15
513.90	47061.15
514.08	46869.23
514.25	46590.70
514.43	47110.30
514.60	46890.29
514.77	47325.63
514.95	47606.50
515.12	47351.38
515.29	47585.43
515.47	47386.49
515.64	47655.65
515.81	48264.19
515.99	48423.34
516.16	48083.97
516.33	48797.83
516.51	48273.55
516.68	47955.24
516.85	48287.59
517.03	48727.61
517.20	48772.08
517.37	48942.94
517.54	48516.96
517.72	48816.55
517.89	49050.61
518.06	48942.94
518.24	48924.22
518.41	49188.70
518.58	49226.15
518.75	49106.78
518.93	49139.55
519.10	49462.54
519.27	49605.31
519.45	49296.36
519.62	49574.89
519.79	49944.69
519.96	49818.30
520.14	49764.47
520.31	49879.16
520.48	50026.61
520.65	50188.11
520.83	50454.93
521.00	50602.38
521.17	50326.20
521.34	50471.31
521.52	51131.34
521.69	51126.66
521.86	50745.15
522.03	50532.17
522.20	51161.77
522.38	51100.92
522.55	51414.55
522.72	51224.96
522.89	51229.65
523.07	51487.10
523.24	51381.78
523.41	51285.82
523.58	51072.83
523.75	51648.60
523.92	51533.92
524.10	51739.88
524.27	51800.74
524.44	52126.07
524.61	51845.21
524.78	52100.32
524.96	52062.88
525.13	52112.03
525.30	52100.32
525.47	52121.39
525.64	52119.05
525.81	52645.67
525.98	52568.43
526.16	52673.76
526.33	52669.08
526.50	52903.13
526.67	52809.51
526.84	52734.61
527.01	52776.74
527.18	52736.95
527.36	52816.53
527.53	52573.11
527.70	53462.52
527.87	53338.47
528.04	52933.56
528.21	53083.35
528.38	53191.01
528.55	53504.65
528.72	53209.74
528.89	53132.50
529.07	53443.79
529.24	53389.96
529.41	53659.12
529.58	53277.61
529.75	53492.94
529.92	53509.33
530.09	53607.63
530.26	53790.19
530.43	54038.29
530.60	53829.98
530.77	53719.98
530.94	54014.88
531.11	54183.40
531.28	53848.71
531.46	54272.34
531.63	54192.76
531.80	54192.76
531.97	54131.91
532.14	54403.41
532.31	54209.15
532.48	54232.55
532.65	54356.60
532.82	54141.27
532.99	54581.29
533.16	54396.39
533.33	54719.38
533.50	54883.22
533.67	54546.18
533.84	54473.63
534.01	54698.32
534.18	55084.51
534.35	55194.51
534.52	54897.27
534.69	54967.48
534.86	55241.32
535.03	54749.81
535.20	55196.85
535.37	55014.29
535.54	55508.14
535.71	54904.29
535.88	55143.02
536.05	55351.33
536.22	55288.13
536.38	55510.49
536.55	55540.91
536.72	55519.85
536.89	55154.72
537.06	55292.82
537.23	55760.92
537.40	55480.06
537.57	55554.96
537.74	55421.55
537.91	55891.99
538.08	56006.68
538.25	55735.18
538.42	55716.45
538.59	56100.30
538.75	55744.54
538.92	55913.06
539.09	56123.71
539.26	55927.10
539.43	56093.28
539.60	55938.80
539.77	55913.06
539.94	56376.48
540.11	56161.15
540.28	56308.61
540.44	56296.91
540.61	56378.82
540.78	56245.41
540.95	56332.01
541.12	56044.13
541.29	56109.66
541.46	56306.27
541.62	56488.83
541.79	56537.98
541.96	56378.82
542.13	56608.20
542.30	56479.47
542.47	56722.88
542.63	56882.04
542.80	56830.55
542.97	57036.51
543.14	57031.83
543.31	56891.40
543.48	57041.20
543.64	57382.91
543.81	57261.21
543.98	57153.54
544.15	57226.10
544.32	57319.72
544.48	57488.24
544.65	57350.15
544.82	57359.51
544.99	57265.89
545.16	57495.26
545.32	57371.21
545.49	57542.07
545.66	57605.26
545.83	57301.00
546.00	57544.41
546.16	57469.51
546.33	57530.37
546.50	57326.74
546.67	57481.22
546.83	57254.18
547.00	57729.31
547.17	57301.00
547.34	57701.23
547.50	57954.00
547.67	57642.71
547.84	57939.96
548.00	57844.00
548.17	58040.60
548.34	58017.20
548.51	58068.69
548.67	58066.35
548.84	58157.63
549.01	57956.35
549.18	57942.30
549.34	58253.59
549.51	58326.15
549.68	58330.83
549.84	58262.96
550.01	58288.70
550.18	58127.20
550.34	58574.25
550.51	58328.49
550.68	58274.66
550.84	57996.13
551.01	58417.43
551.18	58143.59
551.34	58536.80
551.51	58426.79
551.68	58431.47
551.84	58548.50
552.01	58335.51
552.18	58667.87
552.34	58361.26
552.51	58623.40
552.68	58312.11
552.84	58738.08
553.01	58824.68
553.18	58721.70
553.34	58883.20
553.51	58698.30
553.67	58700.64
553.84	58958.09
554.01	58812.98
554.17	58803.62
554.34	58911.28
554.51	58721.70
554.67	58784.90
554.84	58922.99
555.00	58967.46
555.17	58829.37
555.33	59002.56
555.50	58693.61
555.67	58712.34
555.83	58820.00
556.00	59096.19
556.16	59402.80
556.33	59152.36
556.50	58836.39
556.66	58983.84
556.83	59000.22
556.99	59257.68
557.16	59166.40
557.32	59370.03
557.49	59463.65
557.65	59166.40
557.82	59346.62
557.98	59238.96
558.15	59128.95
558.32	59426.20
558.48	59194.49
558.65	59222.58
558.81	59536.21
558.98	59627.49
559.14	59491.74
559.31	59751.54
559.47	59597.06
559.64	59419.18
559.80	59515.14
559.97	59746.86
560.13	59405.14
560.30	59475.35
560.46	59512.80
560.63	59648.55
560.79	59676.64
560.96	59819.41
561.12	59671.96
561.29	59784.30
561.45	59552.59
561.61	59917.71
561.78	59503.44
561.94	59660.26
562.11	59854.52
562.27	59781.96
562.44	59973.89
562.60	60144.75
562.77	59758.56
562.93	59826.43
563.10	60034.74
563.26	59824.09
563.42	59994.95
563.59	59849.84
563.75	59931.76
563.92	59957.50
564.08	59898.99
564.24	59962.18
564.41	60144.75
564.57	60016.02
564.74	59856.86
564.90	60095.60
565.07	59964.52
565.23	59849.84
565.39	59934.10
565.56	60156.45
565.72	59964.52
565.88	59983.25
566.05	60097.94
566.21	60207.94
566.38	60137.72
566.54	60009.00
566.70	60203.26
566.87	60399.86
567.03	59898.99
567.19	60350.71
567.36	60168.15
567.52	60104.96
567.68	60425.61
567.85	60046.44
568.01	60420.93
568.17	60186.88
568.34	60273.48
568.50	60158.79
568.66	60367.10
568.83	60411.57
568.99	60198.58
569.15	60315.61
569.32	60296.88
569.48	60310.92
569.64	60544.98
569.81	60362.42
569.97	60278.16
570.13	60327.31
570.30	60168.15
570.46	60348.37
570.62	60493.49
570.78	60350.71
570.95	60395.18
571.11	60566.04
571.27	60451.36
571.43	60367.10
571.60	60404.55
571.76	60460.72
571.92	60540.30
572.09	60535.62
572.25	60397.52
572.41	60505.19
572.57	60498.17
572.74	60598.81
572.90	60479.44
573.06	60528.59
573.22	60430.29
573.38	60350.71
573.55	60413.91
573.71	60587.11
573.87	60444.33
574.03	60540.30
574.20	60704.13
574.36	60493.49
574.52	60662.00
574.68	60720.52
574.84	60722.86
575.01	60664.35
575.17	60552.00
575.33	60643.28
575.49	60488.80
575.65	60877.33
575.82	60814.14
575.98	60743.92
576.14	60903.08
576.30	60521.57
576.46	60589.45
576.62	60781.37
576.79	60760.31
576.95	60631.58
577.11	60456.04
577.27	60654.98
577.43	60846.91
577.59	60643.28
577.75	60722.86
577.92	60441.99
578.08	60659.66
578.24	60741.58
578.40	60931.17
578.56	60757.97
578.72	60657.32
578.88	60830.52
579.04	60952.23
579.21	60662.00
579.37	60683.07
579.53	60727.54
579.69	60760.31
579.85	60449.02
580.01	60701.79
580.17	60516.89
580.33	60772.01
580.49	60732.22
580.65	60729.88
580.82	60491.15
580.98	60865.63
581.14	60774.35
581.30	60910.10
581.46	60886.70
581.62	60886.70
581.78	60825.84
581.94	60713.50
582.10	60757.97
582.26	60647.96
582.42	60743.92
582.58	60610.51
582.74	60877.33
582.90	60814.14
583.06	60647.96
583.22	60619.88
583.38	60753.29
583.54	60673.71
583.70	60931.17
583.86	60889.04
584.02	60818.82
584.18	60846.91
584.34	60757.97
584.50	60896.06
584.66	60746.26
584.82	60914.78
584.98	60959.25
585.14	60907.76
585.30	60907.76
585.46	61097.34
585.62	60685.41
585.78	60865.63
585.94	60757.97
586.10	60940.53
586.26	60924.14
586.42	60793.07
586.58	60947.55
586.74	61038.83
586.90	61066.92
587.06	60779.03
587.22	60926.49
587.38	60874.99
587.54	61123.09
587.70	61219.05
587.86	60973.30
588.02	60940.53
588.18	61045.85
588.34	61013.08
588.49	61034.15
