SpectraSuite Data File
++++++++++++++++++++++++++++++++++++
Date: Fri Oct 25 10:48:07 EDT 2013
User: price-jones
Dark Spectrum Present: No
Reference Spectrum Present: No
Number of Sampled Component Spectra: 1
Spectrometers: USB2+H05261
Integration Time (usec): 100000 (USB2+H05261)
Spectra Averaged: 1 (USB2+H05261)
Boxcar Smoothing: 0 (USB2+H05261)
Correct for Electrical Dark: No (USB2+H05261)
Strobe/Lamp Enabled: No (USB2+H05261)
Correct for Detector Non-linearity: No (USB2+H05261)
Correct for Stray Light: No (USB2+H05261)
Number of Pixels in Processed Spectrum: 2048
>>>>>Begin Processed Spectral Data<<<<<
365.73	128.73
365.92	128.73
366.12	128.73
366.32	149.79
366.52	70.22
366.72	16.38
366.91	0.00
367.11	65.54
367.31	46.81
367.51	28.09
367.70	60.85
367.90	79.58
368.10	56.17
368.30	70.22
368.49	28.09
368.69	126.39
368.89	65.54
369.09	51.49
369.28	53.83
369.48	46.81
369.68	110.01
369.87	119.37
370.07	110.01
370.27	95.96
370.47	203.63
370.66	318.31
370.86	456.40
371.06	451.72
371.25	465.77
371.45	468.11
371.65	428.32
371.84	395.55
372.04	524.28
372.24	493.85
372.44	477.47
372.63	423.64
372.83	521.94
373.03	505.56
373.22	547.69
373.42	601.52
373.62	535.98
373.81	585.13
374.01	559.39
374.21	557.05
374.40	559.39
374.60	575.77
374.79	568.75
374.99	578.11
375.19	535.98
375.38	507.90
375.58	519.60
375.78	589.82
375.97	613.22
376.17	657.69
376.37	545.34
376.56	650.67
376.76	580.45
376.95	608.54
377.15	608.54
377.35	617.90
377.54	650.67
377.74	667.05
377.93	540.66
378.13	638.97
378.33	620.24
378.52	538.32
378.72	624.92
378.91	608.54
379.11	603.86
379.31	606.20
379.50	615.56
379.70	629.60
379.89	617.90
380.09	643.65
380.28	667.05
380.48	674.07
380.68	587.47
380.87	566.41
381.07	610.88
381.26	697.48
381.46	674.07
381.65	660.03
381.85	671.73
382.04	645.99
382.24	634.29
382.43	727.91
382.63	662.37
382.83	657.69
383.02	706.84
383.22	727.91
383.41	788.76
383.61	716.20
383.80	748.97
384.00	674.07
384.19	739.61
384.39	781.74
384.58	734.93
384.78	713.86
384.97	760.67
385.17	676.41
385.36	758.33
385.56	631.94
385.75	709.18
385.95	786.42
386.14	763.01
386.34	711.52
386.53	770.04
386.72	744.29
386.92	880.04
387.11	842.59
387.31	779.40
387.50	697.48
387.70	807.48
387.89	861.32
388.09	814.51
388.28	800.46
388.48	774.72
388.67	901.11
388.86	910.47
389.06	842.59
389.25	835.57
389.45	889.40
389.64	861.32
389.84	884.72
390.03	847.27
390.22	875.36
390.42	835.57
390.61	924.51
390.81	929.19
391.00	898.77
391.19	980.68
391.39	976.00
391.58	936.21
391.78	971.32
391.97	990.05
392.16	971.32
392.36	978.34
392.55	971.32
392.75	880.04
392.94	1032.18
393.13	947.92
393.33	990.05
393.52	997.07
393.71	1074.31
393.91	1022.81
394.10	933.87
394.29	1093.03
394.49	1020.47
394.68	1064.94
394.88	1029.84
395.07	1095.37
395.26	1109.41
395.46	1151.54
395.65	1062.60
395.84	1074.31
396.04	1144.52
396.23	1090.69
396.42	1123.46
396.62	1046.22
396.81	1214.74
397.00	1111.75
397.19	1160.91
397.39	1151.54
397.58	1139.84
397.77	1158.57
397.97	1242.82
398.16	1221.76
398.35	1270.91
398.55	1296.66
398.74	1249.85
398.93	1371.55
399.12	1357.51
399.32	1266.23
399.51	1324.74
399.70	1355.17
399.90	1261.55
400.09	1357.51
400.28	1476.88
400.47	1301.34
400.67	1401.98
400.86	1399.64
401.05	1523.69
401.24	1472.20
401.44	1481.56
401.63	1432.41
401.82	1483.90
402.01	1497.94
402.21	1404.32
402.40	1533.05
402.59	1507.30
402.78	1544.75
402.97	1551.78
403.17	1500.28
403.36	1603.27
403.55	1540.07
403.74	1638.38
403.93	1551.78
404.13	1540.07
404.32	1547.09
404.51	1584.54
404.70	1568.16
404.89	1624.33
405.09	1753.06
405.28	1706.25
405.47	1715.61
405.66	1668.80
405.85	1720.29
406.05	1762.42
406.24	1727.32
406.43	1788.17
406.62	1832.64
406.81	1827.96
407.00	1727.32
407.20	1806.89
407.39	1776.47
407.58	1820.94
407.77	1902.86
407.96	1975.41
408.15	1914.56
408.34	1851.36
408.54	1975.41
408.73	1930.94
408.92	1996.48
409.11	1928.60
409.30	2033.93
409.49	1975.41
409.68	2146.27
409.87	1987.11
410.07	2200.10
410.26	2043.29
410.45	2132.23
410.64	2132.23
410.83	2207.13
411.02	2162.66
411.21	2263.30
411.40	2305.43
411.59	2223.51
411.78	2289.04
411.98	2235.21
412.17	2342.88
412.36	2305.43
412.55	2328.83
412.74	2427.14
412.93	2319.47
413.12	2246.91
413.31	2490.33
413.50	2317.13
413.69	2370.96
413.88	2600.34
414.07	2483.31
414.26	2396.71
414.45	2558.21
414.64	2462.24
414.83	2602.68
415.02	2560.55
415.22	2590.97
415.41	2612.04
415.60	2649.49
415.79	2733.75
415.98	2743.11
416.17	2724.38
416.36	2731.41
416.55	2799.28
416.74	2918.65
416.93	2782.90
417.12	2801.62
417.31	2911.63
417.50	2867.16
417.69	3019.29
417.88	3019.29
418.07	2911.63
418.26	2984.18
418.45	3047.38
418.64	3063.76
418.83	3087.17
419.02	3049.72
419.21	3201.85
419.39	3178.45
419.58	3059.08
419.77	3176.11
419.96	3265.05
420.15	3258.03
420.34	3281.43
420.53	3325.90
420.72	3328.24
420.91	3330.58
421.10	3286.11
421.29	3419.52
421.48	3288.45
421.67	3410.16
421.86	3386.76
422.05	3325.90
422.24	3236.96
422.43	3321.22
422.61	3311.86
422.80	3471.01
422.99	3456.97
423.18	3522.51
423.37	3503.78
423.56	3391.44
423.75	3473.36
423.94	3475.70
424.13	3236.96
424.32	3314.20
424.50	3496.76
424.69	3475.70
424.88	3555.27
425.07	3382.07
425.26	3461.65
425.45	3480.38
425.64	3581.02
425.83	3452.29
426.01	3606.77
426.20	3524.85
426.39	3552.93
426.58	3461.65
426.77	3496.76
426.96	3508.46
427.15	3471.01
427.33	3644.21
427.52	3482.72
427.71	3733.15
427.90	3618.47
428.09	3655.92
428.28	3641.87
428.46	3709.75
428.65	3808.05
428.84	3859.54
429.03	3784.65
429.22	3723.79
429.40	3836.14
429.59	3721.45
429.78	3646.55
429.97	3541.23
430.16	3719.11
430.34	3801.03
430.53	3801.03
430.72	3744.86
430.91	3756.56
431.10	3859.54
431.28	3927.42
431.47	3967.21
431.66	3962.53
431.85	4056.15
432.03	4030.40
432.22	4037.42
432.41	4198.92
432.60	4142.75
432.79	4175.52
432.97	4149.77
433.16	4156.79
433.35	4184.88
433.54	4084.23
433.72	4252.75
433.91	4149.77
434.10	4095.94
434.28	4194.24
434.47	4231.69
434.66	4313.61
434.85	4180.20
435.03	4491.49
435.22	4465.74
435.41	4622.56
435.59	4564.04
435.78	4278.50
435.97	4411.91
436.16	4475.10
436.34	4540.64
436.53	4498.51
436.72	4699.80
436.90	4388.50
437.09	4566.39
437.28	4470.42
437.46	4599.15
437.65	4561.70
437.84	4688.09
438.02	4564.04
438.21	4638.94
438.40	4634.26
438.58	4601.49
438.77	4873.00
438.96	4835.55
439.14	4772.35
439.33	4964.28
439.52	5050.88
439.70	4992.36
439.89	4973.64
440.08	4973.64
440.26	5111.73
440.45	5081.30
440.63	5245.14
440.82	5224.08
441.01	5303.65
441.19	5184.29
441.38	5298.97
441.57	5256.84
441.75	5423.02
441.94	5458.13
442.12	5432.38
442.31	5406.64
442.50	5544.73
442.68	5610.26
442.87	5441.75
443.05	5565.79
443.24	5636.01
443.43	5591.54
443.61	5717.93
443.80	5736.65
443.98	5551.75
444.17	5453.45
444.35	5715.59
444.54	5795.17
444.73	5795.17
444.91	5645.37
445.10	5760.06
445.28	5680.48
445.47	5654.73
445.65	5664.10
445.84	5863.04
446.02	5811.55
446.21	5830.27
446.39	5827.93
446.58	5963.68
446.77	5865.38
446.95	5753.04
447.14	5781.12
447.32	5888.79
447.51	5832.62
447.69	5783.46
447.88	5951.98
448.06	5837.30
448.25	5888.79
448.43	6003.47
448.62	5755.38
448.80	5989.43
448.99	6080.71
449.17	5987.09
449.36	5853.68
449.54	6054.97
449.73	6066.67
449.91	6223.48
450.10	6150.93
450.28	6211.78
450.46	6293.70
450.65	6300.72
450.83	6232.85
451.02	6270.30
451.20	6183.70
451.39	6399.02
451.57	6228.17
451.76	6183.70
451.94	6382.64
452.13	6359.24
452.31	6441.15
452.49	6331.15
452.68	6527.75
452.86	6434.13
453.05	6558.18
453.23	6377.96
453.42	6504.35
453.60	6497.33
453.78	6693.93
453.97	6483.28
454.15	6537.12
454.34	6476.26
454.52	6619.04
454.70	6579.25
454.89	6726.70
455.07	6647.12
455.26	6736.06
455.44	7005.22
455.62	6740.74
455.81	6633.08
455.99	6984.16
456.17	6801.60
456.36	6916.28
456.54	7026.29
456.73	6977.14
456.91	6946.71
457.09	7061.40
457.28	7377.37
457.46	7215.87
457.64	7234.60
457.83	7185.44
458.01	7098.84
458.19	7318.86
458.38	7164.38
458.56	7370.35
458.74	7246.30
458.93	7307.15
459.11	7414.82
459.29	7456.95
459.48	7545.89
459.66	7360.98
459.84	7452.27
460.03	7559.93
460.21	7248.64
460.39	7487.37
460.57	7489.71
460.76	7590.36
460.94	7620.78
461.12	7513.12
461.31	7691.00
461.49	7576.31
461.67	7581.00
461.85	7831.43
462.04	7719.09
462.22	8229.32
462.40	7779.94
462.59	7815.05
462.77	7899.31
462.95	7763.56
463.13	8018.68
463.32	7698.02
463.50	7983.57
463.68	7864.20
463.86	8100.59
464.05	7784.62
464.23	8021.02
464.41	8133.36
464.59	7808.03
464.78	7964.84
464.96	7875.90
465.14	8039.74
465.32	8397.84
465.50	8219.96
465.69	8306.56
465.87	8072.51
466.05	8011.65
466.23	8255.07
466.41	8376.78
466.60	8430.61
466.78	8245.71
466.96	8334.65
467.14	8175.49
467.32	8367.42
467.51	8404.86
467.69	8266.77
467.87	8519.55
468.05	8308.90
468.23	8571.04
468.41	8425.93
468.60	8339.33
468.78	8615.51
468.96	8439.97
469.14	8517.21
469.32	8681.05
469.50	8318.26
469.69	8662.32
469.87	8690.41
470.05	8652.96
470.23	8746.58
470.41	8753.60
470.59	8851.91
470.77	8938.51
470.95	8971.27
471.14	9067.24
471.32	8755.94
471.50	9226.39
471.68	8837.86
471.86	9036.81
472.04	9268.52
472.22	9439.38
472.40	9041.49
472.58	9137.45
472.77	9355.12
472.95	9451.08
473.13	9598.54
473.31	9551.73
473.49	9423.00
473.67	9373.85
473.85	9479.17
474.03	9944.94
474.21	9760.03
474.39	9886.42
474.57	9944.94
474.75	9954.30
474.93	10068.98
475.12	9926.21
475.30	9937.91
475.48	10183.67
475.66	10310.06
475.84	10094.73
476.02	10153.24
476.20	10167.29
476.38	10319.42
476.56	10656.46
476.74	10541.77
476.92	10609.65
477.10	10579.22
477.28	10867.11
477.46	10602.63
477.64	10892.85
477.82	10864.77
478.00	11309.47
478.18	11229.89
478.36	11154.99
478.54	11267.34
478.72	11536.50
478.90	11576.29
479.08	11702.68
479.26	11721.40
479.44	11812.68
479.62	11840.77
479.80	11896.94
479.98	12060.78
480.16	12081.85
480.34	12002.27
480.52	12446.97
480.70	12259.73
480.88	12315.90
481.06	12187.17
481.24	12453.99
481.41	12758.26
481.59	12821.45
481.77	12938.48
481.95	12802.73
482.13	12996.99
482.31	12931.46
482.49	13132.75
482.67	13502.55
482.85	13502.55
483.03	13455.74
483.21	13813.84
483.39	13701.50
483.57	13752.99
483.74	13888.74
483.92	14008.11
484.10	14085.34
484.28	14417.70
484.46	14284.29
484.64	14658.78
484.82	14466.85
485.00	14682.18
485.18	15023.90
485.35	15117.52
485.53	14909.21
485.71	14787.50
485.89	15192.42
486.07	14970.07
486.25	15030.92
486.43	15293.06
486.61	15571.58
486.78	15747.12
486.96	15770.53
487.14	15953.09
487.32	16119.27
487.50	16411.84
487.68	16524.18
487.85	16388.43
488.03	16552.27
488.21	16879.94
488.39	16917.39
488.57	16957.18
488.75	17146.76
488.92	17254.43
489.10	17434.65
489.28	17448.69
489.46	17710.83
489.64	17675.73
489.81	17996.38
489.99	18129.79
490.17	18253.84
490.35	18373.21
490.53	18480.87
490.70	18518.32
490.88	18328.74
491.06	18497.25
491.24	18668.11
491.41	18682.16
491.59	18801.52
491.77	19023.87
491.95	19262.61
492.13	19627.73
492.30	19250.91
492.48	19337.51
492.66	19580.92
492.84	19833.70
493.01	19995.20
493.19	20037.33
493.37	20189.46
493.54	20070.09
493.72	20521.82
493.90	20435.22
494.08	20491.39
494.25	20861.19
494.43	20952.48
494.61	21312.92
494.79	21191.21
494.96	21128.02
495.14	21287.17
495.32	21727.19
495.49	21022.69
495.67	21888.69
495.85	21731.87
496.02	22033.80
496.20	21879.33
496.38	22134.45
496.55	22309.99
496.73	22761.71
496.91	22754.69
497.09	22415.31
497.26	22953.63
497.44	22831.93
497.62	22991.08
497.79	22850.65
497.97	23061.30
498.14	23192.37
498.32	23508.34
498.50	23253.22
498.67	23524.72
498.85	23365.57
499.03	23976.45
499.20	23807.93
499.38	23747.08
499.56	23873.46
499.73	24091.13
499.91	23761.12
500.08	24231.57
500.26	24442.21
500.44	24388.38
500.61	24278.38
500.79	24414.13
500.97	24797.98
501.14	25165.44
501.32	25069.48
501.49	24907.98
501.67	25221.61
501.84	25113.95
502.02	25338.64
502.20	25446.30
502.37	25170.12
502.55	25296.51
502.72	25855.90
502.90	25453.33
503.07	25453.33
503.25	25993.99
503.43	25593.76
503.60	25928.45
503.78	25799.73
503.95	25993.99
504.13	25757.60
504.30	26160.17
504.48	26405.92
504.65	26780.41
504.83	26452.73
505.01	27037.87
505.18	26366.13
505.36	26909.14
505.53	27070.64
505.71	26916.16
505.88	27421.72
506.06	26588.49
506.23	26946.59
506.41	27021.48
506.58	27042.55
506.76	27484.91
506.93	27419.38
507.11	27318.73
507.28	27615.98
507.46	27503.64
507.63	27889.82
507.81	27711.94
507.98	27950.68
508.16	27981.10
508.33	27894.50
508.50	28292.40
508.68	28163.67
508.85	28430.49
509.03	28423.47
509.20	28641.14
509.38	28807.31
509.55	28652.84
509.73	28914.98
509.90	28783.91
510.08	29163.08
510.25	28709.01
510.42	29165.42
510.60	29287.12
510.77	29287.12
510.95	29324.57
511.12	29331.59
511.30	29977.58
511.47	29738.85
511.64	29355.00
511.82	30087.59
511.99	29727.14
512.17	29928.43
512.34	29504.79
512.51	30153.12
512.69	30209.29
512.86	30462.07
513.04	30527.61
513.21	30106.31
513.38	30328.66
513.56	30363.77
513.73	30312.28
513.90	30455.05
514.08	30941.88
514.25	30766.34
514.43	30396.54
514.60	30745.28
514.77	30925.50
514.95	31229.77
515.12	30904.43
515.29	31009.76
515.47	31676.81
515.64	31384.24
515.81	31299.98
515.99	31173.60
516.16	31365.52
516.33	31470.84
516.51	31337.43
516.68	31255.51
516.85	31089.34
517.03	31503.61
517.20	32130.87
517.37	32156.62
517.54	32208.11
517.72	31601.91
517.89	31658.09
518.06	31908.52
518.24	31723.62
518.41	31924.91
518.58	31704.90
518.75	32009.17
518.93	32304.07
519.10	32102.79
519.27	32535.79
519.45	32383.65
519.62	32697.28
519.79	32378.97
519.96	32762.82
520.14	32863.46
520.31	33284.76
520.48	33275.40
520.65	32917.29
520.83	33603.07
521.00	33266.03
521.17	33331.57
521.34	33352.63
521.52	32772.18
521.69	33584.35
521.86	33710.74
522.03	33783.29
522.20	33902.66
522.38	33944.79
522.55	34216.29
522.72	33865.21
522.89	33839.47
523.07	33970.54
523.24	34094.58
523.41	34382.47
523.58	34405.88
523.75	33776.27
523.92	34623.54
524.10	34883.34
524.27	34796.74
524.44	34771.00
524.61	35115.06
524.78	34483.11
524.96	35101.01
525.13	34890.37
525.30	35171.23
525.47	35131.44
525.64	35124.42
525.81	35035.48
525.98	35101.01
526.16	34848.24
526.33	35105.70
526.50	35510.61
526.67	35379.54
526.84	35194.64
527.01	35363.15
527.18	35246.13
527.36	35587.85
527.53	35648.70
527.70	36161.28
527.87	35702.53
528.04	35641.68
528.21	35744.66
528.38	35920.20
528.55	36067.66
528.72	35910.84
528.89	36294.69
529.07	35971.69
529.24	36032.55
529.41	36294.69
529.58	36444.48
529.75	35868.71
529.92	36177.66
530.09	36407.03
530.26	36137.87
530.43	36669.17
530.60	36505.34
530.77	36676.19
530.94	36718.32
531.11	36615.34
531.28	36844.71
531.46	36622.36
531.63	36884.50
531.80	37020.25
531.97	36924.29
532.14	36914.93
532.31	36943.02
532.48	36657.47
532.65	37242.60
532.82	37137.28
532.99	37170.05
533.16	37324.52
533.33	37010.89
533.50	37612.41
533.67	37439.21
533.84	37504.74
534.01	37446.23
534.18	37610.07
534.35	38157.75
534.52	37680.28
534.69	37479.00
534.86	37825.40
535.03	37820.72
535.20	38202.22
535.37	38202.22
535.54	38092.22
535.71	37897.95
535.88	38134.35
536.05	37963.49
536.22	38270.10
536.38	38157.75
536.55	38508.83
536.72	38057.11
536.89	37710.71
537.06	38363.72
537.23	38398.83
537.40	38326.27
537.57	38593.09
537.74	38349.68
537.91	38787.36
538.08	38506.49
538.25	38408.19
538.42	38464.36
538.59	38775.66
538.75	38909.07
538.92	38380.10
539.09	39007.37
539.26	39227.38
539.43	39115.03
539.60	39138.44
539.77	39042.48
539.94	39225.04
540.11	38998.01
540.28	39150.14
540.44	38852.89
540.61	39070.56
540.78	39213.34
540.95	39124.40
541.12	39014.39
541.29	39196.95
541.46	39056.52
541.62	39608.89
541.79	39562.08
541.96	39423.98
542.13	39229.72
542.30	39569.10
542.47	39686.12
542.63	39938.90
542.80	39629.95
542.97	40107.42
543.14	40133.17
543.31	40055.93
543.48	40268.92
543.64	40610.64
543.81	40751.07
543.98	40257.21
544.15	40507.65
544.32	40395.31
544.48	40884.48
544.65	40348.50
544.82	40727.66
544.99	40306.37
545.16	40215.08
545.32	40388.28
545.49	40910.22
545.66	41027.25
545.83	41158.32
546.00	40772.13
546.16	40453.82
546.33	40460.84
546.50	40247.85
546.67	40517.01
546.83	40465.52
547.00	40758.09
547.17	40617.66
547.34	40896.18
547.50	41322.16
547.67	41111.51
547.84	40697.24
548.00	41600.68
548.17	40987.46
548.34	41144.28
548.51	41584.30
548.67	41493.02
548.84	41205.13
549.01	41191.09
549.18	41429.82
549.34	41301.09
549.51	41708.35
549.68	41921.34
549.84	41411.10
550.01	42199.86
550.18	41055.34
550.34	41352.58
550.51	41399.40
550.68	41535.15
550.84	41375.99
551.01	41682.60
551.18	42253.69
551.34	41549.19
551.51	41488.34
551.68	42328.59
551.84	41806.65
552.01	41546.85
552.18	41752.82
552.34	41764.52
552.51	42148.37
552.68	41780.90
552.84	42216.24
553.01	42314.55
553.18	42162.41
553.34	41949.42
553.51	41970.49
553.67	42183.48
553.84	42366.04
554.01	42347.31
554.17	42632.86
554.34	42656.26
554.51	42267.73
554.67	42459.66
554.84	42361.36
555.00	42258.37
555.17	42387.10
555.33	42642.22
555.50	42714.78
555.67	42754.57
555.83	42300.50
556.00	42646.90
556.16	43164.16
556.33	42752.23
556.50	42672.65
556.66	42569.66
556.83	42747.54
556.99	42768.61
557.16	42773.29
557.32	42904.36
557.49	42997.98
557.65	42698.39
557.82	42946.49
557.98	42773.29
558.15	43047.13
558.32	42974.58
558.48	42426.89
558.65	43220.33
558.81	43100.97
558.98	42892.66
559.14	43297.57
559.31	42740.52
559.47	43147.78
559.64	43330.34
559.80	43463.75
559.97	42855.21
560.13	43248.42
560.30	43264.80
560.46	43117.35
560.63	43166.50
560.79	43512.90
560.96	43194.59
561.12	43494.18
561.29	43861.64
561.45	43302.25
561.61	43679.08
561.78	43381.83
561.94	43470.77
562.11	42958.19
562.27	43335.02
562.44	43358.42
562.60	43922.49
562.77	43875.68
562.93	43569.07
563.10	43540.99
563.26	43241.40
563.42	43627.59
563.59	43480.13
563.75	43775.04
563.92	43725.89
564.08	43641.63
564.24	43615.88
564.41	43529.28
564.57	43611.20
564.74	43737.59
564.90	43819.51
565.07	43548.01
565.23	43978.67
565.39	43658.01
565.56	43639.29
565.72	43873.34
565.88	43796.10
566.05	43627.59
566.21	43868.66
566.38	43990.37
566.54	43543.33
566.70	43775.04
566.87	44055.90
567.03	43952.92
567.19	44296.98
567.36	44079.31
567.52	43819.51
567.68	44086.33
567.85	43798.44
568.01	43655.67
568.17	44126.12
568.34	44114.42
568.50	43892.07
568.66	43941.22
568.83	44257.19
568.99	43833.55
569.15	43700.14
569.32	43798.44
569.48	43496.52
569.64	44421.03
569.81	44388.26
569.97	43873.34
570.13	44170.59
570.30	44025.48
570.46	43667.37
570.62	43550.35
570.78	43746.95
570.95	43966.96
571.11	43966.96
571.27	43983.35
571.43	44231.44
571.60	44509.97
571.76	43742.27
571.92	43892.07
572.09	44570.82
572.25	43672.06
572.41	43606.52
572.57	44154.21
572.74	44516.99
572.90	44619.97
573.06	44322.72
573.22	44442.09
573.38	43737.59
573.55	44027.82
573.71	44165.91
573.87	44018.46
574.03	44062.93
574.20	44154.21
574.36	43955.26
574.52	44528.69
574.68	44477.20
574.84	44390.60
575.01	44215.06
575.17	44130.80
575.33	43856.96
575.49	44069.95
575.65	44098.03
575.82	44477.20
575.98	44177.61
576.14	44830.62
576.30	44458.48
576.46	44121.44
576.62	44219.74
576.79	44397.62
576.95	43690.78
577.11	44554.44
577.27	43945.90
577.43	44250.17
577.59	44395.28
577.75	44465.50
577.92	44109.74
578.08	43924.83
578.24	44095.69
578.40	44112.08
578.56	44105.06
578.72	44444.43
578.88	44437.41
579.04	44575.50
579.21	44201.02
579.37	44107.40
579.53	44542.74
579.69	44116.76
579.85	44165.91
580.01	44306.34
580.17	44732.32
580.33	44748.70
580.49	44701.89
580.65	44521.67
580.82	44360.17
580.98	44341.45
581.14	44355.49
581.30	44842.32
581.46	44144.84
581.62	44318.04
581.78	44432.73
581.94	45034.25
582.10	44673.81
582.26	44704.23
582.42	44610.61
582.58	44514.65
582.74	44135.48
582.90	44491.24
583.06	44690.19
583.22	44573.16
583.38	44196.34
583.54	44858.71
583.70	44168.25
583.86	44631.68
584.02	43988.03
584.18	44509.97
584.34	44065.27
584.50	44456.14
584.66	44414.01
584.82	44158.89
584.98	44652.74
585.14	44643.38
585.30	44861.05
585.46	44390.60
585.62	44524.01
585.78	44573.16
585.94	43966.96
586.10	44645.72
586.26	44385.92
586.42	44524.01
586.58	44992.12
586.74	44683.17
586.90	44266.55
587.06	44641.04
587.22	44486.56
587.38	44100.37
587.54	45043.61
587.70	44931.26
587.86	44804.88
588.02	44498.26
588.18	44699.55
588.34	44442.09
588.49	44540.39
588.65	44165.91
588.81	43995.05
588.97	44610.61
589.13	44505.29
589.29	44399.96
589.45	44570.82
589.61	44404.64
589.77	44556.78
589.93	44992.12
590.08	44790.83
590.24	44755.72
