SpectraSuite Data File
++++++++++++++++++++++++++++++++++++
Date: Fri Oct 25 10:48:19 EDT 2013
User: price-jones
Dark Spectrum Present: No
Reference Spectrum Present: No
Number of Sampled Component Spectra: 1
Spectrometers: USB2+H05261
Integration Time (usec): 100000 (USB2+H05261)
Spectra Averaged: 1 (USB2+H05261)
Boxcar Smoothing: 0 (USB2+H05261)
Correct for Electrical Dark: No (USB2+H05261)
Strobe/Lamp Enabled: No (USB2+H05261)
Correct for Detector Non-linearity: No (USB2+H05261)
Correct for Stray Light: No (USB2+H05261)
Number of Pixels in Processed Spectrum: 2048
>>>>>Begin Processed Spectral Data<<<<<
365.73	170.86
365.92	170.86
366.12	170.86
366.32	91.28
366.52	74.90
366.72	142.77
366.91	32.77
367.11	72.56
367.31	44.47
367.51	7.02
367.70	35.11
367.90	81.92
368.10	0.00
368.30	63.19
368.49	63.19
368.69	81.92
368.89	117.03
369.09	18.72
369.28	70.22
369.48	79.58
369.68	107.66
369.87	88.94
370.07	117.03
370.27	156.82
370.47	198.95
370.66	390.87
370.86	514.92
371.06	514.92
371.25	507.90
371.45	440.02
371.65	547.69
371.84	486.83
372.04	561.73
372.24	491.51
372.44	573.43
372.63	512.58
372.83	524.28
373.03	458.74
373.22	510.24
373.42	533.64
373.62	521.94
373.81	645.99
374.01	535.98
374.21	601.52
374.40	622.58
374.60	533.64
374.79	606.20
374.99	617.90
375.19	653.01
375.38	664.71
375.58	643.65
375.78	643.65
375.97	631.94
376.17	667.05
376.37	772.38
376.56	627.26
376.76	617.90
376.95	699.82
377.15	688.12
377.35	704.50
377.54	746.63
377.74	645.99
377.93	653.01
378.13	683.44
378.33	690.46
378.52	631.94
378.72	744.29
378.91	720.88
379.11	730.25
379.31	629.60
379.50	697.48
379.70	720.88
379.89	793.44
380.09	737.27
380.28	774.72
380.48	788.76
380.68	746.63
380.87	737.27
381.07	744.29
381.26	849.61
381.46	725.57
381.65	774.72
381.85	732.59
382.04	650.67
382.24	786.42
382.43	798.12
382.63	835.57
382.83	706.84
383.02	828.55
383.22	763.01
383.41	779.40
383.61	861.32
383.80	842.59
384.00	833.23
384.19	807.48
384.39	847.27
384.58	889.40
384.78	823.87
384.97	844.93
385.17	847.27
385.36	795.78
385.56	903.45
385.75	854.30
385.95	884.72
386.14	952.60
386.34	931.53
386.53	880.04
386.72	873.02
386.92	936.21
387.11	912.81
387.31	929.19
387.50	919.83
387.70	898.77
387.89	910.47
388.09	1001.75
388.28	997.07
388.48	999.41
388.67	1046.22
388.86	980.68
389.06	987.71
389.25	1046.22
389.45	1041.54
389.64	1069.62
389.84	1039.20
390.03	1001.75
390.22	1132.82
390.42	1137.50
390.61	1041.54
390.81	1121.12
391.00	1144.52
391.19	1083.67
391.39	1172.61
391.58	1118.78
391.78	1179.63
391.97	1076.65
392.16	1114.10
392.36	1071.97
392.55	1090.69
392.75	1004.09
392.94	1046.22
393.13	1100.05
393.33	1022.81
393.52	1090.69
393.71	1174.95
393.91	1200.69
394.10	1240.48
394.29	1238.14
394.49	1252.19
394.68	1303.68
394.88	1270.91
395.07	1317.72
395.26	1235.80
395.46	1336.45
395.65	1306.02
395.84	1329.42
396.04	1359.85
396.23	1240.48
396.42	1214.74
396.62	1256.87
396.81	1242.82
397.00	1306.02
397.19	1357.51
397.39	1427.73
397.58	1462.83
397.77	1425.39
397.97	1511.99
398.16	1483.90
398.35	1621.99
398.55	1565.82
398.74	1547.09
398.93	1638.38
399.12	1472.20
399.32	1598.59
399.51	1647.74
399.70	1610.29
399.90	1558.80
400.09	1650.08
400.28	1699.23
400.47	1657.10
400.67	1708.59
400.86	1703.91
401.05	1795.19
401.24	1739.02
401.44	1809.23
401.63	1820.94
401.82	1851.36
402.01	1839.66
402.21	1825.62
402.40	1879.45
402.59	1865.41
402.78	1898.17
402.97	1790.51
403.17	1886.47
403.36	1788.17
403.55	1893.49
403.74	1870.09
403.93	1994.14
404.13	2001.16
404.32	1987.11
404.51	1839.66
404.70	2001.16
404.89	2059.67
405.09	2157.97
405.28	2062.01
405.47	2094.78
405.66	2085.42
405.85	2160.31
406.05	1961.37
406.24	2127.55
406.43	2326.49
406.62	2174.36
406.81	2282.02
407.00	2174.36
407.20	2214.15
407.39	2186.06
407.58	2298.41
407.77	2279.68
407.96	2293.72
408.15	2157.97
408.34	2230.53
408.54	2401.39
408.73	2289.04
408.92	2403.73
409.11	2565.23
409.30	2429.48
409.49	2399.05
409.68	2366.28
409.87	2328.83
410.07	2443.52
410.26	2530.12
410.45	2537.14
410.64	2544.16
410.83	2541.82
411.02	2670.55
411.21	2700.98
411.40	2654.17
411.59	2745.45
411.78	2754.81
411.98	2935.03
412.17	2874.18
412.36	2700.98
412.55	2937.37
412.74	2918.65
412.93	2827.37
413.12	2862.48
413.31	3009.93
413.50	2953.76
413.69	3080.14
413.88	3056.74
414.07	3026.31
414.26	3056.74
414.45	3119.93
414.64	3110.57
414.83	3155.04
415.02	3066.10
415.22	3206.53
415.41	3309.52
415.60	3358.67
415.79	3335.26
415.98	3318.88
416.17	3353.99
416.36	3337.60
416.55	3243.98
416.74	3382.07
416.93	3459.31
417.12	3510.80
417.31	3510.80
417.50	3475.70
417.69	3653.58
417.88	3508.46
418.07	3611.45
418.26	3674.64
418.45	3686.34
418.64	3695.71
418.83	3737.84
419.02	3672.30
419.21	3702.73
419.39	3761.24
419.58	3590.38
419.77	3779.97
419.96	3772.94
420.15	4014.02
420.34	3948.48
420.53	3983.59
420.72	3969.55
420.91	4032.74
421.10	3999.98
421.29	4145.09
421.48	3957.85
421.67	3934.44
421.86	3941.46
422.05	3976.57
422.24	3943.80
422.43	4135.73
422.61	4028.06
422.80	3997.64
422.99	4046.79
423.18	4088.92
423.37	4227.01
423.56	4067.85
423.75	4138.07
423.94	4215.30
424.13	3822.09
424.32	4060.83
424.50	4177.86
424.69	4102.96
424.88	4243.39
425.07	4088.92
425.26	4032.74
425.45	4042.11
425.64	4032.74
425.83	4208.28
426.01	4065.51
426.20	4168.49
426.39	4217.65
426.58	4145.09
426.77	4131.05
426.96	4203.60
427.15	4390.84
427.33	4325.31
427.52	4358.08
427.71	4400.21
427.90	4255.09
428.09	4238.71
428.28	4376.80
428.46	4430.63
428.65	4339.35
428.84	4477.44
429.03	4472.76
429.22	4175.52
429.40	4329.99
429.59	4278.50
429.78	4194.24
429.97	4084.23
430.16	4292.54
430.34	4053.81
430.53	4395.53
430.72	4528.94
430.91	4428.29
431.10	4531.28
431.28	4727.88
431.47	4985.34
431.66	4791.08
431.85	4622.56
432.03	4755.97
432.22	4858.95
432.41	4835.55
432.60	4919.81
432.79	4849.59
432.97	4912.78
433.16	5083.64
433.35	4847.25
433.54	4966.62
433.72	4912.78
433.91	4851.93
434.10	4922.15
434.28	4835.55
434.47	5046.20
434.66	5004.07
434.85	5050.88
435.03	5226.42
435.22	5085.98
435.41	5416.00
435.59	5310.68
435.78	5467.49
435.97	5416.00
436.16	5359.83
436.34	5310.68
436.53	5460.47
436.72	5544.73
436.90	5392.59
437.09	5458.13
437.28	5448.77
437.46	5355.15
437.65	5355.15
437.84	5317.70
438.02	5404.30
438.21	5465.15
438.40	5233.44
438.58	5589.20
438.77	5591.54
438.96	5631.33
439.14	5703.89
439.33	5804.53
439.52	6024.54
439.70	5816.23
439.89	5886.45
440.08	6076.03
440.26	5977.73
440.45	6052.63
440.63	6188.38
440.82	6183.70
441.01	6094.76
441.19	6434.13
441.38	6202.42
441.57	6263.27
441.75	6497.33
441.94	6506.69
442.12	6609.67
442.31	6597.97
442.50	6679.89
442.68	6600.31
442.87	6478.60
443.05	6506.69
443.24	6832.02
443.43	6541.80
443.61	6644.78
443.80	6946.71
443.98	6541.80
444.17	6516.05
444.35	6782.87
444.54	7014.59
444.73	6867.13
444.91	6722.02
445.10	6839.05
445.28	6633.08
445.47	6572.22
445.65	6546.48
445.84	6696.27
446.02	6803.94
446.21	6771.17
446.39	6825.00
446.58	6843.73
446.77	6890.54
446.95	6906.92
447.14	6958.41
447.32	7220.55
447.51	6855.43
447.69	7091.82
447.88	7073.10
448.06	6930.33
448.25	7040.33
448.43	7274.38
448.62	7063.74
448.80	7119.91
448.99	7014.59
449.17	7040.33
449.36	6958.41
449.54	7311.83
449.73	7410.14
449.91	7473.33
450.10	7370.35
450.28	7344.60
450.46	7468.65
450.65	7613.76
450.83	7653.55
451.02	7463.97
451.20	7756.54
451.39	7452.27
451.57	7606.74
451.76	7393.75
451.94	7545.89
452.13	7632.49
452.31	7508.44
452.49	7463.97
452.68	7494.40
452.86	7506.10
453.05	7754.19
453.23	7712.07
453.42	7557.59
453.60	7438.22
453.78	7737.81
453.97	7648.87
454.15	7538.87
454.34	7686.32
454.52	7775.26
454.70	7829.09
454.89	7805.69
455.07	7915.69
455.26	7845.48
455.44	8009.31
455.62	8011.65
455.81	8021.02
455.99	8049.10
456.17	8409.54
456.36	8219.96
456.54	8390.82
456.73	8458.70
456.91	8524.23
457.09	8608.49
457.28	8587.43
457.46	8388.48
457.64	8486.78
457.83	8346.35
458.01	8257.41
458.19	8702.11
458.38	8545.30
458.56	8720.84
458.74	8786.37
458.93	8589.77
459.11	8725.52
459.29	8587.43
459.48	8741.90
459.66	8507.85
459.84	8692.75
460.03	8870.63
460.21	8933.82
460.39	8854.25
460.57	8950.21
460.76	8957.23
460.94	9128.09
461.12	8990.00
461.31	8999.36
461.49	9116.39
461.67	8968.93
461.85	9069.58
462.04	9193.62
462.22	9500.23
462.40	9338.74
462.59	9179.58
462.77	9238.09
462.95	9207.67
463.13	9121.07
463.32	9390.23
463.50	9483.85
463.68	9174.90
463.86	9432.36
464.05	9064.89
464.23	9446.40
464.41	9294.27
464.59	9212.35
464.78	9521.30
464.96	9533.00
465.14	9343.42
465.32	9685.14
465.50	9530.66
465.69	9778.76
465.87	9434.70
466.05	9554.07
466.23	9490.87
466.41	9504.92
466.60	9767.06
466.78	9406.61
466.96	9605.56
467.14	9596.20
467.32	9678.12
467.51	9884.08
467.69	9502.58
467.87	9741.31
468.05	9926.21
468.23	9692.16
468.41	9863.02
468.60	9802.16
468.78	9914.51
468.96	9874.72
469.14	9996.43
469.32	10153.24
469.50	10050.26
469.69	10104.09
469.87	10139.20
470.05	10221.12
470.23	10022.17
470.41	10209.42
470.59	10293.68
470.77	10195.37
470.95	10258.57
471.14	10408.36
471.32	10473.90
471.50	10693.91
471.68	10677.52
471.86	10766.46
472.04	11028.60
472.22	11059.03
472.40	10759.44
472.58	10766.46
472.77	10864.77
472.95	10972.43
473.13	11421.81
473.31	11054.35
473.49	11000.52
473.67	11021.58
473.85	11087.12
474.03	11367.98
474.21	11225.21
474.39	11510.75
474.57	11485.01
474.75	11580.97
474.93	11557.57
475.12	11639.48
475.30	11599.70
475.48	11892.26
475.66	11791.62
475.84	11726.08
476.02	11805.66
476.20	11971.84
476.38	12131.00
476.56	12372.07
476.74	12224.62
476.92	12273.77
477.10	12404.84
477.28	12650.60
477.46	12608.47
477.64	12711.45
477.82	12849.54
478.00	13132.75
478.18	13125.72
478.36	13050.83
478.54	13266.16
478.72	13177.22
478.90	13668.73
479.08	13717.88
479.26	13841.93
479.44	13699.16
479.62	13565.74
479.80	13813.84
479.98	13874.70
480.16	14305.35
480.34	14085.34
480.52	14387.27
480.70	14532.39
480.88	14183.65
481.06	14640.05
481.24	14745.38
481.41	14754.74
481.59	14822.61
481.77	15030.92
481.95	15211.14
482.13	15248.59
482.31	14906.87
482.49	15419.45
482.67	15332.85
482.85	15587.97
483.03	15690.95
483.21	15929.69
483.39	16135.65
483.57	15896.92
483.74	16215.23
483.92	16292.47
484.10	16222.25
484.28	16390.77
484.46	16617.80
484.64	17018.04
484.82	16610.78
485.00	16877.60
485.18	17144.42
485.35	17174.85
485.53	16657.59
485.71	16769.94
485.89	17025.06
486.07	17029.74
486.25	17233.36
486.43	17668.70
486.61	17809.14
486.78	17907.44
486.96	18127.45
487.14	18462.15
487.32	18438.74
487.50	18490.23
487.68	18848.33
487.85	19201.76
488.03	19220.48
488.21	19257.93
488.39	19346.87
488.57	19716.67
488.75	19480.28
488.92	19955.41
489.10	20147.33
489.28	20044.35
489.46	20620.12
489.64	20393.09
489.81	20828.43
489.99	20858.85
490.17	20872.90
490.35	21181.85
490.53	21343.35
490.70	21408.88
490.88	21390.16
491.06	21591.44
491.24	21717.83
491.41	21624.21
491.59	21289.51
491.77	21516.54
491.95	21631.23
492.13	22181.26
492.30	22398.93
492.48	22576.81
492.66	22396.59
492.84	22473.82
493.01	22934.91
493.19	22874.06
493.37	22916.19
493.54	23204.07
493.72	22984.06
493.90	23646.43
494.08	23737.71
494.25	23962.40
494.43	23775.16
494.61	24269.01
494.79	24236.25
494.96	24594.35
495.14	24343.91
495.32	24362.64
495.49	24584.99
495.67	24774.57
495.85	25085.86
496.02	25462.69
496.20	25434.60
496.38	25460.35
496.55	25474.39
496.73	26001.01
496.91	25771.64
497.09	26040.80
497.26	26078.25
497.44	25837.17
497.62	25881.64
497.79	26391.88
497.97	26246.77
498.14	26157.83
498.32	26693.81
498.50	26778.07
498.67	27091.70
498.85	27295.33
499.03	27398.31
499.20	27398.31
499.38	27461.51
499.56	27454.48
499.73	27393.63
499.91	27337.46
500.08	27363.20
500.26	27454.48
500.44	27503.64
500.61	27786.84
500.79	27740.03
500.97	28126.22
501.14	28149.62
501.32	28203.46
501.49	27960.04
501.67	28226.86
501.84	28182.39
502.02	28449.21
502.20	28620.07
502.37	28973.49
502.55	28800.29
502.72	29006.26
502.90	29184.14
503.07	29163.08
503.25	28966.47
503.43	29156.05
503.60	29340.96
503.78	29610.12
503.95	29532.88
504.13	29460.32
504.30	29638.20
504.48	29422.87
504.65	29467.34
504.83	30118.01
505.01	30415.26
505.18	30157.80
505.36	30242.06
505.53	30492.50
505.71	30686.76
505.88	30869.33
506.06	30513.56
506.23	30745.28
506.41	30560.37
506.58	30946.56
506.76	30874.01
506.93	31033.16
507.11	31299.98
507.28	31267.22
507.46	31145.51
507.63	31037.84
507.81	31173.60
507.98	31236.79
508.16	31222.75
508.33	31707.24
508.50	31482.55
508.68	31917.89
508.85	32236.20
509.03	32058.32
509.20	32201.09
509.38	32662.18
509.55	32435.14
509.73	32552.17
509.90	32851.76
510.08	32308.76
510.25	32793.25
510.42	32800.27
510.60	33010.92
510.77	32893.89
510.95	33092.83
511.12	33296.46
511.30	33333.91
511.47	33518.81
511.64	33362.00
511.82	33862.87
511.99	32938.36
512.17	33415.83
512.34	33177.09
512.51	33799.68
512.69	34059.48
512.86	34171.82
513.04	34110.97
513.21	34017.35
513.38	33991.60
513.56	33830.10
513.73	33977.56
513.90	34302.89
514.08	33989.26
514.25	34307.57
514.43	34469.07
514.60	34452.69
514.77	34604.82
514.95	34469.07
515.12	34267.78
515.29	35318.68
515.47	35330.39
515.64	35526.99
515.81	35215.70
515.99	34927.81
516.16	34714.83
516.33	34628.23
516.51	34817.81
516.68	34499.50
516.85	34183.52
517.03	34689.08
517.20	34934.84
517.37	35246.13
517.54	35426.35
517.72	35711.89
517.89	35512.95
518.06	34871.64
518.24	35047.18
518.41	35168.89
518.58	35810.20
518.75	35566.78
518.93	35859.35
519.10	36067.66
519.27	36421.08
519.45	36156.60
519.62	36369.58
519.79	36989.83
519.96	36868.12
520.14	36865.78
520.31	36542.78
520.48	36833.01
520.65	36781.52
520.83	37354.95
521.00	37212.18
521.17	36954.72
521.34	37263.67
521.52	37214.52
521.69	37666.24
521.86	37596.03
522.03	37593.68
522.20	37413.46
522.38	37565.60
522.55	37722.41
522.72	37633.47
522.89	37633.47
523.07	37780.93
523.24	37610.07
523.41	38237.33
523.58	37649.86
523.75	38796.72
523.92	38565.01
524.10	38883.32
524.27	38794.38
524.44	38513.52
524.61	39124.40
524.78	38401.17
524.96	38932.47
525.13	38419.89
525.30	39157.16
525.47	39189.93
525.64	38930.13
525.81	38850.55
525.98	38799.06
526.16	38728.84
526.33	38452.66
526.50	38787.36
526.67	38550.96
526.84	38693.74
527.01	38836.51
527.18	39063.54
527.36	38967.58
527.53	39194.61
527.70	39751.66
527.87	39683.78
528.04	39838.26
528.21	40088.70
528.38	39859.32
528.55	40048.91
528.72	40208.06
528.89	40343.81
529.07	40535.74
529.24	39875.71
529.41	40130.83
529.58	40034.86
529.75	39959.97
529.92	40245.51
530.09	40540.42
530.26	40683.19
530.43	40748.73
530.60	40039.54
530.77	40699.58
530.94	40954.69
531.11	40748.73
531.28	40828.30
531.46	40910.22
531.63	41088.10
531.80	40680.85
531.97	40788.52
532.14	40556.80
532.31	40561.48
532.48	40821.28
532.65	41067.04
532.82	41043.63
532.99	41160.66
533.16	41364.29
533.33	41635.79
533.50	41270.67
533.67	40765.11
533.84	41212.15
534.01	41439.18
534.18	41359.61
534.35	41544.51
534.52	41404.08
534.69	41509.40
534.86	41853.46
535.03	41649.83
535.20	42394.12
535.37	42511.15
535.54	42391.78
535.71	41869.84
535.88	41921.34
536.05	41904.95
536.22	42192.84
536.38	42469.02
536.55	41895.59
536.72	41617.07
536.89	42033.68
537.06	42218.58
537.23	42459.66
537.40	42270.08
537.57	42773.29
537.74	42579.03
537.91	42408.17
538.08	42651.58
538.25	42106.24
538.42	42815.42
538.59	42824.78
538.75	42522.85
538.92	42742.86
539.09	42878.61
539.26	43110.33
539.43	42508.81
539.60	42604.77
539.77	42682.01
539.94	42677.33
540.11	42387.10
540.28	43173.52
540.44	42799.04
540.61	42878.61
540.78	42220.92
540.95	42946.49
541.12	42667.97
541.29	42897.34
541.46	43260.12
541.62	43217.99
541.79	43646.31
541.96	43075.22
542.13	43175.86
542.30	43276.51
542.47	43618.22
542.63	43203.95
542.80	43367.79
542.97	44247.83
543.14	44130.80
543.31	44123.78
543.48	43929.51
543.64	44552.10
543.81	44201.02
543.98	44247.83
544.15	43693.12
544.32	44378.90
544.48	44423.37
544.65	44442.09
544.82	44884.45
544.99	43878.02
545.16	44133.14
545.32	44442.09
545.49	44289.96
545.66	44477.20
545.83	44573.16
546.00	44711.25
546.16	44959.35
546.33	44208.04
546.50	43892.07
546.67	44315.70
546.83	43735.25
547.00	44435.07
547.17	44402.30
547.34	44500.61
547.50	44910.20
547.67	45048.29
547.84	44795.51
548.00	45399.37
548.17	45158.30
548.34	44957.01
548.51	45324.47
548.67	45139.57
548.84	45200.43
549.01	45081.06
549.18	45097.44
549.34	45277.66
549.51	45270.64
549.68	45148.93
549.84	45083.40
550.01	45523.42
550.18	44957.01
550.34	45488.31
550.51	44992.12
550.68	45179.36
550.84	45111.49
551.01	45106.80
551.18	45132.55
551.34	45235.53
551.51	45989.19
551.68	45570.23
551.84	45722.37
552.01	45673.21
552.18	45708.32
552.34	45010.84
552.51	45551.51
552.68	45603.00
552.84	46150.68
553.01	46178.77
553.18	45469.59
553.34	45799.60
553.51	45223.83
553.67	45729.39
553.84	45984.51
554.01	45572.57
554.17	45544.48
554.34	46340.27
554.51	46064.08
554.67	46211.54
554.84	46192.81
555.00	45935.35
555.17	46160.05
555.33	46590.70
555.50	46443.25
555.67	45979.82
555.83	46513.47
556.00	45982.16
556.16	46546.23
556.33	46436.23
556.50	46272.39
556.66	46497.08
556.83	45677.90
556.99	46394.10
557.16	46337.93
557.32	46340.27
557.49	46508.79
557.65	46251.33
557.82	46639.86
557.98	46457.29
558.15	46525.17
558.32	46010.25
558.48	45525.76
558.65	46368.35
558.81	47044.77
558.98	46480.70
559.14	46506.44
559.31	46241.96
559.47	46717.09
559.64	46429.21
559.80	47065.83
559.97	46588.36
560.13	46735.82
560.30	46354.31
560.46	46651.56
560.63	46719.43
560.79	46569.64
560.96	46927.74
561.12	46817.74
561.29	46789.65
561.45	46604.75
561.61	46576.66
561.78	46583.68
561.94	46623.47
562.11	46431.55
562.27	46684.33
562.44	46703.05
562.60	46820.08
562.77	46838.80
562.93	47248.39
563.10	46927.74
563.26	46862.21
563.42	46946.47
563.59	46593.04
563.75	46962.85
563.92	46581.34
564.08	46878.59
564.24	46803.69
564.41	47206.26
564.57	47138.39
564.74	47283.50
564.90	47253.08
565.07	47274.14
565.23	46927.74
565.39	46859.87
565.56	47000.30
565.72	46932.42
565.88	47122.01
566.05	46948.81
566.21	46836.46
566.38	46899.65
566.54	46925.40
566.70	47271.80
566.87	47379.46
567.03	47459.04
567.19	47124.35
567.36	47608.84
567.52	46913.70
567.68	47150.09
567.85	47166.48
568.01	47164.14
568.17	46742.84
568.34	46845.82
568.50	46995.62
568.66	47267.12
568.83	46710.07
568.99	46941.78
569.15	47133.71
569.32	46836.46
569.48	46726.46
569.64	47491.81
569.81	47391.17
569.97	46953.49
570.13	47091.58
570.30	47241.37
570.46	47030.72
570.62	46958.17
570.78	47234.35
570.95	46817.74
571.11	47145.41
571.27	46810.71
571.43	47428.62
571.60	46953.49
571.76	47234.35
571.92	47398.19
572.09	47044.77
572.25	47512.88
572.41	47466.06
572.57	47304.57
572.74	47878.00
572.90	47152.43
573.06	47515.22
573.22	47512.88
573.38	47597.13
573.55	47107.96
573.71	47758.63
573.87	47217.97
574.03	47026.04
574.20	47320.95
574.36	47255.42
574.52	47215.63
574.68	47770.33
574.84	47665.01
575.01	47459.04
575.17	47035.41
575.33	46726.46
575.49	47435.64
575.65	47641.60
575.82	47522.24
575.98	47423.93
576.14	47583.09
576.30	47505.85
576.46	47253.08
576.62	47327.97
576.79	47538.62
576.95	46735.82
577.11	47374.78
577.27	47281.16
577.43	47091.58
577.59	46976.89
577.75	47208.61
577.92	46799.01
578.08	46986.25
578.24	47222.65
578.40	47281.16
578.56	47501.17
578.72	47136.05
578.88	47679.05
579.04	47140.73
579.21	47145.41
579.37	47285.84
579.53	47281.16
579.69	47075.19
579.85	47129.03
580.01	47723.52
580.17	47290.52
580.33	47576.07
580.49	47508.19
580.65	47590.11
580.82	47704.80
580.98	47398.19
581.14	47334.99
581.30	47573.73
581.46	47536.28
581.62	47625.22
581.78	47402.87
581.94	48041.84
582.10	47276.48
582.26	47742.25
582.42	47236.69
582.58	47688.42
582.74	47276.48
582.90	47557.35
583.06	47990.34
583.22	47629.90
583.38	47505.85
583.54	47407.55
583.70	47213.29
583.86	47260.10
584.02	47091.58
584.18	47730.54
584.34	47634.58
584.50	47482.45
584.66	47131.37
584.82	47297.55
584.98	48025.45
585.14	47592.45
585.30	47260.10
585.46	47253.08
585.62	47175.84
585.78	47138.39
585.94	47281.16
586.10	47580.75
586.26	47311.59
586.42	47751.61
586.58	47756.29
586.74	47274.14
586.90	47295.21
587.06	47185.20
587.22	47985.66
587.38	47229.67
587.54	47295.21
587.70	47856.93
587.86	47767.99
588.02	47330.31
588.18	47597.13
588.34	47498.83
588.49	46946.47
588.65	46829.44
588.81	46738.16
588.97	46894.97
589.13	46925.40
589.29	47063.49
589.45	46979.23
589.61	47545.64
589.77	47550.32
