SpectraSuite Data File
++++++++++++++++++++++++++++++++++++
Date: Fri Oct 25 10:43:39 EDT 2013
User: price-jones
Dark Spectrum Present: No
Reference Spectrum Present: No
Number of Sampled Component Spectra: 1
Spectrometers: USB2+H05261
Integration Time (usec): 100000 (USB2+H05261)
Spectra Averaged: 1 (USB2+H05261)
Boxcar Smoothing: 0 (USB2+H05261)
Correct for Electrical Dark: No (USB2+H05261)
Strobe/Lamp Enabled: No (USB2+H05261)
Correct for Detector Non-linearity: No (USB2+H05261)
Correct for Stray Light: No (USB2+H05261)
Number of Pixels in Processed Spectrum: 2048
>>>>>Begin Processed Spectral Data<<<<<
365.73	112.35
365.92	112.35
366.12	112.35
366.32	21.06
366.52	9.36
366.72	0.00
366.91	0.00
367.11	11.70
367.31	11.70
367.51	0.00
367.70	86.60
367.90	79.58
368.10	32.77
368.30	0.00
368.49	0.00
368.69	0.00
368.89	51.49
369.09	28.09
369.28	74.90
369.48	145.11
369.68	100.64
369.87	14.04
370.07	124.05
370.27	147.45
370.47	124.05
370.66	489.17
370.86	348.74
371.06	463.43
371.25	444.70
371.45	416.62
371.65	486.83
371.84	465.77
372.04	447.04
372.24	491.51
372.44	533.64
372.63	484.49
372.83	517.26
373.03	566.41
373.22	519.60
373.42	510.24
373.62	533.64
373.81	594.50
374.01	552.37
374.21	510.24
374.40	538.32
374.60	589.82
374.79	578.11
374.99	526.62
375.19	603.86
375.38	578.11
375.58	582.79
375.78	608.54
375.97	650.67
376.17	629.60
376.37	617.90
376.56	571.09
376.76	599.18
376.95	734.93
377.15	585.13
377.35	610.88
377.54	589.82
377.74	657.69
377.93	622.58
378.13	599.18
378.33	650.67
378.52	613.22
378.72	683.44
378.91	697.48
379.11	734.93
379.31	695.14
379.50	763.01
379.70	755.99
379.89	720.88
380.09	699.82
380.28	674.07
380.48	718.54
380.68	671.73
380.87	688.12
381.07	692.80
381.26	739.61
381.46	779.40
381.65	657.69
381.85	695.14
382.04	763.01
382.24	648.33
382.43	624.92
382.63	739.61
382.83	636.63
383.02	758.33
383.22	723.23
383.41	655.35
383.61	716.20
383.80	716.20
384.00	777.06
384.19	788.76
384.39	727.91
384.58	777.06
384.78	901.11
384.97	868.34
385.17	807.48
385.36	844.93
385.56	812.17
385.75	807.48
385.95	842.59
386.14	828.55
386.34	858.98
386.53	851.96
386.72	725.57
386.92	903.45
387.11	779.40
387.31	884.72
387.50	933.87
387.70	922.17
387.89	950.26
388.09	861.32
388.28	858.98
388.48	870.68
388.67	997.07
388.86	985.37
389.06	964.30
389.25	940.90
389.45	990.05
389.64	964.30
389.84	1090.69
390.03	884.72
390.22	1062.60
390.42	912.81
390.61	1027.50
390.81	924.51
391.00	990.05
391.19	1095.37
391.39	1041.54
391.58	1036.86
391.78	947.92
391.97	1074.31
392.16	964.30
392.36	1144.52
392.55	1097.71
392.75	1050.90
392.94	1090.69
393.13	943.24
393.33	990.05
393.52	1100.05
393.71	1174.95
393.91	1109.41
394.10	1104.73
394.29	1160.91
394.49	1142.18
394.68	1345.81
394.88	1139.84
395.07	1296.66
395.26	1198.35
395.46	1277.93
395.65	1217.08
395.84	1231.12
396.04	1252.19
396.23	1219.42
396.42	1240.48
396.62	1057.92
396.81	1181.97
397.00	1221.76
397.19	1291.98
397.39	1299.00
397.58	1423.05
397.77	1460.49
397.97	1467.52
398.16	1556.46
398.35	1460.49
398.55	1458.15
398.74	1462.83
398.93	1540.07
399.12	1544.75
399.32	1479.22
399.51	1528.37
399.70	1561.14
399.90	1497.94
400.09	1678.16
400.28	1631.35
400.47	1678.16
400.67	1696.89
400.86	1652.42
401.05	1739.02
401.24	1722.63
401.44	1764.76
401.63	1743.70
401.82	1764.76
402.01	1710.93
402.21	1757.74
402.40	1823.28
402.59	1764.76
402.78	1792.85
402.97	1802.21
403.17	1849.02
403.36	1834.98
403.55	1844.34
403.74	1778.81
403.93	1933.28
404.13	1914.56
404.32	1912.22
404.51	1844.34
404.70	1935.62
404.89	1865.41
405.09	2038.61
405.28	2097.12
405.47	2008.18
405.66	2005.84
405.85	2047.97
406.05	2003.50
406.24	2078.40
406.43	2050.31
406.62	2153.29
406.81	2108.82
407.00	2099.46
407.20	2069.03
407.39	2129.89
407.58	2179.04
407.77	2242.23
407.96	2157.97
408.15	2270.32
408.34	2221.17
408.54	2314.79
408.73	2293.72
408.92	2375.64
409.11	2373.30
409.30	2361.60
409.49	2221.17
409.68	2282.02
409.87	2326.49
410.07	2473.95
410.26	2317.13
410.45	2443.52
410.64	2380.32
410.83	2466.92
411.02	2541.82
411.21	2593.31
411.40	2705.66
411.59	2654.17
411.78	2700.98
411.98	2602.68
412.17	2679.91
412.36	2684.59
412.55	2684.59
412.74	2780.56
412.93	2796.94
413.12	2818.00
413.31	2829.71
413.50	2796.94
413.69	2693.96
413.88	2949.08
414.07	2963.12
414.26	3000.57
414.45	2932.69
414.64	2897.58
414.83	3129.30
415.02	3040.36
415.22	3108.23
415.41	3138.66
415.60	3133.98
415.79	3243.98
415.98	3265.05
416.17	3316.54
416.36	3248.66
416.55	3283.77
416.74	3335.26
416.93	3307.18
417.12	3307.18
417.31	3356.33
417.50	3489.74
417.69	3379.73
417.88	3562.30
418.07	3365.69
418.26	3559.95
418.45	3574.00
418.64	3644.21
418.83	3574.00
419.02	3648.90
419.21	3606.77
419.39	3552.93
419.58	3564.64
419.77	3569.32
419.96	3599.74
420.15	3775.28
420.34	3850.18
420.53	3740.18
420.72	3801.03
420.91	3850.18
421.10	3861.88
421.29	3934.44
421.48	3775.28
421.67	3892.31
421.86	3873.59
422.05	3833.80
422.24	3852.52
422.43	3885.29
422.61	3953.16
422.80	4035.08
422.99	3896.99
423.18	3899.33
423.37	4014.02
423.56	3985.93
423.75	3971.89
423.94	3908.69
424.13	3756.56
424.32	3871.25
424.50	4056.15
424.69	4025.72
424.88	4032.74
425.07	4011.68
425.26	3899.33
425.45	3955.51
425.64	3971.89
425.83	4018.70
426.01	4079.55
426.20	4023.38
426.39	4102.96
426.58	4018.70
426.77	3992.95
426.96	4208.28
427.15	4042.11
427.33	4051.47
427.52	4100.62
427.71	4248.07
427.90	4077.21
428.09	4325.31
428.28	4203.60
428.46	4196.58
428.65	4231.69
428.84	4404.89
429.03	4318.29
429.22	4109.98
429.40	4175.52
429.59	4161.47
429.78	3990.61
429.97	3999.98
430.16	4028.06
430.34	4058.49
430.53	4173.18
430.72	4098.28
430.91	4339.35
431.10	4475.10
431.28	4531.28
431.47	4751.29
431.66	4704.48
431.85	4559.36
432.03	4547.66
432.22	4599.15
432.41	4767.67
432.60	4617.88
432.79	4685.75
432.97	4751.29
433.16	4823.84
433.35	4802.78
433.54	4786.40
433.72	4688.09
433.91	4643.62
434.10	4821.50
434.28	4868.31
434.47	5050.88
434.66	4992.36
434.85	5015.77
435.03	5036.83
435.22	4809.80
435.41	5210.03
435.59	5053.22
435.78	5184.29
435.97	5238.12
436.16	5305.99
436.34	5268.55
436.53	5128.11
436.72	5352.81
436.90	5238.12
437.09	5315.36
437.28	5287.27
437.46	5186.63
437.65	5221.74
437.84	5198.33
438.02	5191.31
438.21	5214.71
438.40	5144.50
438.58	5418.34
438.77	5476.85
438.96	5373.87
439.14	5750.70
439.33	5680.48
439.52	5650.05
439.70	5701.54
439.89	5673.46
440.08	5582.18
440.26	5783.46
440.45	5692.18
440.63	5940.28
440.82	6136.88
441.01	5909.85
441.19	6197.74
441.38	6209.44
441.57	6061.99
441.75	6221.14
441.94	6392.00
442.12	6389.66
442.31	6324.13
442.50	6352.21
442.68	6420.09
442.87	6368.60
443.05	6340.51
443.24	6438.81
443.43	6459.88
443.61	6656.48
443.80	6623.72
443.98	6436.47
444.17	6221.14
444.35	6754.79
444.54	6689.25
444.73	6408.39
444.91	6523.07
445.10	6370.94
445.28	6537.12
445.47	6448.18
445.65	6525.41
445.84	6743.08
446.02	6511.37
446.21	6567.54
446.39	6581.59
446.58	6672.87
446.77	6752.45
446.95	6590.95
447.14	6754.79
447.32	6958.41
447.51	6642.44
447.69	6705.63
447.88	6747.76
448.06	6829.68
448.25	6642.44
448.43	6939.69
448.62	6785.21
448.80	6686.91
448.99	6960.75
449.17	6888.20
449.36	6949.05
449.54	7138.63
449.73	7307.15
449.91	7145.66
450.10	7112.89
450.28	7281.41
450.46	7250.98
450.65	7293.11
450.83	7166.72
451.02	7180.76
451.20	7351.62
451.39	7412.48
451.57	7190.13
451.76	7049.69
451.94	7197.15
452.13	7337.58
452.31	7405.46
452.49	7323.54
452.68	7145.66
452.86	7309.49
453.05	7272.04
453.23	7375.03
453.42	7274.38
453.60	7459.29
453.78	7470.99
453.97	7527.16
454.15	7538.87
454.34	7398.43
454.52	7534.18
454.70	7632.49
454.89	7611.42
455.07	7517.80
455.26	7559.93
455.44	7918.03
455.62	7810.37
455.81	7789.30
455.99	8088.89
456.17	7770.58
456.36	7854.84
456.54	8177.83
456.73	8182.51
456.91	8198.90
457.09	8154.43
457.28	8503.17
457.46	8159.11
457.64	8255.07
457.83	8184.85
458.01	8236.35
458.19	8250.39
458.38	8451.67
458.56	8365.07
458.74	8292.52
458.93	8189.53
459.11	8376.78
459.29	8425.93
459.48	8189.53
459.66	8332.31
459.84	8547.64
460.03	8580.40
460.21	8650.62
460.39	8444.65
460.57	8683.39
460.76	8762.97
460.94	8762.97
461.12	8723.18
461.31	8627.21
461.49	8657.64
461.67	8947.87
461.85	8968.93
462.04	8915.10
462.22	9320.01
462.40	8982.98
462.59	8924.46
462.77	9034.47
462.95	9144.47
463.13	9104.68
463.32	8954.89
463.50	9146.81
463.68	9083.62
463.86	9116.39
464.05	8978.30
464.23	8936.17
464.41	9081.28
464.59	8917.44
464.78	9366.82
464.96	9069.58
465.14	9067.24
465.32	9504.92
465.50	9397.25
465.69	9434.70
465.87	9352.78
466.05	9366.82
466.23	9338.74
466.41	9500.23
466.60	9310.65
466.78	9092.98
466.96	9228.73
467.14	9350.44
467.32	9528.32
467.51	9708.54
467.69	9170.22
467.87	9579.81
468.05	9418.32
468.23	9507.26
468.41	9544.70
468.60	9624.28
468.78	9891.10
468.96	9703.86
469.14	9846.63
469.32	9687.48
469.50	9659.39
469.69	9713.22
469.87	9961.32
470.05	9942.60
470.23	9783.44
470.41	9930.89
470.59	10050.26
470.77	10183.67
470.95	9827.91
471.14	10162.61
471.32	10160.27
471.50	10281.97
471.68	10298.36
471.86	10501.98
472.04	10438.79
472.22	10661.14
472.40	10466.88
472.58	10448.15
472.77	10530.07
472.95	10670.50
473.13	10995.84
473.31	10874.13
473.49	10654.12
473.67	10534.75
473.85	10689.23
474.03	10930.30
474.21	11044.99
474.39	10974.77
474.57	11040.31
474.75	11152.65
474.93	11389.05
475.12	11304.79
475.30	11407.77
475.48	11316.49
475.66	11489.69
475.84	11269.68
476.02	11353.94
476.20	11232.23
476.38	11623.10
476.56	11749.49
476.74	11997.59
476.92	11875.88
477.10	11740.13
477.28	12402.50
477.46	12276.11
477.64	12393.14
477.82	12535.91
478.00	12720.81
478.18	12622.51
478.36	12720.81
478.54	12849.54
478.72	12784.01
478.90	13160.83
479.08	13235.73
479.26	13378.50
479.44	13444.04
479.62	13462.76
479.80	13598.51
479.98	13516.59
480.16	13788.10
480.34	13600.85
480.52	14047.90
480.70	13795.12
480.88	13944.91
481.06	13884.06
481.24	14228.12
481.41	14492.60
481.59	14443.45
481.77	14651.75
481.95	14441.11
482.13	14939.64
482.31	14607.28
482.49	14803.89
482.67	14860.06
482.85	15178.37
483.03	15232.21
483.21	15391.36
483.39	15597.33
483.57	15431.15
483.74	15665.21
483.92	15630.10
484.10	15517.75
484.28	16177.78
484.46	16198.85
484.64	16388.43
484.82	16077.14
485.00	16327.58
485.18	16477.37
485.35	16477.37
485.53	16102.89
485.71	16276.09
485.89	16397.79
486.07	16650.57
486.25	16915.05
486.43	17191.23
486.61	17341.03
486.78	17678.07
486.96	17652.32
487.14	18162.56
487.32	17832.54
487.50	17980.00
487.68	18366.18
487.85	18403.63
488.03	18438.74
488.21	18925.57
488.39	18721.95
488.57	18888.12
488.75	19124.52
488.92	18958.34
489.10	19583.26
489.28	19583.26
489.46	19906.26
489.64	19985.83
489.81	20170.74
489.99	20460.96
490.17	20219.89
490.35	20414.15
490.53	20521.82
490.70	20732.47
490.88	20774.60
491.06	20821.41
491.24	20755.87
491.41	20840.13
491.59	21200.57
491.77	21078.86
491.95	21546.97
492.13	21411.22
492.30	21561.02
492.48	21898.05
492.66	21874.65
492.84	21891.03
493.01	22380.20
493.19	21858.26
493.37	22286.58
493.54	22326.37
493.72	22906.82
493.90	22513.61
494.08	23080.02
494.25	23571.54
494.43	23328.12
494.61	23789.20
494.79	23585.58
494.96	23704.95
495.14	23852.40
495.32	23889.85
495.49	23817.29
495.67	24198.80
495.85	24259.65
496.02	24444.56
496.20	24439.87
496.38	24819.04
496.55	24805.00
496.73	25357.36
496.91	25135.01
497.09	25439.28
497.26	25380.77
497.44	25399.49
497.62	25125.65
497.79	25507.16
497.97	25446.30
498.14	25671.00
498.32	26024.42
498.50	25762.28
498.67	26230.38
498.85	26174.21
499.03	26373.16
499.20	26251.45
499.38	26349.75
499.56	26792.11
499.73	26639.98
499.91	26670.40
500.08	26780.41
500.26	26443.37
500.44	27044.89
500.61	26663.38
500.79	26696.15
500.97	27234.47
501.14	27344.48
501.32	27323.41
501.49	27494.27
501.67	27325.75
501.84	27854.72
502.02	27543.42
502.20	27784.50
502.37	27590.24
502.55	28023.23
502.72	28315.80
502.90	28084.09
503.07	28224.52
503.25	28250.27
503.43	28149.62
503.60	28411.76
503.78	28280.69
503.95	28479.64
504.13	28479.64
504.30	28945.41
504.48	28959.45
504.65	29223.93
504.83	29223.93
505.01	29268.40
505.18	29439.26
505.36	29696.72
505.53	29970.56
505.71	30047.80
505.88	29839.49
506.06	29710.76
506.23	29792.68
506.41	30108.65
506.58	30181.21
506.76	30071.20
506.93	30298.23
507.11	30466.75
507.28	30066.52
507.46	30043.12
507.63	30396.54
507.81	30637.61
507.98	30438.67
508.16	30869.33
508.33	31049.55
508.50	30962.95
508.68	31012.10
508.85	31667.45
509.03	31253.17
509.20	31632.34
509.38	31316.37
509.55	31454.46
509.73	31262.54
509.90	31735.32
510.08	31150.19
510.25	31828.95
510.42	31566.81
510.60	31732.98
510.77	32013.85
510.95	32217.47
511.12	32037.25
511.30	32212.79
511.47	33064.75
511.64	32620.05
511.82	32716.01
511.99	32528.77
512.17	32383.65
512.34	32631.75
512.51	32823.67
512.69	33371.36
512.86	33104.54
513.04	33266.03
513.21	32680.90
513.38	33240.29
513.56	33202.84
513.73	33144.33
513.90	33785.63
514.08	33453.28
514.25	33694.35
514.43	33273.06
514.60	33331.57
514.77	33720.10
514.95	33818.40
515.12	33860.53
515.29	33970.54
515.47	34426.94
515.64	34377.79
515.81	33820.74
515.99	33977.56
516.16	34096.92
516.33	33792.65
516.51	34003.30
516.68	33563.28
516.85	33699.03
517.03	33851.17
517.20	34525.24
517.37	34607.16
517.54	34576.73
517.72	34431.62
517.89	34408.22
518.06	34440.98
518.24	34316.93
518.41	34656.31
518.58	34660.99
518.75	34644.61
518.93	35030.80
519.10	35187.61
519.27	35585.50
519.45	35562.10
519.62	35311.66
519.79	35833.60
519.96	35199.32
520.14	35590.19
520.31	35381.88
520.48	35316.34
520.65	35899.14
520.83	36233.83
521.00	36016.16
521.17	35885.09
521.34	36095.74
521.52	36402.35
521.69	36559.17
521.86	36863.44
522.03	36690.24
522.20	36161.28
522.38	36755.77
522.55	36697.26
522.72	36538.10
522.89	36900.89
523.07	36762.79
523.24	36718.32
523.41	37280.05
523.58	36833.01
523.75	37771.57
523.92	37186.43
524.10	37282.39
524.27	37504.74
524.44	37523.47
524.61	37464.96
524.78	38003.28
524.96	37638.15
525.13	37467.30
525.30	37624.11
525.47	37951.79
525.64	37841.78
525.81	37687.31
525.98	37982.21
526.16	37298.78
526.33	37663.90
526.50	37399.42
526.67	37268.35
526.84	37556.24
527.01	37860.51
527.18	37844.12
527.36	38412.87
527.53	38550.96
527.70	38913.75
527.87	38628.20
528.04	38705.44
528.21	38408.19
528.38	38815.44
528.55	39306.96
528.72	39112.69
528.89	39218.02
529.07	38951.20
529.24	38941.83
529.41	39126.74
529.58	38873.96
529.75	38761.61
529.92	39639.31
530.09	39222.70
530.26	39164.18
530.43	39342.06
530.60	39402.92
530.77	39276.53
530.94	40037.20
531.11	39569.10
531.28	39847.62
531.46	39732.93
531.63	39889.75
531.80	39548.03
531.97	39824.22
532.14	39988.05
532.31	39344.41
532.48	39611.23
532.65	39594.84
532.82	39868.69
532.99	40065.29
533.16	39817.19
533.33	40418.71
533.50	40196.36
533.67	40245.51
533.84	40322.75
534.01	40027.84
534.18	40357.86
534.35	40465.52
534.52	40362.54
534.69	40912.56
534.86	40980.44
535.03	40336.79
535.20	41280.03
535.37	41226.20
535.54	41490.68
535.71	40896.18
535.88	40570.85
536.05	40587.23
536.22	41067.04
536.38	40601.27
536.55	40762.77
536.72	40786.18
536.89	40392.97
537.06	41179.39
537.23	41184.07
537.40	40928.95
537.57	41593.66
537.74	41542.17
537.91	41956.44
538.08	41872.18
538.25	41418.12
538.42	41275.35
538.59	41771.54
538.75	41455.57
538.92	41383.01
539.09	42073.47
539.26	41949.42
539.43	41567.91
539.60	41373.65
539.77	41560.89
539.94	41713.03
540.11	41329.18
540.28	41862.82
540.44	41766.86
540.61	41483.66
540.78	41301.09
540.95	41968.15
541.12	41851.12
541.29	42230.29
541.46	42148.37
541.62	42120.28
541.79	42569.66
541.96	41883.89
542.13	42162.41
542.30	42300.50
542.47	42117.94
542.63	42333.27
542.80	42307.52
542.97	42939.47
543.14	42784.99
543.31	42941.81
543.48	42513.49
543.64	43103.31
543.81	43370.13
543.98	42473.70
544.15	42693.71
544.32	43201.61
544.48	43686.10
544.65	43587.80
544.82	43374.81
544.99	42824.78
545.16	43173.52
545.32	43140.75
545.49	43777.38
545.66	43597.16
545.83	43250.76
546.00	43505.88
546.16	43548.01
546.33	43583.12
546.50	43005.00
546.67	43662.69
546.83	43643.97
547.00	43328.00
547.17	43793.76
547.34	43210.97
547.50	43372.47
547.67	43955.26
547.84	43573.75
548.00	44231.44
548.17	44025.48
548.34	44093.35
548.51	44100.37
548.67	44133.14
548.84	43716.53
549.01	44095.69
549.18	43828.87
549.34	44105.06
549.51	44208.04
549.68	44495.92
549.84	43885.04
550.01	44432.73
550.18	44051.22
550.34	44336.77
550.51	44535.71
550.68	44362.51
550.84	43775.04
551.01	44259.53
551.18	44069.95
551.34	44315.70
551.51	44430.39
551.68	44308.68
551.84	44219.74
552.01	44287.62
552.18	44631.68
552.34	43679.08
552.51	44854.03
552.68	44421.03
552.84	44673.81
553.01	44741.68
553.18	44669.12
553.34	44357.83
553.51	44280.60
553.67	44802.53
553.84	45036.59
554.01	44519.33
554.17	44870.41
554.34	45069.36
554.51	44893.82
554.67	45160.64
554.84	45036.59
555.00	44875.09
555.17	44638.70
555.33	44849.35
555.50	44708.91
555.67	44858.71
555.83	45263.62
556.00	45200.43
556.16	45537.46
556.33	45188.72
556.50	45095.10
556.66	45174.68
556.83	45017.86
556.99	45202.77
557.16	45450.86
557.32	45052.97
557.49	45329.16
557.65	45371.28
557.82	45343.20
557.98	44980.42
558.15	45139.57
558.32	45097.44
558.48	44907.86
558.65	45139.57
558.81	45296.39
558.98	45052.97
559.14	45333.84
559.31	45034.25
559.47	45504.70
559.64	45853.44
559.80	45113.83
559.97	45577.25
560.13	45162.98
560.30	45495.33
560.46	45792.58
560.63	45429.80
560.79	45743.43
560.96	45588.95
561.12	45614.70
561.29	45345.54
561.45	45684.92
561.61	45586.61
561.78	45371.28
561.94	45329.16
562.11	45682.58
562.27	45191.06
562.44	45724.71
562.60	46010.25
562.77	45551.51
562.93	45256.60
563.10	46155.36
563.26	45509.38
563.42	45488.31
563.59	45549.17
563.75	45544.48
563.92	45670.87
564.08	45698.96
564.24	46169.41
564.41	46241.96
564.57	45832.37
564.74	45942.38
564.90	45722.37
565.07	45921.31
565.23	45757.47
565.39	46024.29
565.56	46059.40
565.72	45485.97
565.88	45729.39
566.05	45544.48
566.21	45797.26
566.38	46157.70
566.54	45921.31
566.70	46436.23
566.87	46232.60
567.03	46028.98
567.19	46366.01
567.36	45851.09
567.52	46017.27
567.68	46314.52
567.85	45909.61
568.01	45612.36
568.17	45741.09
568.34	46064.08
568.50	45869.82
568.66	45755.13
568.83	45954.08
568.99	45633.42
569.15	46057.06
569.32	45984.51
569.48	45654.49
569.64	45881.52
569.81	46401.12
569.97	46284.09
570.13	45647.47
570.30	45670.87
570.46	45705.98
570.62	45666.19
570.78	45162.98
570.95	45729.39
571.11	45855.78
571.27	45986.85
571.43	45893.22
571.60	46078.13
571.76	45977.48
571.92	46103.87
572.09	46171.75
572.25	46003.23
572.41	46443.25
572.57	46328.56
572.74	46321.54
572.90	46005.57
573.06	46328.56
573.22	46007.91
573.38	46110.89
573.55	45874.50
573.71	46532.19
573.87	46532.19
574.03	46122.60
574.20	46272.39
574.36	46412.82
574.52	46232.60
574.68	46080.47
574.84	46394.10
575.01	46436.23
575.17	45902.59
575.33	45954.08
575.49	46141.32
575.65	46113.23
575.82	45928.33
575.98	46499.42
576.14	46281.75
576.30	46195.15
576.46	46272.39
576.62	45984.51
576.79	46316.86
576.95	46192.81
577.11	46609.43
577.27	46323.88
577.43	46237.28
577.59	45773.86
577.75	46192.81
577.92	45521.08
578.08	45514.06
578.24	45624.06
578.40	45813.65
578.56	46220.90
578.72	46293.46
578.88	46237.28
579.04	46265.37
579.21	45855.78
579.37	46174.09
579.53	46377.72
579.69	46146.00
579.85	46073.45
580.01	45989.19
580.17	45897.91
580.33	46328.56
580.49	46389.42
580.65	46043.02
580.82	46300.48
580.98	46270.05
581.14	45794.92
581.30	46452.61
581.46	46267.71
581.62	46461.97
581.78	46382.40
581.94	46508.79
582.10	46478.36
582.26	46820.08
582.42	46522.83
582.58	46576.66
582.74	46373.03
582.90	46504.10
583.06	46557.94
583.22	46660.92
583.38	46464.32
583.54	46454.95
583.70	46202.18
583.86	46394.10
584.02	46204.52
584.18	46712.41
584.34	46026.63
584.50	46153.02
584.66	46120.26
584.82	46052.38
584.98	46436.23
585.14	46438.57
585.30	46347.29
585.46	46146.00
585.62	45823.01
585.78	46124.94
585.94	45783.22
586.10	46258.35
586.26	46148.34
586.42	46719.43
586.58	46291.12
586.74	46480.70
586.90	45888.54
587.06	46752.20
587.22	46300.48
587.38	46440.91
587.54	46770.93
587.70	46665.60
587.86	46405.80
588.02	46398.78
588.18	46705.39
588.34	45628.74
588.49	45834.71
588.65	45705.98
588.81	45734.07
588.97	45762.15
589.13	45427.46
589.29	45649.81
589.45	46319.20
589.61	46571.98
589.77	46204.52
589.93	46527.51
