SpectraSuite Data File
++++++++++++++++++++++++++++++++++++
Date: Fri Oct 25 11:25:04 EDT 2013
User: price-jones
Dark Spectrum Present: No
Reference Spectrum Present: No
Number of Sampled Component Spectra: 1
Spectrometers: USB2+H05261
Integration Time (usec): 100000 (USB2+H05261)
Spectra Averaged: 1 (USB2+H05261)
Boxcar Smoothing: 0 (USB2+H05261)
Correct for Electrical Dark: No (USB2+H05261)
Strobe/Lamp Enabled: No (USB2+H05261)
Correct for Detector Non-linearity: No (USB2+H05261)
Correct for Stray Light: No (USB2+H05261)
Number of Pixels in Processed Spectrum: 2048
>>>>>Begin Processed Spectral Data<<<<<
365.73	231.71
365.92	231.71
366.12	231.71
366.32	163.84
366.52	112.35
366.72	191.92
366.91	180.22
367.11	161.50
367.31	93.62
367.51	56.17
367.70	140.43
367.90	170.86
368.10	74.90
368.30	42.13
368.49	133.41
368.69	121.71
368.89	159.16
369.09	149.79
369.28	138.09
369.48	121.71
369.68	166.18
369.87	234.05
370.07	191.92
370.27	224.69
370.47	304.27
370.66	575.77
370.86	608.54
371.06	695.14
371.25	601.52
371.45	613.22
371.65	599.18
371.84	683.44
372.04	681.10
372.24	753.65
372.44	781.74
372.63	753.65
372.83	741.95
373.03	840.25
373.22	697.48
373.42	709.18
373.62	765.36
373.81	767.70
374.01	744.29
374.21	830.89
374.40	758.33
374.60	763.01
374.79	842.59
374.99	800.46
375.19	816.85
375.38	830.89
375.58	821.53
375.78	931.53
375.97	887.06
376.17	870.68
376.37	863.66
376.56	875.36
376.76	819.19
376.95	954.94
377.15	851.96
377.35	926.85
377.54	873.02
377.74	844.93
377.93	837.91
378.13	1001.75
378.33	912.81
378.52	952.60
378.72	961.96
378.91	908.13
379.11	915.15
379.31	910.47
379.50	985.37
379.70	1032.18
379.89	1001.75
380.09	1081.33
380.28	999.41
380.48	997.07
380.68	912.81
380.87	952.60
381.07	957.28
381.26	1048.56
381.46	1013.45
381.65	1118.78
381.85	1060.26
382.04	1097.71
382.24	1090.69
382.43	1095.37
382.63	1109.41
382.83	1074.31
383.02	1158.57
383.22	1142.18
383.41	1043.88
383.61	1025.15
383.80	1142.18
384.00	1107.07
384.19	1174.95
384.39	1116.44
384.58	1071.97
384.78	1214.74
384.97	1163.25
385.17	1203.04
385.36	1132.82
385.56	1146.86
385.75	1128.14
385.95	1191.33
386.14	1235.80
386.34	1179.63
386.53	1151.54
386.72	1247.51
386.92	1254.53
387.11	1193.67
387.31	1256.87
387.50	1196.01
387.70	1200.69
387.89	1287.29
388.09	1191.33
388.28	1315.38
388.48	1177.29
388.67	1350.49
388.86	1280.27
389.06	1247.51
389.25	1282.61
389.45	1289.64
389.64	1334.11
389.84	1355.17
390.03	1336.45
390.22	1369.21
390.42	1401.98
390.61	1348.15
390.81	1373.89
391.00	1425.39
391.19	1409.00
391.39	1397.30
391.58	1409.00
391.78	1472.20
391.97	1507.30
392.16	1418.36
392.36	1565.82
392.55	1544.75
392.75	1584.54
392.94	1453.47
393.13	1425.39
393.33	1486.24
393.52	1584.54
393.71	1689.87
393.91	1544.75
394.10	1556.46
394.29	1689.87
394.49	1556.46
394.68	1640.72
394.88	1600.93
395.07	1607.95
395.26	1685.19
395.46	1650.08
395.65	1643.06
395.84	1701.57
396.04	1888.81
396.23	1797.53
396.42	1645.40
396.62	1722.63
396.81	1816.26
397.00	1706.25
397.19	1811.57
397.39	1722.63
397.58	1767.10
397.77	1703.91
397.97	1865.41
398.16	1736.68
398.35	1858.39
398.55	1881.79
398.74	1928.60
398.93	1923.92
399.12	1905.20
399.32	1886.47
399.51	1928.60
399.70	2005.84
399.90	1893.49
400.09	1942.64
400.28	2071.37
400.47	1937.96
400.67	2076.06
400.86	1942.64
401.05	1970.73
401.24	2139.25
401.44	2024.56
401.63	2059.67
401.82	2094.78
402.01	2069.03
402.21	2237.55
402.40	2190.74
402.59	2298.41
402.78	2270.32
402.97	2160.31
403.17	2265.64
403.36	2244.57
403.55	2225.85
403.74	2333.51
403.93	2415.43
404.13	2319.47
404.32	2345.22
404.51	2321.81
404.70	2385.01
404.89	2347.56
405.09	2410.75
405.28	2431.82
405.47	2312.45
405.66	2485.65
405.85	2555.86
406.05	2473.95
406.24	2513.74
406.43	2492.67
406.62	2647.15
406.81	2593.31
407.00	2581.61
407.20	2558.21
407.39	2684.59
407.58	2722.04
407.77	2801.62
407.96	2736.09
408.15	2661.19
408.34	2637.78
408.54	2729.06
408.73	2731.41
408.92	2724.38
409.11	2895.24
409.30	2963.12
409.49	2972.48
409.68	2764.17
409.87	2869.50
410.07	2979.50
410.26	2949.08
410.45	2949.08
410.64	2951.42
410.83	3056.74
411.02	3061.42
411.21	3199.51
411.40	2981.84
411.59	3164.40
411.78	3157.38
411.98	3143.34
412.17	3281.43
412.36	3265.05
412.55	3426.54
412.74	3424.20
412.93	3363.35
413.12	3496.76
413.31	3520.17
413.50	3503.78
413.69	3536.55
413.88	3524.85
414.07	3548.25
414.26	3669.96
414.45	3634.85
414.64	3695.71
414.83	3602.08
415.02	3616.13
415.22	3840.82
415.41	3796.35
415.60	3775.28
415.79	3857.20
415.98	3978.91
416.17	3985.93
416.36	3927.42
416.55	3845.50
416.74	4098.28
416.93	3950.82
417.12	4009.34
417.31	4070.19
417.50	4119.34
417.69	4287.86
417.88	4245.73
418.07	4285.52
418.26	4252.75
418.45	4294.88
418.64	4552.34
418.83	4472.76
419.02	4465.74
419.21	4451.70
419.39	4489.15
419.58	4507.87
419.77	4472.76
419.96	4533.62
420.15	4589.79
420.34	4526.60
420.53	4507.87
420.72	4699.80
420.91	4608.51
421.10	4669.37
421.29	4727.88
421.48	4723.20
421.67	4741.93
421.86	4847.25
422.05	4903.42
422.24	4751.29
422.43	4800.44
422.61	4833.21
422.80	5067.26
422.99	4858.95
423.18	4912.78
423.37	4926.83
423.56	4978.32
423.75	4947.89
423.94	4837.89
424.13	4582.77
424.32	4681.07
424.50	4858.95
424.69	4952.57
424.88	5107.05
425.07	4915.12
425.26	4947.89
425.45	4954.91
425.64	4978.32
425.83	5083.64
426.01	4875.34
426.20	4945.55
426.39	5067.26
426.58	5055.56
426.77	4910.44
426.96	5149.18
427.15	5160.88
427.33	5156.20
427.52	5144.50
427.71	5266.21
427.90	5256.84
428.09	5282.59
428.28	5411.32
428.46	5235.78
428.65	5301.31
428.84	5572.82
429.03	5603.24
429.22	5425.36
429.40	5350.46
429.59	5460.47
429.78	5331.74
429.97	5200.67
430.16	5467.49
430.34	5657.07
430.53	5504.94
430.72	5502.60
430.91	5577.50
431.10	5537.71
431.28	5781.12
431.47	5774.10
431.66	5827.93
431.85	5614.95
432.03	5638.35
432.22	5853.68
432.41	5881.77
432.60	5888.79
432.79	5846.66
432.97	6005.81
433.16	6010.50
433.35	6010.50
433.54	5942.62
433.72	6078.37
433.91	6026.88
434.10	6188.38
434.28	6052.63
434.47	6157.95
434.66	6019.86
434.85	6260.93
435.03	6260.93
435.22	6094.76
435.41	6333.49
435.59	6235.19
435.78	6326.47
435.97	6392.00
436.16	6356.90
436.34	6270.30
436.53	6384.98
436.72	6651.80
436.90	6375.62
437.09	6574.56
437.28	6487.96
437.46	6569.88
437.65	6509.03
437.84	6705.63
438.02	6656.48
438.21	6588.61
438.40	6649.46
438.58	6953.73
438.77	7035.65
438.96	6927.99
439.14	6960.75
439.33	6986.50
439.52	7229.91
439.70	7269.70
439.89	7208.85
440.08	7227.57
440.26	7166.72
440.45	7353.96
440.63	7396.09
440.82	7531.84
441.01	7592.70
441.19	7599.72
441.38	7616.10
441.57	7716.75
441.75	7662.91
441.94	7845.48
442.12	7908.67
442.31	8070.17
442.50	7985.91
442.68	7908.67
442.87	7779.94
443.05	8177.83
443.24	8290.18
443.43	8194.22
443.61	8112.30
443.80	8423.59
443.98	7964.84
444.17	7805.69
444.35	8264.43
444.54	8212.94
444.73	8070.17
444.91	8173.15
445.10	8404.86
445.28	8241.03
445.47	8250.39
445.65	8294.86
445.84	8332.31
446.02	8226.98
446.21	8175.49
446.39	8255.07
446.58	8451.67
446.77	8531.25
446.95	8156.77
447.14	8519.55
447.32	8559.34
447.51	8428.27
447.69	8360.39
447.88	8538.27
448.06	8381.46
448.25	8395.50
448.43	8552.32
448.62	8334.65
448.80	8414.23
448.99	8489.12
449.17	8645.94
449.36	8678.71
449.54	8587.43
449.73	8830.84
449.91	8821.48
450.10	8924.46
450.28	9004.04
450.46	9034.47
450.65	8964.25
450.83	9158.52
451.02	9085.96
451.20	9100.00
451.39	9142.13
451.57	8910.42
451.76	9062.55
451.94	9160.86
452.13	9303.63
452.31	9200.65
452.49	9057.87
452.68	9317.67
452.86	9221.71
453.05	9153.84
453.23	9238.09
453.42	9303.63
453.60	9322.35
453.78	9521.30
453.97	9460.45
454.15	9373.85
454.34	9460.45
454.52	9486.19
454.70	9481.51
454.89	9610.24
455.07	9689.82
455.26	9813.87
455.44	9745.99
455.62	9769.40
455.81	10061.96
455.99	10045.58
456.17	9762.37
456.36	9937.91
456.54	10125.16
456.73	10396.66
456.91	10300.70
457.09	10211.76
457.28	10574.54
457.46	10090.05
457.64	10375.59
457.83	10401.34
458.01	10164.95
458.19	10707.95
458.38	10396.66
458.56	10658.80
458.74	10366.23
458.93	10729.02
459.11	10864.77
459.29	10679.86
459.48	10768.80
459.66	10691.57
459.84	11016.90
460.03	11197.12
460.21	10946.69
460.39	10810.93
460.57	11211.17
460.76	10986.47
460.94	11133.93
461.12	11250.96
461.31	11070.73
461.49	11087.12
461.67	11101.16
461.85	11262.66
462.04	11250.96
462.22	11737.79
462.40	11419.47
462.59	11421.81
462.77	11597.35
462.95	11639.48
463.13	11529.48
463.32	11428.84
463.50	11627.78
463.68	11838.43
463.86	11585.65
464.05	11854.81
464.23	11693.32
464.41	11822.05
464.59	11690.98
464.78	12084.19
464.96	11829.07
465.14	11782.26
465.32	11815.02
465.50	12039.72
465.69	12198.87
465.87	11901.62
466.05	12077.16
466.23	12051.42
466.41	12149.72
466.60	12355.69
466.78	12063.12
466.96	12166.10
467.14	12458.67
467.32	12430.59
467.51	12458.67
467.69	12035.03
467.87	12194.19
468.05	12484.42
468.23	12514.84
468.41	12362.71
468.60	12437.61
468.78	12826.14
468.96	12512.50
469.14	12662.30
469.32	13053.17
469.50	12535.91
469.69	12800.39
469.87	12999.34
470.05	13006.36
470.23	13043.81
470.41	12816.77
470.59	13172.54
470.77	13083.59
470.95	13205.30
471.14	13563.40
471.32	13057.85
471.50	13563.40
471.68	13511.91
471.86	13757.67
472.04	13654.69
472.22	14050.24
472.40	13502.55
472.58	13750.65
472.77	13790.44
472.95	14214.07
473.13	14541.75
473.31	14080.66
473.49	14066.62
473.67	13987.04
473.85	14251.52
474.03	14654.09
474.21	14242.16
474.39	14434.08
474.57	14668.14
474.75	14597.92
474.93	15026.24
475.12	14916.23
475.30	14974.75
475.48	14773.46
475.66	15309.44
475.84	15248.59
476.02	15257.95
476.20	15204.12
476.38	15311.78
476.56	15885.22
476.74	15831.38
476.92	15854.79
477.10	15662.86
477.28	16042.03
477.46	16109.91
477.64	16362.69
477.82	16320.56
478.00	16791.00
478.18	16545.25
478.36	16760.58
478.54	16851.86
478.72	17071.87
478.90	17331.67
479.08	17245.07
479.26	17451.03
479.44	17645.30
479.62	17851.27
479.80	17830.20
479.98	17816.16
480.16	18558.11
480.34	18008.08
480.52	18384.91
480.70	18672.79
480.88	18366.18
481.06	18574.49
481.24	18686.84
481.41	18902.17
481.59	19424.11
481.77	19414.74
481.95	19220.48
482.13	19936.68
482.31	19550.49
482.49	19927.32
482.67	20056.05
482.85	20297.13
483.03	20372.02
483.21	20568.63
483.39	20940.77
483.57	20641.18
483.74	20816.72
483.92	21219.30
484.10	21048.44
484.28	21561.02
484.46	22120.40
484.64	22139.13
484.82	22209.34
485.00	22466.80
485.18	22387.22
485.35	22885.76
485.53	22300.62
485.71	22899.80
485.89	23091.73
486.07	23250.88
486.25	23227.48
486.43	23566.85
486.61	23775.16
486.78	23449.83
486.96	23728.35
487.14	24421.15
487.32	24552.22
487.50	24554.56
487.68	24854.15
487.85	24978.20
488.03	25338.64
488.21	25926.11
488.39	25603.12
488.57	25979.95
488.75	25998.67
488.92	26335.71
489.10	26363.79
489.28	26583.80
489.46	26979.36
489.64	26696.15
489.81	27431.08
489.99	27475.55
490.17	27861.74
490.35	28320.48
490.53	28320.48
490.70	28018.55
490.88	27864.08
491.06	28507.72
491.24	28699.65
491.41	28964.13
491.59	29174.78
491.77	28837.74
491.95	29338.62
492.13	29472.03
492.30	29802.04
492.48	29923.75
492.66	30244.40
492.84	30298.23
493.01	30504.20
493.19	30342.70
493.37	30445.69
493.54	31297.64
493.72	31065.93
493.90	31218.07
494.08	31381.90
494.25	31489.57
494.43	31573.83
494.61	31915.54
494.79	32271.31
494.96	31990.44
495.14	32369.61
495.32	32891.55
495.49	32921.98
495.67	32737.07
495.85	33563.28
496.02	33549.24
496.20	33802.02
496.38	33614.77
496.55	34019.69
496.73	34677.38
496.91	34300.55
497.09	34398.85
497.26	34895.05
497.44	34747.59
497.62	35157.19
497.79	35325.71
497.97	35489.54
498.14	35723.60
498.32	35571.46
498.50	36503.00
498.67	36678.54
498.85	36458.52
499.03	36538.10
499.20	36210.43
499.38	36531.08
499.56	36905.57
499.73	36685.56
499.91	36931.31
500.08	37619.43
500.26	37387.72
500.44	37443.89
500.61	37677.94
500.79	37570.28
500.97	37872.21
501.14	38480.75
501.32	37893.27
501.49	38450.32
501.67	38445.64
501.84	38960.56
502.02	38738.21
502.20	38361.38
502.37	39187.59
502.55	39021.41
502.72	39407.60
502.90	39255.46
503.07	39262.49
503.25	39264.83
503.43	39428.66
503.60	39959.97
503.78	39786.77
503.95	40074.65
504.13	39810.17
504.30	40261.90
504.48	40528.72
504.65	39964.65
504.83	40924.27
505.01	40617.66
505.18	40760.43
505.36	41212.15
505.53	40863.41
505.71	41668.56
505.88	41579.62
506.06	41090.44
506.23	41418.12
506.41	41720.05
506.58	41834.74
506.76	42143.69
506.93	42431.57
507.11	42157.73
507.28	42440.93
507.46	42398.80
507.63	42557.96
507.81	43257.78
507.98	42347.31
508.16	42937.13
508.33	43299.91
508.50	43028.41
508.68	43618.22
508.85	43770.36
509.03	43875.68
509.20	43445.02
509.38	43952.92
509.55	43969.30
509.73	44346.13
509.90	44397.62
510.08	44037.18
510.25	44261.87
510.42	44399.96
510.60	45010.84
510.77	44737.00
510.95	45148.93
511.12	44779.13
511.30	44891.48
511.47	44994.46
511.64	45378.31
511.82	45586.61
511.99	44992.12
512.17	45443.84
512.34	45427.46
512.51	46265.37
512.69	45876.84
512.86	46281.75
513.04	46293.46
513.21	46478.36
513.38	46469.00
513.56	46251.33
513.73	46609.43
513.90	46848.16
514.08	46621.13
514.25	47185.20
514.43	47126.69
514.60	47215.63
514.77	47098.60
514.95	47227.33
515.12	47264.78
515.29	47386.49
515.47	47325.63
515.64	48142.48
515.81	47908.43
515.99	48168.22
516.16	48137.80
516.33	48170.57
516.51	48343.77
516.68	48154.18
516.85	48418.66
517.03	48769.74
517.20	48369.51
517.37	48683.14
517.54	48481.86
517.72	48439.73
517.89	48587.18
518.06	49130.19
518.24	48680.80
518.41	48659.74
518.58	49155.93
518.75	48839.96
518.93	49401.69
519.10	49312.75
519.27	49364.24
519.45	49605.31
519.62	49350.20
519.79	49832.35
519.96	49848.73
520.14	50003.20
520.31	50021.93
520.48	50337.90
520.65	50138.96
520.83	50174.06
521.00	50333.22
521.17	50508.76
521.34	50625.79
521.52	50742.81
521.69	50480.67
521.86	50789.62
522.03	50546.21
522.20	51110.28
522.38	51377.10
522.55	51206.24
522.72	51042.40
522.89	51002.61
523.07	51473.06
523.24	51231.99
523.41	51578.39
523.58	50997.93
523.75	51496.47
523.92	51505.83
524.10	52102.67
524.27	52158.84
524.44	51995.00
524.61	51920.10
524.78	51566.68
524.96	51910.74
525.13	52086.28
525.30	52086.28
525.47	52315.65
525.64	52182.24
525.81	52484.17
525.98	52648.01
526.16	52465.45
526.33	52458.43
526.50	52956.96
526.67	52711.20
526.84	52727.59
527.01	52736.95
527.18	52645.67
527.36	52971.00
527.53	52720.57
527.70	53492.94
527.87	53212.08
528.04	52783.76
528.21	53282.30
528.38	52851.64
528.55	53595.93
528.72	53167.61
528.89	53497.62
529.07	52914.83
529.24	53244.85
529.41	53635.72
529.58	53750.40
529.75	53387.62
529.92	53420.39
530.09	53659.12
530.26	53499.97
530.43	53848.71
530.60	53514.01
530.77	53825.30
530.94	53797.21
531.11	54134.25
531.28	53851.05
531.46	54075.74
531.63	54071.06
531.80	54120.21
531.97	54007.86
532.14	54265.32
532.31	54277.02
532.48	54049.99
532.65	54415.11
532.82	54387.03
532.99	54583.63
533.16	54323.83
533.33	54658.53
533.50	54602.36
533.67	54553.21
533.84	54412.77
534.01	54677.25
534.18	54719.38
534.35	55107.91
534.52	54794.28
534.69	54972.16
534.86	54918.33
535.03	54857.48
535.20	55051.74
535.37	54899.61
535.54	55531.55
535.71	55126.64
535.88	55423.89
536.05	55339.63
536.22	55327.92
536.38	55334.95
536.55	55351.33
536.72	55318.56
536.89	55374.73
537.06	55470.70
537.23	55536.23
537.40	55363.03
537.57	55707.09
537.74	55571.34
537.91	55765.60
538.08	55557.30
538.25	55356.01
538.42	55810.07
538.59	55814.76
538.75	55700.07
538.92	55831.14
539.09	55817.10
539.26	55980.93
539.43	55807.73
539.60	55922.42
539.77	56308.61
539.94	56348.40
540.11	56189.24
540.28	56250.09
540.44	56217.33
540.61	56254.78
540.78	56051.15
540.95	56119.02
541.12	56023.06
541.29	56357.76
541.46	56378.82
541.62	56287.54
541.79	56493.51
541.96	56245.41
542.13	56350.74
542.30	56406.91
542.47	56460.74
542.63	56633.94
542.80	56629.26
542.97	56837.57
543.14	56963.96
543.31	57226.10
543.48	57097.37
543.64	57425.04
543.81	57073.96
543.98	57233.12
544.15	56982.68
544.32	57228.44
544.48	57380.57
544.65	57036.51
544.82	57296.31
544.99	57017.79
545.16	57270.57
545.32	57336.10
545.49	57511.64
545.66	57530.37
545.83	57298.65
546.00	57528.03
546.16	57577.18
546.33	57392.28
546.50	57198.01
546.67	57593.56
546.83	57251.84
547.00	57516.32
547.17	57551.43
547.34	57694.21
547.50	57820.59
547.67	57855.70
547.84	57785.49
548.00	58014.86
548.17	58169.33
548.34	57654.42
548.51	58094.44
548.67	58026.56
548.84	58049.97
549.01	57790.17
549.18	58178.70
549.34	58188.06
549.51	58040.60
549.68	58094.44
549.84	58213.80
550.01	58232.53
550.18	57982.09
550.34	58143.59
550.51	58288.70
550.68	58295.72
550.84	58033.58
551.01	58494.67
551.18	58368.28
551.34	58237.21
551.51	58461.90
551.68	58504.03
551.84	58499.35
552.01	58419.77
552.18	58614.04
552.34	58422.11
552.51	58468.92
552.68	58438.50
552.84	58658.51
553.01	58822.34
553.18	58599.99
553.34	58644.46
553.51	58466.58
553.67	58707.66
553.84	58892.56
554.01	58749.79
554.17	58890.22
554.34	58742.77
554.51	58717.02
554.67	58937.03
554.84	58862.13
555.00	58677.23
555.17	58953.41
555.33	58913.62
555.50	58726.38
555.67	58754.47
555.83	58731.06
556.00	59025.97
556.16	59260.02
556.33	58965.12
556.50	58962.78
556.66	59285.77
556.83	59061.08
556.99	58997.88
557.16	59477.69
557.32	59381.73
557.49	59646.21
557.65	59049.38
557.82	59409.82
557.98	59358.33
558.15	59238.96
558.32	59309.18
558.48	59437.90
558.65	59473.01
558.81	59309.18
558.98	59285.77
559.14	59547.91
559.31	59522.16
559.47	59674.30
559.64	59468.33
559.80	59660.26
559.97	59531.53
560.13	59428.54
560.30	59686.00
560.46	59636.85
560.63	59774.94
560.79	59430.88
560.96	59611.10
561.12	59676.64
561.29	59730.47
561.45	59756.22
561.61	59566.63
561.78	59657.91
561.94	59503.44
562.11	59718.77
562.27	59877.93
562.44	59718.77
562.60	59957.50
562.77	59758.56
562.93	59543.23
563.10	59674.30
563.26	59725.79
563.42	60079.21
563.59	59648.55
563.75	59765.58
563.92	59931.76
564.08	59971.55
564.24	59814.73
564.41	59931.76
564.57	59887.29
564.74	60130.70
564.90	60048.78
565.07	59845.16
565.23	59950.48
565.39	59943.46
565.56	60004.31
565.72	59980.91
565.88	60020.70
566.05	59763.24
566.21	60027.72
566.38	60128.36
566.54	60231.35
566.70	60154.11
566.87	60226.66
567.03	60140.07
567.19	60252.41
567.36	60224.32
567.52	60037.08
567.68	60402.21
567.85	60137.72
568.01	60399.86
568.17	60158.79
568.34	60048.78
568.50	60205.60
568.66	60156.45
568.83	60378.80
568.99	60214.96
569.15	60123.68
569.32	60247.73
569.48	60179.85
569.64	60500.51
569.81	60179.85
569.97	60158.79
570.13	60320.29
570.30	60053.47
570.46	60495.83
570.62	60214.96
570.78	60327.31
570.95	60498.17
571.11	60350.71
571.27	60250.07
571.43	60285.18
571.60	60254.75
571.76	60505.19
571.92	60463.06
572.09	60470.08
572.25	60479.44
572.41	60388.16
572.57	60355.39
572.74	60603.49
572.90	60437.31
573.06	60411.57
573.22	60385.82
573.38	60605.83
573.55	60559.02
573.71	60750.94
573.87	60460.72
574.03	60221.98
574.20	60657.32
574.36	60449.02
574.52	60472.42
574.68	60514.55
574.84	60680.73
575.01	60523.91
575.17	60598.81
575.33	60535.62
575.49	60498.17
575.65	60678.39
575.82	60678.39
575.98	60643.28
576.14	60783.71
576.30	60441.99
576.46	60615.19
576.62	60495.83
576.79	60757.97
576.95	60584.77
577.11	60722.86
577.27	60837.54
577.43	60624.56
577.59	60622.22
577.75	60664.35
577.92	60589.45
578.08	60547.32
578.24	60601.15
578.40	60729.88
578.56	60732.22
578.72	60619.88
578.88	60797.76
579.04	60781.37
579.21	60760.31
579.37	60884.36
579.53	60966.27
579.69	60535.62
579.85	60568.38
580.01	60816.48
580.17	60687.75
580.33	60561.36
580.49	60987.34
580.65	60762.65
580.82	60664.35
580.98	60451.36
581.14	60622.22
581.30	60910.10
581.46	60657.32
581.62	60746.26
581.78	60488.80
581.94	60839.89
582.10	60823.50
582.26	60715.84
582.42	60697.11
582.58	60795.42
582.74	60807.12
582.90	60966.27
583.06	60729.88
583.22	60636.26
583.38	60933.51
583.54	60940.53
583.70	60956.91
583.86	60718.18
584.02	60666.69
584.18	60956.91
584.34	60591.79
584.50	60734.56
584.66	60917.12
584.82	60451.36
584.98	60949.89
585.14	60825.84
585.30	60802.44
585.46	60891.38
585.62	60889.04
585.78	60968.61
585.94	60858.61
586.10	60874.99
586.26	60839.89
586.42	61015.43
586.58	60889.04
586.74	60870.31
586.90	60898.40
587.06	60949.89
587.22	61057.56
587.38	60977.98
587.54	60917.12
587.70	61055.21
587.86	60914.78
588.02	60788.39
588.18	61015.43
588.34	60896.06
588.49	60757.97
