SpectraSuite Data File
++++++++++++++++++++++++++++++++++++
Date: Fri Oct 25 10:44:30 EDT 2013
User: price-jones
Dark Spectrum Present: No
Reference Spectrum Present: No
Number of Sampled Component Spectra: 1
Spectrometers: USB2+H05261
Integration Time (usec): 100000 (USB2+H05261)
Spectra Averaged: 1 (USB2+H05261)
Boxcar Smoothing: 0 (USB2+H05261)
Correct for Electrical Dark: No (USB2+H05261)
Strobe/Lamp Enabled: No (USB2+H05261)
Correct for Detector Non-linearity: No (USB2+H05261)
Correct for Stray Light: No (USB2+H05261)
Number of Pixels in Processed Spectrum: 2048
>>>>>Begin Processed Spectral Data<<<<<
365.73	70.22
365.92	70.22
366.12	70.22
366.32	46.81
366.52	49.15
366.72	98.30
366.91	42.13
367.11	14.04
367.31	16.38
367.51	0.00
367.70	58.51
367.90	51.49
368.10	7.02
368.30	0.00
368.49	35.11
368.69	77.24
368.89	65.54
369.09	35.11
369.28	18.72
369.48	44.47
369.68	56.17
369.87	145.11
370.07	131.07
370.27	133.41
370.47	170.86
370.66	337.04
370.86	301.93
371.06	477.47
371.25	433.00
371.45	496.19
371.65	535.98
371.84	404.91
372.04	407.25
372.24	449.38
372.44	505.56
372.63	585.13
372.83	430.66
373.03	547.69
373.22	531.30
373.42	458.74
373.62	491.51
373.81	531.30
374.01	575.77
374.21	557.05
374.40	491.51
374.60	470.45
374.79	545.34
374.99	580.45
375.19	601.52
375.38	594.50
375.58	519.60
375.78	594.50
375.97	655.35
376.17	589.82
376.37	575.77
376.56	596.84
376.76	519.60
376.95	575.77
377.15	657.69
377.35	587.47
377.54	667.05
377.74	578.11
377.93	599.18
378.13	634.29
378.33	620.24
378.52	608.54
378.72	697.48
378.91	662.37
379.11	669.39
379.31	580.45
379.50	664.71
379.70	685.78
379.89	767.70
380.09	610.88
380.28	711.52
380.48	554.71
380.68	667.05
380.87	613.22
381.07	692.80
381.26	692.80
381.46	697.48
381.65	711.52
381.85	636.63
382.04	739.61
382.24	657.69
382.43	734.93
382.63	723.23
382.83	727.91
383.02	720.88
383.22	713.86
383.41	772.38
383.61	732.59
383.80	781.74
384.00	725.57
384.19	765.36
384.39	774.72
384.58	695.14
384.78	751.31
384.97	760.67
385.17	767.70
385.36	774.72
385.56	765.36
385.75	685.78
385.95	784.08
386.14	755.99
386.34	823.87
386.53	844.93
386.72	826.21
386.92	851.96
387.11	823.87
387.31	849.61
387.50	826.21
387.70	755.99
387.89	889.40
388.09	814.51
388.28	908.13
388.48	919.83
388.67	905.79
388.86	997.07
389.06	821.53
389.25	926.85
389.45	908.13
389.64	968.98
389.84	980.68
390.03	994.73
390.22	908.13
390.42	945.58
390.61	924.51
390.81	985.37
391.00	936.21
391.19	1081.33
391.39	1008.77
391.58	1008.77
391.78	926.85
391.97	1013.45
392.16	1020.47
392.36	987.71
392.55	940.90
392.75	992.39
392.94	1001.75
393.13	1011.11
393.33	1006.43
393.52	1074.31
393.71	978.34
393.91	1041.54
394.10	1050.90
394.29	1050.90
394.49	1125.80
394.68	1179.63
394.88	1114.10
395.07	1165.59
395.26	1142.18
395.46	1235.80
395.65	1287.29
395.84	1193.67
396.04	1228.78
396.23	1160.91
396.42	1081.33
396.62	1179.63
396.81	1193.67
397.00	1210.06
397.19	1200.69
397.39	1249.85
397.58	1352.83
397.77	1252.19
397.97	1301.34
398.16	1329.42
398.35	1392.62
398.55	1352.83
398.74	1359.85
398.93	1446.45
399.12	1362.19
399.32	1378.58
399.51	1427.73
399.70	1483.90
399.90	1469.86
400.09	1441.77
400.28	1547.09
400.47	1526.03
400.67	1535.39
400.86	1535.39
401.05	1537.73
401.24	1664.12
401.44	1685.19
401.63	1582.20
401.82	1593.90
402.01	1682.85
402.21	1673.48
402.40	1563.48
402.59	1724.97
402.78	1664.12
402.97	1605.61
403.17	1638.38
403.36	1678.16
403.55	1673.48
403.74	1717.95
403.93	1792.85
404.13	1769.44
404.32	1760.08
404.51	1743.70
404.70	1830.30
404.89	1795.19
405.09	1935.62
405.28	1806.89
405.47	1739.02
405.66	1895.83
405.85	1935.62
406.05	1907.54
406.24	1987.11
406.43	1842.00
406.62	1975.41
406.81	2026.90
407.00	1921.58
407.20	1881.79
407.39	1956.69
407.58	1952.01
407.77	2073.71
407.96	1994.14
408.15	2064.35
408.34	2073.71
408.54	2078.40
408.73	2129.89
408.92	2146.27
409.11	2251.60
409.30	2176.70
409.49	2120.53
409.68	2165.00
409.87	2071.37
410.07	2183.72
410.26	2296.07
410.45	2258.62
410.64	2392.03
410.83	2235.21
411.02	2473.95
411.21	2455.22
411.40	2352.24
411.59	2410.75
411.78	2558.21
411.98	2434.16
412.17	2480.97
412.36	2511.39
412.55	2546.50
412.74	2574.59
412.93	2654.17
413.12	2560.55
413.31	2750.13
413.50	2586.29
413.69	2750.13
413.88	2691.62
414.07	2801.62
414.26	2801.62
414.45	2637.78
414.64	2778.22
414.83	2869.50
415.02	2895.24
415.22	2860.13
415.41	3087.17
415.60	2836.73
415.79	2909.29
415.98	3049.72
416.17	3145.68
416.36	3159.72
416.55	3157.38
416.74	3087.17
416.93	3063.76
417.12	3192.49
417.31	3187.81
417.50	3091.85
417.69	3309.52
417.88	3232.28
418.07	3187.81
418.26	3358.67
418.45	3304.84
418.64	3414.84
418.83	3335.26
419.02	3349.31
419.21	3358.67
419.39	3463.99
419.58	3330.58
419.77	3316.54
419.96	3407.82
420.15	3536.55
420.34	3424.20
420.53	3531.87
420.72	3550.59
420.91	3747.20
421.10	3597.40
421.29	3646.55
421.48	3590.38
421.67	3606.77
421.86	3578.68
422.05	3662.94
422.24	3548.25
422.43	3702.73
422.61	3576.34
422.80	3740.18
422.99	3768.26
423.18	3852.52
423.37	3794.01
423.56	3779.97
423.75	3705.07
423.94	3733.15
424.13	3536.55
424.32	3466.33
424.50	3751.88
424.69	3801.03
424.88	3894.65
425.07	3660.60
425.26	3644.21
425.45	3765.92
425.64	3726.13
425.83	3845.50
426.01	3908.69
426.20	3908.69
426.39	3864.22
426.58	3749.54
426.77	3789.33
426.96	3836.14
427.15	3939.12
427.33	3859.54
427.52	3889.97
427.71	3857.20
427.90	3875.93
428.09	3964.87
428.28	3906.35
428.46	3894.65
428.65	4028.06
428.84	4009.34
429.03	4072.53
429.22	4004.66
429.40	4025.72
429.59	3950.82
429.78	3749.54
429.97	3803.37
430.16	3822.09
430.34	3985.93
430.53	4011.68
430.72	3990.61
430.91	3981.25
431.10	4201.26
431.28	4346.37
431.47	4348.72
431.66	4369.78
431.85	4362.76
432.03	4582.77
432.22	4404.89
432.41	4489.15
432.60	4369.78
432.79	4386.16
432.97	4697.46
433.16	4393.19
433.35	4416.59
433.54	4547.66
433.72	4423.61
433.91	4402.55
434.10	4559.36
434.28	4489.15
434.47	4767.67
434.66	4690.43
434.85	4692.77
435.03	4688.09
435.22	4690.43
435.41	4863.63
435.59	4968.96
435.78	4711.50
435.97	4936.19
436.16	4854.27
436.34	4772.35
436.53	4805.12
436.72	4975.98
436.90	4819.16
437.09	5064.92
437.28	4992.36
437.46	4858.95
437.65	4805.12
437.84	4880.02
438.02	5027.47
438.21	4915.12
438.40	4826.18
438.58	4959.60
438.77	5359.83
438.96	5001.72
439.14	5188.97
439.33	5310.68
439.52	5479.19
439.70	5472.17
439.89	5481.53
440.08	5376.21
440.26	5434.72
440.45	5479.19
440.63	5486.22
440.82	5671.12
441.01	5631.33
441.19	5764.74
441.38	5647.71
441.57	5816.23
441.75	5921.56
441.94	5806.87
442.12	5961.34
442.31	5973.05
442.50	6038.58
442.68	6179.01
442.87	5963.68
443.05	6059.65
443.24	6216.46
443.43	5987.09
443.61	6118.16
443.80	6183.70
443.98	5947.30
444.17	5872.40
444.35	6183.70
444.54	6223.48
444.73	6176.67
444.91	6066.67
445.10	6246.89
445.28	6153.27
445.47	6057.31
445.65	6176.67
445.84	6282.00
446.02	6270.30
446.21	6181.35
446.39	6122.84
446.58	6267.95
446.77	6429.45
446.95	6174.33
447.14	6333.49
447.32	6366.26
447.51	6256.25
447.69	6272.64
447.88	6333.49
448.06	6375.62
448.25	6420.09
448.43	6462.22
448.62	6115.82
448.80	6466.90
448.99	6282.00
449.17	6399.02
449.36	6431.79
449.54	6478.60
449.73	6794.58
449.91	6588.61
450.10	6558.18
450.28	6745.42
450.46	6820.32
450.65	6827.34
450.83	6918.62
451.02	6579.25
451.20	6794.58
451.39	6841.39
451.57	6810.96
451.76	6834.36
451.94	6906.92
452.13	7157.36
452.31	6848.41
452.49	6850.75
452.68	6958.41
452.86	6937.35
453.05	6822.66
453.23	6942.03
453.42	6904.58
453.60	7035.65
453.78	7124.59
453.97	6932.67
454.15	7040.33
454.34	7028.63
454.52	7190.13
454.70	7000.54
454.89	7283.75
455.07	7096.50
455.26	7197.15
455.44	7358.64
455.62	7208.85
455.81	7360.98
455.99	7370.35
456.17	7358.64
456.36	7431.20
456.54	7503.76
456.73	7726.11
456.91	7571.63
457.09	7599.72
457.28	7758.88
457.46	7641.85
457.64	7543.55
457.83	7534.18
458.01	7651.21
458.19	7985.91
458.38	7852.50
458.56	7791.64
458.74	7850.16
458.93	7885.26
459.11	8037.40
459.29	7747.17
459.48	7915.69
459.66	7826.75
459.84	7932.08
460.03	8374.44
460.21	8126.34
460.39	8105.28
460.57	7934.42
460.76	8119.32
460.94	8149.75
461.12	8107.62
461.31	8173.15
461.49	8138.04
461.67	8037.40
461.85	8339.33
462.04	8325.29
462.22	8603.81
462.40	8568.70
462.59	8353.37
462.77	8531.25
462.95	8540.61
463.13	8505.51
463.32	8465.72
463.50	8559.34
463.68	8676.37
463.86	8606.15
464.05	8437.63
464.23	8533.59
464.41	8547.64
464.59	8374.44
464.78	8641.26
464.96	8524.23
465.14	8603.81
465.32	8751.26
465.50	8807.44
465.69	8879.99
465.87	8908.08
466.05	8542.96
466.23	8669.34
466.41	8769.99
466.60	8805.10
466.78	8652.96
466.96	8814.46
467.14	8727.86
467.32	9137.45
467.51	9137.45
467.69	8716.16
467.87	9224.05
468.05	9095.32
468.23	9210.01
468.41	8973.61
468.60	8898.72
468.78	9198.31
468.96	8891.70
469.14	9390.23
469.32	9392.57
469.50	9048.51
469.69	9221.71
469.87	9305.97
470.05	9135.11
470.23	9240.44
470.41	9467.47
470.59	9474.49
470.77	9535.34
470.95	9394.91
471.14	9673.43
471.32	9795.14
471.50	9713.22
471.68	9628.96
471.86	9813.87
472.04	9827.91
472.22	10204.74
472.40	9844.29
472.58	9933.23
472.77	9926.21
472.95	10071.33
473.13	10345.17
473.31	10073.67
473.49	10108.77
473.67	10232.82
473.85	10277.29
474.03	10434.11
474.21	10574.54
474.39	10501.98
474.57	10668.16
474.75	10661.14
474.93	10827.32
475.12	10588.58
475.30	10857.75
475.48	10476.24
475.66	10726.68
475.84	10738.38
476.02	10920.94
476.20	10766.46
476.38	11192.44
476.56	11309.47
476.74	11082.44
476.92	11290.74
477.10	11475.65
477.28	11419.47
477.46	11363.30
477.64	11637.14
477.82	11751.83
478.00	11995.25
478.18	11981.20
478.36	11932.05
478.54	12081.85
478.72	12287.81
478.90	12365.05
479.08	12650.60
479.26	12559.31
479.44	12650.60
479.62	12446.97
479.80	12512.50
479.98	12723.15
480.16	13317.65
480.34	13107.00
480.52	13348.08
480.70	13060.19
480.88	12898.69
481.06	13139.77
481.24	13462.76
481.41	13603.19
481.59	13881.72
481.77	13949.59
481.95	13743.63
482.13	14193.01
482.31	13991.72
482.49	14197.69
482.67	14218.75
482.85	14450.47
483.03	14658.78
483.21	14717.29
483.39	14944.32
483.57	14593.24
483.74	14663.46
483.92	14682.18
484.10	14888.15
484.28	15145.61
484.46	15496.69
484.64	15515.41
484.82	15578.61
485.00	15681.59
485.18	15590.31
485.35	15866.49
485.53	15452.22
485.71	15616.05
485.89	15634.78
486.07	15873.51
486.25	16009.26
486.43	16212.89
486.61	16374.39
486.78	16683.34
486.96	16915.05
487.14	16847.18
487.32	17029.74
487.50	17392.52
487.68	17483.80
487.85	17710.83
488.03	17823.18
488.21	18094.68
488.39	17930.84
488.57	17774.03
488.75	17923.82
488.92	18253.84
489.10	18532.36
489.28	18611.94
489.46	18604.92
489.64	18668.11
489.81	19374.95
489.99	19452.19
490.17	19452.19
490.35	19538.79
490.53	19435.81
490.70	19733.06
490.88	19435.81
491.06	19882.85
491.24	19999.88
491.41	20046.69
491.59	19882.85
491.77	19903.92
491.95	20505.43
492.13	20304.15
492.30	20549.90
492.48	20343.94
492.66	20940.77
492.84	21095.25
493.01	21273.13
493.19	21120.99
493.37	21425.26
493.54	21191.21
493.72	21572.72
493.90	21759.96
494.08	22141.47
494.25	22214.02
494.43	22188.28
494.61	22731.28
494.79	22225.73
494.96	22382.54
495.14	22387.22
495.32	22630.64
495.49	23021.51
495.67	23133.86
495.85	22789.80
496.02	23220.45
496.20	23365.57
496.38	23730.69
496.55	23868.78
496.73	23852.40
496.91	23924.96
497.09	24002.19
497.26	24362.64
497.44	24002.19
497.62	24056.03
497.79	24608.39
497.97	24130.92
498.14	24692.65
498.32	24292.42
498.50	24613.07
498.67	24954.79
498.85	24613.07
499.03	25130.33
499.20	24800.32
499.38	25312.89
499.56	25514.18
499.73	25277.79
499.91	25563.33
500.08	25846.54
500.26	25584.40
500.44	25869.94
500.61	25827.81
500.79	25474.39
500.97	26064.21
501.14	26115.70
501.32	25830.15
501.49	26115.70
501.67	26171.87
501.84	26621.25
502.02	26295.92
502.20	26871.69
502.37	27300.01
502.55	26733.60
502.72	26651.68
502.90	27178.30
503.07	26838.92
503.25	27089.36
503.43	27124.47
503.60	27138.51
503.78	26995.74
503.95	27154.90
504.13	27356.18
504.30	27346.82
504.48	27433.42
504.65	27496.61
504.83	28137.92
505.01	27997.49
505.18	28013.87
505.36	28442.19
505.53	28259.63
505.71	28432.83
505.88	28875.19
506.06	28444.53
506.23	28297.08
506.41	28517.09
506.58	28936.04
506.76	28900.94
506.93	29331.59
507.11	28807.31
507.28	29118.60
507.46	29083.50
507.63	28973.49
507.81	29305.85
507.98	29116.26
508.16	29404.15
508.33	29296.49
508.50	29818.42
508.68	29926.09
508.85	29909.71
509.03	29647.57
509.20	29729.48
509.38	30256.11
509.55	30120.35
509.73	30242.06
509.90	30298.23
510.08	30115.67
510.25	30436.33
510.42	30429.30
510.60	30433.99
510.77	30902.09
510.95	30941.88
511.12	30979.33
511.30	31206.36
511.47	31206.36
511.64	31145.51
511.82	31424.03
511.99	31276.58
512.17	31608.93
512.34	31042.53
512.51	31718.94
512.69	31744.69
512.86	31604.25
513.04	32116.83
513.21	31814.90
513.38	31819.58
513.56	31608.93
513.73	31637.02
513.90	31955.33
514.08	31960.02
514.25	31550.42
514.43	31878.10
514.60	32088.74
514.77	31887.46
514.95	32716.01
515.12	32596.64
515.29	32708.99
515.47	32772.18
515.64	32896.23
515.81	32795.59
515.99	32767.50
516.16	32652.81
516.33	32708.99
516.51	32378.97
516.68	32528.77
516.85	32545.15
517.03	32826.01
517.20	32245.56
517.37	33036.66
517.54	33626.48
517.72	33240.29
517.89	32945.38
518.06	32898.57
518.24	33043.68
518.41	33167.73
518.58	33310.50
518.75	33631.16
518.93	33757.55
519.10	33771.59
519.27	33724.78
519.45	33851.17
519.62	34490.13
519.79	34134.37
519.96	33867.55
520.14	34251.40
520.31	34071.18
520.48	34160.12
520.65	34684.40
520.83	34389.49
521.00	35000.37
521.17	34572.05
521.34	34679.72
521.52	35026.12
521.69	34918.45
521.86	35424.01
522.03	35051.86
522.20	35180.59
522.38	35138.46
522.55	35353.79
522.72	35566.78
522.89	35531.67
523.07	35531.67
523.24	35686.15
523.41	35786.79
523.58	35821.90
523.75	36301.71
523.92	35782.11
524.10	36540.44
524.27	36348.52
524.44	35758.70
524.61	36371.92
524.78	36149.57
524.96	36538.10
525.13	36685.56
525.30	36568.53
525.47	36652.79
525.64	37165.37
525.81	36706.62
525.98	36385.97
526.16	36212.77
526.33	36442.14
526.50	36587.25
526.67	36102.76
526.84	36336.82
527.01	36629.38
527.18	36706.62
527.36	36659.81
527.53	37544.53
527.70	37352.61
527.87	37755.18
528.04	37364.31
528.21	37565.60
528.38	37687.31
528.55	37762.20
528.72	37844.12
528.89	38192.86
529.07	37448.57
529.24	37397.08
529.41	38043.07
529.58	37727.10
529.75	37488.36
529.92	38066.47
530.09	37912.00
530.26	38176.48
530.43	38120.31
530.60	38239.67
530.77	37900.29
530.94	38569.69
531.11	37881.57
531.28	38588.41
531.46	38595.43
531.63	38132.01
531.80	38476.07
531.97	38822.47
532.14	38794.38
532.31	38499.47
532.48	38319.25
532.65	38892.68
532.82	38553.30
532.99	38602.46
533.16	38389.47
533.33	38941.83
533.50	39215.68
533.67	39044.82
533.84	38623.52
534.01	38848.21
534.18	38742.89
534.35	39175.89
534.52	39138.44
534.69	39459.09
534.86	39405.26
535.03	39257.81
535.20	39615.91
535.37	39632.29
535.54	39433.35
535.71	39681.44
535.88	39658.04
536.05	39409.94
536.22	39920.18
536.38	39721.23
536.55	39770.38
536.72	39452.07
536.89	39545.69
537.06	40065.29
537.23	39786.77
537.40	40004.44
537.57	39847.62
537.74	40126.14
537.91	40364.88
538.08	40229.13
538.25	39917.84
538.42	39889.75
538.59	40191.68
538.75	40196.36
538.92	39971.67
539.09	40362.54
539.26	40285.30
539.43	40437.44
539.60	40554.46
539.77	40399.99
539.94	40292.32
540.11	40280.62
540.28	40502.97
540.44	40526.38
540.61	40479.57
540.78	40355.52
540.95	40208.06
541.12	40423.39
541.29	40701.92
541.46	40802.56
541.62	40701.92
541.79	40835.33
541.96	40861.07
542.13	40802.56
542.30	40374.24
542.47	40605.95
542.63	40903.20
542.80	41106.83
542.97	41270.67
543.14	41486.00
543.31	41247.26
543.48	41633.45
543.64	41764.52
543.81	41787.92
543.98	41790.27
544.15	41837.08
544.32	41696.64
544.48	41656.85
544.65	41930.70
544.82	41942.40
544.99	42019.64
545.16	42012.62
545.32	41951.76
545.49	42267.73
545.66	42450.30
545.83	42447.96
546.00	42508.81
546.16	42459.66
546.33	41965.81
546.50	41708.35
546.67	42061.77
546.83	42047.72
547.00	42239.65
547.17	42590.73
547.34	42260.71
547.50	42328.59
547.67	42770.95
547.84	42712.44
548.00	42424.55
548.17	42953.51
548.34	42485.40
548.51	43133.73
548.67	42939.47
548.84	42768.61
549.01	42918.40
549.18	42209.22
549.34	42742.86
549.51	42691.37
549.68	43196.93
549.84	42403.49
550.01	43077.56
550.18	42897.34
550.34	43058.84
550.51	42780.31
550.68	43065.86
550.84	42665.63
551.01	43232.04
551.18	43199.27
551.34	42670.31
551.51	43297.57
551.68	43227.35
551.84	43522.26
552.01	43164.16
552.18	43363.11
552.34	43225.01
552.51	43461.41
552.68	43702.48
552.84	43433.32
553.01	43737.59
553.18	43784.40
553.34	43793.76
553.51	43330.34
553.67	43103.31
553.84	43674.40
554.01	43995.05
554.17	43721.21
554.34	44025.48
554.51	44109.74
554.67	44343.79
554.84	43393.53
555.00	43482.47
555.17	43508.22
555.33	43910.79
555.50	43519.92
555.67	43709.50
555.83	43845.26
556.00	43782.06
556.16	44182.29
556.33	43548.01
556.50	44472.52
556.66	43793.76
556.83	43761.00
556.99	44484.22
557.16	43700.14
557.32	44044.20
557.49	43866.32
557.65	44161.23
557.82	43875.68
557.98	44456.14
558.15	43985.69
558.32	44428.05
558.48	44065.27
558.65	43910.79
558.81	44236.12
558.98	44123.78
559.14	44065.27
559.31	44149.53
559.47	44371.88
559.64	44308.68
559.80	44638.70
559.97	44493.58
560.13	44634.02
560.30	44589.55
560.46	44549.76
560.63	44463.16
560.79	44793.17
560.96	44758.06
561.12	44406.98
561.29	44573.16
561.45	44842.32
561.61	44467.84
561.78	44395.28
561.94	44795.51
562.11	44498.26
562.27	44243.15
562.44	44383.58
562.60	44947.65
562.77	45399.37
562.93	45015.52
563.10	44994.46
563.26	44238.47
563.42	44952.33
563.59	44713.59
563.75	44524.01
563.92	44575.50
564.08	44978.07
564.24	44652.74
564.41	44673.81
564.57	45001.48
564.74	44285.28
564.90	44535.71
565.07	44886.79
565.23	44722.96
565.39	44769.77
565.56	45069.36
565.72	44912.54
565.88	44823.60
566.05	44669.12
566.21	44460.82
566.38	44961.69
566.54	44959.35
566.70	44870.41
566.87	45343.20
567.03	44800.19
567.19	45326.81
567.36	45153.62
567.52	44744.02
567.68	44697.21
567.85	44746.36
568.01	44706.57
568.17	44762.75
568.34	45024.89
568.50	44788.49
568.66	44872.75
568.83	45158.30
568.99	44886.79
569.15	44753.38
569.32	44662.10
569.48	44353.15
569.64	45006.16
569.81	45549.17
569.97	45003.82
570.13	45324.47
570.30	45167.66
570.46	44907.86
570.62	44765.09
570.78	44744.02
570.95	44898.50
571.11	45184.04
571.27	45127.87
571.43	44720.62
571.60	45186.38
571.76	44978.07
571.92	44744.02
572.09	45029.57
572.25	45125.53
572.41	45237.87
572.57	45230.85
572.74	45502.35
572.90	45071.70
573.06	45319.79
573.22	45284.68
573.38	45045.95
573.55	44926.58
573.71	45160.64
573.87	45223.83
574.03	45092.76
574.20	44758.06
574.36	44673.81
574.52	45256.60
574.68	44914.88
574.84	45064.67
575.01	44926.58
575.17	45177.02
575.33	45177.02
575.49	45144.25
575.65	45268.30
575.82	45371.28
575.98	45640.45
576.14	45539.80
576.30	45429.80
576.46	45649.81
576.62	45258.94
576.79	45448.52
576.95	44832.96
577.11	45305.75
577.27	45471.93
577.43	45200.43
577.59	45198.09
577.75	44870.41
577.92	44964.03
578.08	45024.89
578.24	45207.45
578.40	45104.46
578.56	45144.25
578.72	45502.35
578.88	45504.70
579.04	45539.80
579.21	45081.06
579.37	45256.60
579.53	45265.96
579.69	45584.27
579.85	45247.24
580.01	45172.34
580.17	45668.53
580.33	45535.12
580.49	45514.06
580.65	45701.30
580.82	45928.33
580.98	45614.70
581.14	45069.36
581.30	45879.18
581.46	45411.07
581.62	45577.25
581.78	45308.09
581.94	45528.10
582.10	45120.85
582.26	45488.31
582.42	45397.03
582.58	45537.46
582.74	45364.26
582.90	45488.31
583.06	45069.36
583.22	45504.70
583.38	45507.04
583.54	45626.40
583.70	45338.52
583.86	45757.47
584.02	45429.80
584.18	45364.26
584.34	45205.11
584.50	45092.76
584.66	45553.85
584.82	45289.37
584.98	45801.94
585.14	45626.40
585.30	45219.15
585.46	45258.94
585.62	45565.55
585.78	45074.04
585.94	44987.44
586.10	45841.73
586.26	45244.90
586.42	45399.37
586.58	45492.99
586.74	45607.68
586.90	45443.84
587.06	45535.12
587.22	45275.32
587.38	45081.06
587.54	45483.63
587.70	45801.94
587.86	45717.68
588.02	45610.02
588.18	45631.08
588.34	45656.83
588.49	44814.24
588.65	45052.97
588.81	44830.62
588.97	45041.27
589.13	45214.47
589.29	45106.80
589.45	45509.38
589.61	45350.22
589.77	45670.87
589.93	45591.30
590.08	45773.86
