SpectraSuite Data File
++++++++++++++++++++++++++++++++++++
Date: Fri Oct 25 11:33:24 EDT 2013
User: price-jones
Dark Spectrum Present: No
Reference Spectrum Present: No
Number of Sampled Component Spectra: 1
Spectrometers: USB2+H05261
Integration Time (usec): 100000 (USB2+H05261)
Spectra Averaged: 1 (USB2+H05261)
Boxcar Smoothing: 0 (USB2+H05261)
Correct for Electrical Dark: No (USB2+H05261)
Strobe/Lamp Enabled: No (USB2+H05261)
Correct for Detector Non-linearity: No (USB2+H05261)
Correct for Stray Light: No (USB2+H05261)
Number of Pixels in Processed Spectrum: 2048
>>>>>Begin Processed Spectral Data<<<<<
365.73	290.23
365.92	290.23
366.12	290.23
366.32	175.54
366.52	140.43
366.72	208.31
366.91	156.82
367.11	168.52
367.31	166.18
367.51	245.76
367.70	201.29
367.90	166.18
368.10	161.50
368.30	212.99
368.49	147.45
368.69	234.05
368.89	173.20
369.09	161.50
369.28	203.63
369.48	325.33
369.68	259.80
369.87	269.16
370.07	201.29
370.27	283.20
370.47	327.68
370.66	458.74
370.86	454.06
371.06	552.37
371.25	580.45
371.45	594.50
371.65	655.35
371.84	599.18
372.04	500.87
372.24	503.22
372.44	543.00
372.63	622.58
372.83	580.45
373.03	655.35
373.22	664.71
373.42	613.22
373.62	650.67
373.81	692.80
374.01	674.07
374.21	622.58
374.40	697.48
374.60	667.05
374.79	678.76
374.99	631.94
375.19	627.26
375.38	643.65
375.58	620.24
375.78	610.88
375.97	641.31
376.17	725.57
376.37	683.44
376.56	711.52
376.76	739.61
376.95	648.33
377.15	678.76
377.35	713.86
377.54	706.84
377.74	671.73
377.93	725.57
378.13	669.39
378.33	688.12
378.52	711.52
378.72	784.08
378.91	709.18
379.11	702.16
379.31	653.01
379.50	730.25
379.70	758.33
379.89	795.78
380.09	746.63
380.28	763.01
380.48	739.61
380.68	758.33
380.87	688.12
381.07	748.97
381.26	812.17
381.46	716.20
381.65	744.29
381.85	765.36
382.04	793.44
382.24	709.18
382.43	741.95
382.63	718.54
382.83	812.17
383.02	828.55
383.22	741.95
383.41	779.40
383.61	777.06
383.80	854.30
384.00	873.02
384.19	798.12
384.39	880.04
384.58	830.89
384.78	805.14
384.97	835.57
385.17	807.48
385.36	814.51
385.56	798.12
385.75	866.00
385.95	826.21
386.14	826.21
386.34	880.04
386.53	858.98
386.72	844.93
386.92	924.51
387.11	863.66
387.31	973.66
387.50	894.08
387.70	950.26
387.89	847.27
388.09	931.53
388.28	870.68
388.48	880.04
388.67	884.72
388.86	950.26
389.06	917.49
389.25	985.37
389.45	959.62
389.64	950.26
389.84	985.37
390.03	954.94
390.22	933.87
390.42	926.85
390.61	884.72
390.81	950.26
391.00	976.00
391.19	1060.26
391.39	1025.15
391.58	1055.58
391.78	1027.50
391.97	997.07
392.16	926.85
392.36	1081.33
392.55	1015.79
392.75	1107.07
392.94	1039.20
393.13	1032.18
393.33	971.32
393.52	1107.07
393.71	1100.05
393.91	1090.69
394.10	1053.24
394.29	1050.90
394.49	1048.56
394.68	1064.94
394.88	1128.14
395.07	1111.75
395.26	1093.03
395.46	1167.93
395.65	1193.67
395.84	1153.88
396.04	1221.76
396.23	1158.57
396.42	1249.85
396.62	1210.06
396.81	1188.99
397.00	1217.08
397.19	1299.00
397.39	1203.04
397.58	1338.79
397.77	1268.57
397.97	1207.72
398.16	1317.72
398.35	1322.40
398.55	1226.44
398.74	1231.12
398.93	1371.55
399.12	1315.38
399.32	1306.02
399.51	1268.57
399.70	1324.74
399.90	1291.98
400.09	1376.24
400.28	1329.42
400.47	1444.11
400.67	1364.53
400.86	1448.79
401.05	1432.41
401.24	1437.09
401.44	1397.30
401.63	1446.45
401.82	1509.65
402.01	1430.07
402.21	1465.18
402.40	1533.05
402.59	1467.52
402.78	1453.47
402.97	1516.67
403.17	1526.03
403.36	1521.35
403.55	1444.11
403.74	1593.90
403.93	1596.25
404.13	1577.52
404.32	1586.88
404.51	1678.16
404.70	1596.25
404.89	1664.12
405.09	1710.93
405.28	1696.89
405.47	1687.53
405.66	1650.08
405.85	1685.19
406.05	1675.82
406.24	1706.25
406.43	1692.21
406.62	1895.83
406.81	1846.68
407.00	1860.73
407.20	1748.38
407.39	1771.79
407.58	1795.19
407.77	1898.17
407.96	1830.30
408.15	1849.02
408.34	1825.62
408.54	1858.39
408.73	1879.45
408.92	1963.71
409.11	2019.88
409.30	2001.16
409.49	2085.42
409.68	2012.86
409.87	2069.03
410.07	2106.48
410.26	2132.23
410.45	2153.29
410.64	2148.61
410.83	2050.31
411.02	2057.33
411.21	2125.21
411.40	2169.68
411.59	2188.40
411.78	2172.02
411.98	2317.13
412.17	2291.38
412.36	2298.41
412.55	2188.40
412.74	2464.58
412.93	2483.31
413.12	2305.43
413.31	2492.67
413.50	2420.11
413.69	2420.11
413.88	2396.71
414.07	2490.33
414.26	2424.80
414.45	2509.05
414.64	2541.82
414.83	2499.69
415.02	2581.61
415.22	2703.32
415.41	2602.68
415.60	2633.10
415.79	2663.53
415.98	2764.17
416.17	2773.53
416.36	2733.75
416.55	2700.98
416.74	2778.22
416.93	2832.05
417.12	2794.60
417.31	2820.35
417.50	2909.29
417.69	2960.78
417.88	2911.63
418.07	2911.63
418.26	2972.48
418.45	2981.84
418.64	3148.02
418.83	3016.95
419.02	3047.38
419.21	3112.91
419.39	3077.80
419.58	3042.70
419.77	3075.46
419.96	3122.27
420.15	3145.68
420.34	3213.56
420.53	3253.34
420.72	3288.45
420.91	3180.79
421.10	3239.30
421.29	3262.71
421.48	3199.51
421.67	3234.62
421.86	3311.86
422.05	3337.60
422.24	3241.64
422.43	3342.28
422.61	3379.73
422.80	3311.86
422.99	3407.82
423.18	3372.71
423.37	3442.93
423.56	3314.20
423.75	3454.63
423.94	3421.86
424.13	3382.07
424.32	3281.43
424.50	3431.23
424.69	3426.54
424.88	3461.65
425.07	3407.82
425.26	3328.24
425.45	3592.72
425.64	3527.19
425.83	3489.74
426.01	3473.36
426.20	3506.12
426.39	3499.10
426.58	3515.48
426.77	3405.48
426.96	3665.28
427.15	3574.00
427.33	3545.91
427.52	3508.46
427.71	3578.68
427.90	3765.92
428.09	3679.32
428.28	3552.93
428.46	3630.17
428.65	3716.77
428.84	3798.69
429.03	3808.05
429.22	3637.19
429.40	3691.02
429.59	3805.71
429.78	3646.55
429.97	3569.32
430.16	3824.44
430.34	3822.09
430.53	3810.39
430.72	3859.54
430.91	3866.56
431.10	3969.55
431.28	4009.34
431.47	4056.15
431.66	3929.76
431.85	3988.27
432.03	4121.68
432.22	4042.11
432.41	4126.36
432.60	4046.79
432.79	4025.72
432.97	4159.13
433.16	4229.35
433.35	4142.75
433.54	4194.24
433.72	4337.01
433.91	4102.96
434.10	4372.12
434.28	4095.94
434.47	4339.35
434.66	4306.59
434.85	4262.12
435.03	4292.54
435.22	4400.21
435.41	4456.38
435.59	4510.21
435.78	4393.19
435.97	4414.25
436.16	4444.68
436.34	4404.89
436.53	4440.00
436.72	4620.22
436.90	4461.06
437.09	4423.61
437.28	4407.23
437.46	4631.92
437.65	4540.64
437.84	4645.96
438.02	4533.62
438.21	4564.04
438.40	4554.68
438.58	4873.00
438.77	4744.27
438.96	4681.07
439.14	4732.56
439.33	4957.25
439.52	4940.87
439.70	4915.12
439.89	5102.37
440.08	4851.93
440.26	5050.88
440.45	5020.45
440.63	5224.08
440.82	5238.12
441.01	5095.35
441.19	5263.86
441.38	5233.44
441.57	5380.89
441.75	5275.57
441.94	5373.87
442.12	5259.18
442.31	5383.23
442.50	5401.96
442.68	5490.90
442.87	5296.63
443.05	5497.92
443.24	5460.47
443.43	5364.51
443.61	5556.43
443.80	5755.38
443.98	5589.20
444.17	5490.90
444.35	5479.19
444.54	5535.37
444.73	5481.53
444.91	5706.23
445.10	5556.43
445.28	5720.27
445.47	5678.14
445.65	5654.73
445.84	5612.60
446.02	5802.19
446.21	5614.95
446.39	5645.37
446.58	5813.89
446.77	5685.16
446.95	5593.88
447.14	5809.21
447.32	5804.53
447.51	5830.27
447.69	5731.97
447.88	5708.57
448.06	5907.51
448.25	5706.23
448.43	5902.83
448.62	5762.40
448.80	5959.00
448.99	5851.34
449.17	5959.00
449.36	5921.56
449.54	5987.09
449.73	6029.22
449.91	6204.76
450.10	5947.30
450.28	6169.65
450.46	6047.94
450.65	6097.10
450.83	5994.11
451.02	6153.27
451.20	6303.06
451.39	6188.38
451.57	5966.03
451.76	6242.21
451.94	6300.72
452.13	6253.91
452.31	6284.34
452.49	6263.27
452.68	6300.72
452.86	6401.37
453.05	6356.90
453.23	6413.07
453.42	6258.59
453.60	6424.77
453.78	6476.26
453.97	6518.39
454.15	6525.41
454.34	6464.56
454.52	6487.96
454.70	6633.08
454.89	6616.69
455.07	6595.63
455.26	6551.16
455.44	6729.04
455.62	6679.89
455.81	6621.38
455.99	6764.15
456.17	6754.79
456.36	6850.75
456.54	6906.92
456.73	6937.35
456.91	6932.67
457.09	6942.03
457.28	7171.40
457.46	7000.54
457.64	7166.72
457.83	7288.43
458.01	7061.40
458.19	7243.96
458.38	7145.66
458.56	7236.94
458.74	7192.47
458.93	7199.49
459.11	7375.03
459.29	7166.72
459.48	7391.41
459.66	7176.08
459.84	7609.08
460.03	7517.80
460.21	7389.07
460.39	7489.71
460.57	7566.95
460.76	7433.54
460.94	7616.10
461.12	7641.85
461.31	7456.95
461.49	7555.25
461.67	7599.72
461.85	7536.52
462.04	7602.06
462.22	8056.12
462.40	7702.70
462.59	7683.98
462.77	7784.62
462.95	7660.57
463.13	7796.32
463.32	7796.32
463.50	7889.95
463.68	7756.54
463.86	8138.04
464.05	7903.99
464.23	7922.71
464.41	7999.95
464.59	7967.18
464.78	8013.99
464.96	8126.34
465.14	8072.51
465.32	8177.83
465.50	8095.91
465.69	8182.51
465.87	8198.90
466.05	8016.33
466.23	8283.16
466.41	8191.88
466.60	8159.11
466.78	8051.44
466.96	8336.99
467.14	8355.71
467.32	8287.84
467.51	8456.36
467.69	8262.09
467.87	8367.42
468.05	8131.02
468.23	8388.48
468.41	8432.95
468.60	8489.12
468.78	8446.99
468.96	8402.52
469.14	8758.28
469.32	8589.77
469.50	8500.83
469.69	8805.10
469.87	8833.18
470.05	8594.45
470.23	8758.28
470.41	8777.01
470.59	8898.72
470.77	8758.28
470.95	8968.93
471.14	8959.57
471.32	8622.53
471.50	9015.74
471.68	9081.28
471.86	9027.45
472.04	9158.52
472.22	9387.89
472.40	9184.26
472.58	9212.35
472.77	9193.62
472.95	9404.27
473.13	9708.54
473.31	9364.48
473.49	9591.52
473.67	9406.61
473.85	9638.33
474.03	9937.91
474.21	9933.23
474.39	9888.76
474.57	9666.41
474.75	10033.88
474.93	9753.01
475.12	9895.78
475.30	10122.82
475.48	9926.21
475.66	10003.45
475.84	10204.74
476.02	10373.25
476.20	10012.81
476.38	10293.68
476.56	10450.49
476.74	10546.45
476.92	10413.04
477.10	10745.40
477.28	10733.70
477.46	10714.97
477.64	10773.49
477.82	11157.33
478.00	11438.20
478.18	11136.27
478.36	11225.21
478.54	11370.32
478.72	11183.08
478.90	11433.52
479.08	11721.40
479.26	11524.80
479.44	11896.94
479.62	11775.24
479.80	12023.33
479.98	12351.01
480.16	12348.67
480.34	12044.40
480.52	12248.02
480.70	12030.35
480.88	12250.36
481.06	12320.58
481.24	12322.92
481.41	12585.06
481.59	12821.45
481.77	12945.50
481.95	12877.63
482.13	13078.91
482.31	13336.37
482.49	13493.19
482.67	13460.42
482.85	13607.87
483.03	13619.58
483.21	13640.64
483.39	13816.18
483.57	13900.44
483.74	14029.17
483.92	14185.99
484.10	13947.25
484.28	14471.53
484.46	14618.99
484.64	14663.46
484.82	14361.53
485.00	14693.88
485.18	14927.94
485.35	15229.87
485.53	15035.60
485.71	15531.80
485.89	15410.09
486.07	15391.36
486.25	15243.91
486.43	15669.89
486.61	15768.19
486.78	15882.88
486.96	15800.96
487.14	16365.03
487.32	16276.09
487.50	16404.81
487.68	16741.85
487.85	16634.19
488.03	16882.28
488.21	16856.54
488.39	16872.92
488.57	17027.40
488.75	17095.27
488.92	17359.75
489.10	17717.86
489.28	17584.44
489.46	17893.40
489.64	17633.60
489.81	18326.39
489.99	18345.12
490.17	18331.08
490.35	18230.43
490.53	18527.68
490.70	18675.13
490.88	18618.96
491.06	18834.29
491.24	19166.65
491.41	19187.71
491.59	19267.29
491.77	19021.53
491.95	19435.81
492.13	19538.79
492.30	19524.75
492.48	19838.38
492.66	19817.32
492.84	20144.99
493.01	20479.69
493.19	20332.23
493.37	20133.29
493.54	20360.32
493.72	20938.43
493.90	20601.40
494.08	20898.64
494.25	20580.33
494.43	20617.78
494.61	21303.56
494.79	21179.51
494.96	21509.52
495.14	21504.84
495.32	21963.59
495.49	21900.39
495.67	21668.68
495.85	22064.23
496.02	22071.25
496.20	22256.15
496.38	22434.03
496.55	22728.94
496.73	22838.95
496.91	22759.37
497.09	23264.92
497.26	22892.78
497.44	23030.87
497.62	23173.64
497.79	23597.28
497.97	23325.78
498.14	23571.54
498.32	23843.04
498.50	23798.57
498.67	24049.00
498.85	23644.09
499.03	24280.72
499.20	24393.06
499.38	24219.86
499.56	24577.97
499.73	24449.24
499.91	24786.27
500.08	24971.18
500.26	24805.00
500.44	25008.62
500.61	25083.52
500.79	24765.21
500.97	25060.12
501.14	25418.22
501.32	25596.10
501.49	25509.50
501.67	25352.68
501.84	25570.35
502.02	25816.11
502.20	25553.97
502.37	25851.22
502.55	25867.60
502.72	25940.16
502.90	26050.16
503.07	26202.30
503.25	26160.17
503.43	26111.02
503.60	26569.76
503.78	26529.97
503.95	26639.98
504.13	26785.09
504.30	26595.51
504.48	26567.42
504.65	27260.22
504.83	27386.61
505.01	26881.05
505.18	27105.74
505.36	27817.27
505.53	27171.28
505.71	27503.64
505.88	27438.10
506.06	27749.39
506.23	27552.79
506.41	27407.67
506.58	27751.73
506.76	27821.95
506.93	28093.45
507.11	27950.68
507.28	28355.59
507.46	27974.08
507.63	28584.96
507.81	28875.19
507.98	28458.57
508.16	28360.27
508.33	28528.79
508.50	28744.12
508.68	29074.13
508.85	29015.62
509.03	29151.37
509.20	28978.17
509.38	29355.00
509.55	29404.15
509.73	29434.58
509.90	29596.07
510.08	29525.86
510.25	29708.42
510.42	29584.37
510.60	30047.80
510.77	30043.12
510.95	30022.05
511.12	29757.57
511.30	30291.21
511.47	29881.62
511.64	30036.09
511.82	30558.03
511.99	30384.83
512.17	30588.46
512.34	30441.01
512.51	31091.68
512.69	30803.79
512.86	31201.68
513.04	30934.86
513.21	31016.78
513.38	31381.90
513.56	31173.60
513.73	30871.67
513.90	31278.92
514.08	31349.14
514.25	31674.47
514.43	31639.36
514.60	31728.30
514.77	31957.67
514.95	31384.24
515.12	31447.44
515.29	31826.60
515.47	32039.59
515.64	31880.44
515.81	31899.16
515.99	32261.94
516.16	32823.67
516.33	32353.23
516.51	32474.93
516.68	32390.67
516.85	32648.13
517.03	33013.26
517.20	32818.99
517.37	32903.25
517.54	32723.03
517.72	33022.62
517.89	32964.10
518.06	33118.58
518.24	33001.55
518.41	33151.35
518.58	33383.06
518.75	33287.10
518.93	33560.94
519.10	33406.47
519.27	33680.31
519.45	33738.82
519.62	33614.77
519.79	34012.66
519.96	33720.10
520.14	33837.12
520.31	33841.81
520.48	34050.11
520.65	34611.84
520.83	34085.22
521.00	34345.02
521.17	34363.75
521.34	34778.02
521.52	34974.63
521.69	34787.38
521.86	34677.38
522.03	34918.45
522.20	35482.52
522.38	35147.82
522.55	35229.74
522.72	35168.89
522.89	35119.74
523.07	35344.43
523.24	35786.79
523.41	35622.95
523.58	35491.88
523.75	36039.57
523.92	35583.16
524.10	35580.82
524.27	35964.67
524.44	35714.23
524.61	35641.68
524.78	36004.46
524.96	35688.49
525.13	36037.23
525.30	36290.01
525.47	36498.31
525.64	36198.73
525.81	36713.64
525.98	36488.95
526.16	36226.81
526.33	36865.78
526.50	36978.12
526.67	36236.17
526.84	36830.67
527.01	36744.07
527.18	37062.38
527.36	36772.16
527.53	36814.29
527.70	37191.11
527.87	37539.85
528.04	37181.75
528.21	37408.78
528.38	37158.34
528.55	37373.67
528.72	37488.36
528.89	37132.60
529.07	37338.57
529.24	37385.38
529.41	37949.45
529.58	37638.15
529.75	37296.44
529.92	37792.63
530.09	37998.60
530.26	37762.20
530.43	37647.52
530.60	37766.88
530.77	37457.93
530.94	37773.91
531.11	38529.90
531.28	38527.56
531.46	38258.40
531.63	38560.33
531.80	38284.14
531.97	38752.25
532.14	38181.16
532.31	38705.44
532.48	38689.06
532.65	38834.17
532.82	38431.60
532.99	38859.91
533.16	38920.77
533.33	38698.42
533.50	38745.23
533.67	38888.00
533.84	38939.49
534.01	39166.52
534.18	38782.68
534.35	39512.92
534.52	39292.91
534.69	39583.14
534.86	39491.86
535.03	39793.79
535.20	39634.63
535.37	39173.55
535.54	40121.46
535.71	39990.39
535.88	39934.22
536.05	39548.03
536.22	40208.06
536.38	39856.98
536.55	39927.20
536.72	40046.57
536.89	39828.90
537.06	40039.54
537.23	40177.64
537.40	39943.58
537.57	40142.53
537.74	40081.67
537.91	40912.56
538.08	40765.11
538.25	39613.57
538.42	40561.48
538.59	40612.98
538.75	40163.59
538.92	40479.57
539.09	40832.99
539.26	40650.42
539.43	40634.04
539.60	41041.29
539.77	40657.45
539.94	40907.88
540.11	41486.00
540.28	40706.60
540.44	40765.11
540.61	40818.94
540.78	40928.95
540.95	41495.36
541.12	41083.42
541.29	40957.03
541.46	41497.70
541.62	40907.88
541.79	41104.49
541.96	40339.13
542.13	41095.13
542.30	41137.26
542.47	41677.92
542.63	41656.85
542.80	41680.26
542.97	42113.26
543.14	41918.99
543.31	41799.63
543.48	41911.97
543.64	42738.18
543.81	42171.77
543.98	41610.04
544.15	42298.16
544.32	42340.29
544.48	42841.17
544.65	42307.52
544.82	42075.81
544.99	42099.22
545.16	42270.08
545.32	42361.36
545.49	42703.07
545.66	42827.12
545.83	42363.70
546.00	42955.85
546.16	42749.88
546.33	42405.83
546.50	42316.89
546.67	43105.65
546.83	42281.78
547.00	42710.10
547.17	42756.91
547.34	42829.46
547.50	43026.07
547.67	43400.55
547.84	43068.20
548.00	43283.53
548.17	43452.05
548.34	43208.63
548.51	43103.31
548.67	43393.53
548.84	43426.30
549.01	43646.31
549.18	43889.73
549.34	43491.83
549.51	43718.87
549.68	43606.52
549.84	43316.29
550.01	44039.52
550.18	43531.62
550.34	43215.65
550.51	43676.74
550.68	43906.11
550.84	43880.36
551.01	44212.72
551.18	43538.65
551.34	43964.62
551.51	43957.60
551.68	43950.58
551.84	44067.61
552.01	43859.30
552.18	43660.35
552.34	43840.57
552.51	44229.10
552.68	44083.99
552.84	44240.81
553.01	44294.64
553.18	44594.23
553.34	44701.89
553.51	44322.72
553.67	44650.40
553.84	44680.83
554.01	44858.71
554.17	44479.54
554.34	45020.20
554.51	44601.25
554.67	45179.36
554.84	44622.31
555.00	44540.39
555.17	44928.92
555.33	44821.26
555.50	45076.38
555.67	45059.99
555.83	44879.77
556.00	45226.17
556.16	45162.98
556.33	45415.76
556.50	44708.91
556.66	44704.23
556.83	45141.91
556.99	45221.49
557.16	45272.98
557.32	45495.33
557.49	45347.88
557.65	45375.97
557.82	45298.73
557.98	44999.14
558.15	45064.67
558.32	45202.77
558.48	45223.83
558.65	45317.45
558.81	45605.34
558.98	45038.93
559.14	45200.43
559.31	45474.27
559.47	45677.90
559.64	45603.00
559.80	45310.43
559.97	45984.51
560.13	45132.55
560.30	45310.43
560.46	45492.99
560.63	45804.28
560.79	45911.95
560.96	45794.92
561.12	46010.25
561.29	45837.05
561.45	45832.37
561.61	45883.86
561.78	45469.59
561.94	46167.07
562.11	45935.35
562.27	46167.07
562.44	45766.84
562.60	45961.10
562.77	45890.88
562.93	45694.28
563.10	46312.18
563.26	45968.12
563.42	46560.28
563.59	46377.72
563.75	46050.04
563.92	46153.02
564.08	46206.86
564.24	46124.94
564.41	45977.48
564.57	45921.31
564.74	46256.01
564.90	45832.37
565.07	45879.18
565.23	45879.18
565.39	46307.50
565.56	46234.94
565.72	46539.21
565.88	45951.74
566.05	46277.07
566.21	46302.82
566.38	46274.73
566.54	46375.37
566.70	46412.82
566.87	46052.38
567.03	46550.91
567.19	46894.97
567.36	45914.29
567.52	46791.99
567.68	46791.99
567.85	46185.79
568.01	46674.96
568.17	46951.15
568.34	46597.73
568.50	46836.46
568.66	46831.78
568.83	46810.71
568.99	46799.01
569.15	46557.94
569.32	46625.81
569.48	46298.14
569.64	46752.20
569.81	46892.63
569.97	46887.95
570.13	47138.39
570.30	46464.32
570.46	46909.02
570.62	46885.61
570.78	46824.76
570.95	46473.68
571.11	47026.04
571.27	46597.73
571.43	46721.77
571.60	46614.11
571.76	46672.62
571.92	47091.58
572.09	46953.49
572.25	47112.64
572.41	46469.00
572.57	47318.61
572.74	47313.93
572.90	46679.64
573.06	47054.13
573.22	47552.66
573.38	47463.72
573.55	47353.72
573.71	47342.02
573.87	46845.82
574.03	47086.90
574.20	47297.55
574.36	47002.64
574.52	47021.36
574.68	47456.70
574.84	47756.29
575.01	47636.92
575.17	47346.70
575.33	47386.49
575.49	47201.58
575.65	47222.65
575.82	47264.78
575.98	46923.06
576.14	47571.39
576.30	47203.92
576.46	47302.23
576.62	46876.25
576.79	47374.78
576.95	47009.66
577.11	47026.04
577.27	47665.01
577.43	47281.16
577.59	47138.39
577.75	47072.85
577.92	46773.27
578.08	46944.12
578.24	47358.40
578.40	47545.64
578.56	47290.52
578.72	47098.60
578.88	46925.40
579.04	47229.67
579.21	47466.06
579.37	47316.27
579.53	47346.70
579.69	46965.19
579.85	47124.35
580.01	47299.89
580.17	47164.14
580.33	47400.53
580.49	47349.04
580.65	47391.17
580.82	47131.37
580.98	47061.15
581.14	47246.05
581.30	47468.40
581.46	47498.83
581.62	47093.92
581.78	47386.49
581.94	47760.97
582.10	47543.30
582.26	47936.51
582.42	47344.36
582.58	47531.60
582.74	47264.78
582.90	47793.74
583.06	47683.73
583.22	47697.78
583.38	47147.75
583.54	47629.90
583.70	47489.47
583.86	47859.27
584.02	47260.10
584.18	47606.50
584.34	47749.27
584.50	47730.54
584.66	47391.17
584.82	47342.02
584.98	47943.53
585.14	47522.24
585.30	47435.64
585.46	47814.80
585.62	47323.29
585.78	47650.97
585.94	47531.60
586.10	47667.35
586.26	47580.75
586.42	47381.80
586.58	47910.77
586.74	47772.67
586.90	47540.96
587.06	47784.38
587.22	47625.22
587.38	47648.63
587.54	47721.18
587.70	47950.56
587.86	47360.74
588.02	47704.80
588.18	47622.88
588.34	47636.92
588.49	47618.20
588.65	47693.10
588.81	47789.06
588.97	47767.99
589.13	47679.05
589.29	47707.14
589.45	47639.26
589.61	47760.97
589.77	47870.98
589.93	47440.32
590.08	47941.19
