SpectraSuite Data File
++++++++++++++++++++++++++++++++++++
Date: Fri Oct 25 10:47:13 EDT 2013
User: price-jones
Dark Spectrum Present: No
Reference Spectrum Present: No
Number of Sampled Component Spectra: 1
Spectrometers: USB2+H05261
Integration Time (usec): 100000 (USB2+H05261)
Spectra Averaged: 1 (USB2+H05261)
Boxcar Smoothing: 0 (USB2+H05261)
Correct for Electrical Dark: No (USB2+H05261)
Strobe/Lamp Enabled: No (USB2+H05261)
Correct for Detector Non-linearity: No (USB2+H05261)
Correct for Stray Light: No (USB2+H05261)
Number of Pixels in Processed Spectrum: 2048
>>>>>Begin Processed Spectral Data<<<<<
365.73	145.11
365.92	145.11
366.12	145.11
366.32	65.54
366.52	51.49
366.72	74.90
366.91	51.49
367.11	56.17
367.31	65.54
367.51	46.81
367.70	65.54
367.90	18.72
368.10	74.90
368.30	81.92
368.49	74.90
368.69	63.19
368.89	14.04
369.09	102.98
369.28	124.05
369.48	74.90
369.68	142.77
369.87	142.77
370.07	114.69
370.27	110.01
370.47	149.79
370.66	255.12
370.86	447.04
371.06	430.66
371.25	449.38
371.45	409.59
371.65	395.55
371.84	402.57
372.04	423.64
372.24	451.72
372.44	507.90
372.63	496.19
372.83	491.51
373.03	552.37
373.22	512.58
373.42	524.28
373.62	503.22
373.81	510.24
374.01	533.64
374.21	533.64
374.40	559.39
374.60	545.34
374.79	550.03
374.99	543.00
375.19	587.47
375.38	575.77
375.58	547.69
375.78	550.03
375.97	528.96
376.17	559.39
376.37	617.90
376.56	578.11
376.76	519.60
376.95	571.09
377.15	653.01
377.35	645.99
377.54	594.50
377.74	491.51
377.93	608.54
378.13	643.65
378.33	594.50
378.52	615.56
378.72	627.26
378.91	615.56
379.11	589.82
379.31	622.58
379.50	638.97
379.70	545.34
379.89	685.78
380.09	638.97
380.28	688.12
380.48	634.29
380.68	734.93
380.87	643.65
381.07	706.84
381.26	636.63
381.46	585.13
381.65	638.97
381.85	713.86
382.04	594.50
382.24	634.29
382.43	669.39
382.63	671.73
382.83	653.01
383.02	730.25
383.22	725.57
383.41	620.24
383.61	718.54
383.80	716.20
384.00	678.76
384.19	751.31
384.39	716.20
384.58	746.63
384.78	713.86
384.97	788.76
385.17	737.27
385.36	842.59
385.56	763.01
385.75	671.73
385.95	758.33
386.14	802.80
386.34	746.63
386.53	767.70
386.72	781.74
386.92	849.61
387.11	866.00
387.31	812.17
387.50	784.08
387.70	741.95
387.89	849.61
388.09	798.12
388.28	793.44
388.48	851.96
388.67	786.42
388.86	870.68
389.06	854.30
389.25	830.89
389.45	847.27
389.64	889.40
389.84	959.62
390.03	866.00
390.22	954.94
390.42	866.00
390.61	891.74
390.81	898.77
391.00	924.51
391.19	938.55
391.39	976.00
391.58	922.17
391.78	959.62
391.97	957.28
392.16	868.34
392.36	997.07
392.55	940.90
392.75	908.13
392.94	903.45
393.13	971.32
393.33	1001.75
393.52	936.21
393.71	1078.99
393.91	997.07
394.10	1069.62
394.29	990.05
394.49	987.71
394.68	1027.50
394.88	1071.97
395.07	1071.97
395.26	1046.22
395.46	1102.39
395.65	1048.56
395.84	1111.75
396.04	1158.57
396.23	1015.79
396.42	1053.24
396.62	971.32
396.81	1160.91
397.00	1116.44
397.19	1160.91
397.39	1156.22
397.58	1254.53
397.77	1188.99
397.97	1270.91
398.16	1203.04
398.35	1235.80
398.55	1231.12
398.74	1167.93
398.93	1329.42
399.12	1301.34
399.32	1301.34
399.51	1284.95
399.70	1266.23
399.90	1350.49
400.09	1301.34
400.28	1334.11
400.47	1380.92
400.67	1366.87
400.86	1364.53
401.05	1448.79
401.24	1474.54
401.44	1418.36
401.63	1420.71
401.82	1439.43
402.01	1425.39
402.21	1390.28
402.40	1500.28
402.59	1425.39
402.78	1467.52
402.97	1493.26
403.17	1502.62
403.36	1549.43
403.55	1502.62
403.74	1519.01
403.93	1659.44
404.13	1526.03
404.32	1631.35
404.51	1586.88
404.70	1673.48
404.89	1621.99
405.09	1736.68
405.28	1666.46
405.47	1551.78
405.66	1666.46
405.85	1685.19
406.05	1598.59
406.24	1736.68
406.43	1701.57
406.62	1722.63
406.81	1888.81
407.00	1809.23
407.20	1762.42
407.39	1783.49
407.58	1813.92
407.77	1937.96
407.96	1959.03
408.15	1902.86
408.34	1865.41
408.54	1968.39
408.73	1959.03
408.92	1984.77
409.11	2094.78
409.30	2033.93
409.49	2005.84
409.68	1989.46
409.87	1980.09
410.07	1923.92
410.26	2047.97
410.45	2059.67
410.64	2101.80
410.83	2111.16
411.02	2167.34
411.21	2172.02
411.40	2207.13
411.59	2267.98
411.78	2172.02
411.98	2246.91
412.17	2256.28
412.36	2340.54
412.55	2251.60
412.74	2377.98
412.93	2396.71
413.12	2361.60
413.31	2502.03
413.50	2256.28
413.69	2450.54
413.88	2445.86
414.07	2431.82
414.26	2520.76
414.45	2612.04
414.64	2551.18
414.83	2551.18
415.02	2708.00
415.22	2614.38
415.41	2668.21
415.60	2684.59
415.79	2864.82
415.98	2712.68
416.17	2871.84
416.36	2609.70
416.55	2787.58
416.74	2869.50
416.93	2874.18
417.12	2928.01
417.31	2881.20
417.50	2963.12
417.69	2979.50
417.88	2885.88
418.07	2970.14
418.26	3124.62
418.45	3019.29
418.64	3145.68
418.83	3159.72
419.02	3164.40
419.21	3080.14
419.39	3173.77
419.58	3105.89
419.77	3145.68
419.96	3136.32
420.15	3311.86
420.34	3176.11
420.53	3344.63
420.72	3323.56
420.91	3363.35
421.10	3213.56
421.29	3318.88
421.48	3276.75
421.67	3351.65
421.86	3225.26
422.05	3309.52
422.24	3272.07
422.43	3339.94
422.61	3368.03
422.80	3431.23
422.99	3389.10
423.18	3426.54
423.37	3421.86
423.56	3501.44
423.75	3335.26
423.94	3251.00
424.13	3276.75
424.32	3414.84
424.50	3531.87
424.69	3513.14
424.88	3531.87
425.07	3433.57
425.26	3393.78
425.45	3440.59
425.64	3531.87
425.83	3520.17
426.01	3548.25
426.20	3513.14
426.39	3707.41
426.58	3440.59
426.77	3557.61
426.96	3508.46
427.15	3501.44
427.33	3562.30
427.52	3581.02
427.71	3597.40
427.90	3627.83
428.09	3712.09
428.28	3684.00
428.46	3688.68
428.65	3691.02
428.84	3791.67
429.03	3866.56
429.22	3665.28
429.40	3733.15
429.59	3801.03
429.78	3620.81
429.97	3559.95
430.16	3688.68
430.34	3735.50
430.53	3705.07
430.72	3719.11
430.91	3829.12
431.10	3880.61
431.28	3894.65
431.47	4044.45
431.66	4086.58
431.85	3976.57
432.03	4011.68
432.22	4102.96
432.41	4124.02
432.60	4072.53
432.79	4074.87
432.97	4095.94
433.16	4112.32
433.35	4030.40
433.54	4053.81
433.72	4117.00
433.91	4100.62
434.10	4088.92
434.28	4180.20
434.47	4243.39
434.66	4262.12
434.85	4339.35
435.03	4353.40
435.22	4311.27
435.41	4685.75
435.59	4454.04
435.78	4510.21
435.97	4587.45
436.16	4449.36
436.34	4512.55
436.53	4547.66
436.72	4582.77
436.90	4278.50
437.09	4561.70
437.28	4315.95
437.46	4608.51
437.65	4601.49
437.84	4578.09
438.02	4599.15
438.21	4603.83
438.40	4561.70
438.58	4770.01
438.77	4959.60
438.96	4854.27
439.14	4798.10
439.33	4898.74
439.52	5022.79
439.70	4891.72
439.89	5060.24
440.08	4943.21
440.26	5055.56
440.45	5001.72
440.63	5177.26
440.82	5240.46
441.01	5109.39
441.19	5174.92
441.38	5233.44
441.57	5263.86
441.75	5242.80
441.94	5350.46
442.12	5565.79
442.31	5540.05
442.50	5425.36
442.68	5579.84
442.87	5352.81
443.05	5617.29
443.24	5596.22
443.43	5621.97
443.61	5715.59
443.80	5722.61
443.98	5423.02
444.17	5444.09
444.35	5614.95
444.54	5722.61
444.73	5682.82
444.91	5727.29
445.10	5650.05
445.28	5717.93
445.47	5584.52
445.65	5680.48
445.84	5825.59
446.02	5781.12
446.21	5577.50
446.39	5827.93
446.58	5902.83
446.77	5846.66
446.95	5605.58
447.14	5774.10
447.32	5844.32
447.51	5853.68
447.69	5858.36
447.88	6010.50
448.06	5846.66
448.25	5856.02
448.43	6003.47
448.62	5776.44
448.80	5832.62
448.99	5879.43
449.17	6148.59
449.36	6038.58
449.54	5984.75
449.73	6242.21
449.91	6155.61
450.10	6169.65
450.28	6342.85
450.46	6104.12
450.65	6300.72
450.83	6328.81
451.02	6120.50
451.20	6347.53
451.39	6193.06
451.57	6349.87
451.76	6052.63
451.94	6392.00
452.13	6457.54
452.31	6342.85
452.49	6282.00
452.68	6441.15
452.86	6291.36
453.05	6420.09
453.23	6289.02
453.42	6338.17
453.60	6471.58
453.78	6520.73
453.97	6417.75
454.15	6490.31
454.34	6466.90
454.52	6579.25
454.70	6633.08
454.89	6888.20
455.07	6764.15
455.26	6647.12
455.44	6719.68
455.62	6841.39
455.81	6712.66
455.99	6853.09
456.17	6930.33
456.36	6789.89
456.54	6857.77
456.73	7040.33
456.91	7115.23
457.09	7091.82
457.28	7042.67
457.46	6869.47
457.64	7295.45
457.83	7045.01
458.01	6986.50
458.19	7112.89
458.38	7136.29
458.56	7197.15
458.74	7309.49
458.93	7297.79
459.11	7265.02
459.29	7311.83
459.48	7115.23
459.66	7307.15
459.84	7337.58
460.03	7503.76
460.21	7609.08
460.39	7426.52
460.57	7555.25
460.76	7445.24
460.94	7590.36
461.12	7470.99
461.31	7522.48
461.49	7847.82
461.67	7349.28
461.85	7786.96
462.04	7583.34
462.22	8079.53
462.40	7630.15
462.59	7758.88
462.77	7716.75
462.95	7882.92
463.13	7906.33
463.32	7857.18
463.50	7770.58
463.68	7913.35
463.86	7796.32
464.05	7854.84
464.23	7779.94
464.41	8131.02
464.59	7943.78
464.78	8018.68
464.96	7936.76
465.14	8056.12
465.32	8168.47
465.50	8091.23
465.69	8198.90
465.87	7918.03
466.05	8271.45
466.23	8182.51
466.41	8226.98
466.60	8409.54
466.78	7903.99
466.96	8140.38
467.14	8285.50
467.32	8423.59
467.51	8404.86
467.69	8231.66
467.87	8273.79
468.05	8306.56
468.23	8393.16
468.41	8332.31
468.60	8655.30
468.78	8308.90
468.96	8388.48
469.14	8437.63
469.32	8592.11
469.50	8470.40
469.69	8456.36
469.87	8730.20
470.05	8807.44
470.23	8549.98
470.41	8730.20
470.59	8840.20
470.77	8681.05
470.95	8821.48
471.14	9198.31
471.32	8833.18
471.50	9111.71
471.68	9090.64
471.86	9247.46
472.04	9144.47
472.22	9446.40
472.40	9114.05
472.58	9165.54
472.77	9315.33
472.95	9334.06
473.13	9525.98
473.31	9207.67
473.49	9317.67
473.67	9425.34
473.85	9598.54
474.03	9860.68
474.21	9755.35
474.39	9806.84
474.57	9605.56
474.75	9818.55
474.93	9865.36
475.12	10010.47
475.30	10045.58
475.48	10076.01
475.66	10047.92
475.84	10010.47
476.02	10078.35
476.20	10164.95
476.38	10389.64
476.56	10595.61
476.74	10373.25
476.92	10396.66
477.10	10490.28
477.28	10672.84
477.46	10862.43
477.64	10806.25
477.82	10832.00
478.00	11033.29
478.18	10995.84
478.36	11281.38
478.54	11222.87
478.72	11290.74
478.90	11522.46
479.08	11660.55
479.26	11712.04
479.44	11702.68
479.62	11747.15
479.80	11868.86
479.98	11901.62
480.16	12196.53
480.34	12128.66
480.52	12060.78
480.70	12180.15
480.88	12056.10
481.06	12308.88
481.24	12217.60
481.41	12564.00
481.59	12798.05
481.77	12807.41
481.95	12746.56
482.13	12854.22
482.31	13195.94
482.49	13242.75
482.67	13319.99
482.85	13460.42
483.03	13469.78
483.21	13441.70
483.39	13654.69
483.57	13500.21
483.74	14104.07
483.92	14045.55
484.10	13743.63
484.28	14155.56
484.46	14291.31
484.64	14752.40
484.82	14485.58
485.00	14356.85
485.18	14738.35
485.35	15049.64
485.53	14586.22
485.71	14766.44
485.89	15208.80
486.07	14960.70
486.25	15164.33
486.43	15314.13
486.61	15234.55
486.78	15454.56
486.96	15424.13
487.14	15974.16
487.32	15964.79
487.50	16348.64
487.68	16161.40
487.85	16638.87
488.03	16556.95
488.21	16638.87
488.39	16442.26
488.57	16636.53
488.75	17055.48
488.92	17055.48
489.10	17102.29
489.28	17455.72
489.46	17465.08
489.64	17502.53
489.81	17886.37
489.99	18178.94
490.17	18066.60
490.35	18239.79
490.53	18082.98
490.70	18590.88
490.88	18225.75
491.06	18625.98
491.24	18831.95
491.41	18471.51
491.59	18881.10
491.77	18986.43
491.95	19150.26
492.13	19241.54
492.30	19480.28
492.48	19302.40
492.66	19707.31
492.84	19658.16
493.01	19857.10
493.19	19941.36
493.37	20077.12
493.54	20189.46
493.72	20287.76
493.90	20680.97
494.08	20585.01
494.25	20919.71
494.43	20493.73
494.61	21053.12
494.79	21397.18
494.96	21212.28
495.14	20999.29
495.32	21401.86
495.49	21474.42
495.67	21876.99
495.85	21884.01
496.02	21759.96
496.20	22141.47
496.38	22169.55
496.55	22026.78
496.73	22714.90
496.91	22455.10
497.09	22340.41
497.26	22448.08
497.44	22544.04
497.62	22902.14
497.79	22820.22
497.97	22799.16
498.14	23012.15
498.32	23360.89
498.50	23330.46
498.67	23220.45
498.85	23199.39
499.03	23679.20
499.20	23536.43
499.38	23974.11
499.56	23967.09
499.73	24283.06
499.91	24161.35
500.08	24584.99
500.26	23812.61
500.44	24058.37
500.61	24374.34
500.79	24287.74
500.97	24503.07
501.14	24713.72
501.32	24903.30
501.49	24503.07
501.67	24807.34
501.84	24959.47
502.02	25025.01
502.20	25413.54
502.37	25160.76
502.55	25568.01
502.72	25481.41
502.90	25369.07
503.07	25355.02
503.25	25593.76
503.43	25584.40
503.60	25876.96
503.78	25628.87
503.95	25926.11
504.13	25802.07
504.30	26288.90
504.48	25993.99
504.65	26457.42
504.83	26368.48
505.01	26698.49
505.18	26206.98
505.36	26651.68
505.53	26714.87
505.71	27234.47
505.88	26859.99
506.06	26366.13
506.23	27044.89
506.41	26820.20
506.58	27295.33
506.76	27185.32
506.93	27115.11
507.11	27222.77
507.28	27325.75
507.46	27283.62
507.63	27552.79
507.81	27761.09
507.98	27718.96
508.16	27859.40
508.33	27555.13
508.50	28088.77
508.68	28020.89
508.85	28198.77
509.03	28437.51
509.20	27976.42
509.38	28418.78
509.55	28615.39
509.73	28601.35
509.90	28725.39
510.08	28273.67
510.25	28863.49
510.42	29024.98
510.60	29525.86
510.77	29113.92
510.95	29205.20
511.12	29315.21
511.30	29476.71
511.47	29577.35
511.64	29598.41
511.82	29401.81
511.99	29397.13
512.17	29605.44
512.34	29523.52
512.51	30012.69
512.69	30209.29
512.86	29764.59
513.04	30195.25
513.21	29956.52
513.38	30267.81
513.56	30260.79
513.73	30087.59
513.90	30277.17
514.08	30221.00
514.25	30824.86
514.43	30118.01
514.60	30462.07
514.77	30658.68
514.95	31309.35
515.12	30850.60
515.29	31173.60
515.47	31290.62
515.64	31033.16
515.81	31168.91
515.99	30841.24
516.16	31290.62
516.33	31122.10
516.51	31721.28
516.68	31072.95
516.85	31131.47
517.03	31637.02
517.20	31653.40
517.37	31519.99
517.54	32081.72
517.72	31665.11
517.89	31524.68
518.06	31728.30
518.24	32065.34
518.41	31866.39
518.58	32004.49
518.75	32205.77
518.93	32540.47
519.10	32109.81
519.27	32240.88
519.45	32280.67
519.62	32713.67
519.79	32751.12
519.96	32685.58
520.14	32952.40
520.31	32458.55
520.48	32809.63
520.65	33071.77
520.83	33092.83
521.00	33048.36
521.17	33441.57
521.34	33233.27
521.52	33591.37
521.69	33345.61
521.86	33497.75
522.03	33795.00
522.20	33605.41
522.38	33703.71
522.55	33549.24
522.72	33558.60
522.89	33486.04
523.07	33837.12
523.24	33876.91
523.41	33949.47
523.58	33773.93
523.75	34487.79
523.92	34433.96
524.10	34183.52
524.27	34225.65
524.44	34471.41
524.61	34471.41
524.78	34565.03
524.96	34944.20
525.13	34813.13
525.30	35220.38
525.47	35218.04
525.64	34635.25
525.81	34885.68
525.98	35194.64
526.16	34717.17
526.33	34918.45
526.50	35206.34
526.67	35168.89
526.84	34635.25
527.01	34902.07
527.18	35274.21
527.36	35330.39
527.53	35606.57
527.70	35761.05
527.87	35545.72
528.04	35510.61
528.21	35622.95
528.38	35688.49
528.55	35857.01
528.72	36236.17
528.89	36114.47
529.07	36065.31
529.24	35952.97
529.41	35976.37
529.58	36065.31
529.75	36357.88
529.92	36594.28
530.09	36423.42
530.26	36187.02
530.43	36444.48
530.60	36030.21
530.77	36212.77
530.94	36449.16
531.11	36533.42
531.28	36568.53
531.46	36521.72
531.63	36959.40
531.80	36720.66
531.97	36437.46
532.14	36584.91
532.31	36950.04
532.48	37205.16
532.65	37188.77
532.82	36900.89
532.99	36980.46
533.16	36872.80
533.33	37469.64
533.50	37134.94
533.67	37193.45
533.84	37301.12
534.01	37413.46
534.18	37471.98
534.35	37809.01
534.52	37394.74
534.69	37956.47
534.86	37591.34
535.03	37663.90
535.20	37991.58
535.37	38270.10
535.54	38146.05
535.71	37825.40
535.88	38087.54
536.05	38155.41
536.22	38024.34
536.38	38253.72
536.55	38366.06
536.72	38572.03
536.89	38132.01
537.06	37752.84
537.23	38637.56
537.40	37975.19
537.57	38597.77
537.74	38171.80
537.91	39047.16
538.08	38714.80
538.25	38347.34
538.42	38499.47
538.59	38548.62
538.75	38237.33
538.92	38513.52
539.09	38923.11
539.26	39093.97
539.43	38815.44
539.60	39035.45
539.77	38747.57
539.94	38913.75
540.11	38859.91
540.28	39227.38
540.44	38733.53
540.61	38810.76
540.78	38937.15
540.95	39119.71
541.12	39065.88
541.29	39159.50
541.46	39152.48
541.62	39445.05
541.79	39845.28
541.96	39332.70
542.13	39302.28
542.30	39234.40
542.47	39416.96
542.63	39496.54
542.80	39945.92
542.97	40170.61
543.14	40048.91
543.31	40301.68
543.48	40098.06
543.64	40477.22
543.81	40573.19
543.98	39995.07
544.15	40041.88
544.32	40271.26
544.48	40718.30
544.65	40540.42
544.82	40788.52
544.99	39969.33
545.16	40133.17
545.32	40472.54
545.49	40790.86
545.66	40100.40
545.83	40299.34
546.00	40774.47
546.16	40339.13
546.33	40840.01
546.50	40793.20
546.67	40746.39
546.83	40608.29
547.00	40671.49
547.17	40575.53
547.34	40533.40
547.50	41090.44
547.67	41207.47
547.84	41188.75
548.00	41228.54
548.17	41497.70
548.34	40811.92
548.51	41490.68
548.67	41212.15
548.84	41530.47
549.01	41324.50
549.18	41053.00
549.34	41216.83
549.51	41450.89
549.68	41588.98
549.84	41247.26
550.01	41460.25
550.18	41565.57
550.34	41434.50
550.51	41373.65
550.68	41317.48
550.84	41535.15
551.01	41848.78
551.18	41956.44
551.34	41598.34
551.51	41811.33
551.68	41947.08
551.84	41277.69
552.01	41900.27
552.18	41907.29
552.34	41476.63
552.51	41904.95
552.68	42075.81
552.84	42160.07
553.01	42429.23
553.18	41708.35
553.34	41949.42
553.51	41846.44
553.67	42026.66
553.84	42094.53
554.01	41947.08
554.17	42574.34
554.34	42237.31
554.51	42541.58
554.67	41982.19
554.84	42478.38
555.00	42246.67
555.17	42223.26
555.33	41710.69
555.50	42443.27
555.67	42756.91
555.83	42239.65
556.00	42895.00
556.16	43138.41
556.33	42913.72
556.50	42485.40
556.66	42897.34
556.83	42691.37
556.99	43026.07
557.16	43012.02
557.32	42892.66
557.49	42499.45
557.65	42401.14
557.82	42590.73
557.98	43065.86
558.15	42845.85
558.32	43084.58
558.48	42787.33
558.65	42887.98
558.81	42834.14
558.98	43042.45
559.14	43086.92
559.31	43089.26
559.47	42822.44
559.64	43346.72
559.80	43248.42
559.97	43269.48
560.13	43140.75
560.30	42724.14
560.46	43302.25
560.63	43012.02
560.79	43093.94
560.96	43784.40
561.12	43103.31
561.29	43255.44
561.45	43157.14
561.61	43107.99
561.78	43597.16
561.94	43402.89
562.11	43042.45
562.27	43409.92
562.44	42960.53
562.60	43194.59
562.77	43695.46
562.93	43756.32
563.10	43716.53
563.26	42796.70
563.42	43262.46
563.59	43351.40
563.75	43220.33
563.92	43412.26
564.08	43400.55
564.24	43821.85
564.41	43409.92
564.57	43599.50
564.74	43466.09
564.90	43559.71
565.07	43566.73
565.23	43601.84
565.39	43484.81
565.56	44055.90
565.72	43454.39
565.88	43650.99
566.05	43433.32
566.21	43201.61
566.38	43487.15
566.54	43688.44
566.70	43931.86
566.87	43639.29
567.03	43878.02
567.19	43892.07
567.36	43730.57
567.52	43892.07
567.68	43784.40
567.85	43496.52
568.01	43660.35
568.17	43449.70
568.34	43929.51
568.50	43704.82
568.66	43667.37
568.83	44074.63
568.99	43854.62
569.15	43613.54
569.32	43945.90
569.48	43447.36
569.64	44067.61
569.81	44247.83
569.97	43665.03
570.13	43849.94
570.30	43454.39
570.46	43913.13
570.62	43770.36
570.78	43669.72
570.95	44254.85
571.11	43943.56
571.27	43683.76
571.43	43892.07
571.60	43903.77
571.76	43955.26
571.92	44278.25
572.09	43934.20
572.25	44343.79
572.41	43531.62
572.57	44013.77
572.74	44421.03
572.90	44069.95
573.06	44470.18
573.22	44425.71
573.38	43856.96
573.55	44205.70
573.71	44198.68
573.87	44023.14
574.03	43484.81
574.20	44222.08
574.36	44322.72
574.52	44566.14
574.68	44273.57
574.84	44465.50
575.01	43849.94
575.17	44051.22
575.33	43957.60
575.49	44252.51
575.65	44729.98
575.82	44673.81
575.98	44105.06
576.14	44816.58
576.30	44502.95
576.46	43927.17
576.62	44179.95
576.79	44301.66
576.95	43863.98
577.11	44048.88
577.27	43845.26
577.43	44374.22
577.59	44617.63
577.75	44243.15
577.92	43992.71
578.08	43821.85
578.24	44048.88
578.40	44109.74
578.56	44154.21
578.72	44025.48
578.88	44254.85
579.04	44271.23
579.21	44114.42
579.37	44114.42
579.53	44432.73
579.69	43859.30
579.85	43899.09
580.01	44304.00
580.17	44442.09
580.33	44346.13
580.49	44516.99
580.65	44399.96
580.82	44472.52
580.98	44289.96
581.14	44098.03
581.30	44463.16
581.46	44512.31
581.62	44292.30
581.78	44748.70
581.94	44671.46
582.10	44711.25
582.26	44566.14
582.42	44273.57
582.58	43950.58
582.74	44275.91
582.90	43985.69
583.06	44245.49
583.22	44477.20
583.38	44563.80
583.54	44456.14
583.70	44172.93
583.86	44285.28
584.02	44278.25
584.18	44598.91
584.34	44161.23
584.50	44563.80
584.66	44666.78
584.82	44196.34
584.98	44697.21
585.14	44421.03
585.30	44423.37
585.46	44282.94
585.62	43920.15
585.78	44732.32
585.94	43948.24
586.10	44009.09
586.26	44615.29
586.42	44350.81
586.58	44505.29
586.74	44652.74
586.90	44329.75
587.06	43999.73
587.22	44362.51
587.38	44430.39
587.54	44678.49
587.70	44643.38
587.86	44884.45
588.02	44491.24
588.18	44732.32
588.34	44364.85
588.49	44020.80
588.65	44280.60
588.81	44095.69
588.97	44460.82
589.13	44624.65
589.29	44421.03
589.45	44685.51
589.61	44776.79
589.77	44821.26
589.93	44332.09
590.08	44662.10
590.24	44516.99
