SpectraSuite Data File
++++++++++++++++++++++++++++++++++++
Date: Fri Oct 25 11:23:01 EDT 2013
User: price-jones
Dark Spectrum Present: No
Reference Spectrum Present: No
Number of Sampled Component Spectra: 1
Spectrometers: USB2+H05261
Integration Time (usec): 100000 (USB2+H05261)
Spectra Averaged: 1 (USB2+H05261)
Boxcar Smoothing: 0 (USB2+H05261)
Correct for Electrical Dark: No (USB2+H05261)
Strobe/Lamp Enabled: No (USB2+H05261)
Correct for Detector Non-linearity: No (USB2+H05261)
Correct for Stray Light: No (USB2+H05261)
Number of Pixels in Processed Spectrum: 2048
>>>>>Begin Processed Spectral Data<<<<<
365.73	248.10
365.92	248.10
366.12	248.10
366.32	98.30
366.52	135.75
366.72	149.79
366.91	159.16
367.11	126.39
367.31	121.71
367.51	110.01
367.70	159.16
367.90	114.69
368.10	105.32
368.30	119.37
368.49	142.77
368.69	147.45
368.89	142.77
369.09	205.97
369.28	187.24
369.48	166.18
369.68	215.33
369.87	227.03
370.07	182.56
370.27	243.42
370.47	313.63
370.66	561.73
370.86	568.75
371.06	643.65
371.25	657.69
371.45	636.63
371.65	734.93
371.84	695.14
372.04	678.76
372.24	720.88
372.44	685.78
372.63	702.16
372.83	674.07
373.03	770.04
373.22	765.36
373.42	837.91
373.62	699.82
373.81	767.70
374.01	819.19
374.21	847.27
374.40	767.70
374.60	882.38
374.79	760.67
374.99	851.96
375.19	716.20
375.38	880.04
375.58	739.61
375.78	821.53
375.97	770.04
376.17	877.70
376.37	931.53
376.56	819.19
376.76	851.96
376.95	896.43
377.15	877.70
377.35	809.83
377.54	854.30
377.74	882.38
377.93	854.30
378.13	950.26
378.33	936.21
378.52	922.17
378.72	884.72
378.91	924.51
379.11	917.49
379.31	1015.79
379.50	936.21
379.70	994.73
379.89	1006.43
380.09	954.94
380.28	936.21
380.48	990.05
380.68	1043.88
380.87	1015.79
381.07	978.34
381.26	1060.26
381.46	1001.75
381.65	1107.07
381.85	1076.65
382.04	1011.11
382.24	1078.99
382.43	1067.28
382.63	1039.20
382.83	1053.24
383.02	1093.03
383.22	1151.54
383.41	1100.05
383.61	992.39
383.80	1025.15
384.00	1086.01
384.19	1165.59
384.39	1177.29
384.58	1174.95
384.78	1123.46
384.97	1144.52
385.17	1235.80
385.36	1104.73
385.56	1245.16
385.75	1179.63
385.95	1224.10
386.14	1252.19
386.34	1193.67
386.53	1254.53
386.72	1186.65
386.92	1427.73
387.11	1287.29
387.31	1240.48
387.50	1217.08
387.70	1287.29
387.89	1235.80
388.09	1324.74
388.28	1301.34
388.48	1249.85
388.67	1376.24
388.86	1287.29
389.06	1256.87
389.25	1385.60
389.45	1308.36
389.64	1320.06
389.84	1270.91
390.03	1432.41
390.22	1369.21
390.42	1416.02
390.61	1364.53
390.81	1423.05
391.00	1479.22
391.19	1502.62
391.39	1420.71
391.58	1523.69
391.78	1446.45
391.97	1528.37
392.16	1453.47
392.36	1530.71
392.55	1519.01
392.75	1469.86
392.94	1425.39
393.13	1603.27
393.33	1598.59
393.52	1556.46
393.71	1600.93
393.91	1570.50
394.10	1629.01
394.29	1717.95
394.49	1586.88
394.68	1586.88
394.88	1633.69
395.07	1661.78
395.26	1647.74
395.46	1666.46
395.65	1682.85
395.84	1671.14
396.04	1739.02
396.23	1774.13
396.42	1692.21
396.62	1790.51
396.81	1776.47
397.00	1708.59
397.19	1767.10
397.39	1753.06
397.58	1849.02
397.77	1802.21
397.97	1933.28
398.16	1973.07
398.35	1914.56
398.55	1856.04
398.74	1949.67
398.93	1898.17
399.12	1947.33
399.32	1947.33
399.51	1870.09
399.70	2024.56
399.90	1975.41
400.09	2036.27
400.28	2092.44
400.47	2017.54
400.67	2057.33
400.86	2033.93
401.05	2047.97
401.24	2057.33
401.44	2113.50
401.63	2221.17
401.82	2221.17
402.01	2010.52
402.21	2129.89
402.40	2092.44
402.59	2223.51
402.78	2167.34
402.97	2237.55
403.17	2195.42
403.36	2237.55
403.55	2356.92
403.74	2324.15
403.93	2328.83
404.13	2410.75
404.32	2345.22
404.51	2331.17
404.70	2403.73
404.89	2354.58
405.09	2448.20
405.28	2394.37
405.47	2492.67
405.66	2530.12
405.85	2532.46
406.05	2586.29
406.24	2602.68
406.43	2565.23
406.62	2654.17
406.81	2745.45
407.00	2502.03
407.20	2511.39
407.39	2619.06
407.58	2789.92
407.77	2825.03
407.96	2787.58
408.15	2841.41
408.34	2780.56
408.54	2813.32
408.73	2897.58
408.92	2958.44
409.11	2871.84
409.30	2988.86
409.49	2881.20
409.68	2970.14
409.87	2993.55
410.07	2876.52
410.26	2967.80
410.45	3005.25
410.64	2932.69
410.83	3101.21
411.02	3087.17
411.21	3215.90
411.40	3117.59
411.59	3260.37
411.78	3197.17
411.98	3171.43
412.17	3262.71
412.36	3152.70
412.55	3295.47
412.74	3456.97
412.93	3419.52
413.12	3321.22
413.31	3590.38
413.50	3496.76
413.69	3487.40
413.88	3578.68
414.07	3604.42
414.26	3747.20
414.45	3646.55
414.64	3737.84
414.83	3754.22
415.02	3817.41
415.22	3838.48
415.41	3822.09
415.60	3810.39
415.79	3908.69
415.98	4142.75
416.17	3939.12
416.36	3911.04
416.55	3960.19
416.74	3976.57
416.93	4042.11
417.12	4173.18
417.31	4180.20
417.50	4231.69
417.69	4341.69
417.88	4259.78
418.07	4322.97
418.26	4269.14
418.45	4351.06
418.64	4493.83
418.83	4472.76
419.02	4461.06
419.21	4559.36
419.39	4519.57
419.58	4559.36
419.77	4622.56
419.96	4594.47
420.15	4671.71
420.34	4573.41
420.53	4634.26
420.72	4809.80
420.91	4856.61
421.10	4676.39
421.29	4910.44
421.48	4669.37
421.67	4737.24
421.86	4819.16
422.05	4877.68
422.24	4741.93
422.43	4931.51
422.61	4887.04
422.80	4957.25
422.99	4877.68
423.18	4896.40
423.37	4894.06
423.56	4990.02
423.75	4990.02
423.94	4933.85
424.13	4493.83
424.32	4732.56
424.50	5203.01
424.69	5181.95
424.88	5137.48
425.07	5029.81
425.26	4877.68
425.45	5093.01
425.64	5123.43
425.83	4952.57
426.01	5055.56
426.20	5177.26
426.39	5128.11
426.58	5139.82
426.77	5158.54
426.96	5085.98
427.15	5200.67
427.33	5102.37
427.52	5245.14
427.71	5294.29
427.90	5231.10
428.09	5284.93
428.28	5338.76
428.46	5289.61
428.65	5289.61
428.84	5584.52
429.03	5612.60
429.22	5448.77
429.40	5509.62
429.59	5526.00
429.78	5444.09
429.97	5315.36
430.16	5582.18
430.34	5589.20
430.53	5736.65
430.72	5661.76
430.91	5708.57
431.10	5694.52
431.28	5870.06
431.47	5802.19
431.66	5966.03
431.85	5774.10
432.03	5781.12
432.22	5977.73
432.41	5942.62
432.60	5792.83
432.79	5879.43
432.97	6094.76
433.16	6050.28
433.35	6122.84
433.54	6129.86
433.72	6181.35
433.91	6120.50
434.10	6141.57
434.28	6054.97
434.47	6260.93
434.66	6375.62
434.85	6384.98
435.03	6274.98
435.22	6244.55
435.41	6562.86
435.59	6403.71
435.78	6476.26
435.97	6431.79
436.16	6469.24
436.34	6431.79
436.53	6520.73
436.72	6846.07
436.90	6359.24
437.09	6623.72
437.28	6469.24
437.46	6630.74
437.65	6551.16
437.84	6630.74
438.02	6740.74
438.21	6913.94
438.40	6785.21
438.58	7059.06
438.77	7005.22
438.96	6970.12
439.14	7117.57
439.33	7204.17
439.52	7321.20
439.70	7148.00
439.89	7412.48
440.08	7314.17
440.26	7353.96
440.45	7398.43
440.63	7541.21
440.82	7611.42
441.01	7552.91
441.19	7599.72
441.38	7873.56
441.57	7616.10
441.75	7868.88
441.94	8025.70
442.12	8112.30
442.31	7974.21
442.50	8098.25
442.68	8072.51
442.87	8016.33
443.05	8383.80
443.24	8046.76
443.43	8058.46
443.61	8215.28
443.80	8486.78
443.98	8046.76
444.17	7894.63
444.35	8203.58
444.54	8446.99
444.73	8252.73
444.91	8182.51
445.10	8334.65
445.28	8446.99
445.47	8198.90
445.65	8255.07
445.84	8557.00
446.02	8381.46
446.21	8571.04
446.39	8332.31
446.58	8608.49
446.77	8425.93
446.95	8367.42
447.14	8425.93
447.32	8587.43
447.51	8582.74
447.69	8568.70
447.88	8592.11
448.06	8559.34
448.25	8355.71
448.43	8437.63
448.62	8678.71
448.80	8592.11
448.99	8643.60
449.17	8828.50
449.36	8655.30
449.54	8748.92
449.73	9064.89
449.91	8809.78
450.10	9083.62
450.28	9385.55
450.46	9287.25
450.65	9195.96
450.83	8982.98
451.02	9055.53
451.20	9324.69
451.39	9308.31
451.57	9219.37
451.76	8835.52
451.94	9167.88
452.13	9495.55
452.31	9474.49
452.49	9102.34
452.68	9322.35
452.86	9460.45
453.05	9554.07
453.23	9619.60
453.42	9338.74
453.60	9483.85
453.78	9614.92
453.97	9570.45
454.15	9706.20
454.34	9577.47
454.52	9909.83
454.70	9738.97
454.89	9790.46
455.07	9905.15
455.26	9825.57
455.44	10001.11
455.62	10221.12
455.81	9902.81
455.99	10111.11
456.17	10038.56
456.36	10129.84
456.54	10331.12
456.73	10361.55
456.91	10462.19
457.09	10321.76
457.28	10630.71
457.46	10312.40
457.64	10668.16
457.83	10611.99
458.01	10387.30
458.19	10677.52
458.38	10567.52
458.56	10714.97
458.74	10668.16
458.93	10705.61
459.11	10757.10
459.29	10878.81
459.48	10789.87
459.66	10960.73
459.84	10909.24
460.03	11218.19
460.21	11110.52
460.39	10972.43
460.57	11143.29
460.76	11129.25
460.94	11353.94
461.12	11314.15
461.31	11180.74
461.49	11269.68
461.67	11309.47
461.85	11627.78
462.04	11538.84
462.22	11573.95
462.40	11515.44
462.59	11616.08
462.77	11562.25
462.95	11864.18
463.13	11620.76
463.32	11868.86
463.50	12046.74
463.68	11866.52
463.86	11737.79
464.05	11843.11
464.23	11665.23
464.41	11934.39
464.59	11768.21
464.78	12233.98
464.96	11955.46
465.14	11918.01
465.32	12088.87
465.50	12198.87
465.69	12318.24
465.87	12107.59
466.05	12149.72
466.23	12400.16
466.41	12360.37
466.60	12718.47
466.78	12273.77
466.96	12273.77
467.14	12189.51
467.32	12482.08
467.51	12648.26
467.69	12365.05
467.87	12285.47
468.05	12809.75
468.23	12348.67
468.41	12636.55
468.60	12641.23
468.78	12889.33
468.96	12879.97
469.14	12872.95
469.32	13202.96
469.50	12725.49
469.69	13191.26
469.87	13327.01
470.05	13270.84
470.23	12975.93
470.41	13170.19
470.59	13303.60
470.77	13256.79
470.95	13511.91
471.14	13493.19
471.32	13224.03
471.50	13593.83
471.68	13774.05
471.86	13706.18
472.04	13673.41
472.22	14223.44
472.40	13874.70
472.58	13736.60
472.77	14303.01
472.95	13872.36
473.13	14698.56
473.31	14200.03
473.49	14090.02
473.67	14237.48
473.85	14235.14
474.03	14700.90
474.21	14848.36
474.39	14607.28
474.57	14745.38
474.75	15066.03
474.93	15218.16
475.12	14867.08
475.30	15171.35
475.48	15073.05
475.66	15419.45
475.84	15492.01
476.02	15410.09
476.20	15463.92
476.38	15882.88
476.56	16290.13
476.74	16327.58
476.92	16067.78
477.10	15920.32
477.28	16409.50
477.46	16189.49
477.64	16477.37
477.82	16732.49
478.00	16791.00
478.18	16484.39
478.36	17167.83
478.54	17036.76
478.72	17352.73
478.90	17577.42
479.08	17767.01
479.26	17745.94
479.44	17902.76
479.62	17640.62
479.80	18256.18
479.98	18097.02
480.16	18597.90
480.34	18279.58
480.52	18576.83
480.70	18778.12
480.88	18820.25
481.06	18902.17
481.24	19005.15
481.41	19276.65
481.59	19580.92
481.77	19440.49
481.95	19730.72
482.13	19920.30
482.31	20229.25
482.49	20095.84
482.67	20397.77
482.85	20849.49
483.03	20856.51
483.21	20917.37
483.39	20877.58
483.57	21085.89
483.74	21156.10
483.92	21296.53
484.10	21436.97
484.28	22139.13
484.46	22031.46
484.64	22405.95
484.82	22211.68
485.00	22106.36
485.18	23019.17
485.35	23171.30
485.53	23016.83
485.71	23309.40
485.89	23676.86
486.07	23569.19
486.25	23838.36
486.43	23756.44
486.61	23990.49
486.78	23960.06
486.96	24266.67
487.14	24833.08
487.32	24823.72
487.50	24833.08
487.68	25153.74
487.85	25394.81
488.03	25804.41
488.21	25848.88
488.39	25907.39
488.57	26476.14
488.75	26295.92
488.92	26455.08
489.10	26738.28
489.28	27197.02
489.46	27337.46
489.64	26925.52
489.81	27887.48
489.99	27955.36
490.17	27931.95
490.35	28395.38
490.53	28240.90
490.70	28594.32
490.88	28650.50
491.06	28900.94
491.24	29050.73
491.41	29443.94
491.59	29324.57
491.77	29621.82
491.95	29916.73
492.13	30080.56
492.30	30146.10
492.48	30305.26
492.66	30515.90
492.84	30469.09
493.01	31145.51
493.19	30649.32
493.37	31229.77
493.54	31211.04
493.72	31793.84
493.90	31381.90
494.08	31988.10
494.25	32261.94
494.43	32144.92
494.61	32744.09
494.79	32718.35
494.96	32446.85
495.14	32795.59
495.32	33462.64
495.49	33579.67
495.67	33811.38
495.85	33792.65
496.02	33858.19
496.20	34059.48
496.38	33965.85
496.55	34071.18
496.73	35346.77
496.91	34888.03
497.09	35115.06
497.26	35489.54
497.44	35145.48
497.62	35426.35
497.79	36149.57
497.97	35967.01
498.14	35985.74
498.32	36446.82
498.50	36151.91
498.67	36912.59
498.85	36671.51
499.03	37041.32
499.20	36938.33
499.38	36933.65
499.56	37490.70
499.73	37525.81
499.91	37598.37
500.08	37883.91
500.26	37556.24
500.44	37921.36
500.61	38096.90
500.79	37895.61
500.97	38319.25
501.14	38597.77
501.32	38899.70
501.49	38483.09
501.67	38930.13
501.84	39435.69
502.02	39241.42
502.20	39510.58
502.37	39416.96
502.55	39562.08
502.72	39915.50
502.90	39983.37
503.07	39847.62
503.25	40091.04
503.43	40065.29
503.60	40575.53
503.78	40596.59
503.95	40650.42
504.13	40395.31
504.30	40952.35
504.48	41123.21
504.65	41132.57
504.83	41289.39
505.01	41907.29
505.18	41588.98
505.36	42003.25
505.53	41741.11
505.71	41708.35
505.88	42160.07
506.06	41565.57
506.23	42363.70
506.41	41846.44
506.58	42382.42
506.76	42476.04
506.93	42782.65
507.11	42773.29
507.28	42604.77
507.46	42878.61
507.63	43152.46
507.81	43414.60
507.98	43599.50
508.16	42782.65
508.33	43847.60
508.50	43648.65
508.68	44154.21
508.85	44219.74
509.03	44144.84
509.20	44088.67
509.38	44505.29
509.55	44952.33
509.73	45237.87
509.90	44722.96
510.08	44931.26
510.25	45113.83
510.42	44877.43
510.60	45301.07
510.77	45771.52
510.95	45696.62
511.12	45233.19
511.30	45605.34
511.47	45764.49
511.64	45413.41
511.82	46017.27
511.99	45853.44
512.17	46536.87
512.34	46349.63
512.51	46557.94
512.69	46724.11
512.86	46071.10
513.04	46607.09
513.21	46707.73
513.38	47093.92
513.56	47337.33
513.73	46829.44
513.90	47077.54
514.08	47433.30
514.25	47412.23
514.43	47760.97
514.60	47522.24
514.77	47566.71
514.95	48200.99
515.12	47847.57
515.29	48016.09
515.47	48231.42
515.64	48367.17
515.81	48350.79
515.99	48210.35
516.16	48659.74
516.33	48505.26
516.51	48994.43
516.68	48956.99
516.85	48729.95
517.03	49366.58
517.20	49481.27
517.37	49130.19
517.54	49162.95
517.72	49127.84
517.89	49120.82
518.06	49511.69
518.24	49411.05
518.41	49546.80
518.58	49312.75
518.75	49614.68
518.93	49879.16
519.10	49769.15
519.27	49925.97
519.45	49844.05
519.62	50218.53
519.79	50248.96
519.96	50295.77
520.14	50368.33
520.31	50190.45
520.48	50459.61
520.65	50504.08
520.83	50887.93
521.00	51084.53
521.17	50337.90
521.34	50768.56
521.52	51124.32
521.69	50986.23
521.86	51292.84
522.03	51421.57
522.20	51681.37
522.38	51576.04
522.55	51632.22
522.72	51533.92
522.89	51526.89
523.07	51625.20
523.24	51950.53
523.41	51583.07
523.58	51444.98
523.75	52100.32
523.92	52123.73
524.10	51779.67
524.27	52233.74
524.44	52325.02
524.61	52100.32
524.78	52327.36
524.96	52245.44
525.13	52481.83
525.30	52863.34
525.47	52963.98
525.64	52701.84
525.81	52678.44
525.98	52978.03
526.16	52921.85
526.33	53029.52
526.50	53146.54
526.67	52889.09
526.84	53181.65
527.01	53427.41
527.18	53195.70
527.36	52966.32
527.53	53104.41
527.70	53717.64
527.87	53528.05
528.04	53099.73
528.21	53432.09
528.38	53806.58
528.55	53790.19
528.72	53577.20
528.89	53584.22
529.07	53668.48
529.24	53642.74
529.41	53839.34
529.58	53886.15
529.75	53801.89
529.92	54106.16
530.09	54127.23
530.26	54298.09
530.43	54024.25
530.60	53787.85
530.77	54169.36
530.94	54344.90
531.11	54309.79
531.28	54216.17
531.46	54515.76
531.63	54569.59
531.80	54181.06
531.97	54681.94
532.14	54815.35
532.31	54705.34
532.48	55091.53
532.65	54710.02
532.82	54808.32
532.99	55295.16
533.16	55061.10
533.33	54855.14
533.50	55075.15
533.67	54918.33
533.84	54892.58
534.01	55058.76
534.18	55051.74
534.35	55323.24
534.52	55426.23
534.69	55451.97
534.86	55428.57
535.03	55358.35
535.20	55440.27
535.37	55468.36
535.54	55657.94
535.71	55318.56
535.88	55653.26
536.05	55702.41
536.22	55803.05
536.38	55817.10
536.55	55873.27
536.72	55566.66
536.89	55929.44
537.06	55920.08
537.23	56013.70
537.40	55877.95
537.57	56058.17
537.74	55906.04
537.91	56074.55
538.08	55936.46
538.25	56041.79
538.42	56083.92
538.59	56177.54
538.75	56086.26
538.92	56406.91
539.09	56442.02
539.26	56280.52
539.43	56196.26
539.60	56523.94
539.77	56374.14
539.94	56802.46
540.11	56753.31
540.28	56743.95
540.44	56446.70
540.61	56605.86
540.78	56643.30
540.95	56577.77
541.12	56334.35
541.29	56566.07
541.46	56432.66
541.62	56856.29
541.79	56814.16
541.96	56652.67
542.13	56683.09
542.30	56755.65
542.47	57048.22
542.63	56875.02
542.80	57120.77
542.97	57387.60
543.14	57251.84
543.31	57455.47
543.48	57357.17
543.64	57677.82
543.81	57495.26
543.98	57495.26
544.15	57268.23
544.32	57717.61
544.48	57717.61
544.65	57415.68
544.82	57736.34
544.99	57394.62
545.16	57736.34
545.32	57497.60
545.49	57949.32
545.66	57937.62
545.83	57783.15
546.00	57963.37
546.16	57897.83
546.33	57633.35
546.50	57513.98
546.67	57598.24
546.83	57593.56
547.00	57951.66
547.17	57815.91
547.34	58021.88
547.50	58150.61
547.67	58368.28
547.84	58188.06
548.00	58351.90
548.17	58361.26
548.34	58199.76
548.51	58319.13
548.67	58394.03
548.84	58354.24
549.01	58370.62
549.18	58272.32
549.34	58309.77
549.51	58485.31
549.68	58450.20
549.84	58590.63
550.01	58628.08
550.18	58592.97
550.34	58623.40
550.51	58637.44
550.68	58628.08
550.84	58417.43
551.01	58747.45
551.18	58759.15
551.34	58651.48
551.51	58738.08
551.68	58728.72
551.84	58805.96
552.01	58791.92
552.18	58829.37
552.34	58766.17
552.51	58892.56
552.68	58883.20
552.84	58695.95
553.01	59121.93
553.18	59093.85
553.34	59040.01
553.51	58850.43
553.67	59143.00
553.84	59140.66
554.01	58972.14
554.17	59196.83
554.34	59194.49
554.51	59079.80
554.67	59248.32
554.84	59166.40
555.00	59079.80
555.17	59030.65
555.33	59248.32
555.50	58979.16
555.67	59449.61
555.83	59164.06
556.00	59154.70
556.16	59355.99
556.33	59334.92
556.50	59480.03
556.66	59681.32
556.83	59105.55
556.99	59655.57
557.16	59480.03
557.32	59657.91
557.49	59796.01
557.65	59564.29
557.82	59573.66
557.98	59613.44
558.15	59465.99
558.32	59599.40
558.48	59604.08
558.65	59700.04
558.81	59653.23
558.98	59538.55
559.14	59908.35
559.31	59831.11
559.47	59964.52
559.64	59994.95
559.80	59875.58
559.97	59877.93
560.13	59798.35
560.30	59866.22
560.46	59948.14
560.63	59835.80
560.79	59861.54
560.96	59992.61
561.12	60273.48
561.29	60044.10
561.45	59990.27
561.61	60006.65
561.78	59849.84
561.94	60116.66
562.11	59955.16
562.27	60001.97
562.44	60142.41
562.60	60123.68
562.77	60048.78
562.93	59852.18
563.10	60076.87
563.26	60088.57
563.42	60214.96
563.59	60264.11
563.75	60086.23
563.92	60158.79
564.08	60315.61
564.24	60364.76
564.41	60266.45
564.57	60427.95
564.74	60161.13
564.90	60119.00
565.07	60163.47
565.23	60418.59
565.39	60441.99
565.56	60411.57
565.72	60549.66
565.88	60285.18
566.05	60161.13
566.21	60322.63
566.38	60217.30
566.54	60420.93
566.70	60629.24
566.87	60533.28
567.03	60259.43
567.19	60631.58
567.36	60294.54
567.52	60437.31
567.68	60704.13
567.85	60575.40
568.01	60521.57
568.17	60350.71
568.34	60617.53
568.50	60566.04
568.66	60364.76
568.83	60631.58
568.99	60500.51
569.15	60657.32
569.32	60509.87
569.48	60561.36
569.64	60774.35
569.81	60535.62
569.97	60512.21
570.13	60617.53
570.30	60446.68
570.46	60711.16
570.62	60708.82
570.78	60650.30
570.95	60832.86
571.11	60662.00
571.27	60786.05
571.43	60811.80
571.60	60776.69
571.76	60790.73
571.92	60678.39
572.09	60683.07
572.25	60963.93
572.41	60549.66
572.57	60781.37
572.74	60985.00
572.90	60872.65
573.06	60779.03
573.22	60935.85
573.38	60659.66
573.55	60961.59
573.71	60921.80
573.87	60708.82
574.03	60851.59
574.20	60945.21
574.36	60570.72
574.52	60933.51
574.68	60893.72
574.84	60919.46
575.01	60818.82
575.17	61038.83
575.33	60959.25
575.49	60919.46
575.65	61038.83
575.82	60926.49
575.98	60807.12
576.14	61017.77
576.30	60853.93
576.46	60748.60
576.62	60708.82
576.79	60828.18
576.95	60626.90
577.11	61099.68
577.27	60966.27
577.43	60896.06
577.59	60790.73
577.75	60715.84
577.92	60797.76
578.08	60931.17
578.24	60886.70
578.40	60949.89
578.56	61172.24
578.72	60926.49
578.88	61139.47
579.04	61041.17
579.21	60886.70
579.37	61254.16
579.53	61190.97
579.69	60931.17
579.85	60891.38
580.01	60968.61
580.17	60814.14
580.33	61155.86
580.49	61244.80
580.65	61078.62
580.82	60987.34
580.98	60856.27
581.14	60823.50
581.30	61144.16
581.46	60947.55
581.62	61291.61
581.78	60889.04
581.94	61179.26
582.10	61048.19
582.26	61144.16
582.42	61029.47
582.58	61235.44
582.74	61160.54
582.90	61151.18
583.06	61006.06
583.22	61080.96
583.38	60961.59
583.54	61186.28
583.70	61291.61
583.86	61104.37
584.02	61008.40
584.18	61144.16
584.34	60945.21
584.50	61146.50
584.66	61001.38
584.82	61116.07
584.98	61141.81
585.14	61207.35
585.30	61289.27
585.46	61277.57
585.62	61132.45
585.78	61244.80
585.94	60949.89
586.10	61045.85
586.26	61244.80
586.42	60942.87
586.58	61279.91
586.74	61230.75
586.90	61158.20
587.06	61228.41
587.22	61357.14
587.38	61034.15
587.54	61389.91
587.70	61462.47
587.86	61104.37
588.02	61144.16
588.18	61207.35
588.34	61275.22
