SpectraSuite Data File
++++++++++++++++++++++++++++++++++++
Date: Fri Oct 25 11:34:28 EDT 2013
User: price-jones
Dark Spectrum Present: No
Reference Spectrum Present: No
Number of Sampled Component Spectra: 1
Spectrometers: USB2+H05261
Integration Time (usec): 100000 (USB2+H05261)
Spectra Averaged: 1 (USB2+H05261)
Boxcar Smoothing: 0 (USB2+H05261)
Correct for Electrical Dark: No (USB2+H05261)
Strobe/Lamp Enabled: No (USB2+H05261)
Correct for Detector Non-linearity: No (USB2+H05261)
Correct for Stray Light: No (USB2+H05261)
Number of Pixels in Processed Spectrum: 2048
>>>>>Begin Processed Spectral Data<<<<<
365.73	355.76
365.92	355.76
366.12	355.76
366.32	243.42
366.52	208.31
366.72	182.56
366.91	222.35
367.11	236.39
367.31	212.99
367.51	166.18
367.70	184.90
367.90	187.24
368.10	203.63
368.30	159.16
368.49	147.45
368.69	147.45
368.89	266.82
369.09	124.05
369.28	166.18
369.48	170.86
369.68	212.99
369.87	241.08
370.07	212.99
370.27	294.91
370.47	318.31
370.66	437.68
370.86	498.53
371.06	479.81
371.25	510.24
371.45	610.88
371.65	606.20
371.84	484.49
372.04	479.81
372.24	596.84
372.44	620.24
372.63	552.37
372.83	582.79
373.03	662.37
373.22	582.79
373.42	624.92
373.62	601.52
373.81	662.37
374.01	669.39
374.21	580.45
374.40	596.84
374.60	690.46
374.79	653.01
374.99	631.94
375.19	610.88
375.38	737.27
375.58	634.29
375.78	683.44
375.97	667.05
376.17	683.44
376.37	669.39
376.56	660.03
376.76	697.48
376.95	683.44
377.15	704.50
377.35	683.44
377.54	681.10
377.74	695.14
377.93	655.35
378.13	636.63
378.33	777.06
378.52	634.29
378.72	781.74
378.91	788.76
379.11	643.65
379.31	676.41
379.50	655.35
379.70	739.61
379.89	833.23
380.09	716.20
380.28	720.88
380.48	763.01
380.68	681.10
380.87	676.41
381.07	753.65
381.26	751.31
381.46	781.74
381.65	774.72
381.85	767.70
382.04	678.76
382.24	725.57
382.43	763.01
382.63	734.93
382.83	779.40
383.02	688.12
383.22	734.93
383.41	744.29
383.61	828.55
383.80	781.74
384.00	791.10
384.19	847.27
384.39	763.01
384.58	779.40
384.78	763.01
384.97	809.83
385.17	844.93
385.36	821.53
385.56	889.40
385.75	826.21
385.95	844.93
386.14	891.74
386.34	891.74
386.53	847.27
386.72	823.87
386.92	856.64
387.11	919.83
387.31	798.12
387.50	866.00
387.70	844.93
387.89	866.00
388.09	940.90
388.28	851.96
388.48	870.68
388.67	943.24
388.86	922.17
389.06	971.32
389.25	973.66
389.45	884.72
389.64	901.11
389.84	884.72
390.03	1015.79
390.22	915.15
390.42	870.68
390.61	919.83
390.81	889.40
391.00	889.40
391.19	945.58
391.39	954.94
391.58	954.94
391.78	976.00
391.97	1020.47
392.16	961.96
392.36	1107.07
392.55	1050.90
392.75	1083.67
392.94	1116.44
393.13	954.94
393.33	938.55
393.52	1013.45
393.71	1081.33
393.91	1041.54
394.10	1062.60
394.29	1081.33
394.49	1118.78
394.68	1093.03
394.88	1057.92
395.07	1062.60
395.26	1062.60
395.46	1132.82
395.65	1132.82
395.84	1102.39
396.04	1167.93
396.23	1179.63
396.42	1165.59
396.62	1114.10
396.81	1086.01
397.00	1256.87
397.19	1158.57
397.39	1174.95
397.58	1086.01
397.77	1172.61
397.97	1142.18
398.16	1165.59
398.35	1296.66
398.55	1219.42
398.74	1247.51
398.93	1299.00
399.12	1282.61
399.32	1256.87
399.51	1275.59
399.70	1303.68
399.90	1380.92
400.09	1380.92
400.28	1401.98
400.47	1406.66
400.67	1350.49
400.86	1380.92
401.05	1392.62
401.24	1364.53
401.44	1394.96
401.63	1352.83
401.82	1511.99
402.01	1355.17
402.21	1441.77
402.40	1423.05
402.59	1378.58
402.78	1497.94
402.97	1423.05
403.17	1425.39
403.36	1547.09
403.55	1453.47
403.74	1570.50
403.93	1462.83
404.13	1551.78
404.32	1483.90
404.51	1528.37
404.70	1586.88
404.89	1629.01
405.09	1659.44
405.28	1507.30
405.47	1678.16
405.66	1715.61
405.85	1678.16
406.05	1647.74
406.24	1586.88
406.43	1624.33
406.62	1783.49
406.81	1778.81
407.00	1715.61
407.20	1746.04
407.39	1844.34
407.58	1820.94
407.77	1785.83
407.96	1823.28
408.15	1846.68
408.34	1802.21
408.54	1928.60
408.73	1853.70
408.92	1881.79
409.11	1879.45
409.30	1844.34
409.49	1884.13
409.68	1952.01
409.87	2017.54
410.07	1930.94
410.26	2071.37
410.45	2125.21
410.64	2022.22
410.83	2043.29
411.02	1935.62
411.21	2022.22
411.40	2113.50
411.59	1996.48
411.78	2092.44
411.98	2204.78
412.17	2141.59
412.36	2122.87
412.55	2134.57
412.74	2125.21
412.93	2312.45
413.12	2242.23
413.31	2335.85
413.50	2305.43
413.69	2321.81
413.88	2317.13
414.07	2380.32
414.26	2389.69
414.45	2459.90
414.64	2324.15
414.83	2406.07
415.02	2459.90
415.22	2459.90
415.41	2483.31
415.60	2539.48
415.79	2590.97
415.98	2586.29
416.17	2663.53
416.36	2665.87
416.55	2616.72
416.74	2698.64
416.93	2668.21
417.12	2754.81
417.31	2794.60
417.50	2724.38
417.69	2897.58
417.88	2881.20
418.07	2799.28
418.26	2827.37
418.45	2855.45
418.64	2972.48
418.83	2864.82
419.02	2839.07
419.21	2993.55
419.39	2981.84
419.58	2998.23
419.77	3005.25
419.96	2923.33
420.15	3021.63
420.34	3108.23
420.53	3133.98
420.72	3091.85
420.91	3124.62
421.10	3033.33
421.29	3304.84
421.48	3070.78
421.67	2998.23
421.86	3033.33
422.05	3089.51
422.24	3258.03
422.43	3206.53
422.61	3173.77
422.80	3150.36
422.99	3255.69
423.18	3375.05
423.37	3297.81
423.56	3138.66
423.75	3239.30
423.94	3185.47
424.13	2958.44
424.32	3143.34
424.50	3293.13
424.69	3393.78
424.88	3419.52
425.07	3342.28
425.26	3211.22
425.45	3454.63
425.64	3262.71
425.83	3361.01
426.01	3246.32
426.20	3344.63
426.39	3349.31
426.58	3243.98
426.77	3274.41
426.96	3375.05
427.15	3377.39
427.33	3480.38
427.52	3419.52
427.71	3412.50
427.90	3445.27
428.09	3590.38
428.28	3574.00
428.46	3499.10
428.65	3466.33
428.84	3545.91
429.03	3576.34
429.22	3466.33
429.40	3599.74
429.59	3609.11
429.78	3468.67
429.97	3574.00
430.16	3700.39
430.34	3662.94
430.53	3754.22
430.72	3695.71
430.91	3646.55
431.10	3618.47
431.28	3831.46
431.47	3920.40
431.66	3939.12
431.85	3857.20
432.03	3896.99
432.22	4067.85
432.41	3995.29
432.60	4002.32
432.79	3936.78
432.97	3974.23
433.16	4119.34
433.35	3927.42
433.54	3990.61
433.72	4044.45
433.91	3997.64
434.10	4014.02
434.28	4091.26
434.47	4056.15
434.66	4112.32
434.85	4175.52
435.03	4161.47
435.22	4091.26
435.41	4301.90
435.59	4229.35
435.78	4114.66
435.97	4222.33
436.16	4175.52
436.34	4362.76
436.53	4388.50
436.72	4437.66
436.90	4304.25
437.09	4491.49
437.28	4224.67
437.46	4320.63
437.65	4456.38
437.84	4374.46
438.02	4421.27
438.21	4489.15
438.40	4404.89
438.58	4559.36
438.77	4662.35
438.96	4629.58
439.14	4592.13
439.33	4706.82
439.52	4922.15
439.70	4695.11
439.89	4739.58
440.08	4833.21
440.26	4744.27
440.45	4784.06
440.63	4910.44
440.82	4880.02
441.01	4929.17
441.19	4891.72
441.38	5036.83
441.57	5114.07
441.75	5221.74
441.94	5170.24
442.12	5181.95
442.31	5233.44
442.50	5179.61
442.68	5331.74
442.87	5233.44
443.05	5273.23
443.24	5329.40
443.43	5348.12
443.61	5413.66
443.80	5551.75
443.98	5221.74
444.17	5249.82
444.35	5509.62
444.54	5441.75
444.73	5460.47
444.91	5231.10
445.10	5430.04
445.28	5423.02
445.47	5408.98
445.65	5357.49
445.84	5544.73
446.02	5668.78
446.21	5411.32
446.39	5280.25
446.58	5544.73
446.77	5619.63
446.95	5458.13
447.14	5458.13
447.32	5551.75
447.51	5469.83
447.69	5493.24
447.88	5490.90
448.06	5554.09
448.25	5619.63
448.43	5596.22
448.62	5514.30
448.80	5509.62
448.99	5570.48
449.17	5600.90
449.36	5556.43
449.54	5720.27
449.73	5633.67
449.91	5823.25
450.10	5750.70
450.28	5891.13
450.46	5968.37
450.65	5935.60
450.83	5839.64
451.02	5841.98
451.20	5870.06
451.39	5975.39
451.57	5968.37
451.76	5827.93
451.94	5966.03
452.13	6078.37
452.31	6031.56
452.49	5954.32
452.68	6179.01
452.86	6045.60
453.05	6076.03
453.23	6200.08
453.42	6106.46
453.60	6132.20
453.78	6282.00
453.97	6069.01
454.15	6200.08
454.34	6286.68
454.52	6272.64
454.70	6296.04
454.89	6319.45
455.07	6399.02
455.26	6406.05
455.44	6494.99
455.62	6342.85
455.81	6286.68
455.99	6366.26
456.17	6354.55
456.36	6448.18
456.54	6445.84
456.73	6628.40
456.91	6689.25
457.09	6649.46
457.28	6871.81
457.46	6679.89
457.64	6677.55
457.83	6803.94
458.01	6846.07
458.19	6939.69
458.38	6803.94
458.56	7253.32
458.74	6803.94
458.93	6853.09
459.11	6869.47
459.29	7087.14
459.48	6867.13
459.66	6909.26
459.84	7070.76
460.03	7157.36
460.21	7023.95
460.39	7155.02
460.57	7276.73
460.76	7185.44
460.94	7222.89
461.12	7246.30
461.31	7129.27
461.49	7070.76
461.67	7288.43
461.85	7325.88
462.04	7250.98
462.22	7751.85
462.40	7295.45
462.59	7489.71
462.77	7300.13
462.95	7461.63
463.13	7365.67
463.32	7468.65
463.50	7487.37
463.68	7571.63
463.86	7630.15
464.05	7438.22
464.23	7545.89
464.41	7566.95
464.59	7410.14
464.78	7747.17
464.96	7515.46
465.14	7494.40
465.32	7625.47
465.50	7761.22
465.69	7845.48
465.87	7969.52
466.05	7885.26
466.23	7808.03
466.41	7903.99
466.60	7871.22
466.78	7850.16
466.96	7864.20
467.14	7875.90
467.32	7875.90
467.51	7747.17
467.69	7714.41
467.87	7971.86
468.05	8004.63
468.23	7843.14
468.41	7974.21
468.60	8173.15
468.78	8306.56
468.96	7988.25
469.14	8304.22
469.32	8163.79
469.50	8231.66
469.69	8189.53
469.87	8472.74
470.05	8344.01
470.23	8390.82
470.41	8358.05
470.59	8315.92
470.77	8400.18
470.95	8454.02
471.14	8606.15
471.32	8276.13
471.50	8725.52
471.68	8690.41
471.86	8554.66
472.04	8631.90
472.22	9055.53
472.40	8592.11
472.58	8795.73
472.77	8793.39
472.95	9041.49
473.13	9334.06
473.31	9095.32
473.49	9069.58
473.67	9039.15
473.85	9139.79
474.03	9378.53
474.21	9247.46
474.39	9465.13
474.57	9502.58
474.75	9472.15
474.93	9614.92
475.12	9516.62
475.30	9680.46
475.48	9596.20
475.66	9643.01
475.84	9694.50
476.02	9720.24
476.20	9741.31
476.38	10033.88
476.56	9856.00
476.74	10040.90
476.92	10099.41
477.10	10104.09
477.28	10249.21
477.46	10211.76
477.64	10548.79
477.82	10630.71
478.00	10780.51
478.18	10724.33
478.36	10864.77
478.54	10881.15
478.72	10874.13
478.90	10981.79
479.08	11152.65
479.26	11344.58
479.44	11119.89
479.62	11396.07
479.80	11370.32
479.98	11447.56
480.16	11728.42
480.34	11585.65
480.52	11646.51
480.70	11838.43
480.88	11508.41
481.06	11786.94
481.24	11899.28
481.41	12030.35
481.59	12353.35
481.77	12189.51
481.95	12559.31
482.13	12599.10
482.31	12411.86
482.49	12568.68
482.67	12830.82
482.85	13092.96
483.03	12975.93
483.21	13247.43
483.39	13444.04
483.57	13226.37
483.74	13252.11
483.92	13666.39
484.10	13200.62
484.28	13589.15
484.46	13886.40
484.64	13811.50
484.82	13767.03
485.00	14108.75
485.18	14335.78
485.35	14295.99
485.53	14504.30
485.71	14462.17
485.89	14710.27
486.07	14707.93
486.25	14768.78
486.43	14747.72
486.61	14899.85
486.78	15131.56
486.96	14970.07
487.14	15220.50
487.32	15272.00
487.50	15644.14
487.68	15616.05
487.85	15723.72
488.03	15932.03
488.21	16105.23
488.39	16479.71
488.57	16325.24
488.75	16257.36
488.92	16592.06
489.10	16725.47
489.28	16685.68
489.46	16929.09
489.64	16929.09
489.81	17371.46
489.99	17153.79
490.17	17408.90
490.35	17724.88
490.53	17642.96
490.70	17680.41
490.88	17825.52
491.06	17989.36
491.24	18139.15
491.41	18061.91
491.59	18403.63
491.77	18384.91
491.95	18504.28
492.13	18679.82
492.30	18981.74
492.48	18623.64
492.66	18874.08
492.84	18906.85
493.01	19159.63
493.19	19126.86
493.37	19531.77
493.54	19538.79
493.72	19531.77
493.90	19779.87
494.08	19592.62
494.25	20116.90
494.43	20180.10
494.61	20294.79
494.79	20362.66
494.96	20617.78
495.14	20535.86
495.32	20519.48
495.49	20795.66
495.67	20603.74
495.85	20931.41
496.02	21240.36
496.20	21160.78
496.38	21352.71
496.55	21696.77
496.73	21905.07
496.91	21888.69
497.09	21626.55
497.26	22136.79
497.44	21841.88
497.62	22092.32
497.79	22326.37
497.97	22377.86
498.14	22370.84
498.32	22750.01
498.50	22548.72
498.67	22986.40
498.85	23257.90
499.03	22661.07
499.20	22958.31
499.38	23246.20
499.56	22958.31
499.73	23339.82
499.91	23524.72
500.08	23693.24
500.26	23445.15
500.44	23344.50
500.61	23707.29
500.79	23674.52
500.97	23995.17
501.14	24372.00
501.32	24226.89
501.49	24116.88
501.67	24121.56
501.84	24236.25
502.02	24336.89
502.20	24386.04
502.37	24683.29
502.55	24402.43
502.72	24767.55
502.90	24353.27
503.07	24751.17
503.25	24912.66
503.43	24947.77
503.60	25270.76
503.78	25443.96
503.95	25212.25
504.13	25380.77
504.30	25788.02
504.48	25263.74
504.65	25652.27
504.83	25820.79
505.01	25752.91
505.18	26005.69
505.36	25996.33
505.53	25701.42
505.71	25937.82
505.88	26218.68
506.06	26263.15
506.23	26513.59
506.41	26469.12
506.58	26607.21
506.76	26576.78
506.93	26757.00
507.11	26782.75
507.28	27030.85
507.46	26909.14
507.63	27524.70
507.81	27384.27
507.98	26867.01
508.16	27051.91
508.33	27021.48
508.50	27735.35
508.68	27513.00
508.85	27807.90
509.03	27330.44
509.20	27917.91
509.38	28121.54
509.55	28039.62
509.73	28098.13
509.90	28091.11
510.08	28088.77
510.25	28353.25
510.42	28147.28
510.60	28030.26
510.77	28856.46
510.95	28886.89
511.12	28470.28
511.30	28479.64
511.47	28662.20
511.64	29156.05
511.82	29062.43
511.99	28741.78
512.17	29055.41
512.34	28978.17
512.51	29289.46
512.69	29757.57
512.86	29600.76
513.04	29603.10
513.21	29378.40
513.38	29649.91
513.56	29710.76
513.73	29565.65
513.90	29493.09
514.08	29518.84
514.25	30066.52
514.43	30185.89
514.60	30384.83
514.77	30307.60
514.95	30375.47
515.12	30462.07
515.29	30167.16
515.47	30347.39
515.64	30883.37
515.81	30136.74
515.99	30888.05
516.16	31321.05
516.33	30998.06
516.51	30859.96
516.68	30738.26
516.85	31129.12
517.03	31124.44
517.20	31672.13
517.37	31098.70
517.54	31470.84
517.72	31484.89
517.89	31667.45
518.06	31555.10
518.24	31571.49
518.41	31456.80
518.58	31543.40
518.75	31784.48
518.93	31974.06
519.10	31850.01
519.27	31995.12
519.45	32016.19
519.62	32254.92
519.79	32074.70
519.96	32217.47
520.14	32238.54
520.31	32168.32
520.48	32418.76
520.65	32538.13
520.83	32957.08
521.00	32313.44
521.17	32346.20
521.34	32952.40
521.52	32903.25
521.69	32929.00
521.86	33308.16
522.03	33083.47
522.20	33310.50
522.38	33525.83
522.55	33450.94
522.72	33411.15
522.89	33748.18
523.07	33921.38
523.24	33612.43
523.41	33610.09
523.58	33530.51
523.75	34330.98
523.92	33874.57
524.10	33912.02
524.27	34298.21
524.44	34246.72
524.61	34178.84
524.78	34258.42
524.96	34424.60
525.13	34426.94
525.30	34590.78
525.47	34522.90
525.64	34382.47
525.81	34775.68
525.98	34410.56
526.16	34981.65
526.33	34473.75
526.50	34962.92
526.67	34679.72
526.84	35037.82
527.01	35012.07
527.18	34885.68
527.36	35126.76
527.53	35377.20
527.70	35611.25
527.87	35690.83
528.04	35339.75
528.21	35573.80
528.38	35690.83
528.55	35438.05
528.72	35599.55
528.89	35852.33
529.07	35562.10
529.24	35639.34
529.41	35697.85
529.58	35658.06
529.75	35894.46
529.92	35903.82
530.09	35962.33
530.26	36212.77
530.43	35833.60
530.60	36147.23
530.77	35983.40
530.94	36622.36
531.11	35866.37
531.28	36198.73
531.46	36477.25
531.63	36261.92
531.80	36369.58
531.97	36875.14
532.14	36697.26
532.31	36645.77
532.48	37219.20
532.65	36924.29
532.82	36526.40
532.99	37001.53
533.16	37153.66
533.33	37034.30
533.50	37177.07
533.67	37338.57
533.84	36964.08
534.01	37057.70
534.18	37364.31
534.35	37216.86
534.52	37359.63
534.69	37528.15
534.86	37813.70
535.03	37216.86
535.20	37776.25
535.37	37504.74
535.54	37848.80
535.71	37586.66
535.88	37984.55
536.05	37621.77
536.22	38581.39
536.38	37635.81
536.55	38169.46
536.72	37832.42
536.89	37790.29
537.06	38017.32
537.23	38389.47
537.40	37696.67
537.57	37869.87
537.74	37897.95
537.91	38380.10
538.08	38557.99
538.25	38110.94
538.42	38731.18
538.59	38527.56
538.75	38443.30
538.92	38651.61
539.09	38480.75
539.26	38630.54
539.43	38534.58
539.60	38642.24
539.77	39014.39
539.94	39290.57
540.11	38913.75
540.28	39407.60
540.44	38965.24
540.61	38897.36
540.78	39288.23
540.95	39278.87
541.12	38948.85
541.29	38621.18
541.46	39267.17
541.62	39356.11
541.79	39480.16
541.96	38770.97
542.13	39098.65
542.30	39449.73
542.47	39328.02
542.63	40002.10
542.80	39700.17
542.97	40226.79
543.14	40184.66
543.31	39737.62
543.48	40210.40
543.64	40189.34
543.81	40418.71
543.98	40156.57
544.15	40381.26
544.32	40222.11
544.48	40439.78
544.65	40458.50
544.82	40444.46
544.99	39807.83
545.16	40795.54
545.32	40313.39
545.49	41085.76
545.66	40641.06
545.83	41137.26
546.00	40786.18
546.16	40517.01
546.33	40854.05
546.50	40573.19
546.67	41291.73
546.83	40474.88
547.00	40559.14
547.17	40765.11
547.34	40652.76
547.50	41139.60
547.67	41219.17
547.84	40947.67
548.00	41172.36
548.17	41490.68
548.34	41682.60
548.51	41083.42
548.67	41310.46
548.84	41490.68
549.01	41537.49
549.18	41411.10
549.34	41350.24
549.51	41656.85
549.68	41553.87
549.84	41340.88
550.01	41354.93
550.18	41357.27
550.34	41792.61
550.51	41741.11
550.68	42171.77
550.84	41359.61
551.01	42099.22
551.18	41862.82
551.34	41900.27
551.51	41935.38
551.68	41790.27
551.84	42202.20
552.01	42220.92
552.18	41858.14
552.34	41970.49
552.51	42213.90
552.68	42230.29
552.84	42319.23
553.01	42220.92
553.18	42277.10
553.34	42134.32
553.51	42237.31
553.67	42663.28
553.84	42419.87
554.01	42361.36
554.17	42398.80
554.34	42747.54
554.51	42368.38
554.67	42586.05
554.84	42604.77
555.00	42536.90
555.17	42995.64
555.33	42663.28
555.50	42618.81
555.67	42897.34
555.83	42789.67
556.00	43077.56
556.16	43194.59
556.33	43021.39
556.50	43103.31
556.66	42698.39
556.83	42960.53
556.99	43412.26
557.16	42965.21
557.32	42988.62
557.49	43210.97
557.65	42759.25
557.82	43105.65
557.98	43421.62
558.15	43213.31
558.32	43180.54
558.48	42759.25
558.65	43419.28
558.81	43173.52
558.98	43178.20
559.14	43416.94
559.31	42997.98
559.47	43498.86
559.64	43512.90
559.80	43433.32
559.97	43585.46
560.13	43405.23
560.30	43449.70
560.46	43641.63
560.63	43936.54
560.79	43786.74
560.96	43983.35
561.12	43377.15
561.29	44109.74
561.45	44027.82
561.61	43576.09
561.78	43761.00
561.94	43510.56
562.11	43931.86
562.27	43920.15
562.44	43482.47
562.60	43983.35
562.77	44032.50
562.93	43871.00
563.10	44524.01
563.26	43903.77
563.42	44444.43
563.59	44252.51
563.75	43889.73
563.92	43835.89
564.08	43756.32
564.24	44299.32
564.41	44067.61
564.57	44058.24
564.74	44385.92
564.90	43669.72
565.07	44156.55
565.23	44552.10
565.39	44484.22
565.56	44360.17
565.72	44182.29
565.88	43908.45
566.05	44004.41
566.21	44622.31
566.38	44205.70
566.54	44406.98
566.70	44622.31
566.87	44332.09
567.03	44402.30
567.19	44762.75
567.36	44165.91
567.52	43992.71
567.68	44687.85
567.85	44842.32
568.01	44341.45
568.17	44378.90
568.34	44184.63
568.50	44762.75
568.66	44208.04
568.83	44346.13
568.99	44231.44
569.15	44928.92
569.32	44598.91
569.48	44304.00
569.64	44928.92
569.81	44980.42
569.97	44975.73
570.13	44612.95
570.30	44493.58
570.46	44507.63
570.62	44486.56
570.78	44779.13
570.95	44292.30
571.11	44870.41
571.27	44762.75
571.43	45024.89
571.60	44804.88
571.76	44516.99
571.92	44470.18
572.09	44720.62
572.25	44369.54
572.41	44748.70
572.57	45095.10
572.74	45254.26
572.90	44891.48
573.06	45095.10
573.22	44870.41
573.38	45153.62
573.55	45059.99
573.71	45514.06
573.87	45017.86
574.03	45027.23
574.20	45137.23
574.36	45041.27
574.52	45347.88
574.68	45057.65
574.84	45256.60
575.01	44809.56
575.17	45329.16
575.33	45036.59
575.49	45198.09
575.65	45010.84
575.82	45134.89
575.98	45249.58
576.14	45198.09
576.30	45738.75
576.46	45064.67
576.62	45165.32
576.79	45280.00
576.95	44608.27
577.11	44884.45
577.27	44870.41
577.43	45397.03
577.59	45017.86
577.75	44811.90
577.92	44706.57
578.08	45003.82
578.24	45113.83
578.40	45237.87
578.56	45275.32
578.72	45188.72
578.88	45181.70
579.04	45017.86
579.21	45088.08
579.37	45539.80
579.53	45294.05
579.69	45247.24
579.85	44978.07
580.01	45240.21
580.17	45654.49
580.33	45408.73
580.49	45017.86
580.65	45516.40
580.82	45013.18
580.98	45050.63
581.14	44821.26
581.30	45343.20
581.46	44905.52
581.62	45490.65
581.78	45181.70
581.94	45310.43
582.10	44729.98
582.26	45572.57
582.42	45015.52
582.58	45757.47
582.74	45184.04
582.90	45221.49
583.06	45343.20
583.22	45329.16
583.38	45251.92
583.54	45858.12
583.70	45797.26
583.86	46078.13
584.02	45394.69
584.18	46052.38
584.34	45801.94
584.50	45708.32
584.66	45357.24
584.82	45588.95
584.98	45687.26
585.14	45436.82
585.30	45170.00
585.46	45546.82
585.62	45263.62
585.78	45556.19
585.94	45130.21
586.10	45539.80
586.26	45308.09
586.42	45256.60
586.58	45509.38
586.74	45317.45
586.90	45158.30
587.06	45043.61
587.22	45654.49
587.38	45249.58
587.54	45415.76
587.70	45617.04
587.86	45605.34
588.02	45617.04
588.18	45738.75
588.34	45961.10
588.49	45467.25
588.65	45359.58
588.81	45741.09
588.97	45979.82
589.13	45886.20
589.29	45209.79
589.45	45956.42
589.61	45848.75
589.77	45743.43
589.93	45567.89
590.08	45741.09
