SpectraSuite Data File
++++++++++++++++++++++++++++++++++++
Date: Fri Oct 25 11:34:47 EDT 2013
User: price-jones
Dark Spectrum Present: No
Reference Spectrum Present: No
Number of Sampled Component Spectra: 1
Spectrometers: USB2+H05261
Integration Time (usec): 100000 (USB2+H05261)
Spectra Averaged: 1 (USB2+H05261)
Boxcar Smoothing: 0 (USB2+H05261)
Correct for Electrical Dark: No (USB2+H05261)
Strobe/Lamp Enabled: No (USB2+H05261)
Correct for Detector Non-linearity: No (USB2+H05261)
Correct for Stray Light: No (USB2+H05261)
Number of Pixels in Processed Spectrum: 2048
>>>>>Begin Processed Spectral Data<<<<<
365.73	276.18
365.92	276.18
366.12	276.18
366.32	262.14
366.52	182.56
366.72	227.03
366.91	156.82
367.11	245.76
367.31	191.92
367.51	135.75
367.70	159.16
367.90	170.86
368.10	234.05
368.30	198.95
368.49	170.86
368.69	250.44
368.89	210.65
369.09	173.20
369.28	229.37
369.48	212.99
369.68	154.48
369.87	252.78
370.07	238.73
370.27	320.65
370.47	362.78
370.66	489.17
370.86	404.91
371.06	498.53
371.25	589.82
371.45	517.26
371.65	526.62
371.84	634.29
372.04	545.34
372.24	596.84
372.44	571.09
372.63	564.07
372.83	657.69
373.03	564.07
373.22	587.47
373.42	631.94
373.62	528.96
373.81	683.44
374.01	716.20
374.21	603.86
374.40	622.58
374.60	603.86
374.79	641.31
374.99	610.88
375.19	636.63
375.38	622.58
375.58	627.26
375.78	657.69
375.97	709.18
376.17	653.01
376.37	610.88
376.56	706.84
376.76	599.18
376.95	695.14
377.15	594.50
377.35	645.99
377.54	643.65
377.74	706.84
377.93	622.58
378.13	678.76
378.33	683.44
378.52	674.07
378.72	702.16
378.91	699.82
379.11	692.80
379.31	655.35
379.50	634.29
379.70	662.37
379.89	697.48
380.09	711.52
380.28	685.78
380.48	751.31
380.68	748.97
380.87	713.86
381.07	770.04
381.26	777.06
381.46	805.14
381.65	751.31
381.85	730.25
382.04	718.54
382.24	748.97
382.43	800.46
382.63	739.61
382.83	753.65
383.02	858.98
383.22	779.40
383.41	755.99
383.61	777.06
383.80	741.95
384.00	870.68
384.19	823.87
384.39	777.06
384.58	758.33
384.78	755.99
384.97	830.89
385.17	861.32
385.36	891.74
385.56	877.70
385.75	819.19
385.95	741.95
386.14	830.89
386.34	828.55
386.53	786.42
386.72	840.25
386.92	854.30
387.11	837.91
387.31	812.17
387.50	821.53
387.70	919.83
387.89	936.21
388.09	940.90
388.28	922.17
388.48	894.08
388.67	971.32
388.86	905.79
389.06	826.21
389.25	952.60
389.45	896.43
389.64	903.45
389.84	1015.79
390.03	926.85
390.22	1001.75
390.42	917.49
390.61	842.59
390.81	945.58
391.00	908.13
391.19	943.24
391.39	1032.18
391.58	1036.86
391.78	1046.22
391.97	1022.81
392.16	945.58
392.36	1067.28
392.55	999.41
392.75	1034.52
392.94	1064.94
393.13	1071.97
393.33	1034.52
393.52	1095.37
393.71	1020.47
393.91	1118.78
394.10	1053.24
394.29	1100.05
394.49	1048.56
394.68	1015.79
394.88	1048.56
395.07	1097.71
395.26	1097.71
395.46	1167.93
395.65	1111.75
395.84	1083.67
396.04	1231.12
396.23	1100.05
396.42	1142.18
396.62	1151.54
396.81	1111.75
397.00	1238.14
397.19	1163.25
397.39	1245.16
397.58	1245.16
397.77	1170.27
397.97	1172.61
398.16	1235.80
398.35	1146.86
398.55	1270.91
398.74	1207.72
398.93	1231.12
399.12	1306.02
399.32	1259.21
399.51	1315.38
399.70	1289.64
399.90	1240.48
400.09	1341.13
400.28	1277.93
400.47	1306.02
400.67	1343.47
400.86	1242.82
401.05	1401.98
401.24	1345.81
401.44	1446.45
401.63	1411.34
401.82	1350.49
402.01	1425.39
402.21	1390.28
402.40	1373.89
402.59	1383.26
402.78	1425.39
402.97	1465.18
403.17	1430.07
403.36	1504.96
403.55	1493.26
403.74	1537.73
403.93	1535.39
404.13	1514.33
404.32	1509.65
404.51	1495.60
404.70	1572.84
404.89	1554.12
405.09	1516.67
405.28	1612.63
405.47	1614.97
405.66	1579.86
405.85	1619.65
406.05	1596.25
406.24	1732.00
406.43	1687.53
406.62	1643.06
406.81	1771.79
407.00	1614.97
407.20	1685.19
407.39	1666.46
407.58	1837.32
407.77	1713.27
407.96	1827.96
408.15	1820.94
408.34	1760.08
408.54	1746.04
408.73	1870.09
408.92	1811.57
409.11	1863.07
409.30	1860.73
409.49	1895.83
409.68	1830.30
409.87	1879.45
410.07	1996.48
410.26	2040.95
410.45	1998.82
410.64	2019.88
410.83	2064.35
411.02	1863.07
411.21	2026.90
411.40	2073.71
411.59	2038.61
411.78	2125.21
411.98	2125.21
412.17	2125.21
412.36	2136.91
412.55	2120.53
412.74	2251.60
412.93	2230.53
413.12	2312.45
413.31	2321.81
413.50	2289.04
413.69	2197.76
413.88	2415.43
414.07	2260.96
414.26	2487.99
414.45	2459.90
414.64	2389.69
414.83	2497.35
415.02	2403.73
415.22	2544.16
415.41	2530.12
415.60	2586.29
415.79	2621.40
415.98	2511.39
416.17	2609.70
416.36	2626.08
416.55	2619.06
416.74	2649.49
416.93	2579.27
417.12	2576.93
417.31	2654.17
417.50	2787.58
417.69	2775.88
417.88	2724.38
418.07	2731.41
418.26	2703.32
418.45	2822.69
418.64	2935.03
418.83	2839.07
419.02	2935.03
419.21	2815.66
419.39	2967.80
419.58	2913.97
419.77	2895.24
419.96	3021.63
420.15	3150.36
420.34	2911.63
420.53	3082.49
420.72	2939.71
420.91	3040.36
421.10	2988.86
421.29	3166.74
421.48	3131.64
421.67	3204.19
421.86	3110.57
422.05	3143.34
422.24	3138.66
422.43	3201.85
422.61	3169.09
422.80	3183.13
422.99	3262.71
423.18	3122.27
423.37	3293.13
423.56	3159.72
423.75	3105.89
423.94	3239.30
424.13	2935.03
424.32	3101.21
424.50	3286.11
424.69	3300.16
424.88	3236.96
425.07	3194.83
425.26	3234.62
425.45	3262.71
425.64	3218.24
425.83	3330.58
426.01	3372.71
426.20	3293.13
426.39	3239.30
426.58	3297.81
426.77	3283.77
426.96	3353.99
427.15	3288.45
427.33	3456.97
427.52	3314.20
427.71	3414.84
427.90	3410.16
428.09	3449.95
428.28	3529.53
428.46	3522.51
428.65	3473.36
428.84	3719.11
429.03	3669.96
429.22	3428.88
429.40	3658.26
429.59	3517.83
429.78	3492.08
429.97	3508.46
430.16	3639.53
430.34	3599.74
430.53	3712.09
430.72	3536.55
430.91	3716.77
431.10	3613.79
431.28	3695.71
431.47	3735.50
431.66	3770.60
431.85	3892.31
432.03	3887.63
432.22	3929.76
432.41	3826.78
432.60	3939.12
432.79	3892.31
432.97	3852.52
433.16	3918.06
433.35	3859.54
433.54	3887.63
433.72	3962.53
433.91	3927.42
434.10	4072.53
434.28	3939.12
434.47	4086.58
434.66	4002.32
434.85	4119.34
435.03	4039.76
435.22	4011.68
435.41	4250.41
435.59	4135.73
435.78	4133.39
435.97	4140.41
436.16	4107.64
436.34	4084.23
436.53	4266.80
436.72	4355.74
436.90	4051.47
437.09	4301.90
437.28	4180.20
437.46	4070.19
437.65	4285.52
437.84	4346.37
438.02	4393.19
438.21	4418.93
438.40	4334.67
438.58	4332.33
438.77	4547.66
438.96	4486.81
439.14	4498.51
439.33	4608.51
439.52	4697.46
439.70	4615.54
439.89	4641.28
440.08	4800.44
440.26	4765.33
440.45	4734.90
440.63	4781.71
440.82	5020.45
441.01	4929.17
441.19	4919.81
441.38	4987.68
441.57	4849.59
441.75	5015.77
441.94	5039.17
442.12	5081.30
442.31	5153.86
442.50	5207.69
442.68	5032.15
442.87	5158.54
443.05	5118.75
443.24	5231.10
443.43	5125.77
443.61	5259.18
443.80	5287.27
443.98	5266.21
444.17	5167.90
444.35	5259.18
444.54	5430.04
444.73	5523.66
444.91	5261.52
445.10	5390.25
445.28	5401.96
445.47	5446.43
445.65	5392.59
445.84	5408.98
446.02	5413.66
446.21	5263.86
446.39	5310.68
446.58	5472.17
446.77	5263.86
446.95	5394.93
447.14	5507.28
447.32	5621.97
447.51	5673.46
447.69	5352.81
447.88	5444.09
448.06	5448.77
448.25	5366.85
448.43	5544.73
448.62	5598.56
448.80	5582.18
448.99	5593.88
449.17	5598.56
449.36	5483.88
449.54	5605.58
449.73	5809.21
449.91	5741.33
450.10	5633.67
450.28	5846.66
450.46	5879.43
450.65	5792.83
450.83	5570.48
451.02	5778.78
451.20	5966.03
451.39	5771.76
451.57	5853.68
451.76	5870.06
451.94	5947.30
452.13	6171.99
452.31	5919.21
452.49	5877.09
452.68	5968.37
452.86	5926.24
453.05	5844.32
453.23	6076.03
453.42	5935.60
453.60	5839.64
453.78	6064.33
453.97	5933.26
454.15	6064.33
454.34	6050.28
454.52	6197.74
454.70	6384.98
454.89	6179.01
455.07	6195.40
455.26	6300.72
455.44	6480.94
455.62	6307.74
455.81	6375.62
455.99	6464.56
456.17	6370.94
456.36	6349.87
456.54	6544.14
456.73	6551.16
456.91	6738.40
457.09	6696.27
457.28	6602.65
457.46	6619.04
457.64	6647.12
457.83	6710.32
458.01	6621.38
458.19	6733.72
458.38	6796.92
458.56	6736.06
458.74	6759.47
458.93	6808.62
459.11	6876.49
459.29	6820.32
459.48	6984.16
459.66	6965.43
459.84	6944.37
460.03	7094.16
460.21	7077.78
460.39	6967.77
460.57	7052.03
460.76	7002.88
460.94	7054.37
461.12	7246.30
461.31	7194.81
461.49	7061.40
461.67	7000.54
461.85	7276.73
462.04	7155.02
462.22	7403.11
462.40	7265.02
462.59	7258.00
462.77	7307.15
462.95	7360.98
463.13	7393.75
463.32	7478.01
463.50	7618.44
463.68	7581.00
463.86	7564.61
464.05	7489.71
464.23	7632.49
464.41	7583.34
464.59	7461.63
464.78	7669.94
464.96	7569.29
465.14	7461.63
465.32	7861.86
465.50	7581.00
465.69	7709.72
465.87	7604.40
466.05	7761.22
466.23	7782.28
466.41	7529.50
466.60	7892.29
466.78	7843.14
466.96	7510.78
467.14	7770.58
467.32	7770.58
467.51	8025.70
467.69	7873.56
467.87	7770.58
468.05	7868.88
468.23	7805.69
468.41	7920.37
468.60	7960.16
468.78	7915.69
468.96	8030.38
469.14	8070.17
469.32	8042.08
469.50	7871.22
469.69	8140.38
469.87	8170.81
470.05	8198.90
470.23	8248.05
470.41	8278.47
470.59	8355.71
470.77	8219.96
470.95	8393.16
471.14	8346.35
471.32	8365.07
471.50	8477.42
471.68	8655.30
471.86	8585.08
472.04	8526.57
472.22	8795.73
472.40	8557.00
472.58	8561.68
472.77	8847.22
472.95	8571.04
473.13	9036.81
473.31	8882.33
473.49	8872.97
473.67	8730.20
473.85	8943.19
474.03	9401.93
474.21	9198.31
474.39	9125.75
474.57	9039.15
474.75	9394.91
474.93	9298.95
475.12	9289.59
475.30	9518.96
475.48	9383.21
475.66	9605.56
475.84	9486.19
476.02	9687.48
476.20	9408.95
476.38	9589.17
476.56	10113.45
476.74	10139.20
476.92	9898.13
477.10	9851.31
477.28	9998.77
477.46	10064.30
477.64	9968.34
477.82	10251.55
478.00	10396.66
478.18	10448.15
478.36	10839.02
478.54	10766.46
478.72	10766.46
478.90	10792.21
479.08	11040.31
479.26	10993.50
479.44	11012.22
479.62	11061.37
479.80	11318.83
479.98	11360.96
480.16	11365.64
480.34	11323.51
480.52	11396.07
480.70	11571.61
480.88	11412.45
481.06	11461.60
481.24	11688.64
481.41	11868.86
481.59	11999.93
481.77	12175.47
481.95	12355.69
482.13	12402.50
482.31	12486.76
482.49	12774.64
482.67	12386.12
482.85	12798.05
483.03	12599.10
483.21	12875.29
483.39	13156.15
483.57	13046.15
483.74	13064.87
483.92	13167.85
484.10	13207.64
484.28	13811.50
484.46	13558.72
484.64	13788.10
484.82	13458.08
485.00	13722.56
485.18	14005.77
485.35	14249.18
485.53	14068.96
485.71	14380.25
485.89	14656.43
486.07	14427.06
486.25	14298.33
486.43	14602.60
486.61	14764.10
486.78	15084.75
486.96	14869.42
487.14	15154.97
487.32	15239.23
487.50	15314.13
487.68	15468.60
487.85	15424.13
488.03	15716.70
488.21	16011.60
488.39	15669.89
488.57	16137.99
488.75	16133.31
488.92	16451.63
489.10	16475.03
489.28	16456.31
489.46	16730.15
489.64	16690.36
489.81	16823.77
489.99	17050.80
490.17	17317.62
490.35	17600.83
490.53	17387.84
490.70	17479.12
490.88	17572.74
491.06	18090.00
491.24	17535.29
491.41	17937.87
491.59	18401.29
491.77	18073.62
491.95	18321.71
492.13	18401.29
492.30	18466.83
492.48	18499.59
492.66	18677.48
492.84	18544.06
493.01	19218.14
493.19	18941.96
493.37	19087.07
493.54	19016.85
493.72	19428.79
493.90	19438.15
494.08	19669.86
494.25	19889.87
494.43	19641.78
494.61	20070.09
494.79	20044.35
494.96	19857.10
495.14	20432.88
495.32	20208.19
495.49	20727.78
495.67	20479.69
495.85	20828.43
496.02	20741.83
496.20	21069.50
496.38	21128.02
496.55	20964.18
496.73	21448.67
496.91	21390.16
497.09	21479.10
497.26	21591.44
497.44	21682.72
497.62	21816.13
497.79	22068.91
497.97	22120.40
498.14	22111.04
498.32	22232.75
498.50	21933.16
498.67	22558.08
498.85	22347.44
499.03	23103.43
499.20	22705.54
499.38	23185.35
499.56	22941.93
499.73	23227.48
499.91	23239.18
500.08	22656.39
500.26	23040.23
500.44	23344.50
500.61	23087.04
500.79	23096.41
500.97	23646.43
501.14	23693.24
501.32	23707.29
501.49	24184.76
501.67	23906.23
501.84	24271.36
502.02	23892.19
502.20	24119.22
502.37	24442.21
502.55	24470.30
502.72	24304.12
502.90	24065.39
503.07	24437.53
503.25	24320.51
503.43	24608.39
503.60	24720.74
503.78	24786.27
503.95	24554.56
504.13	25050.75
504.30	24975.86
504.48	24996.92
504.65	25039.05
504.83	25235.66
505.01	25872.28
505.18	25071.82
505.36	25497.80
505.53	25682.70
505.71	25724.83
505.88	26089.95
506.06	25446.30
506.23	25837.17
506.41	25570.35
506.58	25991.65
506.76	25940.16
506.93	26356.77
507.11	26216.34
507.28	26473.80
507.46	26909.14
507.63	26721.90
507.81	26209.32
507.98	26513.59
508.16	26824.88
508.33	27002.76
508.50	26649.34
508.68	27274.26
508.85	27220.43
509.03	26890.41
509.20	27253.20
509.38	27620.66
509.55	27730.67
509.73	27480.23
509.90	27646.41
510.08	27531.72
510.25	27552.79
510.42	27789.18
510.60	28074.73
510.77	28018.55
510.95	28004.51
511.12	28041.96
511.30	28257.29
511.47	28535.81
511.64	28343.89
511.82	28767.52
511.99	28561.56
512.17	28683.27
512.34	28507.72
512.51	28847.10
512.69	29163.08
512.86	29067.11
513.04	29369.04
513.21	29170.10
513.38	29130.31
513.56	29263.72
513.73	29397.13
513.90	29362.02
514.08	29111.58
514.25	29928.43
514.43	29713.10
514.60	29397.13
514.77	29848.85
514.95	29869.92
515.12	29596.07
515.29	30038.44
515.47	30101.63
515.64	30087.59
515.81	30099.29
515.99	30668.04
516.16	30616.55
516.33	30436.33
516.51	30494.84
516.68	30677.40
516.85	30293.55
517.03	31035.50
517.20	30789.75
517.37	30590.80
517.54	30597.82
517.72	30998.06
517.89	31246.15
518.06	31147.85
518.24	30960.61
518.41	31157.21
518.58	31269.56
518.75	30834.22
518.93	31545.74
519.10	31328.07
519.27	31494.25
519.45	31651.06
519.62	32077.04
519.79	31529.36
519.96	31871.07
520.14	31676.81
520.31	32074.70
520.48	32095.77
520.65	32034.91
520.83	32304.07
521.00	32268.97
521.17	32388.33
521.34	32268.97
521.52	32856.44
521.69	32470.25
521.86	32718.35
522.03	32517.06
522.20	32896.23
522.38	33034.32
522.55	33039.00
522.72	32713.67
522.89	33406.47
523.07	33303.48
523.24	33020.28
523.41	32924.32
523.58	32879.85
523.75	33607.75
523.92	33212.20
524.10	33542.22
524.27	33631.16
524.44	33780.95
524.61	33383.06
524.78	33731.80
524.96	33593.71
525.13	34190.55
525.30	34174.16
525.47	34422.26
525.64	33675.63
525.81	34291.19
525.98	34022.03
526.16	34642.27
526.33	34286.51
526.50	34256.08
526.67	34225.65
526.84	34412.90
527.01	34122.67
527.18	34513.54
527.36	34527.58
527.53	34525.24
527.70	35285.92
527.87	34836.53
528.04	34546.31
528.21	34749.93
528.38	34761.64
528.55	35194.64
528.72	34862.28
528.89	34794.40
529.07	35007.39
529.24	34960.58
529.41	35356.13
529.58	35321.02
529.75	35393.58
529.92	35496.56
530.09	35147.82
530.26	35318.68
530.43	35721.26
530.60	35175.91
530.77	35271.87
530.94	35894.46
531.11	35606.57
531.28	35690.83
531.46	35517.63
531.63	35772.75
531.80	36140.21
531.97	36060.63
532.14	36142.55
532.31	36009.14
532.48	36304.05
532.65	36425.76
532.82	35985.74
532.99	36374.27
533.16	36357.88
533.33	36421.08
533.50	36313.41
533.67	36409.37
533.84	36130.85
534.01	36797.90
534.18	36318.09
534.35	36833.01
534.52	36613.00
534.69	37078.77
534.86	36952.38
535.03	36430.44
535.20	37156.00
535.37	36971.10
535.54	37200.47
535.71	37151.32
535.88	37041.32
536.05	36959.40
536.22	37467.30
536.38	37558.58
536.55	37214.52
536.72	37181.75
536.89	37240.26
537.06	37221.54
537.23	37631.13
537.40	37631.13
537.57	37511.77
537.74	37511.77
537.91	37741.14
538.08	37790.29
538.25	37497.72
538.42	38029.02
538.59	38061.79
538.75	37914.34
538.92	37771.57
539.09	37818.38
539.26	38132.01
539.43	37933.06
539.60	38218.61
539.77	38190.52
539.94	38749.91
540.11	38426.92
540.28	38190.52
540.44	38164.78
540.61	38550.96
540.78	38342.66
540.95	38239.67
541.12	38422.23
541.29	38096.90
541.46	38396.49
541.62	38494.79
541.79	38679.69
541.96	38223.29
542.13	38813.10
542.30	38588.41
542.47	38614.16
542.63	38815.44
542.80	39339.72
542.97	39260.15
543.14	39449.73
543.31	39524.63
543.48	39435.69
543.64	39723.57
543.81	39377.17
543.98	39442.71
544.15	39585.48
544.32	39646.33
544.48	40399.99
544.65	39346.75
544.82	39536.33
544.99	39814.85
545.16	39695.49
545.32	39569.10
545.49	40140.19
545.66	40140.19
545.83	40353.18
546.00	40554.46
546.16	40102.74
546.33	40011.46
546.50	39903.79
546.67	39992.73
546.83	40069.97
547.00	40161.25
547.17	40203.38
547.34	40378.92
547.50	40341.47
547.67	40568.51
547.84	40046.57
548.00	40935.97
548.17	40889.16
548.34	40807.24
548.51	41130.23
548.67	40872.78
548.84	40524.04
549.01	40423.39
549.18	40940.65
549.34	40870.43
549.51	40832.99
549.68	40959.38
549.84	41064.70
550.01	40935.97
550.18	40741.71
550.34	40854.05
550.51	40898.52
550.68	41329.18
550.84	40800.22
551.01	41223.86
551.18	41361.95
551.34	41139.60
551.51	41223.86
551.68	41647.49
551.84	41366.63
552.01	41055.34
552.18	41504.72
552.34	41226.20
552.51	41160.66
552.68	41155.98
552.84	41422.80
553.01	41333.86
553.18	41893.25
553.34	41790.27
553.51	41659.20
553.67	41766.86
553.84	41647.49
554.01	41897.93
554.17	41851.12
554.34	41544.51
554.51	41694.30
554.67	41930.70
554.84	42024.32
555.00	42024.32
555.17	41813.67
555.33	42029.00
555.50	41598.34
555.67	41998.57
555.83	42256.03
556.00	42197.52
556.16	42658.60
556.33	42382.42
556.50	42155.39
556.66	42174.11
556.83	41698.98
556.99	42630.52
557.16	42462.00
557.32	42792.01
557.49	42520.51
557.65	42230.29
557.82	42122.62
557.98	42494.77
558.15	42600.09
558.32	42522.85
558.48	42377.74
558.65	42567.32
558.81	42408.17
558.98	42553.28
559.14	42728.82
559.31	42904.36
559.47	42469.02
559.64	42869.25
559.80	42639.88
559.97	42733.50
560.13	42480.72
560.30	42440.93
560.46	42859.89
560.63	43260.12
560.79	43028.41
560.96	43416.94
561.12	42876.27
561.29	43051.81
561.45	43110.33
561.61	43070.54
561.78	42923.08
561.94	42913.72
562.11	43225.01
562.27	42930.11
562.44	42937.13
562.60	43253.10
562.77	43220.33
562.93	43416.94
563.10	43330.34
563.26	43304.59
563.42	43498.86
563.59	43557.37
563.75	43243.74
563.92	43180.54
564.08	43440.34
564.24	43449.70
564.41	42941.81
564.57	43386.51
564.74	43515.24
564.90	43662.69
565.07	43262.46
565.23	43178.20
565.39	43606.52
565.56	43498.86
565.72	43416.94
565.88	43409.92
566.05	43395.87
566.21	43728.23
566.38	43402.89
566.54	43491.83
566.70	43519.92
566.87	43826.53
567.03	43555.03
567.19	43856.96
567.36	43409.92
567.52	43679.08
567.68	44109.74
567.85	43423.96
568.01	43929.51
568.17	43608.86
568.34	44041.86
568.50	43732.91
568.66	43646.31
568.83	43611.20
568.99	43849.94
569.15	43576.09
569.32	43732.91
569.48	43901.43
569.64	44083.99
569.81	43995.05
569.97	44245.49
570.13	43976.33
570.30	43749.29
570.46	43920.15
570.62	43833.55
570.78	43826.53
570.95	44048.88
571.11	44182.29
571.27	44081.65
571.43	43777.38
571.60	44416.35
571.76	43555.03
571.92	44058.24
572.09	44343.79
572.25	44046.54
572.41	44032.50
572.57	43555.03
572.74	44383.58
572.90	44521.67
573.06	44210.38
573.22	44238.47
573.38	44481.88
573.55	44172.93
573.71	44697.21
573.87	44172.93
574.03	43859.30
574.20	44804.88
574.36	44018.46
574.52	44320.38
574.68	44158.89
574.84	44458.48
575.01	44711.25
575.17	44315.70
575.33	44390.60
575.49	44039.52
575.65	44783.81
575.82	44332.09
575.98	44512.31
576.14	44666.78
576.30	44678.49
576.46	44505.29
576.62	44322.72
576.79	44631.68
576.95	43922.49
577.11	44133.14
577.27	44631.68
577.43	44128.46
577.59	44456.14
577.75	43952.92
577.92	43957.60
578.08	44201.02
578.24	44519.33
578.40	44584.86
578.56	44493.58
578.72	44711.25
578.88	44804.88
579.04	44676.15
579.21	44409.32
579.37	44753.38
579.53	44589.55
579.69	44498.26
579.85	44292.30
580.01	44650.40
580.17	44385.92
580.33	44921.90
580.49	44802.53
580.65	44388.26
580.82	44212.72
580.98	44624.65
581.14	44470.18
581.30	44641.04
581.46	43971.64
581.62	44526.35
581.78	44516.99
581.94	44676.15
582.10	44903.18
582.26	44612.95
582.42	44512.31
582.58	44957.01
582.74	44669.12
582.90	44505.29
583.06	44582.52
583.22	44519.33
583.38	44418.69
583.54	44509.97
583.70	45001.48
583.86	45177.02
584.02	44341.45
584.18	45024.89
584.34	44847.00
584.50	44870.41
584.66	44949.99
584.82	44935.95
584.98	45270.64
585.14	44870.41
585.30	44495.92
585.46	44666.78
585.62	44821.26
585.78	44814.24
585.94	44086.33
586.10	44786.15
586.26	44570.82
586.42	44734.66
586.58	44858.71
586.74	44673.81
586.90	44856.37
587.06	44624.65
587.22	44793.17
587.38	45031.91
587.54	44547.42
587.70	45315.11
587.86	44891.48
588.02	44917.22
588.18	44725.30
588.34	44524.01
588.49	44769.77
588.65	44669.12
588.81	44409.32
588.97	44891.48
589.13	44531.03
589.29	44414.01
589.45	44854.03
589.61	45151.27
589.77	45036.59
589.93	44610.61
590.08	45118.51
