SpectraSuite Data File
++++++++++++++++++++++++++++++++++++
Date: Fri Oct 25 10:48:14 EDT 2013
User: price-jones
Dark Spectrum Present: No
Reference Spectrum Present: No
Number of Sampled Component Spectra: 1
Spectrometers: USB2+H05261
Integration Time (usec): 100000 (USB2+H05261)
Spectra Averaged: 1 (USB2+H05261)
Boxcar Smoothing: 0 (USB2+H05261)
Correct for Electrical Dark: No (USB2+H05261)
Strobe/Lamp Enabled: No (USB2+H05261)
Correct for Detector Non-linearity: No (USB2+H05261)
Correct for Stray Light: No (USB2+H05261)
Number of Pixels in Processed Spectrum: 2048
>>>>>Begin Processed Spectral Data<<<<<
365.73	210.65
365.92	210.65
366.12	210.65
366.32	18.72
366.52	0.00
366.72	63.19
366.91	9.36
367.11	79.58
367.31	70.22
367.51	53.83
367.70	56.17
367.90	65.54
368.10	21.06
368.30	23.41
368.49	11.70
368.69	114.69
368.89	30.43
369.09	53.83
369.28	58.51
369.48	39.79
369.68	70.22
369.87	79.58
370.07	74.90
370.27	131.07
370.47	234.05
370.66	360.44
370.86	423.64
371.06	442.36
371.25	477.47
371.45	416.62
371.65	507.90
371.84	437.68
372.04	423.64
372.24	489.17
372.44	498.53
372.63	423.64
372.83	566.41
373.03	514.92
373.22	575.77
373.42	543.00
373.62	592.16
373.81	599.18
374.01	528.96
374.21	573.43
374.40	545.34
374.60	571.09
374.79	535.98
374.99	589.82
375.19	489.17
375.38	610.88
375.58	552.37
375.78	589.82
375.97	664.71
376.17	645.99
376.37	524.28
376.56	627.26
376.76	589.82
376.95	582.79
377.15	648.33
377.35	566.41
377.54	620.24
377.74	589.82
377.93	603.86
378.13	641.31
378.33	648.33
378.52	606.20
378.72	648.33
378.91	655.35
379.11	613.22
379.31	615.56
379.50	561.73
379.70	690.46
379.89	725.57
380.09	641.31
380.28	634.29
380.48	692.80
380.68	596.84
380.87	678.76
381.07	671.73
381.26	737.27
381.46	678.76
381.65	662.37
381.85	678.76
382.04	695.14
382.24	826.21
382.43	664.71
382.63	690.46
382.83	669.39
383.02	737.27
383.22	774.72
383.41	695.14
383.61	683.44
383.80	711.52
384.00	800.46
384.19	833.23
384.39	758.33
384.58	767.70
384.78	732.59
384.97	863.66
385.17	734.93
385.36	713.86
385.56	781.74
385.75	641.31
385.95	765.36
386.14	802.80
386.34	840.25
386.53	800.46
386.72	819.19
386.92	887.06
387.11	767.70
387.31	774.72
387.50	889.40
387.70	889.40
387.89	826.21
388.09	924.51
388.28	823.87
388.48	781.74
388.67	868.34
388.86	929.19
389.06	945.58
389.25	919.83
389.45	943.24
389.64	898.77
389.84	957.28
390.03	922.17
390.22	1001.75
390.42	905.79
390.61	938.55
390.81	997.07
391.00	990.05
391.19	1036.86
391.39	964.30
391.58	964.30
391.78	966.64
391.97	1057.92
392.16	954.94
392.36	1022.81
392.55	1022.81
392.75	915.15
392.94	985.37
393.13	1001.75
393.33	950.26
393.52	1048.56
393.71	1008.77
393.91	1055.58
394.10	1109.41
394.29	1043.88
394.49	1053.24
394.68	1116.44
394.88	1043.88
395.07	1142.18
395.26	1132.82
395.46	1083.67
395.65	1184.31
395.84	1172.61
396.04	1214.74
396.23	1158.57
396.42	1240.48
396.62	1193.67
396.81	1188.99
397.00	1212.40
397.19	1184.31
397.39	1167.93
397.58	1282.61
397.77	1198.35
397.97	1320.06
398.16	1315.38
398.35	1273.25
398.55	1306.02
398.74	1406.66
398.93	1446.45
399.12	1348.15
399.32	1453.47
399.51	1383.26
399.70	1418.36
399.90	1465.18
400.09	1416.02
400.28	1444.11
400.47	1423.05
400.67	1530.71
400.86	1425.39
401.05	1614.97
401.24	1540.07
401.44	1600.93
401.63	1610.29
401.82	1495.60
402.01	1575.18
402.21	1582.20
402.40	1544.75
402.59	1596.25
402.78	1654.76
402.97	1612.63
403.17	1675.82
403.36	1626.67
403.55	1671.14
403.74	1652.42
403.93	1675.82
404.13	1692.21
404.32	1708.59
404.51	1732.00
404.70	1710.93
404.89	1867.75
405.09	1846.68
405.28	1832.64
405.47	1678.16
405.66	1764.76
405.85	1837.32
406.05	1930.94
406.24	1825.62
406.43	1944.99
406.62	1919.24
406.81	2043.29
407.00	1900.52
407.20	1839.66
407.39	1928.60
407.58	1935.62
407.77	1984.77
407.96	2057.33
408.15	2083.08
408.34	2005.84
408.54	2022.22
408.73	2172.02
408.92	2043.29
409.11	2106.48
409.30	2118.18
409.49	2073.71
409.68	2146.27
409.87	2054.99
410.07	2286.70
410.26	2228.19
410.45	2197.76
410.64	2216.49
410.83	2258.62
411.02	2260.96
411.21	2331.17
411.40	2275.00
411.59	2242.23
411.78	2270.32
411.98	2319.47
412.17	2511.39
412.36	2399.05
412.55	2544.16
412.74	2605.02
412.93	2462.24
413.12	2422.45
413.31	2665.87
413.50	2637.78
413.69	2511.39
413.88	2689.28
414.07	2670.55
414.26	2658.85
414.45	2789.92
414.64	2724.38
414.83	2651.83
415.02	2789.92
415.22	2876.52
415.41	2871.84
415.60	2909.29
415.79	2885.88
415.98	2986.52
416.17	2991.20
416.36	2991.20
416.55	3028.65
416.74	3063.76
416.93	2937.37
417.12	2965.46
417.31	3124.62
417.50	3143.34
417.69	3171.43
417.88	3082.49
418.07	3119.93
418.26	3293.13
418.45	3115.25
418.64	3323.56
418.83	3180.79
419.02	3281.43
419.21	3265.05
419.39	3173.77
419.58	3150.36
419.77	3243.98
419.96	3314.20
420.15	3466.33
420.34	3339.94
420.53	3466.33
420.72	3513.14
420.91	3571.66
421.10	3588.04
421.29	3620.81
421.48	3318.88
421.67	3489.74
421.86	3489.74
422.05	3513.14
422.24	3541.23
422.43	3557.61
422.61	3625.49
422.80	3632.51
422.99	3651.24
423.18	3761.24
423.37	3604.42
423.56	3569.32
423.75	3585.70
423.94	3485.06
424.13	3489.74
424.32	3475.70
424.50	3730.81
424.69	3861.88
424.88	3777.62
425.07	3536.55
425.26	3648.90
425.45	3531.87
425.64	3674.64
425.83	3609.11
426.01	3740.18
426.20	3700.39
426.39	3695.71
426.58	3662.94
426.77	3611.45
426.96	3751.88
427.15	3772.94
427.33	3660.60
427.52	3779.97
427.71	3906.35
427.90	3819.75
428.09	3836.14
428.28	3936.78
428.46	3815.07
428.65	3878.27
428.84	4079.55
429.03	3941.46
429.22	3817.41
429.40	3878.27
429.59	3838.48
429.78	3705.07
429.97	3822.09
430.16	3812.73
430.34	3904.01
430.53	3939.12
430.72	3906.35
430.91	4004.66
431.10	4084.23
431.28	4245.73
431.47	4238.71
431.66	4313.61
431.85	4231.69
432.03	4339.35
432.22	4339.35
432.41	4269.14
432.60	4290.20
432.79	4299.56
432.97	4367.44
433.16	4407.23
433.35	4358.08
433.54	4372.12
433.72	4444.68
433.91	4447.02
434.10	4470.42
434.28	4545.32
434.47	4554.68
434.66	4589.79
434.85	4596.81
435.03	4716.18
435.22	4491.49
435.41	4802.78
435.59	4636.60
435.78	4812.14
435.97	4802.78
436.16	4720.86
436.34	4706.82
436.53	4779.37
436.72	4833.21
436.90	4730.22
437.09	4678.73
437.28	4765.33
437.46	4861.29
437.65	4851.93
437.84	4842.57
438.02	4868.31
438.21	4770.01
438.40	4683.41
438.58	5041.51
438.77	5078.96
438.96	5006.41
439.14	5118.75
439.33	5149.18
439.52	5170.24
439.70	5298.97
439.89	5184.29
440.08	5186.63
440.26	5315.36
440.45	5266.21
440.63	5378.55
440.82	5659.42
441.01	5483.88
441.19	5535.37
441.38	5633.67
441.57	5598.56
441.75	5717.93
441.94	5844.32
442.12	5851.34
442.31	5879.43
442.50	5841.98
442.68	5844.32
442.87	5748.36
443.05	5827.93
443.24	5996.45
443.43	6085.39
443.61	5947.30
443.80	6183.70
443.98	5792.83
444.17	5898.15
444.35	5954.32
444.54	6036.24
444.73	6012.84
444.91	5994.11
445.10	6010.50
445.28	5867.72
445.47	5802.19
445.65	6120.50
445.84	5961.34
446.02	6136.88
446.21	6064.33
446.39	5984.75
446.58	6225.82
446.77	6090.07
446.95	6026.88
447.14	6209.44
447.32	6237.53
447.51	6008.16
447.69	6087.73
447.88	6188.38
448.06	6090.07
448.25	6207.10
448.43	6052.63
448.62	6202.42
448.80	6258.59
448.99	6143.91
449.17	6289.02
449.36	6267.95
449.54	6317.11
449.73	6534.78
449.91	6684.57
450.10	6581.59
450.28	6668.19
450.46	6614.35
450.65	6665.85
450.83	6747.76
451.02	6698.61
451.20	6576.91
451.39	6679.89
451.57	6682.23
451.76	6565.20
451.94	6689.25
452.13	6696.27
452.31	6689.25
452.49	6502.01
452.68	6867.13
452.86	6771.17
453.05	6761.81
453.23	6988.84
453.42	6869.47
453.60	6822.66
453.78	6848.41
453.97	6773.51
454.15	7019.27
454.34	6815.64
454.52	7040.33
454.70	6822.66
454.89	6843.73
455.07	7042.67
455.26	6808.62
455.44	7173.74
455.62	7136.29
455.81	7239.28
455.99	7143.32
456.17	7241.62
456.36	7218.21
456.54	7281.41
456.73	7274.38
456.91	7564.61
457.09	7609.08
457.28	7826.75
457.46	7368.01
457.64	7573.97
457.83	7501.42
458.01	7473.33
458.19	7679.30
458.38	7564.61
458.56	7815.05
458.74	7669.94
458.93	7531.84
459.11	7672.28
459.29	7702.70
459.48	7683.98
459.66	7768.24
459.84	7763.56
460.03	7854.84
460.21	8002.29
460.39	7971.86
460.57	7866.54
460.76	8011.65
460.94	7918.03
461.12	7903.99
461.31	8121.66
461.49	7887.61
461.67	8119.32
461.85	8273.79
462.04	8037.40
462.22	8674.03
462.40	8149.75
462.59	8189.53
462.77	8194.22
462.95	8287.84
463.13	8339.33
463.32	8386.14
463.50	8311.24
463.68	8365.07
463.86	8486.78
464.05	8091.23
464.23	8210.60
464.41	8407.20
464.59	8547.64
464.78	8484.44
464.96	8353.37
465.14	8341.67
465.32	8575.72
465.50	8446.99
465.69	8425.93
465.87	8638.92
466.05	8446.99
466.23	8547.64
466.41	8547.64
466.60	8772.33
466.78	8540.61
466.96	8468.06
467.14	8709.13
467.32	8454.02
467.51	8791.05
467.69	8601.47
467.87	8826.16
468.05	8784.03
468.23	8699.77
468.41	8812.12
468.60	8823.82
468.78	9090.64
468.96	8833.18
469.14	9135.11
469.32	9123.41
469.50	8681.05
469.69	8990.00
469.87	9048.51
470.05	9207.67
470.23	9226.39
470.41	9149.15
470.59	9195.96
470.77	9193.62
470.95	9153.84
471.14	9268.52
471.32	9247.46
471.50	9291.93
471.68	9734.29
471.86	9668.75
472.04	9640.67
472.22	9647.69
472.40	9556.41
472.58	9610.24
472.77	9734.29
472.95	9713.22
473.13	10085.37
473.31	9893.44
473.49	9678.12
473.67	9820.89
473.85	9919.19
474.03	9975.36
474.21	10249.21
474.39	10347.51
474.57	10258.57
474.75	10391.98
474.93	10431.77
475.12	10464.54
475.30	10326.44
475.48	10457.51
475.66	10817.96
475.84	10651.78
476.02	10611.99
476.20	10539.43
476.38	10803.91
476.56	11180.74
476.74	10883.49
476.92	10862.43
477.10	10967.75
477.28	11496.71
477.46	11220.53
477.64	11662.89
477.82	11552.88
478.00	11742.47
478.18	11435.86
478.36	11690.98
478.54	11901.62
478.72	11896.94
478.90	12105.25
479.08	12264.41
479.26	12283.13
479.44	12374.41
479.62	12252.70
479.80	12098.23
479.98	12395.48
480.16	12889.33
480.34	12629.53
480.52	12751.24
480.70	12650.60
480.88	12791.03
481.06	12982.95
481.24	12807.41
481.41	13214.66
481.59	13481.49
481.77	13249.77
481.95	13415.95
482.13	13439.36
482.31	13308.29
482.49	13806.82
482.67	13968.32
482.85	14120.45
483.03	14303.01
483.21	14169.60
483.39	14321.74
483.57	14408.34
483.74	14401.32
483.92	14864.74
484.10	14621.33
484.28	14548.77
484.46	15178.37
484.64	15335.19
484.82	15164.33
485.00	15122.20
485.18	15651.16
485.35	15798.62
485.53	15311.78
485.71	15253.27
485.89	15735.42
486.07	15583.29
486.25	15819.68
486.43	16037.35
486.61	16077.14
486.78	16327.58
486.96	16446.94
487.14	16578.01
487.32	16762.92
487.50	16779.30
487.68	16964.20
487.85	17364.43
488.03	17642.96
488.21	17432.31
488.39	17380.82
488.57	17820.84
488.75	17591.47
488.92	18134.47
489.10	18216.39
489.28	18478.53
489.46	18597.90
489.64	18146.17
489.81	19117.50
489.99	18909.19
490.17	19178.35
490.35	19234.52
490.53	19147.92
490.70	19257.93
490.88	19276.65
491.06	19749.44
491.24	19917.96
491.41	19627.73
491.59	19583.26
491.77	19749.44
491.95	20100.52
492.13	19854.76
492.30	20365.00
492.48	20786.30
492.66	20114.56
492.84	20491.39
493.01	20657.57
493.19	20624.80
493.37	20940.77
493.54	20868.22
493.72	21088.23
493.90	21001.63
494.08	21717.83
494.25	21937.84
494.43	21612.51
494.61	21961.25
494.79	22127.42
494.96	21783.37
495.14	22033.80
495.32	22328.71
495.49	22457.44
495.67	22515.95
495.85	22522.98
496.02	22916.19
496.20	22745.33
496.38	23122.15
496.55	22927.89
496.73	23470.89
496.91	23302.37
497.09	23304.71
497.26	23878.15
497.44	23625.37
497.62	23735.37
497.79	23896.87
497.97	23693.24
498.14	24051.34
498.32	24102.84
498.50	24116.88
498.67	24678.61
498.85	24650.52
499.03	24847.13
499.20	24837.76
499.38	24589.67
499.56	24929.05
499.73	24739.46
499.91	25001.60
500.08	25205.23
500.26	25252.04
500.44	25149.06
500.61	25483.75
500.79	25277.79
500.97	25371.41
501.14	25668.66
501.32	25837.17
501.49	25930.80
501.67	25858.24
501.84	26066.55
502.02	25834.83
502.20	25809.09
502.37	26281.88
502.55	26305.28
502.72	26368.48
502.90	26548.70
503.07	26595.51
503.25	26712.53
503.43	26197.62
503.60	26712.53
503.78	26703.17
503.95	26693.81
504.13	26841.26
504.30	27103.40
504.48	27180.64
504.65	27391.29
504.83	27482.57
505.01	27335.12
505.18	27843.01
505.36	27543.42
505.53	27814.93
505.71	28100.47
505.88	28100.47
506.06	27674.49
506.23	28388.36
506.41	27824.29
506.58	28044.30
506.76	28395.38
506.93	28271.33
507.11	28606.03
507.28	28631.77
507.46	28552.20
507.63	28521.77
507.81	28884.55
507.98	28556.88
508.16	28971.15
508.33	29340.96
508.50	29200.52
508.68	29003.92
508.85	29413.51
509.03	29336.27
509.20	29394.79
509.38	29668.63
509.55	29755.23
509.73	29633.52
509.90	29584.37
510.08	29741.19
510.25	30008.01
510.42	29926.09
510.60	30043.12
510.77	29949.50
510.95	30160.14
511.12	30157.80
511.30	30244.40
511.47	30841.24
511.64	30787.41
511.82	30792.09
511.99	30677.40
512.17	30541.65
512.34	30705.49
512.51	30745.28
512.69	31220.41
512.86	31042.53
513.04	31351.48
513.21	31065.93
513.38	31391.26
513.56	31522.34
513.73	31363.18
513.90	31159.55
514.08	31356.16
514.25	31552.76
514.43	31566.81
514.60	31817.24
514.77	31952.99
514.95	31840.65
515.12	31896.82
515.29	32060.66
515.47	32292.37
515.64	32467.91
515.81	32053.64
515.99	32168.32
516.16	32568.55
516.33	32388.33
516.51	32458.55
516.68	32173.00
516.85	32112.15
517.03	32393.01
517.20	32322.80
517.37	32910.27
517.54	33266.03
517.72	32519.40
517.89	32797.93
518.06	32643.45
518.24	32931.34
518.41	32882.19
518.58	33057.73
518.75	32938.36
518.93	33563.28
519.10	33132.62
519.27	33902.66
519.45	34045.43
519.62	33724.78
519.79	34029.05
519.96	33773.93
520.14	34167.14
520.31	33734.14
520.48	34199.91
520.65	34204.59
520.83	34235.02
521.00	34181.18
521.17	34253.74
521.34	34323.96
521.52	34731.21
521.69	34249.06
521.86	34555.67
522.03	34504.18
522.20	34546.31
522.38	34609.50
522.55	35012.07
522.72	34890.37
522.89	35030.80
523.07	35096.33
523.24	34834.19
523.41	35154.85
523.58	35133.78
523.75	35651.04
523.92	35267.19
524.10	35620.61
524.27	35821.90
524.44	35711.89
524.61	35992.76
524.78	35934.24
524.96	35728.28
525.13	36182.34
525.30	36060.63
525.47	36290.01
525.64	36088.72
525.81	36282.98
525.98	36121.49
526.16	35442.73
526.33	35791.47
526.50	36715.98
526.67	36116.81
526.84	36130.85
527.01	36184.68
527.18	36116.81
527.36	36875.14
527.53	36776.84
527.70	36388.31
527.87	36723.01
528.04	37226.22
528.21	37237.92
528.38	36919.61
528.55	37127.92
528.72	36734.71
528.89	37530.49
529.07	37373.67
529.24	36914.93
529.41	37371.33
529.58	37212.18
529.75	37069.40
529.92	37858.17
530.09	37851.14
530.26	37181.75
530.43	37862.85
530.60	37731.78
530.77	37663.90
530.94	37839.44
531.11	37982.21
531.28	37371.33
531.46	37954.13
531.63	37825.40
531.80	37563.26
531.97	37907.32
532.14	38171.80
532.31	37827.74
532.48	38134.35
532.65	38265.42
532.82	38139.03
532.99	38073.49
533.16	38167.12
533.33	38487.77
533.50	38710.12
533.67	38309.89
533.84	38258.40
534.01	38431.60
534.18	38511.17
534.35	38822.47
534.52	38595.43
534.69	38691.40
534.86	39000.35
535.03	38799.06
535.20	39306.96
535.37	39651.02
535.54	39611.23
535.71	38976.94
535.88	39115.03
536.05	38862.26
536.22	39276.53
536.38	39508.24
536.55	39133.76
536.72	39587.82
536.89	38998.01
537.06	39173.55
537.23	39639.31
537.40	39077.58
537.57	39271.85
537.74	39763.36
537.91	40023.16
538.08	39674.42
538.25	39569.10
538.42	39842.94
538.59	40252.53
538.75	38904.38
538.92	39739.96
539.09	40072.31
539.26	39913.16
539.43	39899.11
539.60	40196.36
539.77	39864.00
539.94	39997.41
540.11	39978.69
540.28	39962.31
540.44	40172.96
540.61	40055.93
540.78	39938.90
540.95	39744.64
541.12	40004.44
541.29	40266.58
541.46	40430.41
541.62	40191.68
541.79	40793.20
541.96	39655.70
542.13	40463.18
542.30	40847.03
542.47	40425.73
542.63	40545.10
542.80	40692.55
542.97	41144.28
543.14	41106.83
543.31	41350.24
543.48	41200.45
543.64	41104.49
543.81	41193.43
543.98	41457.91
544.15	40914.90
544.32	41364.29
544.48	41839.42
544.65	41205.13
544.82	41174.70
544.99	41144.28
545.16	41759.84
545.32	41134.92
545.49	41469.61
545.66	41572.60
545.83	41570.25
546.00	41516.42
546.16	41558.55
546.33	41425.14
546.50	41790.27
546.67	42197.52
546.83	41120.87
547.00	41617.07
547.17	41851.12
547.34	41216.83
547.50	42110.92
547.67	42047.72
547.84	42277.10
548.00	42532.22
548.17	42438.59
548.34	42237.31
548.51	42279.44
548.67	42712.44
548.84	42679.67
549.01	41956.44
549.18	42426.89
549.34	42464.34
549.51	42052.41
549.68	42883.30
549.84	42410.51
550.01	43103.31
550.18	42864.57
550.34	42597.75
550.51	42899.68
550.68	42464.34
550.84	42270.08
551.01	42820.10
551.18	43054.15
551.34	42866.91
551.51	43199.27
551.68	42775.63
551.84	42878.61
552.01	42469.02
552.18	42806.06
552.34	42887.98
552.51	42969.90
552.68	42965.21
552.84	43346.72
553.01	43393.53
553.18	43026.07
553.34	43339.70
553.51	42866.91
553.67	43335.02
553.84	43601.84
554.01	43597.16
554.17	43353.74
554.34	43421.62
554.51	43559.71
554.67	43711.84
554.84	43538.65
555.00	43475.45
555.17	43643.97
555.33	43562.05
555.50	43159.48
555.67	43566.73
555.83	43498.86
556.00	43679.08
556.16	43955.26
556.33	43744.61
556.50	43440.34
556.66	43782.06
556.83	43903.77
556.99	43852.28
557.16	44098.03
557.32	43835.89
557.49	44259.53
557.65	43700.14
557.82	43819.51
557.98	43901.43
558.15	43693.12
558.32	44065.27
558.48	43775.04
558.65	43920.15
558.81	43777.38
558.98	44037.18
559.14	44046.54
559.31	43763.34
559.47	44376.56
559.64	44053.56
559.80	44556.78
559.97	44264.21
560.13	43861.64
560.30	43835.89
560.46	44334.43
560.63	44287.62
560.79	44177.61
560.96	44725.30
561.12	44343.79
561.29	44273.57
561.45	44217.40
561.61	44217.40
561.78	43835.89
561.94	44289.96
562.11	44378.90
562.27	44240.81
562.44	44257.19
562.60	44418.69
562.77	44502.95
562.93	44425.71
563.10	44376.56
563.26	43995.05
563.42	44287.62
563.59	44236.12
563.75	44610.61
563.92	44907.86
564.08	44378.90
564.24	44671.46
564.41	44655.08
564.57	44622.31
564.74	44266.55
564.90	44446.77
565.07	44507.63
565.23	44746.36
565.39	44561.46
565.56	44886.79
565.72	44275.91
565.88	44577.84
566.05	44435.07
566.21	44526.35
566.38	44839.98
566.54	44404.64
566.70	44737.00
566.87	45415.76
567.03	44697.21
567.19	45148.93
567.36	44964.03
567.52	44626.99
567.68	44779.13
567.85	44219.74
568.01	44858.71
568.17	44610.61
568.34	44566.14
568.50	44589.55
568.66	44957.01
568.83	44849.35
568.99	44802.53
569.15	44575.50
569.32	44603.59
569.48	44772.11
569.64	45249.58
569.81	44807.22
569.97	44563.80
570.13	45048.29
570.30	44245.49
570.46	44926.58
570.62	44357.83
570.78	44711.25
570.95	44650.40
571.11	45031.91
571.27	44968.71
571.43	45162.98
571.60	44938.29
571.76	44734.66
571.92	44978.07
572.09	45064.67
572.25	45001.48
572.41	44847.00
572.57	45343.20
572.74	45029.57
572.90	45106.80
573.06	44905.52
573.22	45174.68
573.38	44617.63
573.55	44788.49
573.71	44935.95
573.87	45450.86
574.03	44818.92
574.20	44905.52
574.36	44683.17
574.52	44947.65
574.68	44952.33
574.84	45263.62
575.01	45427.46
575.17	45500.01
575.33	44865.73
575.49	45109.14
575.65	45399.37
575.82	45546.82
575.98	45394.69
576.14	45532.78
576.30	44931.26
576.46	45677.90
576.62	44952.33
576.79	45034.25
576.95	44694.87
577.11	45043.61
577.27	45361.92
577.43	44949.99
577.59	44828.28
577.75	45139.57
577.92	44722.96
578.08	44669.12
578.24	44622.31
578.40	45151.27
578.56	45280.00
578.72	45605.34
578.88	45322.13
579.04	45237.87
579.21	44687.85
579.37	45247.24
579.53	44980.42
579.69	45254.26
579.85	45055.31
580.01	44898.50
580.17	45305.75
580.33	45553.85
580.49	45345.54
580.65	45244.90
580.82	45160.64
580.98	45212.13
581.14	45361.92
581.30	45572.57
581.46	44938.29
581.62	45347.88
581.78	45247.24
581.94	45577.25
582.10	45123.19
582.26	45476.61
582.42	45492.99
582.58	45275.32
582.74	44889.13
582.90	45249.58
583.06	45467.25
583.22	45261.28
583.38	45242.56
583.54	45652.15
583.70	45289.37
583.86	44872.75
584.02	45069.36
584.18	45408.73
584.34	45647.47
584.50	45258.94
584.66	45162.98
584.82	44851.69
584.98	45251.92
585.14	45387.67
585.30	45052.97
585.46	45177.02
585.62	44769.77
585.78	44987.44
585.94	45118.51
586.10	45177.02
586.26	45277.66
586.42	45373.63
586.58	45619.38
586.74	45680.24
586.90	45380.65
587.06	45008.50
587.22	45043.61
587.38	45331.50
587.54	45675.55
587.70	45673.21
587.86	45485.97
588.02	45659.17
588.18	45525.76
588.34	45439.16
588.49	45092.76
588.65	45193.40
588.81	45118.51
588.97	44926.58
589.13	45022.54
589.29	45375.97
589.45	45488.31
589.61	45820.67
589.77	45397.03
589.93	45132.55
590.08	45815.99
590.24	45425.12
