SpectraSuite Data File
++++++++++++++++++++++++++++++++++++
Date: Fri Oct 25 10:47:42 EDT 2013
User: price-jones
Dark Spectrum Present: No
Reference Spectrum Present: No
Number of Sampled Component Spectra: 1
Spectrometers: USB2+H05261
Integration Time (usec): 100000 (USB2+H05261)
Spectra Averaged: 1 (USB2+H05261)
Boxcar Smoothing: 0 (USB2+H05261)
Correct for Electrical Dark: No (USB2+H05261)
Strobe/Lamp Enabled: No (USB2+H05261)
Correct for Detector Non-linearity: No (USB2+H05261)
Correct for Stray Light: No (USB2+H05261)
Number of Pixels in Processed Spectrum: 2048
>>>>>Begin Processed Spectral Data<<<<<
365.73	110.01
365.92	110.01
366.12	110.01
366.32	65.54
366.52	0.00
366.72	74.90
366.91	0.00
367.11	39.79
367.31	0.00
367.51	25.75
367.70	0.00
367.90	56.17
368.10	63.19
368.30	0.00
368.49	32.77
368.69	88.94
368.89	128.73
369.09	44.47
369.28	30.43
369.48	145.11
369.68	81.92
369.87	110.01
370.07	119.37
370.27	117.03
370.47	145.11
370.66	353.42
370.86	435.34
371.06	449.38
371.25	500.87
371.45	496.19
371.65	447.04
371.84	423.64
372.04	458.74
372.24	503.22
372.44	454.06
372.63	500.87
372.83	470.45
373.03	486.83
373.22	484.49
373.42	423.64
373.62	512.58
373.81	521.94
374.01	552.37
374.21	540.66
374.40	594.50
374.60	603.86
374.79	545.34
374.99	512.58
375.19	503.22
375.38	531.30
375.58	545.34
375.78	524.28
375.97	578.11
376.17	662.37
376.37	648.33
376.56	552.37
376.76	638.97
376.95	603.86
377.15	643.65
377.35	580.45
377.54	587.47
377.74	594.50
377.93	568.75
378.13	662.37
378.33	585.13
378.52	608.54
378.72	547.69
378.91	629.60
379.11	606.20
379.31	615.56
379.50	620.24
379.70	648.33
379.89	702.16
380.09	685.78
380.28	622.58
380.48	645.99
380.68	678.76
380.87	662.37
381.07	706.84
381.26	716.20
381.46	573.43
381.65	648.33
381.85	681.10
382.04	634.29
382.24	685.78
382.43	730.25
382.63	667.05
382.83	727.91
383.02	746.63
383.22	697.48
383.41	688.12
383.61	683.44
383.80	744.29
384.00	695.14
384.19	704.50
384.39	755.99
384.58	741.95
384.78	812.17
384.97	746.63
385.17	727.91
385.36	662.37
385.56	758.33
385.75	784.08
385.95	744.29
386.14	819.19
386.34	770.04
386.53	788.76
386.72	798.12
386.92	758.33
387.11	819.19
387.31	873.02
387.50	739.61
387.70	791.10
387.89	833.23
388.09	809.83
388.28	781.74
388.48	713.86
388.67	863.66
388.86	837.91
389.06	828.55
389.25	835.57
389.45	903.45
389.64	950.26
389.84	936.21
390.03	910.47
390.22	1006.43
390.42	931.53
390.61	889.40
390.81	908.13
391.00	896.43
391.19	999.41
391.39	917.49
391.58	1029.84
391.78	882.38
391.97	947.92
392.16	894.08
392.36	1055.58
392.55	971.32
392.75	938.55
392.94	1006.43
393.13	929.19
393.33	936.21
393.52	976.00
393.71	959.62
393.91	976.00
394.10	987.71
394.29	1100.05
394.49	1022.81
394.68	1137.50
394.88	1146.86
395.07	1069.62
395.26	1071.97
395.46	1109.41
395.65	1107.07
395.84	1128.14
396.04	1163.25
396.23	1128.14
396.42	1071.97
396.62	1104.73
396.81	1078.99
397.00	1179.63
397.19	1329.42
397.39	1219.42
397.58	1233.46
397.77	1242.82
397.97	1226.44
398.16	1277.93
398.35	1380.92
398.55	1256.87
398.74	1277.93
398.93	1406.66
399.12	1329.42
399.32	1291.98
399.51	1341.13
399.70	1348.15
399.90	1313.04
400.09	1434.75
400.28	1371.55
400.47	1479.22
400.67	1411.34
400.86	1378.58
401.05	1493.26
401.24	1502.62
401.44	1432.41
401.63	1472.20
401.82	1441.77
402.01	1462.83
402.21	1495.60
402.40	1596.25
402.59	1444.11
402.78	1444.11
402.97	1551.78
403.17	1483.90
403.36	1664.12
403.55	1596.25
403.74	1589.22
403.93	1561.14
404.13	1607.95
404.32	1596.25
404.51	1521.35
404.70	1652.42
404.89	1598.59
405.09	1675.82
405.28	1732.00
405.47	1755.40
405.66	1753.06
405.85	1746.04
406.05	1724.97
406.24	1851.36
406.43	1732.00
406.62	1823.28
406.81	1811.57
407.00	1743.70
407.20	1774.13
407.39	1872.43
407.58	1881.79
407.77	1891.15
407.96	1949.67
408.15	1926.26
408.34	1898.17
408.54	1987.11
408.73	1944.99
408.92	1930.94
409.11	1998.82
409.30	2001.16
409.49	2125.21
409.68	2150.95
409.87	2029.24
410.07	2066.69
410.26	2031.58
410.45	2129.89
410.64	2132.23
410.83	2167.34
411.02	2279.68
411.21	2249.25
411.40	2298.41
411.59	2265.64
411.78	2335.85
411.98	2242.23
412.17	2382.67
412.36	2279.68
412.55	2207.13
412.74	2537.14
412.93	2382.67
413.12	2455.22
413.31	2518.42
413.50	2452.88
413.69	2579.27
413.88	2574.59
414.07	2464.58
414.26	2593.31
414.45	2686.94
414.64	2588.63
414.83	2654.17
415.02	2649.49
415.22	2715.02
415.41	2731.41
415.60	2825.03
415.79	2764.17
415.98	2803.96
416.17	2834.39
416.36	2871.84
416.55	2956.10
416.74	2796.94
416.93	2885.88
417.12	2892.90
417.31	2878.86
417.50	2904.60
417.69	3157.38
417.88	3023.97
418.07	3021.63
418.26	3117.59
418.45	3164.40
418.64	3152.70
418.83	3077.80
419.02	3066.10
419.21	3166.74
419.39	3136.32
419.58	3162.06
419.77	3194.83
419.96	3269.73
420.15	3267.39
420.34	3281.43
420.53	3187.81
420.72	3440.59
420.91	3297.81
421.10	3405.48
421.29	3335.26
421.48	3262.71
421.67	3520.17
421.86	3363.35
422.05	3447.61
422.24	3548.25
422.43	3440.59
422.61	3389.10
422.80	3447.61
422.99	3377.39
423.18	3552.93
423.37	3536.55
423.56	3534.21
423.75	3372.71
423.94	3407.82
424.13	3339.94
424.32	3318.88
424.50	3508.46
424.69	3515.48
424.88	3543.57
425.07	3508.46
425.26	3536.55
425.45	3527.19
425.64	3506.12
425.83	3735.50
426.01	3637.19
426.20	3522.51
426.39	3618.47
426.58	3466.33
426.77	3403.14
426.96	3466.33
427.15	3618.47
427.33	3662.94
427.52	3559.95
427.71	3698.05
427.90	3595.06
428.09	3655.92
428.28	3749.54
428.46	3669.96
428.65	3716.77
428.84	3957.85
429.03	3974.23
429.22	3719.11
429.40	3630.17
429.59	3772.94
429.78	3646.55
429.97	3581.02
430.16	3674.64
430.34	3714.43
430.53	3892.31
430.72	3953.16
430.91	3990.61
431.10	3978.91
431.28	4014.02
431.47	4145.09
431.66	4180.20
431.85	3936.78
432.03	4063.17
432.22	4098.28
432.41	4191.90
432.60	4049.13
432.79	4166.15
432.97	4175.52
433.16	4264.46
433.35	4077.21
433.54	4166.15
433.72	4381.48
433.91	4264.46
434.10	4318.29
434.28	4269.14
434.47	4395.53
434.66	4416.59
434.85	4465.74
435.03	4514.89
435.22	4337.01
435.41	4552.34
435.59	4421.27
435.78	4451.70
435.97	4645.96
436.16	4498.51
436.34	4589.79
436.53	4475.10
436.72	4793.42
436.90	4636.60
437.09	4676.39
437.28	4526.60
437.46	4711.50
437.65	4774.69
437.84	4734.90
438.02	4601.49
438.21	4624.90
438.40	4678.73
438.58	4858.95
438.77	4973.64
438.96	4821.50
439.14	4938.53
439.33	4985.34
439.52	5046.20
439.70	5100.03
439.89	5107.05
440.08	5085.98
440.26	5048.54
440.45	5149.18
440.63	5111.73
440.82	5383.23
441.01	5357.49
441.19	5341.10
441.38	5394.93
441.57	5453.45
441.75	5404.30
441.94	5724.95
442.12	5577.50
442.31	5715.59
442.50	5748.36
442.68	5612.60
442.87	5556.43
443.05	5717.93
443.24	5689.84
443.43	5678.14
443.61	5778.78
443.80	5877.09
443.98	5678.14
444.17	5502.60
444.35	5762.40
444.54	6015.18
444.73	5844.32
444.91	5877.09
445.10	5680.48
445.28	5717.93
445.47	5708.57
445.65	5804.53
445.84	5825.59
446.02	5877.09
446.21	5809.21
446.39	5743.67
446.58	5837.30
446.77	5933.26
446.95	5748.36
447.14	5977.73
447.32	6012.84
447.51	6001.13
447.69	5935.60
447.88	5870.06
448.06	5959.00
448.25	5940.28
448.43	5853.68
448.62	6108.80
448.80	6036.24
448.99	6235.19
449.17	5991.77
449.36	6057.31
449.54	6080.71
449.73	6284.34
449.91	6223.48
450.10	6373.28
450.28	6286.68
450.46	6293.70
450.65	6382.64
450.83	6307.74
451.02	6345.19
451.20	6363.92
451.39	6492.65
451.57	6696.27
451.76	6572.22
451.94	6445.84
452.13	6300.72
452.31	6656.48
452.49	6312.42
452.68	6597.97
452.86	6565.20
453.05	6485.62
453.23	6424.77
453.42	6459.88
453.60	6342.85
453.78	6635.42
453.97	6399.02
454.15	6546.48
454.34	6464.56
454.52	6792.23
454.70	6700.95
454.89	6810.96
455.07	6738.40
455.26	6789.89
455.44	6977.14
455.62	7012.24
455.81	7021.61
455.99	6930.33
456.17	6970.12
456.36	6970.12
456.54	7052.03
456.73	7246.30
456.91	7108.21
457.09	7311.83
457.28	7309.49
457.46	7206.51
457.64	7325.88
457.83	7239.28
458.01	7300.13
458.19	7419.50
458.38	7442.90
458.56	7403.11
458.74	7517.80
458.93	7281.41
459.11	7351.62
459.29	7421.84
459.48	7524.82
459.66	7431.20
459.84	7478.01
460.03	7700.36
460.21	7576.31
460.39	7660.57
460.57	7513.12
460.76	7765.90
460.94	7641.85
461.12	7686.32
461.31	7777.60
461.49	7775.26
461.67	7728.45
461.85	7852.50
462.04	7765.90
462.22	8234.00
462.40	7932.08
462.59	7922.71
462.77	8098.25
462.95	7892.29
463.13	7985.91
463.32	7939.10
463.50	8154.43
463.68	8035.06
463.86	7957.82
464.05	8079.53
464.23	7927.39
464.41	8159.11
464.59	8098.25
464.78	8336.99
464.96	7901.65
465.14	7960.16
465.32	8224.64
465.50	8348.69
465.69	8322.94
465.87	8145.06
466.05	8287.84
466.23	8339.33
466.41	8358.05
466.60	8299.54
466.78	8304.22
466.96	8203.58
467.14	8145.06
467.32	8458.70
467.51	8521.89
467.69	8484.44
467.87	8545.30
468.05	8643.60
468.23	8514.87
468.41	8706.79
468.60	8615.51
468.78	8741.90
468.96	8730.20
469.14	8723.18
469.32	8690.41
469.50	8683.39
469.69	8938.51
469.87	8943.19
470.05	8751.26
470.23	8901.06
470.41	8807.44
470.59	8929.14
470.77	8990.00
470.95	8992.34
471.14	9289.59
471.32	8936.17
471.50	9177.24
471.68	9289.59
471.86	9401.93
472.04	9193.62
472.22	9617.26
472.40	9202.99
472.58	9392.57
472.77	9338.74
472.95	9430.02
473.13	9727.27
473.31	9427.68
473.49	9345.76
473.67	9270.86
473.85	9598.54
474.03	9884.08
474.21	9837.27
474.39	9958.98
474.57	10068.98
474.75	9956.64
474.93	10171.97
475.12	10132.18
475.30	10338.15
475.48	10087.71
475.66	10239.84
475.84	10003.45
476.02	10403.68
476.20	10169.63
476.38	10384.96
476.56	10590.92
476.74	10597.95
476.92	10499.64
477.10	10822.64
477.28	10759.44
477.46	10658.80
477.64	10967.75
477.82	11304.79
478.00	11192.44
478.18	11208.83
478.36	11384.37
478.54	11548.20
478.72	11489.69
478.90	11817.36
479.08	11733.11
479.26	11747.15
479.44	11887.58
479.62	11868.86
479.80	12030.35
479.98	12140.36
480.16	12442.29
480.34	12269.09
480.52	12709.11
480.70	12456.33
480.88	12376.75
481.06	12407.18
481.24	12439.95
481.41	12622.51
481.59	12933.80
481.77	12812.09
481.95	13018.06
482.13	13125.72
482.31	13041.46
482.49	13404.25
482.67	13877.04
482.85	13673.41
483.03	13378.50
483.21	14068.96
483.39	13998.74
483.57	13919.17
483.74	14253.86
483.92	14181.31
484.10	14043.21
484.28	14375.57
484.46	14691.54
484.64	14768.78
484.82	14551.11
485.00	14553.45
485.18	14911.55
485.35	14932.62
485.53	14867.08
485.71	14927.94
485.89	15363.28
486.07	15220.50
486.25	15459.24
486.43	15484.98
486.61	15477.96
486.78	15674.57
486.96	15735.42
487.14	16156.72
487.32	16224.59
487.50	16287.79
487.68	16306.51
487.85	16819.09
488.03	16753.55
488.21	16924.41
488.39	16849.52
488.57	16933.78
488.75	17064.85
488.92	17600.83
489.10	17687.43
489.28	17797.43
489.46	17657.00
489.64	17860.63
489.81	17994.04
489.99	18455.12
490.17	18352.14
490.35	18513.64
490.53	18583.85
490.70	18427.04
490.88	18834.29
491.06	19066.00
491.24	18902.17
491.41	19007.49
491.59	19147.92
491.77	19159.63
491.95	19248.57
492.13	19431.13
492.30	19669.86
492.48	19800.93
492.66	19817.32
492.84	19927.32
493.01	20224.57
493.19	20112.22
493.37	20245.63
493.54	20542.88
493.72	20690.34
493.90	20900.98
494.08	20884.60
494.25	20975.88
494.43	21109.29
494.61	21455.69
494.79	21357.39
494.96	21104.61
495.14	21207.59
495.32	21642.93
495.49	21860.60
495.67	21860.60
495.85	21935.50
496.02	22068.91
496.20	22134.45
496.38	22160.19
496.55	22260.84
496.73	22698.52
496.91	22462.12
497.09	22654.05
497.26	23077.68
497.44	23353.87
497.62	23124.49
497.79	23356.21
497.97	22986.40
498.14	23513.02
498.32	23328.12
498.50	23693.24
498.67	23594.94
498.85	24142.63
499.03	24135.60
499.20	23812.61
499.38	24201.14
499.56	23861.76
499.73	24503.07
499.91	24409.45
500.08	24432.85
500.26	24542.86
500.44	24519.45
500.61	24474.98
500.79	24643.50
500.97	24456.26
501.14	25125.65
501.32	24936.07
501.49	24992.24
501.67	24996.92
501.84	25191.19
502.02	25612.48
502.20	25535.24
502.37	25766.96
502.55	25458.01
502.72	25654.61
502.90	25671.00
503.07	25532.90
503.25	25853.56
503.43	25795.04
503.60	26064.21
503.78	26010.37
503.95	26122.72
504.13	26157.83
504.30	26635.30
504.48	26242.09
504.65	26534.65
504.83	26696.15
505.01	26944.25
505.18	26944.25
505.36	27058.93
505.53	27201.71
505.71	27414.69
505.88	27197.02
506.06	27007.44
506.23	27257.88
506.41	27101.06
506.58	27749.39
506.76	27660.45
506.93	27651.09
507.11	27672.15
507.28	27850.03
507.46	28037.28
507.63	28009.19
507.81	28341.55
507.98	27515.34
508.16	27938.97
508.33	28098.13
508.50	28624.75
508.68	28123.88
508.85	28505.38
509.03	28297.08
509.20	28486.66
509.38	28680.92
509.55	28879.87
509.73	28950.09
509.90	28964.13
510.08	28851.78
510.25	29097.54
510.42	29153.71
510.60	29221.59
510.77	29462.66
510.95	29357.34
511.12	29160.73
511.30	29832.47
511.47	29818.42
511.64	30270.15
511.82	30008.01
511.99	29769.27
512.17	30075.88
512.34	30045.46
512.51	30010.35
512.69	30504.20
512.86	30515.90
513.04	30506.54
513.21	30382.49
513.38	30532.29
513.56	30852.94
513.73	30457.39
513.90	31087.00
514.08	30611.87
514.25	31105.72
514.43	30874.01
514.60	31023.80
514.77	30649.32
514.95	31187.64
515.12	31421.69
515.29	31084.65
515.47	31271.90
515.64	31803.20
515.81	31641.70
515.99	31447.44
516.16	31763.41
516.33	31850.01
516.51	31517.65
516.68	31438.08
516.85	31393.61
517.03	31634.68
517.20	31784.48
517.37	31962.36
517.54	32002.14
517.72	31917.89
517.89	32086.40
518.06	31707.24
518.24	31936.61
518.41	32432.80
518.58	32409.40
518.75	32467.91
518.93	32889.21
519.10	32229.18
519.27	33048.36
519.45	32596.64
519.62	33137.30
519.79	33001.55
519.96	33331.57
520.14	33474.34
520.31	33226.24
520.48	33184.12
520.65	33298.80
520.83	33593.71
521.00	33212.20
521.17	33226.24
521.34	33551.58
521.52	33677.97
521.69	33591.37
521.86	33993.94
522.03	33837.12
522.20	33848.83
522.38	34464.39
522.55	33989.26
522.72	34054.79
522.89	33991.60
523.07	34352.04
523.24	33919.04
523.41	34396.51
523.58	34054.79
523.75	34768.66
523.92	34534.60
524.10	34656.31
524.27	34927.81
524.44	34927.81
524.61	34993.35
524.78	35180.59
524.96	35487.20
525.13	35278.89
525.30	35374.86
525.47	35000.37
525.64	35454.44
525.81	35433.37
525.98	35182.93
526.16	35077.61
526.33	35431.03
526.50	35431.03
526.67	35573.80
526.84	35089.31
527.01	35452.09
527.18	35409.96
527.36	35995.10
527.53	35892.12
527.70	36086.38
527.87	35962.33
528.04	35952.97
528.21	36165.96
528.38	36357.88
528.55	36011.48
528.72	36521.72
528.89	36524.06
529.07	36121.49
529.24	36070.00
529.41	36697.26
529.58	36128.51
529.75	36615.34
529.92	36765.14
530.09	36643.43
530.26	36645.77
530.43	36818.97
530.60	36481.93
530.77	36531.08
530.94	36910.25
531.11	36996.85
531.28	36882.16
531.46	37160.69
531.63	37022.59
531.80	36701.94
531.97	37263.67
532.14	37095.15
532.31	37041.32
532.48	36844.71
532.65	37766.88
532.82	37701.35
532.99	37848.80
533.16	37230.90
533.33	37879.23
533.50	37860.51
533.67	37668.58
533.84	37420.48
534.01	37876.89
534.18	37830.08
534.35	38389.47
534.52	37598.37
534.69	38181.16
534.86	37713.05
535.03	37926.04
535.20	38202.22
535.37	38068.81
535.54	38787.36
535.71	38614.16
535.88	38550.96
536.05	38139.03
536.22	38677.35
536.38	38546.28
536.55	37909.66
536.72	38410.53
536.89	38546.28
537.06	38644.59
537.23	38557.99
537.40	38412.87
537.57	39075.24
537.74	39288.23
537.91	38969.92
538.08	39047.16
538.25	38796.72
538.42	38948.85
538.59	39257.81
538.75	38546.28
538.92	38752.25
539.09	39309.30
539.26	38974.60
539.43	39503.56
539.60	39199.29
539.77	39367.81
539.94	38682.03
540.11	39201.63
540.28	39636.97
540.44	39325.68
540.61	39585.48
540.78	39239.08
540.95	39316.32
541.12	39325.68
541.29	39555.05
541.46	39693.15
541.62	39688.46
541.79	39927.20
541.96	39536.33
542.13	39526.97
542.30	39433.35
542.47	39735.27
542.63	39864.00
542.80	39978.69
542.97	40306.37
543.14	40456.16
543.31	40208.06
543.48	40945.33
543.64	40926.61
543.81	40638.72
543.98	40051.25
544.15	40624.68
544.32	40622.34
544.48	40870.43
544.65	40458.50
544.82	40924.27
544.99	40538.08
545.16	40718.30
545.32	40449.14
545.49	40912.56
545.66	40954.69
545.83	41212.15
546.00	41338.54
546.16	41254.28
546.33	40765.11
546.50	40608.29
546.67	41223.86
546.83	40641.06
547.00	40868.09
547.17	40800.22
547.34	41265.99
547.50	41399.40
547.67	41544.51
547.84	41209.81
548.00	41839.42
548.17	41743.45
548.34	41427.48
548.51	41394.71
548.67	41933.04
548.84	41565.57
549.01	41457.91
549.18	40959.38
549.34	41556.21
549.51	42000.91
549.68	41708.35
549.84	41642.81
550.01	42366.04
550.18	41593.66
550.34	41818.35
550.51	41923.68
550.68	41825.37
550.84	41624.09
551.01	41961.12
551.18	42085.17
551.34	42089.85
551.51	41741.11
551.68	42003.25
551.84	41701.32
552.01	41748.14
552.18	42314.55
552.34	41841.76
552.51	42029.00
552.68	42543.92
552.84	42337.95
553.01	42691.37
553.18	42185.82
553.34	42586.05
553.51	41970.49
553.67	42532.22
553.84	42527.53
554.01	42672.65
554.17	42499.45
554.34	42632.86
554.51	42506.47
554.67	42667.97
554.84	42752.23
555.00	42515.83
555.17	42958.19
555.33	42515.83
555.50	42803.72
555.67	42674.99
555.83	42548.60
556.00	43040.11
556.16	43002.66
556.33	42967.55
556.50	43318.64
556.66	42674.99
556.83	42707.76
556.99	43395.87
557.16	43070.54
557.32	42988.62
557.49	42916.06
557.65	42569.66
557.82	43175.86
557.98	42782.65
558.15	42754.57
558.32	42965.21
558.48	42981.60
558.65	43093.94
558.81	43353.74
558.98	43199.27
559.14	43262.46
559.31	42883.30
559.47	43262.46
559.64	43524.60
559.80	43674.40
559.97	43643.97
560.13	43014.37
560.30	43056.50
560.46	43302.25
560.63	43393.53
560.79	43639.29
560.96	43599.50
561.12	43367.79
561.29	43856.96
561.45	43690.78
561.61	43571.41
561.78	43941.22
561.94	43573.75
562.11	43585.46
562.27	43955.26
562.44	43487.15
562.60	43814.83
562.77	43875.68
562.93	43435.66
563.10	43896.75
563.26	43070.54
563.42	44065.27
563.59	43632.27
563.75	43875.68
563.92	44135.48
564.08	43917.81
564.24	44060.58
564.41	43739.93
564.57	43746.95
564.74	43732.91
564.90	43435.66
565.07	44058.24
565.23	43725.89
565.39	43910.79
565.56	43842.92
565.72	43697.80
565.88	43793.76
566.05	44121.44
566.21	43791.42
566.38	44009.09
566.54	43990.37
566.70	44140.16
566.87	44226.76
567.03	44383.58
567.19	44432.73
567.36	44304.00
567.52	43796.10
567.68	44425.71
567.85	44142.50
568.01	43807.81
568.17	44163.57
568.34	44154.21
568.50	44161.23
568.66	43772.70
568.83	44531.03
568.99	43835.89
569.15	44067.61
569.32	44168.25
569.48	43643.97
569.64	44044.20
569.81	44502.95
569.97	43964.62
570.13	43920.15
570.30	44404.64
570.46	43676.74
570.62	43952.92
570.78	44114.42
570.95	43941.22
571.11	44531.03
571.27	43756.32
571.43	44318.04
571.60	44608.27
571.76	43768.02
571.92	44282.94
572.09	44587.21
572.25	44191.65
572.41	44226.76
572.57	44259.53
572.74	44758.06
572.90	44182.29
573.06	44301.66
573.22	44414.01
573.38	44336.77
573.55	43866.32
573.71	44194.00
573.87	44474.86
574.03	44046.54
574.20	44289.96
574.36	44322.72
574.52	44556.78
574.68	44477.20
574.84	44362.51
575.01	44760.40
575.17	44121.44
575.33	44409.32
575.49	44238.47
575.65	44652.74
575.82	45006.16
575.98	44531.03
576.14	44694.87
576.30	44861.05
576.46	44348.47
576.62	44172.93
576.79	44385.92
576.95	43934.20
577.11	44088.67
577.27	44392.94
577.43	44278.25
577.59	44301.66
577.75	44694.87
577.92	44170.59
578.08	44332.09
578.24	44329.75
578.40	44411.67
578.56	44404.64
578.72	44617.63
578.88	44776.79
579.04	44790.83
579.21	44486.56
579.37	44133.14
579.53	44327.41
579.69	43952.92
579.85	44559.12
580.01	44973.39
580.17	44760.40
580.33	45010.84
580.49	44788.49
580.65	44725.30
580.82	44790.83
580.98	44912.54
581.14	44622.31
581.30	44587.21
581.46	44832.96
581.62	44715.93
581.78	44519.33
581.94	44570.82
582.10	44942.97
582.26	44781.47
582.42	44727.64
582.58	44547.42
582.74	44334.43
582.90	44690.19
583.06	44896.16
583.22	44732.32
583.38	45055.31
583.54	44729.98
583.70	44631.68
583.86	44486.56
584.02	44423.37
584.18	44416.35
584.34	44788.49
584.50	44720.62
584.66	44318.04
584.82	44500.61
584.98	44872.75
585.14	44711.25
585.30	44615.29
585.46	44301.66
585.62	44409.32
585.78	44769.77
585.94	43908.45
586.10	44493.58
586.26	44364.85
586.42	44376.56
586.58	44821.26
586.74	44772.11
586.90	44582.52
587.06	44531.03
587.22	44704.23
587.38	44332.09
587.54	45153.62
587.70	45275.32
587.86	44685.51
588.02	44758.06
588.18	44928.92
588.34	44837.64
588.49	44477.20
588.65	44765.09
588.81	44322.72
588.97	44765.09
589.13	44399.96
589.29	44332.09
589.45	44868.07
589.61	44732.32
589.77	45242.56
589.93	44601.25
590.08	45059.99
590.24	45523.42
