SpectraSuite Data File
++++++++++++++++++++++++++++++++++++
Date: Fri Oct 25 11:23:35 EDT 2013
User: price-jones
Dark Spectrum Present: No
Reference Spectrum Present: No
Number of Sampled Component Spectra: 1
Spectrometers: USB2+H05261
Integration Time (usec): 100000 (USB2+H05261)
Spectra Averaged: 1 (USB2+H05261)
Boxcar Smoothing: 0 (USB2+H05261)
Correct for Electrical Dark: No (USB2+H05261)
Strobe/Lamp Enabled: No (USB2+H05261)
Correct for Detector Non-linearity: No (USB2+H05261)
Correct for Stray Light: No (USB2+H05261)
Number of Pixels in Processed Spectrum: 2048
>>>>>Begin Processed Spectral Data<<<<<
365.73	243.42
365.92	243.42
366.12	243.42
366.32	191.92
366.52	110.01
366.72	149.79
366.91	126.39
367.11	107.66
367.31	102.98
367.51	128.73
367.70	110.01
367.90	156.82
368.10	126.39
368.30	170.86
368.49	119.37
368.69	121.71
368.89	84.26
369.09	86.60
369.28	149.79
369.48	133.41
369.68	126.39
369.87	217.67
370.07	161.50
370.27	220.01
370.47	301.93
370.66	589.82
370.86	641.31
371.06	793.44
371.25	730.25
371.45	662.37
371.65	704.50
371.84	657.69
372.04	667.05
372.24	692.80
372.44	702.16
372.63	725.57
372.83	737.27
373.03	755.99
373.22	779.40
373.42	809.83
373.62	741.95
373.81	741.95
374.01	844.93
374.21	812.17
374.40	767.70
374.60	882.38
374.79	814.51
374.99	833.23
375.19	837.91
375.38	835.57
375.58	858.98
375.78	858.98
375.97	821.53
376.17	1029.84
376.37	889.40
376.56	805.14
376.76	866.00
376.95	868.34
377.15	929.19
377.35	961.96
377.54	826.21
377.74	800.46
377.93	875.36
378.13	880.04
378.33	971.32
378.52	854.30
378.72	987.71
378.91	973.66
379.11	884.72
379.31	919.83
379.50	961.96
379.70	917.49
379.89	999.41
380.09	880.04
380.28	910.47
380.48	945.58
380.68	924.51
380.87	968.98
381.07	997.07
381.26	1041.54
381.46	957.28
381.65	964.30
381.85	1043.88
382.04	950.26
382.24	1076.65
382.43	1078.99
382.63	1043.88
382.83	1053.24
383.02	1118.78
383.22	1132.82
383.41	1025.15
383.61	1158.57
383.80	1069.62
384.00	1170.27
384.19	1132.82
384.39	1086.01
384.58	1144.52
384.78	1139.84
384.97	1137.50
385.17	1121.12
385.36	1090.69
385.56	1135.16
385.75	1097.71
385.95	1048.56
386.14	1172.61
386.34	1186.65
386.53	1139.84
386.72	1203.04
386.92	1254.53
387.11	1273.25
387.31	1275.59
387.50	1196.01
387.70	1259.21
387.89	1291.98
388.09	1266.23
388.28	1289.64
388.48	1174.95
388.67	1343.47
388.86	1362.19
389.06	1404.32
389.25	1313.04
389.45	1362.19
389.64	1380.92
389.84	1357.51
390.03	1378.58
390.22	1392.62
390.42	1425.39
390.61	1406.66
390.81	1338.79
391.00	1373.89
391.19	1383.26
391.39	1446.45
391.58	1406.66
391.78	1476.88
391.97	1460.49
392.16	1455.81
392.36	1614.97
392.55	1544.75
392.75	1493.26
392.94	1441.77
393.13	1554.12
393.33	1535.39
393.52	1481.56
393.71	1568.16
393.91	1551.78
394.10	1551.78
394.29	1614.97
394.49	1629.01
394.68	1696.89
394.88	1603.27
395.07	1636.03
395.26	1675.82
395.46	1582.20
395.65	1750.72
395.84	1673.48
396.04	1699.23
396.23	1799.87
396.42	1661.78
396.62	1724.97
396.81	1746.04
397.00	1776.47
397.19	1778.81
397.39	1750.72
397.58	1781.15
397.77	1874.77
397.97	1846.68
398.16	1769.44
398.35	1778.81
398.55	1844.34
398.74	1856.04
398.93	1902.86
399.12	1923.92
399.32	1900.52
399.51	1944.99
399.70	2019.88
399.90	1970.73
400.09	1980.09
400.28	1947.33
400.47	2062.01
400.67	1998.82
400.86	2050.31
401.05	2019.88
401.24	2073.71
401.44	2108.82
401.63	2179.04
401.82	2141.59
402.01	2101.80
402.21	2237.55
402.40	2101.80
402.59	2176.70
402.78	2195.42
402.97	2200.10
403.17	2284.36
403.36	2253.94
403.55	2282.02
403.74	2406.07
403.93	2370.96
404.13	2317.13
404.32	2267.98
404.51	2361.60
404.70	2504.37
404.89	2541.82
405.09	2345.22
405.28	2450.54
405.47	2511.39
405.66	2436.50
405.85	2569.91
406.05	2551.18
406.24	2530.12
406.43	2527.78
406.62	2623.74
406.81	2684.59
407.00	2574.59
407.20	2637.78
407.39	2637.78
407.58	2656.51
407.77	2705.66
407.96	2663.53
408.15	2722.04
408.34	2862.48
408.54	2874.18
408.73	2836.73
408.92	2768.85
409.11	2822.69
409.30	2892.90
409.49	2944.39
409.68	2965.46
409.87	3016.95
410.07	3002.91
410.26	2984.18
410.45	2925.67
410.64	3105.89
410.83	3005.25
411.02	3073.12
411.21	3087.17
411.40	3098.87
411.59	3262.71
411.78	3171.43
411.98	3302.50
412.17	3349.31
412.36	3419.52
412.55	3274.41
412.74	3314.20
412.93	3323.56
413.12	3311.86
413.31	3637.19
413.50	3410.16
413.69	3417.18
413.88	3548.25
414.07	3618.47
414.26	3611.45
414.45	3637.19
414.64	3679.32
414.83	3768.26
415.02	3812.73
415.22	3840.82
415.41	3904.01
415.60	3908.69
415.79	3936.78
415.98	4016.36
416.17	4002.32
416.36	3901.67
416.55	3976.57
416.74	4175.52
416.93	4131.05
417.12	4184.88
417.31	4191.90
417.50	4170.83
417.69	4393.19
417.88	4294.88
418.07	4327.65
418.26	4315.95
418.45	4421.27
418.64	4311.27
418.83	4465.74
419.02	4416.59
419.21	4456.38
419.39	4535.96
419.58	4489.15
419.77	4339.35
419.96	4667.03
420.15	4664.69
420.34	4645.96
420.53	4643.62
420.72	4655.33
420.91	4664.69
421.10	4798.10
421.29	4798.10
421.48	4669.37
421.67	4964.28
421.86	4704.48
422.05	4652.98
422.24	4802.78
422.43	4830.87
422.61	4863.63
422.80	4992.36
422.99	4889.38
423.18	5013.43
423.37	5111.73
423.56	4959.60
423.75	4917.47
423.94	4755.97
424.13	4535.96
424.32	4739.58
424.50	4910.44
424.69	5064.92
424.88	5163.22
425.07	5025.13
425.26	4873.00
425.45	5050.88
425.64	5029.81
425.83	5008.75
426.01	5078.96
426.20	4959.60
426.39	4994.70
426.58	4901.08
426.77	5226.42
426.96	4992.36
427.15	5004.07
427.33	5149.18
427.52	5172.58
427.71	5256.84
427.90	5149.18
428.09	5350.46
428.28	5350.46
428.46	5420.68
428.65	5362.17
428.84	5448.77
429.03	5425.36
429.22	5338.76
429.40	5514.30
429.59	5549.41
429.78	5408.98
429.97	5217.05
430.16	5523.66
430.34	5535.37
430.53	5544.73
430.72	5664.10
430.91	5575.16
431.10	5767.08
431.28	5673.46
431.47	5813.89
431.66	5984.75
431.85	5809.21
432.03	5909.85
432.22	5949.64
432.41	5825.59
432.60	5909.85
432.79	5902.83
432.97	6022.20
433.16	5998.79
433.35	5823.25
433.54	6092.41
433.72	6099.44
433.91	6129.86
434.10	6211.78
434.28	6256.25
434.47	6001.13
434.66	6298.38
434.85	6277.32
435.03	6317.11
435.22	6450.52
435.41	6607.33
435.59	6377.96
435.78	6525.41
435.97	6352.21
436.16	6448.18
436.34	6253.91
436.53	6459.88
436.72	6761.81
436.90	6485.62
437.09	6743.08
437.28	6546.48
437.46	6764.15
437.65	6609.67
437.84	6579.25
438.02	6731.38
438.21	6759.47
438.40	6834.36
438.58	7087.14
438.77	7222.89
438.96	6958.41
439.14	7047.35
439.33	7297.79
439.52	7360.98
439.70	7206.51
439.89	7407.80
440.08	7419.50
440.26	7370.35
440.45	7143.32
440.63	7391.41
440.82	7665.25
441.01	7527.16
441.19	7604.40
441.38	7873.56
441.57	7571.63
441.75	7861.86
441.94	8023.36
442.12	8095.91
442.31	8177.83
442.50	8009.31
442.68	7854.84
442.87	8161.45
443.05	8056.12
443.24	8454.02
443.43	8416.57
443.61	8210.60
443.80	8538.27
443.98	8039.74
444.17	7796.32
444.35	8215.28
444.54	8386.14
444.73	8365.07
444.91	8304.22
445.10	8416.57
445.28	8308.90
445.47	8367.42
445.65	8423.59
445.84	8379.12
446.02	8517.21
446.21	8308.90
446.39	8503.17
446.58	8608.49
446.77	8402.52
446.95	8313.58
447.14	8552.32
447.32	8713.81
447.51	8519.55
447.69	8482.10
447.88	8512.53
448.06	8304.22
448.25	8585.08
448.43	8659.98
448.62	8498.49
448.80	8479.76
448.99	8606.15
449.17	8706.79
449.36	8524.23
449.54	8980.64
449.73	9048.51
449.91	9055.53
450.10	9027.45
450.28	9277.88
450.46	9205.33
450.65	9011.06
450.83	8875.31
451.02	9011.06
451.20	9277.88
451.39	9137.45
451.57	9273.20
451.76	9088.30
451.94	9130.43
452.13	9336.40
452.31	9376.19
452.49	9172.56
452.68	9568.11
452.86	9315.33
453.05	9348.10
453.23	9540.02
453.42	9305.97
453.60	9647.69
453.78	9586.83
453.97	9448.74
454.15	9633.64
454.34	9453.42
454.52	9769.40
454.70	9689.82
454.89	9769.40
455.07	9607.90
455.26	9762.37
455.44	9975.36
455.62	9832.59
455.81	9867.70
455.99	10036.22
456.17	10064.30
456.36	9973.02
456.54	10108.77
456.73	10244.52
456.91	10473.90
457.09	10342.83
457.28	10668.16
457.46	10501.98
457.64	10509.01
457.83	10499.64
458.01	10485.60
458.19	10867.11
458.38	10677.52
458.56	10796.89
458.74	10513.69
458.93	10569.86
459.11	10759.44
459.29	10934.98
459.48	10506.66
459.66	10693.91
459.84	10850.72
460.03	11126.91
460.21	11052.01
460.39	10752.42
460.57	11117.54
460.76	11438.20
460.94	11206.48
461.12	11236.91
461.31	11070.73
461.49	11213.51
461.67	11180.74
461.85	11253.30
462.04	11463.94
462.22	11573.95
462.40	11489.69
462.59	11431.18
462.77	11485.01
462.95	11623.10
463.13	11543.52
463.32	11702.68
463.50	11871.20
463.68	11737.79
463.86	11819.71
464.05	11606.72
464.23	11552.88
464.41	11990.56
464.59	11920.35
464.78	12336.96
464.96	12042.06
465.14	11747.15
465.32	12095.89
465.50	12315.90
465.69	12409.52
465.87	12308.88
466.05	12095.89
466.23	12173.13
466.41	12283.13
466.60	12505.48
466.78	12140.36
466.96	12264.41
467.14	12297.17
467.32	12547.61
467.51	12510.16
467.69	12315.90
467.87	12865.92
468.05	12575.70
468.23	12432.93
468.41	12526.55
468.60	12840.18
468.78	12889.33
468.96	12688.04
469.14	12837.84
469.32	12926.78
469.50	12496.12
469.69	12992.31
469.87	13006.36
470.05	13280.20
470.23	13174.88
470.41	13130.41
470.59	13427.65
470.77	13195.94
470.95	13256.79
471.14	13600.85
471.32	13336.37
471.50	13612.56
471.68	13783.41
471.86	13776.39
472.04	13752.99
472.22	14232.80
472.40	13696.82
472.58	13727.24
472.77	13879.38
472.95	13973.00
473.13	14658.78
473.31	14195.35
473.49	14307.69
473.67	14157.90
473.85	14469.19
474.03	14654.09
474.21	14558.13
474.39	14684.52
474.57	14717.29
474.75	14810.91
474.93	14827.29
475.12	14796.87
475.30	15274.34
475.48	14979.43
475.66	15222.84
475.84	15379.66
476.02	15274.34
476.20	15372.64
476.38	15651.16
476.56	16102.89
476.74	16049.05
476.92	16116.93
477.10	15969.48
477.28	16315.87
477.46	16201.19
477.64	16514.82
477.82	16662.27
478.00	16898.67
478.18	16915.05
478.36	17074.21
478.54	17142.08
478.72	17383.16
478.90	17350.39
479.08	17535.29
479.26	17657.00
479.44	17813.82
479.62	17722.54
479.80	18047.87
479.98	18204.69
480.16	18625.98
480.34	18286.61
480.52	18459.81
480.70	18600.24
480.88	18333.42
481.06	18925.57
481.24	19204.10
481.41	19344.53
481.59	19431.13
481.77	19475.60
481.95	19569.22
482.13	19964.77
482.31	19740.08
482.49	20561.61
482.67	20215.21
482.85	20645.87
483.03	20758.21
483.21	21085.89
483.39	21252.06
483.57	20844.81
483.74	21188.87
483.92	21659.32
484.10	21394.84
484.28	21600.80
484.46	22001.04
484.64	22462.12
484.82	21975.29
485.00	22742.99
485.18	22742.99
485.35	23239.18
485.53	22696.17
485.71	23168.96
485.89	23473.23
486.07	23101.09
486.25	23332.80
486.43	23697.92
486.61	24037.30
486.78	24409.45
486.96	24212.84
487.14	24409.45
487.32	24573.28
487.50	24924.36
487.68	24828.40
487.85	25493.12
488.03	25532.90
488.21	25811.43
488.39	25846.54
488.57	26031.44
488.75	26216.34
488.92	26558.06
489.10	26890.41
489.28	26824.88
489.46	27063.61
489.64	27269.58
489.81	27370.22
489.99	27936.63
490.17	27885.14
490.35	27999.83
490.53	28067.70
490.70	28645.82
490.88	28374.31
491.06	28673.90
491.24	29132.65
491.41	29275.42
491.59	29696.72
491.77	29490.75
491.95	29607.78
492.13	29853.53
492.30	29811.40
492.48	29902.68
492.66	30228.02
492.84	30223.34
493.01	30607.19
493.19	30726.55
493.37	30649.32
493.54	30974.65
493.72	31356.16
493.90	31644.04
494.08	31981.08
494.25	32044.27
494.43	32121.51
494.61	32477.27
494.79	32488.98
494.96	32538.13
495.14	33120.92
495.32	33333.91
495.49	33645.20
495.67	33387.74
495.85	33399.44
496.02	33762.23
496.20	34176.50
496.38	34349.70
496.55	34403.53
496.73	34829.51
496.91	34403.53
497.09	35243.79
497.26	35026.12
497.44	34925.47
497.62	35140.80
497.79	35669.76
497.97	35828.92
498.14	36165.96
498.32	36268.94
498.50	36163.62
498.67	36713.64
498.85	36938.33
499.03	36762.79
499.20	36435.12
499.38	36933.65
499.56	37357.29
499.73	37298.78
499.91	37427.51
500.08	37841.78
500.26	37567.94
500.44	37811.35
500.61	38169.46
500.79	37827.74
500.97	38169.46
501.14	39105.67
501.32	38419.89
501.49	38667.99
501.67	39136.10
501.84	39124.40
502.02	38752.25
502.20	39175.89
502.37	39615.91
502.55	39522.29
502.72	39438.03
502.90	39772.72
503.07	39945.92
503.25	40055.93
503.43	39529.31
503.60	40299.34
503.78	40311.05
503.95	40053.59
504.13	40561.48
504.30	40872.78
504.48	40636.38
504.65	41331.52
504.83	41202.79
505.01	41462.59
505.18	41455.57
505.36	41455.57
505.53	41233.22
505.71	41581.96
505.88	41806.65
506.06	41322.16
506.23	42279.44
506.41	41930.70
506.58	42136.66
506.76	42576.69
506.93	42532.22
507.11	42677.33
507.28	42600.09
507.46	42574.34
507.63	42887.98
507.81	43283.53
507.98	42815.42
508.16	43199.27
508.33	43550.35
508.50	43709.50
508.68	43894.41
508.85	43597.16
509.03	44044.20
509.20	43658.01
509.38	44444.43
509.55	44519.33
509.73	44376.56
509.90	45027.23
510.08	44678.49
510.25	44832.96
510.42	44783.81
510.60	45174.68
510.77	45024.89
510.95	46089.83
511.12	45151.27
511.30	45209.79
511.47	45532.78
511.64	45586.61
511.82	45593.64
511.99	46117.92
512.17	45844.07
512.34	46223.24
512.51	46429.21
512.69	46466.66
512.86	46361.33
513.04	46990.94
513.21	46529.85
513.38	46976.89
513.56	47178.18
513.73	46820.08
513.90	47391.17
514.08	46986.25
514.25	47473.09
514.43	47517.56
514.60	47571.39
514.77	47381.80
514.95	47737.57
515.12	47859.27
515.29	47959.92
515.47	47737.57
515.64	48025.45
515.81	48318.02
515.99	48121.41
516.16	48715.91
516.33	48779.10
516.51	48657.40
516.68	48500.58
516.85	48322.70
517.03	49167.63
517.20	49069.33
517.37	49057.63
517.54	48800.17
517.72	49069.33
517.89	49207.42
518.06	49319.77
518.24	49219.13
518.41	49294.02
518.58	49741.06
518.75	49375.94
518.93	49963.42
519.10	49478.92
519.27	49577.23
519.45	49563.18
519.62	49806.60
519.79	50138.96
519.96	50138.96
520.14	50183.43
520.31	50246.62
520.48	50466.63
520.65	50513.44
520.83	50686.64
521.00	51121.98
521.17	50838.78
521.34	51126.66
521.52	50967.51
521.69	50990.91
521.86	50997.93
522.03	51215.60
522.20	51398.16
522.38	51686.05
522.55	51278.80
522.72	51608.81
522.89	51199.22
523.07	51826.48
523.24	51540.94
523.41	51826.48
523.58	51545.62
523.75	51910.74
523.92	51664.99
524.10	52172.88
524.27	51927.13
524.44	52203.31
524.61	52018.41
524.78	52285.23
524.96	52271.18
525.13	52369.49
525.30	52339.06
525.47	52484.17
525.64	52161.18
525.81	52755.68
525.98	52821.21
526.16	52271.18
526.33	52875.04
526.50	53378.26
526.67	52886.74
526.84	52865.68
527.01	52919.51
527.18	53052.92
527.36	53008.45
527.53	53279.96
527.70	53446.13
527.87	53408.68
528.04	53008.45
528.21	53396.98
528.38	53382.94
528.55	53759.76
528.72	53518.69
528.89	53506.99
529.07	53478.90
529.24	53565.50
529.41	53820.62
529.58	53801.89
529.75	53769.13
529.92	53956.37
530.09	53872.11
530.26	53991.48
530.43	54171.70
530.60	53738.70
530.77	53951.69
530.94	54265.32
531.11	54110.85
531.28	54372.99
531.46	54042.97
531.63	54497.03
531.80	54141.27
531.97	54422.14
532.14	54546.18
532.31	54529.80
532.48	54628.10
532.65	54766.20
532.82	54424.48
532.99	54791.94
533.16	54527.46
533.33	54955.78
533.50	55030.68
533.67	54911.31
533.84	54820.03
534.01	54908.97
534.18	54892.58
534.35	55505.80
534.52	55098.55
534.69	55311.54
534.86	55253.03
535.03	55082.17
535.20	55248.35
535.37	55634.53
535.54	55442.61
535.71	55288.13
535.88	55395.80
536.05	55620.49
536.22	55650.92
536.38	55688.37
536.55	55732.84
536.72	55777.31
536.89	55512.83
537.06	55913.06
537.23	55973.91
537.40	55650.92
537.57	55592.40
537.74	55819.44
537.91	56030.08
538.08	55980.93
538.25	55760.92
538.42	56175.20
538.59	56095.62
538.75	56041.79
538.92	56214.99
539.09	56214.99
539.26	56172.86
539.43	56203.28
539.60	56163.50
539.77	56460.74
539.94	56561.39
540.11	56324.99
540.28	56507.55
540.44	56612.88
540.61	56472.45
540.78	56418.61
540.95	56488.83
541.12	56512.23
541.29	56795.44
541.46	56725.22
541.62	56692.46
541.79	56760.33
541.96	56453.72
542.13	56512.23
542.30	56839.91
542.47	56863.32
542.63	56842.25
542.80	56987.36
542.97	57169.93
543.14	57284.61
543.31	57174.61
543.48	57169.93
543.64	57319.72
543.81	57530.37
543.98	57499.94
544.15	57455.47
544.32	57483.56
544.48	57469.51
544.65	57434.41
544.82	57485.90
544.99	57347.81
545.16	57584.20
545.32	57453.13
545.49	57764.42
545.66	57687.18
545.83	57806.55
546.00	57869.75
546.16	57811.23
546.33	57406.32
546.50	57511.64
546.67	57832.30
546.83	57577.18
547.00	57853.36
547.17	57719.95
547.34	57951.66
547.50	57998.48
547.67	58232.53
547.84	58010.18
548.00	58419.77
548.17	58206.78
548.34	58164.65
548.51	58337.85
548.67	58354.24
548.84	58335.51
549.01	58017.20
549.18	58312.11
549.34	58326.15
549.51	58372.96
549.68	58454.88
549.84	58489.99
550.01	58518.07
550.18	58375.30
550.34	58492.33
550.51	58433.81
550.68	58719.36
550.84	58305.09
551.01	58653.82
551.18	58548.50
551.34	58534.46
551.51	58639.78
551.68	58592.97
551.84	58585.95
552.01	58623.40
552.18	58749.79
552.34	58621.06
552.51	58829.37
552.68	58609.35
552.84	58585.95
553.01	58988.52
553.18	58791.92
553.34	58967.46
553.51	58843.41
553.67	58838.73
553.84	58885.54
554.01	59054.06
554.17	58981.50
554.34	59154.70
554.51	58885.54
554.67	59311.52
554.84	59079.80
555.00	59011.93
555.17	59084.48
555.33	58993.20
555.50	58953.41
555.67	58969.80
555.83	59096.19
556.00	59241.30
556.16	59522.16
556.33	59002.56
556.50	59332.58
556.66	59526.84
556.83	59107.89
556.99	59351.30
557.16	59370.03
557.32	59557.27
557.49	59526.84
557.65	59341.94
557.82	59477.69
557.98	59463.65
558.15	59339.60
558.32	59554.93
558.48	59367.69
558.65	59662.60
558.81	59578.34
558.98	59585.36
559.14	59739.83
559.31	59709.41
559.47	59770.26
559.64	59669.62
559.80	59786.64
559.97	59819.41
560.13	59465.99
560.30	59915.37
560.46	59931.76
560.63	59779.62
560.79	59817.07
560.96	59957.50
561.12	59831.11
561.29	59798.35
561.45	60128.36
561.61	59840.48
561.78	59906.01
561.94	59868.56
562.11	59962.18
562.27	60067.51
562.44	60175.17
562.60	60207.94
562.77	59901.33
562.93	59667.28
563.10	60051.12
563.26	60069.85
563.42	60182.19
563.59	60097.94
563.75	59817.07
563.92	60168.15
564.08	60030.06
564.24	60395.18
564.41	60027.72
564.57	60261.77
564.74	60147.09
564.90	60198.58
565.07	60231.35
565.23	60289.86
565.39	60107.30
565.56	60144.75
565.72	60179.85
565.88	60273.48
566.05	60126.02
566.21	60140.07
566.38	60346.03
566.54	60282.84
566.70	60441.99
566.87	60521.57
567.03	60378.80
567.19	60519.23
567.36	60369.44
567.52	60303.90
567.68	60645.62
567.85	60268.79
568.01	60498.17
568.17	60278.16
568.34	60432.63
568.50	60589.45
568.66	60371.78
568.83	60465.40
568.99	60341.35
569.15	60336.67
569.32	60449.02
569.48	60427.95
569.64	60467.74
569.81	60341.35
569.97	60577.75
570.13	60575.40
570.30	60488.80
570.46	60598.81
570.62	60612.85
570.78	60547.32
570.95	60701.79
571.11	60692.43
571.27	60853.93
571.43	60687.75
571.60	60610.51
571.76	60598.81
571.92	60486.46
572.09	60498.17
572.25	60570.72
572.41	60500.51
572.57	60809.46
572.74	60736.90
572.90	60662.00
573.06	60647.96
573.22	60584.77
573.38	60676.05
573.55	60701.79
573.71	60863.29
573.87	60746.26
574.03	60610.51
574.20	60612.85
574.36	60626.90
574.52	60870.31
574.68	60652.64
574.84	60956.91
575.01	60772.01
575.17	60544.98
575.33	60633.92
575.49	60783.71
575.65	60832.86
575.82	60858.61
575.98	60999.04
576.14	60982.66
576.30	61069.26
576.46	60781.37
576.62	60842.23
576.79	60942.87
576.95	60711.16
577.11	60926.49
577.27	60973.30
577.43	60921.80
577.59	60741.58
577.75	60697.11
577.92	60722.86
578.08	60772.01
578.24	60992.02
578.40	60996.70
578.56	60938.19
578.72	60942.87
578.88	60982.66
579.04	61022.45
579.21	60992.02
579.37	61055.21
579.53	61083.30
579.69	60924.14
579.85	60931.17
580.01	60879.67
580.17	60842.23
580.33	60992.02
580.49	61254.16
580.65	60877.33
580.82	60851.59
580.98	60570.72
581.14	60882.02
581.30	61148.84
581.46	61010.74
581.62	60961.59
581.78	60760.31
581.94	60970.96
582.10	60818.82
582.26	61092.66
582.42	60992.02
582.58	61087.98
582.74	60896.06
582.90	60954.57
583.06	61006.06
583.22	61132.45
583.38	60893.72
583.54	60935.85
583.70	61104.37
583.86	61092.66
584.02	60870.31
584.18	61181.60
584.34	61013.08
584.50	61001.38
584.66	60760.31
584.82	60828.18
584.98	61125.43
585.14	61078.62
585.30	60921.80
585.46	61160.54
585.62	60919.46
585.78	61240.12
585.94	60917.12
586.10	61003.72
586.26	61172.24
586.42	61027.13
586.58	61153.52
586.74	61085.64
586.90	61113.73
587.06	61013.08
587.22	61312.67
587.38	61226.07
587.54	61228.41
587.70	61279.91
587.86	61020.11
588.02	61106.71
588.18	61282.25
588.34	61057.56
588.49	61202.67
