SpectraSuite Data File
++++++++++++++++++++++++++++++++++++
Date: Fri Oct 25 11:33:54 EDT 2013
User: price-jones
Dark Spectrum Present: No
Reference Spectrum Present: No
Number of Sampled Component Spectra: 1
Spectrometers: USB2+H05261
Integration Time (usec): 100000 (USB2+H05261)
Spectra Averaged: 1 (USB2+H05261)
Boxcar Smoothing: 0 (USB2+H05261)
Correct for Electrical Dark: No (USB2+H05261)
Strobe/Lamp Enabled: No (USB2+H05261)
Correct for Detector Non-linearity: No (USB2+H05261)
Correct for Stray Light: No (USB2+H05261)
Number of Pixels in Processed Spectrum: 2048
>>>>>Begin Processed Spectral Data<<<<<
365.73	322.99
365.92	322.99
366.12	322.99
366.32	198.95
366.52	173.20
366.72	205.97
366.91	147.45
367.11	220.01
367.31	124.05
367.51	189.58
367.70	147.45
367.90	224.69
368.10	168.52
368.30	133.41
368.49	159.16
368.69	170.86
368.89	236.39
369.09	180.22
369.28	177.88
369.48	187.24
369.68	271.50
369.87	248.10
370.07	273.84
370.27	234.05
370.47	332.36
370.66	491.51
370.86	554.71
371.06	498.53
371.25	596.84
371.45	564.07
371.65	596.84
371.84	545.34
372.04	535.98
372.24	636.63
372.44	578.11
372.63	617.90
372.83	669.39
373.03	589.82
373.22	613.22
373.42	519.60
373.62	603.86
373.81	580.45
374.01	622.58
374.21	678.76
374.40	594.50
374.60	727.91
374.79	669.39
374.99	660.03
375.19	620.24
375.38	690.46
375.58	683.44
375.78	613.22
375.97	683.44
376.17	674.07
376.37	662.37
376.56	720.88
376.76	648.33
376.95	622.58
377.15	664.71
377.35	636.63
377.54	655.35
377.74	690.46
377.93	650.67
378.13	683.44
378.33	720.88
378.52	706.84
378.72	699.82
378.91	617.90
379.11	727.91
379.31	711.52
379.50	564.07
379.70	732.59
379.89	697.48
380.09	697.48
380.28	720.88
380.48	690.46
380.68	732.59
380.87	697.48
381.07	777.06
381.26	746.63
381.46	767.70
381.65	844.93
381.85	812.17
382.04	760.67
382.24	821.53
382.43	758.33
382.63	798.12
382.83	812.17
383.02	739.61
383.22	777.06
383.41	695.14
383.61	791.10
383.80	821.53
384.00	828.55
384.19	784.08
384.39	802.80
384.58	739.61
384.78	760.67
384.97	828.55
385.17	856.64
385.36	819.19
385.56	798.12
385.75	924.51
385.95	854.30
386.14	833.23
386.34	891.74
386.53	877.70
386.72	896.43
386.92	910.47
387.11	952.60
387.31	889.40
387.50	922.17
387.70	919.83
387.89	926.85
388.09	833.23
388.28	854.30
388.48	828.55
388.67	884.72
388.86	947.92
389.06	912.81
389.25	929.19
389.45	1020.47
389.64	966.64
389.84	910.47
390.03	1032.18
390.22	1027.50
390.42	931.53
390.61	959.62
390.81	959.62
391.00	961.96
391.19	1004.09
391.39	1022.81
391.58	1011.11
391.78	1034.52
391.97	1001.75
392.16	1001.75
392.36	1060.26
392.55	1018.13
392.75	1081.33
392.94	997.07
393.13	1013.45
393.33	1001.75
393.52	1041.54
393.71	1008.77
393.91	1125.80
394.10	1095.37
394.29	1081.33
394.49	1207.72
394.68	1118.78
394.88	1095.37
395.07	1057.92
395.26	1184.31
395.46	1111.75
395.65	1205.38
395.84	1114.10
396.04	1196.01
396.23	1174.95
396.42	1130.48
396.62	1205.38
396.81	1256.87
397.00	1203.04
397.19	1196.01
397.39	1294.32
397.58	1235.80
397.77	1221.76
397.97	1277.93
398.16	1111.75
398.35	1226.44
398.55	1327.08
398.74	1224.10
398.93	1322.40
399.12	1329.42
399.32	1303.68
399.51	1301.34
399.70	1343.47
399.90	1310.70
400.09	1348.15
400.28	1404.32
400.47	1350.49
400.67	1392.62
400.86	1507.30
401.05	1350.49
401.24	1320.06
401.44	1411.34
401.63	1469.86
401.82	1413.68
402.01	1387.94
402.21	1474.54
402.40	1441.77
402.59	1479.22
402.78	1502.62
402.97	1465.18
403.17	1607.95
403.36	1472.20
403.55	1593.90
403.74	1629.01
403.93	1596.25
404.13	1610.29
404.32	1636.03
404.51	1533.05
404.70	1570.50
404.89	1596.25
405.09	1708.59
405.28	1638.38
405.47	1643.06
405.66	1729.66
405.85	1717.95
406.05	1675.82
406.24	1675.82
406.43	1652.42
406.62	1788.17
406.81	1783.49
407.00	1734.34
407.20	1715.61
407.39	1689.87
407.58	1724.97
407.77	1853.70
407.96	1874.77
408.15	1923.92
408.34	1879.45
408.54	1877.11
408.73	1898.17
408.92	1961.37
409.11	1956.69
409.30	1942.64
409.49	1886.47
409.68	1891.15
409.87	2040.95
410.07	1987.11
410.26	2052.65
410.45	2036.27
410.64	2118.18
410.83	2066.69
411.02	2073.71
411.21	2132.23
411.40	2162.66
411.59	2218.83
411.78	2279.68
411.98	2069.03
412.17	2207.13
412.36	2237.55
412.55	2249.25
412.74	2312.45
412.93	2373.30
413.12	2174.36
413.31	2420.11
413.50	2340.54
413.69	2429.48
413.88	2441.18
414.07	2495.01
414.26	2539.48
414.45	2443.52
414.64	2487.99
414.83	2579.27
415.02	2562.89
415.22	2581.61
415.41	2546.50
415.60	2546.50
415.79	2593.31
415.98	2743.11
416.17	2738.43
416.36	2745.45
416.55	2733.75
416.74	2668.21
416.93	2803.96
417.12	2810.98
417.31	2871.84
417.50	2899.92
417.69	2869.50
417.88	2899.92
418.07	2890.56
418.26	2897.58
418.45	2958.44
418.64	2988.86
418.83	3005.25
419.02	3052.06
419.21	3164.40
419.39	3159.72
419.58	3087.17
419.77	2977.16
419.96	3091.85
420.15	3192.49
420.34	3124.62
420.53	3218.24
420.72	3241.64
420.91	3148.02
421.10	3234.62
421.29	3309.52
421.48	3169.09
421.67	3361.01
421.86	3456.97
422.05	3162.06
422.24	3302.50
422.43	3337.60
422.61	3304.84
422.80	3311.86
422.99	3428.88
423.18	3330.58
423.37	3449.95
423.56	3349.31
423.75	3251.00
423.94	3272.07
424.13	3152.70
424.32	3314.20
424.50	3290.79
424.69	3461.65
424.88	3410.16
425.07	3440.59
425.26	3400.80
425.45	3606.77
425.64	3346.97
425.83	3375.05
426.01	3342.28
426.20	3473.36
426.39	3412.50
426.58	3419.52
426.77	3435.91
426.96	3480.38
427.15	3442.93
427.33	3571.66
427.52	3508.46
427.71	3562.30
427.90	3574.00
428.09	3623.15
428.28	3557.61
428.46	3630.17
428.65	3691.02
428.84	3707.41
429.03	3761.24
429.22	3545.91
429.40	3742.52
429.59	3709.75
429.78	3698.05
429.97	3604.42
430.16	3737.84
430.34	3698.05
430.53	3868.91
430.72	3843.16
430.91	3782.31
431.10	3854.86
431.28	3866.56
431.47	3911.04
431.66	3892.31
431.85	3960.19
432.03	3932.10
432.22	4035.08
432.41	4072.53
432.60	4098.28
432.79	4070.19
432.97	4079.55
433.16	4201.26
433.35	4025.72
433.54	4198.92
433.72	4133.39
433.91	4194.24
434.10	4217.65
434.28	4154.45
434.47	4212.96
434.66	4238.71
434.85	4301.90
435.03	4337.01
435.22	4217.65
435.41	4458.72
435.59	4362.76
435.78	4372.12
435.97	4299.56
436.16	4332.33
436.34	4463.40
436.53	4383.82
436.72	4521.92
436.90	4390.84
437.09	4573.41
437.28	4367.44
437.46	4535.96
437.65	4374.46
437.84	4599.15
438.02	4627.24
438.21	4477.44
438.40	4575.75
438.58	4596.81
438.77	4856.61
438.96	4533.62
439.14	4795.76
439.33	4830.87
439.52	4975.98
439.70	4856.61
439.89	5069.60
440.08	5041.51
440.26	5006.41
440.45	4994.70
440.63	5104.71
440.82	5088.32
441.01	4919.81
441.19	5107.05
441.38	5298.97
441.57	5259.18
441.75	5303.65
441.94	5420.68
442.12	5315.36
442.31	5408.98
442.50	5416.00
442.68	5413.66
442.87	5416.00
443.05	5416.00
443.24	5331.74
443.43	5390.25
443.61	5430.04
443.80	5827.93
443.98	5406.64
444.17	5289.61
444.35	5533.03
444.54	5579.84
444.73	5666.44
444.91	5582.18
445.10	5584.52
445.28	5568.13
445.47	5537.71
445.65	5659.42
445.84	5715.59
446.02	5582.18
446.21	5720.27
446.39	5727.29
446.58	5715.59
446.77	5696.86
446.95	5586.86
447.14	5624.31
447.32	5825.59
447.51	5696.86
447.69	5652.39
447.88	5689.84
448.06	5647.71
448.25	5614.95
448.43	5743.67
448.62	5834.96
448.80	5802.19
448.99	5898.15
449.17	5853.68
449.36	5846.66
449.54	5870.06
449.73	6026.88
449.91	6012.84
450.10	6087.73
450.28	6085.39
450.46	6010.50
450.65	6040.92
450.83	6069.01
451.02	6001.13
451.20	6171.99
451.39	6071.35
451.57	6125.18
451.76	6094.76
451.94	6146.25
452.13	6230.51
452.31	6139.23
452.49	6153.27
452.68	6389.66
452.86	6134.54
453.05	6298.38
453.23	6347.53
453.42	6286.68
453.60	6111.14
453.78	6265.61
453.97	6251.57
454.15	6291.36
454.34	6401.37
454.52	6417.75
454.70	6476.26
454.89	6527.75
455.07	6417.75
455.26	6633.08
455.44	6558.18
455.62	6565.20
455.81	6553.50
455.99	6593.29
456.17	6743.08
456.36	6590.95
456.54	6794.58
456.73	6904.58
456.91	7148.00
457.09	6878.83
457.28	6995.86
457.46	7035.65
457.64	6979.48
457.83	7042.67
458.01	7059.06
458.19	7117.57
458.38	7061.40
458.56	6991.18
458.74	7103.53
458.93	7171.40
459.11	7220.55
459.29	7309.49
459.48	7197.15
459.66	7243.96
459.84	7204.17
460.03	7166.72
460.21	7304.81
460.39	7262.68
460.57	7304.81
460.76	7358.64
460.94	7391.41
461.12	7365.67
461.31	7414.82
461.49	7480.35
461.67	7295.45
461.85	7571.63
462.04	7400.77
462.22	7929.74
462.40	7873.56
462.59	7573.97
462.77	7531.84
462.95	7536.52
463.13	7630.15
463.32	7789.30
463.50	7801.01
463.68	7817.39
463.86	7946.12
464.05	7578.65
464.23	7810.37
464.41	7777.60
464.59	7815.05
464.78	8081.87
464.96	8018.68
465.14	7803.35
465.32	7845.48
465.50	7957.82
465.69	8088.89
465.87	7981.23
466.05	8009.31
466.23	7899.31
466.41	8166.13
466.60	8292.52
466.78	8138.04
466.96	7913.35
467.14	8212.94
467.32	8210.60
467.51	8463.38
467.69	7997.61
467.87	8327.63
468.05	8496.14
468.23	8379.12
468.41	8243.37
468.60	8248.05
468.78	8491.46
468.96	8262.09
469.14	8519.55
469.32	8470.40
469.50	8166.13
469.69	8542.96
469.87	8631.90
470.05	8578.06
470.23	8608.49
470.41	8671.68
470.59	8868.29
470.77	8648.28
470.95	8692.75
471.14	8926.80
471.32	8732.54
471.50	8954.89
471.68	8957.23
471.86	8863.61
472.04	9092.98
472.22	9083.62
472.40	9029.79
472.58	9060.21
472.77	9404.27
472.95	9263.84
473.13	9729.61
473.31	9334.06
473.49	9392.57
473.67	9186.60
473.85	9427.68
474.03	9610.24
474.21	9568.11
474.39	9771.74
474.57	9767.06
474.75	9682.80
474.93	9785.78
475.12	9933.23
475.30	10022.17
475.48	9818.55
475.66	9944.94
475.84	10029.20
476.02	10104.09
476.20	10195.37
476.38	10331.12
476.56	10370.91
476.74	10389.64
476.92	10326.44
477.10	10284.31
477.28	10579.22
477.46	10438.79
477.64	10665.82
477.82	10693.91
478.00	11014.56
478.18	11009.88
478.36	11183.08
478.54	11433.52
478.72	11274.36
478.90	11527.14
479.08	11698.00
479.26	11576.29
479.44	11435.86
479.62	11756.51
479.80	11611.40
479.98	11990.56
480.16	12011.63
480.34	12140.36
480.52	12194.19
480.70	12343.99
480.88	11997.59
481.06	12205.89
481.24	12238.66
481.41	12332.28
481.59	12697.41
481.77	12463.35
481.95	12620.17
482.13	12706.77
482.31	12781.67
482.49	13202.96
482.67	13008.70
482.85	13298.92
483.03	13731.92
483.21	13488.51
483.39	13603.19
483.57	13575.11
483.74	13671.07
483.92	13991.72
484.10	13813.84
484.28	14298.33
484.46	14422.38
484.64	14733.67
484.82	14258.54
485.00	14675.16
485.18	14712.61
485.35	15169.01
485.53	14602.60
485.71	14836.66
485.89	14998.15
486.07	15105.82
486.25	15260.29
486.43	15337.53
486.61	15510.73
486.78	15641.80
486.96	15536.48
487.14	15796.28
487.32	16063.10
487.50	15978.84
487.68	16203.53
487.85	16198.85
488.03	16608.44
488.21	16739.51
488.39	16943.14
488.57	17055.48
488.75	16919.73
488.92	17308.26
489.10	17315.28
489.28	17289.54
489.46	17661.68
489.64	17376.14
489.81	17884.03
489.99	17586.79
490.17	17994.04
490.35	18150.85
490.53	18307.67
490.70	18679.82
490.88	18277.24
491.06	18539.38
491.24	18747.69
491.41	18876.42
491.59	18984.09
491.77	18885.78
491.95	19087.07
492.13	19410.06
492.30	19562.20
492.48	19601.99
492.66	19524.75
492.84	19782.21
493.01	19955.41
493.19	20004.56
493.37	19845.40
493.54	20184.78
493.72	20500.75
493.90	20189.46
494.08	20655.23
494.25	20915.03
494.43	20891.62
494.61	20821.41
494.79	20966.52
494.96	20912.69
495.14	21294.19
495.32	21474.42
495.49	21287.17
495.67	21425.26
495.85	22010.40
496.02	21795.07
496.20	22363.82
496.38	22178.92
496.55	22445.74
496.73	22583.83
496.91	22696.17
497.09	22635.32
497.26	22808.52
497.44	23056.62
497.62	22604.89
497.79	23119.81
497.97	23037.89
498.14	23168.96
498.32	23601.96
498.50	23435.78
498.67	23470.89
498.85	23674.52
499.03	23716.65
499.20	24039.64
499.38	23894.53
499.56	24397.74
499.73	24114.54
499.91	24205.82
500.08	24694.99
500.26	24250.29
500.44	24400.08
500.61	24493.71
500.79	24889.26
500.97	24737.12
501.14	25135.01
501.32	25088.20
501.49	24856.49
501.67	25340.98
501.84	25319.92
502.02	25355.02
502.20	25284.81
502.37	25139.69
502.55	25656.95
502.72	25785.68
502.90	25692.06
503.07	25357.36
503.25	25666.31
503.43	25752.91
503.60	26022.08
503.78	26101.65
503.95	26052.50
504.13	26171.87
504.30	26408.26
504.48	26270.17
504.65	26462.10
504.83	27061.27
505.01	27192.34
505.18	26698.49
505.36	27190.00
505.53	26717.22
505.71	26829.56
505.88	27227.45
506.06	26986.38
506.23	26991.06
506.41	27461.51
506.58	27351.50
506.76	27470.87
506.93	27758.75
507.11	27807.90
507.28	27917.91
507.46	27859.40
507.63	27938.97
507.81	28350.91
507.98	27922.59
508.16	28283.03
508.33	28315.80
508.50	28416.44
508.68	28250.27
508.85	28669.22
509.03	28360.27
509.20	28807.31
509.38	28830.72
509.55	28943.06
509.73	29029.66
509.90	29170.10
510.08	29125.63
510.25	29282.44
510.42	29235.63
510.60	29378.40
510.77	29340.96
510.95	29879.28
511.12	29535.22
511.30	29792.68
511.47	29883.96
511.64	30054.82
511.82	30012.69
511.99	30000.99
512.17	30146.10
512.34	30387.18
512.51	30450.37
512.69	30623.57
512.86	30661.02
513.04	30967.63
513.21	30698.47
513.38	30654.00
513.56	30527.61
513.73	30822.51
513.90	30672.72
514.08	30539.31
514.25	31431.05
514.43	31232.11
514.60	31374.88
514.77	30988.69
514.95	31552.76
515.12	31285.94
515.29	31440.42
515.47	31751.71
515.64	31955.33
515.81	31735.32
515.99	31992.78
516.16	32158.96
516.33	31997.46
516.51	32425.78
516.68	31985.76
516.85	31997.46
517.03	32421.10
517.20	32238.54
517.37	32617.71
517.54	32428.12
517.72	32505.36
517.89	32601.32
518.06	32835.38
518.24	32591.96
518.41	32837.72
518.58	33017.94
518.75	32886.87
518.93	33113.90
519.10	32961.76
519.27	33118.58
519.45	33263.69
519.62	33153.69
519.79	33518.81
519.96	33315.19
520.14	33837.12
520.31	33149.01
520.48	33331.57
520.65	33701.37
520.83	34087.56
521.00	33998.62
521.17	34015.01
521.34	34026.71
521.52	34167.14
521.69	34227.99
521.86	34466.73
522.03	34649.29
522.20	34712.49
522.38	34672.70
522.55	34424.60
522.72	34763.98
522.89	34780.36
523.07	35180.59
523.24	34738.23
523.41	34871.64
523.58	35072.93
523.75	35325.71
523.92	35122.08
524.10	35208.68
524.27	35386.56
524.44	35386.56
524.61	35374.86
524.78	35587.85
524.96	35615.93
525.13	35578.48
525.30	35938.93
525.47	35629.98
525.64	35662.74
525.81	35842.96
525.98	35697.85
526.16	35831.26
526.33	35765.73
526.50	35857.01
526.67	35894.46
526.84	36182.34
527.01	36030.21
527.18	36273.62
527.36	36095.74
527.53	36699.60
527.70	36882.16
527.87	36313.41
528.04	36201.07
528.21	36760.45
528.38	36364.90
528.55	36563.85
528.72	36636.41
528.89	37324.52
529.07	36891.52
529.24	36582.57
529.41	37230.90
529.58	37331.54
529.75	36589.59
529.92	37242.60
530.09	36912.59
530.26	36931.31
530.43	37589.00
530.60	37212.18
530.77	37413.46
530.94	37462.61
531.11	37322.18
531.28	37448.57
531.46	37858.17
531.63	37785.61
531.80	37888.59
531.97	37708.37
532.14	37589.00
532.31	38000.94
532.48	38302.87
532.65	38052.43
532.82	38068.81
532.99	38150.73
533.16	37926.04
533.33	38220.95
533.50	38059.45
533.67	38134.35
533.84	38162.43
534.01	38274.78
534.18	38525.22
534.35	38623.52
534.52	39150.14
534.69	38822.47
534.86	38852.89
535.03	38675.01
535.20	39241.42
535.37	39021.41
535.54	39086.95
535.71	39084.61
535.88	39384.19
536.05	39084.61
536.22	39533.99
536.38	38953.54
536.55	39042.48
536.72	39047.16
536.89	39384.19
537.06	39304.62
537.23	39482.50
537.40	39494.20
537.57	39351.43
537.74	39775.06
537.91	40149.55
538.08	39639.31
538.25	39721.23
538.42	39749.32
538.59	40086.36
538.75	39515.26
538.92	40280.62
539.09	40271.26
539.26	39826.56
539.43	40182.32
539.60	40149.55
539.77	40147.21
539.94	40435.10
540.11	40046.57
540.28	40526.38
540.44	40776.81
540.61	40301.68
540.78	40275.94
540.95	40425.73
541.12	40465.52
541.29	40404.67
541.46	40329.77
541.62	40598.93
541.79	41254.28
541.96	40500.63
542.13	40285.30
542.30	40825.96
542.47	41013.21
542.63	40734.68
542.80	41352.58
542.97	41666.22
543.14	41212.15
543.31	41406.42
543.48	41467.27
543.64	41947.08
543.81	41478.97
543.98	41221.52
544.15	41701.32
544.32	41560.89
544.48	42230.29
544.65	41982.19
544.82	41869.84
544.99	41378.33
545.16	41780.90
545.32	41893.25
545.49	42127.30
545.66	42356.67
545.83	42504.13
546.00	42129.64
546.16	42099.22
546.33	42241.99
546.50	41979.85
546.67	42373.06
546.83	42099.22
547.00	42089.85
547.17	42021.98
547.34	42459.66
547.50	42611.79
547.67	42911.38
547.84	42726.48
548.00	42892.66
548.17	42836.48
548.34	43063.52
548.51	43093.94
548.67	42993.30
548.84	42148.37
549.01	42733.50
549.18	42527.53
549.34	42593.07
549.51	43292.89
549.68	43047.13
549.84	43005.00
550.01	43065.86
550.18	42777.97
550.34	42801.38
550.51	43356.08
550.68	43145.44
550.84	42948.83
551.01	43540.99
551.18	43220.33
551.34	43019.05
551.51	43430.98
551.68	43035.43
551.84	43119.69
552.01	43381.83
552.18	43540.99
552.34	43372.47
552.51	43316.29
552.68	43339.70
552.84	43201.61
553.01	43398.21
553.18	43697.80
553.34	44292.30
553.51	43646.31
553.67	43758.66
553.84	44217.40
554.01	44222.08
554.17	43711.84
554.34	44062.93
554.51	44395.28
554.67	44334.43
554.84	44243.15
555.00	43615.88
555.17	44018.46
555.33	44126.12
555.50	44208.04
555.67	44081.65
555.83	44481.88
556.00	44030.16
556.16	44416.35
556.33	44348.47
556.50	44409.32
556.66	44516.99
556.83	43845.26
556.99	44484.22
557.16	44755.72
557.32	44641.04
557.49	44917.22
557.65	44093.35
557.82	44458.48
557.98	44650.40
558.15	44774.45
558.32	44737.00
558.48	44458.48
558.65	44638.70
558.81	44648.06
558.98	44591.89
559.14	44725.30
559.31	44879.77
559.47	44879.77
559.64	45277.66
559.80	44765.09
559.97	45329.16
560.13	44673.81
560.30	45401.71
560.46	45350.22
560.63	45488.31
560.79	44889.13
560.96	45364.26
561.12	45469.59
561.29	45434.48
561.45	45689.60
561.61	45385.33
561.78	44905.52
561.94	45097.44
562.11	44837.64
562.27	45237.87
562.44	45364.26
562.60	45731.73
562.77	45268.30
562.93	45284.68
563.10	45275.32
563.26	45097.44
563.42	45811.31
563.59	45275.32
563.75	45567.89
563.92	45230.85
564.08	45579.59
564.24	45703.64
564.41	45848.75
564.57	45617.04
564.74	45563.21
564.90	45317.45
565.07	45731.73
565.23	45837.05
565.39	45624.06
565.56	45654.49
565.72	45464.91
565.88	45759.81
566.05	45670.87
566.21	45516.40
566.38	45904.93
566.54	46110.89
566.70	45607.68
566.87	46288.77
567.03	45680.24
567.19	45949.40
567.36	46108.55
567.52	45940.04
567.68	46036.00
567.85	45818.33
568.01	45872.16
568.17	45528.10
568.34	46162.39
568.50	45797.26
568.66	45757.47
568.83	46146.00
568.99	46101.53
569.15	45860.46
569.32	46075.79
569.48	46115.58
569.64	46237.28
569.81	46164.73
569.97	46171.75
570.13	46351.97
570.30	45855.78
570.46	46134.30
570.62	46478.36
570.78	46043.02
570.95	46085.15
571.11	46349.63
571.27	46508.79
571.43	46417.50
571.60	46094.51
571.76	45984.51
571.92	46204.52
572.09	46021.95
572.25	46265.37
572.41	46108.55
572.57	45911.95
572.74	46733.48
572.90	46209.20
573.06	46564.96
573.22	46698.37
573.38	46412.82
573.55	46127.28
573.71	46848.16
573.87	46492.40
574.03	46298.14
574.20	46995.62
574.36	46501.76
574.52	46670.28
574.68	46223.24
574.84	46490.06
575.01	46756.88
575.17	46600.07
575.33	46574.32
575.49	46501.76
575.65	46548.57
575.82	46953.49
575.98	46464.32
576.14	46686.67
576.30	46822.42
576.46	46527.51
576.62	46789.65
576.79	46836.46
576.95	45860.46
577.11	46443.25
577.27	46841.14
577.43	46478.36
577.59	46419.84
577.75	46504.10
577.92	46305.16
578.08	46602.41
578.24	46513.47
578.40	46621.13
578.56	46845.82
578.72	46499.42
578.88	46660.92
579.04	46574.32
579.21	46618.79
579.37	46597.73
579.53	46719.43
579.69	46586.02
579.85	46590.70
580.01	46628.15
580.17	46756.88
580.33	46775.61
580.49	46555.60
580.65	46761.56
580.82	46965.19
580.98	46794.33
581.14	46738.16
581.30	46557.94
581.46	46562.62
581.62	46440.91
581.78	46681.98
581.94	46752.20
582.10	46677.30
582.26	46724.11
582.42	46677.30
582.58	46461.97
582.74	46946.47
582.90	47054.13
583.06	47079.88
583.22	46464.32
583.38	46759.22
583.54	46920.72
583.70	46581.34
583.86	47243.71
584.02	47175.84
584.18	46834.12
584.34	47590.11
584.50	47208.61
584.66	47306.91
584.82	46770.93
584.98	47250.74
585.14	46993.28
585.30	46885.61
585.46	46600.07
585.62	46721.77
585.78	47033.07
585.94	46506.44
586.10	47040.09
586.26	46820.08
586.42	46803.69
586.58	46838.80
586.74	46946.47
586.90	46878.59
587.06	47056.47
587.22	47110.30
587.38	46670.28
587.54	47096.26
587.70	46993.28
587.86	47140.73
588.02	46766.24
588.18	46686.67
588.34	46726.46
588.49	47119.66
588.65	47166.48
588.81	46827.10
588.97	47161.79
589.13	47075.19
589.29	47255.42
589.45	47283.50
589.61	47274.14
589.77	47349.04
589.93	47367.76
