SpectraSuite Data File
++++++++++++++++++++++++++++++++++++
Date: Fri Oct 25 11:26:19 EDT 2013
User: price-jones
Dark Spectrum Present: No
Reference Spectrum Present: No
Number of Sampled Component Spectra: 1
Spectrometers: USB2+H05261
Integration Time (usec): 100000 (USB2+H05261)
Spectra Averaged: 1 (USB2+H05261)
Boxcar Smoothing: 0 (USB2+H05261)
Correct for Electrical Dark: No (USB2+H05261)
Strobe/Lamp Enabled: No (USB2+H05261)
Correct for Detector Non-linearity: No (USB2+H05261)
Correct for Stray Light: No (USB2+H05261)
Number of Pixels in Processed Spectrum: 2048
>>>>>Begin Processed Spectral Data<<<<<
365.73	255.12
365.92	255.12
366.12	255.12
366.32	194.26
366.52	191.92
366.72	170.86
366.91	112.35
367.11	175.54
367.31	79.58
367.51	131.07
367.70	191.92
367.90	131.07
368.10	147.45
368.30	159.16
368.49	182.56
368.69	107.66
368.89	135.75
369.09	112.35
369.28	166.18
369.48	180.22
369.68	198.95
369.87	208.31
370.07	124.05
370.27	283.20
370.47	395.55
370.66	528.96
370.86	641.31
371.06	615.56
371.25	713.86
371.45	688.12
371.65	671.73
371.84	683.44
372.04	758.33
372.24	734.93
372.44	746.63
372.63	723.23
372.83	781.74
373.03	755.99
373.22	727.91
373.42	718.54
373.62	781.74
373.81	699.82
374.01	929.19
374.21	734.93
374.40	763.01
374.60	854.30
374.79	791.10
374.99	821.53
375.19	793.44
375.38	868.34
375.58	905.79
375.78	854.30
375.97	875.36
376.17	844.93
376.37	966.64
376.56	915.15
376.76	847.27
376.95	940.90
377.15	882.38
377.35	917.49
377.54	894.08
377.74	976.00
377.93	947.92
378.13	947.92
378.33	870.68
378.52	990.05
378.72	854.30
378.91	926.85
379.11	926.85
379.31	943.24
379.50	997.07
379.70	968.98
379.89	1053.24
380.09	950.26
380.28	917.49
380.48	926.85
380.68	1029.84
380.87	1001.75
381.07	961.96
381.26	990.05
381.46	1004.09
381.65	1039.20
381.85	1029.84
382.04	1015.79
382.24	1104.73
382.43	1144.52
382.63	1053.24
382.83	1053.24
383.02	1111.75
383.22	1151.54
383.41	1165.59
383.61	1093.03
383.80	1245.16
384.00	1097.71
384.19	1095.37
384.39	1090.69
384.58	1083.67
384.78	1095.37
384.97	1214.74
385.17	1181.97
385.36	1167.93
385.56	1165.59
385.75	1212.40
385.95	1114.10
386.14	1163.25
386.34	1245.16
386.53	1174.95
386.72	1177.29
386.92	1299.00
387.11	1268.57
387.31	1296.66
387.50	1254.53
387.70	1196.01
387.89	1350.49
388.09	1313.04
388.28	1240.48
388.48	1240.48
388.67	1320.06
388.86	1242.82
389.06	1411.34
389.25	1401.98
389.45	1390.28
389.64	1210.06
389.84	1373.89
390.03	1401.98
390.22	1348.15
390.42	1387.94
390.61	1451.13
390.81	1392.62
391.00	1362.19
391.19	1373.89
391.39	1359.85
391.58	1488.58
391.78	1500.28
391.97	1446.45
392.16	1486.24
392.36	1511.99
392.55	1497.94
392.75	1551.78
392.94	1469.86
393.13	1570.50
393.33	1563.48
393.52	1533.05
393.71	1664.12
393.91	1575.18
394.10	1673.48
394.29	1551.78
394.49	1537.73
394.68	1713.27
394.88	1673.48
395.07	1706.25
395.26	1561.14
395.46	1671.14
395.65	1706.25
395.84	1732.00
396.04	1746.04
396.23	1717.95
396.42	1652.42
396.62	1783.49
396.81	1692.21
397.00	1863.07
397.19	1839.66
397.39	1685.19
397.58	1874.77
397.77	1778.81
397.97	1811.57
398.16	1928.60
398.35	1963.71
398.55	1837.32
398.74	1860.73
398.93	1863.07
399.12	1818.60
399.32	1886.47
399.51	1891.15
399.70	1923.92
399.90	1930.94
400.09	2062.01
400.28	2111.16
400.47	2026.90
400.67	2064.35
400.86	1959.03
401.05	2050.31
401.24	2092.44
401.44	2099.46
401.63	2122.87
401.82	2174.36
402.01	2125.21
402.21	2157.97
402.40	2223.51
402.59	2087.76
402.78	2136.91
402.97	2307.77
403.17	2165.00
403.36	2246.91
403.55	2165.00
403.74	2239.89
403.93	2270.32
404.13	2373.30
404.32	2333.51
404.51	2321.81
404.70	2415.43
404.89	2319.47
405.09	2513.74
405.28	2422.45
405.47	2427.14
405.66	2445.86
405.85	2569.91
406.05	2555.86
406.24	2480.97
406.43	2649.49
406.62	2560.55
406.81	2642.46
407.00	2567.57
407.20	2595.65
407.39	2558.21
407.58	2708.00
407.77	2754.81
407.96	2691.62
408.15	2750.13
408.34	2757.15
408.54	2818.00
408.73	2726.72
408.92	2719.70
409.11	2794.60
409.30	2827.37
409.49	2780.56
409.68	2766.51
409.87	2986.52
410.07	3049.72
410.26	3038.02
410.45	3009.93
410.64	3005.25
410.83	3110.57
411.02	3087.17
411.21	3215.90
411.40	3040.36
411.59	3138.66
411.78	3194.83
411.98	3262.71
412.17	3190.15
412.36	3258.03
412.55	3391.44
412.74	3353.99
412.93	3421.86
413.12	3398.46
413.31	3578.68
413.50	3590.38
413.69	3438.25
413.88	3531.87
414.07	3599.74
414.26	3625.49
414.45	3859.54
414.64	3754.22
414.83	3761.24
415.02	3791.67
415.22	3829.12
415.41	3995.29
415.60	3941.46
415.79	3777.62
415.98	3964.87
416.17	3948.48
416.36	4009.34
416.55	3859.54
416.74	4238.71
416.93	3964.87
417.12	4014.02
417.31	4121.68
417.50	4100.62
417.69	4241.05
417.88	4294.88
418.07	4245.73
418.26	4210.62
418.45	4498.51
418.64	4528.94
418.83	4479.79
419.02	4461.06
419.21	4589.79
419.39	4561.70
419.58	4447.02
419.77	4428.29
419.96	4585.11
420.15	4566.39
420.34	4667.03
420.53	4683.41
420.72	4634.26
420.91	4695.11
421.10	4718.52
421.29	4741.93
421.48	4697.46
421.67	4968.96
421.86	4814.48
422.05	4840.23
422.24	4807.46
422.43	4615.54
422.61	4830.87
422.80	4891.72
422.99	4833.21
423.18	4929.17
423.37	4931.51
423.56	4929.17
423.75	4709.16
423.94	4748.95
424.13	4578.09
424.32	4676.39
424.50	5104.71
424.69	5163.22
424.88	5095.35
425.07	4966.62
425.26	4807.46
425.45	4945.55
425.64	4952.57
425.83	4856.61
426.01	5069.60
426.20	5022.79
426.39	5036.83
426.58	4985.34
426.77	5043.85
426.96	5104.71
427.15	5118.75
427.33	5247.48
427.52	5188.97
427.71	5324.72
427.90	5284.93
428.09	5289.61
428.28	5352.81
428.46	5355.15
428.65	5277.91
428.84	5549.41
429.03	5502.60
429.22	5287.27
429.40	5453.45
429.59	5448.77
429.78	5322.38
429.97	5308.34
430.16	5586.86
430.34	5554.09
430.53	5729.63
430.72	5724.95
430.91	5547.07
431.10	5659.42
431.28	5776.44
431.47	5909.85
431.66	5849.00
431.85	5577.50
432.03	5996.45
432.22	5959.00
432.41	5916.87
432.60	5989.43
432.79	5870.06
432.97	6085.39
433.16	6101.78
433.35	5891.13
433.54	5975.39
433.72	6054.97
433.91	5982.41
434.10	6153.27
434.28	6087.73
434.47	6078.37
434.66	6111.14
434.85	6211.78
435.03	6387.32
435.22	6282.00
435.41	6544.14
435.59	6282.00
435.78	6457.54
435.97	6494.99
436.16	6342.85
436.34	6408.39
436.53	6361.58
436.72	6492.65
436.90	6448.18
437.09	6707.98
437.28	6459.88
437.46	6574.56
437.65	6532.44
437.84	6899.90
438.02	6621.38
438.21	6717.34
438.40	6647.12
438.58	7091.82
438.77	6993.52
438.96	7073.10
439.14	7037.99
439.33	7096.50
439.52	7293.11
439.70	7220.55
439.89	7370.35
440.08	7456.95
440.26	7346.94
440.45	7447.58
440.63	7379.71
440.82	7644.19
441.01	7339.92
441.19	7597.38
441.38	7658.23
441.57	7723.77
441.75	7630.15
441.94	7772.92
442.12	7875.90
442.31	7901.65
442.50	7903.99
442.68	7948.46
442.87	8072.51
443.05	8100.59
443.24	8023.36
443.43	8168.47
443.61	8210.60
443.80	8416.57
443.98	8042.08
444.17	7784.62
444.35	8285.50
444.54	8189.53
444.73	8051.44
444.91	8168.47
445.10	8271.45
445.28	8552.32
445.47	8238.69
445.65	8320.60
445.84	8545.30
446.02	8496.14
446.21	8397.84
446.39	8482.10
446.58	8552.32
446.77	8554.66
446.95	8294.86
447.14	8514.87
447.32	8552.32
447.51	8439.97
447.69	8526.57
447.88	8519.55
448.06	8285.50
448.25	8498.49
448.43	8517.21
448.62	8779.35
448.80	8528.91
448.99	8622.53
449.17	8842.54
449.36	8688.07
449.54	8901.06
449.73	8919.78
449.91	8997.02
450.10	8990.00
450.28	9029.79
450.46	9228.73
450.65	9074.26
450.83	9107.02
451.02	9137.45
451.20	9385.55
451.39	8964.25
451.57	9142.13
451.76	9015.74
451.94	9081.28
452.13	9270.86
452.31	9455.76
452.49	9158.52
452.68	9245.12
452.86	9214.69
453.05	9415.98
453.23	9465.13
453.42	9001.70
453.60	9341.08
453.78	9596.20
453.97	9465.13
454.15	9596.20
454.34	9366.82
454.52	9781.10
454.70	9806.84
454.89	9661.73
455.07	9748.33
455.26	9694.50
455.44	9966.00
455.62	9769.40
455.81	9951.96
455.99	9891.10
456.17	10026.86
456.36	9970.68
456.54	10099.41
456.73	10335.81
456.91	10328.78
457.09	10373.25
457.28	10595.61
457.46	10466.88
457.64	10352.19
457.83	10471.56
458.01	10469.22
458.19	10558.16
458.38	10649.44
458.56	10611.99
458.74	10586.24
458.93	10487.94
459.11	10649.44
459.29	10902.22
459.48	10778.17
459.66	10813.28
459.84	10848.38
460.03	10956.05
460.21	10857.75
460.39	10885.83
460.57	10998.18
460.76	11103.50
460.94	11066.05
461.12	11171.38
461.31	11012.22
461.49	11173.72
461.67	11412.45
461.85	11669.91
462.04	11281.38
462.22	11700.34
462.40	11660.55
462.59	11576.29
462.77	11501.39
462.95	11742.47
463.13	11597.35
463.32	11527.14
463.50	11859.49
463.68	11798.64
463.86	11740.13
464.05	11861.84
464.23	11737.79
464.41	11815.02
464.59	11789.28
464.78	12088.87
464.96	12142.70
465.14	11819.71
465.32	11960.14
465.50	12091.21
465.69	12084.19
465.87	11751.83
466.05	12074.82
466.23	12416.54
466.41	11920.35
466.60	12369.73
466.78	12072.48
466.96	12070.14
467.14	12074.82
467.32	12358.03
467.51	12526.55
467.69	12100.57
467.87	12271.43
468.05	12463.35
468.23	12564.00
468.41	12498.46
468.60	12421.22
468.78	12636.55
468.96	12428.24
469.14	12800.39
469.32	12905.71
469.50	12634.21
469.69	12833.16
469.87	13170.19
470.05	13004.02
470.23	12957.21
470.41	13081.25
470.59	13238.07
470.77	12985.29
470.95	13434.68
471.14	13390.20
471.32	13298.92
471.50	13579.79
471.68	13481.49
471.86	13523.62
472.04	13755.33
472.22	13984.70
472.40	13589.15
472.58	13811.50
472.77	13914.48
472.95	14164.92
473.13	14520.68
473.31	14043.21
473.49	14193.01
473.67	14209.39
473.85	14085.34
474.03	14843.68
474.21	14640.05
474.39	14717.29
474.57	14607.28
474.75	14899.85
474.93	15070.71
475.12	14876.44
475.30	15239.23
475.48	15138.58
475.66	15087.09
475.84	15316.47
476.02	15253.27
476.20	15309.44
476.38	15735.42
476.56	15985.86
476.74	15838.41
476.92	15910.96
477.10	15805.64
477.28	16297.15
477.46	16348.64
477.64	16301.83
477.82	16493.76
478.00	16851.86
478.18	16877.60
478.36	16641.21
478.54	17015.69
478.72	17165.49
478.90	17563.38
479.08	17535.29
479.26	17568.06
479.44	17586.79
479.62	17778.71
479.80	18127.45
479.98	18043.19
480.16	18743.01
480.34	18031.49
480.52	18368.52
480.70	18317.03
480.88	18108.72
481.06	18625.98
481.24	18778.12
481.41	18857.70
481.59	19389.00
481.77	19545.81
481.95	19426.45
482.13	19555.18
482.31	19803.27
482.49	20365.00
482.67	20208.19
482.85	20355.64
483.03	20659.91
483.21	20746.51
483.39	20809.70
483.57	20912.69
483.74	20924.39
483.92	21319.94
484.10	21301.22
484.28	21788.05
484.46	22036.14
484.64	22415.31
484.82	22010.40
485.00	22178.92
485.18	22284.24
485.35	22773.41
485.53	22714.90
485.71	23133.86
485.89	23601.96
486.07	23180.67
486.25	23690.90
486.43	23358.55
486.61	23915.59
486.78	23999.85
486.96	24187.10
487.14	24486.68
487.32	24669.25
487.50	24748.82
487.68	24816.70
487.85	25233.32
488.03	25340.98
488.21	25551.63
488.39	25642.91
488.57	25666.31
488.75	26256.13
488.92	26253.79
489.10	26581.46
489.28	26773.39
489.46	27356.18
489.64	27117.45
489.81	27529.38
489.99	27517.68
490.17	27868.76
490.35	27920.25
490.53	28088.77
490.70	28187.07
490.88	28257.29
491.06	28900.94
491.24	28547.51
491.41	29310.53
491.59	28975.83
491.77	29591.39
491.95	29748.21
492.13	29612.46
492.30	29633.52
492.48	29902.68
492.66	30047.80
492.84	30153.12
493.01	30129.72
493.19	30450.37
493.37	30820.17
493.54	30911.46
493.72	31192.32
493.90	31641.70
494.08	31962.36
494.25	31948.31
494.43	31962.36
494.61	31835.97
494.79	32196.41
494.96	32573.24
495.14	32451.53
495.32	33118.58
495.49	33036.66
495.67	33092.83
495.85	33514.13
496.02	33401.79
496.20	33769.25
496.38	33998.62
496.55	33837.12
496.73	34630.57
496.91	34831.85
497.09	34518.22
497.26	34897.39
497.44	34602.48
497.62	35250.81
497.79	35503.59
497.97	35332.73
498.14	35952.97
498.32	35945.95
498.50	36222.13
498.67	36334.48
498.85	36765.14
499.03	36362.56
499.20	36767.48
499.38	36903.23
499.56	36947.70
499.73	36847.05
499.91	36959.40
500.08	37530.49
500.26	37193.45
500.44	37413.46
500.61	37809.01
500.79	37888.59
500.97	38059.45
501.14	38108.60
501.32	38066.47
501.49	38700.76
501.67	38190.52
501.84	38347.34
502.02	38899.70
502.20	38462.02
502.37	39313.98
502.55	39040.14
502.72	38960.56
502.90	39494.20
503.07	39501.22
503.25	39913.16
503.43	39988.05
503.60	39440.37
503.78	40018.48
503.95	40194.02
504.13	40189.34
504.30	40711.28
504.48	40608.29
504.65	40739.36
504.83	40849.37
505.01	41399.40
505.18	41317.48
505.36	41406.42
505.53	41291.73
505.71	41378.33
505.88	41450.89
506.06	41516.42
506.23	41539.83
506.41	41853.46
506.58	42054.75
506.76	42089.85
506.93	42258.37
507.11	42321.57
507.28	42359.02
507.46	42672.65
507.63	42686.69
507.81	43229.69
507.98	42770.95
508.16	42820.10
508.33	43372.47
508.50	43072.88
508.68	43283.53
508.85	43632.27
509.03	43672.06
509.20	43709.50
509.38	43892.07
509.55	44406.98
509.73	44236.12
509.90	44182.29
510.08	44247.83
510.25	44737.00
510.42	44446.77
510.60	44568.48
510.77	45223.83
510.95	45509.38
511.12	44884.45
511.30	44996.80
511.47	45205.11
511.64	45275.32
511.82	45907.27
511.99	45560.87
512.17	45940.04
512.34	45715.34
512.51	46342.61
512.69	46223.24
512.86	46241.96
513.04	46504.10
513.21	46431.55
513.38	46663.26
513.56	46670.28
513.73	46600.07
513.90	46513.47
514.08	46300.48
514.25	47173.50
514.43	47002.64
514.60	46813.05
514.77	47213.29
514.95	47433.30
515.12	47253.08
515.29	47566.71
515.47	47842.89
515.64	47812.46
515.81	47875.66
515.99	48212.70
516.16	48102.69
516.33	48292.27
516.51	48432.71
516.68	48030.13
516.85	48442.07
517.03	48949.96
517.20	48619.95
517.37	48563.78
517.54	48360.15
517.72	48814.21
517.89	49092.74
518.06	49298.70
518.24	48736.98
518.41	49113.80
518.58	49179.34
518.75	48968.69
518.93	49558.50
519.10	49317.43
519.27	49600.63
519.45	49558.50
519.62	49687.23
519.79	49771.49
519.96	50028.95
520.14	50138.96
520.31	50028.95
520.48	50328.54
520.65	50440.89
520.83	50459.61
521.00	50649.19
521.17	50483.01
521.34	50639.83
521.52	50719.41
521.69	50597.70
521.86	50693.66
522.03	50958.14
522.20	51353.69
522.38	51178.15
522.55	51377.10
522.72	51063.47
522.89	51327.95
523.07	51437.95
523.24	51475.40
523.41	51180.49
523.58	51049.42
523.75	52207.99
523.92	51484.76
524.10	51852.23
524.27	52055.85
524.44	51859.25
524.61	52027.77
524.78	51990.32
524.96	52020.75
525.13	52224.37
525.30	52420.98
525.47	52612.90
525.64	52280.55
525.81	52397.57
525.98	52346.08
526.16	52350.76
526.33	52519.28
526.50	52657.37
526.67	52715.89
526.84	52917.17
527.01	52898.45
527.18	53006.11
527.36	52825.89
527.53	52781.42
527.70	53530.39
527.87	53169.95
528.04	53036.54
528.21	53373.58
528.38	53146.54
528.55	53392.30
528.72	53462.52
528.89	53205.06
529.07	53242.51
529.24	53176.97
529.41	53682.53
529.58	53696.57
529.75	53315.06
529.92	53586.57
530.09	53619.33
530.26	53715.29
530.43	53888.49
530.60	53804.24
530.77	53668.48
530.94	53961.05
531.11	53900.20
531.28	54059.35
531.46	54227.87
531.63	54141.27
531.80	53954.03
531.97	54401.07
532.14	54262.98
532.31	54232.55
532.48	54494.69
532.65	54408.09
532.82	54344.90
532.99	54857.48
533.16	54511.08
533.33	54637.47
533.50	54965.14
533.67	54705.34
533.84	54478.31
534.01	54843.43
534.18	54733.43
534.35	55084.51
534.52	55035.36
534.69	55224.94
534.86	55194.51
535.03	54901.95
535.20	55107.91
535.37	55264.73
535.54	55171.11
535.71	55178.13
535.88	55498.78
536.05	55297.50
536.22	55728.16
536.38	55447.29
536.55	55395.80
536.72	55585.38
536.89	55475.38
537.06	55573.68
537.23	55716.45
537.40	55395.80
537.57	55725.81
537.74	55517.51
537.91	55842.84
538.08	55688.37
538.25	55629.85
538.42	55700.07
538.59	55983.27
538.75	55861.57
538.92	55812.41
539.09	56128.39
539.26	55896.67
539.43	55899.01
539.60	55962.21
539.77	56112.00
539.94	56512.23
540.11	56119.02
540.28	56512.23
540.44	56144.77
540.61	56406.91
540.78	56385.85
540.95	56418.61
541.12	56402.23
541.29	56355.42
541.46	56289.88
541.62	56435.00
541.79	56537.98
541.96	56484.15
542.13	56385.85
542.30	56626.92
542.47	56863.32
542.63	56802.46
542.80	56671.39
542.97	57095.03
543.14	57167.58
543.31	57069.28
543.48	57209.71
543.64	57464.83
543.81	57317.38
543.98	57186.31
544.15	57123.11
544.32	57155.88
544.48	57291.63
544.65	57401.64
544.82	57455.47
544.99	57057.58
545.16	57139.50
545.32	57296.31
545.49	57680.16
545.66	57504.62
545.83	57574.84
546.00	57778.46
546.16	57602.92
546.33	57425.04
546.50	57457.81
546.67	57605.26
546.83	57343.12
547.00	57570.16
547.17	57478.88
547.34	57804.21
547.50	57916.56
547.67	58143.59
547.84	57841.66
548.00	57916.56
548.17	58092.10
548.34	58064.01
548.51	58181.04
548.67	58094.44
548.84	57942.30
549.01	58113.16
549.18	58129.54
549.34	58031.24
549.51	58085.07
549.68	58232.53
549.84	58174.02
550.01	58258.27
550.18	57914.22
550.34	58424.45
550.51	58330.83
550.68	58459.56
550.84	58293.38
551.01	58485.31
551.18	58422.11
551.34	58557.86
551.51	58592.97
551.68	58794.26
551.84	58599.99
552.01	58174.02
552.18	58398.71
552.34	58438.50
552.51	58614.04
552.68	58443.18
552.84	58604.67
553.01	58913.62
553.18	58756.81
553.34	58960.44
553.51	58754.47
553.67	58642.12
553.84	58705.32
554.01	58745.11
554.17	59037.67
554.34	58897.24
554.51	58930.01
554.67	58911.28
554.84	58876.18
555.00	58866.81
555.17	58873.84
555.33	58983.84
555.50	58698.30
555.67	58911.28
555.83	58930.01
556.00	59023.63
556.16	59423.86
556.33	59150.02
556.50	58997.88
556.66	59337.26
556.83	59061.08
556.99	59121.93
557.16	59302.15
557.32	59428.54
557.49	59831.11
557.65	59302.15
557.82	59320.88
557.98	59475.35
558.15	59348.96
558.32	59416.84
558.48	59175.76
558.65	59482.37
558.81	59395.77
558.98	59327.90
559.14	59524.50
559.31	59526.84
559.47	59447.27
559.64	59676.64
559.80	59334.92
559.97	59578.34
560.13	59384.07
560.30	59695.36
560.46	59700.04
560.63	59629.83
560.79	59683.66
560.96	59786.64
561.12	59835.80
561.29	59819.41
561.45	59678.98
561.61	59648.55
561.78	59791.33
561.94	59854.52
562.11	59730.47
562.27	59732.81
562.44	59819.41
562.60	60032.40
562.77	60027.72
562.93	59805.37
563.10	60044.10
563.26	59927.08
563.42	60023.04
563.59	59994.95
563.75	59840.48
563.92	59955.16
564.08	59742.17
564.24	60053.47
564.41	60158.79
564.57	60168.15
564.74	60048.78
564.90	59950.48
565.07	60011.34
565.23	60097.94
565.39	60044.10
565.56	60081.55
565.72	60097.94
565.88	60224.32
566.05	60039.42
566.21	59931.76
566.38	60140.07
566.54	60079.21
566.70	60198.58
566.87	60292.20
567.03	59908.35
567.19	60203.26
567.36	60217.30
567.52	60257.09
567.68	60488.80
567.85	60097.94
568.01	60418.59
568.17	60217.30
568.34	60591.79
568.50	60224.32
568.66	60299.22
568.83	60247.73
568.99	60287.52
569.15	60353.05
569.32	60388.16
569.48	60158.79
569.64	60289.86
569.81	60306.24
569.97	60229.01
570.13	60296.88
570.30	60191.56
570.46	60392.84
570.62	60392.84
570.78	60320.29
570.95	60446.68
571.11	60404.55
571.27	60231.35
571.43	60402.21
571.60	60573.06
571.76	60542.64
571.92	60622.22
572.09	60516.89
572.25	60507.53
572.41	60631.58
572.57	60334.33
572.74	60804.78
572.90	60346.03
573.06	60540.30
573.22	60449.02
573.38	60552.00
573.55	60399.86
573.71	60832.86
573.87	60493.49
574.03	60533.28
574.20	60610.51
574.36	60324.97
574.52	60561.36
574.68	60664.35
574.84	60774.35
575.01	60893.72
575.17	60610.51
575.33	60549.66
575.49	60378.80
575.65	60736.90
575.82	60584.77
575.98	60715.84
576.14	60846.91
576.30	60795.42
576.46	60626.90
576.62	60748.60
576.79	60582.43
576.95	60722.86
577.11	60687.75
577.27	60694.77
577.43	60804.78
577.59	60631.58
577.75	60669.03
577.92	60711.16
578.08	60680.73
578.24	60842.23
578.40	60851.59
578.56	60657.32
578.72	60603.49
578.88	60956.91
579.04	61022.45
579.21	60931.17
579.37	60931.17
579.53	60781.37
579.69	60584.77
579.85	60488.80
580.01	60757.97
580.17	60622.22
580.33	60760.31
580.49	60999.04
580.65	60769.67
580.82	60638.60
580.98	60690.09
581.14	60657.32
581.30	60832.86
581.46	60725.20
581.62	60669.03
581.78	60757.97
581.94	61022.45
582.10	60985.00
582.26	60762.65
582.42	60645.62
582.58	60956.91
582.74	60945.21
582.90	60795.42
583.06	60872.65
583.22	60718.18
583.38	60853.93
583.54	60931.17
583.70	60818.82
583.86	60975.64
584.02	60760.31
584.18	60970.96
584.34	61109.05
584.50	60851.59
584.66	60823.50
584.82	60858.61
584.98	61111.39
585.14	61202.67
585.30	60706.47
585.46	60985.00
585.62	60924.14
585.78	61055.21
585.94	60865.63
586.10	60940.53
586.26	60919.46
586.42	61186.28
586.58	61024.79
586.74	60947.55
586.90	60830.52
587.06	60882.02
587.22	61151.18
587.38	60942.87
587.54	61134.79
587.70	61240.12
587.86	60952.23
588.02	60814.14
588.18	61062.24
588.34	60856.27
588.49	60966.27
