SpectraSuite Data File
++++++++++++++++++++++++++++++++++++
Date: Fri Oct 25 11:22:37 EDT 2013
User: price-jones
Dark Spectrum Present: No
Reference Spectrum Present: No
Number of Sampled Component Spectra: 1
Spectrometers: USB2+H05261
Integration Time (usec): 100000 (USB2+H05261)
Spectra Averaged: 1 (USB2+H05261)
Boxcar Smoothing: 0 (USB2+H05261)
Correct for Electrical Dark: No (USB2+H05261)
Strobe/Lamp Enabled: No (USB2+H05261)
Correct for Detector Non-linearity: No (USB2+H05261)
Correct for Stray Light: No (USB2+H05261)
Number of Pixels in Processed Spectrum: 2048
>>>>>Begin Processed Spectral Data<<<<<
365.73	245.76
365.92	245.76
366.12	245.76
366.32	110.01
366.52	117.03
366.72	131.07
366.91	187.24
367.11	117.03
367.31	16.38
367.51	102.98
367.70	110.01
367.90	91.28
368.10	100.64
368.30	128.73
368.49	131.07
368.69	180.22
368.89	107.66
369.09	138.09
369.28	201.29
369.48	142.77
369.68	152.13
369.87	187.24
370.07	187.24
370.27	208.31
370.47	365.12
370.66	550.03
370.86	592.16
371.06	650.67
371.25	716.20
371.45	697.48
371.65	730.25
371.84	711.52
372.04	620.24
372.24	657.69
372.44	678.76
372.63	744.29
372.83	763.01
373.03	711.52
373.22	758.33
373.42	809.83
373.62	774.72
373.81	805.14
374.01	851.96
374.21	791.10
374.40	830.89
374.60	800.46
374.79	889.40
374.99	868.34
375.19	798.12
375.38	851.96
375.58	849.61
375.78	795.78
375.97	849.61
376.17	968.98
376.37	858.98
376.56	917.49
376.76	823.87
376.95	863.66
377.15	894.08
377.35	837.91
377.54	980.68
377.74	905.79
377.93	767.70
378.13	917.49
378.33	856.64
378.52	978.34
378.72	947.92
378.91	938.55
379.11	945.58
379.31	903.45
379.50	908.13
379.70	1013.45
379.89	957.28
380.09	971.32
380.28	947.92
380.48	1020.47
380.68	1001.75
380.87	940.90
381.07	1041.54
381.26	1074.31
381.46	999.41
381.65	1020.47
381.85	1060.26
382.04	1011.11
382.24	992.39
382.43	1144.52
382.63	1015.79
382.83	994.73
383.02	1069.62
383.22	1137.50
383.41	1163.25
383.61	1132.82
383.80	1008.77
384.00	1179.63
384.19	1102.39
384.39	1125.80
384.58	1125.80
384.78	1207.72
384.97	1107.07
385.17	1177.29
385.36	1184.31
385.56	1167.93
385.75	1123.46
385.95	1170.27
386.14	1299.00
386.34	1214.74
386.53	1235.80
386.72	1217.08
386.92	1315.38
387.11	1336.45
387.31	1226.44
387.50	1242.82
387.70	1203.04
387.89	1238.14
388.09	1240.48
388.28	1268.57
388.48	1252.19
388.67	1294.32
388.86	1334.11
389.06	1249.85
389.25	1348.15
389.45	1394.96
389.64	1364.53
389.84	1432.41
390.03	1401.98
390.22	1350.49
390.42	1329.42
390.61	1334.11
390.81	1434.75
391.00	1324.74
391.19	1439.43
391.39	1359.85
391.58	1467.52
391.78	1444.11
391.97	1448.79
392.16	1544.75
392.36	1600.93
392.55	1535.39
392.75	1526.03
392.94	1535.39
393.13	1495.60
393.33	1535.39
393.52	1551.78
393.71	1596.25
393.91	1535.39
394.10	1591.56
394.29	1645.40
394.49	1526.03
394.68	1706.25
394.88	1629.01
395.07	1584.54
395.26	1699.23
395.46	1748.38
395.65	1689.87
395.84	1715.61
396.04	1781.15
396.23	1788.17
396.42	1739.02
396.62	1891.15
396.81	1739.02
397.00	1769.44
397.19	1755.40
397.39	1720.29
397.58	1844.34
397.77	1825.62
397.97	1877.11
398.16	1928.60
398.35	1865.41
398.55	1914.56
398.74	1881.79
398.93	1961.37
399.12	1802.21
399.32	1949.67
399.51	1830.30
399.70	1984.77
399.90	1905.20
400.09	2012.86
400.28	2076.06
400.47	2003.50
400.67	2174.36
400.86	2066.69
401.05	2097.12
401.24	2211.81
401.44	2106.48
401.63	2043.29
401.82	2232.87
402.01	2153.29
402.21	2157.97
402.40	2235.21
402.59	2167.34
402.78	2197.76
402.97	2167.34
403.17	2326.49
403.36	2321.81
403.55	2289.04
403.74	2377.98
403.93	2387.35
404.13	2401.39
404.32	2502.03
404.51	2403.73
404.70	2485.65
404.89	2523.10
405.09	2415.43
405.28	2422.45
405.47	2434.16
405.66	2555.86
405.85	2581.61
406.05	2548.84
406.24	2452.88
406.43	2485.65
406.62	2679.91
406.81	2654.17
407.00	2675.23
407.20	2583.95
407.39	2633.10
407.58	2675.23
407.77	2796.94
407.96	2724.38
408.15	2825.03
408.34	2733.75
408.54	2897.58
408.73	2825.03
408.92	2806.30
409.11	2958.44
409.30	2967.80
409.49	2895.24
409.68	2832.05
409.87	2928.01
410.07	2981.84
410.26	3070.78
410.45	3087.17
410.64	3035.67
410.83	3171.43
411.02	3148.02
411.21	3178.45
411.40	3234.62
411.59	3321.22
411.78	3131.64
411.98	3314.20
412.17	3297.81
412.36	3358.67
412.55	3492.08
412.74	3510.80
412.93	3489.74
413.12	3412.50
413.31	3471.01
413.50	3482.72
413.69	3506.12
413.88	3531.87
414.07	3660.60
414.26	3681.66
414.45	3609.11
414.64	3679.32
414.83	3700.39
415.02	3843.16
415.22	3754.22
415.41	3920.40
415.60	3974.23
415.79	4152.11
415.98	3904.01
416.17	3943.80
416.36	3812.73
416.55	4065.51
416.74	4053.81
416.93	4095.94
417.12	4037.42
417.31	4182.54
417.50	4145.09
417.69	4227.01
417.88	4262.12
418.07	4241.05
418.26	4430.63
418.45	4358.08
418.64	4542.98
418.83	4458.72
419.02	4545.32
419.21	4365.10
419.39	4498.51
419.58	4489.15
419.77	4531.28
419.96	4678.73
420.15	4674.05
420.34	4622.56
420.53	4660.01
420.72	4676.39
420.91	4819.16
421.10	4840.23
421.29	4915.12
421.48	4777.03
421.67	4751.29
421.86	4755.97
422.05	4802.78
422.24	4816.82
422.43	4975.98
422.61	4992.36
422.80	5093.01
422.99	4943.21
423.18	5029.81
423.37	4980.66
423.56	4990.02
423.75	5001.72
423.94	5034.49
424.13	4709.16
424.32	4760.65
424.50	5069.60
424.69	5221.74
424.88	5214.71
425.07	5090.67
425.26	4833.21
425.45	5128.11
425.64	4985.34
425.83	4887.04
426.01	5093.01
426.20	5062.58
426.39	5088.32
426.58	5109.39
426.77	5151.52
426.96	5214.71
427.15	5172.58
427.33	5219.39
427.52	5121.09
427.71	5305.99
427.90	5303.65
428.09	5383.23
428.28	5369.19
428.46	5308.34
428.65	5453.45
428.84	5516.64
429.03	5647.71
429.22	5348.12
429.40	5430.04
429.59	5582.18
429.78	5425.36
429.97	5219.39
430.16	5535.37
430.34	5643.03
430.53	5757.72
430.72	5659.42
430.91	5860.70
431.10	5678.14
431.28	5975.39
431.47	5841.98
431.66	5849.00
431.85	5673.46
432.03	5994.11
432.22	6040.92
432.41	5851.34
432.60	5923.90
432.79	5858.36
432.97	5966.03
433.16	6146.25
433.35	6195.40
433.54	6019.86
433.72	6366.26
433.91	6080.71
434.10	6169.65
434.28	6174.33
434.47	6216.46
434.66	6263.27
434.85	6452.86
435.03	6399.02
435.22	6300.72
435.41	6520.73
435.59	6319.45
435.78	6462.22
435.97	6516.05
436.16	6384.98
436.34	6520.73
436.53	6473.92
436.72	6801.60
436.90	6513.71
437.09	6724.36
437.28	6527.75
437.46	6705.63
437.65	6754.79
437.84	6820.32
438.02	6778.19
438.21	6750.10
438.40	6623.72
438.58	7094.16
438.77	7197.15
438.96	7030.97
439.14	7124.59
439.33	7180.76
439.52	7063.74
439.70	7353.96
439.89	7440.56
440.08	7461.63
440.26	7438.22
440.45	7480.35
440.63	7550.57
440.82	7517.80
441.01	7508.44
441.19	7761.22
441.38	7735.47
441.57	7906.33
441.75	7911.01
441.94	7826.75
442.12	8051.44
442.31	8142.72
442.50	8039.74
442.68	7957.82
442.87	8142.72
443.05	8241.03
443.24	8311.24
443.43	8332.31
443.61	8166.13
443.80	8475.08
443.98	8100.59
444.17	7941.44
444.35	8208.26
444.54	8439.97
444.73	8299.54
444.91	8273.79
445.10	8428.27
445.28	8388.48
445.47	8442.31
445.65	8388.48
445.84	8636.58
446.02	8444.65
446.21	8688.07
446.39	8620.19
446.58	8538.27
446.77	8746.58
446.95	8262.09
447.14	8500.83
447.32	8741.90
447.51	8596.79
447.69	8643.60
447.88	8461.04
448.06	8432.95
448.25	8578.06
448.43	8739.56
448.62	8760.63
448.80	8479.76
448.99	8802.75
449.17	8777.01
449.36	8734.88
449.54	8945.53
449.73	9104.68
449.91	9104.68
450.10	9076.60
450.28	9107.02
450.46	9235.75
450.65	9177.24
450.83	9034.47
451.02	8999.36
451.20	9308.31
451.39	9146.81
451.57	9097.66
451.76	9224.05
451.94	9254.48
452.13	9518.96
452.31	9448.74
452.49	9170.22
452.68	9343.42
452.86	9619.60
453.05	9273.20
453.23	9547.05
453.42	9369.16
453.60	9394.91
453.78	9612.58
453.97	9458.10
454.15	9312.99
454.34	9589.17
454.52	9720.24
454.70	9907.49
454.89	9703.86
455.07	9933.23
455.26	10068.98
455.44	10052.60
455.62	9998.77
455.81	10092.39
455.99	10061.96
456.17	10038.56
456.36	10036.22
456.54	10223.46
456.73	10413.04
456.91	10733.70
457.09	10736.04
457.28	10789.87
457.46	10361.55
457.64	10485.60
457.83	10637.73
458.01	10494.96
458.19	10949.03
458.38	10710.29
458.56	10586.24
458.74	10654.12
458.93	10958.39
459.11	10925.62
459.29	10843.70
459.48	10920.94
459.66	10991.16
459.84	10953.71
460.03	11192.44
460.21	11103.50
460.39	11082.44
460.57	10930.30
460.76	11405.43
460.94	11330.53
461.12	11456.92
461.31	11213.51
461.49	11201.80
461.67	10972.43
461.85	11587.99
462.04	11276.70
462.22	12039.72
462.40	11826.73
462.59	11442.88
462.77	11527.14
462.95	11646.51
463.13	11747.15
463.32	11782.26
463.50	11896.94
463.68	11852.47
463.86	11812.68
464.05	11754.17
464.23	12065.46
464.41	12035.03
464.59	11885.24
464.78	12343.99
464.96	12119.29
465.14	12086.53
465.32	12358.03
465.50	12149.72
465.69	12095.89
465.87	12306.54
466.05	12102.91
466.23	12306.54
466.41	12306.54
466.60	12526.55
466.78	12547.61
466.96	12535.91
467.14	12425.90
467.32	12884.65
467.51	12369.73
467.69	12325.26
467.87	12669.32
468.05	12933.80
468.23	12397.82
468.41	12545.27
468.60	12514.84
468.78	12582.72
468.96	12718.47
469.14	13027.42
469.32	13305.95
469.50	12791.03
469.69	13146.79
469.87	13027.42
470.05	13207.64
470.23	13202.96
470.41	13345.73
470.59	13385.52
470.77	13448.72
470.95	13298.92
471.14	13593.83
471.32	13310.63
471.50	13621.92
471.68	13633.62
471.86	13671.07
472.04	13804.48
472.22	14373.23
472.40	13694.47
472.58	13923.85
472.77	14260.88
472.95	14218.75
473.13	14464.51
473.31	14139.18
473.49	14361.53
473.67	13933.21
473.85	14808.57
474.03	14803.89
474.21	14829.63
474.39	14679.84
474.57	14874.10
474.75	14787.50
474.93	15133.90
475.12	15349.23
475.30	15487.32
475.48	15140.93
475.66	15215.82
475.84	15367.96
476.02	15702.65
476.20	15499.03
476.38	16016.29
476.56	16194.17
476.74	16107.57
476.92	16049.05
477.10	15829.04
477.28	16175.44
477.46	16397.79
477.64	16645.89
477.82	16690.36
478.00	17446.35
478.18	17006.33
478.36	17160.81
478.54	17514.23
478.72	17289.54
478.90	17530.61
479.08	17734.24
479.26	17944.89
479.44	17614.87
479.62	18068.94
479.80	18363.84
479.98	18525.34
480.16	18740.67
480.34	18363.84
480.52	18731.31
480.70	19140.90
480.88	18546.40
481.06	19014.51
481.24	18923.23
481.41	19267.29
481.59	19508.37
481.77	19857.10
481.95	19789.23
482.13	20222.23
482.31	19864.13
482.49	20517.14
482.67	20142.65
482.85	20802.68
483.03	20751.19
483.21	21144.40
483.39	21046.10
483.57	20882.26
483.74	21090.57
483.92	21689.74
484.10	21626.55
484.28	22022.10
484.46	22237.43
484.64	22672.77
484.82	22368.50
485.00	22654.05
485.18	22754.69
485.35	23119.81
485.53	22801.50
485.71	23321.10
485.89	23733.03
486.07	23522.38
486.25	23552.81
486.43	23857.08
486.61	23913.25
486.78	24505.41
486.96	24269.01
487.14	24596.69
487.32	24950.11
487.50	24875.21
487.68	25259.06
487.85	25736.53
488.03	25977.61
488.21	26059.52
488.39	26190.59
488.57	26408.26
488.75	26298.26
488.92	26534.65
489.10	27197.02
489.28	27016.80
489.46	27393.63
489.64	26995.74
489.81	27468.53
489.99	28123.88
490.17	28409.42
490.35	28371.97
490.53	28439.85
490.70	28929.02
490.88	28374.31
491.06	29170.10
491.24	29324.57
491.41	29118.60
491.59	29834.81
491.77	29675.65
491.95	29640.54
492.13	30232.70
492.30	30141.42
492.48	30639.95
492.66	30455.05
492.84	30754.64
493.01	30969.97
493.19	31297.64
493.37	30845.92
493.54	31349.14
493.72	31693.19
493.90	31660.43
494.08	32376.63
494.25	32006.83
494.43	32278.33
494.61	32671.54
494.79	33064.75
494.96	32631.75
495.14	32781.54
495.32	33392.42
495.49	34108.63
495.67	33748.18
495.85	33656.90
496.02	34181.18
496.20	34422.26
496.38	34235.02
496.55	34562.69
496.73	35229.74
496.91	34712.49
497.09	35262.51
497.26	35079.95
497.44	35040.16
497.62	35739.98
497.79	36044.25
497.97	36091.06
498.14	36149.57
498.32	36437.46
498.50	36610.66
498.67	37120.90
498.85	36727.69
499.03	37078.77
499.20	37301.12
499.38	37254.31
499.56	37352.61
499.73	37532.83
499.91	37624.11
500.08	37755.18
500.26	37914.34
500.44	38113.28
500.61	37979.87
500.79	38150.73
500.97	38391.81
501.14	38646.93
501.32	39028.43
501.49	39398.24
501.67	39391.22
501.84	39154.82
502.02	39026.09
502.20	39459.09
502.37	39896.77
502.55	39416.96
502.72	40105.08
502.90	40095.72
503.07	39742.30
503.25	40404.67
503.43	40107.42
503.60	40697.24
503.78	40769.79
503.95	40713.62
504.13	40741.71
504.30	40989.80
504.48	41256.62
504.65	41235.56
504.83	41221.52
505.01	41600.68
505.18	41610.04
505.36	41937.72
505.53	41570.25
505.71	41654.51
505.88	42351.99
506.06	41968.15
506.23	42459.66
506.41	42522.85
506.58	42497.11
506.76	42560.30
506.93	43196.93
507.11	42611.79
507.28	42459.66
507.46	42911.38
507.63	43463.75
507.81	43856.96
507.98	43271.82
508.16	43903.77
508.33	43393.53
508.50	44018.46
508.68	43936.54
508.85	44580.18
509.03	44493.58
509.20	44851.69
509.38	44877.43
509.55	44648.06
509.73	44835.30
509.90	44772.11
510.08	45059.99
510.25	45069.36
510.42	45261.28
510.60	45614.70
510.77	45287.03
510.95	45698.96
511.12	45558.53
511.30	45640.45
511.47	45584.27
511.64	46045.36
511.82	46305.16
511.99	46014.93
512.17	46546.23
512.34	46155.36
512.51	46925.40
512.69	46836.46
512.86	46911.36
513.04	46855.18
513.21	47374.78
513.38	46920.72
513.56	47627.56
513.73	46883.27
513.90	47519.90
514.08	47012.00
514.25	47505.85
514.43	47842.89
514.60	47906.08
514.77	47721.18
514.95	47969.28
515.12	47931.83
515.29	48151.84
515.47	48470.15
515.64	48250.14
515.81	48175.25
515.99	48678.46
516.16	48942.94
516.33	48435.05
516.51	49123.16
516.68	48781.45
516.85	49212.10
517.03	48982.73
517.20	49343.17
517.37	49090.40
517.54	49586.59
517.72	49488.29
517.89	49750.43
518.06	49668.51
518.24	49418.07
518.41	49984.48
518.58	49822.98
518.75	49598.29
518.93	50120.23
519.10	49771.49
519.27	50042.99
519.45	50007.89
519.62	50506.42
519.79	50319.18
519.96	50248.96
520.14	50422.16
520.31	50578.98
520.48	51236.67
520.65	51082.19
520.83	50995.59
521.00	50965.17
521.17	51033.04
521.34	50796.65
521.52	51192.20
521.69	50934.74
521.86	51344.33
522.03	51107.94
522.20	51835.84
522.38	51969.26
522.55	51756.27
522.72	51292.84
522.89	51770.31
523.07	52013.73
523.24	51765.63
523.41	51941.17
523.58	51875.63
523.75	52002.02
523.92	52165.86
524.10	52458.43
524.27	52308.63
524.44	52355.44
524.61	52294.59
524.78	52332.04
524.96	52231.40
525.13	52495.88
525.30	52706.52
525.47	52648.01
525.64	52804.83
525.81	52963.98
525.98	52968.66
526.16	53095.05
526.33	52818.87
526.50	53230.80
526.67	53090.37
526.84	53191.01
527.01	53015.47
527.18	53038.88
527.36	53216.76
527.53	53249.53
527.70	53921.26
527.87	53703.59
528.04	53539.75
528.21	53455.50
528.38	53607.63
528.55	53773.81
528.72	53783.17
528.89	53975.09
529.07	53778.49
529.24	53897.86
529.41	54073.40
529.58	53907.22
529.75	54120.21
529.92	53954.03
530.09	54110.85
530.26	54183.40
530.43	54501.71
530.60	54064.03
530.77	54241.92
530.94	54335.54
531.11	54272.34
531.28	54450.22
531.46	54494.69
531.63	54457.24
531.80	54459.58
531.97	54614.06
532.14	54925.35
532.31	54700.66
532.48	54955.78
532.65	54670.23
532.82	54841.09
532.99	55084.51
533.16	54784.92
533.33	55114.94
533.50	55138.34
533.67	55124.30
533.84	55018.97
534.01	55440.27
534.18	55295.16
534.35	55519.85
534.52	55185.15
534.69	55477.72
534.86	55580.70
535.03	55325.58
535.20	55442.61
535.37	55461.33
535.54	55655.60
535.71	55597.09
535.88	55594.74
536.05	55674.32
536.22	56065.19
536.38	55817.10
536.55	55770.28
536.72	56055.83
536.89	55873.27
537.06	55969.23
537.23	55994.98
537.40	56095.62
537.57	56133.07
537.74	55732.84
537.91	56264.14
538.08	56200.94
538.25	55861.57
538.42	56133.07
538.59	56170.52
538.75	55969.23
538.92	56168.18
539.09	56736.93
539.26	56273.50
539.43	56549.68
539.60	56566.07
539.77	56601.18
539.94	56664.37
540.11	56643.30
540.28	56828.21
540.44	56781.40
540.61	56629.26
540.78	56708.84
540.95	56765.01
541.12	56640.96
541.29	56853.95
541.46	56676.07
541.62	56835.23
541.79	56839.91
541.96	56533.30
542.13	56549.68
542.30	56956.94
542.47	57172.27
542.63	56896.08
542.80	57076.30
542.97	57378.23
543.14	57361.85
543.31	57331.42
543.48	57319.72
543.64	57549.09
543.81	57553.77
543.98	57544.41
544.15	57544.41
544.32	57588.88
544.48	57895.49
544.65	57703.57
544.82	57476.54
544.99	57471.85
545.16	57858.04
545.32	57801.87
545.49	58078.05
545.66	57743.36
545.83	57883.79
546.00	57762.08
546.16	58131.89
546.33	57705.91
546.50	57869.75
546.67	58059.33
546.83	57717.61
547.00	57836.98
547.17	58152.95
547.34	58108.48
547.50	58148.27
547.67	58223.17
547.84	58410.41
548.00	58347.21
548.17	58454.88
548.34	58288.70
548.51	58550.84
548.67	58450.20
548.84	58419.77
549.01	58408.07
549.18	58543.82
549.34	58539.14
549.51	58426.79
549.68	58679.57
549.84	58642.12
550.01	58653.82
550.18	58702.98
550.34	58637.44
550.51	58705.32
550.68	58660.85
550.84	58656.17
551.01	58698.30
551.18	58904.26
551.34	58850.43
551.51	58801.28
551.68	58897.24
551.84	58958.09
552.01	58789.58
552.18	58962.78
552.34	58927.67
552.51	58944.05
552.68	58876.18
552.84	59025.97
553.01	59271.73
553.18	58911.28
553.34	59262.36
553.51	58981.50
553.67	58913.62
553.84	59236.62
554.01	59210.87
554.17	59302.15
554.34	59355.99
554.51	59285.77
554.67	59159.38
554.84	59297.47
555.00	58941.71
555.17	59063.42
555.33	59217.89
555.50	59061.08
555.67	59189.81
555.83	59269.39
556.00	59484.72
556.16	59718.77
556.33	59463.65
556.50	59526.84
556.66	59629.83
556.83	59341.94
556.99	59693.02
557.16	59805.37
557.32	59711.75
557.49	59735.15
557.65	59519.82
557.82	59718.77
557.98	59746.86
558.15	59653.23
558.32	59702.38
558.48	59545.57
558.65	59578.34
558.81	59599.40
558.98	59805.37
559.14	60060.49
559.31	59901.33
559.47	59772.60
559.64	60088.57
559.80	59812.39
559.97	59992.61
560.13	59735.15
560.30	59908.35
560.46	60006.65
560.63	59962.18
560.79	60116.66
560.96	59962.18
561.12	60023.04
561.29	60339.01
561.45	60252.41
561.61	59910.69
561.78	59908.35
561.94	60027.72
562.11	60236.03
562.27	60245.39
562.44	60233.69
562.60	60261.77
562.77	60137.72
562.93	60210.28
563.10	60226.66
563.26	60221.98
563.42	60441.99
563.59	60032.40
563.75	60135.38
563.92	60273.48
564.08	60182.19
564.24	60582.43
564.41	60392.84
564.57	60542.64
564.74	60261.77
564.90	60278.16
565.07	60385.82
565.23	60481.78
565.39	60423.27
565.56	60505.19
565.72	60360.08
565.88	60374.12
566.05	60381.14
566.21	60472.42
566.38	60533.28
566.54	60434.97
566.70	60685.41
566.87	60643.28
567.03	60320.29
567.19	60640.94
567.36	60622.22
567.52	60671.37
567.68	60963.93
567.85	60552.00
568.01	60629.24
568.17	60552.00
568.34	60591.79
568.50	60472.42
568.66	60444.33
568.83	60594.13
568.99	60713.50
569.15	60481.78
569.32	60741.58
569.48	60544.98
569.64	60683.07
569.81	60713.50
569.97	60687.75
570.13	60774.35
570.30	60605.83
570.46	60772.01
570.62	60601.15
570.78	60788.39
570.95	60837.54
571.11	60748.60
571.27	60659.66
571.43	60757.97
571.60	60823.50
571.76	60818.82
571.92	60830.52
572.09	60891.38
572.25	60828.18
572.41	60797.76
572.57	60804.78
572.74	60917.12
572.90	60760.31
573.06	60889.04
573.22	60933.51
573.38	60732.22
573.55	60793.07
573.71	61197.99
573.87	61057.56
574.03	60790.73
574.20	60753.29
574.36	60886.70
574.52	60844.57
574.68	60907.76
574.84	61160.54
575.01	61183.94
575.17	60903.08
575.33	61020.11
575.49	60952.23
575.65	60961.59
575.82	61066.92
575.98	61013.08
576.14	61329.06
576.30	61132.45
576.46	60853.93
576.62	61027.13
576.79	61052.87
576.95	61006.06
577.11	61064.58
577.27	60959.25
577.43	61113.73
577.59	60942.87
577.75	60874.99
577.92	60800.10
578.08	60996.70
578.24	60959.25
578.40	61029.47
578.56	61183.94
578.72	61202.67
578.88	61148.84
579.04	61106.71
579.21	61235.44
579.37	61389.91
579.53	61300.97
579.69	60973.30
579.85	61055.21
580.01	61097.34
580.17	60872.65
580.33	61013.08
580.49	61020.11
580.65	61050.53
580.82	61003.72
580.98	60917.12
581.14	60921.80
581.30	61275.22
581.46	61127.77
581.62	61291.61
581.78	61137.13
581.94	61336.08
582.10	61214.37
582.26	61256.50
582.42	61078.62
582.58	61188.63
582.74	61116.07
582.90	61176.92
583.06	61162.88
583.22	60956.91
583.38	61359.48
583.54	61179.26
583.70	61223.73
583.86	61286.93
584.02	61043.51
584.18	61134.79
584.34	61286.93
584.50	61385.23
584.66	61059.90
584.82	60912.44
584.98	61450.77
585.14	61329.06
585.30	61015.43
585.46	61172.24
585.62	61176.92
585.78	61408.64
585.94	61017.77
586.10	61279.91
586.26	61235.44
586.42	61413.32
586.58	61471.83
586.74	61228.41
586.90	61197.99
587.06	61263.52
587.22	61291.61
587.38	61497.58
587.54	61436.72
587.70	61460.13
587.86	61207.35
588.02	61385.23
588.18	61483.53
588.34	61336.08
588.49	61303.31
