SpectraSuite Data File
++++++++++++++++++++++++++++++++++++
Date: Fri Oct 25 11:25:06 EDT 2013
User: price-jones
Dark Spectrum Present: No
Reference Spectrum Present: No
Number of Sampled Component Spectra: 1
Spectrometers: USB2+H05261
Integration Time (usec): 100000 (USB2+H05261)
Spectra Averaged: 1 (USB2+H05261)
Boxcar Smoothing: 0 (USB2+H05261)
Correct for Electrical Dark: No (USB2+H05261)
Strobe/Lamp Enabled: No (USB2+H05261)
Correct for Detector Non-linearity: No (USB2+H05261)
Correct for Stray Light: No (USB2+H05261)
Number of Pixels in Processed Spectrum: 2048
>>>>>Begin Processed Spectral Data<<<<<
365.73	280.86
365.92	280.86
366.12	280.86
366.32	72.56
366.52	133.41
366.72	198.95
366.91	142.77
367.11	154.48
367.31	51.49
367.51	102.98
367.70	72.56
367.90	217.67
368.10	170.86
368.30	198.95
368.49	98.30
368.69	180.22
368.89	84.26
369.09	88.94
369.28	201.29
369.48	161.50
369.68	184.90
369.87	215.33
370.07	208.31
370.27	285.55
370.47	341.72
370.66	571.09
370.86	624.92
371.06	631.94
371.25	699.82
371.45	603.86
371.65	683.44
371.84	723.23
372.04	685.78
372.24	695.14
372.44	702.16
372.63	727.91
372.83	755.99
373.03	706.84
373.22	676.41
373.42	772.38
373.62	760.67
373.81	725.57
374.01	788.76
374.21	760.67
374.40	720.88
374.60	940.90
374.79	805.14
374.99	812.17
375.19	807.48
375.38	847.27
375.58	823.87
375.78	844.93
375.97	819.19
376.17	915.15
376.37	837.91
376.56	887.06
376.76	882.38
376.95	837.91
377.15	880.04
377.35	819.19
377.54	919.83
377.74	898.77
377.93	990.05
378.13	877.70
378.33	971.32
378.52	926.85
378.72	926.85
378.91	887.06
379.11	976.00
379.31	947.92
379.50	924.51
379.70	912.81
379.89	966.64
380.09	983.02
380.28	954.94
380.48	1032.18
380.68	896.43
380.87	1013.45
381.07	1027.50
381.26	1060.26
381.46	1088.35
381.65	1100.05
381.85	1048.56
382.04	1008.77
382.24	978.34
382.43	1064.94
382.63	1055.58
382.83	1064.94
383.02	1086.01
383.22	1083.67
383.41	1048.56
383.61	1090.69
383.80	1130.48
384.00	1006.43
384.19	1196.01
384.39	1144.52
384.58	1097.71
384.78	1114.10
384.97	1114.10
385.17	1121.12
385.36	1184.31
385.56	1102.39
385.75	1172.61
385.95	1191.33
386.14	1205.38
386.34	1210.06
386.53	1235.80
386.72	1181.97
386.92	1261.55
387.11	1160.91
387.31	1263.89
387.50	1252.19
387.70	1299.00
387.89	1210.06
388.09	1191.33
388.28	1289.64
388.48	1207.72
388.67	1327.08
388.86	1282.61
389.06	1329.42
389.25	1390.28
389.45	1306.02
389.64	1315.38
389.84	1409.00
390.03	1345.81
390.22	1378.58
390.42	1380.92
390.61	1371.55
390.81	1352.83
391.00	1355.17
391.19	1432.41
391.39	1455.81
391.58	1357.51
391.78	1444.11
391.97	1516.67
392.16	1488.58
392.36	1591.56
392.55	1432.41
392.75	1535.39
392.94	1495.60
393.13	1610.29
393.33	1465.18
393.52	1476.88
393.71	1664.12
393.91	1650.08
394.10	1664.12
394.29	1605.61
394.49	1516.67
394.68	1554.12
394.88	1668.80
395.07	1654.76
395.26	1614.97
395.46	1680.50
395.65	1696.89
395.84	1769.44
396.04	1748.38
396.23	1675.82
396.42	1591.56
396.62	1755.40
396.81	1827.96
397.00	1710.93
397.19	1923.92
397.39	1750.72
397.58	1923.92
397.77	1790.51
397.97	1837.32
398.16	1820.94
398.35	1984.77
398.55	1935.62
398.74	1926.26
398.93	1984.77
399.12	1867.75
399.32	1893.49
399.51	1984.77
399.70	2076.06
399.90	1987.11
400.09	1973.07
400.28	2111.16
400.47	2029.24
400.67	2033.93
400.86	2132.23
401.05	1994.14
401.24	2092.44
401.44	2120.53
401.63	2143.93
401.82	2162.66
402.01	2057.33
402.21	2134.57
402.40	2125.21
402.59	2174.36
402.78	2195.42
402.97	2260.96
403.17	2214.15
403.36	2235.21
403.55	2228.19
403.74	2312.45
403.93	2282.02
404.13	2359.26
404.32	2359.26
404.51	2310.11
404.70	2424.80
404.89	2359.26
405.09	2427.14
405.28	2511.39
405.47	2511.39
405.66	2544.16
405.85	2504.37
406.05	2480.97
406.24	2541.82
406.43	2431.82
406.62	2647.15
406.81	2733.75
407.00	2539.48
407.20	2527.78
407.39	2686.94
407.58	2684.59
407.77	2689.28
407.96	2682.25
408.15	2839.07
408.34	2649.49
408.54	2881.20
408.73	2764.17
408.92	2881.20
409.11	2883.54
409.30	2818.00
409.49	2928.01
409.68	2841.41
409.87	3066.10
410.07	2925.67
410.26	3103.55
410.45	2960.78
410.64	2967.80
410.83	3115.25
411.02	3061.42
411.21	3162.06
411.40	3061.42
411.59	3094.19
411.78	3129.30
411.98	3131.64
412.17	3353.99
412.36	3222.92
412.55	3323.56
412.74	3398.46
412.93	3482.72
413.12	3400.80
413.31	3428.88
413.50	3517.83
413.69	3492.08
413.88	3564.64
414.07	3627.83
414.26	3574.00
414.45	3599.74
414.64	3726.13
414.83	3794.01
415.02	3822.09
415.22	3826.78
415.41	3819.75
415.60	3733.15
415.79	3749.54
415.98	3967.21
416.17	3911.04
416.36	3894.65
416.55	3932.10
416.74	3964.87
416.93	3999.98
417.12	4098.28
417.31	4147.43
417.50	4236.37
417.69	4297.22
417.88	4222.33
418.07	4159.13
418.26	4182.54
418.45	4273.82
418.64	4505.53
418.83	4416.59
419.02	4294.88
419.21	4538.30
419.39	4454.04
419.58	4575.75
419.77	4425.95
419.96	4559.36
420.15	4489.15
420.34	4531.28
420.53	4643.62
420.72	4641.28
420.91	4580.43
421.10	4849.59
421.29	4727.88
421.48	4657.67
421.67	4781.71
421.86	4898.74
422.05	4772.35
422.24	4800.44
422.43	4847.25
422.61	4868.31
422.80	4896.40
422.99	4901.08
423.18	5032.15
423.37	4830.87
423.56	4908.10
423.75	4891.72
423.94	4863.63
424.13	4514.89
424.32	4737.24
424.50	4915.12
424.69	5135.14
424.88	4985.34
425.07	4994.70
425.26	4954.91
425.45	4788.74
425.64	4887.04
425.83	4882.36
426.01	5135.14
426.20	4978.32
426.39	5177.26
426.58	5170.24
426.77	5156.20
426.96	5085.98
427.15	5085.98
427.33	5179.61
427.52	5205.35
427.71	5392.59
427.90	5200.67
428.09	5322.38
428.28	5462.81
428.46	5432.38
428.65	5385.57
428.84	5621.97
429.03	5418.34
429.22	5359.83
429.40	5437.06
429.59	5460.47
429.78	5221.74
429.97	5238.12
430.16	5610.26
430.34	5708.57
430.53	5614.95
430.72	5621.97
430.91	5561.11
431.10	5596.22
431.28	5825.59
431.47	5741.33
431.66	5937.94
431.85	5863.04
432.03	5851.34
432.22	5874.74
432.41	5841.98
432.60	5830.27
432.79	5830.27
432.97	5975.39
433.16	5947.30
433.35	5996.45
433.54	6139.23
433.72	6099.44
433.91	6214.12
434.10	6204.76
434.28	6267.95
434.47	6265.61
434.66	6221.14
434.85	6291.36
435.03	6251.57
435.22	6209.44
435.41	6427.11
435.59	6340.51
435.78	6436.47
435.97	6604.99
436.16	6291.36
436.34	6399.02
436.53	6558.18
436.72	6733.72
436.90	6190.72
437.09	6665.85
437.28	6532.44
437.46	6602.65
437.65	6576.91
437.84	6590.95
438.02	6820.32
438.21	6815.64
438.40	6759.47
438.58	7075.44
438.77	7012.24
438.96	6918.62
439.14	7171.40
439.33	7138.63
439.52	7260.34
439.70	7417.16
439.89	7363.33
440.08	7335.24
440.26	7503.76
440.45	7412.48
440.63	7548.23
440.82	7449.93
441.01	7407.80
441.19	7646.53
441.38	7920.37
441.57	7793.98
441.75	7763.56
441.94	8006.97
442.12	7805.69
442.31	7920.37
442.50	8070.17
442.68	7955.48
442.87	8035.06
443.05	8065.49
443.24	8217.62
443.43	8196.56
443.61	8170.81
443.80	8397.84
443.98	8053.78
444.17	8180.17
444.35	8145.06
444.54	8339.33
444.73	8250.39
444.91	8091.23
445.10	8334.65
445.28	8273.79
445.47	8390.82
445.65	8348.69
445.84	8432.95
446.02	8430.61
446.21	8374.44
446.39	8351.03
446.58	8517.21
446.77	8454.02
446.95	8128.68
447.14	8381.46
447.32	8528.91
447.51	8524.23
447.69	8446.99
447.88	8437.63
448.06	8608.49
448.25	8573.38
448.43	8664.66
448.62	8725.52
448.80	8395.50
448.99	8702.11
449.17	8779.35
449.36	8725.52
449.54	8767.65
449.73	8917.44
449.91	9071.92
450.10	8919.78
450.28	9104.68
450.46	8968.93
450.65	9125.75
450.83	9118.73
451.02	9081.28
451.20	9188.94
451.39	9238.09
451.57	9247.46
451.76	9102.34
451.94	9298.95
452.13	9455.76
452.31	9301.29
452.49	9188.94
452.68	9371.50
452.86	9235.75
453.05	9156.18
453.23	9294.27
453.42	9249.80
453.60	9263.84
453.78	9390.23
453.97	9376.19
454.15	9446.40
454.34	9423.00
454.52	9692.16
454.70	9631.30
454.89	9650.03
455.07	9809.19
455.26	9795.14
455.44	10026.86
455.62	9853.66
455.81	9734.29
455.99	9813.87
456.17	10167.29
456.36	10073.67
456.54	9980.04
456.73	10310.06
456.91	10546.45
457.09	10377.94
457.28	10583.90
457.46	10499.64
457.64	10525.39
457.83	10471.56
458.01	10356.87
458.19	10576.88
458.38	10588.58
458.56	10876.47
458.74	10630.71
458.93	10560.50
459.11	10644.76
459.29	10885.83
459.48	10640.08
459.66	10923.28
459.84	10871.79
460.03	11035.63
460.21	11115.20
460.39	10970.09
460.57	11122.23
460.76	11152.65
460.94	11239.25
461.12	11096.48
461.31	11061.37
461.49	11089.46
461.67	11159.67
461.85	11662.89
462.04	11246.27
462.22	11733.11
462.40	11501.39
462.59	11538.84
462.77	11417.13
462.95	11587.99
463.13	11695.66
463.32	11655.87
463.50	11571.61
463.68	11695.66
463.86	11822.05
464.05	11932.05
464.23	11847.79
464.41	11786.94
464.59	11901.62
464.78	12109.93
464.96	12189.51
465.14	11772.89
465.32	11836.09
465.50	12095.89
465.69	12189.51
465.87	12145.04
466.05	12135.68
466.23	12231.64
466.41	12348.67
466.60	12510.16
466.78	12135.68
466.96	12219.94
467.14	12219.94
467.32	12219.94
467.51	12592.08
467.69	12035.03
467.87	12313.56
468.05	12615.49
468.23	12414.20
468.41	12540.59
468.60	12652.94
468.78	12858.90
468.96	12823.80
469.14	12554.63
469.32	12634.21
469.50	12631.87
469.69	13041.46
469.87	12940.82
470.05	13064.87
470.23	13226.37
470.41	12947.84
470.59	13228.71
470.77	13263.82
470.95	13067.21
471.14	13507.23
471.32	13334.03
471.50	13596.17
471.68	13483.83
471.86	13603.19
472.04	13689.79
472.22	14204.71
472.40	13968.32
472.58	13713.20
472.77	14174.28
472.95	14214.07
473.13	14508.98
473.31	14017.47
473.49	14155.56
473.67	13951.93
473.85	14200.03
474.03	14782.82
474.21	14464.51
474.39	14775.80
474.57	14382.59
474.75	14932.62
474.93	15059.01
475.12	14799.21
475.30	15136.24
475.48	15063.69
475.66	15154.97
475.84	15161.99
476.02	15290.72
476.20	15403.07
476.38	15606.69
476.56	15882.88
476.74	15910.96
476.92	15861.81
477.10	15772.87
477.28	16084.16
477.46	16236.30
477.64	16386.09
477.82	16585.04
478.00	16716.11
478.18	16788.66
478.36	16830.79
478.54	16978.25
478.72	17315.28
478.90	17338.69
479.08	17692.11
479.26	17982.34
479.44	17554.02
479.62	17874.67
479.80	17757.64
479.98	18230.43
480.16	18670.45
480.34	18141.49
480.52	18810.89
480.70	18487.89
480.88	18424.70
481.06	18705.56
481.24	18885.78
481.41	19316.44
481.59	19555.18
481.77	19311.76
481.95	19433.47
482.13	19864.13
482.31	19351.55
482.49	20414.15
482.67	20086.48
482.85	20741.83
483.03	20727.78
483.21	20587.35
483.39	20842.47
483.57	20936.09
483.74	21137.38
483.92	21839.54
484.10	21259.09
484.28	21661.66
484.46	21755.28
484.64	22317.01
484.82	21958.91
485.00	22171.89
485.18	22768.73
485.35	22555.74
485.53	22817.88
485.71	23246.20
485.89	23339.82
486.07	23297.69
486.25	23166.62
486.43	23536.43
486.61	23927.30
486.78	24004.53
486.96	23908.57
487.14	24411.79
487.32	24538.18
487.50	24987.56
487.68	25006.28
487.85	25212.25
488.03	25474.39
488.21	25930.80
488.39	25715.47
488.57	25956.54
488.75	26089.95
488.92	26471.46
489.10	26747.64
489.28	26581.46
489.46	26967.65
489.64	26969.99
489.81	27857.06
489.99	27725.99
490.17	27850.03
490.35	28048.98
490.53	28184.73
490.70	28285.37
490.88	28278.35
491.06	28922.00
491.24	28701.99
491.41	29003.92
491.59	29373.72
491.77	29443.94
491.95	29429.90
492.13	29813.74
492.30	30022.05
492.48	29680.33
492.66	30277.17
492.84	30384.83
493.01	30281.85
493.19	30188.23
493.37	31489.57
493.54	31079.97
493.72	31515.31
493.90	31702.56
494.08	31950.65
494.25	31941.29
494.43	32020.87
494.61	32205.77
494.79	32306.41
494.96	32524.08
495.14	32708.99
495.32	33111.56
495.49	33146.67
495.67	33193.48
495.85	33251.99
496.02	33722.44
496.20	33963.51
496.38	34012.66
496.55	34176.50
496.73	34581.42
496.91	34319.28
497.09	35147.82
497.26	34513.54
497.44	34843.56
497.62	35232.08
497.79	35398.26
497.97	35667.42
498.14	35658.06
498.32	35854.67
498.50	35964.67
498.67	36528.74
498.85	36673.85
499.03	36891.52
499.20	36666.83
499.38	36720.66
499.56	36432.78
499.73	37261.33
499.91	36912.59
500.08	37460.27
500.26	37099.83
500.44	37734.12
500.61	37792.63
500.79	37759.86
500.97	38319.25
501.14	38359.04
501.32	38431.60
501.49	38462.02
501.67	38834.17
501.84	39154.82
502.02	39044.82
502.20	38625.86
502.37	39454.41
502.55	39173.55
502.72	39337.38
502.90	39409.94
503.07	39267.17
503.25	39864.00
503.43	39508.24
503.60	39969.33
503.78	40201.04
503.95	40266.58
504.13	40126.14
504.30	40449.14
504.48	40449.14
504.65	40432.75
504.83	40957.03
505.01	40942.99
505.18	41041.29
505.36	41205.13
505.53	41317.48
505.71	41478.97
505.88	41471.95
506.06	41230.88
506.23	42047.72
506.41	41757.50
506.58	41961.12
506.76	42071.13
506.93	42356.67
507.11	41787.92
507.28	42244.33
507.46	42616.47
507.63	42738.18
507.81	43150.12
507.98	42983.94
508.16	42806.06
508.33	43232.04
508.50	43533.96
508.68	43363.11
508.85	43370.13
509.03	43510.56
509.20	44355.49
509.38	44289.96
509.55	44130.80
509.73	44381.24
509.90	44715.93
510.08	44388.26
510.25	44737.00
510.42	44919.56
510.60	45296.39
510.77	44741.68
510.95	45525.76
511.12	45085.74
511.30	44875.09
511.47	45347.88
511.64	45312.77
511.82	45567.89
511.99	45588.95
512.17	45801.94
512.34	45755.13
512.51	46366.01
512.69	46176.43
512.86	46050.04
513.04	46693.69
513.21	46349.63
513.38	46630.49
513.56	47098.60
513.73	46899.65
513.90	46806.03
514.08	47276.48
514.25	47246.05
514.43	47304.57
514.60	47175.84
514.77	47103.28
514.95	47337.33
515.12	47271.80
515.29	47290.52
515.47	47770.33
515.64	48006.73
515.81	47657.99
515.99	48109.71
516.16	48381.21
516.33	48322.70
516.51	48301.64
516.68	48116.73
516.85	48479.52
517.03	48825.92
517.20	48849.32
517.37	48739.32
517.54	48779.10
517.72	48734.63
517.89	49027.20
518.06	49179.34
518.24	49476.58
518.41	49111.46
518.58	49546.80
518.75	49076.35
518.93	49411.05
519.10	49350.20
519.27	49799.58
519.45	49853.41
519.62	49874.48
519.79	49888.52
519.96	50019.59
520.14	49961.08
520.31	49696.59
520.48	50347.26
520.65	50136.62
520.83	50684.30
521.00	50578.98
521.17	50712.39
521.34	50674.94
521.52	50679.62
521.69	50878.57
521.86	50852.82
522.03	51185.18
522.20	51051.76
522.38	51419.23
522.55	51229.65
522.72	51398.16
522.89	51157.09
523.07	51707.12
523.24	51491.79
523.41	51772.65
523.58	51543.28
523.75	51945.85
523.92	51817.12
524.10	52020.75
524.27	52053.51
524.44	52161.18
524.61	52121.39
524.78	52348.42
524.96	51929.47
525.13	52224.37
525.30	52343.74
525.47	52640.99
525.64	52542.69
525.81	52851.64
525.98	52732.27
526.16	52458.43
526.33	52512.26
526.50	52802.49
526.67	52523.96
526.84	53015.47
527.01	52732.27
527.18	52933.56
527.36	52926.53
527.53	53118.46
527.70	53265.91
527.87	53251.87
528.04	53277.61
528.21	53090.37
528.38	53291.66
528.55	53434.43
528.72	53268.25
528.89	53415.71
529.07	53322.08
529.24	53333.79
529.41	53483.58
529.58	53586.57
529.75	53675.51
529.92	53535.07
530.09	53829.98
530.26	53918.92
530.43	53928.28
530.60	53490.60
530.77	53832.32
530.94	54115.53
531.11	54021.90
531.28	54073.40
531.46	54202.13
531.63	54255.96
531.80	54260.64
531.97	54480.65
532.14	54447.88
532.31	54260.64
532.48	54319.15
532.65	54305.11
532.82	54370.64
532.99	54674.91
533.16	54532.14
533.33	54681.94
533.50	55004.93
533.67	54658.53
533.84	54515.76
534.01	54635.13
534.18	54784.92
534.35	54918.33
534.52	54939.39
534.69	55100.89
534.86	55234.30
535.03	55018.97
535.20	55068.12
535.37	55063.44
535.54	55288.13
535.71	55281.11
535.88	55512.83
536.05	55348.99
536.22	55297.50
536.38	55716.45
536.55	55660.28
536.72	55625.17
536.89	55451.97
537.06	55590.06
537.23	55941.14
537.40	55264.73
537.57	55772.63
537.74	55613.47
537.91	55976.25
538.08	55765.60
538.25	55793.69
538.42	55786.67
538.59	56126.05
538.75	55742.20
538.92	56116.68
539.09	55875.61
539.26	56332.01
539.43	56088.60
539.60	56051.15
539.77	56140.09
539.94	56329.67
540.11	56175.20
540.28	56420.95
540.44	56397.55
540.61	56540.32
540.78	56294.56
540.95	56465.42
541.12	56353.08
541.29	56329.67
541.46	56278.18
541.62	56500.53
541.79	56542.66
541.96	56498.19
542.13	56519.26
542.30	56603.52
542.47	56603.52
542.63	56795.44
542.80	56720.54
542.97	56856.29
543.14	57043.54
543.31	57186.31
543.48	56853.95
543.64	57336.10
543.81	57326.74
543.98	57312.70
544.15	57137.16
544.32	57485.90
544.48	57425.04
544.65	57418.02
544.82	57221.42
544.99	57139.50
545.16	57471.85
545.32	57350.15
545.49	57616.97
545.66	57602.92
545.83	57673.14
546.00	57827.62
546.16	57633.35
546.33	57577.18
546.50	57471.85
546.67	57701.23
546.83	57286.95
547.00	58056.99
547.17	57565.48
547.34	57794.85
547.50	57954.00
547.67	58087.42
547.84	58019.54
548.00	58035.92
548.17	57982.09
548.34	58101.46
548.51	58188.06
548.67	58000.82
548.84	58204.44
549.01	57961.03
549.18	57998.48
549.34	58042.95
549.51	58300.40
549.68	58389.34
549.84	58202.10
550.01	58298.06
550.18	57996.13
550.34	58211.46
550.51	58508.71
550.68	58375.30
550.84	58340.19
551.01	58515.73
551.18	58611.70
551.34	58361.26
551.51	58408.07
551.68	58543.82
551.84	58312.11
552.01	58482.97
552.18	58604.67
552.34	58372.96
552.51	58719.36
552.68	58450.20
552.84	58567.23
553.01	58990.86
553.18	58733.40
553.34	58876.18
553.51	58784.90
553.67	58618.72
553.84	58967.46
554.01	59025.97
554.17	58862.13
554.34	58892.56
554.51	58967.46
554.67	59035.33
554.84	59023.63
555.00	59035.33
555.17	59121.93
555.33	59077.46
555.50	59030.65
555.67	59011.93
555.83	58763.83
556.00	58932.35
556.16	59351.30
556.33	59147.68
556.50	59257.68
556.66	59278.75
556.83	59098.53
556.99	59594.72
557.16	59330.24
557.32	59491.74
557.49	59568.97
557.65	59234.28
557.82	59377.05
557.98	59505.78
558.15	59377.05
558.32	59620.47
558.48	59313.86
558.65	59447.27
558.81	59461.31
558.98	59538.55
559.14	59498.76
559.31	59524.50
559.47	59566.63
559.64	59517.48
559.80	59421.52
559.97	59765.58
560.13	59508.12
560.30	59594.72
560.46	59671.96
560.63	59732.81
560.79	59674.30
560.96	59730.47
561.12	59760.90
561.29	59985.59
561.45	59728.13
561.61	59861.54
561.78	59973.89
561.94	59859.20
562.11	59641.53
562.27	59903.67
562.44	60041.76
562.60	59999.63
562.77	59950.48
562.93	59767.92
563.10	60140.07
563.26	59828.77
563.42	60060.49
563.59	60060.49
563.75	59943.46
563.92	60051.12
564.08	60093.25
564.24	60144.75
564.41	59980.91
564.57	60020.70
564.74	60149.43
564.90	60212.62
565.07	60062.83
565.23	59887.29
565.39	59964.52
565.56	60135.38
565.72	59964.52
565.88	59973.89
566.05	60137.72
566.21	60062.83
566.38	60306.24
566.54	60109.64
566.70	60317.95
566.87	60420.93
567.03	60149.43
567.19	60320.29
567.36	60498.17
567.52	60594.13
567.68	60402.21
567.85	60416.25
568.01	60264.11
568.17	60221.98
568.34	60430.29
568.50	60191.56
568.66	60243.05
568.83	60423.27
568.99	60334.33
569.15	60449.02
569.32	60278.16
569.48	60240.71
569.64	60313.26
569.81	60437.31
569.97	60191.56
570.13	60535.62
570.30	60343.69
570.46	60556.68
570.62	60481.78
570.78	60430.29
570.95	60329.65
571.11	60434.97
571.27	60449.02
571.43	60486.46
571.60	60666.69
571.76	60484.12
571.92	60547.32
572.09	60743.92
572.25	60636.26
572.41	60392.84
572.57	60612.85
572.74	60743.92
572.90	60624.56
573.06	60608.17
573.22	60451.36
573.38	60605.83
573.55	60451.36
573.71	60704.13
573.87	60547.32
574.03	60584.77
574.20	60683.07
574.36	60608.17
574.52	60795.42
574.68	60519.23
574.84	60701.79
575.01	60804.78
575.17	60828.18
575.33	60776.69
575.49	60708.82
575.65	60612.85
575.82	60786.05
575.98	60767.33
576.14	61006.06
576.30	60624.56
576.46	60816.48
576.62	60528.59
576.79	60743.92
576.95	60652.64
577.11	60764.99
577.27	60776.69
577.43	60800.10
577.59	60615.19
577.75	60725.20
577.92	60617.53
578.08	60786.05
578.24	60842.23
578.40	61036.49
578.56	60879.67
578.72	60821.16
578.88	60975.64
579.04	61064.58
579.21	60989.68
579.37	60865.63
579.53	60874.99
579.69	60549.66
579.85	60781.37
580.01	60760.31
580.17	60589.45
580.33	60790.73
580.49	60926.49
580.65	60839.89
580.82	60741.58
580.98	60846.91
581.14	60678.39
581.30	61120.75
581.46	60790.73
581.62	60891.38
581.78	60760.31
581.94	61006.06
582.10	60746.26
582.26	60802.44
582.42	60823.50
582.58	60828.18
582.74	61001.38
582.90	60938.19
583.06	60942.87
583.22	60643.28
583.38	60942.87
583.54	60802.44
583.70	61160.54
583.86	61076.28
584.02	61029.47
584.18	61076.28
584.34	61001.38
584.50	60790.73
584.66	60980.32
584.82	60860.95
584.98	61256.50
585.14	60973.30
585.30	60814.14
585.46	60959.25
585.62	60992.02
585.78	61186.28
585.94	60683.07
586.10	61029.47
586.26	61059.90
586.42	61113.73
586.58	61167.56
586.74	61024.79
586.90	60917.12
587.06	60975.64
587.22	61130.11
587.38	61167.56
587.54	61078.62
587.70	61275.22
587.86	61118.41
588.02	60956.91
588.18	61099.68
588.34	60802.44
588.49	60823.50
