SpectraSuite Data File
++++++++++++++++++++++++++++++++++++
Date: Fri Oct 25 11:23:24 EDT 2013
User: price-jones
Dark Spectrum Present: No
Reference Spectrum Present: No
Number of Sampled Component Spectra: 1
Spectrometers: USB2+H05261
Integration Time (usec): 100000 (USB2+H05261)
Spectra Averaged: 1 (USB2+H05261)
Boxcar Smoothing: 0 (USB2+H05261)
Correct for Electrical Dark: No (USB2+H05261)
Strobe/Lamp Enabled: No (USB2+H05261)
Correct for Detector Non-linearity: No (USB2+H05261)
Correct for Stray Light: No (USB2+H05261)
Number of Pixels in Processed Spectrum: 2048
>>>>>Begin Processed Spectral Data<<<<<
365.73	210.65
365.92	210.65
366.12	210.65
366.32	184.90
366.52	156.82
366.72	170.86
366.91	131.07
367.11	121.71
367.31	163.84
367.51	163.84
367.70	70.22
367.90	133.41
368.10	124.05
368.30	98.30
368.49	149.79
368.69	124.05
368.89	210.65
369.09	175.54
369.28	149.79
369.48	142.77
369.68	189.58
369.87	175.54
370.07	161.50
370.27	140.43
370.47	273.84
370.66	589.82
370.86	603.86
371.06	662.37
371.25	709.18
371.45	631.94
371.65	641.31
371.84	678.76
372.04	608.54
372.24	667.05
372.44	650.67
372.63	709.18
372.83	791.10
373.03	755.99
373.22	713.86
373.42	903.45
373.62	772.38
373.81	697.48
374.01	758.33
374.21	807.48
374.40	819.19
374.60	816.85
374.79	809.83
374.99	830.89
375.19	814.51
375.38	828.55
375.58	786.42
375.78	826.21
375.97	863.66
376.17	873.02
376.37	816.85
376.56	837.91
376.76	910.47
376.95	835.57
377.15	919.83
377.35	926.85
377.54	952.60
377.74	891.74
377.93	884.72
378.13	957.28
378.33	938.55
378.52	894.08
378.72	903.45
378.91	880.04
379.11	842.59
379.31	938.55
379.50	917.49
379.70	1015.79
379.89	1090.69
380.09	976.00
380.28	1027.50
380.48	999.41
380.68	973.66
380.87	1036.86
381.07	997.07
381.26	968.98
381.46	1036.86
381.65	1048.56
381.85	1008.77
382.04	1027.50
382.24	1025.15
382.43	1081.33
382.63	1025.15
382.83	1022.81
383.02	1100.05
383.22	1083.67
383.41	1109.41
383.61	1097.71
383.80	1121.12
384.00	1069.62
384.19	1097.71
384.39	1116.44
384.58	1139.84
384.78	1100.05
384.97	1160.91
385.17	1111.75
385.36	1210.06
385.56	1249.85
385.75	1132.82
385.95	1186.65
386.14	1242.82
386.34	1186.65
386.53	1310.70
386.72	1181.97
386.92	1184.31
387.11	1233.46
387.31	1310.70
387.50	1205.38
387.70	1219.42
387.89	1329.42
388.09	1306.02
388.28	1296.66
388.48	1317.72
388.67	1273.25
388.86	1261.55
389.06	1306.02
389.25	1364.53
389.45	1336.45
389.64	1359.85
389.84	1380.92
390.03	1371.55
390.22	1453.47
390.42	1486.24
390.61	1441.77
390.81	1291.98
391.00	1350.49
391.19	1455.81
391.39	1394.96
391.58	1371.55
391.78	1369.21
391.97	1486.24
392.16	1493.26
392.36	1509.65
392.55	1591.56
392.75	1528.37
392.94	1544.75
393.13	1563.48
393.33	1570.50
393.52	1516.67
393.71	1514.33
393.91	1535.39
394.10	1654.76
394.29	1675.82
394.49	1671.14
394.68	1664.12
394.88	1650.08
395.07	1640.72
395.26	1640.72
395.46	1647.74
395.65	1748.38
395.84	1621.99
396.04	1802.21
396.23	1624.33
396.42	1713.27
396.62	1811.57
396.81	1713.27
397.00	1743.70
397.19	1811.57
397.39	1769.44
397.58	1825.62
397.77	1816.26
397.97	1849.02
398.16	1916.90
398.35	1888.81
398.55	1816.26
398.74	2010.52
398.93	1881.79
399.12	2008.18
399.32	1853.70
399.51	1980.09
399.70	2043.29
399.90	2010.52
400.09	1970.73
400.28	2005.84
400.47	2062.01
400.67	2122.87
400.86	2092.44
401.05	2059.67
401.24	2092.44
401.44	2200.10
401.63	2277.34
401.82	2134.57
402.01	2125.21
402.21	2204.78
402.40	2256.28
402.59	2291.38
402.78	2232.87
402.97	2296.07
403.17	2235.21
403.36	2368.62
403.55	2370.96
403.74	2375.64
403.93	2366.28
404.13	2448.20
404.32	2314.79
404.51	2352.24
404.70	2546.50
404.89	2333.51
405.09	2462.24
405.28	2495.01
405.47	2525.44
405.66	2478.63
405.85	2534.80
406.05	2562.89
406.24	2560.55
406.43	2597.99
406.62	2640.12
406.81	2698.64
407.00	2560.55
407.20	2576.93
407.39	2729.06
407.58	2808.64
407.77	2684.59
407.96	2740.77
408.15	2736.09
408.34	2663.53
408.54	2803.96
408.73	2803.96
408.92	2839.07
409.11	2843.75
409.30	2874.18
409.49	2815.66
409.68	2923.33
409.87	2818.00
410.07	3063.76
410.26	2942.05
410.45	2995.89
410.64	2942.05
410.83	3110.57
411.02	3045.04
411.21	3129.30
411.40	3084.83
411.59	3152.70
411.78	3204.19
411.98	3185.47
412.17	3236.96
412.36	3405.48
412.55	3454.63
412.74	3468.67
412.93	3358.67
413.12	3485.06
413.31	3531.87
413.50	3475.70
413.69	3557.61
413.88	3609.11
414.07	3496.76
414.26	3569.32
414.45	3796.35
414.64	3688.68
414.83	3763.58
415.02	3880.61
415.22	3817.41
415.41	4004.66
415.60	3847.84
415.79	3983.59
415.98	3948.48
416.17	4007.00
416.36	3969.55
416.55	3964.87
416.74	4156.79
416.93	4175.52
417.12	4156.79
417.31	4231.69
417.50	4112.32
417.69	4299.56
417.88	4259.78
418.07	4313.61
418.26	4334.67
418.45	4318.29
418.64	4395.53
418.83	4486.81
419.02	4271.48
419.21	4430.63
419.39	4631.92
419.58	4613.20
419.77	4580.43
419.96	4318.29
420.15	4542.98
420.34	4533.62
420.53	4547.66
420.72	4755.97
420.91	4723.20
421.10	4826.18
421.29	4802.78
421.48	4812.14
421.67	4844.91
421.86	4737.24
422.05	4835.55
422.24	4760.65
422.43	4901.08
422.61	4987.68
422.80	5041.51
422.99	4961.94
423.18	5071.94
423.37	4936.19
423.56	4966.62
423.75	5050.88
423.94	4755.97
424.13	4697.46
424.32	4821.50
424.50	4992.36
424.69	5301.31
424.88	5186.63
425.07	4983.00
425.26	5011.09
425.45	5048.54
425.64	4978.32
425.83	5006.41
426.01	5088.32
426.20	5095.35
426.39	5097.69
426.58	5097.69
426.77	5144.50
426.96	5198.33
427.15	5235.78
427.33	5320.04
427.52	5193.65
427.71	5343.44
427.90	5298.97
428.09	5294.29
428.28	5448.77
428.46	5423.02
428.65	5294.29
428.84	5444.09
429.03	5535.37
429.22	5308.34
429.40	5430.04
429.59	5530.69
429.78	5268.55
429.97	5219.39
430.16	5423.02
430.34	5596.22
430.53	5654.73
430.72	5682.82
430.91	5645.37
431.10	5664.10
431.28	5816.23
431.47	5710.91
431.66	5942.62
431.85	5687.50
432.03	5834.96
432.22	6040.92
432.41	5778.78
432.60	6022.20
432.79	5973.05
432.97	5928.58
433.16	6104.12
433.35	6132.20
433.54	6085.39
433.72	6134.54
433.91	6080.71
434.10	6031.56
434.28	6122.84
434.47	6340.51
434.66	6406.05
434.85	6375.62
435.03	6338.17
435.22	6310.08
435.41	6565.20
435.59	6544.14
435.78	6366.26
435.97	6478.60
436.16	6370.94
436.34	6431.79
436.53	6485.62
436.72	6813.30
436.90	6555.84
437.09	6672.87
437.28	6616.69
437.46	6766.49
437.65	6616.69
437.84	6766.49
438.02	6932.67
438.21	6743.08
438.40	6775.85
438.58	6951.39
438.77	7080.12
438.96	6927.99
439.14	7056.72
439.33	7274.38
439.52	7295.45
439.70	7372.69
439.89	7473.33
440.08	7452.27
440.26	7487.37
440.45	7288.43
440.63	7466.31
440.82	7700.36
441.01	7662.91
441.19	7648.87
441.38	7817.39
441.57	7737.81
441.75	7868.88
441.94	8056.12
442.12	7990.59
442.31	8248.05
442.50	8250.39
442.68	7836.11
442.87	7969.52
443.05	8379.12
443.24	8344.01
443.43	8205.92
443.61	8313.58
443.80	8589.77
443.98	8124.00
444.17	7871.22
444.35	8238.69
444.54	8219.96
444.73	8388.48
444.91	8334.65
445.10	8430.61
445.28	8500.83
445.47	8161.45
445.65	8383.80
445.84	8554.66
446.02	8510.19
446.21	8500.83
446.39	8393.16
446.58	8519.55
446.77	8463.38
446.95	8194.22
447.14	8674.03
447.32	8748.92
447.51	8681.05
447.69	8388.48
447.88	8582.74
448.06	8496.14
448.25	8575.72
448.43	8589.77
448.62	8652.96
448.80	8760.63
448.99	8760.63
449.17	8709.13
449.36	8580.40
449.54	9076.60
449.73	9008.72
449.91	9085.96
450.10	8872.97
450.28	9114.05
450.46	9118.73
450.65	9123.41
450.83	9172.56
451.02	8973.61
451.20	9327.03
451.39	9235.75
451.57	9198.31
451.76	9191.28
451.94	9355.12
452.13	9554.07
452.31	9343.42
452.49	9287.25
452.68	9465.13
452.86	9467.47
453.05	9448.74
453.23	9607.90
453.42	9380.87
453.60	9432.36
453.78	9565.77
453.97	9437.04
454.15	9418.32
454.34	9551.73
454.52	9401.93
454.70	9715.56
454.89	9738.97
455.07	9774.08
455.26	9806.84
455.44	10230.48
455.62	9947.28
455.81	10125.16
455.99	9914.51
456.17	10136.86
456.36	10228.14
456.54	10132.18
456.73	10108.77
456.91	10497.30
457.09	10607.31
457.28	10726.68
457.46	10408.36
457.64	10548.79
457.83	10534.75
458.01	10607.31
458.19	10930.30
458.38	10548.79
458.56	10799.23
458.74	10787.53
458.93	10705.61
459.11	10876.47
459.29	10923.28
459.48	11030.94
459.66	10909.24
459.84	11143.29
460.03	10974.77
460.21	11005.20
460.39	11180.74
460.57	11014.56
460.76	11145.63
460.94	11157.33
461.12	11260.32
461.31	11136.27
461.49	11290.74
461.67	11344.58
461.85	11609.06
462.04	11353.94
462.22	11508.41
462.40	11634.80
462.59	11428.84
462.77	11602.04
462.95	11754.17
463.13	11712.04
463.32	11812.68
463.50	11627.78
463.68	11819.71
463.86	11751.83
464.05	11705.02
464.23	11749.49
464.41	11976.52
464.59	11826.73
464.78	12189.51
464.96	11990.56
465.14	11941.41
465.32	12107.59
465.50	12250.36
465.69	12142.70
465.87	12318.24
466.05	12369.73
466.23	12231.64
466.41	12229.30
466.60	12463.35
466.78	12161.42
466.96	12430.59
467.14	12545.27
467.32	12538.25
467.51	12910.40
467.69	12294.83
467.87	12533.57
468.05	12821.45
468.23	12430.59
468.41	12362.71
468.60	12624.85
468.78	12875.29
468.96	12278.45
469.14	12903.37
469.32	12973.59
469.50	12938.48
469.69	12912.74
469.87	13214.66
470.05	13088.28
470.23	13277.86
470.41	13226.37
470.59	13317.65
470.77	13446.38
470.95	13502.55
471.14	13415.95
471.32	13266.16
471.50	13696.82
471.68	13767.03
471.86	13680.43
472.04	13834.91
472.22	13923.85
472.40	13919.17
472.58	14108.75
472.77	14134.50
472.95	14490.26
473.13	14553.45
473.31	14293.65
473.49	14359.19
473.67	14274.93
473.85	14483.24
474.03	14703.25
474.21	14562.81
474.39	14656.43
474.57	14988.79
474.75	15084.75
474.93	15101.14
475.12	15073.05
475.30	15398.38
475.48	15033.26
475.66	15227.53
475.84	15405.41
476.02	15690.95
476.20	15520.09
476.38	15948.41
476.56	16322.90
476.74	16243.32
476.92	15932.03
477.10	15522.43
477.28	16229.27
477.46	16049.05
477.64	16376.73
477.82	16819.09
478.00	17102.29
478.18	16849.52
478.36	17013.35
478.54	17341.03
478.72	17277.83
478.90	17455.72
479.08	17612.53
479.26	17664.02
479.44	17757.64
479.62	18012.76
479.80	18178.94
479.98	18352.14
480.16	18719.60
480.34	18473.85
480.52	18775.78
480.70	18654.07
480.88	18546.40
481.06	18766.42
481.24	18794.50
481.41	19159.63
481.59	19325.80
481.77	19569.22
481.95	19749.44
482.13	20067.75
482.31	19946.05
482.49	20313.51
482.67	20301.81
482.85	20453.94
483.03	20847.15
483.21	20954.82
483.39	21181.85
483.57	21429.94
483.74	21308.24
483.92	21298.88
484.10	21263.77
484.28	21965.93
484.46	22045.51
484.64	22464.46
484.82	22195.30
485.00	22867.03
485.18	22909.16
485.35	23180.67
485.53	23068.32
485.71	23449.83
485.89	23934.32
486.07	23857.08
486.25	23487.28
486.43	23910.91
486.61	24329.87
486.78	24364.98
486.96	24453.92
487.14	25053.09
487.32	24812.02
487.50	25350.34
487.68	25046.07
487.85	25546.95
488.03	25837.17
488.21	26363.79
488.39	26082.93
488.57	26214.00
488.75	26040.80
488.92	26675.09
489.10	27096.38
489.28	27049.57
489.46	27370.22
489.64	27049.57
489.81	27824.29
489.99	27941.32
490.17	27765.78
490.35	28442.19
490.53	28577.94
490.70	29130.31
490.88	28622.41
491.06	29153.71
491.24	29020.30
491.41	29022.64
491.59	29680.33
491.77	29542.24
491.95	29734.17
492.13	29788.00
492.30	30782.73
492.48	30302.92
492.66	30654.00
492.84	30679.74
493.01	30885.71
493.19	30780.39
493.37	31026.14
493.54	31199.34
493.72	31770.43
493.90	31695.53
494.08	32285.35
494.25	32161.30
494.43	32746.44
494.61	32453.87
494.79	32589.62
494.96	33017.94
495.14	33046.02
495.32	33347.95
495.49	33378.38
495.67	33635.84
495.85	34227.99
496.02	34352.04
496.20	34078.20
496.38	34576.73
496.55	33993.94
496.73	34983.99
496.91	34691.42
497.09	34845.90
497.26	35196.98
497.44	35063.57
497.62	35129.10
497.79	36004.46
497.97	35805.52
498.14	36470.23
498.32	36704.28
498.50	36657.47
498.67	36767.48
498.85	36851.73
499.03	36889.18
499.20	37099.83
499.38	37050.68
499.56	37518.79
499.73	37390.06
499.91	37780.93
500.08	38075.84
500.26	37581.98
500.44	37975.19
500.61	38452.66
500.79	38195.20
500.97	38452.66
501.14	38740.55
501.32	38941.83
501.49	38721.82
501.67	39056.52
501.84	39229.72
502.02	39051.84
502.20	39660.38
502.37	39548.03
502.55	39356.11
502.72	39969.33
502.90	39519.95
503.07	39840.60
503.25	40229.13
503.43	40011.46
503.60	40524.04
503.78	40109.76
503.95	40299.34
504.13	40889.16
504.30	40844.69
504.48	40772.13
504.65	41090.44
504.83	41001.50
505.01	41635.79
505.18	41808.99
505.36	41783.24
505.53	41717.71
505.71	41909.63
505.88	42445.62
506.06	41851.12
506.23	42422.21
506.41	42143.69
506.58	42466.68
506.76	42146.03
506.93	42850.53
507.11	42321.57
507.28	43150.12
507.46	43192.25
507.63	43166.50
507.81	43758.66
507.98	42969.90
508.16	43672.06
508.33	43646.31
508.50	43842.92
508.68	44102.71
508.85	44299.32
509.03	43924.83
509.20	44112.08
509.38	44737.00
509.55	44903.18
509.73	44610.61
509.90	45177.02
510.08	44814.24
510.25	45017.86
510.42	45268.30
510.60	44882.11
510.77	45745.77
510.95	45830.03
511.12	45305.75
511.30	45982.16
511.47	46005.57
511.64	45996.21
511.82	46501.76
511.99	45797.26
512.17	46377.72
512.34	46244.30
512.51	46417.50
512.69	46541.55
512.86	46333.24
513.04	46803.69
513.21	47035.41
513.38	47313.93
513.56	47248.39
513.73	47091.58
513.90	47239.03
514.08	47332.65
514.25	47730.54
514.43	47873.32
514.60	47253.08
514.77	47363.08
514.95	48100.35
515.12	47295.21
515.29	47845.23
515.47	48072.26
515.64	48170.57
515.81	48154.18
515.99	48402.28
516.16	48680.80
516.33	48428.02
516.51	49240.19
516.68	48982.73
516.85	48575.48
517.03	48994.43
517.20	49024.86
517.37	49059.97
517.54	48959.33
517.72	49324.45
517.89	49111.46
518.06	49750.43
518.24	49755.11
518.41	49617.02
518.58	49921.29
518.75	49514.03
518.93	49663.83
519.10	49963.42
519.27	50169.38
519.45	50328.54
519.62	49965.76
519.79	50263.00
519.96	50232.58
520.14	50326.20
520.31	50239.60
520.48	50714.73
520.65	50571.96
520.83	50993.25
521.00	51323.27
521.17	50806.01
521.34	51061.13
521.52	50897.29
521.69	51283.48
521.86	51173.47
522.03	51430.93
522.20	51168.79
522.38	51239.01
522.55	51489.45
522.72	51391.14
522.89	51812.44
523.07	51812.44
523.24	51819.46
523.41	51664.99
523.58	51683.71
523.75	52301.61
523.92	51744.56
524.10	52243.10
524.27	52140.11
524.44	52594.18
524.61	52289.91
524.78	52566.09
524.96	52760.36
525.13	52495.88
525.30	52673.76
525.47	52470.13
525.64	52734.61
525.81	53003.77
525.98	52821.21
526.16	52788.44
526.33	52956.96
526.50	53251.87
526.67	53291.66
526.84	52973.34
527.01	53123.14
527.18	53308.04
527.36	53544.44
527.53	53186.33
527.70	53661.46
527.87	53745.72
528.04	53324.43
528.21	53841.68
528.38	53670.82
528.55	53862.75
528.72	53602.95
528.89	53535.07
529.07	53652.10
529.24	53483.58
529.41	53745.72
529.58	53961.05
529.75	53958.71
529.92	54059.35
530.09	54059.35
530.26	54066.38
530.43	54522.78
530.60	54185.74
530.77	53900.20
530.94	54277.02
531.11	53851.05
531.28	54298.09
531.46	54426.82
531.63	54485.33
531.80	54712.36
531.97	54761.51
532.14	54646.83
532.31	54866.84
532.48	54805.98
532.65	54820.03
532.82	54609.38
532.99	54894.92
533.16	54794.28
533.33	55063.44
533.50	55164.09
533.67	54997.91
533.84	54801.30
534.01	55182.81
534.18	55061.10
534.35	55538.57
534.52	55281.11
534.69	55524.53
534.86	55526.87
535.03	55299.84
535.20	55475.38
535.37	55671.98
535.54	55379.42
535.71	55533.89
535.88	55709.43
536.05	55477.72
536.22	55845.18
536.38	55606.45
536.55	56140.09
536.72	55856.88
536.89	55749.22
537.06	55861.57
537.23	56044.13
537.40	55774.97
537.57	55849.86
537.74	55950.51
537.91	56189.24
538.08	56151.79
538.25	55859.23
538.42	56104.98
538.59	56320.31
538.75	56163.50
538.92	56233.71
539.09	56446.70
539.26	56479.47
539.43	56348.40
539.60	56507.55
539.77	56315.63
539.94	56582.45
540.11	56643.30
540.28	56779.06
540.44	56514.58
540.61	56659.69
540.78	56500.53
540.95	56519.26
541.12	56713.52
541.29	56479.47
541.46	56664.37
541.62	56683.09
541.79	56743.95
541.96	56788.42
542.13	56828.21
542.30	56978.00
542.47	57132.48
542.63	56952.26
542.80	57055.24
542.97	56996.73
543.14	57553.77
543.31	57286.95
543.48	57137.16
543.64	57537.39
543.81	57546.75
543.98	57776.12
544.15	57724.63
544.32	57680.16
544.48	57649.74
544.65	57518.67
544.82	57506.96
544.99	57190.99
545.16	57565.48
545.32	57682.50
545.49	57827.62
545.66	57942.30
545.83	57965.71
546.00	57951.66
546.16	57813.57
546.33	57532.71
546.50	57499.94
546.67	57848.68
546.83	57794.85
547.00	58089.76
547.17	57853.36
547.34	58052.31
547.50	58028.90
547.67	58082.73
547.84	58202.10
548.00	58525.10
548.17	58518.07
548.34	58300.40
548.51	58370.62
548.67	58471.26
548.84	58405.73
549.01	58375.30
549.18	58281.68
549.34	58422.11
549.51	58550.84
549.68	58541.48
549.84	58506.37
550.01	58644.46
550.18	58372.96
550.34	58728.72
550.51	58801.28
550.68	58504.03
550.84	58494.67
551.01	58906.60
551.18	58639.78
551.34	58773.19
551.51	58873.84
551.68	58536.80
551.84	58508.71
552.01	58541.48
552.18	58829.37
552.34	58770.85
552.51	59044.69
552.68	58707.66
552.84	58731.06
553.01	59126.61
553.18	58990.86
553.34	59091.51
553.51	59035.33
553.67	58892.56
553.84	59152.36
554.01	58974.48
554.17	59274.07
554.34	59084.48
554.51	59367.69
554.67	59082.14
554.84	59262.36
555.00	59285.77
555.17	59042.35
555.33	59072.78
555.50	59304.49
555.67	59278.75
555.83	59182.79
556.00	59377.05
556.16	59592.38
556.33	59536.21
556.50	59353.65
556.66	59550.25
556.83	59168.74
556.99	59561.95
557.16	59723.45
557.32	59746.86
557.49	59756.22
557.65	59576.00
557.82	59730.47
557.98	59580.68
558.15	59639.19
558.32	59767.92
558.48	59585.36
558.65	59863.88
558.81	59744.51
558.98	59826.43
559.14	59737.49
559.31	59859.20
559.47	59845.16
559.64	59826.43
559.80	59831.11
559.97	59945.80
560.13	59688.34
560.30	59898.99
560.46	59770.26
560.63	59964.52
560.79	60158.79
560.96	60067.51
561.12	60093.25
561.29	60083.89
561.45	60135.38
561.61	59990.27
561.78	59924.74
561.94	59936.44
562.11	60062.83
562.27	59896.65
562.44	60175.17
562.60	60266.45
562.77	60158.79
562.93	59936.44
563.10	60196.24
563.26	60011.34
563.42	60444.33
563.59	60205.60
563.75	60121.34
563.92	60121.34
564.08	60168.15
564.24	60392.84
564.41	60390.50
564.57	60357.74
564.74	60343.69
564.90	60339.01
565.07	60310.92
565.23	60264.11
565.39	60317.95
565.56	60252.41
565.72	60336.67
565.88	60388.16
566.05	60460.72
566.21	60193.90
566.38	60566.04
566.54	60308.58
566.70	60357.74
566.87	60369.44
567.03	60264.11
567.19	60521.57
567.36	60432.63
567.52	60547.32
567.68	60720.52
567.85	60491.15
568.01	60713.50
568.17	60577.75
568.34	60542.64
568.50	60367.10
568.66	60519.23
568.83	60594.13
568.99	60540.30
569.15	60481.78
569.32	60507.53
569.48	60537.96
569.64	60654.98
569.81	60502.85
569.97	60402.21
570.13	60835.20
570.30	60521.57
570.46	60608.17
570.62	60589.45
570.78	60687.75
570.95	60748.60
571.11	60860.95
571.27	60774.35
571.43	60898.40
571.60	60879.67
571.76	60877.33
571.92	60769.67
572.09	60753.29
572.25	60720.52
572.41	60774.35
572.57	60860.95
572.74	60933.51
572.90	60793.07
573.06	60905.42
573.22	60715.84
573.38	60867.97
573.55	60896.06
573.71	60804.78
573.87	61036.49
574.03	60743.92
574.20	60947.55
574.36	60699.45
574.52	60781.37
574.68	60952.23
574.84	60952.23
575.01	61057.56
575.17	61010.74
575.33	60790.73
575.49	60856.27
575.65	61020.11
575.82	60891.38
575.98	60874.99
576.14	61254.16
576.30	61055.21
576.46	60851.59
576.62	60872.65
576.79	61095.00
576.95	60732.22
577.11	60977.98
577.27	60940.53
577.43	61127.77
577.59	60940.53
577.75	60851.59
577.92	60933.51
578.08	60959.25
578.24	61080.96
578.40	61102.03
578.56	61055.21
578.72	61029.47
578.88	61151.18
579.04	61256.50
579.21	61193.31
579.37	61073.94
579.53	61031.81
579.69	60867.97
579.85	60992.02
580.01	61080.96
580.17	60959.25
580.33	61102.03
580.49	61197.99
580.65	61190.97
580.82	61109.05
580.98	61029.47
581.14	60985.00
581.30	61172.24
581.46	60989.68
581.62	61073.94
581.78	60919.46
581.94	61099.68
582.10	61169.90
582.26	60994.36
582.42	61193.31
582.58	61055.21
582.74	61024.79
582.90	61268.20
583.06	61195.65
583.22	61097.34
583.38	61092.66
583.54	61258.84
583.70	61172.24
583.86	61345.44
584.02	61020.11
584.18	61244.80
584.34	61186.28
584.50	61305.65
584.66	61071.60
584.82	60999.04
584.98	61249.48
585.14	61343.10
585.30	61069.26
585.46	61167.56
585.62	61261.18
585.78	61375.87
585.94	61008.40
586.10	61038.83
586.26	61127.77
586.42	61242.46
586.58	61148.84
586.74	61298.63
586.90	61277.57
587.06	61127.77
587.22	61286.93
587.38	61399.27
587.54	61272.88
587.70	61485.87
587.86	61214.37
588.02	61205.01
588.18	61242.46
588.34	61064.58
588.49	61212.03
