SpectraSuite Data File
++++++++++++++++++++++++++++++++++++
Date: Fri Oct 25 10:48:09 EDT 2013
User: price-jones
Dark Spectrum Present: No
Reference Spectrum Present: No
Number of Sampled Component Spectra: 1
Spectrometers: USB2+H05261
Integration Time (usec): 100000 (USB2+H05261)
Spectra Averaged: 1 (USB2+H05261)
Boxcar Smoothing: 0 (USB2+H05261)
Correct for Electrical Dark: No (USB2+H05261)
Strobe/Lamp Enabled: No (USB2+H05261)
Correct for Detector Non-linearity: No (USB2+H05261)
Correct for Stray Light: No (USB2+H05261)
Number of Pixels in Processed Spectrum: 2048
>>>>>Begin Processed Spectral Data<<<<<
365.73	159.16
365.92	159.16
366.12	159.16
366.32	49.15
366.52	44.47
366.72	42.13
366.91	86.60
367.11	25.75
367.31	0.00
367.51	32.77
367.70	23.41
367.90	60.85
368.10	9.36
368.30	56.17
368.49	74.90
368.69	51.49
368.89	46.81
369.09	14.04
369.28	95.96
369.48	44.47
369.68	35.11
369.87	133.41
370.07	112.35
370.27	128.73
370.47	159.16
370.66	383.85
370.86	393.21
371.06	365.12
371.25	472.79
371.45	428.32
371.65	491.51
371.84	491.51
372.04	484.49
372.24	507.90
372.44	461.09
372.63	484.49
372.83	486.83
373.03	461.09
373.22	514.92
373.42	519.60
373.62	540.66
373.81	484.49
374.01	524.28
374.21	535.98
374.40	489.17
374.60	552.37
374.79	543.00
374.99	533.64
375.19	531.30
375.38	510.24
375.58	552.37
375.78	557.05
375.97	568.75
376.17	627.26
376.37	582.79
376.56	559.39
376.76	547.69
376.95	559.39
377.15	603.86
377.35	512.58
377.54	601.52
377.74	655.35
377.93	505.56
378.13	559.39
378.33	667.05
378.52	627.26
378.72	711.52
378.91	610.88
379.11	674.07
379.31	601.52
379.50	582.79
379.70	601.52
379.89	690.46
380.09	634.29
380.28	711.52
380.48	669.39
380.68	697.48
380.87	655.35
381.07	723.23
381.26	713.86
381.46	641.31
381.65	763.01
381.85	741.95
382.04	678.76
382.24	725.57
382.43	662.37
382.63	685.78
382.83	732.59
383.02	690.46
383.22	795.78
383.41	720.88
383.61	692.80
383.80	807.48
384.00	774.72
384.19	753.65
384.39	748.97
384.58	655.35
384.78	711.52
384.97	725.57
385.17	688.12
385.36	741.95
385.56	699.82
385.75	772.38
385.95	730.25
386.14	713.86
386.34	772.38
386.53	788.76
386.72	746.63
386.92	795.78
387.11	819.19
387.31	849.61
387.50	795.78
387.70	755.99
387.89	751.31
388.09	739.61
388.28	877.70
388.48	807.48
388.67	840.25
388.86	870.68
389.06	922.17
389.25	912.81
389.45	870.68
389.64	884.72
389.84	952.60
390.03	915.15
390.22	882.38
390.42	861.32
390.61	903.45
390.81	887.06
391.00	992.39
391.19	983.02
391.39	929.19
391.58	929.19
391.78	957.28
391.97	926.85
392.16	929.19
392.36	980.68
392.55	863.66
392.75	924.51
392.94	999.41
393.13	964.30
393.33	985.37
393.52	1053.24
393.71	1027.50
393.91	992.39
394.10	1081.33
394.29	1036.86
394.49	1093.03
394.68	1116.44
394.88	1212.40
395.07	1067.28
395.26	1095.37
395.46	1114.10
395.65	1170.27
395.84	1214.74
396.04	1249.85
396.23	1081.33
396.42	1048.56
396.62	1102.39
396.81	1179.63
397.00	1123.46
397.19	1210.06
397.39	1069.62
397.58	1336.45
397.77	1165.59
397.97	1268.57
398.16	1331.76
398.35	1291.98
398.55	1310.70
398.74	1315.38
398.93	1294.32
399.12	1289.64
399.32	1348.15
399.51	1263.89
399.70	1341.13
399.90	1284.95
400.09	1392.62
400.28	1296.66
400.47	1397.30
400.67	1490.92
400.86	1425.39
401.05	1423.05
401.24	1380.92
401.44	1467.52
401.63	1509.65
401.82	1411.34
402.01	1376.24
402.21	1472.20
402.40	1469.86
402.59	1490.92
402.78	1565.82
402.97	1446.45
403.17	1446.45
403.36	1544.75
403.55	1542.41
403.74	1586.88
403.93	1643.06
404.13	1708.59
404.32	1652.42
404.51	1640.72
404.70	1724.97
404.89	1610.29
405.09	1673.48
405.28	1755.40
405.47	1706.25
405.66	1778.81
405.85	1724.97
406.05	1729.66
406.24	1764.76
406.43	1898.17
406.62	1767.10
406.81	1919.24
407.00	1762.42
407.20	1659.44
407.39	1799.87
407.58	1792.85
407.77	1881.79
407.96	1846.68
408.15	1912.22
408.34	1863.07
408.54	2029.24
408.73	1923.92
408.92	2064.35
409.11	2080.74
409.30	2071.37
409.49	2036.27
409.68	2033.93
409.87	2062.01
410.07	2038.61
410.26	2010.52
410.45	2106.48
410.64	2115.84
410.83	2157.97
411.02	2200.10
411.21	2169.68
411.40	2272.66
411.59	2228.19
411.78	2200.10
411.98	2239.89
412.17	2406.07
412.36	2305.43
412.55	2214.15
412.74	2401.39
412.93	2476.29
413.12	2373.30
413.31	2527.78
413.50	2478.63
413.69	2527.78
413.88	2516.08
414.07	2567.57
414.26	2663.53
414.45	2562.89
414.64	2597.99
414.83	2626.08
415.02	2555.86
415.22	2670.55
415.41	2710.34
415.60	2794.60
415.79	2780.56
415.98	2799.28
416.17	2843.75
416.36	2820.35
416.55	2715.02
416.74	2855.45
416.93	2841.41
417.12	3033.33
417.31	2913.97
417.50	2895.24
417.69	3040.36
417.88	3122.27
418.07	3105.89
418.26	3061.42
418.45	3155.04
418.64	3199.51
418.83	3094.19
419.02	3122.27
419.21	3183.13
419.39	3178.45
419.58	3042.70
419.77	3185.47
419.96	3096.53
420.15	3173.77
420.34	3204.19
420.53	3323.56
420.72	3379.73
420.91	3274.41
421.10	3206.53
421.29	3372.71
421.48	3433.57
421.67	3267.39
421.86	3435.91
422.05	3356.33
422.24	3318.88
422.43	3438.25
422.61	3506.12
422.80	3473.36
422.99	3550.59
423.18	3449.95
423.37	3583.36
423.56	3440.59
423.75	3508.46
423.94	3466.33
424.13	3272.07
424.32	3375.05
424.50	3634.85
424.69	3602.08
424.88	3529.53
425.07	3414.84
425.26	3522.51
425.45	3506.12
425.64	3494.42
425.83	3431.23
426.01	3489.74
426.20	3459.31
426.39	3592.72
426.58	3513.14
426.77	3471.01
426.96	3501.44
427.15	3637.19
427.33	3581.02
427.52	3632.51
427.71	3768.26
427.90	3712.09
428.09	3599.74
428.28	3737.84
428.46	3810.39
428.65	3733.15
428.84	3822.09
429.03	3826.78
429.22	3627.83
429.40	3772.94
429.59	3838.48
429.78	3522.51
429.97	3585.70
430.16	3719.11
430.34	3775.28
430.53	3796.35
430.72	3843.16
430.91	3915.72
431.10	3904.01
431.28	3990.61
431.47	3948.48
431.66	4095.94
431.85	3927.42
432.03	3988.27
432.22	4285.52
432.41	4028.06
432.60	4133.39
432.79	4269.14
432.97	4217.65
433.16	4205.94
433.35	4126.36
433.54	4166.15
433.72	4245.73
433.91	4142.75
434.10	4229.35
434.28	4201.26
434.47	4217.65
434.66	4470.42
434.85	4215.30
435.03	4348.72
435.22	4449.36
435.41	4638.94
435.59	4423.61
435.78	4428.29
435.97	4596.81
436.16	4554.68
436.34	4432.97
436.53	4512.55
436.72	4599.15
436.90	4454.04
437.09	4463.40
437.28	4503.19
437.46	4535.96
437.65	4641.28
437.84	4580.43
438.02	4652.98
438.21	4545.32
438.40	4613.20
438.58	4702.14
438.77	4809.80
438.96	4905.76
439.14	4968.96
439.33	4987.68
439.52	4980.66
439.70	4882.36
439.89	5022.79
440.08	4987.68
440.26	5102.37
440.45	5153.86
440.63	5207.69
440.82	5275.57
441.01	5186.63
441.19	5315.36
441.38	5317.70
441.57	5420.68
441.75	5423.02
441.94	5366.85
442.12	5577.50
442.31	5591.54
442.50	5675.80
442.68	5589.20
442.87	5563.45
443.05	5645.37
443.24	5771.76
443.43	5572.82
443.61	5746.02
443.80	5701.54
443.98	5668.78
444.17	5561.11
444.35	5774.10
444.54	5734.31
444.73	5764.74
444.91	5884.11
445.10	5778.78
445.28	5668.78
445.47	5570.48
445.65	5708.57
445.84	5661.76
446.02	5799.85
446.21	5692.18
446.39	5788.14
446.58	5907.51
446.77	5907.51
446.95	5607.92
447.14	5823.25
447.32	5973.05
447.51	5977.73
447.69	5860.70
447.88	5755.38
448.06	5966.03
448.25	5865.38
448.43	5970.71
448.62	6054.97
448.80	5989.43
448.99	6104.12
449.17	5790.49
449.36	6015.18
449.54	6174.33
449.73	6101.78
449.91	6237.53
450.10	5998.79
450.28	6293.70
450.46	6291.36
450.65	6420.09
450.83	6406.05
451.02	6303.06
451.20	6387.32
451.39	6312.42
451.57	6466.90
451.76	6303.06
451.94	6476.26
452.13	6399.02
452.31	6476.26
452.49	6139.23
452.68	6511.37
452.86	6333.49
453.05	6487.96
453.23	6277.32
453.42	6434.13
453.60	6359.24
453.78	6729.04
453.97	6457.54
454.15	6537.12
454.34	6590.95
454.52	6623.72
454.70	6766.49
454.89	6647.12
455.07	6668.19
455.26	6759.47
455.44	6846.07
455.62	6909.26
455.81	6942.03
455.99	6799.26
456.17	6918.62
456.36	7000.54
456.54	7098.84
456.73	7037.99
456.91	7236.94
457.09	7059.06
457.28	7283.75
457.46	7133.95
457.64	7192.47
457.83	7089.48
458.01	7241.62
458.19	7316.51
458.38	7180.76
458.56	7377.37
458.74	7208.85
458.93	7323.54
459.11	7307.15
459.29	7243.96
459.48	7421.84
459.66	7379.71
459.84	7384.39
460.03	7478.01
460.21	7522.48
460.39	7492.05
460.57	7557.59
460.76	7435.88
460.94	7765.90
461.12	7641.85
461.31	7726.11
461.49	7686.32
461.67	7705.04
461.85	7927.39
462.04	7576.31
462.22	8231.66
462.40	7911.01
462.59	7850.16
462.77	7777.60
462.95	8006.97
463.13	7641.85
463.32	8018.68
463.50	8044.42
463.68	7999.95
463.86	7962.50
464.05	7950.80
464.23	8114.64
464.41	7911.01
464.59	7953.14
464.78	8121.66
464.96	8102.93
465.14	7857.18
465.32	8212.94
465.50	8196.56
465.69	8322.94
465.87	8170.81
466.05	8243.37
466.23	8184.85
466.41	8355.71
466.60	8395.50
466.78	8278.47
466.96	8379.12
467.14	8175.49
467.32	8402.52
467.51	8409.54
467.69	8119.32
467.87	8484.44
468.05	8793.39
468.23	8372.10
468.41	8355.71
468.60	8608.49
468.78	8496.14
468.96	8454.02
469.14	8521.89
469.32	8781.69
469.50	8493.80
469.69	8650.62
469.87	8833.18
470.05	8734.88
470.23	8952.55
470.41	8772.33
470.59	8868.29
470.77	8910.42
470.95	8910.42
471.14	9053.19
471.32	8959.57
471.50	9198.31
471.68	9153.84
471.86	9383.21
472.04	9277.88
472.22	9439.38
472.40	9376.19
472.58	9310.65
472.77	9675.77
472.95	9441.72
473.13	9509.60
473.31	9511.94
473.49	9392.57
473.67	9549.39
473.85	9598.54
474.03	9989.41
474.21	9963.66
474.39	9870.04
474.57	9823.23
474.75	9799.82
474.93	9947.28
475.12	9928.55
475.30	10090.05
475.48	10176.65
475.66	10178.99
475.84	10076.01
476.02	10153.24
476.20	10366.23
476.38	10377.94
476.56	10775.83
476.74	10516.03
476.92	10539.43
477.10	10492.62
477.28	10764.12
477.46	10836.68
477.64	11042.65
477.82	10810.93
478.00	11183.08
478.18	11009.88
478.36	11213.51
478.54	11265.00
478.72	11454.58
478.90	11651.19
479.08	11538.84
479.26	11871.20
479.44	11838.43
479.62	11843.11
479.80	11754.17
479.98	11866.52
480.16	12343.99
480.34	12011.63
480.52	12430.59
480.70	12283.13
480.88	12107.59
481.06	12437.61
481.24	12428.24
481.41	12786.35
481.59	12833.16
481.77	12767.62
481.95	12919.76
482.13	13231.05
482.31	12898.69
482.49	13504.89
482.67	13184.24
482.85	13607.87
483.03	13626.60
483.21	13582.13
483.39	13757.67
483.57	13771.71
483.74	13933.21
483.92	13923.85
484.10	14085.34
484.28	14242.16
484.46	14600.26
484.64	14331.10
484.82	14431.74
485.00	14583.88
485.18	14766.44
485.35	15047.30
485.53	14998.15
485.71	14864.74
485.89	14988.79
486.07	15126.88
486.25	15274.34
486.43	15529.45
486.61	15559.88
486.78	15674.57
486.96	15555.20
487.14	15917.98
487.32	15871.17
487.50	16432.90
487.68	16414.18
487.85	16442.26
488.03	17034.42
488.21	16837.81
488.39	17001.65
488.57	16898.67
488.75	17259.11
488.92	17371.46
489.10	17614.87
489.28	17310.60
489.46	17408.90
489.64	17549.34
489.81	17996.38
489.99	18108.72
490.17	18181.28
490.35	18668.11
490.53	18427.04
490.70	18721.95
490.88	18773.44
491.06	18691.52
491.24	18757.05
491.41	18494.91
491.59	19138.56
491.77	18981.74
491.95	19248.57
492.13	19089.41
492.30	19676.88
492.48	19702.63
492.66	19644.12
492.84	19667.52
493.01	19845.40
493.19	19969.45
493.37	20198.82
493.54	20376.70
493.72	20577.99
493.90	20177.76
494.08	20800.34
494.25	21106.95
494.43	21006.31
494.61	21057.80
494.79	21326.96
494.96	21226.32
495.14	21160.78
495.32	21488.46
495.49	21411.22
495.67	21532.93
495.85	21954.22
496.02	21610.17
496.20	22267.86
496.38	21979.97
496.55	22569.79
496.73	22892.78
496.91	22520.63
497.09	22871.72
497.26	22630.64
497.44	22848.31
497.62	23056.62
497.79	23257.90
497.97	23016.83
498.14	23309.40
498.32	23285.99
498.50	23136.20
498.67	23398.34
498.85	23836.02
499.03	23885.17
499.20	23941.34
499.38	24283.06
499.56	23805.59
499.73	24285.40
499.91	24327.53
500.08	24650.52
500.26	24044.32
500.44	24503.07
500.61	24432.85
500.79	24655.20
500.97	25158.42
501.14	24922.02
501.32	24968.84
501.49	24840.11
501.67	25149.06
501.84	25348.00
502.02	25013.31
502.20	25020.33
502.37	25617.16
502.55	25418.22
502.72	25371.41
502.90	25865.26
503.07	25848.88
503.25	25720.15
503.43	25851.22
503.60	25907.39
503.78	26167.19
503.95	26129.74
504.13	26185.91
504.30	26230.38
504.48	26359.11
504.65	26143.78
504.83	26338.05
505.01	27056.59
505.18	26717.22
505.36	27051.91
505.53	26757.00
505.71	27381.93
505.88	27119.79
506.06	27012.12
506.23	26916.16
506.41	27288.31
506.58	27197.02
506.76	27562.15
506.93	27300.01
507.11	27414.69
507.28	27903.87
507.46	27754.07
507.63	27835.99
507.81	28020.89
507.98	27683.86
508.16	28037.28
508.33	27817.27
508.50	28259.63
508.68	28357.93
508.85	28311.12
509.03	28606.03
509.20	28535.81
509.38	28755.82
509.55	28716.03
509.73	29062.43
509.90	28847.10
510.08	28929.02
510.25	28797.95
510.42	28952.43
510.60	29355.00
510.77	29355.00
510.95	29488.41
511.12	29170.10
511.30	29481.39
511.47	29907.37
511.64	29874.60
511.82	29743.53
511.99	29584.37
512.17	29654.59
512.34	29713.10
512.51	29986.94
512.69	30003.33
512.86	30349.73
513.04	30625.91
513.21	30103.97
513.38	29881.62
513.56	30504.20
513.73	30211.64
513.90	30286.53
514.08	30441.01
514.25	31178.28
514.43	31098.70
514.60	30766.34
514.77	30778.04
514.95	30991.03
515.12	31040.18
515.29	31047.21
515.47	31246.15
515.64	31316.37
515.81	31180.62
515.99	31353.82
516.16	31473.18
516.33	31267.22
516.51	31990.44
516.68	31353.82
516.85	31587.87
517.03	31337.43
517.20	32084.06
517.37	31873.42
517.54	32013.85
517.72	31971.72
517.89	31859.37
518.06	31901.50
518.24	32025.55
518.41	32308.76
518.58	32098.11
518.75	31833.63
518.93	32367.27
519.10	32559.19
519.27	32519.40
519.45	32521.74
519.62	32912.61
519.79	32992.19
519.96	33071.77
520.14	33446.26
520.31	32547.49
520.48	33532.86
520.65	33184.12
520.83	33586.69
521.00	33027.30
521.17	33401.79
521.34	33357.32
521.52	33652.22
521.69	33741.16
521.86	34146.08
522.03	33923.72
522.20	34022.03
522.38	33736.48
522.55	34000.96
522.72	33841.81
522.89	34017.35
523.07	34061.82
523.24	34096.92
523.41	34263.10
523.58	34459.71
523.75	34506.52
523.92	34679.72
524.10	34490.13
524.27	34740.57
524.44	34600.14
524.61	34909.09
524.78	34932.50
524.96	34972.28
525.13	35040.16
525.30	35000.37
525.47	35632.32
525.64	34859.94
525.81	35178.25
525.98	35299.96
526.16	35421.67
526.33	35072.93
526.50	35412.31
526.67	34824.83
526.84	35187.61
527.01	35321.02
527.18	35475.50
527.36	35386.56
527.53	35569.12
527.70	36018.50
527.87	36465.55
528.04	35660.40
528.21	36037.23
528.38	35592.53
528.55	36662.15
528.72	36095.74
528.89	36503.00
529.07	36282.98
529.24	36013.82
529.41	36060.63
529.58	36196.38
529.75	35978.72
529.92	36378.95
530.09	36470.23
530.26	36652.79
530.43	36673.85
530.60	36383.63
530.77	36774.50
530.94	37191.11
531.11	36952.38
531.28	37013.23
531.46	36734.71
531.63	37085.79
531.80	36594.28
531.97	37263.67
532.14	37469.64
532.31	36849.39
532.48	37376.01
532.65	37359.63
532.82	37404.10
532.99	37275.37
533.16	37137.28
533.33	37376.01
533.50	37935.40
533.67	37687.31
533.84	37617.09
534.01	37148.98
534.18	37422.83
534.35	37958.81
534.52	37876.89
534.69	38071.15
534.86	37876.89
535.03	38106.26
535.20	38244.35
535.37	38122.65
535.54	38307.55
535.71	38167.12
535.88	38263.08
536.05	37963.49
536.22	37755.18
536.38	38445.64
536.55	38120.31
536.72	38326.27
536.89	37991.58
537.06	38354.36
537.23	38785.02
537.40	38574.37
537.57	38438.62
537.74	38529.90
537.91	39241.42
538.08	38490.11
538.25	38567.35
538.42	38698.42
538.59	38988.64
538.75	38436.28
538.92	38663.31
539.09	39063.54
539.26	38969.92
539.43	38738.21
539.60	39220.36
539.77	39351.43
539.94	39285.89
540.11	38782.68
540.28	39129.08
540.44	39154.82
540.61	39267.17
540.78	38871.62
540.95	38972.26
541.12	39304.62
541.29	39550.37
541.46	39676.76
541.62	39426.32
541.79	40142.53
541.96	39533.99
542.13	39423.98
542.30	39515.26
542.47	40208.06
542.63	39751.66
542.80	40184.66
542.97	40287.64
543.14	40367.22
543.31	40715.96
543.48	40112.10
543.64	40690.21
543.81	40559.14
543.98	40301.68
544.15	40694.89
544.32	40528.72
544.48	41170.02
544.65	40774.47
544.82	40411.69
544.99	40299.34
545.16	40650.42
545.32	40297.00
545.49	40292.32
545.66	40884.48
545.83	40877.46
546.00	40842.35
546.16	40854.05
546.33	40594.25
546.50	40781.49
546.67	40605.95
546.83	40760.43
547.00	41048.32
547.17	40631.70
547.34	40917.25
547.50	41270.67
547.67	41251.94
547.84	41263.64
548.00	41493.02
548.17	41663.88
548.34	41481.31
548.51	41727.07
548.67	41631.11
548.84	41619.41
549.01	41659.20
549.18	41504.72
549.34	41916.65
549.51	41977.51
549.68	41591.32
549.84	41151.30
550.01	41783.24
550.18	41397.06
550.34	41823.03
550.51	41251.94
550.68	41560.89
550.84	41371.31
551.01	41837.08
551.18	41874.52
551.34	41682.60
551.51	41661.54
551.68	41839.42
551.84	42052.41
552.01	41773.88
552.18	41628.77
552.34	41823.03
552.51	42501.79
552.68	41926.02
552.84	42480.72
553.01	42628.18
553.18	42347.31
553.34	42375.40
553.51	41933.04
553.67	42227.95
553.84	42829.46
554.01	42527.53
554.17	42616.47
554.34	42581.37
554.51	42588.39
554.67	43098.62
554.84	42815.42
555.00	42099.22
555.17	42384.76
555.33	42869.25
555.50	42349.65
555.67	42932.45
555.83	42553.28
556.00	42522.85
556.16	42913.72
556.33	43009.68
556.50	42653.92
556.66	42740.52
556.83	42658.60
556.99	43012.02
557.16	42787.33
557.32	42717.12
557.49	42983.94
557.65	42813.08
557.82	42822.44
557.98	43140.75
558.15	42979.26
558.32	43470.77
558.48	42733.50
558.65	43297.57
558.81	43042.45
558.98	42927.77
559.14	43159.48
559.31	43084.58
559.47	43339.70
559.64	43416.94
559.80	43456.73
559.97	43206.29
560.13	43220.33
560.30	43147.78
560.46	43625.25
560.63	43501.20
560.79	43304.59
560.96	43299.91
561.12	43295.23
561.29	43538.65
561.45	43573.75
561.61	43861.64
561.78	43217.99
561.94	42974.58
562.11	43206.29
562.27	43522.26
562.44	43800.79
562.60	43707.16
562.77	43665.03
562.93	43580.78
563.10	43938.88
563.26	42925.42
563.42	43751.63
563.59	43253.10
563.75	43704.82
563.92	43548.01
564.08	43959.94
564.24	43564.39
564.41	44069.95
564.57	43517.58
564.74	43468.43
564.90	43714.19
565.07	43807.81
565.23	43796.10
565.39	44186.97
565.56	44325.07
565.72	43831.21
565.88	43990.37
566.05	43842.92
566.21	43826.53
566.38	43517.58
566.54	43725.89
566.70	44451.45
566.87	44083.99
567.03	43700.14
567.19	44226.76
567.36	44399.96
567.52	43842.92
567.68	44189.31
567.85	43875.68
568.01	43887.39
568.17	44053.56
568.34	44612.95
568.50	44116.76
568.66	43922.49
568.83	43962.28
568.99	43899.09
569.15	44107.40
569.32	43618.22
569.48	43529.28
569.64	44552.10
569.81	44254.85
569.97	44156.55
570.13	44296.98
570.30	43981.01
570.46	44086.33
570.62	43634.61
570.78	43882.70
570.95	44217.40
571.11	43782.06
571.27	43892.07
571.43	44250.17
571.60	44390.60
571.76	44701.89
571.92	44336.77
572.09	43920.15
572.25	44559.12
572.41	43793.76
572.57	44102.71
572.74	44582.52
572.90	44538.05
573.06	44226.76
573.22	44369.54
573.38	44409.32
573.55	44151.87
573.71	44151.87
573.87	44594.23
574.03	43667.37
574.20	44030.16
574.36	43999.73
574.52	44683.17
574.68	44460.82
574.84	44727.64
575.01	44495.92
575.17	44514.65
575.33	44271.23
575.49	44392.94
575.65	44531.03
575.82	44641.04
575.98	44233.78
576.14	44491.24
576.30	43981.01
576.46	44296.98
576.62	43997.39
576.79	44083.99
576.95	43763.34
577.11	44208.04
577.27	44404.64
577.43	44404.64
577.59	44336.77
577.75	44566.14
577.92	44175.27
578.08	44027.82
578.24	44231.44
578.40	44194.00
578.56	44680.83
578.72	44942.97
578.88	44577.84
579.04	44336.77
579.21	44378.90
579.37	44275.91
579.53	43990.37
579.69	44364.85
579.85	44648.06
580.01	44641.04
580.17	44322.72
580.33	44847.00
580.49	44727.64
580.65	44807.22
580.82	44533.37
580.98	44311.02
581.14	44444.43
581.30	44552.10
581.46	44580.18
581.62	44797.85
581.78	44182.29
581.94	44278.25
582.10	44552.10
582.26	44306.34
582.42	44952.33
582.58	44591.89
582.74	43885.04
582.90	44608.27
583.06	44659.76
583.22	44788.49
583.38	44872.75
583.54	44610.61
583.70	44367.20
583.86	44479.54
584.02	44229.10
584.18	44875.09
584.34	44816.58
584.50	44591.89
584.66	44821.26
584.82	44196.34
584.98	44863.39
585.14	44580.18
585.30	44355.49
585.46	44718.28
585.62	44257.19
585.78	44865.73
585.94	44439.75
586.10	44327.41
586.26	43910.79
586.42	44704.23
586.58	45144.25
586.74	44516.99
586.90	44694.87
587.06	44442.09
587.22	45132.55
587.38	44957.01
587.54	44622.31
587.70	44987.44
587.86	44208.04
588.02	44500.61
588.18	44964.03
588.34	44779.13
588.49	44336.77
588.65	44357.83
588.81	44079.31
588.97	44643.38
589.13	44580.18
589.29	44584.86
589.45	44729.98
589.61	44629.34
589.77	44957.01
589.93	45001.48
590.08	45263.62
590.24	45020.20
590.40	44804.88
