SpectraSuite Data File
++++++++++++++++++++++++++++++++++++
Date: Fri Oct 25 11:22:36 EDT 2013
User: price-jones
Dark Spectrum Present: No
Reference Spectrum Present: No
Number of Sampled Component Spectra: 1
Spectrometers: USB2+H05261
Integration Time (usec): 100000 (USB2+H05261)
Spectra Averaged: 1 (USB2+H05261)
Boxcar Smoothing: 0 (USB2+H05261)
Correct for Electrical Dark: No (USB2+H05261)
Strobe/Lamp Enabled: No (USB2+H05261)
Correct for Detector Non-linearity: No (USB2+H05261)
Correct for Stray Light: No (USB2+H05261)
Number of Pixels in Processed Spectrum: 2048
>>>>>Begin Processed Spectral Data<<<<<
365.73	250.44
365.92	250.44
366.12	250.44
366.32	102.98
366.52	126.39
366.72	126.39
366.91	163.84
367.11	121.71
367.31	135.75
367.51	107.66
367.70	180.22
367.90	152.13
368.10	128.73
368.30	156.82
368.49	163.84
368.69	177.88
368.89	37.45
369.09	170.86
369.28	149.79
369.48	154.48
369.68	184.90
369.87	191.92
370.07	236.39
370.27	262.14
370.47	208.31
370.66	615.56
370.86	636.63
371.06	629.60
371.25	709.18
371.45	641.31
371.65	765.36
371.84	650.67
372.04	622.58
372.24	636.63
372.44	770.04
372.63	692.80
372.83	730.25
373.03	711.52
373.22	716.20
373.42	774.72
373.62	809.83
373.81	770.04
374.01	767.70
374.21	753.65
374.40	833.23
374.60	894.08
374.79	830.89
374.99	725.57
375.19	788.76
375.38	760.67
375.58	741.95
375.78	889.40
375.97	868.34
376.17	931.53
376.37	894.08
376.56	889.40
376.76	882.38
376.95	873.02
377.15	873.02
377.35	877.70
377.54	861.32
377.74	882.38
377.93	903.45
378.13	844.93
378.33	931.53
378.52	933.87
378.72	968.98
378.91	915.15
379.11	961.96
379.31	884.72
379.50	903.45
379.70	1071.97
379.89	1001.75
380.09	1015.79
380.28	1006.43
380.48	968.98
380.68	997.07
380.87	1025.15
381.07	1064.94
381.26	940.90
381.46	1088.35
381.65	919.83
381.85	1125.80
382.04	1001.75
382.24	1076.65
382.43	1074.31
382.63	1116.44
382.83	1090.69
383.02	1151.54
383.22	1170.27
383.41	1142.18
383.61	1132.82
383.80	1093.03
384.00	1118.78
384.19	1097.71
384.39	1196.01
384.58	1116.44
384.78	1226.44
384.97	1179.63
385.17	1186.65
385.36	1137.50
385.56	1153.88
385.75	1097.71
385.95	1135.16
386.14	1205.38
386.34	1233.46
386.53	1226.44
386.72	1172.61
386.92	1196.01
387.11	1299.00
387.31	1200.69
387.50	1263.89
387.70	1254.53
387.89	1268.57
388.09	1149.20
388.28	1291.98
388.48	1238.14
388.67	1256.87
388.86	1261.55
389.06	1345.81
389.25	1270.91
389.45	1324.74
389.64	1287.29
389.84	1366.87
390.03	1427.73
390.22	1418.36
390.42	1348.15
390.61	1444.11
390.81	1385.60
391.00	1411.34
391.19	1511.99
391.39	1507.30
391.58	1392.62
391.78	1423.05
391.97	1490.92
392.16	1481.56
392.36	1584.54
392.55	1500.28
392.75	1476.88
392.94	1502.62
393.13	1521.35
393.33	1554.12
393.52	1504.96
393.71	1561.14
393.91	1582.20
394.10	1540.07
394.29	1589.22
394.49	1619.65
394.68	1654.76
394.88	1584.54
395.07	1626.67
395.26	1633.69
395.46	1659.44
395.65	1675.82
395.84	1760.08
396.04	1694.55
396.23	1739.02
396.42	1809.23
396.62	1834.98
396.81	1795.19
397.00	1797.53
397.19	1783.49
397.39	1813.92
397.58	1877.11
397.77	1820.94
397.97	1842.00
398.16	1877.11
398.35	1940.30
398.55	1818.60
398.74	1846.68
398.93	1959.03
399.12	1963.71
399.32	1921.58
399.51	1947.33
399.70	1961.37
399.90	2017.54
400.09	2139.25
400.28	2026.90
400.47	2057.33
400.67	2071.37
400.86	2132.23
401.05	2146.27
401.24	2078.40
401.44	2083.08
401.63	2064.35
401.82	2155.63
402.01	2153.29
402.21	2270.32
402.40	2218.83
402.59	2179.04
402.78	2209.47
402.97	2160.31
403.17	2246.91
403.36	2289.04
403.55	2270.32
403.74	2478.63
403.93	2328.83
404.13	2403.73
404.32	2298.41
404.51	2352.24
404.70	2438.84
404.89	2441.18
405.09	2487.99
405.28	2560.55
405.47	2513.74
405.66	2605.02
405.85	2640.12
406.05	2495.01
406.24	2492.67
406.43	2506.71
406.62	2593.31
406.81	2745.45
407.00	2619.06
407.20	2609.70
407.39	2649.49
407.58	2719.70
407.77	2780.56
407.96	2775.88
408.15	2843.75
408.34	2813.32
408.54	2857.79
408.73	2799.28
408.92	2892.90
409.11	2986.52
409.30	2944.39
409.49	2799.28
409.68	3000.57
409.87	2913.97
410.07	2986.52
410.26	3089.51
410.45	3019.29
410.64	2946.73
410.83	3164.40
411.02	3061.42
411.21	3173.77
411.40	3176.11
411.59	3220.58
411.78	3309.52
411.98	3143.34
412.17	3349.31
412.36	3304.84
412.55	3248.66
412.74	3400.80
412.93	3332.92
413.12	3414.84
413.31	3524.85
413.50	3405.48
413.69	3496.76
413.88	3669.96
414.07	3648.90
414.26	3648.90
414.45	3604.42
414.64	3782.31
414.83	3808.05
415.02	3765.92
415.22	3824.44
415.41	3974.23
415.60	3901.67
415.79	3845.50
415.98	3995.29
416.17	3969.55
416.36	4095.94
416.55	4025.72
416.74	4152.11
416.93	4074.87
417.12	4184.88
417.31	4201.26
417.50	4201.26
417.69	4355.74
417.88	4161.47
418.07	4262.12
418.26	4344.03
418.45	4533.62
418.64	4596.81
418.83	4435.32
419.02	4454.04
419.21	4692.77
419.39	4568.73
419.58	4484.47
419.77	4531.28
419.96	4566.39
420.15	4622.56
420.34	4582.77
420.53	4683.41
420.72	4589.79
420.91	4699.80
421.10	4788.74
421.29	5093.01
421.48	4657.67
421.67	4800.44
421.86	4868.31
422.05	4781.71
422.24	4919.81
422.43	4882.36
422.61	4894.06
422.80	5114.07
422.99	4870.65
423.18	4966.62
423.37	5053.22
423.56	4873.00
423.75	5128.11
423.94	4961.94
424.13	4655.33
424.32	4891.72
424.50	5067.26
424.69	5097.69
424.88	5064.92
425.07	5165.56
425.26	4968.96
425.45	5069.60
425.64	4954.91
425.83	5006.41
426.01	5039.17
426.20	5207.69
426.39	5064.92
426.58	5137.48
426.77	5018.11
426.96	5167.90
427.15	5188.97
427.33	5142.16
427.52	5156.20
427.71	5331.74
427.90	5214.71
428.09	5214.71
428.28	5336.42
428.46	5233.44
428.65	5373.87
428.84	5467.49
429.03	5628.99
429.22	5362.17
429.40	5507.28
429.59	5556.43
429.78	5336.42
429.97	5390.25
430.16	5434.72
430.34	5509.62
430.53	5650.05
430.72	5680.48
430.91	5694.52
431.10	5724.95
431.28	5788.14
431.47	5774.10
431.66	5970.71
431.85	5760.06
432.03	6022.20
432.22	6022.20
432.41	5746.02
432.60	5930.92
432.79	6040.92
432.97	6010.50
433.16	5996.45
433.35	5975.39
433.54	6263.27
433.72	6169.65
433.91	6153.27
434.10	6225.82
434.28	6143.91
434.47	6300.72
434.66	6370.94
434.85	6389.66
435.03	6429.45
435.22	6321.79
435.41	6396.68
435.59	6476.26
435.78	6604.99
435.97	6532.44
436.16	6452.86
436.34	6567.54
436.53	6459.88
436.72	6736.06
436.90	6595.63
437.09	6715.00
437.28	6808.62
437.46	6558.18
437.65	6801.60
437.84	7000.54
438.02	6738.40
438.21	6871.81
438.40	6799.26
438.58	6986.50
438.77	6895.22
438.96	7157.36
439.14	7225.23
439.33	7262.68
439.52	7171.40
439.70	7176.08
439.89	7386.73
440.08	7435.88
440.26	7442.90
440.45	7393.75
440.63	7641.85
440.82	7784.62
441.01	7548.23
441.19	7721.43
441.38	7761.22
441.57	7695.68
441.75	7789.30
441.94	7920.37
442.12	8030.38
442.31	8018.68
442.50	8102.93
442.68	8039.74
442.87	8093.57
443.05	8262.09
443.24	8203.58
443.43	8175.49
443.61	8404.86
443.80	8601.47
443.98	8278.47
444.17	7981.23
444.35	8264.43
444.54	8397.84
444.73	8351.03
444.91	8411.89
445.10	8369.76
445.28	8519.55
445.47	8320.60
445.65	8493.80
445.84	8428.27
446.02	8442.31
446.21	8498.49
446.39	8486.78
446.58	8564.02
446.77	8610.83
446.95	8465.72
447.14	8454.02
447.32	8809.78
447.51	8549.98
447.69	8435.29
447.88	8540.61
448.06	8657.64
448.25	8456.36
448.43	8542.96
448.62	8526.57
448.80	8617.85
448.99	8791.05
449.17	8908.08
449.36	8585.08
449.54	8908.08
449.73	9053.19
449.91	9048.51
450.10	9057.87
450.28	9245.12
450.46	9060.21
450.65	9207.67
450.83	9132.77
451.02	8940.85
451.20	9268.52
451.39	9158.52
451.57	9177.24
451.76	9111.71
451.94	9149.15
452.13	9397.25
452.31	9373.85
452.49	9165.54
452.68	9387.89
452.86	9383.21
453.05	9687.48
453.23	9565.77
453.42	9577.47
453.60	9331.72
453.78	9678.12
453.97	9540.02
454.15	9558.75
454.34	9547.05
454.52	9905.15
454.70	9650.03
454.89	9841.95
455.07	9724.93
455.26	9734.29
455.44	10104.09
455.62	9970.68
455.81	9879.40
455.99	10038.56
456.17	10141.54
456.36	10452.83
456.54	10223.46
456.73	10335.81
456.91	10553.48
457.09	10530.07
457.28	10574.54
457.46	10291.34
457.64	10555.82
457.83	10600.29
458.01	10572.20
458.19	10682.20
458.38	10459.85
458.56	10780.51
458.74	10899.87
458.93	10593.26
459.11	10808.59
459.29	10899.87
459.48	11075.42
459.66	10909.24
459.84	10916.26
460.03	11082.44
460.21	11173.72
460.39	10979.45
460.57	11035.63
460.76	11269.68
460.94	11232.23
461.12	11110.52
461.31	11337.56
461.49	11290.74
461.67	11159.67
461.85	11613.74
462.04	11323.51
462.22	11903.96
462.40	11749.49
462.59	11611.40
462.77	11585.65
462.95	11857.15
463.13	11819.71
463.32	11632.46
463.50	11915.67
463.68	11927.37
463.86	11737.79
464.05	11740.13
464.23	11693.32
464.41	11999.93
464.59	11688.64
464.78	12187.17
464.96	12086.53
465.14	11819.71
465.32	12114.61
465.50	12147.38
465.69	12252.70
465.87	12238.66
466.05	12416.54
466.23	12292.49
466.41	12273.77
466.60	12587.40
466.78	12369.73
466.96	12538.25
467.14	12278.45
467.32	12571.02
467.51	12596.76
467.69	12372.07
467.87	12620.17
468.05	12704.43
468.23	12407.18
468.41	12531.23
468.60	12861.24
468.78	12765.28
468.96	12788.69
469.14	13219.35
469.32	13132.75
469.50	12795.71
469.69	13013.38
469.87	13172.54
470.05	13128.06
470.23	13369.14
470.41	13448.72
470.59	13334.03
470.77	13427.65
470.95	13579.79
471.14	13631.28
471.32	13350.42
471.50	13397.23
471.68	13479.15
471.86	13647.66
472.04	13743.63
472.22	14022.15
472.40	13738.94
472.58	13958.96
472.77	14022.15
472.95	14387.27
473.13	14927.94
473.31	14214.07
473.49	14111.09
473.67	14146.20
473.85	14499.62
474.03	14649.41
474.21	14434.08
474.39	14710.27
474.57	14932.62
474.75	14820.27
474.93	15138.58
475.12	15190.08
475.30	15431.15
475.48	15243.91
475.66	15372.64
475.84	15250.93
476.02	15433.49
476.20	15679.25
476.38	15925.00
476.56	16252.68
476.74	15887.56
476.92	16020.97
477.10	15955.43
477.28	16224.59
477.46	16315.87
477.64	16500.78
477.82	16732.49
478.00	17181.87
478.18	16917.39
478.36	17135.06
478.54	17043.78
478.72	17490.82
478.90	17415.93
479.08	17830.20
479.26	17649.98
479.44	17771.69
479.62	18169.58
479.80	18148.51
479.98	18375.55
480.16	18724.29
480.34	18331.08
480.52	18785.14
480.70	18890.46
480.88	18647.05
481.06	18682.16
481.24	18827.27
481.41	19267.29
481.59	19405.38
481.77	19522.41
481.95	19796.25
482.13	19985.83
482.31	19873.49
482.49	20479.69
482.67	20425.86
482.85	20840.13
483.03	20842.47
483.21	21048.44
483.39	21139.72
483.57	20816.72
483.74	21163.12
483.92	21579.74
484.10	21371.43
484.28	22122.74
484.46	22244.45
484.64	22366.16
484.82	22118.06
485.00	22541.70
485.18	22993.42
485.35	23051.94
485.53	23056.62
485.71	22988.74
485.89	23702.61
486.07	23798.57
486.25	23548.13
486.43	23723.67
486.61	24067.73
486.78	24226.89
486.96	24313.48
487.14	24573.28
487.32	25010.96
487.50	25193.53
487.68	25343.32
487.85	25755.26
488.03	25771.64
488.21	26265.49
488.39	25715.47
488.57	26312.30
488.75	26675.09
488.92	26803.82
489.10	27257.88
489.28	26904.46
489.46	27447.46
489.64	27236.81
489.81	28018.55
489.99	28041.96
490.17	28212.82
490.35	28126.22
490.53	28210.48
490.70	28650.50
490.88	28465.60
491.06	28872.85
491.24	29160.73
491.41	29312.87
491.59	29373.72
491.77	29448.62
491.95	29958.86
492.13	29647.57
492.30	30019.71
492.48	30422.28
492.66	30494.84
492.84	30586.12
493.01	30532.29
493.19	30888.05
493.37	31014.44
493.54	31129.12
493.72	31828.95
493.90	31662.77
494.08	31992.78
494.25	32170.66
494.43	32783.88
494.61	32858.78
494.79	33031.98
494.96	32966.45
495.14	33266.03
495.32	33340.93
495.49	33586.69
495.67	33116.24
495.85	33682.65
496.02	34047.77
496.20	34380.13
496.38	34253.74
496.55	34412.90
496.73	34763.98
496.91	35126.76
497.09	34843.56
497.26	35136.12
497.44	35655.72
497.62	35573.80
497.79	35901.48
497.97	35742.32
498.14	36133.19
498.32	36360.22
498.50	36521.72
498.67	36971.10
498.85	36814.29
499.03	36823.65
499.20	37186.43
499.38	36961.74
499.56	37223.88
499.73	37324.52
499.91	37797.31
500.08	37935.40
500.26	37787.95
500.44	38026.68
500.61	37771.57
500.79	38136.69
500.97	38703.10
501.14	38932.47
501.32	38778.00
501.49	39278.87
501.67	38883.32
501.84	39047.16
502.02	39093.97
502.20	39283.55
502.37	39707.19
502.55	39662.72
502.72	39936.56
502.90	39985.71
503.07	40194.02
503.25	40170.61
503.43	39363.13
503.60	40442.12
503.78	40818.94
503.95	40580.21
504.13	41010.87
504.30	40584.89
504.48	41310.46
504.65	41258.96
504.83	41509.40
505.01	41558.55
505.18	41462.59
505.36	41975.17
505.53	41270.67
505.71	41858.14
505.88	42363.70
506.06	41722.39
506.23	42359.02
506.41	41984.53
506.58	42398.80
506.76	42394.12
506.93	42792.01
507.11	42822.44
507.28	42703.07
507.46	43194.59
507.63	43491.83
507.81	43697.80
507.98	43290.55
508.16	43115.01
508.33	43934.20
508.50	43962.28
508.68	44268.89
508.85	44355.49
509.03	43861.64
509.20	44212.72
509.38	44957.01
509.55	44652.74
509.73	44971.05
509.90	44844.66
510.08	44825.94
510.25	44612.95
510.42	45450.86
510.60	45408.73
510.77	45558.53
510.95	46206.86
511.12	45457.88
511.30	45935.35
511.47	45907.27
511.64	45841.73
511.82	46195.15
511.99	46127.28
512.17	46204.52
512.34	46508.79
512.51	46696.03
512.69	46904.34
512.86	46665.60
513.04	46838.80
513.21	46932.42
513.38	47421.59
513.56	47313.93
513.73	47023.70
513.90	47784.38
514.08	47559.69
514.25	48011.41
514.43	47592.45
514.60	48196.31
514.77	47807.78
514.95	47847.57
515.12	47999.71
515.29	48193.97
515.47	48428.02
515.64	48130.78
515.81	48252.48
515.99	48861.02
516.16	49008.48
516.33	48842.30
516.51	49277.64
516.68	48584.84
516.85	48940.60
517.03	49020.18
517.20	49162.95
517.37	49460.20
517.54	49354.88
517.72	49401.69
517.89	49303.38
518.06	49357.22
518.24	49584.25
518.41	49649.78
518.58	49684.89
518.75	49652.12
518.93	49918.95
519.10	49628.72
519.27	49970.44
519.45	49858.09
519.62	49755.11
519.79	50192.79
519.96	50103.85
520.14	50457.27
520.31	50555.57
520.48	50677.28
520.65	50761.54
520.83	50901.97
521.00	50955.80
521.17	50920.70
521.34	51271.78
521.52	51037.72
521.69	51103.26
521.86	51557.32
522.03	51243.69
522.20	51374.76
522.38	51531.57
522.55	51737.54
522.72	51782.01
522.89	51779.67
523.07	51899.04
523.24	51714.14
523.41	52184.58
523.58	51854.57
523.75	52334.38
523.92	52060.54
524.10	52149.48
524.27	52296.93
524.44	52432.68
524.61	52390.55
524.78	52446.72
524.96	52392.89
525.13	52404.59
525.30	52638.65
525.47	52573.11
525.64	52781.42
525.81	52963.98
525.98	52861.00
526.16	52629.29
526.33	52849.30
526.50	53214.42
526.67	53139.52
526.84	53109.10
527.01	53212.08
527.18	53038.88
527.36	53219.10
527.53	53357.19
527.70	53769.13
527.87	53535.07
528.04	53144.20
528.21	53572.52
528.38	53553.80
528.55	53717.64
528.72	53609.97
528.89	53703.59
529.07	53584.22
529.24	53762.11
529.41	53921.26
529.58	54054.67
529.75	53815.94
529.92	54204.47
530.09	54003.18
530.26	54330.86
530.43	54295.75
530.60	54000.84
530.77	54117.87
530.94	54358.94
531.11	53979.78
531.28	54618.74
531.46	54380.01
531.63	54564.91
531.80	54361.28
531.97	54834.07
532.14	54773.22
532.31	54691.30
532.48	54876.20
532.65	54934.71
532.82	54747.47
532.99	54635.13
533.16	54974.50
533.33	55126.64
533.50	54920.67
533.67	55049.40
533.84	54901.95
534.01	54990.89
534.18	55234.30
534.35	55370.05
534.52	55311.54
534.69	55543.25
534.86	55458.99
535.03	55227.28
535.20	55447.29
535.37	55346.65
535.54	55454.31
535.71	55695.39
535.88	55585.38
536.05	55639.22
536.22	55994.98
536.38	55915.40
536.55	55746.88
536.72	55917.74
536.89	55821.78
537.06	55882.63
537.23	55973.91
537.40	55814.76
537.57	55896.67
537.74	55908.38
537.91	56048.81
538.08	56250.09
538.25	55938.80
538.42	56161.15
538.59	56371.80
538.75	56308.61
538.92	56357.76
539.09	56430.32
539.26	56322.65
539.43	56584.79
539.60	56453.72
539.77	56509.89
539.94	56844.59
540.11	56317.97
540.28	56830.55
540.44	56647.99
540.61	56636.28
540.78	56671.39
540.95	56732.25
541.12	56722.88
541.29	56680.75
541.46	56837.57
541.62	56933.53
541.79	56933.53
541.96	56545.00
542.13	56856.29
542.30	56912.47
542.47	57064.60
542.63	57158.22
542.80	56910.13
542.97	57343.12
543.14	57563.14
543.31	57511.64
543.48	57214.40
543.64	57724.63
543.81	57549.09
543.98	57565.48
544.15	57649.74
544.32	57649.74
544.48	57848.68
544.65	57733.99
544.82	57628.67
544.99	57345.47
545.16	57694.21
545.32	57717.61
545.49	57869.75
545.66	58166.99
545.83	57860.38
546.00	57719.95
546.16	57979.75
546.33	57726.97
546.50	57776.12
546.67	58000.82
546.83	57701.23
547.00	58108.48
547.17	57921.24
547.34	57930.60
547.50	58040.60
547.67	58188.06
547.84	58387.00
548.00	58361.26
548.17	58246.57
548.34	58356.58
548.51	58464.24
548.67	58499.35
548.84	58305.09
549.01	58302.74
549.18	58494.67
549.34	58408.07
549.51	58583.61
549.68	58452.54
549.84	58693.61
550.01	58766.17
550.18	58511.05
550.34	58534.46
550.51	58702.98
550.68	58497.01
550.84	58499.35
551.01	58784.90
551.18	58899.58
551.34	58550.84
551.51	58974.48
551.68	58756.81
551.84	58684.25
552.01	58520.41
552.18	58962.78
552.34	58644.46
552.51	59054.06
552.68	58754.47
552.84	58845.75
553.01	59135.98
553.18	59063.42
553.34	59082.14
553.51	58822.34
553.67	59152.36
553.84	59098.53
554.01	59222.58
554.17	59077.46
554.34	59234.28
554.51	59159.38
554.67	59180.45
554.84	59327.90
555.00	59196.83
555.17	59138.32
555.33	59330.24
555.50	59161.72
555.67	59213.21
555.83	59325.56
556.00	59327.90
556.16	59468.33
556.33	59543.23
556.50	59384.07
556.66	59402.80
556.83	59227.26
556.99	59653.23
557.16	59817.07
557.32	59791.33
557.49	59611.10
557.65	59681.32
557.82	59480.03
557.98	59636.85
558.15	59433.22
558.32	59519.82
558.48	59400.46
558.65	59990.27
558.81	59587.70
558.98	59894.31
559.14	59770.26
559.31	59927.08
559.47	59868.56
559.64	59852.18
559.80	59817.07
559.97	59849.84
560.13	59803.03
560.30	59908.35
560.46	60009.00
560.63	60069.85
560.79	59922.40
560.96	60020.70
561.12	60065.17
561.29	60119.00
561.45	60123.68
561.61	59971.55
561.78	59983.25
561.94	60177.51
562.11	60154.11
562.27	60097.94
562.44	60224.32
562.60	60207.94
562.77	60212.62
562.93	60032.40
563.10	60149.43
563.26	60189.22
563.42	60404.55
563.59	60306.24
563.75	60191.56
563.92	60299.22
564.08	60172.83
564.24	60388.16
564.41	60406.89
564.57	60285.18
564.74	60514.55
564.90	60371.78
565.07	60322.63
565.23	60376.46
565.39	60395.18
565.56	60535.62
565.72	60303.90
565.88	60451.36
566.05	60142.41
566.21	60231.35
566.38	60423.27
566.54	60355.39
566.70	60664.35
566.87	60449.02
567.03	60364.76
567.19	60715.84
567.36	60547.32
567.52	60441.99
567.68	60767.33
567.85	60617.53
568.01	60636.26
568.17	60823.50
568.34	60584.77
568.50	60509.87
568.66	60420.93
568.83	60631.58
568.99	60357.74
569.15	60657.32
569.32	60568.38
569.48	60619.88
569.64	60734.56
569.81	60596.47
569.97	60624.56
570.13	60664.35
570.30	60521.57
570.46	60711.16
570.62	60825.84
570.78	60879.67
570.95	60561.36
571.11	60804.78
571.27	60610.51
571.43	60811.80
571.60	61130.11
571.76	60779.03
571.92	60816.48
572.09	60676.05
572.25	60683.07
572.41	60706.47
572.57	60788.39
572.74	60961.59
572.90	60797.76
573.06	60853.93
573.22	60898.40
573.38	60807.12
573.55	60858.61
573.71	61062.24
573.87	60755.63
574.03	60966.27
574.20	61057.56
574.36	60907.76
574.52	60860.95
574.68	60860.95
574.84	61102.03
575.01	60877.33
575.17	60755.63
575.33	60924.14
575.49	60884.36
575.65	60987.34
575.82	61095.00
575.98	60961.59
576.14	61272.88
576.30	60977.98
576.46	60949.89
576.62	60928.83
576.79	60959.25
576.95	60926.49
577.11	61041.17
577.27	61132.45
577.43	60975.64
577.59	60893.72
577.75	60783.71
577.92	60910.10
578.08	61073.94
578.24	61095.00
578.40	61116.07
578.56	61146.50
578.72	61031.81
578.88	61071.60
579.04	61291.61
579.21	61165.22
579.37	61296.29
579.53	61212.03
579.69	61006.06
579.85	60945.21
580.01	61172.24
580.17	61034.15
580.33	61350.12
580.49	61137.13
580.65	61041.17
580.82	60994.36
580.98	60987.34
581.14	60940.53
581.30	61169.90
581.46	61139.47
581.62	61141.81
581.78	61038.83
581.94	61268.20
582.10	61106.71
582.26	61216.71
582.42	60952.23
582.58	61146.50
582.74	60959.25
582.90	61001.38
583.06	61043.51
583.22	61003.72
583.38	61233.10
583.54	61167.56
583.70	61130.11
583.86	61244.80
584.02	61010.74
584.18	61291.61
584.34	61254.16
584.50	61083.30
584.66	61006.06
584.82	60926.49
584.98	61286.93
585.14	61282.25
585.30	61034.15
585.46	61193.31
585.62	61167.56
585.78	61322.04
585.94	60987.34
586.10	61200.33
586.26	61179.26
586.42	61422.68
586.58	61284.59
586.74	61336.08
586.90	61247.14
587.06	61268.20
587.22	61254.16
587.38	61233.10
587.54	61446.08
587.70	61364.17
587.86	61347.78
588.02	61200.33
588.18	61446.08
588.34	61319.70
