SpectraSuite Data File
++++++++++++++++++++++++++++++++++++
Date: Fri Oct 25 10:47:35 EDT 2013
User: price-jones
Dark Spectrum Present: No
Reference Spectrum Present: No
Number of Sampled Component Spectra: 1
Spectrometers: USB2+H05261
Integration Time (usec): 100000 (USB2+H05261)
Spectra Averaged: 1 (USB2+H05261)
Boxcar Smoothing: 0 (USB2+H05261)
Correct for Electrical Dark: No (USB2+H05261)
Strobe/Lamp Enabled: No (USB2+H05261)
Correct for Detector Non-linearity: No (USB2+H05261)
Correct for Stray Light: No (USB2+H05261)
Number of Pixels in Processed Spectrum: 2048
>>>>>Begin Processed Spectral Data<<<<<
365.73	161.50
365.92	161.50
366.12	161.50
366.32	28.09
366.52	0.00
366.72	37.45
366.91	0.00
367.11	60.85
367.31	0.00
367.51	18.72
367.70	65.54
367.90	60.85
368.10	28.09
368.30	74.90
368.49	18.72
368.69	133.41
368.89	51.49
369.09	63.19
369.28	65.54
369.48	70.22
369.68	42.13
369.87	121.71
370.07	102.98
370.27	112.35
370.47	205.97
370.66	386.19
370.86	449.38
371.06	423.64
371.25	456.40
371.45	435.34
371.65	482.15
371.84	470.45
372.04	503.22
372.24	500.87
372.44	517.26
372.63	585.13
372.83	454.06
373.03	561.73
373.22	463.43
373.42	564.07
373.62	559.39
373.81	479.81
374.01	498.53
374.21	561.73
374.40	592.16
374.60	519.60
374.79	575.77
374.99	512.58
375.19	564.07
375.38	578.11
375.58	683.44
375.78	671.73
375.97	615.56
376.17	662.37
376.37	557.05
376.56	620.24
376.76	566.41
376.95	603.86
377.15	669.39
377.35	594.50
377.54	519.60
377.74	610.88
377.93	608.54
378.13	601.52
378.33	713.86
378.52	610.88
378.72	606.20
378.91	650.67
379.11	617.90
379.31	564.07
379.50	615.56
379.70	802.80
379.89	685.78
380.09	720.88
380.28	620.24
380.48	622.58
380.68	692.80
380.87	615.56
381.07	669.39
381.26	704.50
381.46	613.22
381.65	727.91
381.85	723.23
382.04	678.76
382.24	751.31
382.43	664.71
382.63	671.73
382.83	641.31
383.02	664.71
383.22	671.73
383.41	725.57
383.61	648.33
383.80	755.99
384.00	753.65
384.19	777.06
384.39	741.95
384.58	772.38
384.78	713.86
384.97	800.46
385.17	805.14
385.36	767.70
385.56	699.82
385.75	739.61
385.95	777.06
386.14	800.46
386.34	772.38
386.53	786.42
386.72	807.48
386.92	779.40
387.11	765.36
387.31	894.08
387.50	800.46
387.70	777.06
387.89	849.61
388.09	854.30
388.28	891.74
388.48	786.42
388.67	849.61
388.86	847.27
389.06	863.66
389.25	889.40
389.45	926.85
389.64	910.47
389.84	919.83
390.03	940.90
390.22	940.90
390.42	889.40
390.61	896.43
390.81	856.64
391.00	952.60
391.19	1020.47
391.39	957.28
391.58	1090.69
391.78	1013.45
391.97	1032.18
392.16	957.28
392.36	931.53
392.55	990.05
392.75	957.28
392.94	954.94
393.13	945.58
393.33	940.90
393.52	1053.24
393.71	1083.67
393.91	1034.52
394.10	1048.56
394.29	992.39
394.49	1036.86
394.68	1036.86
394.88	1158.57
395.07	1076.65
395.26	1151.54
395.46	1048.56
395.65	1163.25
395.84	1090.69
396.04	1153.88
396.23	1160.91
396.42	1095.37
396.62	1198.35
396.81	1142.18
397.00	1196.01
397.19	1205.38
397.39	1135.16
397.58	1221.76
397.77	1238.14
397.97	1254.53
398.16	1299.00
398.35	1329.42
398.55	1287.29
398.74	1280.27
398.93	1411.34
399.12	1308.36
399.32	1317.72
399.51	1420.71
399.70	1439.43
399.90	1357.51
400.09	1369.21
400.28	1380.92
400.47	1387.94
400.67	1455.81
400.86	1385.60
401.05	1579.86
401.24	1547.09
401.44	1533.05
401.63	1537.73
401.82	1547.09
402.01	1481.56
402.21	1514.33
402.40	1519.01
402.59	1554.12
402.78	1565.82
402.97	1577.52
403.17	1577.52
403.36	1589.22
403.55	1607.95
403.74	1699.23
403.93	1626.67
404.13	1689.87
404.32	1640.72
404.51	1640.72
404.70	1755.40
404.89	1598.59
405.09	1708.59
405.28	1717.95
405.47	1760.08
405.66	1797.53
405.85	1729.66
406.05	1717.95
406.24	1710.93
406.43	1778.81
406.62	1837.32
406.81	1844.34
407.00	1818.60
407.20	1834.98
407.39	1874.77
407.58	1881.79
407.77	1902.86
407.96	1886.47
408.15	1952.01
408.34	1909.88
408.54	1973.07
408.73	1973.07
408.92	2008.18
409.11	2024.56
409.30	2031.58
409.49	2076.06
409.68	1966.05
409.87	2024.56
410.07	2132.23
410.26	2076.06
410.45	2090.10
410.64	2195.42
410.83	2167.34
411.02	2209.47
411.21	2303.09
411.40	2279.68
411.59	2223.51
411.78	2284.36
411.98	2347.56
412.17	2326.49
412.36	2333.51
412.55	2333.51
412.74	2429.48
412.93	2478.63
413.12	2389.69
413.31	2572.25
413.50	2480.97
413.69	2506.71
413.88	2572.25
414.07	2457.56
414.26	2490.33
414.45	2630.76
414.64	2757.15
414.83	2630.76
415.02	2768.85
415.22	2693.96
415.41	2626.08
415.60	2825.03
415.79	2801.62
415.98	2857.79
416.17	2841.41
416.36	2869.50
416.55	2878.86
416.74	2958.44
416.93	2867.16
417.12	2967.80
417.31	2963.12
417.50	2878.86
417.69	3110.57
417.88	3007.59
418.07	2953.76
418.26	3162.06
418.45	3131.64
418.64	3232.28
418.83	3108.23
419.02	3110.57
419.21	3187.81
419.39	3164.40
419.58	3183.13
419.77	3117.59
419.96	3295.47
420.15	3346.97
420.34	3192.49
420.53	3421.86
420.72	3384.41
420.91	3447.61
421.10	3440.59
421.29	3398.46
421.48	3358.67
421.67	3393.78
421.86	3389.10
422.05	3480.38
422.24	3344.63
422.43	3272.07
422.61	3445.27
422.80	3496.76
422.99	3583.36
423.18	3602.08
423.37	3585.70
423.56	3604.42
423.75	3414.84
423.94	3358.67
424.13	3290.79
424.32	3344.63
424.50	3674.64
424.69	3487.40
424.88	3662.94
425.07	3499.10
425.26	3428.88
425.45	3459.31
425.64	3452.29
425.83	3611.45
426.01	3700.39
426.20	3648.90
426.39	3606.77
426.58	3641.87
426.77	3616.13
426.96	3611.45
427.15	3646.55
427.33	3679.32
427.52	3590.38
427.71	3632.51
427.90	3796.35
428.09	3665.28
428.28	3637.19
428.46	3880.61
428.65	3695.71
428.84	3838.48
429.03	3836.14
429.22	3796.35
429.40	3742.52
429.59	3768.26
429.78	3723.79
429.97	3637.19
430.16	3700.39
430.34	3847.84
430.53	3768.26
430.72	3838.48
430.91	3889.97
431.10	4009.34
431.28	4105.30
431.47	4084.23
431.66	4229.35
431.85	4152.11
432.03	4086.58
432.22	4173.18
432.41	4102.96
432.60	4212.96
432.79	4362.76
432.97	4325.31
433.16	4189.56
433.35	4273.82
433.54	4210.62
433.72	4271.48
433.91	4191.90
434.10	4219.99
434.28	4299.56
434.47	4559.36
434.66	4351.06
434.85	4390.84
435.03	4360.42
435.22	4332.33
435.41	4713.84
435.59	4678.73
435.78	4725.54
435.97	4594.47
436.16	4648.30
436.34	4636.60
436.53	4634.26
436.72	4760.65
436.90	4369.78
437.09	4596.81
437.28	4599.15
437.46	4671.71
437.65	4650.64
437.84	4652.98
438.02	4718.52
438.21	4772.35
438.40	4699.80
438.58	4821.50
438.77	4919.81
438.96	4940.87
439.14	5001.72
439.33	4924.49
439.52	5111.73
439.70	5022.79
439.89	5062.58
440.08	5195.99
440.26	5130.45
440.45	5062.58
440.63	5186.63
440.82	5263.86
441.01	5338.76
441.19	5341.10
441.38	5359.83
441.57	5392.59
441.75	5554.09
441.94	5514.30
442.12	5500.26
442.31	5593.88
442.50	5699.20
442.68	5792.83
442.87	5706.23
443.05	5633.67
443.24	5881.77
443.43	5783.46
443.61	5757.72
443.80	6050.28
443.98	5699.20
444.17	5593.88
444.35	5879.43
444.54	5825.59
444.73	5851.34
444.91	5762.40
445.10	5783.46
445.28	5959.00
445.47	5844.32
445.65	5760.06
445.84	5851.34
446.02	5921.56
446.21	5977.73
446.39	5795.17
446.58	5996.45
446.77	5879.43
446.95	6003.47
447.14	5874.74
447.32	6047.94
447.51	5994.11
447.69	5895.81
447.88	5973.05
448.06	5928.58
448.25	6097.10
448.43	6057.31
448.62	6129.86
448.80	6059.65
448.99	5975.39
449.17	6122.84
449.36	6108.80
449.54	6101.78
449.73	6473.92
449.91	6326.47
450.10	6256.25
450.28	6483.28
450.46	6324.13
450.65	6186.04
450.83	6436.47
451.02	6282.00
451.20	6441.15
451.39	6523.07
451.57	6347.53
451.76	6384.98
451.94	6403.71
452.13	6663.51
452.31	6513.71
452.49	6368.60
452.68	6473.92
452.86	6352.21
453.05	6663.51
453.23	6724.36
453.42	6539.46
453.60	6544.14
453.78	6717.34
453.97	6700.95
454.15	6668.19
454.34	6569.88
454.52	6825.00
454.70	6799.26
454.89	6759.47
455.07	6761.81
455.26	6878.83
455.44	6867.13
455.62	6857.77
455.81	7129.27
455.99	7023.95
456.17	7033.31
456.36	6956.07
456.54	7110.55
456.73	7148.00
456.91	7325.88
457.09	7194.81
457.28	7349.28
457.46	7138.63
457.64	7456.95
457.83	7349.28
458.01	7218.21
458.19	7494.40
458.38	7384.39
458.56	7555.25
458.74	7468.65
458.93	7405.46
459.11	7520.14
459.29	7461.63
459.48	7625.47
459.66	7372.69
459.84	7599.72
460.03	7602.06
460.21	7630.15
460.39	7709.72
460.57	7602.06
460.76	7683.98
460.94	7932.08
461.12	7772.92
461.31	7882.92
461.49	7679.30
461.67	7826.75
461.85	7971.86
462.04	7978.89
462.22	8425.93
462.40	7974.21
462.59	8133.36
462.77	7934.42
462.95	7995.27
463.13	8025.70
463.32	8205.92
463.50	8182.51
463.68	8140.38
463.86	8234.00
464.05	8021.02
464.23	8119.32
464.41	8301.88
464.59	7838.45
464.78	8243.37
464.96	8344.01
465.14	7967.18
465.32	8353.37
465.50	8369.76
465.69	8390.82
465.87	8397.84
466.05	8439.97
466.23	8458.70
466.41	8292.52
466.60	8667.00
466.78	8528.91
466.96	8395.50
467.14	8596.79
467.32	8320.60
467.51	8592.11
467.69	8439.97
467.87	8603.81
468.05	8484.44
468.23	8643.60
468.41	8571.04
468.60	8517.21
468.78	8856.59
468.96	8638.92
469.14	8912.76
469.32	8929.14
469.50	8659.98
469.69	8777.01
469.87	8882.33
470.05	8903.40
470.23	8765.31
470.41	8952.55
470.59	9111.71
470.77	8919.78
470.95	9130.43
471.14	9170.22
471.32	9071.92
471.50	9341.08
471.68	9097.66
471.86	9308.31
472.04	9408.95
472.22	9495.55
472.40	9053.19
472.58	9294.27
472.77	9437.04
472.95	9537.68
473.13	9778.76
473.31	9479.17
473.49	9511.94
473.67	9696.84
473.85	9778.76
474.03	9813.87
474.21	9874.72
474.39	9921.53
474.57	9966.00
474.75	10122.82
474.93	10146.22
475.12	10164.95
475.30	10403.68
475.48	10148.56
475.66	10216.44
475.84	10300.70
476.02	10520.71
476.20	10387.30
476.38	10485.60
476.56	10942.00
476.74	10846.04
476.92	10719.65
477.10	10684.55
477.28	10782.85
477.46	10949.03
477.64	11052.01
477.82	11325.85
478.00	11606.72
478.18	11412.45
478.36	11393.73
478.54	11520.12
478.72	11400.75
478.90	11690.98
479.08	11768.21
479.26	11985.88
479.44	12091.21
479.62	12042.06
479.80	12095.89
479.98	12109.93
480.16	12531.23
480.34	12304.20
480.52	12503.14
480.70	12507.82
480.88	12435.27
481.06	12556.97
481.24	12919.76
481.41	12748.90
481.59	12868.27
481.77	13177.22
481.95	13256.79
482.13	13268.50
482.31	13259.13
482.49	13666.39
482.67	13568.09
482.85	13846.61
483.03	13701.50
483.21	13827.88
483.39	13851.29
483.57	13937.89
483.74	14141.52
483.92	14162.58
484.10	14122.79
484.28	14335.78
484.46	14459.83
484.64	14761.76
484.82	14829.63
485.00	14808.57
485.18	15094.11
485.35	15180.71
485.53	14974.75
485.71	14998.15
485.89	15672.23
486.07	15059.01
486.25	15171.35
486.43	15690.95
486.61	15899.26
486.78	15892.24
486.96	15836.06
487.14	16470.35
487.32	16180.12
487.50	16493.76
487.68	16805.05
487.85	16905.69
488.03	16856.54
488.21	17135.06
488.39	16903.35
488.57	17465.08
488.75	17179.53
488.92	17570.40
489.10	17848.93
489.28	17881.69
489.46	17752.96
489.64	18347.46
489.81	18373.21
489.99	18537.04
490.17	18618.96
490.35	18972.38
490.53	18855.36
490.70	18747.69
490.88	18956.00
491.06	18906.85
491.24	19080.05
491.41	19307.08
491.59	19463.90
491.77	19180.69
491.95	19573.90
492.13	19580.92
492.30	19791.57
492.48	19866.47
492.66	19868.81
492.84	20336.91
493.01	20336.91
493.19	20168.40
493.37	20266.70
493.54	20456.28
493.72	20624.80
493.90	20666.93
494.08	21142.06
494.25	21235.68
494.43	21153.76
494.61	21219.30
494.79	21598.46
494.96	21546.97
495.14	21504.84
495.32	21778.68
495.49	21979.97
495.67	22134.45
495.85	22307.65
496.02	22331.05
496.20	22445.74
496.38	22593.19
496.55	22398.93
496.73	23033.21
496.91	22731.28
497.09	22815.54
497.26	23126.83
497.44	23166.62
497.62	23101.09
497.79	23096.41
497.97	23220.45
498.14	23456.85
498.32	23723.67
498.50	23639.41
498.67	23634.73
498.85	23819.63
499.03	24060.71
499.20	23946.02
499.38	24329.87
499.56	24287.74
499.73	24535.84
499.91	24489.03
500.08	24870.53
500.26	24290.08
500.44	24570.94
500.61	24868.19
500.79	24907.98
500.97	25029.69
501.14	25324.60
501.32	25287.15
501.49	25099.90
501.67	24985.22
501.84	25212.25
502.02	25280.13
502.20	25834.83
502.37	25883.98
502.55	25881.64
502.72	25912.07
502.90	25949.52
503.07	25956.54
503.25	26253.79
503.43	25797.38
503.60	26361.45
503.78	26267.83
503.95	26223.36
504.13	26281.88
504.30	26398.90
504.48	26485.50
504.65	26829.56
504.83	26874.03
505.01	27056.59
505.18	26822.54
505.36	27337.46
505.53	27173.62
505.71	27520.02
505.88	27321.07
506.06	27199.37
506.23	27164.26
506.41	27402.99
506.58	27307.03
506.76	27857.06
506.93	27718.96
507.11	27892.16
507.28	27672.15
507.46	27770.46
507.63	27754.07
507.81	28144.94
507.98	28091.11
508.16	28144.94
508.33	28725.39
508.50	28491.34
508.68	28659.86
508.85	29181.80
509.03	28992.22
509.20	28809.65
509.38	29074.13
509.55	29090.52
509.73	29034.35
509.90	29221.59
510.08	29003.92
510.25	29088.18
510.42	29216.91
510.60	29535.22
510.77	29649.91
510.95	29708.42
511.12	29486.07
511.30	29577.35
511.47	30195.25
511.64	30017.37
511.82	30644.63
511.99	29851.19
512.17	30153.12
512.34	29708.42
512.51	30438.67
512.69	30338.02
512.86	30321.64
513.04	30766.34
513.21	30710.17
513.38	30366.11
513.56	30328.66
513.73	30836.56
513.90	31126.78
514.08	30871.67
514.25	31101.04
514.43	31253.17
514.60	31012.10
514.77	31239.13
514.95	31498.93
515.12	31204.02
515.29	31454.46
515.47	31409.99
515.64	31627.66
515.81	31669.79
515.99	31672.13
516.16	31934.27
516.33	31241.47
516.51	31864.05
516.68	31637.02
516.85	31400.63
517.03	32093.43
517.20	32163.64
517.37	32123.85
517.54	32067.68
517.72	32627.07
517.89	32006.83
518.06	32173.00
518.24	32044.27
518.41	32425.78
518.58	32507.70
518.75	31866.39
518.93	32818.99
519.10	32851.76
519.27	33259.01
519.45	32690.26
519.62	32840.06
519.79	33371.36
519.96	33535.20
520.14	33338.59
520.31	33141.99
520.48	33762.23
520.65	33273.06
520.83	33663.93
521.00	33633.50
521.17	33844.15
521.34	33982.24
521.52	34089.90
521.69	33839.47
521.86	34015.01
522.03	34033.73
522.20	34136.71
522.38	34188.21
522.55	34443.32
522.72	34309.91
522.89	34593.12
523.07	34452.69
523.24	34244.38
523.41	34583.76
523.58	34377.79
523.75	34927.81
523.92	35536.35
524.10	34768.66
524.27	35304.64
524.44	34780.36
524.61	35236.77
524.78	34859.94
524.96	35140.80
525.13	35569.12
525.30	35473.16
525.47	35744.66
525.64	35421.67
525.81	35381.88
525.98	35344.43
526.16	35332.73
526.33	35660.40
526.50	35466.14
526.67	35325.71
526.84	35550.40
527.01	35501.25
527.18	35290.60
527.36	35847.64
527.53	35885.09
527.70	36652.79
527.87	35910.84
528.04	36107.44
528.21	36109.78
528.38	35526.99
528.55	36374.27
528.72	36308.73
528.89	36739.39
529.07	36219.79
529.24	36023.19
529.41	36542.78
529.58	36713.64
529.75	36465.55
529.92	36713.64
530.09	36631.72
530.26	36762.79
530.43	37071.75
530.60	36882.16
530.77	36645.77
530.94	37331.54
531.11	37266.01
531.28	37528.15
531.46	37090.47
531.63	37287.07
531.80	37518.79
531.97	37790.29
532.14	37266.01
532.31	37174.73
532.48	37425.17
532.65	37591.34
532.82	37570.28
532.99	37230.90
533.16	37331.54
533.33	37827.74
533.50	37949.45
533.67	37933.06
533.84	37743.48
534.01	37965.83
534.18	37834.76
534.35	37832.42
534.52	37771.57
534.69	38113.28
534.86	38251.38
535.03	37944.76
535.20	38330.95
535.37	38462.02
535.54	38651.61
535.71	38550.96
535.88	38770.97
536.05	38675.01
536.22	38803.74
536.38	38597.77
536.55	38876.30
536.72	38424.57
536.89	38323.93
537.06	38616.50
537.23	38541.60
537.40	38911.41
537.57	38920.77
537.74	38883.32
537.91	39061.20
538.08	39164.18
538.25	39194.61
538.42	38831.83
538.59	39480.16
538.75	39084.61
538.92	39030.77
539.09	39098.65
539.26	39473.13
539.43	39218.02
539.60	39737.62
539.77	39379.51
539.94	39723.57
540.11	39737.62
540.28	39388.88
540.44	39608.89
540.61	39143.12
540.78	39618.25
540.95	39566.76
541.12	39454.41
541.29	39419.30
541.46	39468.45
541.62	39793.79
541.79	40144.87
541.96	39562.08
542.13	40219.77
542.30	39856.98
542.47	39784.43
542.63	39597.18
542.80	40327.43
542.97	40107.42
543.14	40856.39
543.31	40374.24
543.48	40751.07
543.64	41074.06
543.81	41104.49
543.98	40793.20
544.15	40666.81
544.32	40903.20
544.48	41284.71
544.65	40830.65
544.82	40762.77
544.99	40470.20
545.16	40786.18
545.32	40921.93
545.49	41354.93
545.66	41013.21
545.83	41251.94
546.00	41354.93
546.16	41170.02
546.33	41261.30
546.50	40722.98
546.67	41095.13
546.83	40828.30
547.00	40870.43
547.17	41308.11
547.34	40718.30
547.50	41158.32
547.67	41799.63
547.84	41062.36
548.00	41394.71
548.17	41654.51
548.34	41642.81
548.51	41865.16
548.67	41495.36
548.84	41663.88
549.01	41539.83
549.18	41853.46
549.34	41670.90
549.51	41855.80
549.68	41691.96
549.84	41965.81
550.01	42265.39
550.18	41916.65
550.34	41614.72
550.51	41687.28
550.68	41724.73
550.84	41179.39
551.01	42206.88
551.18	41916.65
551.34	42167.09
551.51	42260.71
551.68	42349.65
551.84	42644.56
552.01	42155.39
552.18	42164.75
552.34	41970.49
552.51	42483.06
552.68	42485.40
552.84	42476.04
553.01	42759.25
553.18	42288.80
553.34	42195.18
553.51	42216.24
553.67	41921.34
553.84	42555.62
554.01	42721.80
554.17	43196.93
554.34	43049.47
554.51	42927.77
554.67	42635.20
554.84	43150.12
555.00	42838.83
555.17	42384.76
555.33	42651.58
555.50	42925.42
555.67	42740.52
555.83	42733.50
556.00	42873.93
556.16	43365.45
556.33	42953.51
556.50	42939.47
556.66	43335.02
556.83	42726.48
556.99	43260.12
557.16	43379.49
557.32	43323.32
557.49	43234.38
557.65	42787.33
557.82	43007.34
557.98	42937.13
558.15	43100.97
558.32	43416.94
558.48	43054.15
558.65	43276.51
558.81	43047.13
558.98	43454.39
559.14	43344.38
559.31	42955.85
559.47	43531.62
559.64	43735.25
559.80	43585.46
559.97	43578.43
560.13	43569.07
560.30	43480.13
560.46	43983.35
560.63	43349.06
560.79	43789.08
560.96	44091.01
561.12	43613.54
561.29	43922.49
561.45	43482.47
561.61	43594.82
561.78	43468.43
561.94	43704.82
562.11	43641.63
562.27	43496.52
562.44	43508.22
562.60	44154.21
562.77	44154.21
562.93	43985.69
563.10	43995.05
563.26	43861.64
563.42	43959.94
563.59	43597.16
563.75	43714.19
563.92	44060.58
564.08	43899.09
564.24	44238.47
564.41	44299.32
564.57	44018.46
564.74	44016.11
564.90	43950.58
565.07	44011.43
565.23	43753.97
565.39	44074.63
565.56	44177.61
565.72	44435.07
565.88	44299.32
566.05	43894.41
566.21	43976.33
566.38	43650.99
566.54	44165.91
566.70	44261.87
566.87	44453.79
567.03	44198.68
567.19	44790.83
567.36	44404.64
567.52	44037.18
567.68	43882.70
567.85	44191.65
568.01	44161.23
568.17	43957.60
568.34	44275.91
568.50	44266.55
568.66	44027.82
568.83	44526.35
568.99	44079.31
569.15	44013.77
569.32	44041.86
569.48	43871.00
569.64	44266.55
569.81	44531.03
569.97	44037.18
570.13	44208.04
570.30	44474.86
570.46	43910.79
570.62	43765.68
570.78	44538.05
570.95	44397.62
571.11	44538.05
571.27	44463.16
571.43	44367.20
571.60	44512.31
571.76	44322.72
571.92	44790.83
572.09	44549.76
572.25	44189.31
572.41	43889.73
572.57	44362.51
572.74	44985.10
572.90	44643.38
573.06	44500.61
573.22	44472.52
573.38	44659.76
573.55	44051.22
573.71	44591.89
573.87	44484.22
574.03	44507.63
574.20	44137.82
574.36	44257.19
574.52	44664.44
574.68	44598.91
574.84	44734.66
575.01	44580.18
575.17	44566.14
575.33	44493.58
575.49	44154.21
575.65	44636.36
575.82	44699.55
575.98	44371.88
576.14	44687.85
576.30	44378.90
576.46	44149.53
576.62	44296.98
576.79	44699.55
576.95	44088.67
577.11	44018.46
577.27	44605.93
577.43	44994.46
577.59	44573.16
577.75	44196.34
577.92	44538.05
578.08	44285.28
578.24	44437.41
578.40	44643.38
578.56	44500.61
578.72	44790.83
578.88	44638.70
579.04	44861.05
579.21	44802.53
579.37	44318.04
579.53	44535.71
579.69	44109.74
579.85	44545.08
580.01	44744.02
580.17	44624.65
580.33	44617.63
580.49	44474.86
580.65	44767.43
580.82	44741.68
580.98	44804.88
581.14	44306.34
581.30	44374.22
581.46	44304.00
581.62	44428.05
581.78	44744.02
581.94	45031.91
582.10	45148.93
582.26	45160.64
582.42	44907.86
582.58	44678.49
582.74	44334.43
582.90	44863.39
583.06	44739.34
583.22	44690.19
583.38	45088.08
583.54	45083.40
583.70	44598.91
583.86	44575.50
584.02	44435.07
584.18	45031.91
584.34	44753.38
584.50	44776.79
584.66	44708.91
584.82	44678.49
584.98	45287.03
585.14	44790.83
585.30	44423.37
585.46	44521.67
585.62	44685.51
585.78	44877.43
585.94	44456.14
586.10	44549.76
586.26	44292.30
586.42	44961.69
586.58	44797.85
586.74	44865.73
586.90	44481.88
587.06	44907.86
587.22	44914.88
587.38	44631.68
587.54	44631.68
587.70	45052.97
587.86	44931.26
588.02	44793.17
588.18	44889.13
588.34	45017.86
588.49	44619.97
588.65	44194.00
588.81	44664.44
588.97	45144.25
589.13	44346.13
589.29	44940.63
589.45	44631.68
589.61	44760.40
589.77	45214.47
589.93	44739.34
590.08	45081.06
590.24	45249.58
