SpectraSuite Data File
++++++++++++++++++++++++++++++++++++
Date: Fri Oct 25 11:34:07 EDT 2013
User: price-jones
Dark Spectrum Present: No
Reference Spectrum Present: No
Number of Sampled Component Spectra: 1
Spectrometers: USB2+H05261
Integration Time (usec): 100000 (USB2+H05261)
Spectra Averaged: 1 (USB2+H05261)
Boxcar Smoothing: 0 (USB2+H05261)
Correct for Electrical Dark: No (USB2+H05261)
Strobe/Lamp Enabled: No (USB2+H05261)
Correct for Detector Non-linearity: No (USB2+H05261)
Correct for Stray Light: No (USB2+H05261)
Number of Pixels in Processed Spectrum: 2048
>>>>>Begin Processed Spectral Data<<<<<
365.73	315.97
365.92	315.97
366.12	315.97
366.32	198.95
366.52	177.88
366.72	166.18
366.91	177.88
367.11	154.48
367.31	177.88
367.51	175.54
367.70	121.71
367.90	184.90
368.10	124.05
368.30	203.63
368.49	177.88
368.69	184.90
368.89	215.33
369.09	222.35
369.28	220.01
369.48	231.71
369.68	208.31
369.87	224.69
370.07	229.37
370.27	234.05
370.47	346.40
370.66	440.02
370.86	454.06
371.06	535.98
371.25	601.52
371.45	575.77
371.65	568.75
371.84	601.52
372.04	589.82
372.24	514.92
372.44	554.71
372.63	547.69
372.83	589.82
373.03	653.01
373.22	631.94
373.42	610.88
373.62	624.92
373.81	751.31
374.01	653.01
374.21	566.41
374.40	667.05
374.60	543.00
374.79	624.92
374.99	601.52
375.19	662.37
375.38	655.35
375.58	634.29
375.78	674.07
375.97	692.80
376.17	664.71
376.37	678.76
376.56	638.97
376.76	624.92
376.95	664.71
377.15	695.14
377.35	655.35
377.54	676.41
377.74	720.88
377.93	723.23
378.13	674.07
378.33	779.40
378.52	730.25
378.72	744.29
378.91	674.07
379.11	669.39
379.31	690.46
379.50	636.63
379.70	704.50
379.89	751.31
380.09	753.65
380.28	678.76
380.48	697.48
380.68	755.99
380.87	711.52
381.07	669.39
381.26	730.25
381.46	781.74
381.65	774.72
381.85	730.25
382.04	821.53
382.24	814.51
382.43	844.93
382.63	840.25
382.83	805.14
383.02	816.85
383.22	777.06
383.41	802.80
383.61	821.53
383.80	774.72
384.00	760.67
384.19	770.04
384.39	847.27
384.58	786.42
384.78	753.65
384.97	823.87
385.17	905.79
385.36	753.65
385.56	816.85
385.75	816.85
385.95	870.68
386.14	861.32
386.34	802.80
386.53	821.53
386.72	837.91
386.92	854.30
387.11	873.02
387.31	835.57
387.50	854.30
387.70	802.80
387.89	844.93
388.09	819.19
388.28	809.83
388.48	915.15
388.67	940.90
388.86	823.87
389.06	868.34
389.25	933.87
389.45	912.81
389.64	983.02
389.84	1027.50
390.03	990.05
390.22	1011.11
390.42	997.07
390.61	837.91
390.81	954.94
391.00	915.15
391.19	1083.67
391.39	978.34
391.58	1076.65
391.78	980.68
391.97	1041.54
392.16	1020.47
392.36	1062.60
392.55	1043.88
392.75	1027.50
392.94	987.71
393.13	1015.79
393.33	978.34
393.52	1022.81
393.71	1132.82
393.91	1057.92
394.10	1078.99
394.29	997.07
394.49	1074.31
394.68	1097.71
394.88	1135.16
395.07	1067.28
395.26	1095.37
395.46	1048.56
395.65	1097.71
395.84	1135.16
396.04	1324.74
396.23	1238.14
396.42	1205.38
396.62	1135.16
396.81	1123.46
397.00	1179.63
397.19	1247.51
397.39	1170.27
397.58	1217.08
397.77	1273.25
397.97	1228.78
398.16	1247.51
398.35	1263.89
398.55	1317.72
398.74	1291.98
398.93	1359.85
399.12	1247.51
399.32	1275.59
399.51	1404.32
399.70	1320.06
399.90	1322.40
400.09	1378.58
400.28	1390.28
400.47	1387.94
400.67	1390.28
400.86	1273.25
401.05	1371.55
401.24	1390.28
401.44	1348.15
401.63	1439.43
401.82	1355.17
402.01	1451.13
402.21	1472.20
402.40	1427.73
402.59	1411.34
402.78	1544.75
402.97	1423.05
403.17	1486.24
403.36	1460.49
403.55	1561.14
403.74	1544.75
403.93	1526.03
404.13	1612.63
404.32	1589.22
404.51	1554.12
404.70	1568.16
404.89	1540.07
405.09	1652.42
405.28	1638.38
405.47	1621.99
405.66	1668.80
405.85	1652.42
406.05	1659.44
406.24	1654.76
406.43	1666.46
406.62	1713.27
406.81	1790.51
407.00	1792.85
407.20	1804.55
407.39	1823.28
407.58	1837.32
407.77	1916.90
407.96	1849.02
408.15	1853.70
408.34	1720.29
408.54	1968.39
408.73	1944.99
408.92	1842.00
409.11	1933.28
409.30	1982.43
409.49	1926.26
409.68	1987.11
409.87	1975.41
410.07	1954.35
410.26	1935.62
410.45	2099.46
410.64	1987.11
410.83	2038.61
411.02	2052.65
411.21	2120.53
411.40	2043.29
411.59	2195.42
411.78	2134.57
411.98	2146.27
412.17	2200.10
412.36	2204.78
412.55	2221.17
412.74	2445.86
412.93	2324.15
413.12	2211.81
413.31	2377.98
413.50	2342.88
413.69	2326.49
413.88	2464.58
414.07	2464.58
414.26	2356.92
414.45	2560.55
414.64	2473.95
414.83	2539.48
415.02	2644.81
415.22	2572.25
415.41	2471.61
415.60	2579.27
415.79	2637.78
415.98	2726.72
416.17	2722.04
416.36	2747.79
416.55	2696.30
416.74	2864.82
416.93	2700.98
417.12	2803.96
417.31	2780.56
417.50	2855.45
417.69	2871.84
417.88	2850.77
418.07	2883.54
418.26	2878.86
418.45	2925.67
418.64	3063.76
418.83	2949.08
419.02	3007.59
419.21	3049.72
419.39	3007.59
419.58	3094.19
419.77	2878.86
419.96	3026.31
420.15	3061.42
420.34	2937.37
420.53	3185.47
420.72	3136.32
420.91	3190.15
421.10	3220.58
421.29	3201.85
421.48	3248.66
421.67	3227.60
421.86	3241.64
422.05	3241.64
422.24	3321.22
422.43	3211.22
422.61	3428.88
422.80	3269.73
422.99	3290.79
423.18	3297.81
423.37	3396.12
423.56	3417.18
423.75	3337.60
423.94	3428.88
424.13	3236.96
424.32	3220.58
424.50	3332.92
424.69	3358.67
424.88	3412.50
425.07	3349.31
425.26	3442.93
425.45	3351.65
425.64	3368.03
425.83	3393.78
426.01	3536.55
426.20	3480.38
426.39	3431.23
426.58	3407.82
426.77	3307.18
426.96	3513.14
427.15	3356.33
427.33	3419.52
427.52	3384.41
427.71	3550.59
427.90	3449.95
428.09	3555.27
428.28	3681.66
428.46	3667.62
428.65	3672.30
428.84	3665.28
429.03	3667.62
429.22	3613.79
429.40	3723.79
429.59	3618.47
429.78	3581.02
429.97	3534.21
430.16	3786.99
430.34	3815.07
430.53	3758.90
430.72	3817.41
430.91	3847.84
431.10	3756.56
431.28	3761.24
431.47	3894.65
431.66	3808.05
431.85	4086.58
432.03	3995.29
432.22	3946.14
432.41	3880.61
432.60	3967.21
432.79	3976.57
432.97	3962.53
433.16	4135.73
433.35	4100.62
433.54	4028.06
433.72	4119.34
433.91	4156.79
434.10	4093.60
434.28	4081.89
434.47	4077.21
434.66	4224.67
434.85	4208.28
435.03	4124.02
435.22	4287.86
435.41	4428.29
435.59	4369.78
435.78	4273.82
435.97	4184.88
436.16	4280.84
436.34	4367.44
436.53	4458.72
436.72	4329.99
436.90	4334.67
437.09	4479.79
437.28	4454.04
437.46	4496.17
437.65	4538.30
437.84	4559.36
438.02	4470.42
438.21	4535.96
438.40	4447.02
438.58	4760.65
438.77	4580.43
438.96	4643.62
439.14	4704.48
439.33	4645.96
439.52	4786.40
439.70	4741.93
439.89	4840.23
440.08	4840.23
440.26	4936.19
440.45	4915.12
440.63	5043.85
440.82	5160.88
441.01	5046.20
441.19	5259.18
441.38	5041.51
441.57	5195.99
441.75	5221.74
441.94	5336.42
442.12	5226.42
442.31	5249.82
442.50	5359.83
442.68	5336.42
442.87	5160.88
443.05	5320.04
443.24	5575.16
443.43	5355.15
443.61	5518.98
443.80	5486.22
443.98	5469.83
444.17	5184.29
444.35	5490.90
444.54	5362.17
444.73	5614.95
444.91	5390.25
445.10	5575.16
445.28	5561.11
445.47	5549.41
445.65	5575.16
445.84	5643.03
446.02	5661.76
446.21	5743.67
446.39	5423.02
446.58	5589.20
446.77	5713.25
446.95	5636.01
447.14	5640.69
447.32	5589.20
447.51	5537.71
447.69	5621.97
447.88	5680.48
448.06	5558.77
448.25	5722.61
448.43	5823.25
448.62	5738.99
448.80	5764.74
448.99	5685.16
449.17	5849.00
449.36	5708.57
449.54	5811.55
449.73	5956.66
449.91	6148.59
450.10	6005.81
450.28	5961.34
450.46	5996.45
450.65	6001.13
450.83	5933.26
451.02	6111.14
451.20	6113.48
451.39	6085.39
451.57	5996.45
451.76	6003.47
451.94	6171.99
452.13	6164.97
452.31	6214.12
452.49	6087.73
452.68	6274.98
452.86	6176.67
453.05	6249.23
453.23	6209.44
453.42	6162.63
453.60	6157.95
453.78	6223.48
453.97	6155.61
454.15	6389.66
454.34	6253.91
454.52	6413.07
454.70	6394.34
454.89	6612.01
455.07	6452.86
455.26	6417.75
455.44	6537.12
455.62	6389.66
455.81	6583.93
455.99	6595.63
456.17	6574.56
456.36	6504.35
456.54	6855.43
456.73	6649.46
456.91	6977.14
457.09	6796.92
457.28	6855.43
457.46	6740.74
457.64	7045.01
457.83	7087.14
458.01	6991.18
458.19	7056.72
458.38	6923.30
458.56	7122.25
458.74	6946.71
458.93	7063.74
459.11	7166.72
459.29	7199.49
459.48	7192.47
459.66	7063.74
459.84	7148.00
460.03	7302.47
460.21	7351.62
460.39	7419.50
460.57	7384.39
460.76	7227.57
460.94	7215.87
461.12	7398.43
461.31	7363.33
461.49	7440.56
461.67	7272.04
461.85	7386.73
462.04	7239.28
462.22	7936.76
462.40	7499.08
462.59	7639.51
462.77	7611.42
462.95	7510.78
463.13	7618.44
463.32	7557.59
463.50	7761.22
463.68	7784.62
463.86	7747.17
464.05	7506.10
464.23	7719.09
464.41	8018.68
464.59	7672.28
464.78	8091.23
464.96	8035.06
465.14	7878.24
465.32	8112.30
465.50	7974.21
465.69	7990.59
465.87	7768.24
466.05	7885.26
466.23	8063.15
466.41	8170.81
466.60	8191.88
466.78	7936.76
466.96	7805.69
467.14	8100.59
467.32	8175.49
467.51	8196.56
467.69	7985.91
467.87	8248.05
468.05	8203.58
468.23	8098.25
468.41	8133.36
468.60	8226.98
468.78	8369.76
468.96	8243.37
469.14	8454.02
469.32	8519.55
469.50	8292.52
469.69	8437.63
469.87	8585.08
470.05	8535.93
470.23	8603.81
470.41	8482.10
470.59	8685.73
470.77	8617.85
470.95	8582.74
471.14	8517.21
471.32	8636.58
471.50	8940.85
471.68	8858.93
471.86	8781.69
472.04	8861.27
472.22	9242.78
472.40	8833.18
472.58	9001.70
472.77	9214.69
472.95	9067.24
473.13	9465.13
473.31	9249.80
473.49	9235.75
473.67	9376.19
473.85	9495.55
474.03	9338.74
474.21	9399.59
474.39	9572.79
474.57	9528.32
474.75	9799.82
474.93	9804.50
475.12	9832.59
475.30	10047.92
475.48	9715.56
475.66	9951.96
475.84	9909.83
476.02	9884.08
476.20	9973.02
476.38	10197.71
476.56	10394.32
476.74	10270.27
476.92	10132.18
477.10	10167.29
477.28	10520.71
477.46	10429.43
477.64	10672.84
477.82	10532.41
478.00	11023.92
478.18	10998.18
478.36	10963.07
478.54	11234.57
478.72	11229.89
478.90	11332.87
479.08	11232.23
479.26	11365.64
479.44	11396.07
479.62	11634.80
479.80	11428.84
479.98	11714.38
480.16	11999.93
480.34	11772.89
480.52	12084.19
480.70	12262.07
480.88	11976.52
481.06	11833.75
481.24	12308.88
481.41	12236.32
481.59	12463.35
481.77	12662.30
481.95	12362.71
482.13	12741.88
482.31	12779.32
482.49	13078.91
482.67	12915.08
482.85	13050.83
483.03	13116.36
483.21	13465.10
483.39	13415.95
483.57	13525.96
483.74	13659.37
483.92	13823.20
484.10	13523.62
484.28	13982.36
484.46	14300.67
484.64	14326.42
484.82	14094.71
485.00	14384.93
485.18	14539.41
485.35	14752.40
485.53	14691.54
485.71	14736.01
485.89	14986.45
486.07	15101.14
486.25	15070.71
486.43	15192.42
486.61	15339.87
486.78	15363.28
486.96	15676.91
487.14	15578.61
487.32	15590.31
487.50	16098.20
487.68	16276.09
487.85	16259.70
488.03	16528.86
488.21	16542.91
488.39	16641.21
488.57	16875.26
488.75	17118.68
488.92	16978.25
489.10	17231.02
489.28	17226.34
489.46	17479.12
489.64	17202.94
489.81	17729.56
489.99	17813.82
490.17	17980.00
490.35	17923.82
490.53	18104.04
490.70	18611.94
490.88	18052.55
491.06	18515.98
491.24	18373.21
491.41	18623.64
491.59	18909.19
491.77	18649.39
491.95	19180.69
492.13	19023.87
492.30	19274.31
492.48	19307.08
492.66	19468.58
492.84	19826.68
493.01	19693.27
493.19	19611.35
493.37	19864.13
493.54	19950.73
493.72	20084.14
493.90	20037.33
494.08	20329.89
494.25	20765.23
494.43	20531.18
494.61	20795.66
494.79	20884.60
494.96	20858.85
495.14	20903.32
495.32	21146.74
495.49	21212.28
495.67	21303.56
495.85	21408.88
496.02	21673.36
496.20	21364.41
496.38	21769.32
496.55	21977.63
496.73	22415.31
496.91	21935.50
497.09	22431.69
497.26	22389.56
497.44	22410.63
497.62	22684.47
497.79	23096.41
497.97	22794.48
498.14	23367.91
498.32	22815.54
498.50	23358.55
498.67	23367.91
498.85	23358.55
499.03	23506.00
499.20	23417.06
499.38	23903.89
499.56	23442.81
499.73	23723.67
499.91	24027.94
500.08	24297.10
500.26	23805.59
500.44	24189.44
500.61	24032.62
500.79	24051.34
500.97	24540.52
501.14	24685.63
501.32	25010.96
501.49	24910.32
501.67	24877.55
501.84	24795.64
502.02	24835.42
502.20	25202.89
502.37	25174.80
502.55	25198.21
502.72	25397.15
502.90	25228.63
503.07	25406.52
503.25	25841.85
503.43	25692.06
503.60	25762.28
503.78	25703.76
503.95	25993.99
504.13	25855.90
504.30	26057.18
504.48	25860.58
504.65	26078.25
504.83	26838.92
505.01	26284.22
505.18	26396.56
505.36	26843.60
505.53	26572.10
505.71	26824.88
505.88	27063.61
506.06	26890.41
506.23	26850.63
506.41	26967.65
506.58	27218.09
506.76	27187.66
506.93	27412.35
507.11	27686.20
507.28	27524.70
507.46	27346.82
507.63	27758.75
507.81	28041.96
507.98	27800.88
508.16	27988.13
508.33	27786.84
508.50	28133.24
508.68	28283.03
508.85	28297.08
509.03	28095.79
509.20	28517.09
509.38	28706.67
509.55	28407.08
509.73	28875.19
509.90	28608.37
510.08	28922.00
510.25	28753.48
510.42	28762.84
510.60	29144.35
510.77	29132.65
510.95	29633.52
511.12	29165.42
511.30	29301.17
511.47	29785.66
511.64	29500.11
511.82	29895.66
511.99	29378.40
512.17	29750.55
512.34	29930.77
512.51	30033.75
512.69	29979.92
512.86	30345.05
513.04	30026.73
513.21	30010.35
513.38	30658.68
513.56	30663.36
513.73	30162.48
513.90	30646.97
514.08	30471.43
514.25	31075.29
514.43	30766.34
514.60	30714.85
514.77	30721.87
514.95	31159.55
515.12	31094.02
515.29	31180.62
515.47	31534.04
515.64	31470.84
515.81	31089.34
515.99	31175.94
516.16	31798.52
516.33	31625.32
516.51	31611.28
516.68	31637.02
516.85	31740.00
517.03	31915.54
517.20	32048.96
517.37	32091.09
517.54	32498.34
517.72	31952.99
517.89	32264.28
518.06	31962.36
518.24	32240.88
518.41	32339.18
518.58	32556.85
518.75	32313.44
518.93	32449.19
519.10	33057.73
519.27	32840.06
519.45	32826.01
519.62	32877.51
519.79	32996.87
519.96	32865.80
520.14	32945.38
520.31	33099.86
520.48	33413.49
520.65	33244.97
520.83	33832.44
521.00	33476.68
521.17	33340.93
521.34	33656.90
521.52	33914.36
521.69	34033.73
521.86	34106.29
522.03	33717.76
522.20	34000.96
522.38	34597.80
522.55	33947.13
522.72	34424.60
522.89	34178.84
523.07	34866.96
523.24	34719.51
523.41	34597.80
523.58	34052.45
523.75	35037.82
523.92	34756.96
524.10	34829.51
524.27	34981.65
524.44	34810.79
524.61	35115.06
524.78	35033.14
524.96	35070.59
525.13	34998.03
525.30	35407.62
525.47	35037.82
525.64	35330.39
525.81	35728.28
525.98	35604.23
526.16	35332.73
526.33	35632.32
526.50	35833.60
526.67	35814.88
526.84	35807.86
527.01	35599.55
527.18	35873.39
527.36	36151.91
527.53	35990.42
527.70	36641.09
527.87	36507.68
528.04	36282.98
528.21	36505.34
528.38	36147.23
528.55	36313.41
528.72	36086.38
528.89	36662.15
529.07	36444.48
529.24	36364.90
529.41	36762.79
529.58	36676.19
529.75	36400.01
529.92	37074.09
530.09	36493.63
530.26	36699.60
530.43	37076.43
530.60	37020.25
530.77	36926.63
530.94	36575.55
531.11	36957.06
531.28	37064.72
531.46	36919.61
531.63	37544.53
531.80	37446.23
531.97	37319.84
532.14	37511.77
532.31	37535.17
532.48	37565.60
532.65	37790.29
532.82	37682.62
532.99	37879.23
533.16	37727.10
533.33	37794.97
533.50	38270.10
533.67	38302.87
533.84	37563.26
534.01	38162.43
534.18	38022.00
534.35	38485.43
534.52	38354.36
534.69	38642.24
534.86	38225.63
535.03	38033.71
535.20	38309.89
535.37	38869.28
535.54	38899.70
535.71	38436.28
535.88	38918.43
536.05	38560.33
536.22	38773.31
536.38	38817.78
536.55	38969.92
536.72	39208.65
536.89	38616.50
537.06	38630.54
537.23	39360.79
537.40	39061.20
537.57	38752.25
537.74	38469.04
537.91	39639.31
538.08	38930.13
538.25	39086.95
538.42	39445.05
538.59	39800.81
538.75	39622.93
538.92	39487.18
539.09	39723.57
539.26	39697.83
539.43	39365.47
539.60	39922.52
539.77	39613.57
539.94	40011.46
540.11	39744.64
540.28	39964.65
540.44	39974.01
540.61	40165.93
540.78	39728.25
540.95	40187.00
541.12	39754.00
541.29	40149.55
541.46	39878.05
541.62	39985.71
541.79	40224.45
541.96	40163.59
542.13	40037.20
542.30	40179.98
542.47	40612.98
542.63	40374.24
542.80	40676.17
542.97	41240.24
543.14	41113.85
543.31	40928.95
543.48	40676.17
543.64	40900.86
543.81	41099.81
543.98	41130.23
544.15	40945.33
544.32	41336.20
544.48	41663.88
544.65	41268.33
544.82	41404.08
544.99	41195.77
545.16	41170.02
545.32	41481.31
545.49	42094.53
545.66	41626.43
545.83	41942.40
546.00	41787.92
546.16	41675.58
546.33	41530.47
546.50	41558.55
546.67	42244.33
546.83	41471.95
547.00	41769.20
547.17	41790.27
547.34	41968.15
547.50	42223.26
547.67	42309.86
547.84	42113.26
548.00	42150.71
548.17	42539.24
548.34	42272.42
548.51	42567.32
548.67	42307.52
548.84	42340.29
549.01	42038.36
549.18	42026.66
549.34	42513.49
549.51	42651.58
549.68	42377.74
549.84	41940.06
550.01	42871.59
550.18	41975.17
550.34	42550.94
550.51	42649.24
550.68	42782.65
550.84	42377.74
551.01	43012.02
551.18	42665.63
551.34	42408.17
551.51	42834.14
551.68	42981.60
551.84	42803.72
552.01	42801.38
552.18	42827.12
552.34	42969.90
552.51	42948.83
552.68	42988.62
552.84	42983.94
553.01	43206.29
553.18	43456.73
553.34	43255.44
553.51	42864.57
553.67	43323.32
553.84	43524.60
554.01	43566.73
554.17	43143.09
554.34	43765.68
554.51	43395.87
554.67	43915.47
554.84	43559.71
555.00	43690.78
555.17	43140.75
555.33	43751.63
555.50	43798.44
555.67	43482.47
555.83	43913.13
556.00	43445.02
556.16	44093.35
556.33	44212.72
556.50	44205.70
556.66	43681.42
556.83	43866.32
556.99	44081.65
557.16	44264.21
557.32	44540.39
557.49	44245.49
557.65	43749.29
557.82	44076.97
557.98	44322.72
558.15	44624.65
558.32	44149.53
558.48	43732.91
558.65	44261.87
558.81	44603.59
558.98	44100.37
559.14	44205.70
559.31	44257.19
559.47	44065.27
559.64	44549.76
559.80	44526.35
559.97	44638.70
560.13	44058.24
560.30	44467.84
560.46	45123.19
560.63	44933.60
560.79	45258.94
560.96	45214.47
561.12	44966.37
561.29	44636.36
561.45	44889.13
561.61	44521.67
561.78	44596.57
561.94	44538.05
562.11	44516.99
562.27	44851.69
562.44	45048.29
562.60	45034.25
562.77	45303.41
562.93	44926.58
563.10	45034.25
563.26	44954.67
563.42	45287.03
563.59	44638.70
563.75	44832.96
563.92	45067.02
564.08	44631.68
564.24	44800.19
564.41	45195.74
564.57	44889.13
564.74	44945.31
564.90	45212.13
565.07	45233.19
565.23	45237.87
565.39	44957.01
565.56	45123.19
565.72	45165.32
565.88	44931.26
566.05	45045.95
566.21	45483.63
566.38	45228.51
566.54	45287.03
566.70	45429.80
566.87	45450.86
567.03	45071.70
567.19	45411.07
567.36	45780.88
567.52	45340.86
567.68	45631.08
567.85	45455.54
568.01	45659.17
568.17	45345.54
568.34	45427.46
568.50	45476.61
568.66	45277.66
568.83	45483.63
568.99	45319.79
569.15	45619.38
569.32	45387.67
569.48	45612.36
569.64	45715.34
569.81	45687.26
569.97	45815.99
570.13	46003.23
570.30	45074.04
570.46	45132.55
570.62	45521.08
570.78	45764.49
570.95	45874.50
571.11	45918.97
571.27	45794.92
571.43	45848.75
571.60	45935.35
571.76	45448.52
571.92	45181.70
572.09	45916.63
572.25	45467.25
572.41	45588.95
572.57	45553.85
572.74	46050.04
572.90	45895.56
573.06	46040.68
573.22	45785.56
573.38	45750.45
573.55	45701.30
573.71	45830.03
573.87	45588.95
574.03	46157.70
574.20	46230.26
574.36	46061.74
574.52	46195.15
574.68	46038.34
574.84	46014.93
575.01	46244.30
575.17	46305.16
575.33	45839.39
575.49	46078.13
575.65	46433.89
575.82	46410.48
575.98	46099.19
576.14	46284.09
576.30	46265.37
576.46	46237.28
576.62	46162.39
576.79	46373.03
576.95	45731.73
577.11	45895.56
577.27	45895.56
577.43	46150.68
577.59	46195.15
577.75	46064.08
577.92	46024.29
578.08	45879.18
578.24	46085.15
578.40	46195.15
578.56	46492.40
578.72	45818.33
578.88	45984.51
579.04	46263.03
579.21	45986.85
579.37	46096.85
579.53	46300.48
579.69	45914.29
579.85	46038.34
580.01	46534.53
580.17	46204.52
580.33	46344.95
580.49	46518.15
580.65	46335.59
580.82	46567.30
580.98	46019.61
581.14	45949.40
581.30	46340.27
581.46	45879.18
581.62	46183.45
581.78	46017.27
581.94	46417.50
582.10	46162.39
582.26	46312.18
582.42	46450.27
582.58	46251.33
582.74	46293.46
582.90	46417.50
583.06	46366.01
583.22	46244.30
583.38	46333.24
583.54	46398.78
583.70	46557.94
583.86	46431.55
584.02	46387.08
584.18	46415.16
584.34	46543.89
584.50	46742.84
584.66	46784.97
584.82	46108.55
584.98	46808.37
585.14	46480.70
585.30	46115.58
585.46	47152.43
585.62	46574.32
585.78	46438.57
585.94	46373.03
586.10	46461.97
586.26	46380.06
586.42	46305.16
586.58	46239.62
586.74	46384.74
586.90	46415.16
587.06	46494.74
587.22	46389.42
587.38	46080.47
587.54	46206.86
587.70	46890.29
587.86	46817.74
588.02	46211.54
588.18	46527.51
588.34	46373.03
588.49	46586.02
588.65	46356.65
588.81	46850.50
588.97	46799.01
589.13	46586.02
589.29	46494.74
589.45	46696.03
589.61	46721.77
589.77	46340.27
589.93	46363.67
590.08	46899.65
