SpectraSuite Data File
++++++++++++++++++++++++++++++++++++
Date: Fri Oct 25 10:44:12 EDT 2013
User: price-jones
Dark Spectrum Present: No
Reference Spectrum Present: No
Number of Sampled Component Spectra: 1
Spectrometers: USB2+H05261
Integration Time (usec): 100000 (USB2+H05261)
Spectra Averaged: 1 (USB2+H05261)
Boxcar Smoothing: 0 (USB2+H05261)
Correct for Electrical Dark: No (USB2+H05261)
Strobe/Lamp Enabled: No (USB2+H05261)
Correct for Detector Non-linearity: No (USB2+H05261)
Correct for Stray Light: No (USB2+H05261)
Number of Pixels in Processed Spectrum: 2048
>>>>>Begin Processed Spectral Data<<<<<
365.73	67.88
365.92	67.88
366.12	67.88
366.32	74.90
366.52	2.34
366.72	53.83
366.91	0.00
367.11	0.00
367.31	0.00
367.51	0.00
367.70	18.72
367.90	100.64
368.10	88.94
368.30	95.96
368.49	28.09
368.69	42.13
368.89	84.26
369.09	110.01
369.28	42.13
369.48	84.26
369.68	112.35
369.87	112.35
370.07	88.94
370.27	159.16
370.47	180.22
370.66	346.40
370.86	365.12
371.06	414.27
371.25	465.77
371.45	475.13
371.65	447.04
371.84	435.34
372.04	477.47
372.24	489.17
372.44	528.96
372.63	482.15
372.83	416.62
373.03	486.83
373.22	442.36
373.42	454.06
373.62	533.64
373.81	535.98
374.01	648.33
374.21	559.39
374.40	491.51
374.60	526.62
374.79	587.47
374.99	559.39
375.19	575.77
375.38	566.41
375.58	486.83
375.78	587.47
375.97	650.67
376.17	594.50
376.37	575.77
376.56	645.99
376.76	620.24
376.95	587.47
377.15	648.33
377.35	587.47
377.54	685.78
377.74	641.31
377.93	631.94
378.13	631.94
378.33	634.29
378.52	592.16
378.72	557.05
378.91	699.82
379.11	596.84
379.31	777.06
379.50	582.79
379.70	671.73
379.89	702.16
380.09	669.39
380.28	622.58
380.48	711.52
380.68	653.01
380.87	573.43
381.07	697.48
381.26	699.82
381.46	737.27
381.65	716.20
381.85	781.74
382.04	723.23
382.24	678.76
382.43	697.48
382.63	690.46
382.83	746.63
383.02	760.67
383.22	767.70
383.41	709.18
383.61	704.50
383.80	730.25
384.00	751.31
384.19	746.63
384.39	777.06
384.58	840.25
384.78	837.91
384.97	889.40
385.17	746.63
385.36	819.19
385.56	800.46
385.75	725.57
385.95	814.51
386.14	858.98
386.34	786.42
386.53	870.68
386.72	873.02
386.92	842.59
387.11	828.55
387.31	922.17
387.50	826.21
387.70	891.74
387.89	847.27
388.09	873.02
388.28	884.72
388.48	910.47
388.67	912.81
388.86	863.66
389.06	926.85
389.25	961.96
389.45	961.96
389.64	964.30
389.84	910.47
390.03	1050.90
390.22	1027.50
390.42	915.15
390.61	1004.09
390.81	1067.28
391.00	1015.79
391.19	1071.97
391.39	1109.41
391.58	1088.35
391.78	1020.47
391.97	1053.24
392.16	1050.90
392.36	1114.10
392.55	1008.77
392.75	1050.90
392.94	1015.79
393.13	1100.05
393.33	1060.26
393.52	1062.60
393.71	1022.81
393.91	1062.60
394.10	1125.80
394.29	1128.14
394.49	1142.18
394.68	1174.95
394.88	1149.20
395.07	1226.44
395.26	1224.10
395.46	1142.18
395.65	1240.48
395.84	1217.08
396.04	1184.31
396.23	1128.14
396.42	1083.67
396.62	1224.10
396.81	1217.08
397.00	1184.31
397.19	1174.95
397.39	1315.38
397.58	1277.93
397.77	1324.74
397.97	1355.17
398.16	1497.94
398.35	1472.20
398.55	1432.41
398.74	1537.73
398.93	1504.96
399.12	1446.45
399.32	1479.22
399.51	1418.36
399.70	1614.97
399.90	1572.84
400.09	1621.99
400.28	1565.82
400.47	1614.97
400.67	1703.91
400.86	1652.42
401.05	1636.03
401.24	1619.65
401.44	1673.48
401.63	1675.82
401.82	1586.88
402.01	1682.85
402.21	1699.23
402.40	1713.27
402.59	1748.38
402.78	1771.79
402.97	1678.16
403.17	1844.34
403.36	1769.44
403.55	1863.07
403.74	1912.22
403.93	1933.28
404.13	1820.94
404.32	1916.90
404.51	1907.54
404.70	1912.22
404.89	1930.94
405.09	1916.90
405.28	1940.30
405.47	1944.99
405.66	1989.46
405.85	1975.41
406.05	1858.39
406.24	1954.35
406.43	2050.31
406.62	2019.88
406.81	2040.95
407.00	2085.42
407.20	2059.67
407.39	2073.71
407.58	2162.66
407.77	2244.57
407.96	2148.61
408.15	2197.76
408.34	2160.31
408.54	2307.77
408.73	2246.91
408.92	2279.68
409.11	2242.23
409.30	2242.23
409.49	2200.10
409.68	2282.02
409.87	2314.79
410.07	2279.68
410.26	2345.22
410.45	2366.28
410.64	2408.41
410.83	2422.45
411.02	2471.61
411.21	2523.10
411.40	2457.56
411.59	2541.82
411.78	2586.29
411.98	2597.99
412.17	2616.72
412.36	2693.96
412.55	2836.73
412.74	2698.64
412.93	2731.41
413.12	2822.69
413.31	2836.73
413.50	2766.51
413.69	2808.64
413.88	2876.52
414.07	2949.08
414.26	2935.03
414.45	2977.16
414.64	2958.44
414.83	3059.08
415.02	3014.61
415.22	2918.65
415.41	2979.50
415.60	3094.19
415.79	3180.79
415.98	3173.77
416.17	3173.77
416.36	3183.13
416.55	3157.38
416.74	3080.14
416.93	3276.75
417.12	3204.19
417.31	3286.11
417.50	3248.66
417.69	3452.29
417.88	3372.71
418.07	3428.88
418.26	3405.48
418.45	3471.01
418.64	3569.32
418.83	3609.11
419.02	3499.10
419.21	3522.51
419.39	3466.33
419.58	3377.39
419.77	3421.86
419.96	3555.27
420.15	3641.87
420.34	3623.15
420.53	3679.32
420.72	3754.22
420.91	3772.94
421.10	3744.86
421.29	3826.78
421.48	3850.18
421.67	3885.29
421.86	3791.67
422.05	3744.86
422.24	3772.94
422.43	3815.07
422.61	3770.60
422.80	3948.48
422.99	3747.20
423.18	3908.69
423.37	4021.04
423.56	3981.25
423.75	3943.80
423.94	3911.04
424.13	3674.64
424.32	3716.77
424.50	3960.19
424.69	3934.44
424.88	4025.72
425.07	3925.08
425.26	3831.46
425.45	3803.37
425.64	3915.72
425.83	4030.40
426.01	3955.51
426.20	4035.08
426.39	3866.56
426.58	3948.48
426.77	4004.66
426.96	3882.95
427.15	3932.10
427.33	4011.68
427.52	4035.08
427.71	4140.41
427.90	4037.42
428.09	4196.58
428.28	4074.87
428.46	4051.47
428.65	4212.96
428.84	4163.81
429.03	4266.80
429.22	3981.25
429.40	4163.81
429.59	4166.15
429.78	3997.64
429.97	3845.50
430.16	4100.62
430.34	4149.77
430.53	4128.70
430.72	4273.82
430.91	4334.67
431.10	4418.93
431.28	4535.96
431.47	4723.20
431.66	4512.55
431.85	4741.93
432.03	4561.70
432.22	4526.60
432.41	4465.74
432.60	4617.88
432.79	4631.92
432.97	4741.93
433.16	4678.73
433.35	4638.94
433.54	4526.60
433.72	4660.01
433.91	4547.66
434.10	4655.33
434.28	4727.88
434.47	4844.91
434.66	4833.21
434.85	4842.57
435.03	4975.98
435.22	4856.61
435.41	5121.09
435.59	5071.94
435.78	5015.77
435.97	5205.35
436.16	4975.98
436.34	4999.38
436.53	5144.50
436.72	5135.14
436.90	5064.92
437.09	5212.37
437.28	5177.26
437.46	5100.03
437.65	5071.94
437.84	5046.20
438.02	5029.81
438.21	5214.71
438.40	5193.65
438.58	5305.99
438.77	5327.06
438.96	5411.32
439.14	5612.60
439.33	5584.52
439.52	5628.99
439.70	5537.71
439.89	5579.84
440.08	5643.03
440.26	5673.46
440.45	5640.69
440.63	5617.29
440.82	5959.00
441.01	5837.30
441.19	5977.73
441.38	6001.13
441.57	6174.33
441.75	6108.80
441.94	6045.60
442.12	6347.53
442.31	6289.02
442.50	6246.89
442.68	6188.38
442.87	6370.94
443.05	6328.81
443.24	6441.15
443.43	6274.98
443.61	6560.52
443.80	6583.93
443.98	6303.06
444.17	6167.31
444.35	6246.89
444.54	6558.18
444.73	6551.16
444.91	6314.77
445.10	6356.90
445.28	6370.94
445.47	6282.00
445.65	6487.96
445.84	6518.39
446.02	6406.05
446.21	6612.01
446.39	6572.22
446.58	6745.42
446.77	6663.51
446.95	6457.54
447.14	6731.38
447.32	6794.58
447.51	6518.39
447.69	6750.10
447.88	6588.61
448.06	6689.25
448.25	6691.59
448.43	6640.10
448.62	6703.29
448.80	6502.01
448.99	6696.27
449.17	6672.87
449.36	6846.07
449.54	6869.47
449.73	6836.70
449.91	6963.09
450.10	7047.35
450.28	7201.83
450.46	7162.04
450.65	7215.87
450.83	7318.86
451.02	7187.79
451.20	7262.68
451.39	7089.48
451.57	7267.36
451.76	7234.60
451.94	7040.33
452.13	7087.14
452.31	7229.91
452.49	6981.82
452.68	7166.72
452.86	7101.19
453.05	7260.34
453.23	7258.00
453.42	7232.26
453.60	7414.82
453.78	7384.39
453.97	7332.90
454.15	7300.13
454.34	7428.86
454.52	7527.16
454.70	7585.68
454.89	7375.03
455.07	7398.43
455.26	7630.15
455.44	7719.09
455.62	7599.72
455.81	7716.75
455.99	7613.76
456.17	7903.99
456.36	7808.03
456.54	7822.07
456.73	7873.56
456.91	8077.19
457.09	8049.10
457.28	8091.23
457.46	7765.90
457.64	8231.66
457.83	8053.78
458.01	7992.93
458.19	8067.83
458.38	8011.65
458.56	8168.47
458.74	8283.16
458.93	8205.92
459.11	8238.69
459.29	8329.97
459.48	8315.92
459.66	8205.92
459.84	8140.38
460.03	8535.93
460.21	8418.91
460.39	8402.52
460.57	8376.78
460.76	8568.70
460.94	8554.66
461.12	8493.80
461.31	8631.90
461.49	8573.38
461.67	8606.15
461.85	8854.25
462.04	8879.99
462.22	8905.74
462.40	8840.20
462.59	8732.54
462.77	8908.08
462.95	8741.90
463.13	8894.04
463.32	8861.27
463.50	8968.93
463.68	8851.91
463.86	9069.58
464.05	8821.48
464.23	8826.16
464.41	9207.67
464.59	8713.81
464.78	9057.87
464.96	8912.76
465.14	8819.14
465.32	8961.91
465.50	9329.38
465.69	9359.80
465.87	8954.89
466.05	9212.35
466.23	9135.11
466.41	9114.05
466.60	9315.33
466.78	9193.62
466.96	9373.85
467.14	9224.05
467.32	9254.48
467.51	9481.51
467.69	9282.56
467.87	9549.39
468.05	9533.00
468.23	9287.25
468.41	9350.44
468.60	9579.81
468.78	9657.05
468.96	9476.83
469.14	9551.73
469.32	9572.79
469.50	9408.95
469.69	9537.68
469.87	9776.42
470.05	9806.84
470.23	9661.73
470.41	9540.02
470.59	9870.04
470.77	9635.99
470.95	9806.84
471.14	10038.56
471.32	9825.57
471.50	10384.96
471.68	10188.35
471.86	10132.18
472.04	10190.69
472.22	10551.14
472.40	10300.70
472.58	10272.61
472.77	10523.05
472.95	10651.78
473.13	10829.66
473.31	10595.61
473.49	10635.39
473.67	10602.63
473.85	10572.20
474.03	10684.55
474.21	10721.99
474.39	10967.75
474.57	11140.95
474.75	11028.60
474.93	11173.72
475.12	11391.39
475.30	11243.93
475.48	11063.71
475.66	11162.01
475.84	11110.52
476.02	11506.07
476.20	11101.16
476.38	11375.00
476.56	11779.92
476.74	11721.40
476.92	11604.38
477.10	11808.00
477.28	11932.05
477.46	12084.19
477.64	11887.58
477.82	12138.02
478.00	12456.33
478.18	12404.84
478.36	12552.29
478.54	12582.72
478.72	12556.97
478.90	12762.94
479.08	12994.65
479.26	12982.95
479.44	13132.75
479.62	12884.65
479.80	13277.86
479.98	13371.48
480.16	13762.35
480.34	13638.30
480.52	13715.54
480.70	13626.60
480.88	13518.93
481.06	13879.38
481.24	13823.20
481.41	14129.81
481.59	14321.74
481.77	14246.84
481.95	14326.42
482.13	14569.83
482.31	14597.92
482.49	14860.06
482.67	14747.72
482.85	15243.91
483.03	15096.46
483.21	15157.31
483.39	15321.15
483.57	15499.03
483.74	15417.11
483.92	15513.07
484.10	15550.52
484.28	15920.32
484.46	15894.58
484.64	16287.79
484.82	15910.96
485.00	16049.05
485.18	16514.82
485.35	16358.00
485.53	16189.49
485.71	15992.88
485.89	16262.04
486.07	16690.36
486.25	16510.14
486.43	16575.67
486.61	17064.85
486.78	17025.06
486.96	17076.55
487.14	17366.78
487.32	17439.33
487.50	17933.18
487.68	17947.23
487.85	18525.34
488.03	18188.30
488.21	18359.16
488.39	18464.49
488.57	18754.71
488.75	18642.37
488.92	18862.38
489.10	19185.37
489.28	19157.28
489.46	19604.33
489.64	19580.92
489.81	20198.82
489.99	20121.59
490.17	20130.95
490.35	20311.17
490.53	20065.41
490.70	20432.88
490.88	20428.20
491.06	20732.47
491.24	20510.11
491.41	20496.07
491.59	20524.16
491.77	20697.36
491.95	21188.87
492.13	21064.82
492.30	21638.25
492.48	21542.29
492.66	21303.56
492.84	21975.29
493.01	21848.90
493.19	21804.43
493.37	22333.39
493.54	22071.25
493.72	22457.44
493.90	22249.13
494.08	22745.33
494.25	23026.19
494.43	23307.05
494.61	23363.23
494.79	23428.76
494.96	23033.21
495.14	23463.87
495.32	23587.92
495.49	23349.18
495.67	23508.34
495.85	24339.23
496.02	24219.86
496.20	24432.85
496.38	24451.58
496.55	24610.73
496.73	24994.58
496.91	24620.10
497.09	25015.65
497.26	25259.06
497.44	24847.13
497.62	25046.07
497.79	25139.69
497.97	24907.98
498.14	25373.75
498.32	25411.20
498.50	25504.82
498.67	25785.68
498.85	25750.57
499.03	26075.91
499.20	26244.43
499.38	26277.19
499.56	26064.21
499.73	26625.93
499.91	26558.06
500.08	26628.27
500.26	26345.07
500.44	26426.99
500.61	26656.36
500.79	26663.38
500.97	26658.70
501.14	26654.02
501.32	26703.17
501.49	26920.84
501.67	27206.39
501.84	27414.69
502.02	27398.31
502.20	27520.02
502.37	27833.65
502.55	27740.03
502.72	27866.42
502.90	28088.77
503.07	27821.95
503.25	27946.00
503.43	27791.52
503.60	27885.14
503.78	28247.93
503.95	28112.17
504.13	28685.61
504.30	28538.15
504.48	28357.93
504.65	28793.27
504.83	29067.11
505.01	29127.97
505.18	29434.58
505.36	28872.85
505.53	29113.92
505.71	29589.05
505.88	29738.85
506.06	29289.46
506.23	29497.77
506.41	29142.01
506.58	29567.99
506.76	29502.45
506.93	30110.99
507.11	30113.33
507.28	29923.75
507.46	29673.31
507.63	29956.52
507.81	30059.50
507.98	30235.04
508.16	30066.52
508.33	30466.75
508.50	30426.96
508.68	30778.04
508.85	31213.38
509.03	31166.57
509.20	30691.44
509.38	31278.92
509.55	31213.38
509.73	31468.50
509.90	31255.51
510.08	31489.57
510.25	31503.61
510.42	31543.40
510.60	31517.65
510.77	31562.12
510.95	31594.89
511.12	31899.16
511.30	32278.33
511.47	32121.51
511.64	32638.77
511.82	32385.99
511.99	32102.79
512.17	32397.70
512.34	32367.27
512.51	32196.41
512.69	32746.44
512.86	32833.04
513.04	33041.34
513.21	32666.86
513.38	32919.63
513.56	32400.04
513.73	32685.58
513.90	33081.13
514.08	32994.53
514.25	33116.24
514.43	33015.60
514.60	33092.83
514.77	33394.76
514.95	33333.91
515.12	33574.98
515.29	33373.70
515.47	33930.75
515.64	33907.34
515.81	33357.32
515.99	33649.88
516.16	33799.68
516.33	33523.49
516.51	33633.50
516.68	33294.12
516.85	33593.71
517.03	33600.73
517.20	34321.62
517.37	34007.98
517.54	34499.50
517.72	34625.89
517.89	34029.05
518.06	33947.13
518.24	34162.46
518.41	34527.58
518.58	34588.44
518.75	34623.54
518.93	34934.84
519.10	34822.49
519.27	34923.13
519.45	34878.66
519.62	34948.88
519.79	35222.72
519.96	35358.47
520.14	35147.82
520.31	34883.34
520.48	35723.60
520.65	35782.11
520.83	35496.56
521.00	36147.23
521.17	35747.00
521.34	35908.50
521.52	35922.54
521.69	36105.10
521.86	36893.86
522.03	36477.25
522.20	36306.39
522.38	36203.41
522.55	36563.85
522.72	36470.23
522.89	36250.22
523.07	36360.22
523.24	36582.57
523.41	36779.18
523.58	36898.55
523.75	37504.74
523.92	37371.33
524.10	36917.27
524.27	37148.98
524.44	37230.90
524.61	37495.38
524.78	37221.54
524.96	37724.75
525.13	37785.61
525.30	37879.23
525.47	37778.59
525.64	37490.70
525.81	38106.26
525.98	37413.46
526.16	37336.23
526.33	36795.56
526.50	38073.49
526.67	37177.07
526.84	37249.63
527.01	37207.50
527.18	37708.37
527.36	38190.52
527.53	38431.60
527.70	38195.20
527.87	38337.98
528.04	38359.04
528.21	38403.51
528.38	38272.44
528.55	38604.80
528.72	38733.53
528.89	39065.88
529.07	38880.98
529.24	38557.99
529.41	38710.12
529.58	38871.62
529.75	38422.23
529.92	38829.49
530.09	38735.87
530.26	39047.16
530.43	39019.07
530.60	39082.27
530.77	38960.56
530.94	39302.28
531.11	39526.97
531.28	39433.35
531.46	39271.85
531.63	39529.31
531.80	39215.68
531.97	39653.36
532.14	39374.83
532.31	39103.33
532.48	39264.83
532.65	39653.36
532.82	39225.04
532.99	39711.87
533.16	39306.96
533.33	39971.67
533.50	39824.22
533.67	39459.09
533.84	39765.70
534.01	39983.37
534.18	40140.19
534.35	40137.85
534.52	40163.59
534.69	40341.47
534.86	40556.80
535.03	40245.51
535.20	40561.48
535.37	40636.38
535.54	40910.22
535.71	40266.58
535.88	40479.57
536.05	40720.64
536.22	40746.39
536.38	40950.01
536.55	40460.84
536.72	41139.60
536.89	40271.26
537.06	40952.35
537.23	41123.21
537.40	40875.12
537.57	41125.55
537.74	41041.29
537.91	41139.60
538.08	41141.94
538.25	41333.86
538.42	41055.34
538.59	41588.98
538.75	41177.04
538.92	41404.08
539.09	41097.47
539.26	41600.68
539.43	41607.70
539.60	41481.31
539.77	41305.77
539.94	41816.01
540.11	41202.79
540.28	41572.60
540.44	41200.45
540.61	41483.66
540.78	41535.15
540.95	41785.58
541.12	41544.51
541.29	41687.28
541.46	41731.75
541.62	41853.46
541.79	42153.05
541.96	41507.06
542.13	42036.02
542.30	42101.56
542.47	41900.27
542.63	41993.89
542.80	42185.82
542.97	42384.76
543.14	43161.82
543.31	42548.60
543.48	42792.01
543.64	43037.77
543.81	43040.11
543.98	42667.97
544.15	43000.32
544.32	42937.13
544.48	43400.55
544.65	42979.26
544.82	43215.65
544.99	42408.17
545.16	43089.26
545.32	42880.95
545.49	43477.79
545.66	43229.69
545.83	43299.91
546.00	43529.28
546.16	43367.79
546.33	43023.73
546.50	42817.76
546.67	43220.33
546.83	42841.17
547.00	43112.67
547.17	43377.15
547.34	43229.69
547.50	43318.64
547.67	43412.26
547.84	43407.58
548.00	44105.06
548.17	43592.48
548.34	43452.05
548.51	44013.77
548.67	43761.00
548.84	43913.13
549.01	43807.81
549.18	43704.82
549.34	44238.47
549.51	43812.49
549.68	43973.98
549.84	44025.48
550.01	44044.20
550.18	44186.97
550.34	43866.32
550.51	44065.27
550.68	44002.07
550.84	43749.29
551.01	44406.98
551.18	44552.10
551.34	43721.21
551.51	44053.56
551.68	44002.07
551.84	44453.79
552.01	44114.42
552.18	43903.77
552.34	43966.96
552.51	44479.54
552.68	44201.02
552.84	44554.44
553.01	44793.17
553.18	44304.00
553.34	44322.72
553.51	43992.71
553.67	44421.03
553.84	44732.32
554.01	44760.40
554.17	44470.18
554.34	44662.10
554.51	44641.04
554.67	44865.73
554.84	44748.70
555.00	44566.14
555.17	44634.02
555.33	44769.77
555.50	44861.05
555.67	44575.50
555.83	44914.88
556.00	45139.57
556.16	45097.44
556.33	44713.59
556.50	44414.01
556.66	44727.64
556.83	44776.79
556.99	44940.63
557.16	45141.91
557.32	45006.16
557.49	45476.61
557.65	44844.66
557.82	44863.39
557.98	45223.83
558.15	44978.07
558.32	44971.05
558.48	44987.44
558.65	44992.12
558.81	44931.26
558.98	44793.17
559.14	45275.32
559.31	44957.01
559.47	45509.38
559.64	45790.24
559.80	45471.93
559.97	45474.27
560.13	45401.71
560.30	45434.48
560.46	45209.79
560.63	45184.04
560.79	45415.76
560.96	45048.29
561.12	45858.12
561.29	45228.51
561.45	45511.72
561.61	45361.92
561.78	45291.71
561.94	45174.68
562.11	45453.20
562.27	45516.40
562.44	45663.85
562.60	46007.91
562.77	46181.11
562.93	45418.10
563.10	46005.57
563.26	45560.87
563.42	45801.94
563.59	45694.28
563.75	45263.62
563.92	45504.70
564.08	45780.88
564.24	45916.63
564.41	45689.60
564.57	45666.19
564.74	45500.01
564.90	45518.74
565.07	45624.06
565.23	45539.80
565.39	45645.13
565.56	45813.65
565.72	45177.02
565.88	45464.91
566.05	45918.97
566.21	45565.55
566.38	45954.08
566.54	45621.72
566.70	46225.58
566.87	46316.86
567.03	45755.13
567.19	46394.10
567.36	45930.67
567.52	45329.16
567.68	45787.90
567.85	45720.02
568.01	45862.80
568.17	45907.27
568.34	46110.89
568.50	45787.90
568.66	45588.95
568.83	45820.67
568.99	45469.59
569.15	45916.63
569.32	45918.97
569.48	45715.34
569.64	46232.60
569.81	45961.10
569.97	45647.47
570.13	46169.41
570.30	45876.84
570.46	45757.47
570.62	45820.67
570.78	45729.39
570.95	45701.30
571.11	45820.67
571.27	45504.70
571.43	45603.00
571.60	46157.70
571.76	45787.90
571.92	46040.68
572.09	45811.31
572.25	45975.14
572.41	45830.03
572.57	46307.50
572.74	46141.32
572.90	45930.67
573.06	46223.24
573.22	46234.94
573.38	46274.73
573.55	46253.67
573.71	46157.70
573.87	46384.74
574.03	45996.21
574.20	46319.20
574.36	46223.24
574.52	45874.50
574.68	46396.44
574.84	45834.71
575.01	45895.56
575.17	45858.12
575.33	45886.20
575.49	46012.59
575.65	46197.49
575.82	46382.40
575.98	46162.39
576.14	46457.29
576.30	46223.24
576.46	45916.63
576.62	46019.61
576.79	45982.16
576.95	45930.67
577.11	46366.01
577.27	46295.80
577.43	46188.13
577.59	46363.67
577.75	45998.55
577.92	45886.20
578.08	45652.15
578.24	45696.62
578.40	45762.15
578.56	46155.36
578.72	45801.94
578.88	46115.58
579.04	46380.06
579.21	46024.29
579.37	46281.75
579.53	45977.48
579.69	45958.76
579.85	45949.40
580.01	46438.57
580.17	46050.04
580.33	46164.73
580.49	46028.98
580.65	46443.25
580.82	46476.02
580.98	46129.62
581.14	46146.00
581.30	46162.39
581.46	46485.38
581.62	46330.90
581.78	46050.04
581.94	46417.50
582.10	46010.25
582.26	46398.78
582.42	46410.48
582.58	46134.30
582.74	46239.62
582.90	46059.40
583.06	46323.88
583.22	46272.39
583.38	46602.41
583.54	46274.73
583.70	46176.43
583.86	46272.39
584.02	45993.87
584.18	46440.91
584.34	45928.33
584.50	46309.84
584.66	46218.56
584.82	46108.55
584.98	46520.49
585.14	46550.91
585.30	46314.52
585.46	46000.89
585.62	46169.41
585.78	45996.21
585.94	45970.46
586.10	46017.27
586.26	46171.75
586.42	46305.16
586.58	46316.86
586.74	46377.72
586.90	46335.59
587.06	46349.63
587.22	46218.56
587.38	45834.71
587.54	46487.72
587.70	46164.73
587.86	46085.15
588.02	46040.68
588.18	46436.23
588.34	45904.93
588.49	45488.31
588.65	45881.52
588.81	45689.60
588.97	45909.61
589.13	45553.85
589.29	45879.18
589.45	46129.62
589.61	46244.30
589.77	46433.89
589.93	46131.96
