SpectraSuite Data File
++++++++++++++++++++++++++++++++++++
Date: Fri Oct 25 11:34:15 EDT 2013
User: price-jones
Dark Spectrum Present: No
Reference Spectrum Present: No
Number of Sampled Component Spectra: 1
Spectrometers: USB2+H05261
Integration Time (usec): 100000 (USB2+H05261)
Spectra Averaged: 1 (USB2+H05261)
Boxcar Smoothing: 0 (USB2+H05261)
Correct for Electrical Dark: No (USB2+H05261)
Strobe/Lamp Enabled: No (USB2+H05261)
Correct for Detector Non-linearity: No (USB2+H05261)
Correct for Stray Light: No (USB2+H05261)
Number of Pixels in Processed Spectrum: 2048
>>>>>Begin Processed Spectral Data<<<<<
365.73	196.60
365.92	196.60
366.12	196.60
366.32	212.99
366.52	161.50
366.72	203.63
366.91	173.20
367.11	222.35
367.31	227.03
367.51	159.16
367.70	224.69
367.90	196.60
368.10	187.24
368.30	203.63
368.49	119.37
368.69	198.95
368.89	220.01
369.09	210.65
369.28	182.56
369.48	208.31
369.68	262.14
369.87	266.82
370.07	191.92
370.27	266.82
370.47	313.63
370.66	531.30
370.86	449.38
371.06	552.37
371.25	561.73
371.45	547.69
371.65	468.11
371.84	550.03
372.04	533.64
372.24	578.11
372.44	594.50
372.63	557.05
372.83	582.79
373.03	564.07
373.22	594.50
373.42	624.92
373.62	638.97
373.81	615.56
374.01	638.97
374.21	660.03
374.40	650.67
374.60	713.86
374.79	603.86
374.99	706.84
375.19	613.22
375.38	664.71
375.58	606.20
375.78	653.01
375.97	718.54
376.17	674.07
376.37	669.39
376.56	655.35
376.76	744.29
376.95	732.59
377.15	674.07
377.35	629.60
377.54	671.73
377.74	671.73
377.93	601.52
378.13	744.29
378.33	674.07
378.52	669.39
378.72	695.14
378.91	638.97
379.11	739.61
379.31	711.52
379.50	746.63
379.70	739.61
379.89	751.31
380.09	681.10
380.28	730.25
380.48	716.20
380.68	664.71
380.87	737.27
381.07	697.48
381.26	746.63
381.46	758.33
381.65	788.76
381.85	748.97
382.04	821.53
382.24	814.51
382.43	713.86
382.63	713.86
382.83	774.72
383.02	802.80
383.22	830.89
383.41	791.10
383.61	821.53
383.80	844.93
384.00	791.10
384.19	861.32
384.39	779.40
384.58	814.51
384.78	819.19
384.97	807.48
385.17	807.48
385.36	833.23
385.56	837.91
385.75	786.42
385.95	807.48
386.14	828.55
386.34	882.38
386.53	854.30
386.72	812.17
386.92	807.48
387.11	814.51
387.31	837.91
387.50	882.38
387.70	826.21
387.89	798.12
388.09	854.30
388.28	882.38
388.48	912.81
388.67	961.96
388.86	802.80
389.06	858.98
389.25	922.17
389.45	910.47
389.64	947.92
389.84	994.73
390.03	966.64
390.22	999.41
390.42	983.02
390.61	891.74
390.81	945.58
391.00	938.55
391.19	901.11
391.39	922.17
391.58	1015.79
391.78	968.98
391.97	1011.11
392.16	978.34
392.36	1032.18
392.55	999.41
392.75	1064.94
392.94	1055.58
393.13	1048.56
393.33	1018.13
393.52	1057.92
393.71	1069.62
393.91	1060.26
394.10	1090.69
394.29	1046.22
394.49	1114.10
394.68	1135.16
394.88	1086.01
395.07	1137.50
395.26	1181.97
395.46	1100.05
395.65	1125.80
395.84	1135.16
396.04	1219.42
396.23	1235.80
396.42	1125.80
396.62	1081.33
396.81	1252.19
397.00	1153.88
397.19	1137.50
397.39	1135.16
397.58	1163.25
397.77	1203.04
397.97	1179.63
398.16	1266.23
398.35	1336.45
398.55	1266.23
398.74	1203.04
398.93	1270.91
399.12	1125.80
399.32	1294.32
399.51	1350.49
399.70	1324.74
399.90	1306.02
400.09	1355.17
400.28	1401.98
400.47	1390.28
400.67	1455.81
400.86	1359.85
401.05	1401.98
401.24	1343.47
401.44	1359.85
401.63	1423.05
401.82	1362.19
402.01	1439.43
402.21	1451.13
402.40	1458.15
402.59	1448.79
402.78	1338.79
402.97	1451.13
403.17	1600.93
403.36	1537.73
403.55	1570.50
403.74	1575.18
403.93	1612.63
404.13	1551.78
404.32	1584.54
404.51	1589.22
404.70	1652.42
404.89	1643.06
405.09	1680.50
405.28	1675.82
405.47	1666.46
405.66	1624.33
405.85	1682.85
406.05	1610.29
406.24	1694.55
406.43	1739.02
406.62	1696.89
406.81	1809.23
407.00	1746.04
407.20	1661.78
407.39	1701.57
407.58	1813.92
407.77	1760.08
407.96	1799.87
408.15	1853.70
408.34	1846.68
408.54	1874.77
408.73	1825.62
408.92	1884.13
409.11	1928.60
409.30	1860.73
409.49	1912.22
409.68	1928.60
409.87	1991.80
410.07	2047.97
410.26	2101.80
410.45	2024.56
410.64	1989.46
410.83	2069.03
411.02	2040.95
411.21	2073.71
411.40	2141.59
411.59	2146.27
411.78	2202.44
411.98	2115.84
412.17	2223.51
412.36	2174.36
412.55	2176.70
412.74	2275.00
412.93	2293.72
413.12	2279.68
413.31	2249.25
413.50	2314.79
413.69	2352.24
413.88	2377.98
414.07	2464.58
414.26	2562.89
414.45	2544.16
414.64	2476.29
414.83	2490.33
415.02	2544.16
415.22	2754.81
415.41	2626.08
415.60	2654.17
415.79	2593.31
415.98	2668.21
416.17	2590.97
416.36	2619.06
416.55	2628.42
416.74	2733.75
416.93	2700.98
417.12	2773.53
417.31	2736.09
417.50	2860.13
417.69	2843.75
417.88	2850.77
418.07	2867.16
418.26	2928.01
418.45	2815.66
418.64	3082.49
418.83	2913.97
419.02	2878.86
419.21	3005.25
419.39	3021.63
419.58	2939.71
419.77	2986.52
419.96	3061.42
420.15	3084.83
420.34	3110.57
420.53	3091.85
420.72	3070.78
420.91	3077.80
421.10	3075.46
421.29	3204.19
421.48	3246.32
421.67	3131.64
421.86	3269.73
422.05	3204.19
422.24	3206.53
422.43	3314.20
422.61	3180.79
422.80	3288.45
422.99	3295.47
423.18	3335.26
423.37	3384.41
423.56	3311.86
423.75	3208.87
423.94	3162.06
424.13	3110.57
424.32	3290.79
424.50	3330.58
424.69	3403.14
424.88	3452.29
425.07	3316.54
425.26	3267.39
425.45	3265.05
425.64	3398.46
425.83	3215.90
426.01	3433.57
426.20	3293.13
426.39	3300.16
426.58	3435.91
426.77	3309.52
426.96	3417.18
427.15	3506.12
427.33	3487.40
427.52	3421.86
427.71	3574.00
427.90	3485.06
428.09	3623.15
428.28	3700.39
428.46	3571.66
428.65	3620.81
428.84	3676.98
429.03	3669.96
429.22	3653.58
429.40	3805.71
429.59	3794.01
429.78	3461.65
429.97	3471.01
430.16	3716.77
430.34	3735.50
430.53	3819.75
430.72	3812.73
430.91	3609.11
431.10	3726.13
431.28	3873.59
431.47	3962.53
431.66	3815.07
431.85	3840.82
432.03	3969.55
432.22	3932.10
432.41	4065.51
432.60	4028.06
432.79	3983.59
432.97	3999.98
433.16	3999.98
433.35	3974.23
433.54	4084.23
433.72	4060.83
433.91	3964.87
434.10	4187.22
434.28	4084.23
434.47	4198.92
434.66	4163.81
434.85	4161.47
435.03	4262.12
435.22	4177.86
435.41	4292.54
435.59	4287.86
435.78	4278.50
435.97	4360.42
436.16	4236.37
436.34	4353.40
436.53	4290.20
436.72	4397.87
436.90	4344.03
437.09	4493.83
437.28	4248.07
437.46	4372.12
437.65	4486.81
437.84	4423.61
438.02	4482.13
438.21	4514.89
438.40	4484.47
438.58	4475.10
438.77	4669.37
438.96	4634.26
439.14	4676.39
439.33	4737.24
439.52	4772.35
439.70	4929.17
439.89	4973.64
440.08	4971.30
440.26	4968.96
440.45	4863.63
440.63	4858.95
440.82	5104.71
441.01	4795.76
441.19	5055.56
441.38	5050.88
441.57	5149.18
441.75	5268.55
441.94	5277.91
442.12	5231.10
442.31	5280.25
442.50	5296.63
442.68	5266.21
442.87	5348.12
443.05	5373.87
443.24	5277.91
443.43	5425.36
443.61	5343.44
443.80	5369.19
443.98	5263.86
444.17	5128.11
444.35	5401.96
444.54	5582.18
444.73	5507.28
444.91	5593.88
445.10	5310.68
445.28	5427.70
445.47	5437.06
445.65	5523.66
445.84	5696.86
446.02	5778.78
446.21	5544.73
446.39	5558.77
446.58	5610.26
446.77	5565.79
446.95	5465.15
447.14	5614.95
447.32	5708.57
447.51	5540.05
447.69	5621.97
447.88	5556.43
448.06	5617.29
448.25	5448.77
448.43	5614.95
448.62	5659.42
448.80	5624.31
448.99	5701.54
449.17	5614.95
449.36	5738.99
449.54	5781.12
449.73	5748.36
449.91	5825.59
450.10	5802.19
450.28	6012.84
450.46	6022.20
450.65	5755.38
450.83	5989.43
451.02	5987.09
451.20	6061.99
451.39	6064.33
451.57	5872.40
451.76	5895.81
451.94	6090.07
452.13	6054.97
452.31	6129.86
452.49	6087.73
452.68	6150.93
452.86	5968.37
453.05	6202.42
453.23	6200.08
453.42	6289.02
453.60	6242.21
453.78	6366.26
453.97	6218.80
454.15	6223.48
454.34	6085.39
454.52	6183.70
454.70	6272.64
454.89	6377.96
455.07	6370.94
455.26	6455.20
455.44	6487.96
455.62	6492.65
455.81	6455.20
455.99	6487.96
456.17	6427.11
456.36	6607.33
456.54	6572.22
456.73	6588.61
456.91	6834.36
457.09	6785.21
457.28	6836.70
457.46	6717.34
457.64	6998.20
457.83	6857.77
458.01	6803.94
458.19	6925.65
458.38	6827.34
458.56	6888.20
458.74	7014.59
458.93	6981.82
459.11	7143.32
459.29	7091.82
459.48	6946.71
459.66	6958.41
459.84	7096.50
460.03	7110.55
460.21	7157.36
460.39	7101.19
460.57	7325.88
460.76	7232.26
460.94	7431.20
461.12	7403.11
461.31	7414.82
461.49	7332.90
461.67	7215.87
461.85	7407.80
462.04	7255.66
462.22	7716.75
462.40	7644.19
462.59	7517.80
462.77	7475.67
462.95	7393.75
463.13	7478.01
463.32	7669.94
463.50	7676.96
463.68	7679.30
463.86	7632.49
464.05	7566.95
464.23	7562.27
464.41	7798.66
464.59	7606.74
464.78	7880.58
464.96	7770.58
465.14	7672.28
465.32	7676.96
465.50	7674.62
465.69	7878.24
465.87	7873.56
466.05	7943.78
466.23	8004.63
466.41	7925.05
466.60	8102.93
466.78	7953.14
466.96	7836.11
467.14	8081.87
467.32	8091.23
467.51	8175.49
467.69	8006.97
467.87	7925.05
468.05	8198.90
468.23	8109.96
468.41	8065.49
468.60	8189.53
468.78	8432.95
468.96	8095.91
469.14	8257.41
469.32	8475.08
469.50	8306.56
469.69	8369.76
469.87	8573.38
470.05	8592.11
470.23	8641.26
470.41	8641.26
470.59	8954.89
470.77	8505.51
470.95	8648.28
471.14	8730.20
471.32	8592.11
471.50	8762.97
471.68	8926.80
471.86	8772.33
472.04	8985.32
472.22	9064.89
472.40	8959.57
472.58	8847.22
472.77	9130.43
472.95	9111.71
473.13	9357.46
473.31	9100.00
473.49	9104.68
473.67	9137.45
473.85	9252.14
474.03	9261.50
474.21	9275.54
474.39	9563.43
474.57	9685.14
474.75	9507.26
474.93	9823.23
475.12	9654.71
475.30	9827.91
475.48	9741.31
475.66	9928.55
475.84	9940.26
476.02	9980.04
476.20	9921.53
476.38	10052.60
476.56	10291.34
476.74	10221.12
476.92	10076.01
477.10	10057.28
477.28	10366.23
477.46	10111.11
477.64	10452.83
477.82	10789.87
478.00	11000.52
478.18	10953.71
478.36	10874.13
478.54	11052.01
478.72	10974.77
478.90	11211.17
479.08	11419.47
479.26	11447.56
479.44	11382.03
479.62	11463.94
479.80	11300.11
479.98	11545.86
480.16	11700.34
480.34	11822.05
480.52	11988.22
480.70	11866.52
480.88	11639.48
481.06	12093.55
481.24	11997.59
481.41	12187.17
481.59	12383.77
481.77	12514.84
481.95	12250.36
482.13	12725.49
482.31	12578.04
482.49	12791.03
482.67	12746.56
482.85	12957.21
483.03	13102.32
483.21	13373.82
483.39	13343.39
483.57	13202.96
483.74	13769.37
483.92	13654.69
484.10	13476.80
484.28	13994.06
484.46	14097.05
484.64	14190.67
484.82	13715.54
485.00	14277.27
485.18	14717.29
485.35	14677.50
485.53	14527.71
485.71	14839.00
485.89	14867.08
486.07	14937.30
486.25	14984.11
486.43	15143.27
486.61	15307.10
486.78	15220.50
486.96	15396.04
487.14	15454.56
487.32	15885.22
487.50	15716.70
487.68	16004.58
487.85	16067.78
488.03	15925.00
488.21	16570.99
488.39	16568.65
488.57	16517.16
488.75	16858.88
488.92	16917.39
489.10	16844.84
489.28	17198.26
489.46	17373.80
489.64	17263.79
489.81	17434.65
489.99	17444.01
490.17	17809.14
490.35	17949.57
490.53	17804.46
490.70	17820.84
490.88	18242.14
491.06	18237.45
491.24	18331.08
491.41	18445.76
491.59	18663.43
491.77	18508.96
491.95	18642.37
492.13	19133.88
492.30	18820.25
492.48	19117.50
492.66	19288.35
492.84	19342.19
493.01	19506.02
493.19	19318.78
493.37	19283.67
493.54	19513.05
493.72	20051.37
493.90	19817.32
494.08	20023.28
494.25	20236.27
494.43	20318.19
494.61	20149.67
494.79	20540.54
494.96	20884.60
495.14	20917.37
495.32	21144.40
495.49	21029.71
495.67	21130.36
495.85	21528.25
496.02	21633.57
496.20	21572.72
496.38	21633.57
496.55	21614.85
496.73	22134.45
496.91	21986.99
497.09	22111.04
497.26	22331.05
497.44	22333.39
497.62	22251.47
497.79	22759.37
497.97	22445.74
498.14	23091.73
498.32	23019.17
498.50	22867.03
498.67	22970.02
498.85	22916.19
499.03	23400.68
499.20	23367.91
499.38	23173.64
499.56	23709.63
499.73	23527.06
499.91	24053.69
500.08	23906.23
500.26	23915.59
500.44	23831.33
500.61	24177.73
500.79	24034.96
500.97	24451.58
501.14	24613.07
501.32	24694.99
501.49	24863.51
501.67	24657.54
501.84	25249.70
502.02	24694.99
502.20	24774.57
502.37	24947.77
502.55	25109.27
502.72	24947.77
502.90	25043.73
503.07	25312.89
503.25	25010.96
503.43	24854.15
503.60	25598.44
503.78	25773.98
503.95	25511.84
504.13	25549.29
504.30	25956.54
504.48	25832.49
504.65	26216.34
504.83	26279.54
505.01	26331.03
505.18	26169.53
505.36	26621.25
505.53	26359.11
505.71	26391.88
505.88	26717.22
506.06	26562.74
506.23	26600.19
506.41	26518.27
506.58	26675.09
506.76	27290.65
506.93	26988.72
507.11	27295.33
507.28	27391.29
507.46	27087.02
507.63	27318.73
507.81	27407.67
507.98	27527.04
508.16	27536.40
508.33	27723.65
508.50	27702.58
508.68	27878.12
508.85	28343.89
509.03	27997.49
509.20	28032.60
509.38	28381.34
509.55	28114.52
509.73	28414.10
509.90	28521.77
510.08	28730.08
510.25	28376.66
510.42	28809.65
510.60	29055.41
510.77	29202.86
510.95	29647.57
511.12	28966.47
511.30	29195.84
511.47	29603.10
511.64	29418.19
511.82	29624.16
511.99	29247.33
512.17	29785.66
512.34	29390.11
512.51	30059.50
512.69	30089.93
512.86	29633.52
513.04	30169.51
513.21	29963.54
513.38	29977.58
513.56	30312.28
513.73	30075.88
513.90	30246.74
514.08	30195.25
514.25	30209.29
514.43	30864.64
514.60	30614.21
514.77	30665.70
514.95	30724.21
515.12	31016.78
515.29	31136.15
515.47	30745.28
515.64	31384.24
515.81	30815.49
515.99	31449.78
516.16	31800.86
516.33	31351.48
516.51	31129.12
516.68	31002.74
516.85	31388.92
517.03	31573.83
517.20	31732.98
517.37	31880.44
517.54	32100.45
517.72	31969.38
517.89	31913.20
518.06	31971.72
518.24	31957.67
518.41	31875.76
518.58	32039.59
518.75	32339.18
518.93	32357.91
519.10	32283.01
519.27	32877.51
519.45	32074.70
519.62	32769.84
519.79	32936.02
519.96	32816.65
520.14	32924.32
520.31	32982.83
520.48	32758.14
520.65	33067.09
520.83	33259.01
521.00	33418.17
521.17	33549.24
521.34	33249.65
521.52	33472.00
521.69	33504.77
521.86	33738.82
522.03	33591.37
522.20	34026.71
522.38	34052.45
522.55	33914.36
522.72	33820.74
522.89	33986.92
523.07	34574.39
523.24	34504.18
523.41	34387.15
523.58	34274.80
523.75	34370.77
523.92	34719.51
524.10	34735.89
524.27	34747.59
524.44	34235.02
524.61	34588.44
524.78	34768.66
524.96	34728.87
525.13	35211.02
525.30	34986.33
525.47	34967.60
525.64	35234.42
525.81	35276.55
525.98	35456.78
526.16	35152.51
526.33	35068.25
526.50	35433.37
526.67	35056.54
526.84	35267.19
527.01	35168.89
527.18	35435.71
527.36	35772.75
527.53	35601.89
527.70	35962.33
527.87	36292.35
528.04	35590.19
528.21	35927.22
528.38	35878.07
528.55	36318.09
528.72	36650.45
528.89	36055.95
529.07	36135.53
529.24	36203.41
529.41	36615.34
529.58	36004.46
529.75	36290.01
529.92	36491.29
530.09	36538.10
530.26	36790.88
530.43	36818.97
530.60	36290.01
530.77	36739.39
530.94	36933.65
531.11	36507.68
531.28	36701.94
531.46	36772.16
531.63	37116.22
531.80	36886.84
531.97	37216.86
532.14	37141.96
532.31	37212.18
532.48	37315.16
532.65	37624.11
532.82	37404.10
532.99	37041.32
533.16	37422.83
533.33	37364.31
533.50	37436.87
533.67	37521.13
533.84	37474.32
534.01	37539.85
534.18	38225.63
534.35	38061.79
534.52	37766.88
534.69	38258.40
534.86	38160.09
535.03	38153.07
535.20	38319.25
535.37	38651.61
535.54	38363.72
535.71	38059.45
535.88	38085.20
536.05	38347.34
536.22	38565.01
536.38	38387.13
536.55	38209.25
536.72	38251.38
536.89	38415.21
537.06	38485.43
537.23	38780.34
537.40	39161.84
537.57	38494.79
537.74	38836.51
537.91	39000.35
538.08	38986.30
538.25	38567.35
538.42	38927.79
538.59	38958.22
538.75	39086.95
538.92	38829.49
539.09	39505.90
539.26	39313.98
539.43	39250.78
539.60	39077.58
539.77	39290.57
539.94	39566.76
540.11	39503.56
540.28	39454.41
540.44	39590.16
540.61	39079.92
540.78	39653.36
540.95	39768.04
541.12	39639.31
541.29	39559.73
541.46	40182.32
541.62	39990.39
541.79	40336.79
541.96	39512.92
542.13	39686.12
542.30	39889.75
542.47	40079.33
542.63	40161.25
542.80	40524.04
542.97	40474.88
543.14	40549.78
543.31	40563.82
543.48	40479.57
543.64	40884.48
543.81	40673.83
543.98	40996.82
544.15	40966.40
544.32	40722.98
544.48	41706.01
544.65	41165.34
544.82	41078.74
544.99	40870.43
545.16	40828.30
545.32	41076.40
545.49	41226.20
545.66	41397.06
545.83	41478.97
546.00	41357.27
546.16	41329.18
546.33	41041.29
546.50	41383.01
546.67	41668.56
546.83	41031.93
547.00	41223.86
547.17	41495.36
547.34	41308.11
547.50	41837.08
547.67	41837.08
547.84	42082.83
548.00	42204.54
548.17	42249.01
548.34	41790.27
548.51	42384.76
548.67	42220.92
548.84	42071.13
549.01	41808.99
549.18	41879.21
549.34	42178.79
549.51	42417.53
549.68	42120.28
549.84	41984.53
550.01	42148.37
550.18	42349.65
550.34	42115.60
550.51	42616.47
550.68	42850.53
550.84	42377.74
551.01	42871.59
551.18	42436.25
551.34	42569.66
551.51	42457.32
551.68	42487.74
551.84	42527.53
552.01	42354.33
552.18	43065.86
552.34	42705.41
552.51	42616.47
552.68	42983.94
552.84	42766.27
553.01	43388.85
553.18	42667.97
553.34	42768.61
553.51	42976.92
553.67	42876.27
553.84	43227.35
554.01	43105.65
554.17	42920.74
554.34	42962.87
554.51	43124.37
554.67	43564.39
554.84	43470.77
555.00	43412.26
555.17	43243.74
555.33	43559.71
555.50	43585.46
555.67	42972.24
555.83	43564.39
556.00	43278.85
556.16	43856.96
556.33	43695.46
556.50	43681.42
556.66	43269.48
556.83	43899.09
556.99	43941.22
557.16	43892.07
557.32	43325.66
557.49	44271.23
557.65	43454.39
557.82	43871.00
557.98	43753.97
558.15	44002.07
558.32	43812.49
558.48	43580.78
558.65	44182.29
558.81	44107.40
558.98	44020.80
559.14	43835.89
559.31	43690.78
559.47	43950.58
559.64	43938.88
559.80	44020.80
559.97	44163.57
560.13	44037.18
560.30	44217.40
560.46	44191.65
560.63	44231.44
560.79	44390.60
560.96	44619.97
561.12	44582.52
561.29	44259.53
561.45	44856.37
561.61	44369.54
561.78	44205.70
561.94	44364.85
562.11	44308.68
562.27	44243.15
562.44	44479.54
562.60	44538.05
562.77	44765.09
562.93	44411.67
563.10	45298.73
563.26	44421.03
563.42	44839.98
563.59	44828.28
563.75	44135.48
563.92	44622.31
564.08	44662.10
564.24	44643.38
564.41	44851.69
564.57	44521.67
564.74	44711.25
564.90	44587.21
565.07	44549.76
565.23	44856.37
565.39	44947.65
565.56	45366.60
565.72	44414.01
565.88	44748.70
566.05	44746.36
566.21	45139.57
566.38	44882.11
566.54	44783.81
566.70	45081.06
566.87	44996.80
567.03	44783.81
567.19	45050.63
567.36	44870.41
567.52	44519.33
567.68	44964.03
567.85	44959.35
568.01	45272.98
568.17	45076.38
568.34	45102.12
568.50	44949.99
568.66	44727.64
568.83	45029.57
568.99	45404.05
569.15	45174.68
569.32	45457.88
569.48	44662.10
569.64	45411.07
569.81	45537.46
569.97	45689.60
570.13	45382.99
570.30	45008.50
570.46	45275.32
570.62	45504.70
570.78	45703.64
570.95	45642.79
571.11	45743.43
571.27	45191.06
571.43	45645.13
571.60	45291.71
571.76	45184.04
571.92	45504.70
572.09	45354.90
572.25	45869.82
572.41	45371.28
572.57	45963.44
572.74	46075.79
572.90	45305.75
573.06	45619.38
573.22	45556.19
573.38	45120.85
573.55	45661.51
573.71	45684.92
573.87	46047.70
574.03	45371.28
574.20	45617.04
574.36	45490.65
574.52	45591.30
574.68	46089.83
574.84	45874.50
575.01	45790.24
575.17	45904.93
575.33	45666.19
575.49	45504.70
575.65	45574.91
575.82	45633.42
575.98	45925.99
576.14	45649.81
576.30	45823.01
576.46	45818.33
576.62	45736.41
576.79	45656.83
576.95	45914.29
577.11	45731.73
577.27	45509.38
577.43	45792.58
577.59	45830.03
577.75	45092.76
577.92	45577.25
578.08	45422.78
578.24	45584.27
578.40	45984.51
578.56	45825.35
578.72	45720.02
578.88	45928.33
579.04	46024.29
579.21	45691.94
579.37	45759.81
579.53	46061.74
579.69	45743.43
579.85	45921.31
580.01	45794.92
580.17	45776.20
580.33	46024.29
580.49	46007.91
580.65	45745.77
580.82	45811.31
580.98	45677.90
581.14	45399.37
581.30	45745.77
581.46	45525.76
581.62	45771.52
581.78	45731.73
581.94	46160.05
582.10	45570.23
582.26	46136.64
582.42	46295.80
582.58	46061.74
582.74	46080.47
582.90	46277.07
583.06	46288.77
583.22	45663.85
583.38	46204.52
583.54	46108.55
583.70	45689.60
583.86	45916.63
584.02	45633.42
584.18	46012.59
584.34	46344.95
584.50	46480.70
584.66	46066.42
584.82	46155.36
584.98	46277.07
585.14	46237.28
585.30	46209.20
585.46	46410.48
585.62	45654.49
585.78	46124.94
585.94	45787.90
586.10	46036.00
586.26	46270.05
586.42	45771.52
586.58	45876.84
586.74	46256.01
586.90	45591.30
587.06	46078.13
587.22	46443.25
587.38	45607.68
587.54	46286.43
587.70	46651.56
587.86	46373.03
588.02	46183.45
588.18	46113.23
588.34	46286.43
588.49	46445.59
588.65	45682.58
588.81	46305.16
588.97	46361.33
589.13	45923.65
589.29	46146.00
589.45	46450.27
589.61	46047.70
589.77	46590.70
589.93	46260.69
590.08	46506.44
