SpectraSuite Data File
++++++++++++++++++++++++++++++++++++
Date: Fri Oct 25 10:44:15 EDT 2013
User: price-jones
Dark Spectrum Present: No
Reference Spectrum Present: No
Number of Sampled Component Spectra: 1
Spectrometers: USB2+H05261
Integration Time (usec): 100000 (USB2+H05261)
Spectra Averaged: 1 (USB2+H05261)
Boxcar Smoothing: 0 (USB2+H05261)
Correct for Electrical Dark: No (USB2+H05261)
Strobe/Lamp Enabled: No (USB2+H05261)
Correct for Detector Non-linearity: No (USB2+H05261)
Correct for Stray Light: No (USB2+H05261)
Number of Pixels in Processed Spectrum: 2048
>>>>>Begin Processed Spectral Data<<<<<
365.73	110.01
365.92	110.01
366.12	110.01
366.32	86.60
366.52	53.83
366.72	67.88
366.91	91.28
367.11	74.90
367.31	0.00
367.51	4.68
367.70	2.34
367.90	91.28
368.10	0.00
368.30	0.00
368.49	70.22
368.69	65.54
368.89	0.00
369.09	32.77
369.28	58.51
369.48	0.00
369.68	86.60
369.87	70.22
370.07	86.60
370.27	168.52
370.47	187.24
370.66	393.21
370.86	388.53
371.06	479.81
371.25	468.11
371.45	449.38
371.65	468.11
371.84	493.85
372.04	491.51
372.24	510.24
372.44	489.17
372.63	447.04
372.83	517.26
373.03	505.56
373.22	423.64
373.42	491.51
373.62	482.15
373.81	456.40
374.01	636.63
374.21	617.90
374.40	561.73
374.60	557.05
374.79	617.90
374.99	547.69
375.19	608.54
375.38	589.82
375.58	629.60
375.78	589.82
375.97	554.71
376.17	634.29
376.37	573.43
376.56	629.60
376.76	582.79
376.95	575.77
377.15	676.41
377.35	634.29
377.54	664.71
377.74	589.82
377.93	603.86
378.13	671.73
378.33	657.69
378.52	664.71
378.72	664.71
378.91	653.01
379.11	631.94
379.31	634.29
379.50	678.76
379.70	627.26
379.89	643.65
380.09	629.60
380.28	702.16
380.48	650.67
380.68	688.12
380.87	608.54
381.07	650.67
381.26	695.14
381.46	779.40
381.65	748.97
381.85	631.94
382.04	725.57
382.24	807.48
382.43	681.10
382.63	692.80
382.83	725.57
383.02	753.65
383.22	676.41
383.41	819.19
383.61	753.65
383.80	795.78
384.00	786.42
384.19	786.42
384.39	765.36
384.58	795.78
384.78	821.53
384.97	784.08
385.17	777.06
385.36	880.04
385.56	732.59
385.75	788.76
385.95	793.44
386.14	889.40
386.34	814.51
386.53	786.42
386.72	800.46
386.92	786.42
387.11	856.64
387.31	840.25
387.50	847.27
387.70	905.79
387.89	910.47
388.09	964.30
388.28	933.87
388.48	882.38
388.67	952.60
388.86	945.58
389.06	945.58
389.25	894.08
389.45	926.85
389.64	964.30
389.84	992.39
390.03	976.00
390.22	997.07
390.42	980.68
390.61	952.60
390.81	1029.84
391.00	1018.13
391.19	1137.50
391.39	1130.48
391.58	1027.50
391.78	1081.33
391.97	1100.05
392.16	1055.58
392.36	936.21
392.55	1034.52
392.75	1020.47
392.94	1006.43
393.13	1036.86
393.33	978.34
393.52	1118.78
393.71	1116.44
393.91	1102.39
394.10	1062.60
394.29	1123.46
394.49	1144.52
394.68	1179.63
394.88	1198.35
395.07	1366.87
395.26	1294.32
395.46	1210.06
395.65	1294.32
395.84	1226.44
396.04	1296.66
396.23	1107.07
396.42	1181.97
396.62	1144.52
396.81	1212.40
397.00	1233.46
397.19	1280.27
397.39	1301.34
397.58	1423.05
397.77	1437.09
397.97	1406.66
398.16	1423.05
398.35	1383.26
398.55	1376.24
398.74	1439.43
398.93	1542.41
399.12	1437.09
399.32	1497.94
399.51	1479.22
399.70	1521.35
399.90	1589.22
400.09	1523.69
400.28	1614.97
400.47	1640.72
400.67	1640.72
400.86	1631.35
401.05	1694.55
401.24	1652.42
401.44	1746.04
401.63	1729.66
401.82	1701.57
402.01	1671.14
402.21	1666.46
402.40	1743.70
402.59	1767.10
402.78	1713.27
402.97	1717.95
403.17	1834.98
403.36	1832.64
403.55	1811.57
403.74	1832.64
403.93	1886.47
404.13	1865.41
404.32	1942.64
404.51	1891.15
404.70	1884.13
404.89	1907.54
405.09	1942.64
405.28	1975.41
405.47	1914.56
405.66	1930.94
405.85	1973.07
406.05	2064.35
406.24	2010.52
406.43	2050.31
406.62	2005.84
406.81	2136.91
407.00	2087.76
407.20	1944.99
407.39	2129.89
407.58	2232.87
407.77	2157.97
407.96	2183.72
408.15	2190.74
408.34	2223.51
408.54	2179.04
408.73	2083.08
408.92	2239.89
409.11	2438.84
409.30	2317.13
409.49	2296.07
409.68	2359.26
409.87	2272.66
410.07	2237.55
410.26	2340.54
410.45	2424.80
410.64	2410.75
410.83	2410.75
411.02	2504.37
411.21	2588.63
411.40	2502.03
411.59	2616.72
411.78	2565.23
411.98	2504.37
412.17	2663.53
412.36	2619.06
412.55	2635.44
412.74	2813.32
412.93	2796.94
413.12	2773.53
413.31	2869.50
413.50	2796.94
413.69	2799.28
413.88	2876.52
414.07	2925.67
414.26	2949.08
414.45	2993.55
414.64	3019.29
414.83	3045.04
415.02	3049.72
415.22	3091.85
415.41	3105.89
415.60	3089.51
415.79	3197.17
415.98	3178.45
416.17	3192.49
416.36	3157.38
416.55	3293.13
416.74	3206.53
416.93	3279.09
417.12	3311.86
417.31	3314.20
417.50	3372.71
417.69	3466.33
417.88	3421.86
418.07	3494.42
418.26	3466.33
418.45	3463.99
418.64	3644.21
418.83	3602.08
419.02	3569.32
419.21	3574.00
419.39	3658.26
419.58	3543.57
419.77	3520.17
419.96	3515.48
420.15	3604.42
420.34	3735.50
420.53	3709.75
420.72	3873.59
420.91	3672.30
421.10	3730.81
421.29	3728.47
421.48	3791.67
421.67	3847.84
421.86	3812.73
422.05	3791.67
422.24	3747.20
422.43	3826.78
422.61	3927.42
422.80	4014.02
422.99	3836.14
423.18	4042.11
423.37	3882.95
423.56	3859.54
423.75	3801.03
423.94	3929.76
424.13	3840.82
424.32	3791.67
424.50	4070.19
424.69	3932.10
424.88	4028.06
425.07	3812.73
425.26	3929.76
425.45	3854.86
425.64	3878.27
425.83	4030.40
426.01	3999.98
426.20	4166.15
426.39	3992.95
426.58	3913.38
426.77	3880.61
426.96	4049.13
427.15	3925.08
427.33	4060.83
427.52	4126.36
427.71	4093.60
427.90	4189.56
428.09	4088.92
428.28	4128.70
428.46	4149.77
428.65	4210.62
428.84	4170.83
429.03	4234.03
429.22	4128.70
429.40	4182.54
429.59	4070.19
429.78	3957.85
429.97	3861.88
430.16	3969.55
430.34	4135.73
430.53	4208.28
430.72	4360.42
430.91	4222.33
431.10	4315.95
431.28	4601.49
431.47	4746.61
431.66	4650.64
431.85	4414.25
432.03	4552.34
432.22	4629.58
432.41	4725.54
432.60	4730.22
432.79	4676.39
432.97	4758.31
433.16	4683.41
433.35	4571.07
433.54	4676.39
433.72	4652.98
433.91	4594.47
434.10	4746.61
434.28	4795.76
434.47	4861.29
434.66	5027.47
434.85	4926.83
435.03	5088.32
435.22	4903.42
435.41	5123.43
435.59	4980.66
435.78	4947.89
435.97	5188.97
436.16	5245.14
436.34	5043.85
436.53	5135.14
436.72	5186.63
436.90	5018.11
437.09	5327.06
437.28	5111.73
437.46	5188.97
437.65	5198.33
437.84	5151.52
438.02	5137.48
438.21	5114.07
438.40	5135.14
438.58	5392.59
438.77	5430.04
438.96	5401.96
439.14	5582.18
439.33	5511.96
439.52	5526.00
439.70	5731.97
439.89	5699.20
440.08	5783.46
440.26	5638.35
440.45	5746.02
440.63	5860.70
440.82	5949.64
441.01	5748.36
441.19	5916.87
441.38	6092.41
441.57	6132.20
441.75	6097.10
441.94	6251.57
442.12	6312.42
442.31	6448.18
442.50	6282.00
442.68	6464.56
442.87	6368.60
443.05	6366.26
443.24	6527.75
443.43	6497.33
443.61	6752.45
443.80	6525.41
443.98	6389.66
444.17	6410.73
444.35	6487.96
444.54	6511.37
444.73	6560.52
444.91	6387.32
445.10	6464.56
445.28	6747.76
445.47	6448.18
445.65	6464.56
445.84	6614.35
446.02	6593.29
446.21	6588.61
446.39	6553.50
446.58	6665.85
446.77	6740.74
446.95	6487.96
447.14	6810.96
447.32	6684.57
447.51	6628.40
447.69	6764.15
447.88	6700.95
448.06	6740.74
448.25	6815.64
448.43	6808.62
448.62	6574.56
448.80	6609.67
448.99	6808.62
449.17	6778.19
449.36	6792.23
449.54	7002.88
449.73	7105.87
449.91	7070.76
450.10	7087.14
450.28	7288.43
450.46	7166.72
450.65	7215.87
450.83	7269.70
451.02	6981.82
451.20	7213.53
451.39	7089.48
451.57	7248.64
451.76	7246.30
451.94	7087.14
452.13	7169.06
452.31	7234.60
452.49	7052.03
452.68	7162.04
452.86	7269.70
453.05	7152.68
453.23	7400.77
453.42	7255.66
453.60	7337.58
453.78	7475.67
453.97	7265.02
454.15	7508.44
454.34	7405.46
454.52	7569.29
454.70	7403.11
454.89	7461.63
455.07	7655.89
455.26	7662.91
455.44	7719.09
455.62	7686.32
455.81	7744.83
455.99	7662.91
456.17	7777.60
456.36	7786.96
456.54	7831.43
456.73	7960.16
456.91	8116.98
457.09	8049.10
457.28	8046.76
457.46	7838.45
457.64	8135.70
457.83	8133.36
458.01	8032.72
458.19	8070.17
458.38	8084.21
458.56	8135.70
458.74	8552.32
458.93	8187.19
459.11	8411.89
459.29	8339.33
459.48	8201.24
459.66	8280.82
459.84	8189.53
460.03	8425.93
460.21	8411.89
460.39	8446.99
460.57	8381.46
460.76	8753.60
460.94	8482.10
461.12	8720.84
461.31	8662.32
461.49	8573.38
461.67	8662.32
461.85	8807.44
462.04	8589.77
462.22	9004.04
462.40	8833.18
462.59	8741.90
462.77	8922.12
462.95	8959.57
463.13	8809.78
463.32	8901.06
463.50	8971.27
463.68	9083.62
463.86	8915.10
464.05	8758.28
464.23	8912.76
464.41	8854.25
464.59	8879.99
464.78	9303.63
464.96	9167.88
465.14	9151.49
465.32	9261.50
465.50	9291.93
465.69	9198.31
465.87	9149.15
466.05	9184.26
466.23	9242.78
466.41	9018.08
466.60	9376.19
466.78	9200.65
466.96	9462.79
467.14	9217.03
467.32	9460.45
467.51	9666.41
467.69	9238.09
467.87	9357.46
468.05	9420.66
468.23	9432.36
468.41	9434.70
468.60	9474.49
468.78	9586.83
468.96	9584.49
469.14	9694.50
469.32	9785.78
469.50	9582.15
469.69	9694.50
469.87	9795.14
470.05	9853.66
470.23	9884.08
470.41	9912.17
470.59	9767.06
470.77	9958.98
470.95	10111.11
471.14	9996.43
471.32	9839.61
471.50	10218.78
471.68	10253.89
471.86	10319.42
472.04	10380.28
472.22	10696.25
472.40	10267.93
472.58	10314.74
472.77	10438.79
472.95	10492.62
473.13	10883.49
473.31	10490.28
473.49	10331.12
473.67	10492.62
473.85	10700.93
474.03	11000.52
474.21	10923.28
474.39	11274.36
474.57	11150.31
474.75	11243.93
474.93	10998.18
475.12	11396.07
475.30	11309.47
475.48	11157.33
475.66	11356.28
475.84	11318.83
476.02	11337.56
476.20	11417.13
476.38	11716.72
476.56	11826.73
476.74	11730.76
476.92	11901.62
477.10	11985.88
477.28	12187.17
477.46	11950.78
477.64	12423.56
477.82	12161.42
478.00	12678.68
478.18	12507.82
478.36	12641.23
478.54	12517.18
478.72	12798.05
478.90	12800.39
479.08	13289.56
479.26	13294.24
479.44	13048.49
479.62	13364.46
479.80	13188.92
479.98	13713.20
480.16	13610.22
480.34	13437.02
480.52	13727.24
480.70	13694.47
480.88	13575.11
481.06	13965.98
481.24	13923.85
481.41	14410.68
481.59	14508.98
481.77	14347.48
481.95	14291.31
482.13	14501.96
482.31	14827.29
482.49	14906.87
482.67	14974.75
482.85	14869.42
483.03	15049.64
483.21	15501.37
483.39	15295.40
483.57	15325.83
483.74	15545.84
483.92	15389.02
484.10	15803.30
484.28	15768.19
484.46	16196.51
484.64	16449.28
484.82	16137.99
485.00	16107.57
485.18	16439.92
485.35	16250.34
485.53	16060.76
485.71	16278.43
485.89	16776.96
486.07	16540.57
486.25	16652.91
486.43	17036.76
486.61	17139.74
486.78	17195.92
486.96	17130.38
487.14	17451.03
487.32	17696.79
487.50	17991.70
487.68	18092.34
487.85	18436.40
488.03	18492.57
488.21	18499.59
488.39	18513.64
488.57	18555.77
488.75	18815.57
488.92	19005.15
489.10	19400.70
489.28	19543.47
489.46	19805.61
489.64	19627.73
489.81	20042.01
489.99	20243.29
490.17	20278.40
490.35	20594.37
490.53	20418.83
490.70	20503.09
490.88	20783.96
491.06	20915.03
491.24	20699.70
491.41	20622.46
491.59	20849.49
491.77	20879.92
491.95	21118.65
492.13	21399.52
492.30	21764.64
492.48	22066.57
492.66	21944.86
492.84	21806.77
493.01	22022.10
493.19	22005.72
493.37	22356.80
493.54	22302.96
493.72	22888.10
493.90	22663.41
494.08	22761.71
494.25	23351.52
494.43	23304.71
494.61	23433.44
494.79	23644.09
494.96	23566.85
495.14	23232.16
495.32	23791.55
495.49	23620.69
495.67	23880.49
495.85	24109.86
496.02	24011.56
496.20	24194.12
496.38	24498.39
496.55	24905.64
496.73	24889.26
496.91	24805.00
497.09	24973.52
497.26	25102.25
497.44	24924.36
497.62	25013.31
497.79	25233.32
497.97	24648.18
498.14	25336.30
498.32	26029.10
498.50	25476.73
498.67	26012.71
498.85	26403.58
499.03	26132.08
499.20	26340.39
499.38	25951.86
499.56	26497.20
499.73	26497.20
499.91	26656.36
500.08	26778.07
500.26	26721.90
500.44	26689.13
500.61	26761.69
500.79	26644.66
500.97	26747.64
501.14	27267.24
501.32	27063.61
501.49	26906.80
501.67	27257.88
501.84	27204.05
502.02	26981.70
502.20	27756.41
502.37	27887.48
502.55	27611.30
502.72	28018.55
502.90	28411.76
503.07	28135.58
503.25	28051.32
503.43	27974.08
503.60	28329.84
503.78	28243.24
503.95	28095.79
504.13	28606.03
504.30	29146.69
504.48	28458.57
504.65	28584.96
504.83	28811.99
505.01	29172.44
505.18	29181.80
505.36	29488.41
505.53	29432.24
505.71	29874.60
505.88	29483.73
506.06	29298.83
506.23	29773.95
506.41	29806.72
506.58	29572.67
506.76	29944.81
506.93	30054.82
507.11	29797.36
507.28	30003.33
507.46	29720.12
507.63	30218.66
507.81	30089.93
507.98	29724.80
508.16	30354.41
508.33	30455.05
508.50	30689.10
508.68	31131.47
508.85	31187.64
509.03	31124.44
509.20	31278.92
509.38	31002.74
509.55	31475.52
509.73	31534.04
509.90	31740.00
510.08	31466.16
510.25	31407.65
510.42	31182.96
510.60	31913.20
510.77	31960.02
510.95	32060.66
511.12	31559.78
511.30	31943.63
511.47	32641.11
511.64	32708.99
511.82	32662.18
511.99	32374.29
512.17	32371.95
512.34	32374.29
512.51	32395.35
512.69	33083.47
512.86	32912.61
513.04	32849.42
513.21	32889.21
513.38	32723.03
513.56	33085.81
513.73	32683.24
513.90	33392.42
514.08	32964.10
514.25	33329.23
514.43	33214.54
514.60	33333.91
514.77	33289.44
514.95	33869.89
515.12	33755.21
515.29	33778.61
515.47	34108.63
515.64	34012.66
515.81	33895.64
515.99	33834.78
516.16	33865.21
516.33	33490.73
516.51	34054.79
516.68	33102.20
516.85	33514.13
517.03	33701.37
517.20	33797.34
517.37	34305.23
517.54	34277.15
517.72	34181.18
517.89	34139.05
518.06	34110.97
518.24	34057.14
518.41	34635.25
518.58	34515.88
518.75	34527.58
518.93	34656.31
519.10	34998.03
519.27	34574.39
519.45	34939.52
519.62	35194.64
519.79	35550.40
519.96	35178.25
520.14	35075.27
520.31	35526.99
520.48	36130.85
520.65	35449.75
520.83	35852.33
521.00	36128.51
521.17	35868.71
521.34	35683.81
521.52	35967.01
521.69	36484.27
521.86	36683.22
522.03	36144.89
522.20	36928.97
522.38	36435.12
522.55	36573.21
522.72	35885.09
522.89	36201.07
523.07	36807.26
523.24	36378.95
523.41	36931.31
523.58	36907.91
523.75	37462.61
523.92	37097.49
524.10	36793.22
524.27	37528.15
524.44	37254.31
524.61	37359.63
524.78	37624.11
524.96	37497.72
525.13	37699.01
525.30	37467.30
525.47	38092.22
525.64	37830.08
525.81	37282.39
525.98	37530.49
526.16	37368.99
526.33	37446.23
526.50	37558.58
526.67	37532.83
526.84	37233.24
527.01	37427.51
527.18	37565.60
527.36	38522.88
527.53	37951.79
527.70	38560.33
527.87	38520.54
528.04	37916.68
528.21	38775.66
528.38	38789.70
528.55	38880.98
528.72	38888.00
528.89	38911.41
529.07	39143.12
529.24	38817.78
529.41	39068.22
529.58	38864.60
529.75	39002.69
529.92	39009.71
530.09	39117.37
530.26	39482.50
530.43	39227.38
530.60	39360.79
530.77	39143.12
530.94	39746.98
531.11	39438.03
531.28	39166.52
531.46	39512.92
531.63	39824.22
531.80	39210.99
531.97	39636.97
532.14	39346.75
532.31	39278.87
532.48	39419.30
532.65	39835.92
532.82	39428.66
532.99	40275.94
533.16	39580.80
533.33	39842.94
533.50	39978.69
533.67	40182.32
533.84	39894.43
534.01	40257.21
534.18	40381.26
534.35	40837.67
534.52	40549.78
534.69	40601.27
534.86	40568.51
535.03	40350.84
535.20	40727.66
535.37	41167.68
535.54	41064.70
535.71	40402.33
535.88	40905.54
536.05	40430.41
536.22	40737.02
536.38	41184.07
536.55	41235.56
536.72	40980.44
536.89	40762.77
537.06	41099.81
537.23	40933.63
537.40	41013.21
537.57	41148.96
537.74	40968.74
537.91	41148.96
538.08	41345.56
538.25	41167.68
538.42	41181.73
538.59	41198.11
538.75	40587.23
538.92	41748.14
539.09	41294.07
539.26	41256.62
539.43	41383.01
539.60	41254.28
539.77	41560.89
539.94	41324.50
540.11	41347.90
540.28	41546.85
540.44	41551.53
540.61	41347.90
540.78	41588.98
540.95	41476.63
541.12	41544.51
541.29	41757.50
541.46	41764.52
541.62	41982.19
541.79	42396.46
541.96	41418.12
542.13	41720.05
542.30	42059.43
542.47	42384.76
542.63	42412.85
542.80	42000.91
542.97	42653.92
543.14	43023.73
543.31	42490.09
543.48	42614.13
543.64	42838.83
543.81	43140.75
543.98	43091.60
544.15	42850.53
544.32	43030.75
544.48	43306.93
544.65	43084.58
544.82	42703.07
544.99	42536.90
545.16	42962.87
545.32	42740.52
545.49	43510.56
545.66	43175.86
545.83	43814.83
546.00	43428.64
546.16	43381.83
546.33	43152.46
546.50	43040.11
546.67	43140.75
546.83	43342.04
547.00	43337.36
547.17	43014.37
547.34	43283.53
547.50	43491.83
547.67	43978.67
547.84	43730.57
548.00	43826.53
548.17	43985.69
548.34	43784.40
548.51	43807.81
548.67	43985.69
548.84	43536.30
549.01	43639.29
549.18	43896.75
549.34	44247.83
549.51	44135.48
549.68	44275.91
549.84	43861.64
550.01	44245.49
550.18	44095.69
550.34	44158.89
550.51	44130.80
550.68	44041.86
550.84	43573.75
551.01	44135.48
551.18	44072.29
551.34	43955.26
551.51	44458.48
551.68	44851.69
551.84	44542.74
552.01	44156.55
552.18	44573.16
552.34	44037.18
552.51	44179.95
552.68	44339.11
552.84	44498.26
553.01	44767.43
553.18	44439.75
553.34	44474.86
553.51	44814.24
553.67	44549.76
553.84	45090.42
554.01	44910.20
554.17	45085.74
554.34	44594.23
554.51	44790.83
554.67	44645.72
554.84	44582.52
555.00	44456.14
555.17	44844.66
555.33	45216.81
555.50	44861.05
555.67	44734.66
555.83	45195.74
556.00	44912.54
556.16	45254.26
556.33	44842.32
556.50	44772.11
556.66	44928.92
556.83	45017.86
556.99	45106.80
557.16	45184.04
557.32	45020.20
557.49	45333.84
557.65	44641.04
557.82	45359.58
557.98	45085.74
558.15	45373.63
558.32	45511.72
558.48	45029.57
558.65	44973.39
558.81	45144.25
558.98	44964.03
559.14	45235.53
559.31	45048.29
559.47	45537.46
559.64	45560.87
559.80	45275.32
559.97	45572.57
560.13	45469.59
560.30	45237.87
560.46	45408.73
560.63	45525.76
560.79	45612.36
560.96	45862.80
561.12	45682.58
561.29	45560.87
561.45	45441.50
561.61	45628.74
561.78	45670.87
561.94	45635.77
562.11	45287.03
562.27	45549.17
562.44	45612.36
562.60	45944.72
562.77	45617.04
562.93	45752.79
563.10	45614.70
563.26	45535.12
563.42	46309.84
563.59	45621.72
563.75	45815.99
563.92	45839.39
564.08	45874.50
564.24	46092.17
564.41	45855.78
564.57	45469.59
564.74	45600.66
564.90	45502.35
565.07	45722.37
565.23	45778.54
565.39	45818.33
565.56	45867.48
565.72	45895.56
565.88	45928.33
566.05	45551.51
566.21	45825.35
566.38	45612.36
566.54	45951.74
566.70	46068.76
566.87	46452.61
567.03	45951.74
567.19	46539.21
567.36	46031.32
567.52	45797.26
567.68	45832.37
567.85	46052.38
568.01	46178.77
568.17	45647.47
568.34	46138.98
568.50	45844.07
568.66	45783.22
568.83	46012.59
568.99	45713.00
569.15	45441.50
569.32	45827.69
569.48	45635.77
569.64	46167.07
569.81	46066.42
569.97	45841.73
570.13	45909.61
570.30	45734.07
570.46	45708.32
570.62	45778.54
570.78	45668.53
570.95	45546.82
571.11	46227.92
571.27	45851.09
571.43	46195.15
571.60	46012.59
571.76	45837.05
571.92	46169.41
572.09	46461.97
572.25	46038.34
572.41	45696.62
572.57	46286.43
572.74	46689.01
572.90	45610.02
573.06	45904.93
573.22	45916.63
573.38	46007.91
573.55	46155.36
573.71	46164.73
573.87	46256.01
574.03	45958.76
574.20	46134.30
574.36	45972.80
574.52	46036.00
574.68	46043.02
574.84	45698.96
575.01	46213.88
575.17	46291.12
575.33	45869.82
575.49	46211.54
575.65	45935.35
575.82	46344.95
575.98	46115.58
576.14	46340.27
576.30	46457.29
576.46	46096.85
576.62	45748.11
576.79	46043.02
576.95	45874.50
577.11	46197.49
577.27	46153.02
577.43	46274.73
577.59	46263.03
577.75	46347.29
577.92	45933.01
578.08	46000.89
578.24	45890.88
578.40	46096.85
578.56	46445.59
578.72	46494.74
578.88	46033.66
579.04	46237.28
579.21	45591.30
579.37	45923.65
579.53	45965.78
579.69	45422.78
579.85	45904.93
580.01	46597.73
580.17	46546.23
580.33	46351.97
580.49	46508.79
580.65	46291.12
580.82	46066.42
580.98	46181.11
581.14	46387.08
581.30	46471.34
581.46	46354.31
581.62	46508.79
581.78	46422.19
581.94	46719.43
582.10	46340.27
582.26	46735.82
582.42	46164.73
582.58	46433.89
582.74	46160.05
582.90	46239.62
583.06	46445.59
583.22	46763.90
583.38	46492.40
583.54	46855.18
583.70	46799.01
583.86	46518.15
584.02	46550.91
584.18	46658.58
584.34	46511.13
584.50	46335.59
584.66	45837.05
584.82	46057.06
584.98	46700.71
585.14	46370.69
585.30	46052.38
585.46	46536.87
585.62	46206.86
585.78	46258.35
585.94	46127.28
586.10	46270.05
586.26	45970.46
586.42	46536.87
586.58	46464.32
586.74	46417.50
586.90	46089.83
587.06	46272.39
587.22	46555.60
587.38	46251.33
587.54	46223.24
587.70	46043.02
587.86	46459.63
588.02	46260.69
588.18	46511.13
588.34	46260.69
588.49	46403.46
588.65	45200.43
588.81	45577.25
588.97	45808.96
589.13	45713.00
589.29	45949.40
589.45	46487.72
589.61	45815.99
589.77	46188.13
589.93	46637.51
590.08	46576.66
