SpectraSuite Data File
++++++++++++++++++++++++++++++++++++
Date: Fri Oct 25 11:34:25 EDT 2013
User: price-jones
Dark Spectrum Present: No
Reference Spectrum Present: No
Number of Sampled Component Spectra: 1
Spectrometers: USB2+H05261
Integration Time (usec): 100000 (USB2+H05261)
Spectra Averaged: 1 (USB2+H05261)
Boxcar Smoothing: 0 (USB2+H05261)
Correct for Electrical Dark: No (USB2+H05261)
Strobe/Lamp Enabled: No (USB2+H05261)
Correct for Detector Non-linearity: No (USB2+H05261)
Correct for Stray Light: No (USB2+H05261)
Number of Pixels in Processed Spectrum: 2048
>>>>>Begin Processed Spectral Data<<<<<
365.73	264.48
365.92	264.48
366.12	264.48
366.32	220.01
366.52	170.86
366.72	238.73
366.91	201.29
367.11	191.92
367.31	205.97
367.51	126.39
367.70	196.60
367.90	191.92
368.10	159.16
368.30	205.97
368.49	159.16
368.69	215.33
368.89	145.11
369.09	163.84
369.28	205.97
369.48	210.65
369.68	236.39
369.87	292.57
370.07	210.65
370.27	362.78
370.47	367.46
370.66	465.77
370.86	526.62
371.06	510.24
371.25	573.43
371.45	568.75
371.65	589.82
371.84	533.64
372.04	587.47
372.24	535.98
372.44	557.05
372.63	599.18
372.83	624.92
373.03	610.88
373.22	592.16
373.42	566.41
373.62	592.16
373.81	674.07
374.01	634.29
374.21	608.54
374.40	660.03
374.60	629.60
374.79	617.90
374.99	711.52
375.19	695.14
375.38	655.35
375.58	620.24
375.78	653.01
375.97	727.91
376.17	758.33
376.37	629.60
376.56	655.35
376.76	678.76
376.95	695.14
377.15	711.52
377.35	648.33
377.54	629.60
377.74	660.03
377.93	655.35
378.13	664.71
378.33	631.94
378.52	739.61
378.72	690.46
378.91	725.57
379.11	613.22
379.31	713.86
379.50	636.63
379.70	753.65
379.89	723.23
380.09	765.36
380.28	692.80
380.48	716.20
380.68	716.20
380.87	711.52
381.07	781.74
381.26	821.53
381.46	688.12
381.65	727.91
381.85	734.93
382.04	830.89
382.24	741.95
382.43	751.31
382.63	739.61
382.83	807.48
383.02	814.51
383.22	755.99
383.41	793.44
383.61	798.12
383.80	837.91
384.00	788.76
384.19	739.61
384.39	800.46
384.58	770.04
384.78	786.42
384.97	821.53
385.17	777.06
385.36	737.27
385.56	830.89
385.75	772.38
385.95	819.19
386.14	840.25
386.34	788.76
386.53	798.12
386.72	870.68
386.92	915.15
387.11	863.66
387.31	898.77
387.50	851.96
387.70	868.34
387.89	880.04
388.09	903.45
388.28	884.72
388.48	891.74
388.67	978.34
388.86	870.68
389.06	903.45
389.25	896.43
389.45	910.47
389.64	933.87
389.84	973.66
390.03	954.94
390.22	978.34
390.42	919.83
390.61	877.70
390.81	940.90
391.00	887.06
391.19	943.24
391.39	1071.97
391.58	971.32
391.78	950.26
391.97	1015.79
392.16	903.45
392.36	1095.37
392.55	1055.58
392.75	1069.62
392.94	987.71
393.13	1062.60
393.33	1067.28
393.52	1041.54
393.71	1057.92
393.91	1109.41
394.10	1027.50
394.29	1013.45
394.49	1057.92
394.68	1128.14
394.88	1111.75
395.07	1107.07
395.26	1100.05
395.46	1177.29
395.65	1158.57
395.84	1188.99
396.04	1184.31
396.23	1102.39
396.42	1177.29
396.62	1174.95
396.81	1249.85
397.00	1104.73
397.19	1170.27
397.39	1196.01
397.58	1205.38
397.77	1214.74
397.97	1252.19
398.16	1158.57
398.35	1188.99
398.55	1226.44
398.74	1284.95
398.93	1240.48
399.12	1364.53
399.32	1289.64
399.51	1317.72
399.70	1336.45
399.90	1299.00
400.09	1418.36
400.28	1343.47
400.47	1338.79
400.67	1357.51
400.86	1280.27
401.05	1341.13
401.24	1310.70
401.44	1448.79
401.63	1324.74
401.82	1401.98
402.01	1331.76
402.21	1394.96
402.40	1502.62
402.59	1500.28
402.78	1404.32
402.97	1516.67
403.17	1416.02
403.36	1453.47
403.55	1514.33
403.74	1626.67
403.93	1495.60
404.13	1479.22
404.32	1511.99
404.51	1526.03
404.70	1586.88
404.89	1561.14
405.09	1650.08
405.28	1586.88
405.47	1591.56
405.66	1582.20
405.85	1652.42
406.05	1783.49
406.24	1713.27
406.43	1727.32
406.62	1724.97
406.81	1832.64
407.00	1755.40
407.20	1762.42
407.39	1650.08
407.58	1792.85
407.77	1678.16
407.96	1872.43
408.15	1797.53
408.34	1813.92
408.54	1781.15
408.73	1867.75
408.92	1834.98
409.11	1893.49
409.30	1849.02
409.49	1956.69
409.68	1944.99
409.87	2019.88
410.07	2003.50
410.26	1839.66
410.45	1914.56
410.64	2059.67
410.83	1982.43
411.02	2017.54
411.21	2090.10
411.40	2165.00
411.59	2087.76
411.78	2139.25
411.98	2113.50
412.17	2134.57
412.36	2122.87
412.55	2321.81
412.74	2153.29
412.93	2242.23
413.12	2204.78
413.31	2422.45
413.50	2359.26
413.69	2319.47
413.88	2354.58
414.07	2326.49
414.26	2396.71
414.45	2401.39
414.64	2408.41
414.83	2516.08
415.02	2513.74
415.22	2609.70
415.41	2523.10
415.60	2574.59
415.79	2595.65
415.98	2544.16
416.17	2628.42
416.36	2586.29
416.55	2691.62
416.74	2492.67
416.93	2558.21
417.12	2693.96
417.31	2743.11
417.50	2796.94
417.69	2773.53
417.88	2843.75
418.07	2857.79
418.26	2848.43
418.45	2935.03
418.64	3019.29
418.83	2862.48
419.02	2902.26
419.21	3070.78
419.39	2935.03
419.58	2986.52
419.77	2951.42
419.96	3103.55
420.15	3129.30
420.34	3040.36
420.53	3103.55
420.72	2998.23
420.91	3185.47
421.10	3124.62
421.29	3272.07
421.48	3094.19
421.67	3096.53
421.86	3290.79
422.05	3274.41
422.24	3171.43
422.43	3248.66
422.61	3248.66
422.80	3396.12
422.99	3173.77
423.18	3213.56
423.37	3485.06
423.56	3243.98
423.75	3229.94
423.94	3150.36
424.13	3096.53
424.32	3173.77
424.50	3307.18
424.69	3344.63
424.88	3428.88
425.07	3375.05
425.26	3304.84
425.45	3361.01
425.64	3379.73
425.83	3353.99
426.01	3290.79
426.20	3494.42
426.39	3431.23
426.58	3227.60
426.77	3454.63
426.96	3412.50
427.15	3442.93
427.33	3520.17
427.52	3524.85
427.71	3538.89
427.90	3368.03
428.09	3384.41
428.28	3566.98
428.46	3482.72
428.65	3585.70
428.84	3695.71
429.03	3740.18
429.22	3471.01
429.40	3581.02
429.59	3597.40
429.78	3566.98
429.97	3454.63
430.16	3667.62
430.34	3719.11
430.53	3719.11
430.72	3684.00
430.91	3772.94
431.10	3686.34
431.28	3786.99
431.47	3920.40
431.66	3922.74
431.85	3747.20
432.03	3873.59
432.22	3850.18
432.41	3997.64
432.60	3871.25
432.79	3894.65
432.97	4065.51
433.16	3922.74
433.35	4014.02
433.54	3957.85
433.72	3988.27
433.91	4056.15
434.10	4105.30
434.28	3948.48
434.47	4035.08
434.66	3999.98
434.85	4124.02
435.03	4039.76
435.22	3997.64
435.41	4346.37
435.59	4198.92
435.78	4262.12
435.97	4329.99
436.16	4201.26
436.34	4208.28
436.53	4351.06
436.72	4219.99
436.90	4369.78
437.09	4374.46
437.28	4208.28
437.46	4414.25
437.65	4217.65
437.84	4444.68
438.02	4388.50
438.21	4409.57
438.40	4442.34
438.58	4561.70
438.77	4760.65
438.96	4519.57
439.14	4709.16
439.33	4643.62
439.52	4741.93
439.70	4798.10
439.89	4748.95
440.08	4898.74
440.26	4809.80
440.45	4746.61
440.63	4877.68
440.82	4795.76
441.01	4802.78
441.19	5074.28
441.38	5149.18
441.57	5090.67
441.75	5107.05
441.94	5050.88
442.12	5149.18
442.31	5282.59
442.50	5123.43
442.68	5231.10
442.87	5313.02
443.05	5207.69
443.24	5439.40
443.43	5305.99
443.61	5338.76
443.80	5404.30
443.98	5224.08
444.17	5039.17
444.35	5160.88
444.54	5493.24
444.73	5427.70
444.91	5497.92
445.10	5565.79
445.28	5509.62
445.47	5280.25
445.65	5357.49
445.84	5516.64
446.02	5563.45
446.21	5420.68
446.39	5462.81
446.58	5486.22
446.77	5446.43
446.95	5502.60
447.14	5563.45
447.32	5783.46
447.51	5544.73
447.69	5476.85
447.88	5303.65
448.06	5570.48
448.25	5518.98
448.43	5612.60
448.62	5551.75
448.80	5715.59
448.99	5692.18
449.17	5682.82
449.36	5687.50
449.54	5867.72
449.73	5827.93
449.91	5865.38
450.10	5816.23
450.28	5930.92
450.46	5930.92
450.65	5771.76
450.83	6019.86
451.02	5935.60
451.20	5900.49
451.39	5839.64
451.57	5900.49
451.76	5966.03
451.94	5930.92
452.13	6064.33
452.31	6113.48
452.49	6099.44
452.68	6078.37
452.86	6061.99
453.05	6214.12
453.23	6249.23
453.42	5949.64
453.60	6090.07
453.78	6164.97
453.97	6008.16
454.15	6181.35
454.34	6094.76
454.52	6153.27
454.70	6377.96
454.89	6265.61
455.07	6333.49
455.26	6401.37
455.44	6406.05
455.62	6415.41
455.81	6382.64
455.99	6661.16
456.17	6511.37
456.36	6537.12
456.54	6436.47
456.73	6637.76
456.91	6806.28
457.09	6768.83
457.28	6850.75
457.46	6651.80
457.64	6864.79
457.83	6724.36
458.01	6785.21
458.19	6991.18
458.38	6970.12
458.56	7016.93
458.74	6920.96
458.93	6759.47
459.11	7005.22
459.29	7014.59
459.48	7007.56
459.66	7042.67
459.84	7047.35
460.03	7124.59
460.21	7133.95
460.39	7084.80
460.57	7267.36
460.76	7094.16
460.94	7225.23
461.12	7300.13
461.31	7225.23
461.49	7171.40
461.67	7314.17
461.85	7414.82
462.04	7307.15
462.22	7777.60
462.40	7440.56
462.59	7428.86
462.77	7400.77
462.95	7613.76
463.13	7531.84
463.32	7442.90
463.50	7461.63
463.68	7847.82
463.86	7648.87
464.05	7545.89
464.23	7541.21
464.41	7536.52
464.59	7616.10
464.78	7782.28
464.96	7602.06
465.14	7524.82
465.32	7815.05
465.50	7793.98
465.69	7693.34
465.87	7815.05
466.05	7796.32
466.23	7960.16
466.41	7819.73
466.60	7948.46
466.78	7775.26
466.96	7789.30
467.14	7822.07
467.32	8086.55
467.51	8159.11
467.69	7770.58
467.87	7988.25
468.05	8053.78
468.23	7941.44
468.41	8074.85
468.60	8107.62
468.78	8198.90
468.96	8053.78
469.14	8259.75
469.32	8257.41
469.50	7962.50
469.69	8472.74
469.87	8446.99
470.05	8444.65
470.23	8393.16
470.41	8512.53
470.59	8545.30
470.77	8564.02
470.95	8414.23
471.14	8596.79
471.32	8407.20
471.50	8819.14
471.68	8484.44
471.86	8655.30
472.04	8950.21
472.22	8875.31
472.40	8709.13
472.58	8734.88
472.77	9081.28
472.95	9004.04
473.13	9235.75
473.31	8879.99
473.49	9008.72
473.67	9142.13
473.85	9050.85
474.03	9263.84
474.21	9238.09
474.39	9397.25
474.57	9507.26
474.75	9430.02
474.93	9638.33
475.12	9685.14
475.30	9568.11
475.48	9680.46
475.66	9816.21
475.84	9647.69
476.02	9940.26
476.20	9645.35
476.38	10022.17
476.56	9921.53
476.74	10181.33
476.92	10150.90
477.10	10024.51
477.28	10204.74
477.46	10324.10
477.64	10366.23
477.82	10420.06
478.00	10848.38
478.18	10707.95
478.36	10717.31
478.54	10897.53
478.72	10768.80
478.90	11056.69
479.08	11143.29
479.26	11236.91
479.44	11225.21
479.62	11410.11
479.80	11234.57
479.98	11353.94
480.16	11662.89
480.34	11611.40
480.52	11871.20
480.70	11985.88
480.88	11679.27
481.06	11922.69
481.24	11927.37
481.41	12166.10
481.59	12175.47
481.77	12400.16
481.95	12379.09
482.13	12416.54
482.31	12418.88
482.49	12835.50
482.67	12519.53
482.85	12788.69
483.03	12992.31
483.21	13427.65
483.39	13053.17
483.57	13240.41
483.74	13511.91
483.92	13514.25
484.10	13425.31
484.28	13804.48
484.46	13989.38
484.64	14078.32
484.82	14043.21
485.00	14111.09
485.18	14281.95
485.35	14361.53
485.53	14382.59
485.71	14349.82
485.89	14471.53
486.07	14766.44
486.25	14853.04
486.43	14902.19
486.61	15021.56
486.78	15295.40
486.96	15323.49
487.14	15707.34
487.32	15197.10
487.50	15805.64
487.68	15665.21
487.85	15939.05
488.03	16025.65
488.21	16119.27
488.39	16224.59
488.57	16271.40
488.75	16563.97
488.92	16620.14
489.10	16870.58
489.28	16671.64
489.46	17249.75
489.64	17064.85
489.81	17624.23
489.99	17530.61
490.17	17551.68
490.35	17706.15
490.53	17624.23
490.70	17647.64
490.88	18005.74
491.06	18228.09
491.24	17961.27
491.41	18405.97
491.59	18455.12
491.77	18429.38
491.95	18232.77
492.13	18930.25
492.30	19098.77
492.48	18721.95
492.66	18834.29
492.84	19253.25
493.01	19222.82
493.19	19428.79
493.37	19583.26
493.54	19543.47
493.72	19700.29
493.90	19510.71
494.08	19932.00
494.25	19950.73
494.43	19983.49
494.61	20208.19
494.79	20350.96
494.96	20350.96
495.14	20402.45
495.32	20849.49
495.49	20762.89
495.67	20915.03
495.85	21003.97
496.02	21443.99
496.20	21177.17
496.38	20915.03
496.55	21577.40
496.73	21766.98
496.91	21764.64
497.09	21680.38
497.26	21977.63
497.44	21713.15
497.62	22038.48
497.79	22403.61
497.97	22349.78
498.14	22759.37
498.32	22752.35
498.50	22508.93
498.67	22810.86
498.85	22888.10
499.03	22930.23
499.20	23138.54
499.38	23227.48
499.56	23419.40
499.73	23321.10
499.91	23744.73
500.08	23236.84
500.26	23576.22
500.44	23798.57
500.61	23819.63
500.79	23702.61
500.97	24074.75
501.14	24393.06
501.32	24109.86
501.49	24341.57
501.67	24393.06
501.84	24304.12
502.02	24776.91
502.20	24659.88
502.37	25020.33
502.55	24793.29
502.72	24547.54
502.90	24865.85
503.07	24624.78
503.25	24861.17
503.43	25060.12
503.60	25209.91
503.78	25090.54
503.95	25645.25
504.13	25373.75
504.30	25560.99
504.48	25900.37
504.65	25736.53
504.83	25647.59
505.01	26038.46
505.18	25858.24
505.36	26061.87
505.53	26024.42
505.71	26239.75
505.88	26401.24
506.06	26232.72
506.23	26661.04
506.41	26391.88
506.58	26693.81
506.76	26852.97
506.93	26614.23
507.11	26974.67
507.28	27061.27
507.46	27222.77
507.63	26850.63
507.81	27620.66
507.98	26745.30
508.16	27145.53
508.33	27536.40
508.50	27782.16
508.68	27080.00
508.85	27697.90
509.03	27641.73
509.20	27627.68
509.38	28170.69
509.55	28067.70
509.73	28025.57
509.90	28336.87
510.08	28217.50
510.25	28411.76
510.42	28222.18
510.60	28510.07
510.77	28889.23
510.95	28898.59
511.12	28577.94
511.30	28505.38
511.47	28755.82
511.64	28503.04
511.82	29048.39
511.99	29221.59
512.17	29291.80
512.34	29127.97
512.51	29465.00
512.69	29373.72
512.86	29486.07
513.04	29591.39
513.21	29607.78
513.38	29858.21
513.56	29989.28
513.73	29565.65
513.90	29989.28
514.08	29745.87
514.25	30237.38
514.43	30230.36
514.60	30635.27
514.77	30368.45
514.95	30455.05
515.12	30412.92
515.29	30635.27
515.47	30738.26
515.64	30433.99
515.81	30574.42
515.99	30902.09
516.16	31012.10
516.33	30862.30
516.51	31271.90
516.68	30974.65
516.85	31213.38
517.03	31227.43
517.20	31405.31
517.37	31161.89
517.54	31435.74
517.72	31400.63
517.89	31744.69
518.06	31789.16
518.24	31491.91
518.41	31667.45
518.58	31892.14
518.75	31838.31
518.93	31920.23
519.10	31503.61
519.27	31981.08
519.45	32168.32
519.62	32322.80
519.79	32329.82
519.96	32112.15
520.14	32304.07
520.31	32362.59
520.48	32517.06
520.65	32676.22
520.83	32954.74
521.00	32943.04
521.17	32341.52
521.34	33031.98
521.52	33006.23
521.69	33008.58
521.86	33202.84
522.03	33233.27
522.20	33500.09
522.38	33383.06
522.55	33743.50
522.72	33296.46
522.89	33593.71
523.07	33818.40
523.24	33834.78
523.41	33989.26
523.58	34127.35
523.75	33905.00
523.92	33689.67
524.10	34157.78
524.27	34403.53
524.44	34342.68
524.61	34010.32
524.78	34677.38
524.96	34639.93
525.13	34375.45
525.30	34415.24
525.47	34845.90
525.64	34497.16
525.81	34548.65
525.98	34817.81
526.16	34944.20
526.33	34710.14
526.50	35129.10
526.67	34698.44
526.84	35447.41
527.01	35028.46
527.18	35143.14
527.36	35136.12
527.53	35381.88
527.70	35747.00
527.87	35541.03
528.04	35220.38
528.21	35438.05
528.38	35573.80
528.55	35840.62
528.72	35335.07
528.89	35674.45
529.07	35615.93
529.24	35653.38
529.41	35938.93
529.58	35365.49
529.75	36198.73
529.92	35885.09
530.09	35857.01
530.26	36233.83
530.43	36194.04
530.60	35679.13
530.77	36261.92
530.94	36203.41
531.11	36355.54
531.28	36346.18
531.46	36350.86
531.63	36694.92
531.80	36210.43
531.97	36460.87
532.14	37036.64
532.31	36896.20
532.48	37062.38
532.65	37095.15
532.82	36823.65
532.99	36947.70
533.16	36877.48
533.33	36540.44
533.50	37233.24
533.67	37134.94
533.84	37020.25
534.01	37361.97
534.18	37598.37
534.35	38181.16
534.52	37640.50
534.69	37886.25
534.86	37399.42
535.03	37345.59
535.20	38078.18
535.37	37979.87
535.54	37876.89
535.71	37565.60
535.88	37928.38
536.05	37820.72
536.22	38220.95
536.38	38036.05
536.55	38052.43
536.72	38031.36
536.89	38188.18
537.06	38630.54
537.23	37977.53
537.40	38258.40
537.57	38014.98
537.74	38071.15
537.91	38401.17
538.08	38497.13
538.25	38293.50
538.42	38450.32
538.59	38602.46
538.75	38869.28
538.92	39283.55
539.09	39330.36
539.26	38789.70
539.43	39026.09
539.60	38607.14
539.77	38829.49
539.94	39005.03
540.11	38902.04
540.28	39196.95
540.44	39192.27
540.61	39154.82
540.78	39306.96
540.95	38813.10
541.12	38986.30
541.29	39192.27
541.46	39171.21
541.62	39108.01
541.79	39185.25
541.96	39098.65
542.13	39304.62
542.30	39395.90
542.47	39110.35
542.63	39447.39
542.80	40179.98
542.97	40245.51
543.14	40172.96
543.31	40013.80
543.48	40095.72
543.64	40760.43
543.81	40252.53
543.98	39988.05
544.15	39896.77
544.32	40353.18
544.48	40591.91
544.65	40517.01
544.82	40648.08
544.99	40446.80
545.16	40243.17
545.32	40371.90
545.49	40474.88
545.66	40842.35
545.83	41277.69
546.00	40933.63
546.16	41076.40
546.33	40605.95
546.50	40758.09
546.67	41167.68
546.83	40603.61
547.00	41289.39
547.17	40905.54
547.34	41062.36
547.50	41432.16
547.67	41256.62
547.84	41357.27
548.00	41448.55
548.17	41593.66
548.34	41619.41
548.51	41462.59
548.67	41764.52
548.84	41713.03
549.01	41102.15
549.18	41808.99
549.34	41722.39
549.51	41729.41
549.68	41455.57
549.84	41352.58
550.01	41741.11
550.18	41322.16
550.34	41701.32
550.51	41577.28
550.68	41951.76
550.84	41434.50
551.01	41954.10
551.18	41703.67
551.34	41998.57
551.51	41993.89
551.68	42340.29
551.84	42398.80
552.01	42190.50
552.18	42286.46
552.34	42033.68
552.51	42586.05
552.68	42265.39
552.84	42513.49
553.01	42686.69
553.18	42103.90
553.34	42394.12
553.51	42684.35
553.67	42920.74
553.84	42326.25
554.01	42597.75
554.17	42504.13
554.34	43267.14
554.51	42913.72
554.67	43056.50
554.84	42660.94
555.00	42724.14
555.17	43152.46
555.33	42721.80
555.50	42892.66
555.67	42520.51
555.83	42880.95
556.00	43445.02
556.16	43744.61
556.33	43449.70
556.50	43056.50
556.66	43030.75
556.83	43077.56
556.99	43241.40
557.16	43445.02
557.32	43414.60
557.49	43629.93
557.65	43222.67
557.82	43447.36
557.98	42969.90
558.15	43292.89
558.32	43070.54
558.48	43208.63
558.65	43173.52
558.81	43318.64
558.98	43611.20
559.14	43641.63
559.31	43412.26
559.47	43440.34
559.64	43512.90
559.80	43597.16
559.97	43894.41
560.13	43379.49
560.30	43349.06
560.46	44119.10
560.63	43985.69
560.79	43845.26
560.96	44128.46
561.12	43732.91
561.29	43746.95
561.45	43641.63
561.61	43988.03
561.78	43735.25
561.94	43957.60
562.11	43498.86
562.27	44006.75
562.44	43791.42
562.60	44032.50
562.77	43969.30
562.93	43882.70
563.10	44102.71
563.26	44083.99
563.42	44327.41
563.59	44067.61
563.75	43800.79
563.92	44062.93
564.08	43981.01
564.24	44083.99
564.41	44011.43
564.57	44161.23
564.74	44601.25
564.90	44065.27
565.07	44268.89
565.23	44554.44
565.39	44350.81
565.56	44378.90
565.72	44502.95
565.88	44299.32
566.05	44238.47
566.21	44753.38
566.38	44474.86
566.54	44158.89
566.70	44781.47
566.87	44645.72
567.03	44554.44
567.19	44868.07
567.36	44486.56
567.52	44355.49
567.68	44720.62
567.85	44437.41
568.01	44629.34
568.17	44788.49
568.34	44449.11
568.50	44910.20
568.66	44484.22
568.83	44479.54
568.99	44353.15
569.15	45132.55
569.32	44919.56
569.48	44634.02
569.64	45076.38
569.81	44973.39
569.97	44509.97
570.13	44933.60
570.30	44837.64
570.46	44818.92
570.62	44928.92
570.78	45008.50
570.95	44259.53
571.11	45422.78
571.27	44587.21
571.43	44456.14
571.60	45111.49
571.76	45090.42
571.92	45214.47
572.09	44828.28
572.25	44734.66
572.41	44821.26
572.57	44935.95
572.74	44861.05
572.90	45111.49
573.06	45275.32
573.22	44872.75
573.38	45228.51
573.55	44903.18
573.71	45317.45
573.87	45280.00
574.03	45104.46
574.20	45177.02
574.36	45095.10
574.52	45308.09
574.68	45375.97
574.84	45352.56
575.01	45881.52
575.17	45226.17
575.33	45165.32
575.49	45130.21
575.65	45382.99
575.82	45713.00
575.98	44947.65
576.14	44957.01
576.30	45401.71
576.46	45406.39
576.62	45350.22
576.79	45385.33
576.95	45170.00
577.11	44781.47
577.27	45153.62
577.43	45031.91
577.59	45221.49
577.75	44985.10
577.92	44903.18
578.08	45287.03
578.24	45509.38
578.40	45558.53
578.56	45666.19
578.72	45422.78
578.88	45340.86
579.04	45289.37
579.21	44987.44
579.37	44886.79
579.53	45289.37
579.69	45539.80
579.85	45275.32
580.01	45237.87
580.17	45521.08
580.33	45645.13
580.49	45535.12
580.65	45467.25
580.82	45254.26
580.98	45155.96
581.14	45177.02
581.30	45052.97
581.46	45511.72
581.62	45186.38
581.78	45195.74
581.94	45483.63
582.10	45481.29
582.26	45448.52
582.42	45769.18
582.58	45404.05
582.74	45380.65
582.90	45476.61
583.06	45167.66
583.22	45207.45
583.38	45546.82
583.54	45359.58
583.70	45263.62
583.86	45406.39
584.02	45382.99
584.18	45911.95
584.34	45654.49
584.50	45790.24
584.66	45469.59
584.82	45865.14
584.98	45832.37
585.14	45315.11
585.30	45191.06
585.46	45670.87
585.62	45174.68
585.78	45509.38
585.94	45392.35
586.10	45263.62
586.26	45397.03
586.42	45172.34
586.58	45610.02
586.74	45490.65
586.90	45331.50
587.06	45354.90
587.22	45382.99
587.38	45642.79
587.54	45745.77
587.70	46036.00
587.86	45720.02
588.02	45972.80
588.18	45794.92
588.34	45235.53
588.49	45855.78
588.65	45179.36
588.81	45453.20
588.97	45656.83
589.13	45736.41
589.29	45846.41
589.45	45659.17
589.61	46028.98
589.77	45745.77
589.93	45965.78
590.08	46471.34
