SpectraSuite Data File
++++++++++++++++++++++++++++++++++++
Date: Fri Oct 25 10:47:42 EDT 2013
User: price-jones
Dark Spectrum Present: No
Reference Spectrum Present: No
Number of Sampled Component Spectra: 1
Spectrometers: USB2+H05261
Integration Time (usec): 100000 (USB2+H05261)
Spectra Averaged: 1 (USB2+H05261)
Boxcar Smoothing: 0 (USB2+H05261)
Correct for Electrical Dark: No (USB2+H05261)
Strobe/Lamp Enabled: No (USB2+H05261)
Correct for Detector Non-linearity: No (USB2+H05261)
Correct for Stray Light: No (USB2+H05261)
Number of Pixels in Processed Spectrum: 2048
>>>>>Begin Processed Spectral Data<<<<<
365.73	170.86
365.92	170.86
366.12	170.86
366.32	35.11
366.52	28.09
366.72	42.13
366.91	0.00
367.11	14.04
367.31	105.32
367.51	88.94
367.70	53.83
367.90	49.15
368.10	65.54
368.30	0.00
368.49	7.02
368.69	58.51
368.89	60.85
369.09	63.19
369.28	28.09
369.48	58.51
369.68	147.45
369.87	91.28
370.07	77.24
370.27	177.88
370.47	175.54
370.66	318.31
370.86	358.10
371.06	430.66
371.25	505.56
371.45	437.68
371.65	503.22
371.84	442.36
372.04	393.21
372.24	418.96
372.44	479.81
372.63	470.45
372.83	500.87
373.03	533.64
373.22	540.66
373.42	526.62
373.62	545.34
373.81	524.28
374.01	538.32
374.21	589.82
374.40	561.73
374.60	512.58
374.79	514.92
374.99	561.73
375.19	557.05
375.38	500.87
375.58	566.41
375.78	578.11
375.97	580.45
376.17	690.46
376.37	559.39
376.56	617.90
376.76	627.26
376.95	540.66
377.15	582.79
377.35	603.86
377.54	641.31
377.74	674.07
377.93	643.65
378.13	582.79
378.33	578.11
378.52	580.45
378.72	657.69
378.91	629.60
379.11	641.31
379.31	653.01
379.50	655.35
379.70	660.03
379.89	617.90
380.09	690.46
380.28	657.69
380.48	638.97
380.68	709.18
380.87	592.16
381.07	683.44
381.26	718.54
381.46	681.10
381.65	690.46
381.85	739.61
382.04	706.84
382.24	704.50
382.43	608.54
382.63	695.14
382.83	690.46
383.02	718.54
383.22	678.76
383.41	622.58
383.61	688.12
383.80	744.29
384.00	723.23
384.19	758.33
384.39	716.20
384.58	713.86
384.78	763.01
384.97	753.65
385.17	802.80
385.36	812.17
385.56	631.94
385.75	732.59
385.95	823.87
386.14	816.85
386.34	753.65
386.53	725.57
386.72	763.01
386.92	884.72
387.11	809.83
387.31	774.72
387.50	737.27
387.70	830.89
387.89	784.08
388.09	830.89
388.28	784.08
388.48	802.80
388.67	912.81
388.86	842.59
389.06	889.40
389.25	877.70
389.45	870.68
389.64	954.94
389.84	896.43
390.03	905.79
390.22	926.85
390.42	905.79
390.61	964.30
390.81	851.96
391.00	828.55
391.19	983.02
391.39	1039.20
391.58	999.41
391.78	959.62
391.97	1004.09
392.16	992.39
392.36	1036.86
392.55	954.94
392.75	1034.52
392.94	968.98
393.13	929.19
393.33	997.07
393.52	978.34
393.71	1029.84
393.91	1015.79
394.10	1006.43
394.29	1015.79
394.49	1074.31
394.68	1123.46
394.88	1071.97
395.07	1076.65
395.26	1146.86
395.46	1146.86
395.65	1093.03
395.84	1104.73
396.04	1160.91
396.23	1078.99
396.42	1102.39
396.62	1151.54
396.81	1062.60
397.00	1193.67
397.19	1160.91
397.39	1263.89
397.58	1214.74
397.77	1235.80
397.97	1139.84
398.16	1179.63
398.35	1413.68
398.55	1310.70
398.74	1252.19
398.93	1390.28
399.12	1329.42
399.32	1320.06
399.51	1273.25
399.70	1397.30
399.90	1320.06
400.09	1376.24
400.28	1432.41
400.47	1401.98
400.67	1331.76
400.86	1404.32
401.05	1476.88
401.24	1472.20
401.44	1493.26
401.63	1533.05
401.82	1465.18
402.01	1476.88
402.21	1591.56
402.40	1462.83
402.59	1519.01
402.78	1469.86
402.97	1486.24
403.17	1561.14
403.36	1565.82
403.55	1629.01
403.74	1638.38
403.93	1577.52
404.13	1589.22
404.32	1600.93
404.51	1610.29
404.70	1682.85
404.89	1671.14
405.09	1673.48
405.28	1652.42
405.47	1680.50
405.66	1680.50
405.85	1746.04
406.05	1654.76
406.24	1856.04
406.43	1706.25
406.62	1820.94
406.81	1898.17
407.00	1853.70
407.20	1872.43
407.39	1795.19
407.58	1907.54
407.77	2003.50
407.96	2033.93
408.15	1975.41
408.34	2010.52
408.54	1973.07
408.73	1949.67
408.92	2017.54
409.11	2001.16
409.30	1982.43
409.49	2040.95
409.68	2057.33
409.87	2062.01
410.07	2059.67
410.26	2057.33
410.45	2120.53
410.64	2139.25
410.83	2134.57
411.02	2249.25
411.21	2230.53
411.40	2190.74
411.59	2225.85
411.78	2183.72
411.98	2207.13
412.17	2202.44
412.36	2317.13
412.55	2324.15
412.74	2424.80
412.93	2495.01
413.12	2385.01
413.31	2551.18
413.50	2476.29
413.69	2586.29
413.88	2511.39
414.07	2518.42
414.26	2567.57
414.45	2630.76
414.64	2644.81
414.83	2743.11
415.02	2661.19
415.22	2700.98
415.41	2710.34
415.60	2871.84
415.79	2724.38
415.98	2869.50
416.17	2705.66
416.36	2810.98
416.55	2871.84
416.74	2775.88
416.93	2871.84
417.12	2864.82
417.31	3009.93
417.50	2991.20
417.69	2956.10
417.88	3059.08
418.07	2986.52
418.26	2963.12
418.45	3059.08
418.64	3295.47
418.83	3204.19
419.02	3129.30
419.21	3185.47
419.39	3164.40
419.58	3162.06
419.77	3265.05
419.96	3183.13
420.15	3314.20
420.34	3265.05
420.53	3276.75
420.72	3398.46
420.91	3435.91
421.10	3321.22
421.29	3466.33
421.48	3262.71
421.67	3442.93
421.86	3375.05
422.05	3339.94
422.24	3370.37
422.43	3503.78
422.61	3452.29
422.80	3452.29
422.99	3534.21
423.18	3543.57
423.37	3449.95
423.56	3529.53
423.75	3379.73
423.94	3611.45
424.13	3353.99
424.32	3349.31
424.50	3644.21
424.69	3557.61
424.88	3726.13
425.07	3414.84
425.26	3463.99
425.45	3440.59
425.64	3510.80
425.83	3557.61
426.01	3538.89
426.20	3623.15
426.39	3328.24
426.58	3522.51
426.77	3599.74
426.96	3555.27
427.15	3517.83
427.33	3681.66
427.52	3646.55
427.71	3740.18
427.90	3632.51
428.09	3632.51
428.28	3545.91
428.46	3796.35
428.65	3784.65
428.84	3826.78
429.03	3911.04
429.22	3791.67
429.40	3829.12
429.59	3691.02
429.78	3672.30
429.97	3707.41
430.16	3728.47
430.34	3833.80
430.53	3899.33
430.72	3866.56
430.91	3768.26
431.10	3929.76
431.28	3962.53
431.47	4046.79
431.66	4112.32
431.85	3992.95
432.03	4135.73
432.22	4154.45
432.41	4170.83
432.60	4182.54
432.79	4224.67
432.97	4313.61
433.16	4114.66
433.35	4105.30
433.54	4264.46
433.72	4241.05
433.91	4131.05
434.10	4271.48
434.28	4322.97
434.47	4264.46
434.66	4334.67
434.85	4442.34
435.03	4531.28
435.22	4517.23
435.41	4610.86
435.59	4542.98
435.78	4442.34
435.97	4526.60
436.16	4650.64
436.34	4571.07
436.53	4540.64
436.72	4613.20
436.90	4479.79
437.09	4559.36
437.28	4503.19
437.46	4641.28
437.65	4660.01
437.84	4610.86
438.02	4695.11
438.21	4641.28
438.40	4638.94
438.58	4835.55
438.77	4931.51
438.96	4854.27
439.14	4973.64
439.33	5006.41
439.52	4922.15
439.70	4938.53
439.89	5008.75
440.08	5043.85
440.26	5158.54
440.45	5097.69
440.63	5093.01
440.82	5373.87
441.01	5310.68
441.19	5331.74
441.38	5408.98
441.57	5359.83
441.75	5509.62
441.94	5437.06
442.12	5411.32
442.31	5596.22
442.50	5544.73
442.68	5628.99
442.87	5717.93
443.05	5738.99
443.24	5624.31
443.43	5760.06
443.61	5626.65
443.80	5874.74
443.98	5699.20
444.17	5554.09
444.35	5778.78
444.54	5858.36
444.73	5715.59
444.91	5746.02
445.10	5743.67
445.28	5699.20
445.47	5799.85
445.65	5746.02
445.84	5867.72
446.02	5720.27
446.21	5809.21
446.39	5790.49
446.58	5841.98
446.77	5933.26
446.95	5650.05
447.14	5933.26
447.32	5961.34
447.51	5891.13
447.69	5806.87
447.88	6033.90
448.06	5895.81
448.25	6026.88
448.43	6066.67
448.62	5806.87
448.80	6012.84
448.99	5816.23
449.17	5959.00
449.36	6031.56
449.54	6083.05
449.73	6258.59
449.91	6279.66
450.10	6326.47
450.28	6352.21
450.46	6349.87
450.65	6370.94
450.83	6260.93
451.02	6331.15
451.20	6516.05
451.39	6518.39
451.57	6471.58
451.76	6300.72
451.94	6562.86
452.13	6516.05
452.31	6399.02
452.49	6387.32
452.68	6370.94
452.86	6555.84
453.05	6541.80
453.23	6590.95
453.42	6523.07
453.60	6502.01
453.78	6719.68
453.97	6602.65
454.15	6616.69
454.34	6530.09
454.52	6548.82
454.70	6684.57
454.89	6731.38
455.07	6778.19
455.26	6937.35
455.44	6942.03
455.62	6857.77
455.81	6977.14
455.99	6897.56
456.17	6829.68
456.36	7019.27
456.54	7000.54
456.73	7023.95
456.91	7213.53
457.09	7087.14
457.28	7075.44
457.46	7119.91
457.64	7098.84
457.83	7180.76
458.01	7145.66
458.19	7253.32
458.38	7143.32
458.56	7382.05
458.74	7323.54
458.93	7262.68
459.11	7424.18
459.29	7562.27
459.48	7417.16
459.66	7449.93
459.84	7508.44
460.03	7590.36
460.21	7456.95
460.39	7611.42
460.57	7555.25
460.76	7733.13
460.94	7606.74
461.12	7669.94
461.31	7716.75
461.49	7691.00
461.67	7541.21
461.85	7887.61
462.04	7604.40
462.22	8336.99
462.40	8109.96
462.59	8037.40
462.77	7918.03
462.95	7798.66
463.13	8091.23
463.32	7822.07
463.50	8037.40
463.68	8037.40
463.86	7985.91
464.05	7850.16
464.23	7831.43
464.41	8053.78
464.59	7875.90
464.78	8332.31
464.96	7969.52
465.14	8191.88
465.32	8241.03
465.50	8116.98
465.69	8552.32
465.87	8180.17
466.05	8411.89
466.23	8241.03
466.41	8301.88
466.60	8456.36
466.78	8107.62
466.96	8262.09
467.14	8362.73
467.32	8320.60
467.51	8446.99
467.69	8365.07
467.87	8329.97
468.05	8678.71
468.23	8561.68
468.41	8636.58
468.60	8496.14
468.78	8519.55
468.96	8500.83
469.14	8566.36
469.32	8746.58
469.50	8477.42
469.69	8638.92
469.87	8887.01
470.05	8809.78
470.23	8950.21
470.41	8807.44
470.59	8919.78
470.77	9121.07
470.95	8938.51
471.14	9179.58
471.32	8875.31
471.50	9266.18
471.68	9310.65
471.86	9053.19
472.04	9121.07
472.22	9380.87
472.40	9392.57
472.58	9413.63
472.77	9434.70
472.95	9458.10
473.13	9783.44
473.31	9455.76
473.49	9455.76
473.67	9554.07
473.85	9750.67
474.03	9858.34
474.21	9783.44
474.39	10059.62
474.57	9853.66
474.75	9963.66
474.93	9877.06
475.12	10040.90
475.30	10061.96
475.48	10038.56
475.66	10139.20
475.84	10153.24
476.02	10164.95
476.20	10200.05
476.38	10403.68
476.56	10649.44
476.74	10565.18
476.92	10642.42
477.10	10569.86
477.28	10846.04
477.46	10714.97
477.64	10869.45
477.82	11197.12
478.00	11222.87
478.18	11351.60
478.36	11393.73
478.54	11295.43
478.72	11714.38
478.90	11599.70
479.08	11564.59
479.26	11742.47
479.44	11758.85
479.62	11941.41
479.80	12114.61
479.98	12002.27
480.16	12334.62
480.34	11988.22
480.52	12348.67
480.70	12416.54
480.88	12135.68
481.06	12418.88
481.24	12432.93
481.41	12755.92
481.59	13060.19
481.77	12947.84
481.95	12905.71
482.13	13252.11
482.31	13076.57
482.49	13247.43
482.67	13305.95
482.85	13366.80
483.03	13666.39
483.21	13657.03
483.39	13947.25
483.57	13984.70
483.74	13916.83
483.92	14148.54
484.10	14242.16
484.28	14209.39
484.46	14497.28
484.64	14855.38
484.82	14614.30
485.00	14658.78
485.18	14778.14
485.35	15000.49
485.53	15026.24
485.71	14958.36
485.89	15112.84
486.07	15211.14
486.25	15407.75
486.43	15302.42
486.61	15658.18
486.78	16184.80
486.96	15639.46
487.14	16004.58
487.32	16320.56
487.50	16449.28
487.68	16627.17
487.85	16758.24
488.03	16783.98
488.21	16702.06
488.39	17022.72
488.57	16826.11
488.75	17324.65
488.92	17280.18
489.10	17500.19
489.28	17490.82
489.46	17804.46
489.64	18043.19
489.81	18200.01
489.99	18459.81
490.17	18295.97
490.35	18457.46
490.53	18396.61
490.70	18567.47
490.88	18689.18
491.06	18764.07
491.24	18691.52
491.41	18939.62
491.59	18843.65
491.77	18817.91
491.95	19248.57
492.13	19344.53
492.30	19756.46
492.48	19536.45
492.66	19800.93
492.84	19887.53
493.01	19817.32
493.19	19833.70
493.37	20414.15
493.54	20233.93
493.72	20442.24
493.90	20741.83
494.08	20971.20
494.25	20879.92
494.43	21181.85
494.61	21364.41
494.79	21326.96
494.96	21289.51
495.14	21146.74
495.32	21582.08
495.49	21748.26
495.67	21642.93
495.85	21869.97
496.02	21839.54
496.20	22349.78
496.38	22071.25
496.55	22340.41
496.73	23124.49
496.91	22476.16
497.09	22721.92
497.26	22771.07
497.44	22724.26
497.62	23042.57
497.79	23166.62
497.97	22824.90
498.14	23190.03
498.32	23541.11
498.50	23414.72
498.67	23843.04
498.85	23901.55
499.03	24177.73
499.20	24011.56
499.38	24060.71
499.56	24151.99
499.73	23824.31
499.91	24056.03
500.08	24341.57
500.26	24470.30
500.44	24620.10
500.61	24505.41
500.79	24854.15
500.97	24861.17
501.14	24975.86
501.32	25078.84
501.49	24973.52
501.67	25282.47
501.84	25188.85
502.02	25209.91
502.20	25624.18
502.37	25549.29
502.55	25216.93
502.72	25500.14
502.90	25659.29
503.07	25631.21
503.25	25809.09
503.43	25940.16
503.60	26143.78
503.78	26260.81
503.95	26279.54
504.13	25905.05
504.30	26684.45
504.48	26185.91
504.65	26326.35
504.83	26305.28
505.01	26586.15
505.18	26558.06
505.36	26817.86
505.53	26991.06
505.71	27360.86
505.88	27194.68
506.06	26785.09
506.23	27372.57
506.41	27370.22
506.58	27246.18
506.76	27255.54
506.93	27667.47
507.11	27529.38
507.28	27587.89
507.46	27484.91
507.63	27761.09
507.81	28039.62
507.98	27740.03
508.16	28205.80
508.33	28126.22
508.50	28409.42
508.68	28374.31
508.85	28439.85
509.03	28418.78
509.20	28566.24
509.38	28961.79
509.55	29277.76
509.73	29032.00
509.90	28968.81
510.08	29106.90
510.25	29219.25
510.42	29160.73
510.60	29343.30
510.77	29350.32
510.95	29586.71
511.12	29605.44
511.30	29687.36
511.47	29687.36
511.64	29769.27
511.82	29979.92
511.99	29736.51
512.17	29771.61
512.34	29837.15
512.51	30555.69
512.69	29998.65
512.86	30305.26
513.04	30340.36
513.21	30242.06
513.38	30539.31
513.56	30480.80
513.73	30511.22
513.90	30958.27
514.08	30668.04
514.25	30602.50
514.43	30749.96
514.60	30834.22
514.77	31021.46
514.95	31257.85
515.12	31201.68
515.29	31255.51
515.47	31604.25
515.64	31646.38
515.81	31026.14
515.99	31498.93
516.16	31494.25
516.33	31185.30
516.51	31747.03
516.68	31386.58
516.85	31751.71
517.03	31494.25
517.20	31672.13
517.37	31728.30
517.54	32161.30
517.72	32142.58
517.89	31903.84
518.06	32409.40
518.24	32032.57
518.41	31922.57
518.58	32091.09
518.75	32018.53
518.93	32463.23
519.10	32533.45
519.27	32608.34
519.45	32872.82
519.62	32835.38
519.79	32849.42
519.96	32727.71
520.14	33041.34
520.31	32975.81
520.48	33017.94
520.65	32961.76
520.83	33553.92
521.00	33188.80
521.17	33516.47
521.34	33727.12
521.52	33853.51
521.69	33928.41
521.86	33612.43
522.03	33656.90
522.20	33902.66
522.38	33933.09
522.55	34225.65
522.72	33780.95
522.89	33736.48
523.07	34015.01
523.24	33914.36
523.41	33900.32
523.58	34115.65
523.75	34754.61
523.92	34333.32
524.10	34979.31
524.27	34749.93
524.44	34649.29
524.61	34712.49
524.78	35196.98
524.96	34852.92
525.13	35292.94
525.30	35482.52
525.47	35353.79
525.64	35199.32
525.81	35255.49
525.98	34983.99
526.16	35276.55
526.33	34909.09
526.50	35344.43
526.67	35295.28
526.84	35182.93
527.01	35178.25
527.18	35168.89
527.36	35730.62
527.53	35831.26
527.70	36074.68
527.87	36264.26
528.04	35857.01
528.21	35641.68
528.38	35571.46
528.55	35941.27
528.72	35929.56
528.89	36479.59
529.07	36404.69
529.24	36392.99
529.41	36634.06
529.58	36601.30
529.75	36137.87
529.92	36065.31
530.09	36254.90
530.26	37020.25
530.43	36802.58
530.60	36528.74
530.77	36748.75
530.94	37181.75
531.11	36989.83
531.28	36854.08
531.46	36507.68
531.63	37167.71
531.80	36861.10
531.97	37191.11
532.14	37071.75
532.31	36947.70
532.48	37109.19
532.65	37624.11
532.82	37481.34
532.99	37378.36
533.16	37240.26
533.33	37635.81
533.50	37610.07
533.67	37565.60
533.84	37249.63
534.01	37865.19
534.18	37359.63
534.35	37837.10
534.52	37886.25
534.69	38110.94
534.86	37996.26
535.03	37961.15
535.20	37874.55
535.37	38382.45
535.54	38574.37
535.71	38103.92
535.88	38213.93
536.05	38124.99
536.22	38513.52
536.38	38565.01
536.55	38321.59
536.72	38340.32
536.89	38426.92
537.06	38359.04
537.23	38607.14
537.40	38223.29
537.57	38342.66
537.74	38625.86
537.91	39147.80
538.08	39171.21
538.25	38712.46
538.42	39049.50
538.59	39014.39
538.75	38501.81
538.92	39037.80
539.09	39271.85
539.26	39225.04
539.43	39098.65
539.60	38927.79
539.77	38911.41
539.94	39363.13
540.11	39105.67
540.28	39065.88
540.44	38831.83
540.61	39419.30
540.78	39035.45
540.95	39255.46
541.12	39531.65
541.29	39002.69
541.46	39049.50
541.62	39452.07
541.79	39842.94
541.96	39442.71
542.13	39395.90
542.30	40144.87
542.47	39992.73
542.63	39391.22
542.80	39934.22
542.97	40495.95
543.14	39805.49
543.31	40610.64
543.48	40446.80
543.64	40762.77
543.81	40287.64
543.98	40610.64
544.15	39959.97
544.32	40720.64
544.48	40917.25
544.65	40856.39
544.82	40189.34
544.99	40502.97
545.16	40498.29
545.32	40343.81
545.49	40655.11
545.66	40697.24
545.83	40868.09
546.00	41120.87
546.16	40854.05
546.33	40652.76
546.50	40346.15
546.67	40999.16
546.83	40505.31
547.00	41020.23
547.17	41289.39
547.34	40835.33
547.50	41354.93
547.67	41319.82
547.84	41024.91
548.00	41537.49
548.17	41476.63
548.34	41326.84
548.51	41469.61
548.67	41556.21
548.84	41546.85
549.01	41240.24
549.18	41240.24
549.34	41471.95
549.51	41233.22
549.68	41680.26
549.84	41663.88
550.01	41869.84
550.18	41888.57
550.34	41572.60
550.51	41942.40
550.68	41635.79
550.84	41799.63
551.01	41823.03
551.18	41909.63
551.34	41617.07
551.51	42162.41
551.68	41940.06
551.84	41752.82
552.01	42080.49
552.18	42241.99
552.34	41916.65
552.51	42220.92
552.68	41853.46
552.84	42113.26
553.01	42700.73
553.18	41975.17
553.34	41907.29
553.51	42129.64
553.67	42321.57
553.84	42625.84
554.01	42487.74
554.17	42834.14
554.34	42520.51
554.51	42602.43
554.67	43143.09
554.84	42829.46
555.00	42330.93
555.17	42312.20
555.33	42682.01
555.50	42869.25
555.67	43110.33
555.83	42653.92
556.00	42679.67
556.16	42892.66
556.33	42672.65
556.50	42586.05
556.66	42653.92
556.83	42969.90
556.99	43136.07
557.16	43000.32
557.32	43173.52
557.49	42824.78
557.65	42588.39
557.82	42880.95
557.98	42815.42
558.15	42890.32
558.32	43358.42
558.48	42731.16
558.65	43145.44
558.81	42733.50
558.98	42632.86
559.14	42981.60
559.31	43208.63
559.47	42927.77
559.64	43416.94
559.80	43744.61
559.97	43559.71
560.13	43185.22
560.30	43456.73
560.46	43082.24
560.63	43550.35
560.79	43117.35
560.96	43498.86
561.12	43480.13
561.29	43342.04
561.45	43580.78
561.61	43253.10
561.78	43423.96
561.94	43405.23
562.11	43461.41
562.27	43550.35
562.44	43349.06
562.60	43791.42
562.77	43700.14
562.93	43641.63
563.10	43562.05
563.26	43454.39
563.42	43463.75
563.59	43075.22
563.75	43358.42
563.92	43728.23
564.08	43709.50
564.24	43688.44
564.41	43353.74
564.57	43613.54
564.74	44161.23
564.90	43711.84
565.07	43718.87
565.23	43559.71
565.39	43239.06
565.56	43903.77
565.72	43772.70
565.88	44364.85
566.05	43653.33
566.21	43761.00
566.38	43604.18
566.54	43587.80
566.70	43819.51
566.87	44301.66
567.03	44306.34
567.19	43824.19
567.36	44037.18
567.52	43831.21
567.68	44191.65
567.85	43753.97
568.01	43966.96
568.17	43761.00
568.34	43978.67
568.50	43742.27
568.66	43765.68
568.83	44023.14
568.99	43775.04
569.15	43662.69
569.32	43924.83
569.48	44126.12
569.64	44362.51
569.81	44252.51
569.97	44032.50
570.13	44149.53
570.30	43997.39
570.46	43634.61
570.62	44048.88
570.78	43636.95
570.95	43908.45
571.11	43906.11
571.27	43791.42
571.43	44186.97
571.60	44465.50
571.76	44191.65
571.92	44037.18
572.09	43889.73
572.25	44226.76
572.41	43973.98
572.57	44041.86
572.74	44739.34
572.90	44451.45
573.06	44259.53
573.22	43913.13
573.38	44142.50
573.55	43917.81
573.71	44514.65
573.87	43824.19
574.03	44100.37
574.20	44226.76
574.36	44320.38
574.52	44275.91
574.68	44615.29
574.84	45001.48
575.01	43931.86
575.17	43964.62
575.33	44247.83
575.49	44243.15
575.65	44706.57
575.82	44657.42
575.98	44406.98
576.14	44765.09
576.30	44741.68
576.46	43810.15
576.62	43786.74
576.79	44596.57
576.95	44093.35
577.11	44060.58
577.27	44521.67
577.43	44491.24
577.59	44467.84
577.75	44528.69
577.92	44144.84
578.08	44341.45
578.24	44287.62
578.40	44299.32
578.56	44638.70
578.72	44261.87
578.88	44587.21
579.04	44205.70
579.21	44224.42
579.37	44376.56
579.53	44737.00
579.69	44304.00
579.85	44350.81
580.01	44549.76
580.17	44390.60
580.33	44842.32
580.49	44659.76
580.65	44205.70
580.82	44811.90
580.98	44289.96
581.14	44287.62
581.30	44811.90
581.46	44800.19
581.62	44423.37
581.78	44252.51
581.94	44767.43
582.10	44430.39
582.26	44690.19
582.42	44446.77
582.58	44835.30
582.74	44437.41
582.90	44734.66
583.06	44765.09
583.22	44769.77
583.38	44790.83
583.54	44526.35
583.70	44301.66
583.86	44430.39
584.02	44350.81
584.18	44793.17
584.34	44191.65
584.50	44940.63
584.66	44186.97
584.82	44327.41
584.98	44884.45
585.14	44816.58
585.30	44116.76
585.46	44615.29
585.62	44231.44
585.78	44254.85
585.94	44194.00
586.10	44545.08
586.26	44465.50
586.42	44634.02
586.58	44322.72
586.74	44577.84
586.90	44704.23
587.06	44257.19
587.22	44547.42
587.38	44247.83
587.54	44765.09
587.70	44421.03
587.86	44449.11
588.02	44807.22
588.18	45415.76
588.34	44516.99
588.49	44641.04
588.65	43952.92
588.81	44306.34
588.97	44126.12
589.13	44385.92
589.29	44769.77
589.45	44615.29
589.61	44392.94
589.77	45006.16
589.93	45057.65
590.08	44603.59
590.24	44615.29
