SpectraSuite Data File
++++++++++++++++++++++++++++++++++++
Date: Fri Oct 25 11:34:33 EDT 2013
User: price-jones
Dark Spectrum Present: No
Reference Spectrum Present: No
Number of Sampled Component Spectra: 1
Spectrometers: USB2+H05261
Integration Time (usec): 100000 (USB2+H05261)
Spectra Averaged: 1 (USB2+H05261)
Boxcar Smoothing: 0 (USB2+H05261)
Correct for Electrical Dark: No (USB2+H05261)
Strobe/Lamp Enabled: No (USB2+H05261)
Correct for Detector Non-linearity: No (USB2+H05261)
Correct for Stray Light: No (USB2+H05261)
Number of Pixels in Processed Spectrum: 2048
>>>>>Begin Processed Spectral Data<<<<<
365.73	304.27
365.92	304.27
366.12	304.27
366.32	208.31
366.52	215.33
366.72	191.92
366.91	177.88
367.11	182.56
367.31	163.84
367.51	201.29
367.70	205.97
367.90	170.86
368.10	149.79
368.30	175.54
368.49	180.22
368.69	266.82
368.89	182.56
369.09	184.90
369.28	177.88
369.48	182.56
369.68	234.05
369.87	231.71
370.07	243.42
370.27	229.37
370.47	287.89
370.66	463.43
370.86	491.51
371.06	582.79
371.25	489.17
371.45	552.37
371.65	519.60
371.84	540.66
372.04	491.51
372.24	552.37
372.44	526.62
372.63	557.05
372.83	554.71
373.03	601.52
373.22	587.47
373.42	622.58
373.62	578.11
373.81	573.43
374.01	601.52
374.21	727.91
374.40	627.26
374.60	601.52
374.79	692.80
374.99	627.26
375.19	643.65
375.38	723.23
375.58	660.03
375.78	674.07
375.97	690.46
376.17	723.23
376.37	702.16
376.56	575.77
376.76	674.07
376.95	657.69
377.15	601.52
377.35	695.14
377.54	561.73
377.74	653.01
377.93	657.69
378.13	688.12
378.33	681.10
378.52	704.50
378.72	725.57
378.91	645.99
379.11	669.39
379.31	671.73
379.50	681.10
379.70	697.48
379.89	676.41
380.09	704.50
380.28	795.78
380.48	763.01
380.68	788.76
380.87	683.44
381.07	716.20
381.26	737.27
381.46	791.10
381.65	830.89
381.85	748.97
382.04	730.25
382.24	741.95
382.43	739.61
382.63	816.85
382.83	739.61
383.02	753.65
383.22	875.36
383.41	755.99
383.61	812.17
383.80	793.44
384.00	795.78
384.19	774.72
384.39	828.55
384.58	798.12
384.78	898.77
384.97	777.06
385.17	875.36
385.36	842.59
385.56	840.25
385.75	770.04
385.95	830.89
386.14	819.19
386.34	816.85
386.53	812.17
386.72	774.72
386.92	863.66
387.11	891.74
387.31	896.43
387.50	882.38
387.70	863.66
387.89	866.00
388.09	873.02
388.28	828.55
388.48	805.14
388.67	922.17
388.86	954.94
389.06	933.87
389.25	917.49
389.45	894.08
389.64	994.73
389.84	964.30
390.03	973.66
390.22	940.90
390.42	971.32
390.61	950.26
390.81	1053.24
391.00	990.05
391.19	997.07
391.39	959.62
391.58	1001.75
391.78	964.30
391.97	964.30
392.16	1015.79
392.36	1015.79
392.55	1008.77
392.75	992.39
392.94	952.60
393.13	990.05
393.33	992.39
393.52	1036.86
393.71	1121.12
393.91	1029.84
394.10	1043.88
394.29	1086.01
394.49	1001.75
394.68	1046.22
394.88	997.07
395.07	1074.31
395.26	1146.86
395.46	1020.47
395.65	1102.39
395.84	1114.10
396.04	1123.46
396.23	1151.54
396.42	1193.67
396.62	1205.38
396.81	1219.42
397.00	1226.44
397.19	1114.10
397.39	1228.78
397.58	1245.16
397.77	1165.59
397.97	1135.16
398.16	1231.12
398.35	1203.04
398.55	1245.16
398.74	1392.62
398.93	1252.19
399.12	1191.33
399.32	1205.38
399.51	1315.38
399.70	1308.36
399.90	1371.55
400.09	1282.61
400.28	1409.00
400.47	1235.80
400.67	1387.94
400.86	1322.40
401.05	1357.51
401.24	1423.05
401.44	1345.81
401.63	1448.79
401.82	1446.45
402.01	1413.68
402.21	1409.00
402.40	1390.28
402.59	1453.47
402.78	1493.26
402.97	1565.82
403.17	1521.35
403.36	1446.45
403.55	1483.90
403.74	1586.88
403.93	1430.07
404.13	1497.94
404.32	1444.11
404.51	1535.39
404.70	1542.41
404.89	1523.69
405.09	1631.35
405.28	1600.93
405.47	1582.20
405.66	1638.38
405.85	1666.46
406.05	1678.16
406.24	1680.50
406.43	1696.89
406.62	1727.32
406.81	1736.68
407.00	1629.01
407.20	1795.19
407.39	1659.44
407.58	1776.47
407.77	1832.64
407.96	1837.32
408.15	1926.26
408.34	1813.92
408.54	1827.96
408.73	1748.38
408.92	1811.57
409.11	1954.35
409.30	1865.41
409.49	1865.41
409.68	1963.71
409.87	1865.41
410.07	2024.56
410.26	1947.33
410.45	1942.64
410.64	1919.24
410.83	2108.82
411.02	2038.61
411.21	2071.37
411.40	2150.95
411.59	2181.38
411.78	2029.24
411.98	2078.40
412.17	2087.76
412.36	2150.95
412.55	2260.96
412.74	2284.36
412.93	2249.25
413.12	2150.95
413.31	2305.43
413.50	2237.55
413.69	2251.60
413.88	2373.30
414.07	2312.45
414.26	2305.43
414.45	2413.09
414.64	2464.58
414.83	2480.97
415.02	2527.78
415.22	2539.48
415.41	2616.72
415.60	2558.21
415.79	2602.68
415.98	2567.57
416.17	2583.95
416.36	2630.76
416.55	2619.06
416.74	2789.92
416.93	2600.34
417.12	2740.77
417.31	2712.68
417.50	2708.00
417.69	2881.20
417.88	2841.41
418.07	2794.60
418.26	2846.09
418.45	2892.90
418.64	2937.37
418.83	2862.48
419.02	2981.84
419.21	2993.55
419.39	2991.20
419.58	2979.50
419.77	2913.97
419.96	3014.61
420.15	2986.52
420.34	2981.84
420.53	2963.12
420.72	3155.04
420.91	3126.96
421.10	3028.65
421.29	3183.13
421.48	3131.64
421.67	3045.04
421.86	3110.57
422.05	3122.27
422.24	3119.93
422.43	3180.79
422.61	3375.05
422.80	3314.20
422.99	3201.85
423.18	3255.69
423.37	3251.00
423.56	3304.84
423.75	3222.92
423.94	3157.38
424.13	3117.59
424.32	3260.37
424.50	3358.67
424.69	3363.35
424.88	3471.01
425.07	3386.76
425.26	3279.09
425.45	3309.52
425.64	3248.66
425.83	3377.39
426.01	3377.39
426.20	3375.05
426.39	3311.86
426.58	3267.39
426.77	3302.50
426.96	3300.16
427.15	3400.80
427.33	3368.03
427.52	3325.90
427.71	3557.61
427.90	3473.36
428.09	3452.29
428.28	3485.06
428.46	3578.68
428.65	3487.40
428.84	3646.55
429.03	3611.45
429.22	3630.17
429.40	3627.83
429.59	3655.92
429.78	3433.57
429.97	3428.88
430.16	3599.74
430.34	3770.60
430.53	3602.08
430.72	3747.20
430.91	3623.15
431.10	3714.43
431.28	3709.75
431.47	3695.71
431.66	3796.35
431.85	3782.31
432.03	3777.62
432.22	4021.04
432.41	3896.99
432.60	3922.74
432.79	3915.72
432.97	3868.91
433.16	3941.46
433.35	3789.33
433.54	3964.87
433.72	4004.66
433.91	4032.74
434.10	4077.21
434.28	4032.74
434.47	4175.52
434.66	4084.23
434.85	4030.40
435.03	4149.77
435.22	4140.41
435.41	4294.88
435.59	4215.30
435.78	4060.83
435.97	4294.88
436.16	4128.70
436.34	4133.39
436.53	4294.88
436.72	4292.54
436.90	4229.35
437.09	4287.86
437.28	4383.82
437.46	4276.16
437.65	4306.59
437.84	4341.69
438.02	4430.63
438.21	4484.47
438.40	4432.97
438.58	4557.02
438.77	4519.57
438.96	4393.19
439.14	4585.11
439.33	4751.29
439.52	4650.64
439.70	4608.51
439.89	4751.29
440.08	4683.41
440.26	4807.46
440.45	4800.44
440.63	4933.85
440.82	4933.85
441.01	4830.87
441.19	5078.96
441.38	4964.28
441.57	5144.50
441.75	5074.28
441.94	5235.78
442.12	5163.22
442.31	5200.67
442.50	5093.01
442.68	5102.37
442.87	5046.20
443.05	5093.01
443.24	5317.70
443.43	5284.93
443.61	5352.81
443.80	5359.83
443.98	5153.86
444.17	5015.77
444.35	5336.42
444.54	5451.11
444.73	5458.13
444.91	5423.02
445.10	5465.15
445.28	5327.06
445.47	5238.12
445.65	5430.04
445.84	5458.13
446.02	5465.15
446.21	5371.53
446.39	5343.44
446.58	5486.22
446.77	5586.86
446.95	5359.83
447.14	5418.34
447.32	5507.28
447.51	5345.78
447.69	5355.15
447.88	5542.39
448.06	5526.00
448.25	5493.24
448.43	5582.18
448.62	5518.98
448.80	5633.67
448.99	5591.54
449.17	5673.46
449.36	5584.52
449.54	5598.56
449.73	5809.21
449.91	5795.17
450.10	5687.50
450.28	5731.97
450.46	5841.98
450.65	5942.62
450.83	5823.25
451.02	5879.43
451.20	5949.64
451.39	5905.17
451.57	6015.18
451.76	5792.83
451.94	6057.31
452.13	6052.63
452.31	5877.09
452.49	5865.38
452.68	6171.99
452.86	6090.07
453.05	6120.50
453.23	6036.24
453.42	6120.50
453.60	6019.86
453.78	6022.20
453.97	6024.54
454.15	6113.48
454.34	5963.68
454.52	6380.30
454.70	6253.91
454.89	6239.87
455.07	6504.35
455.26	6218.80
455.44	6401.37
455.62	6244.55
455.81	6324.13
455.99	6490.31
456.17	6384.98
456.36	6553.50
456.54	6548.82
456.73	6665.85
456.91	6637.76
457.09	6675.21
457.28	6689.25
457.46	6628.40
457.64	6637.76
457.83	6796.92
458.01	6527.75
458.19	6857.77
458.38	6665.85
458.56	6729.04
458.74	6789.89
458.93	6897.56
459.11	6878.83
459.29	6696.27
459.48	6911.60
459.66	6958.41
459.84	6988.84
460.03	7091.82
460.21	7033.31
460.39	7082.46
460.57	7138.63
460.76	7148.00
460.94	7122.25
461.12	7070.76
461.31	7232.26
461.49	7162.04
461.67	7129.27
461.85	7293.11
462.04	7398.43
462.22	7676.96
462.40	7426.52
462.59	7384.39
462.77	7321.20
462.95	7449.93
463.13	7288.43
463.32	7405.46
463.50	7400.77
463.68	7445.24
463.86	7625.47
464.05	7384.39
464.23	7470.99
464.41	7609.08
464.59	7396.09
464.78	7770.58
464.96	7538.87
465.14	7468.65
465.32	7637.17
465.50	7864.20
465.69	7873.56
465.87	7880.58
466.05	7775.26
466.23	7859.52
466.41	7791.64
466.60	7908.67
466.78	7653.55
466.96	7903.99
467.14	7765.90
467.32	7751.85
467.51	7896.97
467.69	7887.61
467.87	7922.71
468.05	8105.28
468.23	7840.79
468.41	8039.74
468.60	7960.16
468.78	8081.87
468.96	7857.18
469.14	8208.26
469.32	8109.96
469.50	8025.70
469.69	8393.16
469.87	8379.12
470.05	8318.26
470.23	8325.29
470.41	8500.83
470.59	8554.66
470.77	8449.33
470.95	8390.82
471.14	8521.89
471.32	8498.49
471.50	8517.21
471.68	8706.79
471.86	8683.39
472.04	8868.29
472.22	9001.70
472.40	8688.07
472.58	8915.10
472.77	8877.65
472.95	8837.86
473.13	9202.99
473.31	9121.07
473.49	8856.59
473.67	8919.78
473.85	9149.15
474.03	9376.19
474.21	9104.68
474.39	9483.85
474.57	9348.10
474.75	9076.60
474.93	9533.00
475.12	9240.44
475.30	9383.21
475.48	9584.49
475.66	9713.22
475.84	9568.11
476.02	9844.29
476.20	9858.34
476.38	10118.14
476.56	10113.45
476.74	9858.34
476.92	10024.51
477.10	9958.98
477.28	10256.23
477.46	10263.25
477.64	10298.36
477.82	10588.58
478.00	10626.03
478.18	10590.92
478.36	10878.81
478.54	10878.81
478.72	11019.24
478.90	10974.77
479.08	11040.31
479.26	11279.04
479.44	11101.16
479.62	11108.18
479.80	11279.04
479.98	11365.64
480.16	11667.57
480.34	11508.41
480.52	11566.93
480.70	11700.34
480.88	11555.22
481.06	11639.48
481.24	11946.09
481.41	12191.85
481.59	12208.23
481.77	12163.76
481.95	12163.76
482.13	12519.53
482.31	12369.73
482.49	12674.00
482.67	12641.23
482.85	12933.80
483.03	12973.59
483.21	12781.67
483.39	13303.60
483.57	13121.04
483.74	13437.02
483.92	13212.32
484.10	13224.03
484.28	13488.51
484.46	13781.07
484.64	13919.17
484.82	13722.56
485.00	13792.78
485.18	14047.90
485.35	14340.46
485.53	14263.22
485.71	14099.39
485.89	14696.22
486.07	14532.39
486.25	14649.41
486.43	14626.01
486.61	15101.14
486.78	15035.60
486.96	15318.81
487.14	15337.53
487.32	15204.12
487.50	15571.58
487.68	15374.98
487.85	15805.64
488.03	16128.63
488.21	16177.78
488.39	16222.25
488.57	16219.91
488.75	16245.66
488.92	16585.04
489.10	16755.90
489.28	16802.71
489.46	16985.27
489.64	16896.33
489.81	17453.37
489.99	17139.74
490.17	17287.20
490.35	17439.33
490.53	17771.69
490.70	17827.86
490.88	17865.31
491.06	18033.83
491.24	17923.82
491.41	18101.70
491.59	18501.93
491.77	18317.03
491.95	18139.15
492.13	18511.30
492.30	18579.17
492.48	18817.91
492.66	18677.48
492.84	18609.60
493.01	19147.92
493.19	19412.40
493.37	19501.34
493.54	19391.34
493.72	19452.19
493.90	19531.77
494.08	20210.53
494.25	20034.99
494.43	20009.24
494.61	19857.10
494.79	20262.02
494.96	20367.34
495.14	20315.85
495.32	20695.02
495.49	20596.71
495.67	20755.87
495.85	20734.81
496.02	21338.66
496.20	21240.36
496.38	21092.91
496.55	21422.92
496.73	21792.73
496.91	21371.43
497.09	21921.46
497.26	21741.24
497.44	22031.46
497.62	21928.48
497.79	22670.43
497.97	22349.78
498.14	22295.94
498.32	22288.92
498.50	22710.22
498.67	22822.56
498.85	22569.79
499.03	22937.25
499.20	22806.18
499.38	23150.24
499.56	22988.74
499.73	23192.37
499.91	23524.72
500.08	23606.64
500.26	23335.14
500.44	23688.56
500.61	23665.16
500.79	23103.43
500.97	23861.76
501.14	24107.52
501.32	24016.24
501.49	23812.61
501.67	24308.80
501.84	24437.53
502.02	24030.28
502.20	24088.79
502.37	24128.58
502.55	24472.64
502.72	24659.88
502.90	24795.64
503.07	24528.81
503.25	24655.20
503.43	24566.26
503.60	25209.91
503.78	25043.73
503.95	24919.68
504.13	25392.47
504.30	25350.34
504.48	25645.25
504.65	25324.60
504.83	25783.34
505.01	25413.54
505.18	25860.58
505.36	26043.14
505.53	25928.45
505.71	25783.34
505.88	26242.09
506.06	25935.48
506.23	26342.73
506.41	26082.93
506.58	26272.51
506.76	26419.97
506.93	26843.60
507.11	26625.93
507.28	26801.47
507.46	26696.15
507.63	27042.55
507.81	26951.27
507.98	26939.57
508.16	27012.12
508.33	27028.51
508.50	27194.68
508.68	27407.67
508.85	27517.68
509.03	27634.71
509.20	27716.62
509.38	27798.54
509.55	28112.17
509.73	27981.10
509.90	27742.37
510.08	27798.54
510.25	28371.97
510.42	28582.62
510.60	28032.60
510.77	28552.20
510.95	28809.65
511.12	28388.36
511.30	28517.09
511.47	28474.96
511.64	28847.10
511.82	28893.91
511.99	28891.57
512.17	28819.02
512.34	29074.13
512.51	29607.78
512.69	29305.85
512.86	29102.22
513.04	29474.37
513.21	29366.70
513.38	29516.50
513.56	29701.40
513.73	29631.18
513.90	29631.18
514.08	29333.93
514.25	30031.41
514.43	29799.70
514.60	30132.06
514.77	30204.61
514.95	29982.26
515.12	30148.44
515.29	30075.88
515.47	30342.70
515.64	30352.07
515.81	30539.31
515.99	30782.73
516.16	31016.78
516.33	30448.03
516.51	30490.16
516.68	30700.81
516.85	30787.41
517.03	31051.89
517.20	31075.29
517.37	31037.84
517.54	31171.25
517.72	31234.45
517.89	31363.18
518.06	31461.48
518.24	31197.00
518.41	31503.61
518.58	31225.09
518.75	31519.99
518.93	31892.14
519.10	31857.03
519.27	31782.13
519.45	31398.29
519.62	32098.11
519.79	31852.35
519.96	32196.41
520.14	31999.80
520.31	31920.23
520.48	32187.05
520.65	32254.92
520.83	32671.54
521.00	32603.66
521.17	32767.50
521.34	32517.06
521.52	32540.47
521.69	32788.56
521.86	32706.65
522.03	33076.45
522.20	33282.42
522.38	33177.09
522.55	32863.46
522.72	33362.00
522.89	33406.47
523.07	33436.89
523.24	33589.03
523.41	33479.02
523.58	33610.09
523.75	33766.91
523.92	33846.49
524.10	33729.46
524.27	33989.26
524.44	34309.91
524.61	34092.24
524.78	34199.91
524.96	34426.94
525.13	34270.12
525.30	34543.97
525.47	34377.79
525.64	34019.69
525.81	34558.01
525.98	34951.22
526.16	34733.55
526.33	34036.07
526.50	34696.10
526.67	34609.50
526.84	34953.56
527.01	34902.07
527.18	34796.74
527.36	34707.80
527.53	35065.91
527.70	35505.93
527.87	35175.91
528.04	34787.38
528.21	35194.64
528.38	35529.33
528.55	35590.19
528.72	35206.34
528.89	35505.93
529.07	35391.24
529.24	35147.82
529.41	36184.68
529.58	35477.84
529.75	35416.99
529.92	35835.94
530.09	35782.11
530.26	36205.75
530.43	35959.99
530.60	35910.84
530.77	35791.47
530.94	36037.23
531.11	35835.94
531.28	36395.33
531.46	36428.10
531.63	35936.59
531.80	36568.53
531.97	36369.58
532.14	36594.28
532.31	36435.12
532.48	36699.60
532.65	36755.77
532.82	36481.93
532.99	37104.51
533.16	36699.60
533.33	37109.19
533.50	37036.64
533.67	36662.15
533.84	36498.31
534.01	37020.25
534.18	37216.86
534.35	37387.72
534.52	37514.11
534.69	37415.80
534.86	37364.31
535.03	37357.29
535.20	37963.49
535.37	37408.78
535.54	37474.32
535.71	37308.14
535.88	38183.50
536.05	37680.28
536.22	37984.55
536.38	37837.10
536.55	37986.89
536.72	37446.23
536.89	37516.45
537.06	38047.75
537.23	38029.02
537.40	38103.92
537.57	37694.33
537.74	38099.24
537.91	38342.66
538.08	37848.80
538.25	37963.49
538.42	38014.98
538.59	38696.08
538.75	38122.65
538.92	38436.28
539.09	38569.69
539.26	38789.70
539.43	38574.37
539.60	38754.59
539.77	38700.76
539.94	38969.92
540.11	38794.38
540.28	38810.76
540.44	38663.31
540.61	38590.75
540.78	38953.54
540.95	38916.09
541.12	38941.83
541.29	38553.30
541.46	39044.82
541.62	39119.71
541.79	39103.33
541.96	39110.35
542.13	39119.71
542.30	39096.31
542.47	39246.10
542.63	39746.98
542.80	39510.58
542.97	39655.70
543.14	40072.31
543.31	39782.09
543.48	39798.47
543.64	40620.00
543.81	39901.45
543.98	39941.24
544.15	39791.45
544.32	39791.45
544.48	40414.03
544.65	40282.96
544.82	40493.61
544.99	40051.25
545.16	40236.15
545.32	40481.91
545.49	40278.28
545.66	40636.38
545.83	40259.55
546.00	40804.90
546.16	40524.04
546.33	40346.15
546.50	40165.93
546.67	40917.25
546.83	40247.85
547.00	40470.20
547.17	40383.60
547.34	40493.61
547.50	40765.11
547.67	41280.03
547.84	40964.06
548.00	40762.77
548.17	41514.08
548.34	41188.75
548.51	41085.76
548.67	41317.48
548.84	41212.15
549.01	41193.43
549.18	41137.26
549.34	41687.28
549.51	41539.83
549.68	41383.01
549.84	41312.80
550.01	41521.10
550.18	41074.06
550.34	41572.60
550.51	41776.22
550.68	41823.03
550.84	41226.20
551.01	41612.38
551.18	41593.66
551.34	41469.61
551.51	41947.08
551.68	41951.76
551.84	41586.64
552.01	41710.69
552.18	42057.09
552.34	41874.52
552.51	42052.41
552.68	41684.94
552.84	41614.72
553.01	41937.72
553.18	41642.81
553.34	42300.50
553.51	42384.76
553.67	42237.31
553.84	42340.29
554.01	42272.42
554.17	42270.08
554.34	42396.46
554.51	42555.62
554.67	42417.53
554.84	42714.78
555.00	42742.86
555.17	42674.99
555.33	42995.64
555.50	42263.05
555.67	42799.04
555.83	42728.82
556.00	42595.41
556.16	43318.64
556.33	42927.77
556.50	42560.30
556.66	42864.57
556.83	42349.65
556.99	42707.76
557.16	42632.86
557.32	43044.79
557.49	42691.37
557.65	42827.12
557.82	42628.18
557.98	42934.79
558.15	43210.97
558.32	43234.38
558.48	42747.54
558.65	42770.95
558.81	42951.17
558.98	42602.43
559.14	42946.49
559.31	42920.74
559.47	43283.53
559.64	43089.26
559.80	43585.46
559.97	43438.00
560.13	43115.01
560.30	43140.75
560.46	43257.78
560.63	43503.54
560.79	43749.29
560.96	43445.02
561.12	43643.97
561.29	43538.65
561.45	43938.88
561.61	43349.06
561.78	43278.85
561.94	43903.77
562.11	44023.14
562.27	43622.90
562.44	43480.13
562.60	43498.86
562.77	43924.83
562.93	43416.94
563.10	44027.82
563.26	43503.54
563.42	44034.84
563.59	43849.94
563.75	43592.48
563.92	43639.29
564.08	43793.76
564.24	43782.06
564.41	43892.07
564.57	44165.91
564.74	43721.21
564.90	43592.48
565.07	44065.27
565.23	44179.95
565.39	44196.34
565.56	43903.77
565.72	44203.36
565.88	43714.19
566.05	43746.95
566.21	44119.10
566.38	44210.38
566.54	43976.33
566.70	44142.50
566.87	44116.76
567.03	43531.62
567.19	44243.15
567.36	44041.86
567.52	43613.54
567.68	44339.11
567.85	44477.20
568.01	44257.19
568.17	43915.47
568.34	44271.23
568.50	44390.60
568.66	43629.93
568.83	44336.77
568.99	44109.74
569.15	44315.70
569.32	43917.81
569.48	44622.31
569.64	44584.86
569.81	44641.04
569.97	44240.81
570.13	44652.74
570.30	44364.85
570.46	44512.31
570.62	44486.56
570.78	44713.59
570.95	44514.65
571.11	44788.49
571.27	44582.52
571.43	44598.91
571.60	44423.37
571.76	43969.30
571.92	44664.44
572.09	44472.52
572.25	44273.57
572.41	44350.81
572.57	44657.42
572.74	44769.77
572.90	44488.90
573.06	44692.53
573.22	44432.73
573.38	44832.96
573.55	44762.75
573.71	45076.38
573.87	45064.67
574.03	44727.64
574.20	44935.95
574.36	45088.08
574.52	44575.50
574.68	44570.82
574.84	44751.04
575.01	45043.61
575.17	45045.95
575.33	44481.88
575.49	44582.52
575.65	45179.36
575.82	45095.10
575.98	44308.68
576.14	45015.52
576.30	44889.13
576.46	44655.08
576.62	45055.31
576.79	44835.30
576.95	44582.52
577.11	44959.35
577.27	44900.84
577.43	45312.77
577.59	44858.71
577.75	44762.75
577.92	44367.20
578.08	44776.79
578.24	44935.95
578.40	45467.25
578.56	45277.66
578.72	44650.40
578.88	45172.34
579.04	44790.83
579.21	44444.43
579.37	45134.89
579.53	45272.98
579.69	44842.32
579.85	44886.79
580.01	44928.92
580.17	44722.96
580.33	45226.17
580.49	45221.49
580.65	44804.88
580.82	45160.64
580.98	45123.19
581.14	45123.19
581.30	45158.30
581.46	44666.78
581.62	45017.86
581.78	44917.22
581.94	45219.15
582.10	45160.64
582.26	44837.64
582.42	45118.51
582.58	45240.21
582.74	44875.09
582.90	45600.66
583.06	44877.43
583.22	45017.86
583.38	45659.17
583.54	45659.17
583.70	45373.63
583.86	45336.18
584.02	45036.59
584.18	45305.75
584.34	45324.47
584.50	45366.60
584.66	45516.40
584.82	45162.98
584.98	45357.24
585.14	45055.31
585.30	45193.40
585.46	45324.47
585.62	44971.05
585.78	45289.37
585.94	44959.35
586.10	45289.37
586.26	44755.72
586.42	45113.83
586.58	45577.25
586.74	44896.16
586.90	45261.28
587.06	45151.27
587.22	45425.12
587.38	45195.74
587.54	45614.70
587.70	45593.64
587.86	45390.01
588.02	45233.19
588.18	44996.80
588.34	45198.09
588.49	45139.57
588.65	45078.72
588.81	45345.54
588.97	45560.87
589.13	45361.92
589.29	45310.43
589.45	45705.98
589.61	45294.05
589.77	45635.77
589.93	45162.98
590.08	45394.69
