SpectraSuite Data File
++++++++++++++++++++++++++++++++++++
Date: Fri Oct 25 11:23:26 EDT 2013
User: price-jones
Dark Spectrum Present: No
Reference Spectrum Present: No
Number of Sampled Component Spectra: 1
Spectrometers: USB2+H05261
Integration Time (usec): 100000 (USB2+H05261)
Spectra Averaged: 1 (USB2+H05261)
Boxcar Smoothing: 0 (USB2+H05261)
Correct for Electrical Dark: No (USB2+H05261)
Strobe/Lamp Enabled: No (USB2+H05261)
Correct for Detector Non-linearity: No (USB2+H05261)
Correct for Stray Light: No (USB2+H05261)
Number of Pixels in Processed Spectrum: 2048
>>>>>Begin Processed Spectral Data<<<<<
365.73	205.97
365.92	205.97
366.12	205.97
366.32	140.43
366.52	173.20
366.72	154.48
366.91	149.79
367.11	194.26
367.31	112.35
367.51	166.18
367.70	84.26
367.90	159.16
368.10	182.56
368.30	135.75
368.49	126.39
368.69	159.16
368.89	138.09
369.09	91.28
369.28	147.45
369.48	170.86
369.68	152.13
369.87	198.95
370.07	154.48
370.27	229.37
370.47	355.76
370.66	589.82
370.86	620.24
371.06	660.03
371.25	681.10
371.45	718.54
371.65	739.61
371.84	648.33
372.04	681.10
372.24	645.99
372.44	720.88
372.63	758.33
372.83	723.23
373.03	823.87
373.22	763.01
373.42	751.31
373.62	763.01
373.81	697.48
374.01	868.34
374.21	823.87
374.40	779.40
374.60	868.34
374.79	814.51
374.99	760.67
375.19	821.53
375.38	777.06
375.58	858.98
375.78	866.00
375.97	842.59
376.17	898.77
376.37	884.72
376.56	889.40
376.76	875.36
376.95	877.70
377.15	917.49
377.35	858.98
377.54	917.49
377.74	798.12
377.93	994.73
378.13	926.85
378.33	945.58
378.52	880.04
378.72	933.87
378.91	964.30
379.11	924.51
379.31	889.40
379.50	901.11
379.70	959.62
379.89	976.00
380.09	947.92
380.28	901.11
380.48	884.72
380.68	957.28
380.87	931.53
381.07	973.66
381.26	976.00
381.46	992.39
381.65	905.79
381.85	1064.94
382.04	992.39
382.24	1121.12
382.43	1062.60
382.63	1083.67
382.83	1128.14
383.02	1090.69
383.22	1165.59
383.41	1116.44
383.61	1020.47
383.80	1123.46
384.00	1076.65
384.19	1205.38
384.39	1210.06
384.58	1181.97
384.78	1151.54
384.97	1146.86
385.17	1163.25
385.36	1205.38
385.56	1107.07
385.75	1135.16
385.95	1191.33
386.14	1261.55
386.34	1193.67
386.53	1231.12
386.72	1186.65
386.92	1254.53
387.11	1137.50
387.31	1294.32
387.50	1275.59
387.70	1221.76
387.89	1261.55
388.09	1315.38
388.28	1228.78
388.48	1303.68
388.67	1238.14
388.86	1355.17
389.06	1334.11
389.25	1345.81
389.45	1390.28
389.64	1287.29
389.84	1327.08
390.03	1397.30
390.22	1409.00
390.42	1322.40
390.61	1284.95
390.81	1401.98
391.00	1453.47
391.19	1465.18
391.39	1479.22
391.58	1397.30
391.78	1507.30
391.97	1467.52
392.16	1446.45
392.36	1540.07
392.55	1469.86
392.75	1460.49
392.94	1617.31
393.13	1570.50
393.33	1502.62
393.52	1542.41
393.71	1605.61
393.91	1542.41
394.10	1535.39
394.29	1591.56
394.49	1537.73
394.68	1636.03
394.88	1596.25
395.07	1614.97
395.26	1614.97
395.46	1570.50
395.65	1720.29
395.84	1771.79
396.04	1811.57
396.23	1689.87
396.42	1750.72
396.62	1769.44
396.81	1865.41
397.00	1771.79
397.19	1769.44
397.39	1701.57
397.58	1823.28
397.77	1830.30
397.97	1849.02
398.16	1849.02
398.35	1919.24
398.55	1867.75
398.74	1898.17
398.93	1980.09
399.12	1970.73
399.32	1888.81
399.51	1884.13
399.70	2017.54
399.90	1893.49
400.09	2036.27
400.28	2148.61
400.47	2022.22
400.67	2099.46
400.86	2015.20
401.05	1944.99
401.24	2080.74
401.44	2099.46
401.63	2216.49
401.82	2193.08
402.01	2172.02
402.21	2218.83
402.40	2195.42
402.59	2188.40
402.78	2303.09
402.97	2186.06
403.17	2228.19
403.36	2197.76
403.55	2277.34
403.74	2270.32
403.93	2317.13
404.13	2307.77
404.32	2401.39
404.51	2349.90
404.70	2464.58
404.89	2387.35
405.09	2436.50
405.28	2569.91
405.47	2487.99
405.66	2506.71
405.85	2469.27
406.05	2518.42
406.24	2499.69
406.43	2476.29
406.62	2619.06
406.81	2597.99
407.00	2523.10
407.20	2539.48
407.39	2651.83
407.58	2670.55
407.77	2724.38
407.96	2743.11
408.15	2679.91
408.34	2750.13
408.54	2883.54
408.73	2766.51
408.92	2780.56
409.11	2960.78
409.30	2911.63
409.49	2904.60
409.68	2855.45
409.87	2965.46
410.07	3068.44
410.26	2993.55
410.45	3021.63
410.64	3075.46
410.83	3002.91
411.02	3028.65
411.21	3197.17
411.40	3162.06
411.59	3145.68
411.78	3157.38
411.98	3248.66
412.17	3251.00
412.36	3283.77
412.55	3370.37
412.74	3389.10
412.93	3492.08
413.12	3398.46
413.31	3609.11
413.50	3405.48
413.69	3552.93
413.88	3679.32
414.07	3644.21
414.26	3637.19
414.45	3630.17
414.64	3583.36
414.83	3721.45
415.02	3854.86
415.22	3808.05
415.41	3964.87
415.60	3770.60
415.79	3896.99
415.98	3997.64
416.17	3999.98
416.36	4030.40
416.55	4086.58
416.74	4189.56
416.93	3995.29
417.12	4187.22
417.31	4203.60
417.50	4227.01
417.69	4397.87
417.88	4355.74
418.07	4245.73
418.26	4124.02
418.45	4290.20
418.64	4535.96
418.83	4444.68
419.02	4344.03
419.21	4475.10
419.39	4568.73
419.58	4514.89
419.77	4395.53
419.96	4479.79
420.15	4376.80
420.34	4505.53
420.53	4606.17
420.72	4702.14
420.91	4795.76
421.10	4805.12
421.29	4791.08
421.48	4718.52
421.67	4727.88
421.86	4795.76
422.05	4791.08
422.24	5015.77
422.43	4990.02
422.61	5008.75
422.80	4896.40
422.99	4910.44
423.18	5001.72
423.37	5006.41
423.56	5039.17
423.75	5107.05
423.94	4842.57
424.13	4559.36
424.32	4812.14
424.50	5179.61
424.69	4990.02
424.88	5078.96
425.07	4943.21
425.26	4901.08
425.45	5135.14
425.64	5013.43
425.83	5064.92
426.01	5100.03
426.20	5109.39
426.39	5015.77
426.58	5001.72
426.77	5132.79
426.96	5004.07
427.15	5067.26
427.33	5060.24
427.52	5210.03
427.71	5322.38
427.90	5266.21
428.09	5235.78
428.28	5376.21
428.46	5446.43
428.65	5324.72
428.84	5526.00
429.03	5448.77
429.22	5411.32
429.40	5516.64
429.59	5486.22
429.78	5383.23
429.97	5390.25
430.16	5586.86
430.34	5565.79
430.53	5717.93
430.72	5582.18
430.91	5682.82
431.10	5535.37
431.28	5886.45
431.47	5781.12
431.66	5839.64
431.85	5809.21
432.03	5954.32
432.22	6106.46
432.41	5933.26
432.60	5921.56
432.79	6038.58
432.97	6050.28
433.16	5886.45
433.35	6036.24
433.54	5930.92
433.72	6181.35
433.91	6193.06
434.10	6249.23
434.28	6057.31
434.47	6303.06
434.66	6115.82
434.85	6204.76
435.03	6298.38
435.22	6214.12
435.41	6314.77
435.59	6319.45
435.78	6274.98
435.97	6492.65
436.16	6539.46
436.34	6429.45
436.53	6537.12
436.72	6600.31
436.90	6370.94
437.09	6686.91
437.28	6565.20
437.46	6593.29
437.65	6654.14
437.84	6766.49
438.02	6649.46
438.21	6916.28
438.40	6761.81
438.58	7040.33
438.77	7012.24
438.96	7063.74
439.14	7105.87
439.33	7169.06
439.52	7204.17
439.70	7300.13
439.89	7517.80
440.08	7442.90
440.26	7520.14
440.45	7470.99
440.63	7602.06
440.82	7538.87
441.01	7442.90
441.19	7765.90
441.38	7644.19
441.57	7749.51
441.75	7957.82
441.94	7854.84
442.12	7948.46
442.31	7927.39
442.50	8013.99
442.68	8224.64
442.87	8091.23
443.05	8322.94
443.24	8191.88
443.43	8177.83
443.61	8152.09
443.80	8421.25
443.98	8042.08
444.17	7885.26
444.35	8042.08
444.54	8262.09
444.73	8283.16
444.91	8365.07
445.10	8329.97
445.28	8388.48
445.47	8259.75
445.65	8304.22
445.84	8578.06
446.02	8662.32
446.21	8688.07
446.39	8360.39
446.58	8575.72
446.77	8643.60
446.95	8463.38
447.14	8421.25
447.32	8503.17
447.51	8376.78
447.69	8723.18
447.88	8526.57
448.06	8582.74
448.25	8463.38
448.43	8608.49
448.62	8510.19
448.80	8549.98
448.99	8669.34
449.17	8535.93
449.36	8575.72
449.54	8777.01
449.73	8870.63
449.91	8929.14
450.10	8987.66
450.28	9060.21
450.46	9217.03
450.65	8915.10
450.83	9046.17
451.02	9172.56
451.20	9336.40
451.39	9032.13
451.57	9153.84
451.76	9029.79
451.94	9205.33
452.13	9423.00
452.31	9273.20
452.49	9170.22
452.68	9444.06
452.86	9549.39
453.05	9500.23
453.23	9654.71
453.42	9207.67
453.60	9502.58
453.78	9535.34
453.97	9362.14
454.15	9472.15
454.34	9383.21
454.52	9643.01
454.70	9692.16
454.89	10008.13
455.07	9743.65
455.26	10054.94
455.44	9961.32
455.62	9724.93
455.81	9919.19
455.99	9921.53
456.17	9930.89
456.36	10480.92
456.54	10104.09
456.73	10193.03
456.91	10469.22
457.09	10431.77
457.28	10609.65
457.46	10340.49
457.64	10490.28
457.83	10665.82
458.01	10401.34
458.19	10771.15
458.38	10656.46
458.56	10876.47
458.74	10614.33
458.93	10855.40
459.11	10808.59
459.29	10740.72
459.48	11021.58
459.66	10780.51
459.84	10930.30
460.03	11227.55
460.21	11084.78
460.39	11183.08
460.57	10867.11
460.76	11215.85
460.94	11262.66
461.12	11248.61
461.31	11126.91
461.49	10972.43
461.67	11309.47
461.85	11693.32
462.04	11276.70
462.22	11508.41
462.40	11681.61
462.59	11489.69
462.77	11742.47
462.95	11695.66
463.13	11721.40
463.32	11800.98
463.50	12084.19
463.68	11693.32
463.86	12016.31
464.05	11819.71
464.23	11740.13
464.41	11873.54
464.59	11831.41
464.78	12180.15
464.96	11852.47
465.14	11733.11
465.32	12187.17
465.50	12241.00
465.69	12079.50
465.87	12126.32
466.05	12070.14
466.23	12121.63
466.41	12241.00
466.60	12737.20
466.78	12336.96
466.96	12105.25
467.14	12152.06
467.32	12397.82
467.51	12603.78
467.69	12074.82
467.87	12453.99
468.05	12781.67
468.23	12547.61
468.41	12734.85
468.60	12725.49
468.78	12720.81
468.96	12561.66
469.14	12819.11
469.32	13078.91
469.50	12662.30
469.69	13001.68
469.87	13249.77
470.05	13315.31
470.23	13104.66
470.41	13231.05
470.59	13298.92
470.77	13448.72
470.95	13209.98
471.14	13582.13
471.32	13200.62
471.50	13509.57
471.68	13680.43
471.86	13635.96
472.04	13792.78
472.22	14134.50
472.40	13673.41
472.58	14010.45
472.77	14162.58
472.95	14209.39
473.13	14600.26
473.31	14319.40
473.49	14373.23
473.67	13994.06
473.85	14532.39
474.03	14766.44
474.21	14785.16
474.39	14712.61
474.57	14904.53
474.75	15091.77
474.93	15068.37
475.12	15066.03
475.30	15131.56
475.48	15243.91
475.66	15541.16
475.84	15363.28
476.02	15431.15
476.20	15449.88
476.38	15487.32
476.56	15824.36
476.74	16189.49
476.92	16016.29
477.10	15822.02
477.28	16168.42
477.46	16262.04
477.64	16648.23
477.82	16402.47
478.00	17111.66
478.18	16798.02
478.36	16947.82
478.54	17174.85
478.72	17341.03
478.90	17532.95
479.08	17451.03
479.26	18071.28
479.44	17895.74
479.62	17855.95
479.80	17893.40
479.98	18293.63
480.16	18843.65
480.34	18424.70
480.52	18511.30
480.70	18527.68
480.88	18274.90
481.06	18740.67
481.24	18881.10
481.41	19283.67
481.59	19644.12
481.77	19686.25
481.95	19683.91
482.13	19768.16
482.31	19716.67
482.49	20388.41
482.67	20475.01
482.85	20482.03
483.03	20634.16
483.21	21319.94
483.39	20886.94
483.57	21050.78
483.74	21018.01
483.92	21715.49
484.10	21553.99
484.28	21692.08
484.46	22143.81
484.64	22480.85
484.82	22284.24
485.00	22640.00
485.18	23094.07
485.35	22911.50
485.53	22801.50
485.71	23290.67
485.89	23541.11
486.07	23438.12
486.25	23508.34
486.43	23821.97
486.61	23639.41
486.78	24215.18
486.96	24215.18
487.14	24849.47
487.32	24451.58
487.50	25502.48
487.68	25095.22
487.85	25521.20
488.03	25790.36
488.21	26251.45
488.39	26094.63
488.57	26265.49
488.75	26335.71
488.92	26661.04
489.10	26986.38
489.28	27175.96
489.46	27213.41
489.64	27152.55
489.81	27697.90
489.99	28020.89
490.17	27728.33
490.35	28290.06
490.53	28299.42
490.70	28659.86
490.88	28460.91
491.06	29001.58
491.24	29064.77
491.41	28947.75
491.59	29097.54
491.77	29567.99
491.95	29799.70
492.13	29930.77
492.30	29909.71
492.48	30157.80
492.66	30359.09
492.84	30291.21
493.01	30972.31
493.19	30810.81
493.37	31101.04
493.54	31400.63
493.72	31828.95
493.90	31494.25
494.08	32121.51
494.25	32357.91
494.43	32311.10
494.61	32313.44
494.79	32744.09
494.96	32589.62
495.14	32631.75
495.32	33153.69
495.49	33809.04
495.67	33282.42
495.85	33312.84
496.02	34089.90
496.20	34309.91
496.38	34263.10
496.55	34389.49
496.73	34986.33
496.91	34457.37
497.09	35234.42
497.26	35271.87
497.44	35414.65
497.62	35351.45
497.79	35910.84
497.97	35468.48
498.14	36156.60
498.32	36102.76
498.50	36215.11
498.67	37090.47
498.85	36442.14
499.03	36594.28
499.20	37027.28
499.38	37003.87
499.56	37628.79
499.73	37497.72
499.91	37462.61
500.08	37858.17
500.26	37270.69
500.44	37930.72
500.61	37832.42
500.79	38216.27
500.97	38312.23
501.14	38728.84
501.32	38756.93
501.49	38960.56
501.67	39222.70
501.84	39225.04
502.02	39185.25
502.20	39608.89
502.37	39580.80
502.55	39910.82
502.72	39920.18
502.90	39845.28
503.07	39688.46
503.25	39735.27
503.43	40011.46
503.60	39959.97
503.78	40395.31
503.95	40259.55
504.13	40460.84
504.30	40900.86
504.48	40788.52
504.65	40608.29
504.83	41542.17
505.01	41773.88
505.18	41504.72
505.36	41766.86
505.53	41715.37
505.71	41801.97
505.88	42059.43
506.06	41649.83
506.23	42321.57
506.41	41996.23
506.58	41713.03
506.76	42440.93
506.93	42600.09
507.11	42382.42
507.28	43077.56
507.46	43267.14
507.63	43119.69
507.81	42902.02
507.98	43030.75
508.16	43454.39
508.33	43203.95
508.50	43945.90
508.68	43562.05
508.85	44058.24
509.03	43908.45
509.20	44158.89
509.38	44364.85
509.55	44278.25
509.73	44650.40
509.90	44718.28
510.08	44889.13
510.25	45162.98
510.42	45223.83
510.60	44889.13
510.77	45434.48
510.95	45727.05
511.12	45380.65
511.30	45256.60
511.47	45991.53
511.64	46033.66
511.82	45979.82
511.99	45581.93
512.17	46073.45
512.34	45876.84
512.51	46291.12
512.69	46803.69
512.86	46256.01
513.04	46586.02
513.21	46312.18
513.38	46866.89
513.56	47150.09
513.73	46871.57
513.90	47220.31
514.08	47103.28
514.25	47435.64
514.43	47847.57
514.60	47412.23
514.77	47669.69
514.95	48128.44
515.12	47569.05
515.29	48058.22
515.47	47915.45
515.64	48292.27
515.81	48261.85
515.99	48619.95
516.16	48296.95
516.33	48594.20
516.51	48704.21
516.68	48919.54
516.85	49111.46
517.03	48975.71
517.20	48512.28
517.37	48884.43
517.54	49160.61
517.72	48933.58
517.89	49165.29
518.06	49443.82
518.24	49652.12
518.41	49652.12
518.58	49567.87
518.75	49537.44
518.93	49516.37
519.10	49682.55
519.27	49752.77
519.45	50026.61
519.62	50024.27
519.79	49897.88
519.96	50185.77
520.14	50195.13
520.31	50258.32
520.48	50775.58
520.65	50314.50
520.83	50578.98
521.00	50696.00
521.17	50677.28
521.34	50866.86
521.52	50791.97
521.69	51239.01
521.86	51098.58
522.03	51250.71
522.20	51660.30
522.38	51707.12
522.55	51564.34
522.72	51412.21
522.89	51508.17
523.07	52020.75
523.24	51714.14
523.41	51915.42
523.58	51917.76
523.75	52156.50
523.92	51791.37
524.10	52301.61
524.27	51962.23
524.44	52549.71
524.61	52493.54
524.78	52076.92
524.96	52470.13
525.13	52301.61
525.30	52697.16
525.47	52898.45
525.64	52575.45
525.81	52846.96
525.98	52851.64
526.16	52619.92
526.33	52802.49
526.50	53380.60
526.67	53027.18
526.84	53064.63
527.01	53073.99
527.18	53003.77
527.36	53081.01
527.53	53361.87
527.70	53249.53
527.87	53396.98
528.04	53151.23
528.21	53518.69
528.38	53460.18
528.55	53792.53
528.72	53364.21
528.89	53425.07
529.07	53656.78
529.24	54078.08
529.41	53799.55
529.58	53563.16
529.75	53588.91
529.92	54033.61
530.09	53937.65
530.26	54258.30
530.43	54038.29
530.60	54089.78
530.77	53923.60
530.94	54466.61
531.11	54391.71
531.28	54370.64
531.46	54471.29
531.63	54642.15
531.80	54625.76
531.97	54541.50
532.14	54447.88
532.31	54562.57
532.48	54614.06
532.65	55035.36
532.82	54703.00
532.99	54644.49
533.16	54628.10
533.33	55306.86
533.50	55037.70
533.67	54841.09
533.84	54934.71
534.01	54927.69
534.18	55023.65
534.35	55487.08
534.52	55196.85
534.69	55393.46
534.86	55238.98
535.03	55529.21
535.20	55267.07
535.37	55374.73
535.54	55482.40
535.71	55463.67
535.88	55931.78
536.05	55426.23
536.22	55681.34
536.38	55882.63
536.55	55671.98
536.72	55732.84
536.89	55643.90
537.06	55889.65
537.23	55679.00
537.40	55828.80
537.57	56072.21
537.74	55927.10
537.91	55927.10
538.08	56100.30
538.25	55985.61
538.42	56130.73
538.59	56282.86
538.75	56264.14
538.92	56203.28
539.09	56278.18
539.26	56301.59
539.43	56324.99
539.60	56409.25
539.77	56371.80
539.94	56626.92
540.11	56615.22
540.28	56449.04
540.44	56542.66
540.61	56528.62
540.78	56470.11
540.95	56519.26
541.12	56694.80
541.29	56444.36
541.46	56633.94
541.62	56577.77
541.79	56905.44
541.96	56580.11
542.13	56718.20
542.30	56835.23
542.47	57095.03
542.63	56933.53
542.80	57174.61
542.97	57188.65
543.14	57380.57
543.31	57062.26
543.48	57401.64
543.64	57471.85
543.81	57418.02
543.98	57631.01
544.15	57406.32
544.32	57694.21
544.48	57556.11
544.65	57659.10
544.82	57521.01
544.99	57361.85
545.16	57490.58
545.32	57584.20
545.49	57661.44
545.66	57797.19
545.83	57769.10
546.00	57776.12
546.16	57804.21
546.33	57715.27
546.50	57654.42
546.67	57904.85
546.83	57647.39
547.00	57743.36
547.17	57846.34
547.34	57923.58
547.50	58005.50
547.67	58078.05
547.84	58258.27
548.00	58216.14
548.17	58213.80
548.34	58316.79
548.51	58195.08
548.67	58335.51
548.84	58382.32
549.01	58129.54
549.18	58230.19
549.34	58389.34
549.51	58141.25
549.68	58628.08
549.84	58478.28
550.01	58585.95
550.18	58372.96
550.34	58672.55
550.51	58555.52
550.68	58576.59
550.84	58550.84
551.01	58717.02
551.18	58515.73
551.34	59030.65
551.51	58595.31
551.68	58695.95
551.84	58656.17
552.01	58628.08
552.18	58918.31
552.34	58543.82
552.51	58791.92
552.68	58670.21
552.84	58618.72
553.01	59075.12
553.18	58990.86
553.34	59117.25
553.51	58745.11
553.67	58805.96
553.84	58981.50
554.01	59199.17
554.17	59089.16
554.34	59091.51
554.51	59061.08
554.67	59215.55
554.84	59128.95
555.00	59030.65
555.17	59189.81
555.33	59028.31
555.50	59072.78
555.67	59164.06
555.83	59159.38
556.00	59372.37
556.16	59653.23
556.33	59414.50
556.50	59423.86
556.66	59363.01
556.83	59210.87
556.99	59437.90
557.16	59363.01
557.32	59634.51
557.49	59721.11
557.65	59384.07
557.82	59463.65
557.98	59543.23
558.15	59414.50
558.32	59674.30
558.48	59465.99
558.65	59552.59
558.81	59814.73
558.98	59543.23
559.14	59709.41
559.31	59767.92
559.47	59943.46
559.64	59896.65
559.80	59873.24
559.97	59941.12
560.13	59681.32
560.30	59891.97
560.46	59798.35
560.63	59891.97
560.79	59891.97
560.96	60039.42
561.12	59922.40
561.29	60034.74
561.45	59983.25
561.61	59955.16
561.78	59943.46
561.94	59835.80
562.11	59870.90
562.27	60083.89
562.44	59997.29
562.60	60327.31
562.77	60107.30
562.93	60001.97
563.10	60032.40
563.26	60034.74
563.42	60381.14
563.59	60062.83
563.75	60027.72
563.92	60198.58
564.08	60023.04
564.24	60168.15
564.41	60207.94
564.57	60355.39
564.74	60107.30
564.90	60025.38
565.07	60266.45
565.23	60327.31
565.39	60231.35
565.56	60444.33
565.72	60109.64
565.88	60552.00
566.05	60186.88
566.21	60420.93
566.38	60308.58
566.54	60402.21
566.70	60498.17
566.87	60402.21
567.03	60378.80
567.19	60580.09
567.36	60383.48
567.52	60388.16
567.68	60669.03
567.85	60418.59
568.01	60500.51
568.17	60355.39
568.34	60575.40
568.50	60423.27
568.66	60570.72
568.83	60570.72
568.99	60549.66
569.15	60612.85
569.32	60456.04
569.48	60484.12
569.64	60645.62
569.81	60729.88
569.97	60369.44
570.13	60694.77
570.30	60378.80
570.46	60645.62
570.62	60706.47
570.78	60610.51
570.95	60591.79
571.11	60610.51
571.27	60764.99
571.43	60734.56
571.60	60804.78
571.76	60622.22
571.92	60856.27
572.09	60748.60
572.25	60577.75
572.41	60657.32
572.57	60704.13
572.74	60762.65
572.90	60596.47
573.06	60874.99
573.22	60896.06
573.38	60786.05
573.55	60692.43
573.71	60858.61
573.87	60823.50
574.03	60722.86
574.20	60912.44
574.36	60638.60
574.52	60793.07
574.68	60973.30
574.84	60961.59
575.01	60938.19
575.17	60853.93
575.33	60844.57
575.49	60692.43
575.65	61015.43
575.82	60858.61
575.98	60882.02
576.14	61048.19
576.30	60942.87
576.46	60786.05
576.62	60844.57
576.79	60900.74
576.95	60720.52
577.11	60786.05
577.27	61169.90
577.43	60910.10
577.59	60935.85
577.75	61017.77
577.92	60825.84
578.08	60891.38
578.24	61057.56
578.40	61003.72
578.56	60942.87
578.72	60977.98
578.88	61080.96
579.04	61162.88
579.21	60921.80
579.37	61095.00
579.53	61078.62
579.69	60865.63
579.85	60928.83
580.01	60884.36
580.17	60870.31
580.33	61064.58
580.49	61151.18
580.65	61069.26
580.82	61031.81
580.98	61116.07
581.14	60896.06
581.30	61174.58
581.46	61069.26
581.62	61092.66
581.78	61027.13
581.94	61169.90
582.10	61024.79
582.26	61015.43
582.42	60811.80
582.58	61188.63
582.74	61186.28
582.90	61045.85
583.06	61097.34
583.22	60835.20
583.38	61242.46
583.54	61022.45
583.70	61006.06
583.86	61139.47
584.02	60849.25
584.18	61298.63
584.34	61251.82
584.50	61041.17
584.66	60891.38
584.82	60928.83
584.98	61448.42
585.14	61223.73
585.30	61123.09
585.46	61137.13
585.62	61141.81
585.78	61176.92
585.94	60907.76
586.10	60874.99
586.26	61193.31
586.42	61001.38
586.58	61364.17
586.74	61095.00
586.90	61146.50
587.06	61134.79
587.22	61272.88
587.38	61090.32
587.54	61387.57
587.70	61389.91
587.86	61041.17
588.02	61127.77
588.18	61221.39
588.34	61221.39
588.49	61202.67
