SpectraSuite Data File
++++++++++++++++++++++++++++++++++++
Date: Fri Oct 25 10:48:13 EDT 2013
User: price-jones
Dark Spectrum Present: No
Reference Spectrum Present: No
Number of Sampled Component Spectra: 1
Spectrometers: USB2+H05261
Integration Time (usec): 100000 (USB2+H05261)
Spectra Averaged: 1 (USB2+H05261)
Boxcar Smoothing: 0 (USB2+H05261)
Correct for Electrical Dark: No (USB2+H05261)
Strobe/Lamp Enabled: No (USB2+H05261)
Correct for Detector Non-linearity: No (USB2+H05261)
Correct for Stray Light: No (USB2+H05261)
Number of Pixels in Processed Spectrum: 2048
>>>>>Begin Processed Spectral Data<<<<<
365.73	163.84
365.92	163.84
366.12	163.84
366.32	18.72
366.52	77.24
366.72	70.22
366.91	23.41
367.11	0.00
367.31	84.26
367.51	51.49
367.70	70.22
367.90	95.96
368.10	18.72
368.30	9.36
368.49	0.00
368.69	72.56
368.89	49.15
369.09	86.60
369.28	30.43
369.48	102.98
369.68	142.77
369.87	124.05
370.07	95.96
370.27	152.13
370.47	201.29
370.66	379.17
370.86	421.30
371.06	407.25
371.25	454.06
371.45	435.34
371.65	379.17
371.84	397.89
372.04	454.06
372.24	418.96
372.44	484.49
372.63	524.28
372.83	486.83
373.03	500.87
373.22	512.58
373.42	482.15
373.62	447.04
373.81	528.96
374.01	571.09
374.21	493.85
374.40	552.37
374.60	587.47
374.79	587.47
374.99	587.47
375.19	554.71
375.38	624.92
375.58	526.62
375.78	587.47
375.97	631.94
376.17	638.97
376.37	737.27
376.56	573.43
376.76	606.20
376.95	606.20
377.15	580.45
377.35	631.94
377.54	571.09
377.74	592.16
377.93	622.58
378.13	662.37
378.33	636.63
378.52	685.78
378.72	645.99
378.91	641.31
379.11	589.82
379.31	617.90
379.50	763.01
379.70	610.88
379.89	683.44
380.09	645.99
380.28	622.58
380.48	671.73
380.68	669.39
380.87	627.26
381.07	653.01
381.26	692.80
381.46	688.12
381.65	725.57
381.85	692.80
382.04	650.67
382.24	678.76
382.43	683.44
382.63	688.12
382.83	718.54
383.02	751.31
383.22	809.83
383.41	739.61
383.61	746.63
383.80	753.65
384.00	802.80
384.19	718.54
384.39	758.33
384.58	781.74
384.78	709.18
384.97	868.34
385.17	840.25
385.36	786.42
385.56	807.48
385.75	734.93
385.95	741.95
386.14	840.25
386.34	875.36
386.53	739.61
386.72	793.44
386.92	826.21
387.11	854.30
387.31	798.12
387.50	767.70
387.70	875.36
387.89	833.23
388.09	891.74
388.28	784.08
388.48	828.55
388.67	858.98
388.86	908.13
389.06	816.85
389.25	987.71
389.45	826.21
389.64	978.34
389.84	1001.75
390.03	947.92
390.22	908.13
390.42	849.61
390.61	926.85
390.81	950.26
391.00	990.05
391.19	1067.28
391.39	1093.03
391.58	1006.43
391.78	1020.47
391.97	973.66
392.16	976.00
392.36	1090.69
392.55	896.43
392.75	950.26
392.94	945.58
393.13	1057.92
393.33	952.60
393.52	952.60
393.71	1004.09
393.91	978.34
394.10	987.71
394.29	1074.31
394.49	1029.84
394.68	1057.92
394.88	1165.59
395.07	1097.71
395.26	1146.86
395.46	1090.69
395.65	1151.54
395.84	1100.05
396.04	1153.88
396.23	1130.48
396.42	1207.72
396.62	1146.86
396.81	1219.42
397.00	1142.18
397.19	1181.97
397.39	1041.54
397.58	1275.59
397.77	1217.08
397.97	1247.51
398.16	1306.02
398.35	1376.24
398.55	1371.55
398.74	1430.07
398.93	1380.92
399.12	1404.32
399.32	1341.13
399.51	1387.94
399.70	1380.92
399.90	1409.00
400.09	1345.81
400.28	1528.37
400.47	1390.28
400.67	1488.58
400.86	1488.58
401.05	1483.90
401.24	1486.24
401.44	1558.80
401.63	1495.60
401.82	1467.52
402.01	1544.75
402.21	1451.13
402.40	1551.78
402.59	1493.26
402.78	1586.88
402.97	1535.39
403.17	1572.84
403.36	1638.38
403.55	1544.75
403.74	1605.61
403.93	1650.08
404.13	1671.14
404.32	1664.12
404.51	1664.12
404.70	1701.57
404.89	1727.32
405.09	1769.44
405.28	1858.39
405.47	1771.79
405.66	1804.55
405.85	1727.32
406.05	1739.02
406.24	1797.53
406.43	1898.17
406.62	1893.49
406.81	1959.03
407.00	1813.92
407.20	1844.34
407.39	1839.66
407.58	1942.64
407.77	1982.43
407.96	2012.86
408.15	1984.77
408.34	2064.35
408.54	2024.56
408.73	2036.27
408.92	2118.18
409.11	2038.61
409.30	2022.22
409.49	2043.29
409.68	2099.46
409.87	2087.76
410.07	2160.31
410.26	2190.74
410.45	2195.42
410.64	2157.97
410.83	2204.78
411.02	2235.21
411.21	2373.30
411.40	2436.50
411.59	2382.67
411.78	2401.39
411.98	2410.75
412.17	2333.51
412.36	2317.13
412.55	2455.22
412.74	2464.58
412.93	2495.01
413.12	2487.99
413.31	2626.08
413.50	2462.24
413.69	2415.43
413.88	2698.64
414.07	2642.46
414.26	2534.80
414.45	2523.10
414.64	2651.83
414.83	2799.28
415.02	2752.47
415.22	2766.51
415.41	2953.76
415.60	2843.75
415.79	2766.51
415.98	2958.44
416.17	2897.58
416.36	2960.78
416.55	2935.03
416.74	2977.16
416.93	3012.27
417.12	2902.26
417.31	2874.18
417.50	2991.20
417.69	3199.51
417.88	3152.70
418.07	3091.85
418.26	3084.83
418.45	3145.68
418.64	3234.62
418.83	3372.71
419.02	3316.54
419.21	3204.19
419.39	3272.07
419.58	3241.64
419.77	3325.90
419.96	3335.26
420.15	3288.45
420.34	3459.31
420.53	3389.10
420.72	3456.97
420.91	3372.71
421.10	3370.37
421.29	3489.74
421.48	3407.82
421.67	3534.21
421.86	3440.59
422.05	3485.06
422.24	3361.01
422.43	3468.67
422.61	3611.45
422.80	3566.98
422.99	3463.99
423.18	3599.74
423.37	3566.98
423.56	3721.45
423.75	3513.14
423.94	3574.00
424.13	3337.60
424.32	3419.52
424.50	3555.27
424.69	3674.64
424.88	3660.60
425.07	3595.06
425.26	3529.53
425.45	3534.21
425.64	3581.02
425.83	3524.85
426.01	3693.37
426.20	3861.88
426.39	3782.31
426.58	3779.97
426.77	3545.91
426.96	3641.87
427.15	3815.07
427.33	3726.13
427.52	3574.00
427.71	3637.19
427.90	3681.66
428.09	3726.13
428.28	3915.72
428.46	3810.39
428.65	3992.95
428.84	3878.27
429.03	4030.40
429.22	3838.48
429.40	3889.97
429.59	3812.73
429.78	3882.95
429.97	3709.75
430.16	3730.81
430.34	3878.27
430.53	3950.82
430.72	3817.41
430.91	4011.68
431.10	3990.61
431.28	4028.06
431.47	4313.61
431.66	4229.35
431.85	4060.83
432.03	4161.47
432.22	4173.18
432.41	4234.03
432.60	4187.22
432.79	4191.90
432.97	4365.10
433.16	4283.18
433.35	4304.25
433.54	4105.30
433.72	4278.50
433.91	4236.37
434.10	4224.67
434.28	4290.20
434.47	4564.04
434.66	4425.95
434.85	4482.13
435.03	4432.97
435.22	4582.77
435.41	4800.44
435.59	4606.17
435.78	4594.47
435.97	4596.81
436.16	4730.22
436.34	4592.13
436.53	4690.43
436.72	4861.29
436.90	4575.75
437.09	4863.63
437.28	4599.15
437.46	4622.56
437.65	4800.44
437.84	4681.07
438.02	4718.52
438.21	4737.24
438.40	4725.54
438.58	4880.02
438.77	4978.32
438.96	4980.66
439.14	5132.79
439.33	5228.76
439.52	5163.22
439.70	5158.54
439.89	5104.71
440.08	5280.25
440.26	5198.33
440.45	5069.60
440.63	5327.06
440.82	5418.34
441.01	5434.72
441.19	5404.30
441.38	5668.78
441.57	5586.86
441.75	5554.09
441.94	5788.14
442.12	5668.78
442.31	5764.74
442.50	5888.79
442.68	5675.80
442.87	5827.93
443.05	5776.44
443.24	5937.94
443.43	5792.83
443.61	5989.43
443.80	5949.64
443.98	5856.02
444.17	5678.14
444.35	5811.55
444.54	6057.31
444.73	5991.77
444.91	5891.13
445.10	5827.93
445.28	5771.76
445.47	5886.45
445.65	5795.17
445.84	6010.50
446.02	5987.09
446.21	6003.47
446.39	5970.71
446.58	6024.54
446.77	6197.74
446.95	5935.60
447.14	6052.63
447.32	5996.45
447.51	6181.35
447.69	5959.00
447.88	6118.16
448.06	6104.12
448.25	6097.10
448.43	6090.07
448.62	6012.84
448.80	6209.44
448.99	6216.46
449.17	6174.33
449.36	6239.87
449.54	6296.04
449.73	6335.83
449.91	6298.38
450.10	6321.79
450.28	6616.69
450.46	6576.91
450.65	6485.62
450.83	6504.35
451.02	6541.80
451.20	6649.46
451.39	6740.74
451.57	6434.13
451.76	6539.46
451.94	6583.93
452.13	6583.93
452.31	6565.20
452.49	6445.84
452.68	6675.21
452.86	6796.92
453.05	6595.63
453.23	6707.98
453.42	6630.74
453.60	6670.53
453.78	6712.66
453.97	6670.53
454.15	6853.09
454.34	6829.68
454.52	6892.88
454.70	6895.22
454.89	6892.88
455.07	6803.94
455.26	6745.42
455.44	7178.42
455.62	7075.44
455.81	7162.04
455.99	7082.46
456.17	7042.67
456.36	7164.38
456.54	7407.80
456.73	7307.15
456.91	7438.22
457.09	7485.03
457.28	7506.10
457.46	7435.88
457.64	7389.07
457.83	7353.96
458.01	7300.13
458.19	7583.34
458.38	7496.74
458.56	7641.85
458.74	7714.41
458.93	7449.93
459.11	7578.65
459.29	7356.30
459.48	7534.18
459.66	7805.69
459.84	7492.05
460.03	7768.24
460.21	7648.87
460.39	7896.97
460.57	7803.35
460.76	7866.54
460.94	7833.77
461.12	7801.01
461.31	7805.69
461.49	7850.16
461.67	7854.84
461.85	8109.96
462.04	8058.46
462.22	8360.39
462.40	8051.44
462.59	8177.83
462.77	8028.04
462.95	8039.74
463.13	8217.62
463.32	8201.24
463.50	8166.13
463.68	8241.03
463.86	8334.65
464.05	8175.49
464.23	8093.57
464.41	8454.02
464.59	8243.37
464.78	8456.36
464.96	8439.97
465.14	8182.51
465.32	8407.20
465.50	8442.31
465.69	8477.42
465.87	8437.63
466.05	8510.19
466.23	8533.59
466.41	8475.08
466.60	8854.25
466.78	8306.56
466.96	8662.32
467.14	8620.19
467.32	8697.43
467.51	8758.28
467.69	8528.91
467.87	8662.32
468.05	8741.90
468.23	8624.87
468.41	8685.73
468.60	8645.94
468.78	8847.22
468.96	8664.66
469.14	8706.79
469.32	8833.18
469.50	8758.28
469.69	8826.16
469.87	9050.85
470.05	8828.50
470.23	8879.99
470.41	9109.36
470.59	9231.07
470.77	9032.13
470.95	9186.60
471.14	9425.34
471.32	9025.11
471.50	9479.17
471.68	9488.53
471.86	9511.94
472.04	9394.91
472.22	9699.18
472.40	9535.34
472.58	9455.76
472.77	9451.08
472.95	9774.08
473.13	10010.47
473.31	9661.73
473.49	9736.63
473.67	9809.19
473.85	9898.13
474.03	10120.48
474.21	10193.03
474.39	10136.86
474.57	10176.65
474.75	10094.73
474.93	10436.45
475.12	10509.01
475.30	10349.85
475.48	10466.88
475.66	10354.53
475.84	10583.90
476.02	10640.08
476.20	10560.50
476.38	10693.91
476.56	10743.06
476.74	10796.89
476.92	11023.92
477.10	11110.52
477.28	11112.86
477.46	11206.48
477.64	11349.26
477.82	11300.11
478.00	11536.50
478.18	11583.31
478.36	11555.22
478.54	11819.71
478.72	11815.02
478.90	11789.28
479.08	12063.12
479.26	12329.94
479.44	12006.95
479.62	12304.20
479.80	12524.21
479.98	12290.15
480.16	12521.87
480.34	12388.46
480.52	12442.29
480.70	12568.68
480.88	12517.18
481.06	12823.80
481.24	12657.62
481.41	13217.01
481.59	13245.09
481.77	13331.69
481.95	13022.74
482.13	13380.84
482.31	13584.47
482.49	13778.73
482.67	13685.11
482.85	13998.74
483.03	14200.03
483.21	14225.78
483.39	14387.27
483.57	13984.70
483.74	14471.53
483.92	14658.78
484.10	14469.19
484.28	14796.87
484.46	14806.23
484.64	15105.82
484.82	15019.22
485.00	15089.43
485.18	15054.33
485.35	15337.53
485.53	15103.48
485.71	15016.88
485.89	15648.82
486.07	15356.25
486.25	15580.95
486.43	15648.82
486.61	15847.77
486.78	15817.34
486.96	16084.16
487.14	16566.31
487.32	16690.36
487.50	16772.28
487.68	17041.44
487.85	17083.57
488.03	17184.21
488.21	17156.13
488.39	17252.09
488.57	17439.33
488.75	17184.21
488.92	17635.94
489.10	17891.06
489.28	17928.50
489.46	18057.23
489.64	18132.13
489.81	18768.76
489.99	18384.91
490.17	18845.99
490.35	18956.00
490.53	19047.28
490.70	19014.51
490.88	18902.17
491.06	19328.14
491.24	19243.88
491.41	19080.05
491.59	19447.51
491.77	19300.06
491.95	19702.63
492.13	19964.77
492.30	19946.05
492.48	20119.24
492.66	20187.12
492.84	20313.51
493.01	20449.26
493.19	20758.21
493.37	20765.23
493.54	20767.57
493.72	20905.66
493.90	21104.61
494.08	20943.11
494.25	21439.31
494.43	21626.55
494.61	21830.18
494.79	21909.75
494.96	21741.24
495.14	21949.54
495.32	22171.89
495.49	22246.79
495.67	22118.06
495.85	22511.27
496.02	22860.01
496.20	22630.64
496.38	22703.20
496.55	22963.00
496.73	23133.86
496.91	22981.72
497.09	23133.86
497.26	23110.45
497.44	23190.03
497.62	23370.25
497.79	23768.14
497.97	23576.22
498.14	23700.26
498.32	23917.93
498.50	23735.37
498.67	24372.00
498.85	24266.67
499.03	24229.23
499.20	24606.05
499.38	24697.33
499.56	24439.87
499.73	24947.77
499.91	24706.70
500.08	24580.31
500.26	24835.42
500.44	24879.89
500.61	25048.41
500.79	24865.85
500.97	25324.60
501.14	25769.30
501.32	25455.67
501.49	25565.67
501.67	25764.62
501.84	25575.03
502.02	25582.06
502.20	25921.43
502.37	25954.20
502.55	26024.42
502.72	26199.96
502.90	25996.33
503.07	26101.65
503.25	26373.16
503.43	26338.05
503.60	26675.09
503.78	26586.15
503.95	26434.01
504.13	26888.07
504.30	27187.66
504.48	26735.94
504.65	27297.67
504.83	27197.02
505.01	27384.27
505.18	27365.54
505.36	27454.48
505.53	27358.52
505.71	27857.06
505.88	27615.98
506.06	27513.00
506.23	27777.48
506.41	27541.08
506.58	27854.72
506.76	28112.17
506.93	28442.19
507.11	28044.30
507.28	28355.59
507.46	28341.55
507.63	28538.15
507.81	28680.92
507.98	28594.32
508.16	28512.41
508.33	28669.22
508.50	28659.86
508.68	28856.46
508.85	29144.35
509.03	29015.62
509.20	29006.26
509.38	29401.81
509.55	29450.96
509.73	29427.56
509.90	29291.80
510.08	29532.88
510.25	29645.23
510.42	29701.40
510.60	29965.88
510.77	29977.58
510.95	30024.39
511.12	29881.62
511.30	30244.40
511.47	30494.84
511.64	30141.42
511.82	30508.88
511.99	30300.58
512.17	30799.11
512.34	30403.56
512.51	30508.88
512.69	31033.16
512.86	31019.12
513.04	30923.16
513.21	30789.75
513.38	30803.79
513.56	31269.56
513.73	30892.73
513.90	30944.22
514.08	31342.11
514.25	31412.33
514.43	31087.00
514.60	30803.79
514.77	31009.76
514.95	31688.51
515.12	31510.63
515.29	31725.96
515.47	31850.01
515.64	32287.69
515.81	31690.85
515.99	32079.38
516.16	32112.15
516.33	31749.37
516.51	32360.25
516.68	32135.56
516.85	32240.88
517.03	32144.92
517.20	32093.43
517.37	32641.11
517.54	33031.98
517.72	32863.46
517.89	32257.26
518.06	32453.87
518.24	32362.59
518.41	32610.68
518.58	32606.00
518.75	32926.66
518.93	33287.10
519.10	32943.04
519.27	33329.23
519.45	32931.34
519.62	33287.10
519.79	33209.86
519.96	33717.76
520.14	33942.45
520.31	33347.95
520.48	33759.89
520.65	33858.19
520.83	33663.93
521.00	34052.45
521.17	34272.46
521.34	33631.16
521.52	34260.76
521.69	34499.50
521.86	34387.15
522.03	34473.75
522.20	34345.02
522.38	34195.23
522.55	35035.48
522.72	34314.59
522.89	34153.10
523.07	34785.04
523.24	34639.93
523.41	34991.01
523.58	34763.98
523.75	35346.77
523.92	35257.83
524.10	35321.02
524.27	35374.86
524.44	35086.97
524.61	35431.03
524.78	35526.99
524.96	35866.37
525.13	35452.09
525.30	35758.70
525.47	36027.87
525.64	35807.86
525.81	35599.55
525.98	35721.26
526.16	35878.07
526.33	35580.82
526.50	35887.43
526.67	35728.28
526.84	35857.01
527.01	35730.62
527.18	35625.29
527.36	36741.73
527.53	35981.06
527.70	36463.21
527.87	36219.79
528.04	36411.71
528.21	36404.69
528.38	36266.60
528.55	37050.68
528.72	36582.57
528.89	37102.17
529.07	37088.13
529.24	37242.60
529.41	36872.80
529.58	36797.90
529.75	36725.35
529.92	37270.69
530.09	37457.93
530.26	37153.66
530.43	37294.10
530.60	36943.02
530.77	37422.83
530.94	37624.11
531.11	37345.59
531.28	37610.07
531.46	37521.13
531.63	37970.51
531.80	37717.73
531.97	37830.08
532.14	37635.81
532.31	37645.18
532.48	37516.45
532.65	38036.05
532.82	37621.77
532.99	38188.18
533.16	38068.81
533.33	38087.54
533.50	38185.84
533.67	38422.23
533.84	38387.13
534.01	38588.41
534.18	38220.95
534.35	38878.64
534.52	38160.09
534.69	38644.59
534.86	38731.18
535.03	38553.30
535.20	38752.25
535.37	38934.81
535.54	39180.57
535.71	38703.10
535.88	38785.02
536.05	38485.43
536.22	38962.90
536.38	38951.20
536.55	39194.61
536.72	39255.46
536.89	38759.27
537.06	38712.46
537.23	39360.79
537.40	38778.00
537.57	39332.70
537.74	39363.13
537.91	39587.82
538.08	39311.64
538.25	39571.44
538.42	39360.79
538.59	39611.23
538.75	39248.44
538.92	39945.92
539.09	39927.20
539.26	39599.52
539.43	39838.26
539.60	39714.21
539.77	39328.02
539.94	39838.26
540.11	39440.37
540.28	40268.92
540.44	39852.30
540.61	39718.89
540.78	39510.58
540.95	39730.59
541.12	39887.41
541.29	39587.82
541.46	40130.83
541.62	40266.58
541.79	40123.80
541.96	40018.48
542.13	40524.04
542.30	40538.08
542.47	40484.25
542.63	40421.05
542.80	40741.71
542.97	41172.36
543.14	40751.07
543.31	40891.50
543.48	40774.47
543.64	41448.55
543.81	41006.19
543.98	41202.79
544.15	40830.65
544.32	40704.26
544.48	41284.71
544.65	41209.81
544.82	41160.66
544.99	40526.38
545.16	41345.56
545.32	41401.74
545.49	41598.34
545.66	41717.71
545.83	41408.76
546.00	41560.89
546.16	41270.67
546.33	40987.46
546.50	41148.96
546.67	41394.71
546.83	40821.28
547.00	41357.27
547.17	41514.08
547.34	41797.29
547.50	41462.59
547.67	42220.92
547.84	41635.79
548.00	41860.48
548.17	41553.87
548.34	42197.52
548.51	42464.34
548.67	42246.67
548.84	42387.10
549.01	41846.44
549.18	42059.43
549.34	42195.18
549.51	42459.66
549.68	42457.32
549.84	42436.25
550.01	42546.26
550.18	41935.38
550.34	42319.23
550.51	42298.16
550.68	42344.97
550.84	42024.32
551.01	42366.04
551.18	42525.19
551.34	42586.05
551.51	42693.71
551.68	42515.83
551.84	42981.60
552.01	42506.47
552.18	42576.69
552.34	42181.13
552.51	42836.48
552.68	42775.63
552.84	43040.11
553.01	42857.55
553.18	42981.60
553.34	42436.25
553.51	42340.29
553.67	42831.80
553.84	43271.82
554.01	43140.75
554.17	43189.91
554.34	43107.99
554.51	43096.28
554.67	43243.74
554.84	42855.21
555.00	42707.76
555.17	42927.77
555.33	43419.28
555.50	43122.03
555.67	43320.98
555.83	43440.34
556.00	43503.54
556.16	44006.75
556.33	43643.97
556.50	43014.37
556.66	43377.15
556.83	43552.69
556.99	43583.12
557.16	43929.51
557.32	43611.20
557.49	43587.80
557.65	43402.89
557.82	43690.78
557.98	43526.94
558.15	43756.32
558.32	43957.60
558.48	43423.96
558.65	43782.06
558.81	43817.17
558.98	43646.31
559.14	43597.16
559.31	43999.73
559.47	43868.66
559.64	44194.00
559.80	44051.22
559.97	43892.07
560.13	43622.90
560.30	43868.66
560.46	44208.04
560.63	43973.98
560.79	43868.66
560.96	44399.96
561.12	44219.74
561.29	43915.47
561.45	43901.43
561.61	44154.21
561.78	44102.71
561.94	43997.39
562.11	44451.45
562.27	44201.02
562.44	44093.35
562.60	43985.69
562.77	44397.62
562.93	43908.45
563.10	44027.82
563.26	44418.69
563.42	44268.89
563.59	43831.21
563.75	44058.24
563.92	44360.17
564.08	44355.49
564.24	44177.61
564.41	44456.14
564.57	44287.62
564.74	44385.92
564.90	44308.68
565.07	44203.36
565.23	44208.04
565.39	44594.23
565.56	44652.74
565.72	44133.14
565.88	44697.21
566.05	44168.25
566.21	44311.02
566.38	44617.63
566.54	44343.79
566.70	44919.56
566.87	44673.81
567.03	44524.01
567.19	44942.97
567.36	45064.67
567.52	44603.59
567.68	45226.17
567.85	44208.04
568.01	44622.31
568.17	44329.75
568.34	44577.84
568.50	44781.47
568.66	44245.49
568.83	44362.51
568.99	43899.09
569.15	44465.50
569.32	44273.57
569.48	44299.32
569.64	44669.12
569.81	44854.03
569.97	44411.67
570.13	44711.25
570.30	44296.98
570.46	44601.25
570.62	44194.00
570.78	44509.97
570.95	44137.82
571.11	44994.46
571.27	44643.38
571.43	44222.08
571.60	44767.43
571.76	44978.07
571.92	44652.74
572.09	44828.28
572.25	44765.09
572.41	44825.94
572.57	45170.00
572.74	45289.37
572.90	44865.73
573.06	44985.10
573.22	44870.41
573.38	45153.62
573.55	44512.31
573.71	45329.16
573.87	44999.14
574.03	44439.75
574.20	44802.53
574.36	44942.97
574.52	44685.51
574.68	44797.85
574.84	45001.48
575.01	45151.27
575.17	44968.71
575.33	44718.28
575.49	44900.84
575.65	44725.30
575.82	44938.29
575.98	44484.22
576.14	45092.76
576.30	44694.87
576.46	45230.85
576.62	44746.36
576.79	44397.62
576.95	44243.15
577.11	44875.09
577.27	44577.84
577.43	44760.40
577.59	44893.82
577.75	44877.43
577.92	44783.81
578.08	44563.80
578.24	44786.15
578.40	44722.96
578.56	44802.53
578.72	44481.88
578.88	45029.57
579.04	44774.45
579.21	44926.58
579.37	44753.38
579.53	44938.29
579.69	44711.25
579.85	45188.72
580.01	44849.35
580.17	44776.79
580.33	45167.66
580.49	45045.95
580.65	45354.90
580.82	45167.66
580.98	44685.51
581.14	44563.80
581.30	45027.23
581.46	44666.78
581.62	44928.92
581.78	45488.31
581.94	45588.95
582.10	44779.13
582.26	44959.35
582.42	45247.24
582.58	45287.03
582.74	44975.73
582.90	45113.83
583.06	44837.64
583.22	44957.01
583.38	45029.57
583.54	45546.82
583.70	45036.59
583.86	45052.97
584.02	44755.72
584.18	44924.24
584.34	45371.28
584.50	44933.60
584.66	44804.88
584.82	44636.36
584.98	45148.93
585.14	44947.65
585.30	45083.40
585.46	45132.55
585.62	44907.86
585.78	44900.84
585.94	44821.26
586.10	45216.81
586.26	44804.88
586.42	45151.27
586.58	45425.12
586.74	45137.23
586.90	45067.02
587.06	45141.91
587.22	45357.24
587.38	45067.02
587.54	45394.69
587.70	45167.66
587.86	45151.27
588.02	45212.13
588.18	45006.16
588.34	45184.04
588.49	44884.45
588.65	44601.25
588.81	44779.13
588.97	44662.10
589.13	44839.98
589.29	44694.87
589.45	45036.59
589.61	45481.29
589.77	45422.78
589.93	45177.02
590.08	45507.04
590.24	45450.86
