SpectraSuite Data File
++++++++++++++++++++++++++++++++++++
Date: Fri Oct 25 11:26:25 EDT 2013
User: price-jones
Dark Spectrum Present: No
Reference Spectrum Present: No
Number of Sampled Component Spectra: 1
Spectrometers: USB2+H05261
Integration Time (usec): 100000 (USB2+H05261)
Spectra Averaged: 1 (USB2+H05261)
Boxcar Smoothing: 0 (USB2+H05261)
Correct for Electrical Dark: No (USB2+H05261)
Strobe/Lamp Enabled: No (USB2+H05261)
Correct for Detector Non-linearity: No (USB2+H05261)
Correct for Stray Light: No (USB2+H05261)
Number of Pixels in Processed Spectrum: 2048
>>>>>Begin Processed Spectral Data<<<<<
365.73	257.46
365.92	257.46
366.12	257.46
366.32	138.09
366.52	131.07
366.72	210.65
366.91	67.88
367.11	184.90
367.31	149.79
367.51	88.94
367.70	72.56
367.90	194.26
368.10	117.03
368.30	63.19
368.49	114.69
368.69	173.20
368.89	142.77
369.09	161.50
369.28	138.09
369.48	182.56
369.68	210.65
369.87	156.82
370.07	177.88
370.27	215.33
370.47	337.04
370.66	620.24
370.86	559.39
371.06	667.05
371.25	713.86
371.45	697.48
371.65	669.39
371.84	676.41
372.04	594.50
372.24	664.71
372.44	655.35
372.63	662.37
372.83	744.29
373.03	734.93
373.22	791.10
373.42	739.61
373.62	795.78
373.81	805.14
374.01	802.80
374.21	837.91
374.40	795.78
374.60	821.53
374.79	809.83
374.99	760.67
375.19	873.02
375.38	837.91
375.58	936.21
375.78	856.64
375.97	889.40
376.17	908.13
376.37	919.83
376.56	917.49
376.76	840.25
376.95	903.45
377.15	861.32
377.35	844.93
377.54	884.72
377.74	863.66
377.93	908.13
378.13	870.68
378.33	866.00
378.52	922.17
378.72	961.96
378.91	980.68
379.11	1001.75
379.31	912.81
379.50	978.34
379.70	936.21
379.89	1041.54
380.09	936.21
380.28	905.79
380.48	1018.13
380.68	985.37
380.87	980.68
381.07	985.37
381.26	1100.05
381.46	964.30
381.65	1146.86
381.85	947.92
382.04	1076.65
382.24	947.92
382.43	1041.54
382.63	1057.92
382.83	1095.37
383.02	1071.97
383.22	1142.18
383.41	1046.22
383.61	1090.69
383.80	1083.67
384.00	1144.52
384.19	1146.86
384.39	1064.94
384.58	1181.97
384.78	1153.88
384.97	1132.82
385.17	1174.95
385.36	1165.59
385.56	1130.48
385.75	1128.14
385.95	1151.54
386.14	1324.74
386.34	1139.84
386.53	1198.35
386.72	1193.67
386.92	1198.35
387.11	1240.48
387.31	1186.65
387.50	1177.29
387.70	1270.91
387.89	1188.99
388.09	1252.19
388.28	1350.49
388.48	1277.93
388.67	1287.29
388.86	1303.68
389.06	1259.21
389.25	1380.92
389.45	1404.32
389.64	1399.64
389.84	1341.13
390.03	1385.60
390.22	1366.87
390.42	1462.83
390.61	1348.15
390.81	1294.32
391.00	1336.45
391.19	1401.98
391.39	1472.20
391.58	1416.02
391.78	1497.94
391.97	1441.77
392.16	1420.71
392.36	1551.78
392.55	1490.92
392.75	1561.14
392.94	1577.52
393.13	1533.05
393.33	1568.16
393.52	1554.12
393.71	1554.12
393.91	1626.67
394.10	1561.14
394.29	1542.41
394.49	1605.61
394.68	1568.16
394.88	1589.22
395.07	1633.69
395.26	1680.50
395.46	1652.42
395.65	1680.50
395.84	1724.97
396.04	1757.74
396.23	1701.57
396.42	1675.82
396.62	1739.02
396.81	1811.57
397.00	1715.61
397.19	1762.42
397.39	1734.34
397.58	1872.43
397.77	1806.89
397.97	1863.07
398.16	1860.73
398.35	1923.92
398.55	1809.23
398.74	1975.41
398.93	1863.07
399.12	1926.26
399.32	1891.15
399.51	1916.90
399.70	1975.41
399.90	1973.07
400.09	1933.28
400.28	1991.80
400.47	2019.88
400.67	2050.31
400.86	1989.46
401.05	2085.42
401.24	2127.55
401.44	2115.84
401.63	2118.18
401.82	2083.08
402.01	2143.93
402.21	2148.61
402.40	2188.40
402.59	2181.38
402.78	2162.66
402.97	2216.49
403.17	2260.96
403.36	2284.36
403.55	2289.04
403.74	2232.87
403.93	2326.49
404.13	2359.26
404.32	2361.60
404.51	2434.16
404.70	2380.32
404.89	2359.26
405.09	2497.35
405.28	2455.22
405.47	2487.99
405.66	2567.57
405.85	2502.03
406.05	2476.29
406.24	2658.85
406.43	2525.44
406.62	2502.03
406.81	2731.41
407.00	2654.17
407.20	2593.31
407.39	2548.84
407.58	2722.04
407.77	2810.98
407.96	2677.57
408.15	2799.28
408.34	2724.38
408.54	2832.05
408.73	2719.70
408.92	2801.62
409.11	2867.16
409.30	2792.26
409.49	2984.18
409.68	2923.33
409.87	2818.00
410.07	2967.80
410.26	2949.08
410.45	2958.44
410.64	3136.32
410.83	3075.46
411.02	3063.76
411.21	3173.77
411.40	3068.44
411.59	3192.49
411.78	3166.74
411.98	3201.85
412.17	3368.03
412.36	3302.50
412.55	3276.75
412.74	3440.59
412.93	3407.82
413.12	3379.73
413.31	3506.12
413.50	3361.01
413.69	3454.63
413.88	3557.61
414.07	3482.72
414.26	3637.19
414.45	3562.30
414.64	3658.26
414.83	3660.60
415.02	3716.77
415.22	4004.66
415.41	3810.39
415.60	3829.12
415.79	4021.04
415.98	4011.68
416.17	3838.48
416.36	3920.40
416.55	3901.67
416.74	3946.14
416.93	4037.42
417.12	4105.30
417.31	4203.60
417.50	4065.51
417.69	4245.73
417.88	4306.59
418.07	4217.65
418.26	4280.84
418.45	4229.35
418.64	4409.57
418.83	4390.84
419.02	4367.44
419.21	4339.35
419.39	4493.83
419.58	4561.70
419.77	4517.23
419.96	4573.41
420.15	4582.77
420.34	4671.71
420.53	4716.18
420.72	4503.19
420.91	4655.33
421.10	4704.48
421.29	4786.40
421.48	4606.17
421.67	4760.65
421.86	4795.76
422.05	4781.71
422.24	4662.35
422.43	4870.65
422.61	4762.99
422.80	4917.47
422.99	5001.72
423.18	4966.62
423.37	4908.10
423.56	4968.96
423.75	4744.27
423.94	4786.40
424.13	4552.34
424.32	4889.38
424.50	4957.25
424.69	5055.56
424.88	5034.49
425.07	4821.50
425.26	4767.67
425.45	4690.43
425.64	4891.72
425.83	4880.02
426.01	4882.36
426.20	4940.87
426.39	4952.57
426.58	5156.20
426.77	5137.48
426.96	5109.39
427.15	5156.20
427.33	5156.20
427.52	5153.86
427.71	5256.84
427.90	5242.80
428.09	5268.55
428.28	5240.46
428.46	5366.85
428.65	5310.68
428.84	5479.19
429.03	5439.40
429.22	5320.04
429.40	5355.15
429.59	5441.75
429.78	5261.52
429.97	5355.15
430.16	5371.53
430.34	5500.26
430.53	5568.13
430.72	5600.90
430.91	5584.52
431.10	5577.50
431.28	5710.91
431.47	5685.16
431.66	5853.68
431.85	5699.20
432.03	5865.38
432.22	5912.19
432.41	6078.37
432.60	5956.66
432.79	5944.96
432.97	5980.07
433.16	5956.66
433.35	5994.11
433.54	5853.68
433.72	6064.33
433.91	6054.97
434.10	6094.76
434.28	6080.71
434.47	6298.38
434.66	6183.70
434.85	6249.23
435.03	6406.05
435.22	6410.73
435.41	6406.05
435.59	6373.28
435.78	6436.47
435.97	6480.94
436.16	6384.98
436.34	6258.59
436.53	6546.48
436.72	6670.53
436.90	6312.42
437.09	6562.86
437.28	6459.88
437.46	6469.24
437.65	6530.09
437.84	6637.76
438.02	6574.56
438.21	6656.48
438.40	6700.95
438.58	7014.59
438.77	6881.18
438.96	6871.81
439.14	7157.36
439.33	7089.48
439.52	7250.98
439.70	7267.36
439.89	7307.15
440.08	7386.73
440.26	7384.39
440.45	7379.71
440.63	7435.88
440.82	7576.31
441.01	7550.57
441.19	7548.23
441.38	7630.15
441.57	7758.88
441.75	7735.47
441.94	7906.33
442.12	7793.98
442.31	7953.14
442.50	8039.74
442.68	7896.97
442.87	7929.74
443.05	8028.04
443.24	8002.29
443.43	8133.36
443.61	8109.96
443.80	8439.97
443.98	8074.85
444.17	7866.54
444.35	8177.83
444.54	8299.54
444.73	8081.87
444.91	8184.85
445.10	8360.39
445.28	8344.01
445.47	8182.51
445.65	8336.99
445.84	8510.19
446.02	8383.80
446.21	8177.83
446.39	8255.07
446.58	8444.65
446.77	8442.31
446.95	8273.79
447.14	8463.38
447.32	8547.64
447.51	8489.12
447.69	8259.75
447.88	8374.44
448.06	8489.12
448.25	8444.65
448.43	8461.04
448.62	8409.54
448.80	8526.57
448.99	8798.07
449.17	8716.16
449.36	8648.28
449.54	8898.72
449.73	8671.68
449.91	8903.40
450.10	8945.53
450.28	9214.69
450.46	8992.34
450.65	8926.80
450.83	9074.26
451.02	8954.89
451.20	9231.07
451.39	8954.89
451.57	8968.93
451.76	9163.20
451.94	9088.30
452.13	9371.50
452.31	9088.30
452.49	9273.20
452.68	9509.60
452.86	9205.33
453.05	9245.12
453.23	9561.09
453.42	9327.03
453.60	9245.12
453.78	9654.71
453.97	9486.19
454.15	9245.12
454.34	9256.82
454.52	9734.29
454.70	9858.34
454.89	9738.97
455.07	9514.28
455.26	9647.69
455.44	9851.31
455.62	9966.00
455.81	9795.14
455.99	9996.43
456.17	9809.19
456.36	9809.19
456.54	10242.18
456.73	10338.15
456.91	10459.85
457.09	10530.07
457.28	10490.28
457.46	10160.27
457.64	10429.43
457.83	10476.24
458.01	10272.61
458.19	10750.08
458.38	10621.35
458.56	10377.94
458.74	10562.84
458.93	10532.41
459.11	10754.76
459.29	10864.77
459.48	10719.65
459.66	10881.15
459.84	10857.75
460.03	10890.51
460.21	10991.16
460.39	11215.85
460.57	11052.01
460.76	11236.91
460.94	10911.58
461.12	11089.46
461.31	11138.61
461.49	11164.36
461.67	11101.16
461.85	11480.33
462.04	10981.79
462.22	11829.07
462.40	11496.71
462.59	11419.47
462.77	11311.81
462.95	11669.91
463.13	11538.84
463.32	11529.48
463.50	11705.02
463.68	11637.14
463.86	11918.01
464.05	11571.61
464.23	11344.58
464.41	11716.72
464.59	11597.35
464.78	12135.68
464.96	11800.98
465.14	11602.04
465.32	11929.71
465.50	12259.73
465.69	12131.00
465.87	12063.12
466.05	12020.99
466.23	12194.19
466.41	12250.36
466.60	12250.36
466.78	11978.86
466.96	11845.45
467.14	12095.89
467.32	12348.67
467.51	12482.08
467.69	12112.27
467.87	12620.17
468.05	12395.48
468.23	12304.20
468.41	12231.64
468.60	12587.40
468.78	12784.01
468.96	12292.49
469.14	12655.28
469.32	12779.32
469.50	12620.17
469.69	12973.59
469.87	13069.55
470.05	12940.82
470.23	13069.55
470.41	12996.99
470.59	13048.49
470.77	13043.81
470.95	13025.08
471.14	13432.33
471.32	12978.27
471.50	13621.92
471.68	13547.02
471.86	13444.04
472.04	13741.29
472.22	13923.85
472.40	13217.01
472.58	13572.77
472.77	13748.31
472.95	13855.97
473.13	14375.57
473.31	14129.81
473.49	14022.15
473.67	14178.97
473.85	14125.13
474.03	14656.43
474.21	14525.36
474.39	14654.09
474.57	14551.11
474.75	14874.10
474.93	14780.48
475.12	14829.63
475.30	14916.23
475.48	14782.82
475.66	15049.64
475.84	15033.26
476.02	15234.55
476.20	15393.70
476.38	15330.51
476.56	15957.77
476.74	16105.23
476.92	15466.26
477.10	15611.37
477.28	15995.22
477.46	16154.38
477.64	16163.74
477.82	16393.11
478.00	16613.12
478.18	16762.92
478.36	17048.46
478.54	16901.01
478.72	17198.26
478.90	17352.73
479.08	17539.97
479.26	17495.50
479.44	17233.36
479.62	17834.88
479.80	18003.40
479.98	18008.08
480.16	18265.54
480.34	18174.26
480.52	18534.70
480.70	18710.24
480.88	18328.74
481.06	18445.76
481.24	18644.71
481.41	18984.09
481.59	19164.31
481.77	19286.01
481.95	19328.14
482.13	19840.72
482.31	19580.92
482.49	20140.31
482.67	19913.28
482.85	20121.59
483.03	20519.48
483.21	20755.87
483.39	20872.90
483.57	20563.95
483.74	20922.05
483.92	21149.08
484.10	20978.22
484.28	21509.52
484.46	21942.52
484.64	21874.65
484.82	21823.16
485.00	22106.36
485.18	22647.02
485.35	22909.16
485.53	22710.22
485.71	22707.88
485.89	23206.41
486.07	23030.87
486.25	23300.03
486.43	23529.41
486.61	24037.30
486.78	23782.18
486.96	24276.04
487.14	24531.15
487.32	24456.26
487.50	24900.96
487.68	25060.12
487.85	24730.10
488.03	25322.26
488.21	25675.68
488.39	25546.95
488.57	26122.72
488.75	26059.52
488.92	26368.48
489.10	26607.21
489.28	26581.46
489.46	26998.08
489.64	26904.46
489.81	27625.34
489.99	27618.32
490.17	27402.99
490.35	28210.48
490.53	28102.81
490.70	27882.80
490.88	28109.83
491.06	28570.92
491.24	28802.63
491.41	28797.95
491.59	29170.10
491.77	29195.84
491.95	29149.03
492.13	29518.84
492.30	29993.97
492.48	29986.94
492.66	29806.72
492.84	29802.04
493.01	30354.41
493.19	30389.52
493.37	30979.33
493.54	30944.22
493.72	31220.41
493.90	30974.65
494.08	31690.85
494.25	31639.36
494.43	32093.43
494.61	31948.31
494.79	31950.65
494.96	32086.40
495.14	32582.60
495.32	32816.65
495.49	32414.08
495.67	33046.02
495.85	33053.05
496.02	33500.09
496.20	33916.70
496.38	33865.21
496.55	33514.13
496.73	34373.11
496.91	34242.04
497.09	34321.62
497.26	34981.65
497.44	34618.86
497.62	35292.94
497.79	35557.42
497.97	35508.27
498.14	35831.26
498.32	35587.85
498.50	35810.20
498.67	36409.37
498.85	36126.17
499.03	36308.73
499.20	36833.01
499.38	36360.22
499.56	36868.12
499.73	36683.22
499.91	36935.99
500.08	37160.69
500.26	37329.20
500.44	37694.33
500.61	37436.87
500.79	37500.06
500.97	37806.67
501.14	38562.67
501.32	38431.60
501.49	38080.52
501.67	38059.45
501.84	38412.87
502.02	38719.48
502.20	38745.23
502.37	38948.85
502.55	38902.04
502.72	38459.68
502.90	39192.27
503.07	39157.16
503.25	39351.43
503.43	39522.29
503.60	39751.66
503.78	39915.50
503.95	39812.51
504.13	40175.30
504.30	40556.80
504.48	40128.48
504.65	40327.43
504.83	40886.82
505.01	41317.48
505.18	40802.56
505.36	41160.66
505.53	41193.43
505.71	41163.00
505.88	41794.95
506.06	41298.75
506.23	41785.58
506.41	41724.73
506.58	41542.17
506.76	41900.27
506.93	42153.05
507.11	42160.07
507.28	42239.65
507.46	42241.99
507.63	42728.82
507.81	42972.24
507.98	42422.21
508.16	42740.52
508.33	43250.76
508.50	43452.05
508.68	43136.07
508.85	43243.74
509.03	43421.62
509.20	44126.12
509.38	43702.48
509.55	44278.25
509.73	44060.58
509.90	44430.39
510.08	44446.77
510.25	44320.38
510.42	44854.03
510.60	44844.66
510.77	44882.11
510.95	45265.96
511.12	44940.63
511.30	44837.64
511.47	45055.31
511.64	44914.88
511.82	45497.67
511.99	45090.42
512.17	45492.99
512.34	45752.79
512.51	45848.75
512.69	45785.56
512.86	46199.83
513.04	46337.93
513.21	46185.79
513.38	46567.30
513.56	46791.99
513.73	46513.47
513.90	46759.22
514.08	46089.83
514.25	47056.47
514.43	47103.28
514.60	47103.28
514.77	47119.66
514.95	47494.15
515.12	46911.36
515.29	47129.03
515.47	47662.67
515.64	48196.31
515.81	47990.34
515.99	47901.40
516.16	48088.65
516.33	47992.68
516.51	48584.84
516.68	47955.24
516.85	48318.02
517.03	48582.50
517.20	48493.56
517.37	48428.02
517.54	48236.10
517.72	48919.54
517.89	48729.95
518.06	48701.87
518.24	49003.80
518.41	48999.12
518.58	49481.27
518.75	49188.70
518.93	49158.27
519.10	49254.23
519.27	49247.21
519.45	49593.61
519.62	49504.67
519.79	49844.05
519.96	49977.46
520.14	50286.41
520.31	49734.04
520.48	49773.83
520.65	50195.13
520.83	50564.93
521.00	50651.53
521.17	50375.35
521.34	50354.29
521.52	50794.31
521.69	50464.29
521.86	50536.85
522.03	51054.11
522.20	51285.82
522.38	51164.11
522.55	50862.18
522.72	51260.07
522.89	50859.84
523.07	51414.55
523.24	51360.72
523.41	51337.31
523.58	51042.40
523.75	51456.68
523.92	51643.92
524.10	51931.81
524.27	51437.95
524.44	51751.59
524.61	51854.57
524.78	51772.65
524.96	51779.67
525.13	52205.65
525.30	52390.55
525.47	52294.59
525.64	51964.57
525.81	52212.67
525.98	52484.17
526.16	52542.69
526.33	52186.92
526.50	52774.40
526.67	52603.54
526.84	52547.37
527.01	52722.91
527.18	52767.38
527.36	52453.75
527.53	52795.46
527.70	53169.95
527.87	52842.27
528.04	53418.05
528.21	53172.29
528.38	53081.01
528.55	53352.51
528.72	53244.85
528.89	53036.54
529.07	53195.70
529.24	53073.99
529.41	53441.45
529.58	53408.68
529.75	53495.28
529.92	53446.13
530.09	53523.37
530.26	53680.19
530.43	53844.02
530.60	53752.74
530.77	53565.50
530.94	53886.15
531.11	53942.33
531.28	53968.07
531.46	53752.74
531.63	54277.02
531.80	53815.94
531.97	54134.25
532.14	54080.42
532.31	54108.50
532.48	54363.62
532.65	54138.93
532.82	54167.02
532.99	54377.67
533.16	54288.73
533.33	54728.75
533.50	54749.81
533.67	54667.89
533.84	54497.03
534.01	54663.21
534.18	54630.44
534.35	55077.49
534.52	54906.63
534.69	54911.31
534.86	55133.66
535.03	54714.70
535.20	54941.74
535.37	55241.32
535.54	55461.33
535.71	55103.23
535.88	55131.32
536.05	55117.28
536.22	55391.12
536.38	55323.24
536.55	55166.43
536.72	55178.13
536.89	55138.34
537.06	55370.05
537.23	55606.45
537.40	55367.71
537.57	55650.92
537.74	55323.24
537.91	55725.81
538.08	55615.81
538.25	55550.27
538.42	55931.78
538.59	55805.39
538.75	55583.04
538.92	56030.08
539.09	55854.54
539.26	56046.47
539.43	56205.62
539.60	56032.42
539.77	56060.51
539.94	56292.22
540.11	56327.33
540.28	56088.60
540.44	56090.94
540.61	56100.30
540.78	56116.68
540.95	56296.91
541.12	56128.39
541.29	56170.52
541.46	56287.54
541.62	56622.24
541.79	56486.49
541.96	56390.53
542.13	56200.94
542.30	56390.53
542.47	56631.60
542.63	56748.63
542.80	56643.30
542.97	56952.26
543.14	57209.71
543.31	57104.39
543.48	57078.64
543.64	57073.96
543.81	57244.82
543.98	57226.10
544.15	57153.54
544.32	57195.67
544.48	57406.32
544.65	57160.56
544.82	57399.30
544.99	56980.34
545.16	57340.78
545.32	57326.74
545.49	57535.05
545.66	57537.39
545.83	57481.22
546.00	57425.04
546.16	57425.04
546.33	57338.44
546.50	57226.10
546.67	57675.48
546.83	57228.44
547.00	57551.43
547.17	57495.26
547.34	57661.44
547.50	57670.80
547.67	57958.69
547.84	57925.92
548.00	57785.49
548.17	58159.97
548.34	57895.49
548.51	57890.81
548.67	58190.40
548.84	57836.98
549.01	58085.07
549.18	57965.71
549.34	57867.40
549.51	58042.95
549.68	58192.74
549.84	58335.51
550.01	58181.04
550.18	58103.80
550.34	58344.87
550.51	58293.38
550.68	58206.78
550.84	57904.85
551.01	58342.53
551.18	58267.64
551.34	58328.49
551.51	58211.46
551.68	58525.10
551.84	58625.74
552.01	58457.22
552.18	58454.88
552.34	58361.26
552.51	58309.77
552.68	58302.74
552.84	58440.84
553.01	58834.05
553.18	58698.30
553.34	58768.51
553.51	58670.21
553.67	58653.82
553.84	58773.19
554.01	58745.11
554.17	58901.92
554.34	58993.20
554.51	58738.08
554.67	58822.34
554.84	58812.98
555.00	58742.77
555.17	58789.58
555.33	59028.31
555.50	58897.24
555.67	58698.30
555.83	58815.32
556.00	58901.92
556.16	59245.98
556.33	58915.96
556.50	59096.19
556.66	59075.12
556.83	58695.95
556.99	59224.92
557.16	59435.56
557.32	59274.07
557.49	59402.80
557.65	59152.36
557.82	59346.62
557.98	59271.73
558.15	59332.58
558.32	59419.18
558.48	59164.06
558.65	59386.41
558.81	59309.18
558.98	59231.94
559.14	59412.16
559.31	59365.35
559.47	59320.88
559.64	59533.87
559.80	59487.06
559.97	59561.95
560.13	59576.00
560.30	59704.73
560.46	59632.17
560.63	59730.47
560.79	59779.62
560.96	59861.54
561.12	59552.59
561.29	59543.23
561.45	59716.43
561.61	59571.32
561.78	59767.92
561.94	59545.57
562.11	59913.03
562.27	59674.30
562.44	59744.51
562.60	59831.11
562.77	59817.07
562.93	59763.24
563.10	59819.41
563.26	59803.03
563.42	59875.58
563.59	60046.44
563.75	59613.44
563.92	59863.88
564.08	60023.04
564.24	59934.10
564.41	59955.16
564.57	59854.52
564.74	60205.60
564.90	60048.78
565.07	59896.65
565.23	59929.42
565.39	59901.33
565.56	60186.88
565.72	59856.86
565.88	60051.12
566.05	59934.10
566.21	59849.84
566.38	60053.47
566.54	60109.64
566.70	60179.85
566.87	60175.17
567.03	59828.77
567.19	60261.77
567.36	60280.50
567.52	60060.49
567.68	60268.79
567.85	60341.35
568.01	60214.96
568.17	60177.51
568.34	60205.60
568.50	60229.01
568.66	60343.69
568.83	60292.20
568.99	60221.98
569.15	60275.82
569.32	60196.24
569.48	60247.73
569.64	60266.45
569.81	60186.88
569.97	60055.81
570.13	60395.18
570.30	60184.54
570.46	60289.86
570.62	60341.35
570.78	60420.93
570.95	60261.77
571.11	60392.84
571.27	60324.97
571.43	60339.01
571.60	60317.95
571.76	60434.97
571.92	60467.74
572.09	60402.21
572.25	60491.15
572.41	60486.46
572.57	60336.67
572.74	60587.11
572.90	60376.46
573.06	60212.62
573.22	60463.06
573.38	60601.15
573.55	60240.71
573.71	60629.24
573.87	60329.65
574.03	60383.48
574.20	60605.83
574.36	60458.38
574.52	60678.39
574.68	60561.36
574.84	60697.11
575.01	60552.00
575.17	60470.08
575.33	60568.38
575.49	60552.00
575.65	60582.43
575.82	60734.56
575.98	60790.73
576.14	60746.26
576.30	60556.68
576.46	60596.47
576.62	60498.17
576.79	60453.70
576.95	60406.89
577.11	60678.39
577.27	60654.98
577.43	60645.62
577.59	60720.52
577.75	60556.68
577.92	60388.16
578.08	60657.32
578.24	60748.60
578.40	60860.95
578.56	60940.53
578.72	60715.84
578.88	60879.67
579.04	60865.63
579.21	60596.47
579.37	60900.74
579.53	60736.90
579.69	60519.23
579.85	60486.46
580.01	60706.47
580.17	60502.85
580.33	60907.76
580.49	60814.14
580.65	60757.97
580.82	60774.35
580.98	60608.17
581.14	60552.00
581.30	60800.10
581.46	60598.81
581.62	60769.67
581.78	60481.78
581.94	60966.27
582.10	60694.77
582.26	60643.28
582.42	60772.01
582.58	60715.84
582.74	60626.90
582.90	60828.18
583.06	60823.50
583.22	60722.86
583.38	60818.82
583.54	60809.46
583.70	60898.40
583.86	60903.08
584.02	60779.03
584.18	60835.20
584.34	60802.44
584.50	60690.09
584.66	60718.18
584.82	60774.35
584.98	61123.09
585.14	61008.40
585.30	60619.88
585.46	61048.19
585.62	60748.60
585.78	60872.65
585.94	60701.79
586.10	60654.98
586.26	60748.60
586.42	60867.97
586.58	60924.14
586.74	60928.83
586.90	60804.78
587.06	60760.31
587.22	61034.15
587.38	60966.27
587.54	61015.43
587.70	61052.87
587.86	60989.68
588.02	60814.14
588.18	61066.92
588.34	60797.76
588.49	60970.96
