SpectraSuite Data File
++++++++++++++++++++++++++++++++++++
Date: Fri Oct 25 10:48:33 EDT 2013
User: price-jones
Dark Spectrum Present: No
Reference Spectrum Present: No
Number of Sampled Component Spectra: 1
Spectrometers: USB2+H05261
Integration Time (usec): 100000 (USB2+H05261)
Spectra Averaged: 1 (USB2+H05261)
Boxcar Smoothing: 0 (USB2+H05261)
Correct for Electrical Dark: No (USB2+H05261)
Strobe/Lamp Enabled: No (USB2+H05261)
Correct for Detector Non-linearity: No (USB2+H05261)
Correct for Stray Light: No (USB2+H05261)
Number of Pixels in Processed Spectrum: 2048
>>>>>Begin Processed Spectral Data<<<<<
365.73	140.43
365.92	140.43
366.12	140.43
366.32	67.88
366.52	95.96
366.72	77.24
366.91	51.49
367.11	32.77
367.31	46.81
367.51	0.00
367.70	149.79
367.90	35.11
368.10	0.00
368.30	60.85
368.49	0.00
368.69	58.51
368.89	56.17
369.09	2.34
369.28	46.81
369.48	133.41
369.68	135.75
369.87	117.03
370.07	140.43
370.27	170.86
370.47	236.39
370.66	374.49
370.86	463.43
371.06	479.81
371.25	454.06
371.45	416.62
371.65	444.70
371.84	493.85
372.04	489.17
372.24	451.72
372.44	449.38
372.63	573.43
372.83	554.71
373.03	543.00
373.22	552.37
373.42	606.20
373.62	519.60
373.81	531.30
374.01	564.07
374.21	634.29
374.40	599.18
374.60	692.80
374.79	561.73
374.99	624.92
375.19	592.16
375.38	524.28
375.58	657.69
375.78	634.29
375.97	617.90
376.17	737.27
376.37	688.12
376.56	617.90
376.76	620.24
376.95	676.41
377.15	662.37
377.35	678.76
377.54	702.16
377.74	671.73
377.93	674.07
378.13	711.52
378.33	660.03
378.52	725.57
378.72	688.12
378.91	615.56
379.11	671.73
379.31	709.18
379.50	622.58
379.70	683.44
379.89	730.25
380.09	746.63
380.28	772.38
380.48	763.01
380.68	699.82
380.87	734.93
381.07	753.65
381.26	781.74
381.46	812.17
381.65	779.40
381.85	746.63
382.04	807.48
382.24	669.39
382.43	772.38
382.63	739.61
382.83	741.95
383.02	725.57
383.22	744.29
383.41	784.08
383.61	774.72
383.80	875.36
384.00	833.23
384.19	847.27
384.39	858.98
384.58	767.70
384.78	828.55
384.97	842.59
385.17	840.25
385.36	856.64
385.56	851.96
385.75	760.67
385.95	856.64
386.14	821.53
386.34	917.49
386.53	936.21
386.72	875.36
386.92	910.47
387.11	1036.86
387.31	880.04
387.50	870.68
387.70	922.17
387.89	976.00
388.09	898.77
388.28	992.39
388.48	931.53
388.67	1053.24
388.86	947.92
389.06	1057.92
389.25	1048.56
389.45	1039.20
389.64	1020.47
389.84	983.02
390.03	1095.37
390.22	1109.41
390.42	1097.71
390.61	990.05
390.81	1125.80
391.00	994.73
391.19	1095.37
391.39	1186.65
391.58	1116.44
391.78	1109.41
391.97	1093.03
392.16	1050.90
392.36	1137.50
392.55	1076.65
392.75	1067.28
392.94	1050.90
393.13	1041.54
393.33	1050.90
393.52	1184.31
393.71	1104.73
393.91	1088.35
394.10	1163.25
394.29	1128.14
394.49	1240.48
394.68	1217.08
394.88	1200.69
395.07	1308.36
395.26	1282.61
395.46	1235.80
395.65	1355.17
395.84	1214.74
396.04	1299.00
396.23	1203.04
396.42	1268.57
396.62	1224.10
396.81	1259.21
397.00	1315.38
397.19	1364.53
397.39	1437.09
397.58	1345.81
397.77	1448.79
397.97	1455.81
398.16	1476.88
398.35	1500.28
398.55	1626.67
398.74	1526.03
398.93	1540.07
399.12	1558.80
399.32	1544.75
399.51	1589.22
399.70	1593.90
399.90	1654.76
400.09	1621.99
400.28	1596.25
400.47	1682.85
400.67	1795.19
400.86	1680.50
401.05	1739.02
401.24	1778.81
401.44	1729.66
401.63	1771.79
401.82	1820.94
402.01	1739.02
402.21	1769.44
402.40	1820.94
402.59	1778.81
402.78	1799.87
402.97	1865.41
403.17	1877.11
403.36	1858.39
403.55	1930.94
403.74	1982.43
403.93	1977.75
404.13	1842.00
404.32	1886.47
404.51	1849.02
404.70	2029.24
404.89	1923.92
405.09	2066.69
405.28	2012.86
405.47	2022.22
405.66	1975.41
405.85	2005.84
406.05	2057.33
406.24	2132.23
406.43	2148.61
406.62	2134.57
406.81	2186.06
407.00	2101.80
407.20	2071.37
407.39	2167.34
407.58	2232.87
407.77	2221.17
407.96	2326.49
408.15	2340.54
408.34	2251.60
408.54	2434.16
408.73	2300.75
408.92	2335.85
409.11	2410.75
409.30	2319.47
409.49	2370.96
409.68	2338.20
409.87	2359.26
410.07	2403.73
410.26	2410.75
410.45	2504.37
410.64	2530.12
410.83	2581.61
411.02	2588.63
411.21	2696.30
411.40	2672.89
411.59	2649.49
411.78	2623.74
411.98	2623.74
412.17	2761.83
412.36	2745.45
412.55	2750.13
412.74	2867.16
412.93	2860.13
413.12	2799.28
413.31	2991.20
413.50	2909.29
413.69	2944.39
413.88	2869.50
414.07	2988.86
414.26	2977.16
414.45	3080.14
414.64	3040.36
414.83	3150.36
415.02	3108.23
415.22	3178.45
415.41	3183.13
415.60	3234.62
415.79	3318.88
415.98	3332.92
416.17	3332.92
416.36	3260.37
416.55	3260.37
416.74	3302.50
416.93	3370.37
417.12	3482.72
417.31	3363.35
417.50	3361.01
417.69	3583.36
417.88	3585.70
418.07	3522.51
418.26	3548.25
418.45	3499.10
418.64	3604.42
418.83	3611.45
419.02	3634.85
419.21	3779.97
419.39	3641.87
419.58	3712.09
419.77	3695.71
419.96	3772.94
420.15	3861.88
420.34	3777.62
420.53	3948.48
420.72	3941.46
420.91	3976.57
421.10	3904.01
421.29	3932.10
421.48	3843.16
421.67	3985.93
421.86	3964.87
422.05	3873.59
422.24	3950.82
422.43	3922.74
422.61	3875.93
422.80	3957.85
422.99	3941.46
423.18	3997.64
423.37	4154.45
423.56	4060.83
423.75	4046.79
423.94	3920.40
424.13	3878.27
424.32	3948.48
424.50	4112.32
424.69	3983.59
424.88	4252.75
425.07	3950.82
425.26	3941.46
425.45	4086.58
425.64	4168.49
425.83	4056.15
426.01	4243.39
426.20	4088.92
426.39	4212.96
426.58	4086.58
426.77	4079.55
426.96	4145.09
427.15	4219.99
427.33	4175.52
427.52	4028.06
427.71	4266.80
427.90	4252.75
428.09	4124.02
428.28	4187.22
428.46	4365.10
428.65	4219.99
428.84	4437.66
429.03	4365.10
429.22	4138.07
429.40	4243.39
429.59	4093.60
429.78	4049.13
429.97	4044.45
430.16	4133.39
430.34	4210.62
430.53	4184.88
430.72	4285.52
430.91	4189.56
431.10	4418.93
431.28	4812.14
431.47	4751.29
431.66	4732.56
431.85	4629.58
432.03	4610.86
432.22	4877.68
432.41	4905.76
432.60	4802.78
432.79	4985.34
432.97	4748.95
433.16	4868.31
433.35	4800.44
433.54	4849.59
433.72	4929.17
433.91	4753.63
434.10	4882.36
434.28	4945.55
434.47	4952.57
434.66	4950.23
434.85	5064.92
435.03	5181.95
435.22	5008.75
435.41	5371.53
435.59	5144.50
435.78	5331.74
435.97	5324.72
436.16	5336.42
436.34	5387.91
436.53	5240.46
436.72	5446.43
436.90	5210.03
437.09	5296.63
437.28	5373.87
437.46	5348.12
437.65	5441.75
437.84	5458.13
438.02	5177.26
438.21	5453.45
438.40	5334.08
438.58	5488.56
438.77	5572.82
438.96	5523.66
439.14	5638.35
439.33	5626.65
439.52	5783.46
439.70	5799.85
439.89	5682.82
440.08	5888.79
440.26	5980.07
440.45	5776.44
440.63	6064.33
440.82	6104.12
441.01	6033.90
441.19	6225.82
441.38	6164.97
441.57	6181.35
441.75	6289.02
441.94	6471.58
442.12	6511.37
442.31	6609.67
442.50	6525.41
442.68	6504.35
442.87	6502.01
443.05	6406.05
443.24	6715.00
443.43	6602.65
443.61	6686.91
443.80	6775.85
443.98	6417.75
444.17	6340.51
444.35	6612.01
444.54	6654.14
444.73	6679.89
444.91	6656.48
445.10	6665.85
445.28	6356.90
445.47	6523.07
445.65	6537.12
445.84	6836.70
446.02	6815.64
446.21	6782.87
446.39	6860.11
446.58	6970.12
446.77	6981.82
446.95	6813.30
447.14	6927.99
447.32	6888.20
447.51	6935.01
447.69	6750.10
447.88	6925.65
448.06	7005.22
448.25	6967.77
448.43	7030.97
448.62	6796.92
448.80	6986.50
448.99	7023.95
449.17	7133.95
449.36	7096.50
449.54	7014.59
449.73	7129.27
449.91	7279.07
450.10	7531.84
450.28	7360.98
450.46	7447.58
450.65	7569.29
450.83	7527.16
451.02	7325.88
451.20	7592.70
451.39	7393.75
451.57	7506.10
451.76	7527.16
451.94	7382.05
452.13	7438.22
452.31	7461.63
452.49	7405.46
452.68	7393.75
452.86	7337.58
453.05	7522.48
453.23	7517.80
453.42	7496.74
453.60	7372.69
453.78	7693.34
453.97	7543.55
454.15	7620.78
454.34	7597.38
454.52	7705.04
454.70	7765.90
454.89	7723.77
455.07	7864.20
455.26	7775.26
455.44	7857.18
455.62	7889.95
455.81	7971.86
455.99	8049.10
456.17	7971.86
456.36	8035.06
456.54	8215.28
456.73	8283.16
456.91	8355.71
457.09	8175.49
457.28	8465.72
457.46	8297.20
457.64	8348.69
457.83	8271.45
458.01	8308.90
458.19	8500.83
458.38	8325.29
458.56	8559.34
458.74	8568.70
458.93	8468.06
459.11	8409.54
459.29	8617.85
459.48	8662.32
459.66	8662.32
459.84	8489.12
460.03	8669.34
460.21	8842.54
460.39	8854.25
460.57	8837.86
460.76	8901.06
460.94	8734.88
461.12	9025.11
461.31	8858.93
461.49	8964.25
461.67	8994.68
461.85	9048.51
462.04	8990.00
462.22	9640.67
462.40	9186.60
462.59	8980.64
462.77	9284.91
462.95	9029.79
463.13	9060.21
463.32	8910.42
463.50	9270.86
463.68	9294.27
463.86	9296.61
464.05	9263.84
464.23	9179.58
464.41	9338.74
464.59	9132.77
464.78	9575.13
464.96	9301.29
465.14	9320.01
465.32	9465.13
465.50	9640.67
465.69	9521.30
465.87	9561.09
466.05	9507.26
466.23	9448.74
466.41	9547.05
466.60	9589.17
466.78	9399.59
466.96	9804.50
467.14	9572.79
467.32	9823.23
467.51	9804.50
467.69	9378.53
467.87	9710.88
468.05	10078.35
468.23	9617.26
468.41	9755.35
468.60	9895.78
468.78	10054.94
468.96	9682.80
469.14	9874.72
469.32	9996.43
469.50	9664.07
469.69	10181.33
469.87	9987.07
470.05	9940.26
470.23	10153.24
470.41	10033.88
470.59	10356.87
470.77	10090.05
470.95	10083.03
471.14	10597.95
471.32	10256.23
471.50	10396.66
471.68	10771.15
471.86	10466.88
472.04	10740.72
472.22	10902.22
472.40	10537.09
472.58	10569.86
472.77	10810.93
472.95	10843.70
473.13	11035.63
473.31	10853.06
473.49	10911.58
473.67	10801.57
473.85	10930.30
474.03	11351.60
474.21	11332.87
474.39	11417.13
474.57	11515.44
474.75	11487.35
474.93	11403.09
475.12	11552.88
475.30	11822.05
475.48	11442.88
475.66	11688.64
475.84	11515.44
476.02	11826.73
476.20	11571.61
476.38	11798.64
476.56	12187.17
476.74	12173.13
476.92	12336.96
477.10	12154.40
477.28	12290.15
477.46	12442.29
477.64	12528.89
477.82	12741.88
478.00	13004.02
478.18	12896.35
478.36	12931.46
478.54	12994.65
478.72	13050.83
478.90	13455.74
479.08	13458.08
479.26	13327.01
479.44	13479.15
479.62	13591.49
479.80	13907.46
479.98	13738.94
480.16	14108.75
480.34	13884.06
480.52	14024.49
480.70	14075.98
480.88	13909.80
481.06	14305.35
481.24	14359.19
481.41	14721.97
481.59	14551.11
481.77	14916.23
481.95	14733.67
482.13	15033.26
482.31	14616.65
482.49	15300.08
482.67	15208.80
482.85	15632.44
483.03	15704.99
483.21	15562.22
483.39	15747.12
483.57	15812.66
483.74	15950.75
483.92	15812.66
484.10	15946.07
484.28	16297.15
484.46	16432.90
484.64	16730.15
484.82	16638.87
485.00	16554.61
485.18	17027.40
485.35	16762.92
485.53	16662.27
485.71	16477.37
485.89	16842.50
486.07	16992.29
486.25	17212.30
486.43	16996.97
486.61	17640.62
486.78	17778.71
486.96	18171.92
487.14	18249.16
487.32	18401.29
487.50	18424.70
487.68	18778.12
487.85	18754.71
488.03	18916.21
488.21	18972.38
488.39	19058.98
488.57	19082.39
488.75	19143.24
488.92	19623.05
489.10	19974.13
489.28	20123.93
489.46	20191.80
489.64	20084.14
489.81	20638.84
489.99	20781.62
490.17	20432.88
490.35	21090.57
490.53	21113.97
490.70	21022.69
490.88	21142.06
491.06	21518.89
491.24	21453.35
491.41	21338.66
491.59	21710.81
491.77	21319.94
491.95	21816.13
492.13	21764.64
492.30	22160.19
492.48	22242.11
492.66	22324.03
492.84	22188.28
493.01	22808.52
493.19	22698.52
493.37	22789.80
493.54	22967.68
493.72	23304.71
493.90	23496.64
494.08	23075.34
494.25	23606.64
494.43	23943.68
494.61	23901.55
494.79	24374.34
494.96	23964.75
495.14	23971.77
495.32	24404.77
495.49	24383.70
495.67	24149.65
495.85	24636.48
496.02	24725.42
496.20	24816.70
496.38	25273.10
496.55	25350.34
496.73	26043.14
496.91	25647.59
497.09	25504.82
497.26	25907.39
497.44	25848.88
497.62	26019.74
497.79	26338.05
497.97	25773.98
498.14	26125.06
498.32	26300.60
498.50	26434.01
498.67	26565.08
498.85	26780.41
499.03	27157.24
499.20	26792.11
499.38	26670.40
499.56	26859.99
499.73	27136.17
499.91	27281.28
500.08	27173.62
500.26	27087.02
500.44	27166.60
500.61	27246.18
500.79	27517.68
500.97	27541.08
501.14	27854.72
501.32	27948.34
501.49	27864.08
501.67	27819.61
501.84	27824.29
502.02	28121.54
502.20	28290.06
502.37	28126.22
502.55	28350.91
502.72	28610.71
502.90	28725.39
503.07	28978.17
503.25	28973.49
503.43	28783.91
503.60	29200.52
503.78	29495.43
503.95	29050.73
504.13	29383.09
504.30	29752.89
504.48	29469.69
504.65	29570.33
504.83	30010.35
505.01	29916.73
505.18	30118.01
505.36	30551.01
505.53	30221.00
505.71	30555.69
505.88	30476.12
506.06	30410.58
506.23	30553.35
506.41	30103.97
506.58	30588.46
506.76	30452.71
506.93	30553.35
507.11	30597.82
507.28	31040.18
507.46	31234.45
507.63	31014.44
507.81	31159.55
507.98	30866.98
508.16	31152.53
508.33	31440.42
508.50	31599.57
508.68	31758.73
508.85	32093.43
509.03	32023.21
509.20	31960.02
509.38	31955.33
509.55	31938.95
509.73	32095.77
509.90	32093.43
510.08	31906.18
510.25	32477.27
510.42	32507.70
510.60	32697.28
510.77	32744.09
510.95	32858.78
511.12	32608.34
511.30	32910.27
511.47	33244.97
511.64	33184.12
511.82	33060.07
511.99	32875.16
512.17	33596.05
512.34	33369.02
512.51	33607.75
512.69	33572.64
512.86	33542.22
513.04	33647.54
513.21	34038.41
513.38	33432.21
513.56	33926.07
513.73	33497.75
513.90	34110.97
514.08	33830.10
514.25	34068.84
514.43	33989.26
514.60	34057.14
514.77	34691.42
514.95	34433.96
515.12	34555.67
515.29	34609.50
515.47	34969.94
515.64	34637.59
515.81	34763.98
515.99	34745.25
516.16	34579.07
516.33	34415.24
516.51	34340.34
516.68	33708.40
516.85	34033.73
517.03	34728.87
517.20	35063.57
517.37	34728.87
517.54	35267.19
517.72	35257.83
517.89	34541.63
518.06	34691.42
518.24	35091.65
518.41	35122.08
518.58	35372.52
518.75	35672.10
518.93	35990.42
519.10	35332.73
519.27	35938.93
519.45	35615.93
519.62	36182.34
519.79	36264.26
519.96	36107.44
520.14	36423.42
520.31	36182.34
520.48	36538.10
520.65	36287.67
520.83	37120.90
521.00	36779.18
521.17	36598.96
521.34	36856.42
521.52	37034.30
521.69	37614.75
521.86	37481.34
522.03	37188.77
522.20	37546.87
522.38	37130.26
522.55	37413.46
522.72	37195.79
522.89	37509.43
523.07	37741.14
523.24	37317.50
523.41	37862.85
523.58	37500.06
523.75	38457.34
523.92	38672.67
524.10	38127.33
524.27	38536.92
524.44	38342.66
524.61	38445.64
524.78	38274.78
524.96	38525.22
525.13	38518.20
525.30	38480.75
525.47	38756.93
525.64	38560.33
525.81	38705.44
525.98	38122.65
526.16	38136.69
526.33	38260.74
526.50	37970.51
526.67	37912.00
526.84	38532.24
527.01	38246.69
527.18	39054.18
527.36	39166.52
527.53	38951.20
527.70	39835.92
527.87	39269.51
528.04	39349.09
528.21	39412.28
528.38	39353.77
528.55	39976.35
528.72	39838.26
528.89	39796.13
529.07	39936.56
529.24	39381.85
529.41	39611.23
529.58	39606.55
529.75	39353.77
529.92	39566.76
530.09	39601.86
530.26	40432.75
530.43	40341.47
530.60	40245.51
530.77	40402.33
530.94	40378.92
531.11	40315.73
531.28	40177.64
531.46	40509.99
531.63	40292.32
531.80	40327.43
531.97	40788.52
532.14	40374.24
532.31	40025.50
532.48	40629.36
532.65	40758.09
532.82	40861.07
532.99	41071.72
533.16	40252.53
533.33	40942.99
533.50	41228.54
533.67	41148.96
533.84	40776.81
534.01	40980.44
534.18	41163.00
534.35	41631.11
534.52	41553.87
534.69	41305.77
534.86	41565.57
535.03	41441.53
535.20	42031.34
535.37	42213.90
535.54	41909.63
535.71	41558.55
535.88	41844.10
536.05	41701.32
536.22	41869.84
536.38	41963.46
536.55	41696.64
536.72	42019.64
536.89	42047.72
537.06	41921.34
537.23	42110.92
537.40	41961.12
537.57	42160.07
537.74	42209.22
537.91	42415.19
538.08	42281.78
538.25	41645.15
538.42	42157.73
538.59	42749.88
538.75	42295.82
538.92	42143.69
539.09	42307.52
539.26	42120.28
539.43	42569.66
539.60	42380.08
539.77	42497.11
539.94	42831.80
540.11	41830.05
540.28	42581.37
540.44	42326.25
540.61	42452.64
540.78	42569.66
540.95	42522.85
541.12	42689.03
541.29	42906.70
541.46	42953.51
541.62	43100.97
541.79	43559.71
541.96	42328.59
542.13	42857.55
542.30	43145.44
542.47	43386.51
542.63	43468.43
542.80	43185.22
542.97	43538.65
543.14	44083.99
543.31	43826.53
543.48	43421.62
543.64	44025.48
543.81	44266.55
543.98	43782.06
544.15	43777.38
544.32	43669.72
544.48	44229.10
544.65	43643.97
544.82	43861.64
544.99	43440.34
545.16	43973.98
545.32	44161.23
545.49	44542.74
545.66	44023.14
545.83	44048.88
546.00	44165.91
546.16	44446.77
546.33	44114.42
546.50	43702.48
546.67	44507.63
546.83	43981.01
547.00	43906.11
547.17	44414.01
547.34	44123.78
547.50	44435.07
547.67	44477.20
547.84	44266.55
548.00	45090.42
548.17	44978.07
548.34	44837.64
548.51	44575.50
548.67	44828.28
548.84	45027.23
549.01	45036.59
549.18	44516.99
549.34	45315.11
549.51	44804.88
549.68	44978.07
549.84	44900.84
550.01	45331.50
550.18	45010.84
550.34	44725.30
550.51	44767.43
550.68	44989.78
550.84	44526.35
551.01	44914.88
551.18	45099.78
551.34	45069.36
551.51	45209.79
551.68	45251.92
551.84	45532.78
552.01	45188.72
552.18	45174.68
552.34	45165.32
552.51	45310.43
552.68	45413.41
552.84	45558.53
553.01	45755.13
553.18	45308.09
553.34	45443.84
553.51	45352.56
553.67	45294.05
553.84	45937.69
554.01	45970.46
554.17	45811.31
554.34	45897.91
554.51	45963.44
554.67	46024.29
554.84	45722.37
555.00	45804.28
555.17	45890.88
555.33	46401.12
555.50	45684.92
555.67	46080.47
555.83	46136.64
556.00	46043.02
556.16	45776.20
556.33	46153.02
556.50	46031.32
556.66	46153.02
556.83	45574.91
556.99	45993.87
557.16	45958.76
557.32	46113.23
557.49	46389.42
557.65	46206.86
557.82	46232.60
557.98	45853.44
558.15	46066.42
558.32	46129.62
558.48	46080.47
558.65	46176.43
558.81	46171.75
558.98	46438.57
559.14	45724.71
559.31	46494.74
559.47	46272.39
559.64	46459.63
559.80	46209.20
559.97	46265.37
560.13	46017.27
560.30	46335.59
560.46	46197.49
560.63	46492.40
560.79	46487.72
560.96	46490.06
561.12	46291.12
561.29	46316.86
561.45	46424.53
561.61	46548.57
561.78	46263.03
561.94	46604.75
562.11	46354.31
562.27	46410.48
562.44	46511.13
562.60	46813.05
562.77	46712.41
562.93	46487.72
563.10	46796.67
563.26	46546.23
563.42	46925.40
563.59	46864.55
563.75	46689.01
563.92	46850.50
564.08	46920.72
564.24	47185.20
564.41	46705.39
564.57	46408.14
564.74	46698.37
564.90	46775.61
565.07	46679.64
565.23	46808.37
565.39	46534.53
565.56	46904.34
565.72	46581.34
565.88	46487.72
566.05	46476.02
566.21	46796.67
566.38	46733.48
566.54	47007.32
566.70	46906.68
566.87	47447.34
567.03	46880.93
567.19	47224.99
567.36	47107.96
567.52	47175.84
567.68	47103.28
567.85	46852.84
568.01	47409.89
568.17	46600.07
568.34	47012.00
568.50	46885.61
568.66	46630.49
568.83	46628.15
568.99	46637.51
569.15	47072.85
569.32	46960.51
569.48	46777.95
569.64	47049.45
569.81	46696.03
569.97	46604.75
570.13	47077.54
570.30	46511.13
570.46	46735.82
570.62	46492.40
570.78	46237.28
570.95	46892.63
571.11	47269.46
571.27	47384.15
571.43	46955.83
571.60	47112.64
571.76	46658.58
571.92	47033.07
572.09	47028.38
572.25	46789.65
572.41	47117.32
572.57	47173.50
572.74	47430.96
572.90	47131.37
573.06	47026.04
573.22	47456.70
573.38	47030.72
573.55	46588.36
573.71	47239.03
573.87	47201.58
574.03	47070.51
574.20	47290.52
574.36	46787.31
574.52	47175.84
574.68	47194.56
574.84	46990.94
575.01	47112.64
575.17	46735.82
575.33	47068.17
575.49	47318.61
575.65	47166.48
575.82	47618.20
575.98	46899.65
576.14	46995.62
576.30	47133.71
576.46	47070.51
576.62	47342.02
576.79	46883.27
576.95	46876.25
577.11	47454.36
577.27	46972.21
577.43	47019.02
577.59	47098.60
577.75	46820.08
577.92	46997.96
578.08	46838.80
578.24	46534.53
578.40	47253.08
578.56	47077.54
578.72	47215.63
578.88	47175.84
579.04	47119.66
579.21	47236.69
579.37	46887.95
579.53	47510.53
579.69	46635.17
579.85	46848.16
580.01	47524.58
580.17	47107.96
580.33	47449.68
580.49	47381.80
580.65	47405.21
580.82	47217.97
580.98	47222.65
581.14	46845.82
581.30	47213.29
581.46	47388.83
581.62	47239.03
581.78	47206.26
581.94	47491.81
582.10	47208.61
582.26	47484.79
582.42	47068.17
582.58	47442.66
582.74	47267.12
582.90	47103.28
583.06	47533.94
583.22	47187.54
583.38	47475.43
583.54	47065.83
583.70	47562.03
583.86	47292.86
584.02	47093.92
584.18	47164.14
584.34	47339.68
584.50	47161.79
584.66	47051.79
584.82	47042.43
584.98	47384.15
585.14	47332.65
585.30	46855.18
585.46	47271.80
585.62	47175.84
585.78	47192.22
585.94	46745.18
586.10	47175.84
586.26	47033.07
586.42	47398.19
586.58	47611.18
586.74	47276.48
586.90	47166.48
587.06	47339.68
587.22	47372.44
587.38	47002.64
587.54	47201.58
587.70	47484.79
587.86	47119.66
588.02	47000.30
588.18	47143.07
588.34	47257.76
588.49	46930.08
588.65	46822.42
588.81	46813.05
588.97	47047.11
589.13	46167.07
589.29	46607.09
589.45	46904.34
589.61	47187.54
589.77	47065.83
