SpectraSuite Data File
++++++++++++++++++++++++++++++++++++
Date: Fri Oct 25 11:26:42 EDT 2013
User: price-jones
Dark Spectrum Present: No
Reference Spectrum Present: No
Number of Sampled Component Spectra: 1
Spectrometers: USB2+H05261
Integration Time (usec): 100000 (USB2+H05261)
Spectra Averaged: 1 (USB2+H05261)
Boxcar Smoothing: 0 (USB2+H05261)
Correct for Electrical Dark: No (USB2+H05261)
Strobe/Lamp Enabled: No (USB2+H05261)
Correct for Detector Non-linearity: No (USB2+H05261)
Correct for Stray Light: No (USB2+H05261)
Number of Pixels in Processed Spectrum: 2048
>>>>>Begin Processed Spectral Data<<<<<
365.73	245.76
365.92	245.76
366.12	245.76
366.32	224.69
366.52	194.26
366.72	147.45
366.91	91.28
367.11	126.39
367.31	81.92
367.51	124.05
367.70	156.82
367.90	177.88
368.10	81.92
368.30	187.24
368.49	133.41
368.69	170.86
368.89	194.26
369.09	81.92
369.28	117.03
369.48	147.45
369.68	173.20
369.87	201.29
370.07	224.69
370.27	315.97
370.47	320.65
370.66	564.07
370.86	655.35
371.06	725.57
371.25	690.46
371.45	704.50
371.65	709.18
371.84	678.76
372.04	685.78
372.24	662.37
372.44	732.59
372.63	734.93
372.83	746.63
373.03	718.54
373.22	690.46
373.42	711.52
373.62	805.14
373.81	875.36
374.01	854.30
374.21	795.78
374.40	809.83
374.60	842.59
374.79	830.89
374.99	793.44
375.19	809.83
375.38	770.04
375.58	861.32
375.78	910.47
375.97	863.66
376.17	933.87
376.37	863.66
376.56	889.40
376.76	847.27
376.95	961.96
377.15	851.96
377.35	961.96
377.54	964.30
377.74	917.49
377.93	889.40
378.13	940.90
378.33	917.49
378.52	889.40
378.72	961.96
378.91	961.96
379.11	1013.45
379.31	952.60
379.50	950.26
379.70	999.41
379.89	938.55
380.09	978.34
380.28	1041.54
380.48	1055.58
380.68	1067.28
380.87	980.68
381.07	1008.77
381.26	1027.50
381.46	1083.67
381.65	1022.81
381.85	1048.56
382.04	1069.62
382.24	1027.50
382.43	1083.67
382.63	1046.22
382.83	1027.50
383.02	1053.24
383.22	1046.22
383.41	1144.52
383.61	1170.27
383.80	1130.48
384.00	1069.62
384.19	1151.54
384.39	1165.59
384.58	1214.74
384.78	1107.07
384.97	1151.54
385.17	1205.38
385.36	1081.33
385.56	1165.59
385.75	1160.91
385.95	1160.91
386.14	1207.72
386.34	1186.65
386.53	1249.85
386.72	1287.29
386.92	1198.35
387.11	1308.36
387.31	1254.53
387.50	1224.10
387.70	1266.23
387.89	1306.02
388.09	1256.87
388.28	1287.29
388.48	1350.49
388.67	1331.76
388.86	1296.66
389.06	1373.89
389.25	1369.21
389.45	1336.45
389.64	1306.02
389.84	1385.60
390.03	1444.11
390.22	1467.52
390.42	1385.60
390.61	1542.41
390.81	1409.00
391.00	1380.92
391.19	1432.41
391.39	1420.71
391.58	1416.02
391.78	1568.16
391.97	1605.61
392.16	1542.41
392.36	1596.25
392.55	1479.22
392.75	1519.01
392.94	1589.22
393.13	1530.71
393.33	1453.47
393.52	1568.16
393.71	1568.16
393.91	1565.82
394.10	1593.90
394.29	1598.59
394.49	1544.75
394.68	1621.99
394.88	1593.90
395.07	1727.32
395.26	1696.89
395.46	1713.27
395.65	1636.03
395.84	1797.53
396.04	1767.10
396.23	1741.36
396.42	1790.51
396.62	1788.17
396.81	1748.38
397.00	1757.74
397.19	1764.76
397.39	1858.39
397.58	1830.30
397.77	1776.47
397.97	1811.57
398.16	1856.04
398.35	1881.79
398.55	1830.30
398.74	1895.83
398.93	1933.28
399.12	2010.52
399.32	1849.02
399.51	1959.03
399.70	1994.14
399.90	2012.86
400.09	2038.61
400.28	2127.55
400.47	2022.22
400.67	2043.29
400.86	2001.16
401.05	2120.53
401.24	2099.46
401.44	2062.01
401.63	2047.97
401.82	2253.94
402.01	2069.03
402.21	2174.36
402.40	2223.51
402.59	2232.87
402.78	2195.42
402.97	2169.68
403.17	2221.17
403.36	2263.30
403.55	2307.77
403.74	2286.70
403.93	2382.67
404.13	2335.85
404.32	2317.13
404.51	2464.58
404.70	2438.84
404.89	2347.56
405.09	2504.37
405.28	2551.18
405.47	2565.23
405.66	2476.29
405.85	2670.55
406.05	2576.93
406.24	2555.86
406.43	2555.86
406.62	2576.93
406.81	2619.06
407.00	2619.06
407.20	2605.02
407.39	2703.32
407.58	2649.49
407.77	2752.47
407.96	2738.43
408.15	2768.85
408.34	2656.51
408.54	2733.75
408.73	2768.85
408.92	2885.88
409.11	2939.71
409.30	2876.52
409.49	2942.05
409.68	2890.56
409.87	2928.01
410.07	2869.50
410.26	2939.71
410.45	2944.39
410.64	3108.23
410.83	3117.59
411.02	3248.66
411.21	3288.45
411.40	3206.53
411.59	3236.96
411.78	3178.45
411.98	3234.62
412.17	3323.56
412.36	3330.58
412.55	3496.76
412.74	3428.88
412.93	3407.82
413.12	3396.12
413.31	3667.62
413.50	3515.48
413.69	3508.46
413.88	3632.51
414.07	3541.23
414.26	3705.07
414.45	3705.07
414.64	3770.60
414.83	3719.11
415.02	3695.71
415.22	3875.93
415.41	3889.97
415.60	3878.27
415.79	3946.14
415.98	3992.95
416.17	4039.76
416.36	3929.76
416.55	3948.48
416.74	4142.75
416.93	4205.94
417.12	4203.60
417.31	4109.98
417.50	4121.68
417.69	4191.90
417.88	4353.40
418.07	4306.59
418.26	4404.89
418.45	4227.01
418.64	4643.62
418.83	4507.87
419.02	4283.18
419.21	4454.04
419.39	4535.96
419.58	4636.60
419.77	4620.22
419.96	4578.09
420.15	4732.56
420.34	4760.65
420.53	4519.57
420.72	4903.42
420.91	4620.22
421.10	4702.14
421.29	4945.55
421.48	4629.58
421.67	4933.85
421.86	4880.02
422.05	4758.31
422.24	4854.27
422.43	4835.55
422.61	5006.41
422.80	5032.15
422.99	4837.89
423.18	4711.50
423.37	5151.52
423.56	4954.91
423.75	4936.19
423.94	4936.19
424.13	4744.27
424.32	4744.27
424.50	5041.51
424.69	5116.41
424.88	5027.47
425.07	4880.02
425.26	5004.07
425.45	5006.41
425.64	4889.38
425.83	5069.60
426.01	5018.11
426.20	5111.73
426.39	5193.65
426.58	5125.77
426.77	5020.45
426.96	5006.41
427.15	5121.09
427.33	5067.26
427.52	5160.88
427.71	5289.61
427.90	5270.89
428.09	5418.34
428.28	5343.44
428.46	5399.62
428.65	5418.34
428.84	5533.03
429.03	5355.15
429.22	5247.48
429.40	5490.90
429.59	5610.26
429.78	5394.93
429.97	5423.02
430.16	5617.29
430.34	5621.97
430.53	5727.29
430.72	5764.74
430.91	5619.63
431.10	5640.69
431.28	5750.70
431.47	5724.95
431.66	6012.84
431.85	5823.25
432.03	5832.62
432.22	6125.18
432.41	5947.30
432.60	5888.79
432.79	5760.06
432.97	6045.60
433.16	6162.63
433.35	5980.07
433.54	6115.82
433.72	6223.48
433.91	6171.99
434.10	6181.35
434.28	6232.85
434.47	6253.91
434.66	6148.59
434.85	6349.87
435.03	6380.30
435.22	6345.19
435.41	6450.52
435.59	6520.73
435.78	6410.73
435.97	6370.94
436.16	6333.49
436.34	6256.25
436.53	6558.18
436.72	6740.74
436.90	6651.80
437.09	6679.89
437.28	6574.56
437.46	6630.74
437.65	6626.06
437.84	6839.05
438.02	6803.94
438.21	6803.94
438.40	6750.10
438.58	7124.59
438.77	7187.79
438.96	7014.59
439.14	7148.00
439.33	7241.62
439.52	7290.77
439.70	7342.26
439.89	7442.90
440.08	7342.26
440.26	7384.39
440.45	7199.49
440.63	7515.46
440.82	7595.04
441.01	7494.40
441.19	7531.84
441.38	7915.69
441.57	7845.48
441.75	7864.20
441.94	7894.63
442.12	7964.84
442.31	8163.79
442.50	7981.23
442.68	8025.70
442.87	7999.95
443.05	8344.01
443.24	8163.79
443.43	8086.55
443.61	8222.30
443.80	8444.65
443.98	8021.02
444.17	7922.71
444.35	8145.06
444.54	8236.35
444.73	8360.39
444.91	8280.82
445.10	8517.21
445.28	8301.88
445.47	8210.60
445.65	8360.39
445.84	8334.65
446.02	8517.21
446.21	8423.59
446.39	8421.25
446.58	8627.21
446.77	8411.89
446.95	8161.45
447.14	8554.66
447.32	8636.58
447.51	8652.96
447.69	8603.81
447.88	8514.87
448.06	8695.09
448.25	8437.63
448.43	8517.21
448.62	8737.22
448.80	8596.79
448.99	8692.75
449.17	8917.44
449.36	8643.60
449.54	8821.48
449.73	8882.33
449.91	8889.35
450.10	8992.34
450.28	9062.55
450.46	9219.37
450.65	8978.30
450.83	9090.64
451.02	9076.60
451.20	9188.94
451.39	9153.84
451.57	9174.90
451.76	9153.84
451.94	9142.13
452.13	9507.26
452.31	9341.08
452.49	9144.47
452.68	9411.29
452.86	9378.53
453.05	9390.23
453.23	9589.17
453.42	9474.49
453.60	9296.61
453.78	9657.05
453.97	9577.47
454.15	9488.53
454.34	9474.49
454.52	9619.60
454.70	9891.10
454.89	9731.95
455.07	9727.27
455.26	9863.02
455.44	9891.10
455.62	9916.85
455.81	10012.81
455.99	10125.16
456.17	9966.00
456.36	10181.33
456.54	10263.25
456.73	10342.83
456.91	10518.37
457.09	10548.79
457.28	10504.32
457.46	10253.89
457.64	10558.16
457.83	10595.61
458.01	10387.30
458.19	10586.24
458.38	10422.41
458.56	10768.80
458.74	10803.91
458.93	10649.44
459.11	10682.20
459.29	10721.99
459.48	10874.13
459.66	10677.52
459.84	10981.79
460.03	10993.50
460.21	10934.98
460.39	11073.07
460.57	11026.26
460.76	11077.76
460.94	11178.40
461.12	11136.27
461.31	11061.37
461.49	11335.21
461.67	11351.60
461.85	11602.04
462.04	11389.05
462.22	11784.60
462.40	11733.11
462.59	11494.37
462.77	11316.49
462.95	11749.49
463.13	11583.31
463.32	11683.95
463.50	11786.94
463.68	11815.02
463.86	11892.26
464.05	11693.32
464.23	11899.28
464.41	11798.64
464.59	11719.06
464.78	12070.14
464.96	12156.74
465.14	11955.46
465.32	12187.17
465.50	12079.50
465.69	12257.39
465.87	12123.98
466.05	12306.54
466.23	12397.82
466.41	12404.84
466.60	12730.17
466.78	12145.04
466.96	12058.44
467.14	12346.33
467.32	12271.43
467.51	12636.55
467.69	12116.95
467.87	12725.49
468.05	12486.76
468.23	12362.71
468.41	12571.02
468.60	12648.26
468.78	12697.41
468.96	12795.71
469.14	13057.85
469.32	12978.27
469.50	12994.65
469.69	13174.88
469.87	13064.87
470.05	13074.23
470.23	13387.86
470.41	13357.44
470.59	13373.82
470.77	13298.92
470.95	13507.23
471.14	13664.05
471.32	13043.81
471.50	13633.62
471.68	13460.42
471.86	13589.15
472.04	13621.92
472.22	13898.10
472.40	13755.33
472.58	13898.10
472.77	14176.62
472.95	14218.75
473.13	14731.33
473.31	14326.42
473.49	14251.52
473.67	14019.81
473.85	14068.96
474.03	14672.82
474.21	14679.84
474.39	14658.78
474.57	14843.68
474.75	15056.67
474.93	15084.75
475.12	15110.50
475.30	15124.54
475.48	15194.76
475.66	15264.97
475.84	15281.36
476.02	15452.22
476.20	15398.38
476.38	15723.72
476.56	15955.43
476.74	16074.80
476.92	15992.88
477.10	15932.03
477.28	16283.11
477.46	16542.91
477.64	16418.86
477.82	16776.96
478.00	17114.00
478.18	16905.69
478.36	17144.42
478.54	17338.69
478.72	17617.21
478.90	17565.72
479.08	17518.91
479.26	17724.88
479.44	17661.68
479.62	18047.87
479.80	18302.99
479.98	18185.96
480.16	18611.94
480.34	18352.14
480.52	18965.36
480.70	18834.29
480.88	18314.69
481.06	19042.60
481.24	18925.57
481.41	19386.66
481.59	19665.18
481.77	19630.07
481.95	19562.20
482.13	19843.06
482.31	19819.66
482.49	20315.85
482.67	20573.31
482.85	20521.82
483.03	20919.71
483.21	20734.81
483.39	21128.02
483.57	20924.39
483.74	21385.47
483.92	21649.96
484.10	21310.58
484.28	21596.12
484.46	22260.84
484.64	22504.25
484.82	22256.15
485.00	22473.82
485.18	22862.35
485.35	22817.88
485.53	23042.57
485.71	23257.90
485.89	23711.97
486.07	23590.26
486.25	23255.56
486.43	24196.46
486.61	23896.87
486.78	24191.78
486.96	24112.20
487.14	24680.95
487.32	24636.48
487.50	25067.14
487.68	24954.79
487.85	25469.71
488.03	25818.45
488.21	26108.68
488.39	25750.57
488.57	26206.98
488.75	26272.51
488.92	26824.88
489.10	27084.68
489.28	26782.75
489.46	27168.94
489.64	27143.19
489.81	27721.30
489.99	27770.46
490.17	28044.30
490.35	28158.99
490.53	28283.03
490.70	28533.47
490.88	28294.74
491.06	28964.13
491.24	28769.86
491.41	29214.57
491.59	29841.83
491.77	29483.73
491.95	30132.06
492.13	29956.52
492.30	30089.93
492.48	30419.94
492.66	30394.20
492.84	30536.97
493.01	30794.43
493.19	30328.66
493.37	31278.92
493.54	31269.56
493.72	31267.22
493.90	31510.63
494.08	32226.84
494.25	32208.11
494.43	32243.22
494.61	32297.05
494.79	32737.07
494.96	32699.62
495.14	32732.39
495.32	33347.95
495.49	33399.44
495.67	33408.81
495.85	33785.63
496.02	34005.64
496.20	34204.59
496.38	34029.05
496.55	34139.05
496.73	35103.35
496.91	34878.66
497.09	34831.85
497.26	35435.71
497.44	35061.22
497.62	35693.17
497.79	36016.16
497.97	35599.55
498.14	36404.69
498.32	36533.42
498.50	36105.10
498.67	36980.46
498.85	36481.93
499.03	36790.88
499.20	36917.27
499.38	37226.22
499.56	37165.37
499.73	37366.65
499.91	36989.83
500.08	37617.09
500.26	37659.22
500.44	37830.08
500.61	37755.18
500.79	37794.97
500.97	38366.06
501.14	38899.70
501.32	38600.12
501.49	39157.16
501.67	38770.97
501.84	39440.37
502.02	39164.18
502.20	38981.62
502.37	39414.62
502.55	39526.97
502.72	39749.32
502.90	39754.00
503.07	39344.41
503.25	39702.51
503.43	39983.37
503.60	40404.67
503.78	40875.12
503.95	40074.65
504.13	40474.88
504.30	40865.75
504.48	40655.11
504.65	40772.13
504.83	41090.44
505.01	41251.94
505.18	41336.20
505.36	41603.02
505.53	41368.97
505.71	41930.70
505.88	41993.89
506.06	41792.61
506.23	42225.60
506.41	41591.32
506.58	42267.73
506.76	42579.03
506.93	42906.70
507.11	42876.27
507.28	42792.01
507.46	42693.71
507.63	43260.12
507.81	43445.02
507.98	43096.28
508.16	43323.32
508.33	43639.29
508.50	43735.25
508.68	44027.82
508.85	44236.12
509.03	44109.74
509.20	43765.68
509.38	44680.83
509.55	44495.92
509.73	44987.44
509.90	44554.44
510.08	44161.23
510.25	44863.39
510.42	44657.42
510.60	45167.66
510.77	45120.85
510.95	45509.38
511.12	45654.49
511.30	45584.27
511.47	45743.43
511.64	45640.45
511.82	46146.00
511.99	46321.54
512.17	46391.76
512.34	46141.32
512.51	46293.46
512.69	46616.45
512.86	46607.09
513.04	46794.33
513.21	46883.27
513.38	46911.36
513.56	47093.92
513.73	46878.59
513.90	47327.97
514.08	46976.89
514.25	47423.93
514.43	47665.01
514.60	47683.73
514.77	47693.10
514.95	48055.88
515.12	47606.50
515.29	47744.59
515.47	48243.12
515.64	48186.95
515.81	48065.24
515.99	48271.21
516.16	48835.28
516.33	48519.31
516.51	48722.93
516.68	48797.83
516.85	48182.27
517.03	48783.79
517.20	49029.54
517.37	49076.35
517.54	49137.21
517.72	49315.09
517.89	49177.00
518.06	49368.92
518.24	49460.20
518.41	49371.26
518.58	49668.51
518.75	49303.38
518.93	49382.96
519.10	49380.62
519.27	49549.14
519.45	49757.45
519.62	50071.08
519.79	50117.89
519.96	49932.99
520.14	50389.39
520.31	50267.69
520.48	50380.03
520.65	50670.26
520.83	50637.49
521.00	51246.03
521.17	50777.92
521.34	50887.93
521.52	50911.33
521.69	50660.90
521.86	51173.47
522.03	51096.24
522.20	51629.88
522.38	51746.90
522.55	51365.40
522.72	51409.87
522.89	51442.63
523.07	51636.90
523.24	51870.95
523.41	52177.56
523.58	51618.17
523.75	52165.86
523.92	51896.70
524.10	51976.28
524.27	52325.02
524.44	52109.69
524.61	52107.35
524.78	52760.36
524.96	52315.65
525.13	52360.12
525.30	52697.16
525.47	52720.57
525.64	52776.74
525.81	53001.43
525.98	53015.47
526.16	52514.60
526.33	53169.95
526.50	53155.91
526.67	52882.06
526.84	53038.88
527.01	52959.30
527.18	53151.23
527.36	53277.61
527.53	53097.39
527.70	53801.89
527.87	53268.25
528.04	53081.01
528.21	53378.26
528.38	53382.94
528.55	53661.46
528.72	53425.07
528.89	53612.31
529.07	53504.65
529.24	53514.01
529.41	53759.76
529.58	53635.72
529.75	53567.84
529.92	53883.81
530.09	54232.55
530.26	54127.23
530.43	54239.57
530.60	53624.01
530.77	54328.52
530.94	54176.38
531.11	54225.53
531.28	54377.67
531.46	54391.71
531.63	54225.53
531.80	54302.77
531.97	54639.81
532.14	54639.81
532.31	54454.90
532.48	54660.87
532.65	54866.84
532.82	54536.82
532.99	54883.22
533.16	54588.31
533.33	54600.02
533.50	54829.39
533.67	55143.02
533.84	54969.82
534.01	55269.41
534.18	55016.63
534.35	55356.01
534.52	55210.90
534.69	55175.79
534.86	55327.92
535.03	55023.65
535.20	55339.63
535.37	55505.80
535.54	55377.08
535.71	55281.11
535.88	55569.00
536.05	55353.67
536.22	55744.54
536.38	55634.53
536.55	55786.67
536.72	55657.94
536.89	55590.06
537.06	55606.45
537.23	55781.99
537.40	55585.38
537.57	55840.50
537.74	55704.75
537.91	56151.79
538.08	56170.52
538.25	56046.47
538.42	56023.06
538.59	56179.88
538.75	56097.96
538.92	56093.28
539.09	56273.50
539.26	56320.31
539.43	56149.45
539.60	56481.81
539.77	56324.99
539.94	56633.94
540.11	56591.81
540.28	56437.34
540.44	56598.83
540.61	56706.50
540.78	56444.36
540.95	56458.40
541.12	56439.68
541.29	56519.26
541.46	56591.81
541.62	56851.61
541.79	56779.06
541.96	56334.35
542.13	56643.30
542.30	56757.99
542.47	56736.93
542.63	57183.97
542.80	57097.37
542.97	57148.86
543.14	57111.41
543.31	57415.68
543.48	57464.83
543.64	57748.04
543.81	57432.07
543.98	57528.03
544.15	57457.81
544.32	57513.98
544.48	57708.25
544.65	57429.72
544.82	57647.39
544.99	57293.97
545.16	57743.36
545.32	57387.60
545.49	57944.64
545.66	57904.85
545.83	57832.30
546.00	57968.05
546.16	57682.50
546.33	57778.46
546.50	57539.73
546.67	57949.32
546.83	57528.03
547.00	58038.26
547.17	57652.08
547.34	57930.60
547.50	57907.19
547.67	57949.32
547.84	58237.21
548.00	58024.22
548.17	58096.78
548.34	58234.87
548.51	58546.16
548.67	58155.29
548.84	58265.30
549.01	58113.16
549.18	58319.13
549.34	58382.32
549.51	58340.19
549.68	58335.51
549.84	58394.03
550.01	58354.24
550.18	58459.56
550.34	58468.92
550.51	58492.33
550.68	58651.48
550.84	58192.74
551.01	58653.82
551.18	58518.07
551.34	58684.25
551.51	58539.14
551.68	58698.30
551.84	58880.86
552.01	58599.99
552.18	58656.17
552.34	58660.85
552.51	58831.71
552.68	58616.38
552.84	58588.29
553.01	58986.18
553.18	58887.88
553.34	58857.45
553.51	58890.22
553.67	58958.09
553.84	59138.32
554.01	59051.72
554.17	59157.04
554.34	59196.83
554.51	59353.65
554.67	59166.40
554.84	59166.40
555.00	58937.03
555.17	59086.82
555.33	58932.35
555.50	59016.61
555.67	58876.18
555.83	59377.05
556.00	59341.94
556.16	59458.97
556.33	59475.35
556.50	59419.18
556.66	59519.82
556.83	59047.04
556.99	59442.59
557.16	59765.58
557.32	59473.01
557.49	59824.09
557.65	59318.54
557.82	59531.53
557.98	59458.97
558.15	59676.64
558.32	59510.46
558.48	59545.57
558.65	59627.49
558.81	59632.17
558.98	59566.63
559.14	59442.59
559.31	59751.54
559.47	59767.92
559.64	59590.04
559.80	59618.13
559.97	59835.80
560.13	59707.07
560.30	59702.38
560.46	59758.56
560.63	59882.61
560.79	59861.54
560.96	60037.08
561.12	59920.05
561.29	59793.67
561.45	59952.82
561.61	59906.01
561.78	59842.82
561.94	59693.02
562.11	59994.95
562.27	59793.67
562.44	60135.38
562.60	60074.53
562.77	60072.19
562.93	59863.88
563.10	60226.66
563.26	59990.27
563.42	60418.59
563.59	60163.47
563.75	60198.58
563.92	60245.39
564.08	59973.89
564.24	60254.75
564.41	60189.22
564.57	60175.17
564.74	60182.19
564.90	60310.92
565.07	60102.62
565.23	60236.03
565.39	60329.65
565.56	60280.50
565.72	60142.41
565.88	60315.61
566.05	60266.45
566.21	60126.02
566.38	60458.38
566.54	60451.36
566.70	60491.15
566.87	60594.13
567.03	60093.25
567.19	60434.97
567.36	60273.48
567.52	60357.74
567.68	60612.85
567.85	60378.80
568.01	60584.77
568.17	60540.30
568.34	60568.38
568.50	60537.96
568.66	60388.16
568.83	60647.96
568.99	60500.51
569.15	60554.34
569.32	60519.23
569.48	60364.76
569.64	60704.13
569.81	60554.34
569.97	60493.49
570.13	60507.53
570.30	60346.03
570.46	60512.21
570.62	60610.51
570.78	60673.71
570.95	60598.81
571.11	60879.67
571.27	60743.92
571.43	60519.23
571.60	60573.06
571.76	60617.53
571.92	60977.98
572.09	60563.70
572.25	60694.77
572.41	60690.09
572.57	60746.26
572.74	60764.99
572.90	60603.49
573.06	60697.11
573.22	60631.58
573.38	60856.27
573.55	60762.65
573.71	60963.93
573.87	60807.12
574.03	60795.42
574.20	60874.99
574.36	60767.33
574.52	60816.48
574.68	61010.74
574.84	60956.91
575.01	60954.57
575.17	60807.12
575.33	60631.58
575.49	60821.16
575.65	60858.61
575.82	60970.96
575.98	60910.10
576.14	61055.21
576.30	60975.64
576.46	60891.38
576.62	60755.63
576.79	61064.58
576.95	60769.67
577.11	60795.42
577.27	60928.83
577.43	60797.76
577.59	60781.37
577.75	60954.57
577.92	60816.48
578.08	60853.93
578.24	61111.39
578.40	60933.51
578.56	61003.72
578.72	60954.57
578.88	61116.07
579.04	60912.44
579.21	60872.65
579.37	61045.85
579.53	61006.06
579.69	60708.82
579.85	60837.54
580.01	60804.78
580.17	61045.85
580.33	60966.27
580.49	60968.61
580.65	61080.96
580.82	60966.27
580.98	60846.91
581.14	61139.47
581.30	61015.43
581.46	61027.13
581.62	61099.68
581.78	60882.02
581.94	60987.34
582.10	60924.14
582.26	60989.68
582.42	60924.14
582.58	60942.87
582.74	61003.72
582.90	61134.79
583.06	60970.96
583.22	60987.34
583.38	61193.31
583.54	61113.73
583.70	61146.50
583.86	61113.73
584.02	60973.30
584.18	61282.25
584.34	61045.85
584.50	61167.56
584.66	61090.32
584.82	61036.49
584.98	61223.73
585.14	61003.72
585.30	61132.45
585.46	61207.35
585.62	61137.13
585.78	61193.31
585.94	60914.78
586.10	61008.40
586.26	61179.26
586.42	61085.64
586.58	61186.28
586.74	61125.43
586.90	61071.60
587.06	61223.73
587.22	61282.25
587.38	61125.43
587.54	61289.27
587.70	61371.19
587.86	61139.47
588.02	61155.86
588.18	61109.05
588.34	61116.07
588.49	61244.80
