SpectraSuite Data File
++++++++++++++++++++++++++++++++++++
Date: Fri Oct 25 11:25:12 EDT 2013
User: price-jones
Dark Spectrum Present: No
Reference Spectrum Present: No
Number of Sampled Component Spectra: 1
Spectrometers: USB2+H05261
Integration Time (usec): 100000 (USB2+H05261)
Spectra Averaged: 1 (USB2+H05261)
Boxcar Smoothing: 0 (USB2+H05261)
Correct for Electrical Dark: No (USB2+H05261)
Strobe/Lamp Enabled: No (USB2+H05261)
Correct for Detector Non-linearity: No (USB2+H05261)
Correct for Stray Light: No (USB2+H05261)
Number of Pixels in Processed Spectrum: 2048
>>>>>Begin Processed Spectral Data<<<<<
365.73	259.80
365.92	259.80
366.12	259.80
366.32	145.11
366.52	173.20
366.72	156.82
366.91	124.05
367.11	128.73
367.31	88.94
367.51	42.13
367.70	91.28
367.90	168.52
368.10	121.71
368.30	201.29
368.49	147.45
368.69	170.86
368.89	168.52
369.09	107.66
369.28	154.48
369.48	124.05
369.68	198.95
369.87	222.35
370.07	187.24
370.27	234.05
370.47	278.52
370.66	531.30
370.86	592.16
371.06	636.63
371.25	718.54
371.45	624.92
371.65	688.12
371.84	664.71
372.04	685.78
372.24	664.71
372.44	702.16
372.63	784.08
372.83	695.14
373.03	746.63
373.22	739.61
373.42	730.25
373.62	788.76
373.81	814.51
374.01	819.19
374.21	875.36
374.40	812.17
374.60	858.98
374.79	819.19
374.99	873.02
375.19	791.10
375.38	926.85
375.58	866.00
375.78	770.04
375.97	894.08
376.17	938.55
376.37	842.59
376.56	903.45
376.76	894.08
376.95	851.96
377.15	987.71
377.35	821.53
377.54	898.77
377.74	863.66
377.93	814.51
378.13	1034.52
378.33	976.00
378.52	877.70
378.72	976.00
378.91	847.27
379.11	1015.79
379.31	931.53
379.50	863.66
379.70	954.94
379.89	1069.62
380.09	1069.62
380.28	990.05
380.48	980.68
380.68	940.90
380.87	978.34
381.07	952.60
381.26	1015.79
381.46	971.32
381.65	999.41
381.85	1015.79
382.04	943.24
382.24	1004.09
382.43	1123.46
382.63	1057.92
382.83	1093.03
383.02	1064.94
383.22	1128.14
383.41	1036.86
383.61	1123.46
383.80	1095.37
384.00	1139.84
384.19	1083.67
384.39	1149.20
384.58	1142.18
384.78	1123.46
384.97	1149.20
385.17	1181.97
385.36	1249.85
385.56	1247.51
385.75	1114.10
385.95	1102.39
386.14	1193.67
386.34	1158.57
386.53	1228.78
386.72	1221.76
386.92	1219.42
387.11	1256.87
387.31	1219.42
387.50	1280.27
387.70	1240.48
387.89	1277.93
388.09	1219.42
388.28	1174.95
388.48	1233.46
388.67	1303.68
388.86	1357.51
389.06	1345.81
389.25	1348.15
389.45	1350.49
389.64	1364.53
389.84	1299.00
390.03	1327.08
390.22	1390.28
390.42	1371.55
390.61	1392.62
390.81	1401.98
391.00	1387.94
391.19	1334.11
391.39	1387.94
391.58	1413.68
391.78	1385.60
391.97	1469.86
392.16	1533.05
392.36	1521.35
392.55	1483.90
392.75	1432.41
392.94	1551.78
393.13	1540.07
393.33	1467.52
393.52	1519.01
393.71	1612.63
393.91	1607.95
394.10	1605.61
394.29	1535.39
394.49	1563.48
394.68	1692.21
394.88	1650.08
395.07	1647.74
395.26	1685.19
395.46	1724.97
395.65	1643.06
395.84	1741.36
396.04	1701.57
396.23	1757.74
396.42	1715.61
396.62	1755.40
396.81	1724.97
397.00	1675.82
397.19	1757.74
397.39	1792.85
397.58	1884.13
397.77	1785.83
397.97	1788.17
398.16	1832.64
398.35	1811.57
398.55	1825.62
398.74	1762.42
398.93	1816.26
399.12	1881.79
399.32	1804.55
399.51	1928.60
399.70	2026.90
399.90	2012.86
400.09	2040.95
400.28	2015.20
400.47	1975.41
400.67	2167.34
400.86	2087.76
401.05	2045.63
401.24	2160.31
401.44	2106.48
401.63	2139.25
401.82	2120.53
402.01	2188.40
402.21	2108.82
402.40	2162.66
402.59	2139.25
402.78	2186.06
402.97	2160.31
403.17	2200.10
403.36	2204.78
403.55	2307.77
403.74	2359.26
403.93	2317.13
404.13	2326.49
404.32	2345.22
404.51	2349.90
404.70	2331.17
404.89	2392.03
405.09	2504.37
405.28	2502.03
405.47	2443.52
405.66	2413.09
405.85	2326.49
406.05	2480.97
406.24	2534.80
406.43	2513.74
406.62	2588.63
406.81	2691.62
407.00	2586.29
407.20	2516.08
407.39	2553.52
407.58	2682.25
407.77	2750.13
407.96	2700.98
408.15	2708.00
408.34	2628.42
408.54	2829.71
408.73	2754.81
408.92	2878.86
409.11	2960.78
409.30	2888.22
409.49	2850.77
409.68	2932.69
409.87	2944.39
410.07	2935.03
410.26	3035.67
410.45	3016.95
410.64	2970.14
410.83	2944.39
411.02	3115.25
411.21	3110.57
411.40	3066.10
411.59	3204.19
411.78	3138.66
411.98	3201.85
412.17	3199.51
412.36	3204.19
412.55	3440.59
412.74	3393.78
412.93	3363.35
413.12	3421.86
413.31	3574.00
413.50	3524.85
413.69	3550.59
413.88	3559.95
414.07	3705.07
414.26	3611.45
414.45	3655.92
414.64	3646.55
414.83	3712.09
415.02	3768.26
415.22	3836.14
415.41	3707.41
415.60	3866.56
415.79	3875.93
415.98	3918.06
416.17	4007.00
416.36	4018.70
416.55	3875.93
416.74	3969.55
416.93	4072.53
417.12	4044.45
417.31	4180.20
417.50	4084.23
417.69	4147.43
417.88	4290.20
418.07	4077.21
418.26	4231.69
418.45	4355.74
418.64	4550.00
418.83	4201.26
419.02	4381.48
419.21	4402.55
419.39	4425.95
419.58	4358.08
419.77	4461.06
419.96	4557.02
420.15	4482.13
420.34	4622.56
420.53	4505.53
420.72	4690.43
420.91	4692.77
421.10	4812.14
421.29	4713.84
421.48	4732.56
421.67	4613.20
421.86	4762.99
422.05	4671.71
422.24	4692.77
422.43	4636.60
422.61	4938.53
422.80	4875.34
422.99	4865.97
423.18	4961.94
423.37	4919.81
423.56	4919.81
423.75	4781.71
423.94	4823.84
424.13	4507.87
424.32	4755.97
424.50	5093.01
424.69	5212.37
424.88	5055.56
425.07	4980.66
425.26	4931.51
425.45	4891.72
425.64	4868.31
425.83	5004.07
426.01	5151.52
426.20	5156.20
426.39	5046.20
426.58	4905.76
426.77	4943.21
426.96	4952.57
427.15	4973.64
427.33	5071.94
427.52	5135.14
427.71	5301.31
427.90	5219.39
428.09	5198.33
428.28	5249.82
428.46	5291.95
428.65	5298.97
428.84	5413.66
429.03	5423.02
429.22	5404.30
429.40	5338.76
429.59	5495.58
429.78	5172.58
429.97	5083.64
430.16	5547.07
430.34	5575.16
430.53	5659.42
430.72	5563.45
430.91	5397.28
431.10	5544.73
431.28	5661.76
431.47	5762.40
431.66	5802.19
431.85	5809.21
432.03	5823.25
432.22	6008.16
432.41	5769.42
432.60	5989.43
432.79	5905.17
432.97	5937.94
433.16	6003.47
433.35	5930.92
433.54	5923.90
433.72	6207.10
433.91	6228.17
434.10	6120.50
434.28	6064.33
434.47	6019.86
434.66	6085.39
434.85	6183.70
435.03	6293.70
435.22	6108.80
435.41	6551.16
435.59	6401.37
435.78	6232.85
435.97	6480.94
436.16	6443.49
436.34	6553.50
436.53	6413.07
436.72	6546.48
436.90	6303.06
437.09	6626.06
437.28	6527.75
437.46	6600.31
437.65	6502.01
437.84	6810.96
438.02	6729.04
438.21	6597.97
438.40	6647.12
438.58	6979.48
438.77	7007.56
438.96	6796.92
439.14	7023.95
439.33	7005.22
439.52	7110.55
439.70	7201.83
439.89	7311.83
440.08	7269.70
440.26	7375.03
440.45	7183.10
440.63	7241.62
440.82	7552.91
441.01	7501.42
441.19	7470.99
441.38	7653.55
441.57	7808.03
441.75	7655.89
441.94	7955.48
442.12	7896.97
442.31	7925.05
442.50	7756.54
442.68	8013.99
442.87	7885.26
443.05	8060.80
443.24	8327.63
443.43	8006.97
443.61	8194.22
443.80	8259.75
443.98	8187.19
444.17	7735.47
444.35	8210.60
444.54	8341.67
444.73	8271.45
444.91	8128.68
445.10	8308.90
445.28	8313.58
445.47	8205.92
445.65	8273.79
445.84	8388.48
446.02	8456.36
446.21	8372.10
446.39	8294.86
446.58	8454.02
446.77	8444.65
446.95	8142.72
447.14	8397.84
447.32	8627.21
447.51	8369.76
447.69	8344.01
447.88	8308.90
448.06	8409.54
448.25	8201.24
448.43	8608.49
448.62	8596.79
448.80	8439.97
448.99	8697.43
449.17	8674.03
449.36	8430.61
449.54	8826.16
449.73	8594.45
449.91	8889.35
450.10	8887.01
450.28	9027.45
450.46	9104.68
450.65	8997.02
450.83	8999.36
451.02	9102.34
451.20	8997.02
451.39	9163.20
451.57	9018.08
451.76	8769.99
451.94	9039.15
452.13	9001.70
452.31	9275.54
452.49	8922.12
452.68	9308.31
452.86	9142.13
453.05	9479.17
453.23	9493.21
453.42	9399.59
453.60	9327.03
453.78	9591.52
453.97	9231.07
454.15	9383.21
454.34	9252.14
454.52	9565.77
454.70	9535.34
454.89	9490.87
455.07	9563.43
455.26	9841.95
455.44	9877.06
455.62	9867.70
455.81	9764.72
455.99	9949.62
456.17	10026.86
456.36	9767.06
456.54	9937.91
456.73	9984.73
456.91	10420.06
457.09	10352.19
457.28	10312.40
457.46	10239.84
457.64	10511.35
457.83	10600.29
458.01	10289.00
458.19	10579.22
458.38	10546.45
458.56	10567.52
458.74	10417.72
458.93	10604.97
459.11	10485.60
459.29	10703.27
459.48	10923.28
459.66	10513.69
459.84	10780.51
460.03	11110.52
460.21	11037.97
460.39	10672.84
460.57	11016.90
460.76	11019.24
460.94	11030.94
461.12	11274.36
461.31	10967.75
461.49	11075.42
461.67	11028.60
461.85	11412.45
462.04	11393.73
462.22	11751.83
462.40	11449.90
462.59	11604.38
462.77	11253.30
462.95	11611.40
463.13	11426.50
463.32	11595.01
463.50	11613.74
463.68	11878.22
463.86	11712.04
464.05	11463.94
464.23	11655.87
464.41	11845.45
464.59	11508.41
464.78	12123.98
464.96	11960.14
465.14	11861.84
465.32	11995.25
465.50	11929.71
465.69	12166.10
465.87	12098.23
466.05	12168.45
466.23	12070.14
466.41	12044.40
466.60	12315.90
466.78	12006.95
466.96	11981.20
467.14	12250.36
467.32	12128.66
467.51	12339.30
467.69	12400.16
467.87	12407.18
468.05	12535.91
468.23	12271.43
468.41	12463.35
468.60	12489.10
468.78	12652.94
468.96	12400.16
469.14	12596.76
469.32	12908.05
469.50	12432.93
469.69	12872.95
469.87	12769.96
470.05	13092.96
470.23	13125.72
470.41	12812.09
470.59	13268.50
470.77	13015.72
470.95	13254.45
471.14	13338.71
471.32	13025.08
471.50	13713.20
471.68	13551.70
471.86	13572.77
472.04	13362.12
472.22	13886.40
472.40	13635.96
472.58	13839.59
472.77	14022.15
472.95	13839.59
473.13	14197.69
473.31	14083.00
473.49	13951.93
473.67	14111.09
473.85	14038.53
474.03	14551.11
474.21	14317.06
474.39	14827.29
474.57	14618.99
474.75	14654.09
474.93	15091.77
475.12	14754.74
475.30	14934.96
475.48	14970.07
475.66	14974.75
475.84	14963.04
476.02	15152.63
476.20	15157.31
476.38	15463.92
476.56	15997.56
476.74	15704.99
476.92	15772.87
477.10	15723.72
477.28	15880.53
477.46	16145.02
477.64	16182.46
477.82	16566.31
478.00	17167.83
478.18	16512.48
478.36	16624.83
478.54	17029.74
478.72	17198.26
478.90	17436.99
479.08	17500.19
479.26	17706.15
479.44	17645.30
479.62	17799.77
479.80	18003.40
479.98	17860.63
480.16	18754.71
480.34	18104.04
480.52	18443.42
480.70	18473.85
480.88	18525.34
481.06	18850.67
481.24	18944.30
481.41	19007.49
481.59	19026.21
481.77	19110.47
481.95	19290.70
482.13	19302.40
482.31	19646.46
482.49	19936.68
482.67	19782.21
482.85	20091.16
483.03	20528.84
483.21	20666.93
483.39	20835.45
483.57	21067.16
483.74	20814.38
483.92	21158.44
484.10	21249.72
484.28	21696.77
484.46	21612.51
484.64	22052.53
484.82	22017.42
485.00	22141.47
485.18	22815.54
485.35	22630.64
485.53	22480.85
485.71	22836.61
485.89	23197.05
486.07	23410.04
486.25	23278.97
486.43	23112.79
486.61	23782.18
486.78	24184.76
486.96	24058.37
487.14	24166.03
487.32	24437.53
487.50	24877.55
487.68	24592.01
487.85	25106.93
488.03	25631.21
488.21	25305.87
488.39	25720.15
488.57	25823.13
488.75	25991.65
488.92	26218.68
489.10	26359.11
489.28	26122.72
489.46	26953.61
489.64	26885.73
489.81	27562.15
489.99	27468.53
490.17	27700.24
490.35	27889.82
490.53	27969.40
490.70	28091.11
490.88	27899.19
491.06	28507.72
491.24	28437.51
491.41	28786.25
491.59	29270.74
491.77	28837.74
491.95	29408.83
492.13	29420.53
492.30	29663.95
492.48	29757.57
492.66	29862.90
492.84	30361.43
493.01	30515.90
493.19	30466.75
493.37	30726.55
493.54	30995.71
493.72	31131.47
493.90	31686.17
494.08	31328.07
494.25	31482.55
494.43	31538.72
494.61	31938.95
494.79	32362.59
494.96	32294.71
495.14	32512.38
495.32	32641.11
495.49	33207.52
495.67	33235.61
495.85	32975.81
496.02	33495.41
496.20	33563.28
496.38	33469.66
496.55	33900.32
496.73	34536.94
496.91	34270.12
497.09	34403.53
497.26	34452.69
497.44	34813.13
497.62	35239.11
497.79	35632.32
497.97	35456.78
498.14	35730.62
498.32	35789.13
498.50	36060.63
498.67	36121.49
498.85	36388.31
499.03	36147.23
499.20	36240.86
499.38	36765.14
499.56	36877.48
499.73	36790.88
499.91	37368.99
500.08	37305.80
500.26	37469.64
500.44	37113.87
500.61	37558.58
500.79	37420.48
500.97	38218.61
501.14	38536.92
501.32	38031.36
501.49	38106.26
501.67	38501.81
501.84	38841.19
502.02	38677.35
502.20	38855.23
502.37	39234.40
502.55	38749.91
502.72	38993.32
502.90	39145.46
503.07	39157.16
503.25	39505.90
503.43	39431.01
503.60	39646.33
503.78	39819.53
503.95	39943.58
504.13	40051.25
504.30	40240.83
504.48	40278.28
504.65	40832.99
504.83	40313.39
505.01	40987.46
505.18	40928.95
505.36	41385.35
505.53	40807.24
505.71	41504.72
505.88	41675.58
506.06	41134.92
506.23	41443.87
506.41	41848.78
506.58	41961.12
506.76	41923.68
506.93	42115.60
507.11	42143.69
507.28	42021.98
507.46	42529.87
507.63	42646.90
507.81	42792.01
507.98	42574.34
508.16	42728.82
508.33	42703.07
508.50	42986.28
508.68	43353.74
508.85	43821.85
509.03	43620.56
509.20	43882.70
509.38	44098.03
509.55	44189.31
509.73	44060.58
509.90	44364.85
510.08	44383.58
510.25	43985.69
510.42	44470.18
510.60	44519.33
510.77	44493.58
510.95	45092.76
511.12	44669.12
511.30	45305.75
511.47	45160.64
511.64	45443.84
511.82	45408.73
511.99	45661.51
512.17	45638.11
512.34	45588.95
512.51	46014.93
512.69	46288.77
512.86	45937.69
513.04	46628.15
513.21	46534.53
513.38	46450.27
513.56	46469.00
513.73	46419.84
513.90	46473.68
514.08	46464.32
514.25	47058.81
514.43	47356.06
514.60	46937.10
514.77	47028.38
514.95	47416.91
515.12	46976.89
515.29	47278.82
515.47	47327.97
515.64	47573.73
515.81	47360.74
515.99	47793.74
516.16	48151.84
516.33	48205.67
516.51	48549.73
516.68	48137.80
516.85	48147.16
517.03	48378.87
517.20	48882.09
517.37	48404.62
517.54	48687.82
517.72	48685.48
517.89	48690.16
518.06	49001.46
518.24	48940.60
518.41	48842.30
518.58	49160.61
518.75	48779.10
518.93	49275.30
519.10	49090.40
519.27	49553.82
519.45	49469.56
519.62	49600.63
519.79	49888.52
519.96	49759.79
520.14	49911.92
520.31	49408.71
520.48	49586.59
520.65	50080.44
520.83	50529.83
521.00	50309.82
521.17	50054.70
521.34	50602.38
521.52	50417.48
521.69	50590.68
521.86	50883.25
522.03	50590.68
522.20	51250.71
522.38	51290.50
522.55	51253.05
522.72	51264.75
522.89	51253.05
523.07	51334.97
523.24	51316.25
523.41	51363.06
523.58	51250.71
523.75	51503.49
523.92	51306.88
524.10	51683.71
524.27	51854.57
524.44	51782.01
524.61	51735.20
524.78	51753.93
524.96	52086.28
525.13	51987.98
525.30	52203.31
525.47	52411.62
525.64	52018.41
525.81	52203.31
525.98	52420.98
526.16	52430.34
526.33	52271.18
526.50	52601.20
526.67	52516.94
526.84	52734.61
527.01	52645.67
527.18	53041.22
527.36	52711.20
527.53	52978.03
527.70	53085.69
527.87	53045.90
528.04	53050.58
528.21	53130.16
528.38	53195.70
528.55	53434.43
528.72	53034.20
528.89	53017.82
529.07	53003.77
529.24	53275.27
529.41	53478.90
529.58	53455.50
529.75	53506.99
529.92	53301.02
530.09	53549.12
530.26	53535.07
530.43	53963.39
530.60	53579.54
530.77	53811.26
530.94	53846.36
531.11	53909.56
531.28	54007.86
531.46	53872.11
531.63	54035.95
531.80	53909.56
531.97	54113.19
532.14	54394.05
532.31	53939.99
532.48	54253.62
532.65	54422.14
532.82	54258.30
532.99	54714.70
533.16	54401.07
533.33	54742.79
533.50	54567.25
533.67	54560.23
533.84	54595.34
534.01	54569.59
534.18	54642.15
534.35	55121.96
534.52	54974.50
534.69	55025.99
534.86	55297.50
535.03	54775.56
535.20	55131.32
535.37	55180.47
535.54	55037.70
535.71	55260.05
535.88	55299.84
536.05	55180.47
536.22	55309.20
536.38	55430.91
536.55	55220.26
536.72	55337.29
536.89	55353.67
537.06	55215.58
537.23	55711.77
537.40	55529.21
537.57	55470.70
537.74	55817.10
537.91	55730.50
538.08	55545.59
538.25	55522.19
538.42	55868.59
538.59	55786.67
538.75	55643.90
538.92	55711.77
539.09	56081.58
539.26	55840.50
539.43	55873.27
539.60	56313.29
539.77	56030.08
539.94	56271.16
540.11	56121.37
540.28	56076.90
540.44	56193.92
540.61	56268.82
540.78	56184.56
540.95	56332.01
541.12	56168.18
541.29	56315.63
541.46	56308.61
541.62	56378.82
541.79	56444.36
541.96	55948.17
542.13	56402.23
542.30	56257.12
542.47	56467.76
542.63	56566.07
542.80	56804.80
542.97	56790.76
543.14	57099.71
543.31	56992.04
543.48	57174.61
543.64	57329.08
543.81	57265.89
543.98	57272.91
544.15	57001.41
544.32	57073.96
544.48	57359.51
544.65	57125.46
544.82	57174.61
544.99	56961.62
545.16	57228.44
545.32	57284.61
545.49	57535.05
545.66	57614.63
545.83	57352.49
546.00	57481.22
546.16	57326.74
546.33	57109.07
546.50	57375.89
546.67	57542.07
546.83	57233.12
547.00	57497.60
547.17	57202.69
547.34	57574.84
547.50	57673.14
547.67	57783.15
547.84	57778.46
548.00	57801.87
548.17	57972.73
548.34	57825.28
548.51	58169.33
548.67	58073.37
548.84	57925.92
549.01	57996.13
549.18	57862.72
549.34	57972.73
549.51	58150.61
549.68	58204.44
549.84	58232.53
550.01	58164.65
550.18	58068.69
550.34	58176.36
550.51	58176.36
550.68	58209.12
550.84	57801.87
551.01	58281.68
551.18	58049.97
551.34	58368.28
551.51	58607.01
551.68	58445.52
551.84	58284.02
552.01	58344.87
552.18	58401.05
552.34	58202.10
552.51	58665.53
552.68	58293.38
552.84	58506.37
553.01	58691.27
553.18	58777.87
553.34	58691.27
553.51	58497.01
553.67	58611.70
553.84	58820.00
554.01	58880.86
554.17	58759.15
554.34	58852.77
554.51	58691.27
554.67	58962.78
554.84	58805.96
555.00	58745.11
555.17	58899.58
555.33	59058.74
555.50	58681.91
555.67	58653.82
555.83	58815.32
556.00	58798.94
556.16	59213.21
556.33	59241.30
556.50	59014.27
556.66	59157.04
556.83	58899.58
556.99	59185.13
557.16	59395.77
557.32	59145.34
557.49	59484.72
557.65	59208.53
557.82	59196.83
557.98	59224.92
558.15	59159.38
558.32	59112.57
558.48	59143.00
558.65	59175.76
558.81	59384.07
558.98	59358.33
559.14	59348.96
559.31	59491.74
559.47	59716.43
559.64	59407.48
559.80	59608.76
559.97	59456.63
560.13	59618.13
560.30	59468.33
560.46	59533.87
560.63	59557.27
560.79	59615.79
560.96	59580.68
561.12	59618.13
561.29	59463.65
561.45	59599.40
561.61	59615.79
561.78	59751.54
561.94	59639.19
562.11	59458.97
562.27	59791.33
562.44	59882.61
562.60	59781.96
562.77	59994.95
562.93	59608.76
563.10	59950.48
563.26	59756.22
563.42	60072.19
563.59	59744.51
563.75	59791.33
563.92	59798.35
564.08	59873.24
564.24	60006.65
564.41	59957.50
564.57	60076.87
564.74	59969.21
564.90	59999.63
565.07	59964.52
565.23	59723.45
565.39	59814.73
565.56	59910.69
565.72	59882.61
565.88	59992.61
566.05	59922.40
566.21	59987.93
566.38	60074.53
566.54	60114.32
566.70	60079.21
566.87	60039.42
567.03	59931.76
567.19	60341.35
567.36	60292.20
567.52	60245.39
567.68	60549.66
567.85	60149.43
568.01	60231.35
568.17	60079.21
568.34	60273.48
568.50	60051.12
568.66	60247.73
568.83	60287.52
568.99	60219.64
569.15	60196.24
569.32	60343.69
569.48	60163.47
569.64	60275.82
569.81	60245.39
569.97	60313.26
570.13	60210.28
570.30	60273.48
570.46	60402.21
570.62	60226.66
570.78	60240.71
570.95	60296.88
571.11	60523.91
571.27	60294.54
571.43	60437.31
571.60	60458.38
571.76	60320.29
571.92	60486.46
572.09	60413.91
572.25	60568.38
572.41	60257.09
572.57	60376.46
572.74	60521.57
572.90	60446.68
573.06	60383.48
573.22	60434.97
573.38	60437.31
573.55	60474.76
573.71	60643.28
573.87	60706.47
574.03	60362.42
574.20	60437.31
574.36	60500.51
574.52	60544.98
574.68	60636.26
574.84	60774.35
575.01	60383.48
575.17	60486.46
575.33	60397.52
575.49	60355.39
575.65	60736.90
575.82	60608.17
575.98	60750.94
576.14	60764.99
576.30	60493.49
576.46	60568.38
576.62	60544.98
576.79	60453.70
576.95	60463.06
577.11	60533.28
577.27	60626.90
577.43	60528.59
577.59	60867.97
577.75	60615.19
577.92	60514.55
578.08	60582.43
578.24	60669.03
578.40	60711.16
578.56	60638.60
578.72	60582.43
578.88	60879.67
579.04	60837.54
579.21	60687.75
579.37	60860.95
579.53	60874.99
579.69	60413.91
579.85	60638.60
580.01	60612.85
580.17	60512.21
580.33	60685.41
580.49	60898.40
580.65	60800.10
580.82	60528.59
580.98	60739.24
581.14	60610.51
581.30	60732.22
581.46	60669.03
581.62	60954.57
581.78	60694.77
581.94	60615.19
582.10	60636.26
582.26	60825.84
582.42	60760.31
582.58	60835.20
582.74	60797.76
582.90	60633.92
583.06	60760.31
583.22	60678.39
583.38	60739.24
583.54	60734.56
583.70	60739.24
583.86	60662.00
584.02	60804.78
584.18	61006.06
584.34	60804.78
584.50	60713.50
584.66	60741.58
584.82	60640.94
584.98	60870.31
585.14	60842.23
585.30	60816.48
585.46	60783.71
585.62	60926.49
585.78	61109.05
585.94	60673.71
586.10	60830.52
586.26	60917.12
586.42	60849.25
586.58	60975.64
586.74	61062.24
586.90	60729.88
587.06	60739.24
587.22	61036.49
587.38	60928.83
587.54	60954.57
587.70	61050.53
587.86	60905.42
588.02	60889.04
588.18	61104.37
588.34	60949.89
588.49	60678.39
