SpectraSuite Data File
++++++++++++++++++++++++++++++++++++
Date: Fri Oct 25 11:25:18 EDT 2013
User: price-jones
Dark Spectrum Present: No
Reference Spectrum Present: No
Number of Sampled Component Spectra: 1
Spectrometers: USB2+H05261
Integration Time (usec): 100000 (USB2+H05261)
Spectra Averaged: 1 (USB2+H05261)
Boxcar Smoothing: 0 (USB2+H05261)
Correct for Electrical Dark: No (USB2+H05261)
Strobe/Lamp Enabled: No (USB2+H05261)
Correct for Detector Non-linearity: No (USB2+H05261)
Correct for Stray Light: No (USB2+H05261)
Number of Pixels in Processed Spectrum: 2048
>>>>>Begin Processed Spectral Data<<<<<
365.73	236.39
365.92	236.39
366.12	236.39
366.32	198.95
366.52	182.56
366.72	184.90
366.91	180.22
367.11	163.84
367.31	194.26
367.51	159.16
367.70	135.75
367.90	110.01
368.10	131.07
368.30	196.60
368.49	173.20
368.69	170.86
368.89	124.05
369.09	194.26
369.28	203.63
369.48	100.64
369.68	173.20
369.87	217.67
370.07	252.78
370.27	238.73
370.47	269.16
370.66	631.94
370.86	599.18
371.06	655.35
371.25	723.23
371.45	676.41
371.65	716.20
371.84	664.71
372.04	667.05
372.24	711.52
372.44	748.97
372.63	812.17
372.83	685.78
373.03	737.27
373.22	734.93
373.42	805.14
373.62	866.00
373.81	837.91
374.01	795.78
374.21	763.01
374.40	816.85
374.60	823.87
374.79	739.61
374.99	847.27
375.19	816.85
375.38	889.40
375.58	802.80
375.78	861.32
375.97	894.08
376.17	905.79
376.37	908.13
376.56	809.83
376.76	849.61
376.95	777.06
377.15	856.64
377.35	896.43
377.54	915.15
377.74	983.02
377.93	793.44
378.13	950.26
378.33	1029.84
378.52	945.58
378.72	929.19
378.91	924.51
379.11	903.45
379.31	903.45
379.50	999.41
379.70	940.90
379.89	938.55
380.09	919.83
380.28	950.26
380.48	999.41
380.68	1018.13
380.87	917.49
381.07	1039.20
381.26	1020.47
381.46	1053.24
381.65	1121.12
381.85	1071.97
382.04	1006.43
382.24	987.71
382.43	1083.67
382.63	1022.81
382.83	957.28
383.02	1022.81
383.22	1102.39
383.41	1071.97
383.61	1130.48
383.80	1228.78
384.00	1128.14
384.19	1121.12
384.39	1123.46
384.58	1107.07
384.78	1081.33
384.97	1191.33
385.17	1137.50
385.36	1188.99
385.56	1146.86
385.75	1151.54
385.95	1128.14
386.14	1186.65
386.34	1191.33
386.53	1233.46
386.72	1308.36
386.92	1259.21
387.11	1135.16
387.31	1322.40
387.50	1294.32
387.70	1266.23
387.89	1231.12
388.09	1193.67
388.28	1228.78
388.48	1409.00
388.67	1371.55
388.86	1303.68
389.06	1404.32
389.25	1380.92
389.45	1299.00
389.64	1270.91
389.84	1458.15
390.03	1371.55
390.22	1404.32
390.42	1329.42
390.61	1399.64
390.81	1411.34
391.00	1362.19
391.19	1380.92
391.39	1481.56
391.58	1397.30
391.78	1490.92
391.97	1476.88
392.16	1509.65
392.36	1526.03
392.55	1451.13
392.75	1451.13
392.94	1533.05
393.13	1563.48
393.33	1610.29
393.52	1572.84
393.71	1572.84
393.91	1661.78
394.10	1558.80
394.29	1736.68
394.49	1502.62
394.68	1542.41
394.88	1636.03
395.07	1661.78
395.26	1636.03
395.46	1687.53
395.65	1687.53
395.84	1713.27
396.04	1750.72
396.23	1675.82
396.42	1713.27
396.62	1753.06
396.81	1720.29
397.00	1781.15
397.19	1811.57
397.39	1860.73
397.58	1933.28
397.77	1755.40
397.97	1806.89
398.16	1827.96
398.35	1858.39
398.55	1834.98
398.74	1874.77
398.93	1975.41
399.12	1937.96
399.32	1893.49
399.51	1944.99
399.70	1907.54
399.90	1858.39
400.09	2038.61
400.28	2047.97
400.47	2043.29
400.67	2090.10
400.86	2033.93
401.05	2106.48
401.24	2080.74
401.44	2054.99
401.63	2216.49
401.82	2239.89
402.01	2174.36
402.21	2122.87
402.40	2111.16
402.59	2186.06
402.78	2260.96
402.97	2282.02
403.17	2136.91
403.36	2216.49
403.55	2335.85
403.74	2354.58
403.93	2352.24
404.13	2279.68
404.32	2457.56
404.51	2279.68
404.70	2410.75
404.89	2434.16
405.09	2457.56
405.28	2513.74
405.47	2382.67
405.66	2495.01
405.85	2612.04
406.05	2450.54
406.24	2588.63
406.43	2480.97
406.62	2551.18
406.81	2621.40
407.00	2649.49
407.20	2492.67
407.39	2588.63
407.58	2637.78
407.77	2635.44
407.96	2717.36
408.15	2642.46
408.34	2703.32
408.54	2719.70
408.73	2806.30
408.92	2813.32
409.11	2829.71
409.30	2782.90
409.49	2860.13
409.68	2822.69
409.87	2874.18
410.07	3038.02
410.26	2918.65
410.45	2972.48
410.64	3131.64
410.83	3038.02
411.02	3066.10
411.21	3070.78
411.40	3192.49
411.59	3183.13
411.78	3126.96
411.98	3012.27
412.17	3246.32
412.36	3152.70
412.55	3398.46
412.74	3300.16
412.93	3447.61
413.12	3307.18
413.31	3445.27
413.50	3407.82
413.69	3480.38
413.88	3602.08
414.07	3576.34
414.26	3527.19
414.45	3616.13
414.64	3751.88
414.83	3658.26
415.02	3796.35
415.22	3768.26
415.41	3796.35
415.60	3866.56
415.79	3798.69
415.98	3992.95
416.17	3936.78
416.36	4025.72
416.55	3925.08
416.74	4147.43
416.93	4056.15
417.12	4067.85
417.31	4091.26
417.50	4175.52
417.69	4273.82
417.88	4194.24
418.07	4241.05
418.26	4198.92
418.45	4280.84
418.64	4447.02
418.83	4423.61
419.02	4521.92
419.21	4454.04
419.39	4512.55
419.58	4379.14
419.77	4610.86
419.96	4568.73
420.15	4524.26
420.34	4454.04
420.53	4468.08
420.72	4699.80
420.91	4613.20
421.10	4624.90
421.29	4868.31
421.48	4692.77
421.67	4877.68
421.86	4791.08
422.05	4891.72
422.24	4573.41
422.43	4681.07
422.61	4732.56
422.80	4840.23
422.99	4744.27
423.18	4898.74
423.37	5015.77
423.56	4905.76
423.75	4835.55
423.94	4741.93
424.13	4507.87
424.32	4662.35
424.50	4992.36
424.69	5076.62
424.88	4954.91
425.07	4975.98
425.26	4786.40
425.45	5011.09
425.64	4973.64
425.83	4826.18
426.01	5013.43
426.20	4875.34
426.39	5008.75
426.58	5090.67
426.77	5111.73
426.96	5057.90
427.15	5060.24
427.33	5193.65
427.52	5085.98
427.71	5315.36
427.90	5160.88
428.09	5401.96
428.28	5277.91
428.46	5418.34
428.65	5186.63
428.84	5462.81
429.03	5446.43
429.22	5315.36
429.40	5441.75
429.59	5509.62
429.78	5125.77
429.97	5205.35
430.16	5378.55
430.34	5570.48
430.53	5558.77
430.72	5556.43
430.91	5565.79
431.10	5465.15
431.28	5636.01
431.47	5647.71
431.66	5881.77
431.85	5624.31
432.03	5783.46
432.22	5879.43
432.41	5923.90
432.60	5884.11
432.79	5832.62
432.97	5916.87
433.16	5839.64
433.35	5823.25
433.54	6015.18
433.72	6274.98
433.91	6106.46
434.10	6066.67
434.28	5966.03
434.47	6040.92
434.66	6104.12
434.85	6359.24
435.03	6097.10
435.22	6190.72
435.41	6277.32
435.59	6335.83
435.78	6284.34
435.97	6579.25
436.16	6443.49
436.34	6401.37
436.53	6530.09
436.72	6558.18
436.90	6600.31
437.09	6579.25
437.28	6429.45
437.46	6621.38
437.65	6560.52
437.84	6670.53
438.02	6614.35
438.21	6778.19
438.40	6574.56
438.58	6885.86
438.77	6951.39
438.96	7105.87
439.14	6932.67
439.33	7241.62
439.52	7150.34
439.70	7148.00
439.89	7281.41
440.08	7269.70
440.26	7267.36
440.45	7180.76
440.63	7386.73
440.82	7552.91
441.01	7452.27
441.19	7440.56
441.38	7583.34
441.57	7728.45
441.75	7868.88
441.94	7962.50
442.12	7995.27
442.31	7962.50
442.50	7922.71
442.68	7985.91
442.87	7775.26
443.05	8063.15
443.24	8187.19
443.43	8004.63
443.61	8098.25
443.80	8339.33
443.98	7770.58
444.17	7761.22
444.35	8266.77
444.54	8271.45
444.73	8198.90
444.91	8257.41
445.10	8318.26
445.28	8140.38
445.47	8243.37
445.65	8091.23
445.84	8336.99
446.02	8287.84
446.21	8383.80
446.39	8512.53
446.58	8423.59
446.77	8292.52
446.95	8182.51
447.14	8346.35
447.32	8439.97
447.51	8430.61
447.69	8470.40
447.88	8484.44
448.06	8500.83
448.25	8418.91
448.43	8477.42
448.62	8407.20
448.80	8510.19
448.99	8603.81
449.17	8737.22
449.36	8486.78
449.54	8884.67
449.73	9008.72
449.91	8879.99
450.10	8980.64
450.28	8945.53
450.46	9011.06
450.65	9135.11
450.83	9163.20
451.02	8889.35
451.20	9254.48
451.39	9172.56
451.57	9057.87
451.76	8936.17
451.94	9139.79
452.13	9224.05
452.31	9200.65
452.49	9160.86
452.68	9273.20
452.86	9455.76
453.05	9242.78
453.23	9586.83
453.42	9336.40
453.60	9343.42
453.78	9614.92
453.97	9252.14
454.15	9617.26
454.34	9479.17
454.52	9610.24
454.70	9507.26
454.89	9923.87
455.07	9687.48
455.26	9668.75
455.44	9856.00
455.62	9671.09
455.81	9776.42
455.99	10026.86
456.17	9935.57
456.36	10073.67
456.54	9980.04
456.73	10024.51
456.91	10249.21
457.09	10487.94
457.28	10424.75
457.46	10471.56
457.64	10541.77
457.83	10270.27
458.01	10604.97
458.19	10736.04
458.38	10574.54
458.56	10509.01
458.74	10789.87
458.93	10497.30
459.11	10672.84
459.29	10693.91
459.48	10497.30
459.66	10513.69
459.84	10855.40
460.03	10820.30
460.21	10890.51
460.39	11016.90
460.57	10867.11
460.76	10895.19
460.94	11286.06
461.12	11220.53
461.31	11105.84
461.49	11215.85
461.67	11178.40
461.85	11229.89
462.04	11080.10
462.22	11737.79
462.40	11293.08
462.59	11424.15
462.77	11260.32
462.95	11541.18
463.13	11531.82
463.32	11688.64
463.50	11625.44
463.68	11580.97
463.86	11950.78
464.05	11482.67
464.23	11733.11
464.41	11880.56
464.59	11604.38
464.78	11871.20
464.96	11861.84
465.14	11875.88
465.32	11957.80
465.50	11934.39
465.69	12212.92
465.87	12086.53
466.05	12086.53
466.23	12039.72
466.41	12051.42
466.60	12271.43
466.78	12210.57
466.96	12126.32
467.14	12374.41
467.32	12276.11
467.51	12645.91
467.69	11868.86
467.87	12393.14
468.05	12423.56
468.23	12329.94
468.41	12166.10
468.60	12582.72
468.78	12751.24
468.96	12711.45
469.14	12861.24
469.32	12798.05
469.50	12521.87
469.69	12786.35
469.87	12945.50
470.05	12863.58
470.23	12908.05
470.41	12774.64
470.59	13217.01
470.77	13020.40
470.95	13263.82
471.14	13280.20
471.32	13125.72
471.50	13514.25
471.68	13544.68
471.86	13540.00
472.04	13451.06
472.22	14005.77
472.40	13659.37
472.58	13895.76
472.77	13834.91
472.95	13973.00
473.13	14516.00
473.31	13872.36
473.49	14047.90
473.67	13970.66
473.85	14429.40
474.03	14609.62
474.21	14661.12
474.39	14717.29
474.57	14665.80
474.75	14647.07
474.93	14691.54
475.12	14668.14
475.30	14927.94
475.48	14913.89
475.66	15456.90
475.84	15133.90
476.02	15349.23
476.20	15293.06
476.38	15344.55
476.56	15712.02
476.74	16032.67
476.92	15655.84
477.10	15583.29
477.28	15939.05
477.46	15964.79
477.64	16407.16
477.82	16353.32
478.00	16695.04
478.18	16713.77
478.36	16872.92
478.54	16886.97
478.72	17067.19
478.90	17032.08
479.08	17369.12
479.26	17530.61
479.44	17624.23
479.62	17715.51
479.80	17991.70
479.98	17895.74
480.16	18410.65
480.34	18368.52
480.52	18307.67
480.70	18504.28
480.88	18071.28
481.06	18719.60
481.24	18735.99
481.41	18801.52
481.59	19342.19
481.77	19164.31
481.95	19550.49
482.13	19541.13
482.31	19499.00
482.49	20285.42
482.67	20140.31
482.85	20070.09
483.03	20201.16
483.21	20470.33
483.39	20989.92
483.57	20599.05
483.74	21132.70
483.92	21067.16
484.10	20996.95
484.28	21612.51
484.46	21970.61
484.64	21914.44
484.82	21958.91
485.00	22202.32
485.18	22427.01
485.35	22595.53
485.53	22581.49
485.71	22939.59
485.89	23616.01
486.07	23372.59
486.25	23374.93
486.43	23632.39
486.61	23601.96
486.78	23843.04
486.96	23908.57
487.14	24264.33
487.32	24608.39
487.50	24437.53
487.68	24886.92
487.85	25010.96
488.03	25195.87
488.21	25720.15
488.39	25678.02
488.57	25891.01
488.75	26068.89
488.92	26794.45
489.10	26443.37
489.28	26438.69
489.46	26951.27
489.64	26754.66
489.81	27393.63
489.99	27590.24
490.17	27300.01
490.35	27543.42
490.53	28084.09
490.70	28044.30
490.88	28348.57
491.06	28781.57
491.24	29127.97
491.41	29029.66
491.59	28933.70
491.77	28898.59
491.95	29579.69
492.13	29675.65
492.30	29727.14
492.48	29614.80
492.66	29802.04
492.84	30080.56
493.01	30707.83
493.19	30756.98
493.37	30724.21
493.54	30707.83
493.72	30918.48
493.90	30897.41
494.08	31592.55
494.25	31555.10
494.43	31665.11
494.61	31981.08
494.79	31828.95
494.96	32032.57
495.14	32425.78
495.32	32535.79
495.49	32945.38
495.67	33141.99
495.85	33034.32
496.02	33666.27
496.20	33748.18
496.38	33635.84
496.55	33825.42
496.73	34548.65
496.91	34312.25
497.09	34565.03
497.26	34543.97
497.44	34953.56
497.62	34665.67
497.79	35346.77
497.97	35061.22
498.14	35732.96
498.32	35777.43
498.50	35985.74
498.67	36208.09
498.85	36280.64
499.03	36526.40
499.20	36222.13
499.38	36367.24
499.56	36877.48
499.73	36818.97
499.91	37186.43
500.08	37415.80
500.26	37310.48
500.44	37621.77
500.61	37649.86
500.79	37834.76
500.97	37696.67
501.14	37996.26
501.32	38181.16
501.49	38143.71
501.67	38415.21
501.84	38642.24
502.02	38595.43
502.20	39098.65
502.37	38909.07
502.55	38965.24
502.72	39594.84
502.90	38976.94
503.07	39452.07
503.25	39461.43
503.43	39386.54
503.60	39601.86
503.78	40011.46
503.95	40233.81
504.13	40577.87
504.30	40357.86
504.48	40133.17
504.65	40465.52
504.83	40531.06
505.01	41287.05
505.18	40779.15
505.36	41736.43
505.53	40870.43
505.71	41654.51
505.88	41504.72
506.06	40907.88
506.23	42101.56
506.41	41139.60
506.58	41956.44
506.76	41832.39
506.93	41684.94
507.11	41867.50
507.28	42581.37
507.46	42206.88
507.63	42714.78
507.81	42831.80
507.98	42710.10
508.16	42883.30
508.33	43147.78
508.50	43072.88
508.68	43370.13
508.85	43517.58
509.03	43704.82
509.20	43491.83
509.38	43934.20
509.55	43971.64
509.73	44165.91
509.90	44432.73
510.08	44278.25
510.25	44584.86
510.42	44488.90
510.60	44865.73
510.77	44828.28
510.95	45247.24
511.12	44591.89
511.30	45027.23
511.47	45261.28
511.64	45083.40
511.82	45970.46
511.99	45223.83
512.17	45860.46
512.34	45759.81
512.51	45900.25
512.69	46124.94
512.86	45897.91
513.04	46241.96
513.21	46160.05
513.38	46696.03
513.56	46546.23
513.73	46326.22
513.90	47072.85
514.08	46611.77
514.25	47297.55
514.43	47033.07
514.60	47470.75
514.77	47171.16
514.95	47405.21
515.12	47445.00
515.29	47323.29
515.47	48006.73
515.64	47870.98
515.81	47550.32
515.99	47721.18
516.16	48257.17
516.33	47985.66
516.51	48278.23
516.68	48186.95
516.85	48287.59
517.03	48477.18
517.20	48472.49
517.37	48451.43
517.54	48690.16
517.72	48793.15
517.89	48664.42
518.06	49038.90
518.24	48844.64
518.41	49247.21
518.58	49181.68
518.75	49272.96
518.93	49429.77
519.10	49279.98
519.27	49483.61
519.45	49191.04
519.62	49780.85
519.79	49474.24
519.96	49514.03
520.14	50082.78
520.31	49783.19
520.48	49991.50
520.65	49993.84
520.83	50504.08
521.00	50670.26
521.17	50251.30
521.34	50272.37
521.52	50429.18
521.69	50829.41
521.86	50452.59
522.03	50876.22
522.20	51093.89
522.38	51021.34
522.55	51178.15
522.72	51215.60
522.89	51023.68
523.07	51276.46
523.24	51356.03
523.41	51611.15
523.58	50794.31
523.75	51554.98
523.92	51688.39
524.10	51566.68
524.27	51760.95
524.44	51707.12
524.61	51833.50
524.78	51894.36
524.96	51854.57
525.13	52107.35
525.30	51899.04
525.47	52205.65
525.64	52175.22
525.81	52332.04
525.98	52662.05
526.16	52633.97
526.33	52556.73
526.50	52818.87
526.67	52722.91
526.84	52980.37
527.01	52640.99
527.18	52680.78
527.36	52690.14
527.53	52718.23
527.70	53055.26
527.87	53158.25
528.04	52898.45
528.21	53378.26
528.38	53172.29
528.55	53436.77
528.72	53284.64
528.89	53303.36
529.07	53202.72
529.24	53125.48
529.41	53535.07
529.58	53457.84
529.75	53483.58
529.92	53446.13
530.09	53801.89
530.26	53769.13
530.43	53602.95
530.60	53614.65
530.77	53481.24
530.94	53813.60
531.11	54054.67
531.28	53757.42
531.46	54019.56
531.63	54075.74
531.80	54024.25
531.97	54241.92
532.14	54234.89
532.31	54218.51
532.48	54244.26
532.65	54571.93
532.82	54150.63
532.99	54660.87
533.16	54571.93
533.33	54632.78
533.50	54604.70
533.67	54705.34
533.84	54492.35
534.01	54660.87
534.18	54733.43
534.35	55145.36
534.52	54688.96
534.69	54707.68
534.86	54972.16
535.03	54761.51
535.20	55255.37
535.37	55199.19
535.54	54857.48
535.71	55075.15
535.88	55348.99
536.05	55189.83
536.22	55290.48
536.38	55426.23
536.55	55674.32
536.72	55229.62
536.89	55086.85
537.06	55557.30
537.23	55599.43
537.40	55423.89
537.57	55697.73
537.74	55594.74
537.91	55854.54
538.08	55671.98
538.25	55473.04
538.42	55732.84
538.59	55992.64
538.75	55550.27
538.92	55910.72
539.09	56217.33
539.26	55533.89
539.43	56011.36
539.60	56186.90
539.77	56065.19
539.94	56334.35
540.11	56200.94
540.28	56369.46
540.44	56259.46
540.61	56296.91
540.78	56121.37
540.95	56479.47
541.12	56423.29
541.29	56472.45
541.46	56207.97
541.62	56631.60
541.79	56481.81
541.96	56149.45
542.13	56587.13
542.30	56587.13
542.47	56757.99
542.63	56638.62
542.80	56626.92
542.97	56825.87
543.14	57165.24
543.31	57001.41
543.48	56938.21
543.64	57106.73
543.81	57427.38
543.98	56856.29
544.15	57228.44
544.32	57144.18
544.48	57354.83
544.65	57499.94
544.82	57427.38
544.99	56980.34
545.16	57176.95
545.32	57233.12
545.49	57513.98
545.66	57455.47
545.83	57532.71
546.00	57389.94
546.16	57663.78
546.33	57312.70
546.50	57148.86
546.67	57551.43
546.83	57247.16
547.00	57446.11
547.17	57593.56
547.34	57638.03
547.50	57888.47
547.67	57982.09
547.84	57986.77
548.00	58096.78
548.17	58178.70
548.34	57764.42
548.51	57701.23
548.67	58024.22
548.84	57932.94
549.01	58031.24
549.18	58108.48
549.34	58103.80
549.51	58080.39
549.68	58166.99
549.84	58351.90
550.01	58337.85
550.18	58164.65
550.34	58150.61
550.51	58209.12
550.68	58199.76
550.84	58010.18
551.01	58384.66
551.18	58298.06
551.34	58129.54
551.51	58255.93
551.68	58354.24
551.84	58557.86
552.01	58429.13
552.18	58424.45
552.34	58340.19
552.51	58457.22
552.68	58248.91
552.84	58419.77
553.01	58717.02
553.18	58618.72
553.34	58686.59
553.51	58707.66
553.67	58805.96
553.84	58997.88
554.01	58754.47
554.17	58798.94
554.34	58756.81
554.51	58887.88
554.67	58913.62
554.84	58789.58
555.00	58614.04
555.17	58646.80
555.33	58834.05
555.50	58838.73
555.67	58841.07
555.83	58787.24
556.00	58859.79
556.16	59133.63
556.33	59178.10
556.50	58997.88
556.66	59185.13
556.83	58873.84
556.99	59128.95
557.16	59337.26
557.32	59402.80
557.49	59557.27
557.65	59100.87
557.82	59126.61
557.98	59187.47
558.15	59442.59
558.32	59337.26
558.48	59262.36
558.65	59381.73
558.81	59276.41
558.98	59423.86
559.14	59405.14
559.31	59590.04
559.47	59508.12
559.64	59636.85
559.80	59667.28
559.97	59484.72
560.13	59412.16
560.30	59440.24
560.46	59334.92
560.63	59606.42
560.79	59533.87
560.96	59934.10
561.12	59620.47
561.29	59634.51
561.45	59718.77
561.61	59648.55
561.78	59629.83
561.94	59524.50
562.11	59664.94
562.27	59625.15
562.44	59978.57
562.60	59793.67
562.77	59838.14
562.93	59728.13
563.10	59838.14
563.26	59929.42
563.42	60107.30
563.59	59730.47
563.75	59749.20
563.92	59990.27
564.08	59760.90
564.24	60065.17
564.41	59793.67
564.57	60065.17
564.74	59819.41
564.90	59941.12
565.07	59962.18
565.23	59870.90
565.39	59920.05
565.56	60027.72
565.72	60016.02
565.88	60126.02
566.05	60079.21
566.21	60046.44
566.38	60154.11
566.54	60140.07
566.70	60140.07
566.87	60243.05
567.03	59891.97
567.19	60231.35
567.36	60238.37
567.52	60121.34
567.68	60362.42
567.85	60175.17
568.01	60268.79
568.17	60142.41
568.34	60252.41
568.50	60154.11
568.66	60128.36
568.83	60308.58
568.99	60250.07
569.15	60416.25
569.32	60259.43
569.48	60055.81
569.64	60523.91
569.81	60193.90
569.97	60207.94
570.13	60329.65
570.30	60200.92
570.46	60491.15
570.62	60425.61
570.78	60236.03
570.95	60224.32
571.11	60376.46
571.27	60544.98
571.43	60226.66
571.60	60320.29
571.76	60439.65
571.92	60399.86
572.09	60329.65
572.25	60537.96
572.41	60439.65
572.57	60519.23
572.74	60701.79
572.90	60381.14
573.06	60687.75
573.22	60552.00
573.38	60481.78
573.55	60470.08
573.71	60720.52
573.87	60566.04
574.03	60467.74
574.20	60474.76
574.36	60371.78
574.52	60523.91
574.68	60603.49
574.84	60624.56
575.01	60580.09
575.17	60554.34
575.33	60451.36
575.49	60217.30
575.65	60612.85
575.82	60399.86
575.98	60720.52
576.14	60715.84
576.30	60830.52
576.46	60544.98
576.62	60331.99
576.79	60554.34
576.95	60404.55
577.11	60650.30
577.27	60643.28
577.43	60795.42
577.59	60486.46
577.75	60507.53
577.92	60563.70
578.08	60713.50
578.24	60636.26
578.40	60772.01
578.56	60547.32
578.72	60662.00
578.88	60797.76
579.04	60748.60
579.21	60720.52
579.37	60856.27
579.53	61017.77
579.69	60594.13
579.85	60624.56
580.01	60638.60
580.17	60612.85
580.33	60830.52
580.49	60825.84
580.65	60882.02
580.82	60488.80
580.98	60797.76
581.14	60872.65
581.30	60779.03
581.46	60643.28
581.62	60678.39
581.78	60575.40
581.94	60940.53
582.10	60790.73
582.26	60821.16
582.42	60498.17
582.58	60900.74
582.74	60842.23
582.90	60832.86
583.06	60680.73
583.22	60645.62
583.38	60638.60
583.54	60802.44
583.70	61024.79
583.86	60947.55
584.02	60807.12
584.18	60947.55
584.34	60825.84
584.50	60708.82
584.66	60622.22
584.82	60573.06
584.98	61017.77
585.14	60809.46
585.30	60830.52
585.46	60839.89
585.62	60786.05
585.78	61097.34
585.94	60762.65
586.10	60877.33
586.26	60797.76
586.42	60992.02
586.58	60931.17
586.74	60790.73
586.90	61006.06
587.06	60872.65
587.22	60973.30
587.38	60987.34
587.54	61027.13
587.70	61116.07
587.86	61052.87
588.02	60818.82
588.18	60898.40
588.34	60779.03
588.49	60987.34
