SpectraSuite Data File
++++++++++++++++++++++++++++++++++++
Date: Fri Oct 25 11:23:43 EDT 2013
User: price-jones
Dark Spectrum Present: No
Reference Spectrum Present: No
Number of Sampled Component Spectra: 1
Spectrometers: USB2+H05261
Integration Time (usec): 100000 (USB2+H05261)
Spectra Averaged: 1 (USB2+H05261)
Boxcar Smoothing: 0 (USB2+H05261)
Correct for Electrical Dark: No (USB2+H05261)
Strobe/Lamp Enabled: No (USB2+H05261)
Correct for Detector Non-linearity: No (USB2+H05261)
Correct for Stray Light: No (USB2+H05261)
Number of Pixels in Processed Spectrum: 2048
>>>>>Begin Processed Spectral Data<<<<<
365.73	149.79
365.92	149.79
366.12	149.79
366.32	149.79
366.52	114.69
366.72	105.32
366.91	110.01
367.11	126.39
367.31	133.41
367.51	112.35
367.70	149.79
367.90	180.22
368.10	131.07
368.30	131.07
368.49	154.48
368.69	184.90
368.89	210.65
369.09	175.54
369.28	220.01
369.48	205.97
369.68	93.62
369.87	182.56
370.07	187.24
370.27	266.82
370.47	386.19
370.66	636.63
370.86	568.75
371.06	606.20
371.25	589.82
371.45	587.47
371.65	683.44
371.84	681.10
372.04	660.03
372.24	704.50
372.44	763.01
372.63	746.63
372.83	725.57
373.03	760.67
373.22	718.54
373.42	709.18
373.62	746.63
373.81	889.40
374.01	812.17
374.21	882.38
374.40	814.51
374.60	837.91
374.79	802.80
374.99	795.78
375.19	849.61
375.38	912.81
375.58	912.81
375.78	863.66
375.97	837.91
376.17	943.24
376.37	870.68
376.56	823.87
376.76	889.40
376.95	870.68
377.15	851.96
377.35	889.40
377.54	887.06
377.74	910.47
377.93	828.55
378.13	912.81
378.33	938.55
378.52	821.53
378.72	1015.79
378.91	940.90
379.11	901.11
379.31	987.71
379.50	917.49
379.70	945.58
379.89	1006.43
380.09	1071.97
380.28	880.04
380.48	968.98
380.68	1057.92
380.87	1041.54
381.07	1018.13
381.26	1011.11
381.46	959.62
381.65	1013.45
381.85	1055.58
382.04	1078.99
382.24	1088.35
382.43	971.32
382.63	1090.69
382.83	1062.60
383.02	1078.99
383.22	1125.80
383.41	1130.48
383.61	1125.80
383.80	1242.82
384.00	1090.69
384.19	1188.99
384.39	1128.14
384.58	1111.75
384.78	1102.39
384.97	1156.22
385.17	1142.18
385.36	1196.01
385.56	1135.16
385.75	1151.54
385.95	1165.59
386.14	1233.46
386.34	1153.88
386.53	1233.46
386.72	1174.95
386.92	1277.93
387.11	1284.95
387.31	1231.12
387.50	1238.14
387.70	1266.23
387.89	1240.48
388.09	1301.34
388.28	1226.44
388.48	1203.04
388.67	1420.71
388.86	1376.24
389.06	1224.10
389.25	1313.04
389.45	1352.83
389.64	1324.74
389.84	1317.72
390.03	1416.02
390.22	1378.58
390.42	1425.39
390.61	1376.24
390.81	1341.13
391.00	1488.58
391.19	1394.96
391.39	1399.64
391.58	1500.28
391.78	1479.22
391.97	1418.36
392.16	1451.13
392.36	1575.18
392.55	1458.15
392.75	1549.43
392.94	1458.15
393.13	1519.01
393.33	1535.39
393.52	1561.14
393.71	1549.43
393.91	1486.24
394.10	1605.61
394.29	1671.14
394.49	1645.40
394.68	1652.42
394.88	1626.67
395.07	1636.03
395.26	1631.35
395.46	1703.91
395.65	1645.40
395.84	1706.25
396.04	1856.04
396.23	1722.63
396.42	1825.62
396.62	1710.93
396.81	1739.02
397.00	1734.34
397.19	1764.76
397.39	1776.47
397.58	1849.02
397.77	1788.17
397.97	1888.81
398.16	1898.17
398.35	1879.45
398.55	1886.47
398.74	1912.22
398.93	1944.99
399.12	1867.75
399.32	1996.48
399.51	2062.01
399.70	1944.99
399.90	1921.58
400.09	1909.88
400.28	2080.74
400.47	2139.25
400.67	2097.12
400.86	2085.42
401.05	2015.20
401.24	2106.48
401.44	2047.97
401.63	2073.71
401.82	2143.93
402.01	2197.76
402.21	2181.38
402.40	2228.19
402.59	2146.27
402.78	2157.97
402.97	2204.78
403.17	2291.38
403.36	2277.34
403.55	2300.75
403.74	2293.72
403.93	2394.37
404.13	2340.54
404.32	2312.45
404.51	2532.46
404.70	2427.14
404.89	2410.75
405.09	2513.74
405.28	2429.48
405.47	2401.39
405.66	2569.91
405.85	2511.39
406.05	2532.46
406.24	2647.15
406.43	2562.89
406.62	2628.42
406.81	2712.68
407.00	2562.89
407.20	2588.63
407.39	2684.59
407.58	2708.00
407.77	2743.11
407.96	2780.56
408.15	2803.96
408.34	2719.70
408.54	2881.20
408.73	2773.53
408.92	2761.83
409.11	2885.88
409.30	2939.71
409.49	2871.84
409.68	2923.33
409.87	2841.41
410.07	3019.29
410.26	3049.72
410.45	3087.17
410.64	3045.04
410.83	3019.29
411.02	3021.63
411.21	3243.98
411.40	3054.40
411.59	3248.66
411.78	3215.90
411.98	3162.06
412.17	3185.47
412.36	3290.79
412.55	3344.63
412.74	3309.52
412.93	3407.82
413.12	3337.60
413.31	3503.78
413.50	3520.17
413.69	3501.44
413.88	3578.68
414.07	3625.49
414.26	3550.59
414.45	3550.59
414.64	3648.90
414.83	3772.94
415.02	3744.86
415.22	3852.52
415.41	3941.46
415.60	3896.99
415.79	3946.14
415.98	3962.53
416.17	4004.66
416.36	3960.19
416.55	4025.72
416.74	4205.94
416.93	4018.70
417.12	4269.14
417.31	4257.43
417.50	4091.26
417.69	4402.55
417.88	4264.46
418.07	4245.73
418.26	4294.88
418.45	4379.14
418.64	4456.38
418.83	4451.70
419.02	4498.51
419.21	4554.68
419.39	4358.08
419.58	4533.62
419.77	4442.34
419.96	4589.79
420.15	4692.77
420.34	4596.81
420.53	4660.01
420.72	4734.90
420.91	4706.82
421.10	4695.11
421.29	4891.72
421.48	4657.67
421.67	4650.64
421.86	4739.58
422.05	4842.57
422.24	4858.95
422.43	4784.06
422.61	4777.03
422.80	4961.94
422.99	5032.15
423.18	5057.90
423.37	5139.82
423.56	4992.36
423.75	4973.64
423.94	4919.81
424.13	4720.86
424.32	4786.40
424.50	4987.68
424.69	5104.71
424.88	5067.26
425.07	4957.25
425.26	4905.76
425.45	5001.72
425.64	4997.04
425.83	5025.13
426.01	5191.31
426.20	5036.83
426.39	5093.01
426.58	4861.29
426.77	5203.01
426.96	5210.03
427.15	5093.01
427.33	5226.42
427.52	5083.64
427.71	5121.09
427.90	5238.12
428.09	5357.49
428.28	5383.23
428.46	5401.96
428.65	5324.72
428.84	5540.05
429.03	5748.36
429.22	5420.68
429.40	5394.93
429.59	5474.51
429.78	5322.38
429.97	5174.92
430.16	5668.78
430.34	5661.76
430.53	5764.74
430.72	5654.73
430.91	5645.37
431.10	5715.59
431.28	5825.59
431.47	5949.64
431.66	5785.80
431.85	5834.96
432.03	5930.92
432.22	5912.19
432.41	6047.94
432.60	5888.79
432.79	5959.00
432.97	6104.12
433.16	6230.51
433.35	6223.48
433.54	6162.63
433.72	6307.74
433.91	6125.18
434.10	6211.78
434.28	6157.95
434.47	6307.74
434.66	6209.44
434.85	6235.19
435.03	6249.23
435.22	6265.61
435.41	6509.03
435.59	6485.62
435.78	6523.07
435.97	6431.79
436.16	6420.09
436.34	6476.26
436.53	6459.88
436.72	6717.34
436.90	6494.99
437.09	6576.91
437.28	6422.43
437.46	6597.97
437.65	6778.19
437.84	6581.59
438.02	6752.45
438.21	6942.03
438.40	6796.92
438.58	7272.04
438.77	6937.35
438.96	6956.07
439.14	6963.09
439.33	7241.62
439.52	7126.93
439.70	7267.36
439.89	7342.26
440.08	7489.71
440.26	7520.14
440.45	7365.67
440.63	7538.87
440.82	7520.14
441.01	7412.48
441.19	7698.02
441.38	7688.66
441.57	7672.28
441.75	7866.54
441.94	7953.14
442.12	7962.50
442.31	8088.89
442.50	7922.71
442.68	8095.91
442.87	7880.58
443.05	8276.13
443.24	8276.13
443.43	8222.30
443.61	8203.58
443.80	8484.44
443.98	8107.62
444.17	7971.86
444.35	8423.59
444.54	8365.07
444.73	8287.84
444.91	8393.16
445.10	8241.03
445.28	8416.57
445.47	8421.25
445.65	8339.33
445.84	8468.06
446.02	8624.87
446.21	8582.74
446.39	8327.63
446.58	8446.99
446.77	8547.64
446.95	8283.16
447.14	8521.89
447.32	8641.26
447.51	8521.89
447.69	8720.84
447.88	8470.40
448.06	8517.21
448.25	8723.18
448.43	8725.52
448.62	8772.33
448.80	8526.57
448.99	8676.37
449.17	8908.08
449.36	8781.69
449.54	8699.77
449.73	8938.51
449.91	8931.48
450.10	9029.79
450.28	9029.79
450.46	8936.17
450.65	9104.68
450.83	9170.22
451.02	9102.34
451.20	9270.86
451.39	9331.72
451.57	9240.44
451.76	9163.20
451.94	9226.39
452.13	9392.57
452.31	9252.14
452.49	9097.66
452.68	9322.35
452.86	9397.25
453.05	9530.66
453.23	9673.43
453.42	9500.23
453.60	9242.78
453.78	9844.29
453.97	9423.00
454.15	9465.13
454.34	9516.62
454.52	9797.48
454.70	9605.56
454.89	9626.62
455.07	9982.38
455.26	9951.96
455.44	9820.89
455.62	9907.49
455.81	9930.89
455.99	10157.92
456.17	10155.58
456.36	10263.25
456.54	10036.22
456.73	10129.84
456.91	10562.84
457.09	10520.71
457.28	10808.59
457.46	10619.01
457.64	10604.97
457.83	10588.58
458.01	10443.47
458.19	10871.79
458.38	10490.28
458.56	10754.76
458.74	10768.80
458.93	10476.24
459.11	10670.50
459.29	10745.40
459.48	11033.29
459.66	10740.72
459.84	10867.11
460.03	11140.95
460.21	11248.61
460.39	11103.50
460.57	10988.82
460.76	11307.13
460.94	11293.08
461.12	11215.85
461.31	11211.17
461.49	11260.32
461.67	11131.59
461.85	11459.26
462.04	11211.17
462.22	11580.97
462.40	11527.14
462.59	11604.38
462.77	11412.45
462.95	11557.57
463.13	11564.59
463.32	11707.36
463.50	11939.07
463.68	11887.58
463.86	11758.85
464.05	11772.89
464.23	11634.80
464.41	11779.92
464.59	11534.16
464.78	12123.98
464.96	12093.55
465.14	11901.62
465.32	12006.95
465.50	12224.62
465.69	12404.84
465.87	12320.58
466.05	12222.28
466.23	12287.81
466.41	12168.45
466.60	12664.64
466.78	12381.43
466.96	11967.16
467.14	12318.24
467.32	12697.41
467.51	12582.72
467.69	11967.16
467.87	12512.50
468.05	12706.77
468.23	12489.10
468.41	12430.59
468.60	12620.17
468.78	12713.79
468.96	12674.00
469.14	13022.74
469.32	12952.52
469.50	12542.93
469.69	13160.83
469.87	13242.75
470.05	13191.26
470.23	13174.88
470.41	13163.17
470.59	13312.97
470.77	13238.07
470.95	13441.70
471.14	13497.87
471.32	13123.38
471.50	13570.43
471.68	13696.82
471.86	13589.15
472.04	13895.76
472.22	13862.99
472.40	13532.98
472.58	13951.93
472.77	13996.40
472.95	14230.46
473.13	14736.01
473.31	14218.75
473.49	14277.27
473.67	14267.91
473.85	14331.10
474.03	14686.86
474.21	14817.93
474.39	14974.75
474.57	14621.33
474.75	14892.83
474.93	14764.10
475.12	15021.56
475.30	15159.65
475.48	15183.06
475.66	15248.59
475.84	15257.95
476.02	15360.94
476.20	15506.05
476.38	15747.12
476.56	16030.33
476.74	16140.33
476.92	15953.09
477.10	15812.66
477.28	16318.22
477.46	16107.57
477.64	16210.55
477.82	16769.94
478.00	17034.42
478.18	16938.46
478.36	17060.16
478.54	17202.94
478.72	17118.68
478.90	17331.67
479.08	17448.69
479.26	17788.07
479.44	17874.67
479.62	17912.12
479.80	18075.96
479.98	18216.39
480.16	18726.63
480.34	18270.22
480.52	18803.86
480.70	18881.10
480.88	18537.04
481.06	18860.04
481.24	18867.06
481.41	18946.64
481.59	19302.40
481.77	19374.95
481.95	19552.84
482.13	19922.64
482.31	19651.14
482.49	20383.73
482.67	20250.32
482.85	20451.60
483.03	20994.61
483.21	21064.82
483.39	20912.69
483.57	20943.11
483.74	21425.26
483.92	21266.11
484.10	21280.15
484.28	21788.05
484.46	22143.81
484.64	22443.40
484.82	21706.13
485.00	22230.41
485.18	22689.15
485.35	23143.22
485.53	22897.46
485.71	22960.66
485.89	23353.87
486.07	23571.54
486.25	23566.85
486.43	23974.11
486.61	24196.46
486.78	24336.89
486.96	24678.61
487.14	24697.33
487.32	24563.92
487.50	24966.49
487.68	25270.76
487.85	25376.09
488.03	25542.27
488.21	25865.26
488.39	25933.14
488.57	26197.62
488.75	26576.78
488.92	26682.11
489.10	26850.63
489.28	26852.97
489.46	27414.69
489.64	27342.14
489.81	27786.84
489.99	27761.09
490.17	28018.55
490.35	28137.92
490.53	28093.45
490.70	28489.00
490.88	28575.60
491.06	29076.48
491.24	29074.13
491.41	29296.49
491.59	29579.69
491.77	29013.28
491.95	29696.72
492.13	30316.96
492.30	30026.73
492.48	30071.20
492.66	30478.46
492.84	30213.98
493.01	31108.06
493.19	30672.72
493.37	31297.64
493.54	31131.47
493.72	31562.12
493.90	31653.40
494.08	31835.97
494.25	32189.39
494.43	31866.39
494.61	32528.77
494.79	32355.57
494.96	32753.46
495.14	32879.85
495.32	33329.23
495.49	33607.75
495.67	33493.07
495.85	33675.63
496.02	33935.43
496.20	33928.41
496.38	34078.20
496.55	34368.43
496.73	35243.79
496.91	34815.47
497.09	34888.03
497.26	35009.73
497.44	35124.42
497.62	35660.40
497.79	35941.27
497.97	35526.99
498.14	36449.16
498.32	36388.31
498.50	36175.32
498.67	36669.17
498.85	36371.92
499.03	36748.75
499.20	37036.64
499.38	36896.20
499.56	37074.09
499.73	37408.78
499.91	37567.94
500.08	37755.18
500.26	37647.52
500.44	37837.10
500.61	38127.33
500.79	37748.16
500.97	38412.87
501.14	38614.16
501.32	38581.39
501.49	38679.69
501.67	38562.67
501.84	38923.11
502.02	38756.93
502.20	39374.83
502.37	39388.88
502.55	39377.17
502.72	39496.54
502.90	39971.67
503.07	39405.26
503.25	39447.39
503.43	39274.19
503.60	40030.18
503.78	40051.25
503.95	40336.79
504.13	40643.40
504.30	40940.65
504.48	40776.81
504.65	40889.16
504.83	41333.86
505.01	41663.88
505.18	41095.13
505.36	41820.69
505.53	41294.07
505.71	42080.49
505.88	42087.51
506.06	41986.87
506.23	42204.54
506.41	41652.17
506.58	42433.91
506.76	42443.27
506.93	42656.26
507.11	42564.98
507.28	42911.38
507.46	42962.87
507.63	43274.16
507.81	43459.07
507.98	43243.74
508.16	43295.23
508.33	43704.82
508.50	43714.19
508.68	44252.51
508.85	43899.09
509.03	43866.32
509.20	44072.29
509.38	45125.53
509.55	44924.24
509.73	45006.16
509.90	44842.32
510.08	44301.66
510.25	44896.16
510.42	44933.60
510.60	45268.30
510.77	45179.36
510.95	45413.41
511.12	45097.44
511.30	45338.52
511.47	45696.62
511.64	45565.55
511.82	45991.53
511.99	45727.05
512.17	46171.75
512.34	46021.95
512.51	46588.36
512.69	46293.46
512.86	46789.65
513.04	46941.78
513.21	46410.48
513.38	47075.19
513.56	47538.62
513.73	46937.10
513.90	46880.93
514.08	47267.12
514.25	46944.12
514.43	47763.31
514.60	47562.03
514.77	47517.56
514.95	47730.54
515.12	47569.05
515.29	47983.32
515.47	48224.40
515.64	48484.20
515.81	48259.51
515.99	48086.31
516.16	48758.04
516.33	48531.01
516.51	48790.81
516.68	48542.71
516.85	48692.50
517.03	48907.83
517.20	48905.49
517.37	48975.71
517.54	49408.71
517.72	49251.89
517.89	49469.56
518.06	49530.42
518.24	49460.20
518.41	49659.15
518.58	50019.59
518.75	49324.45
518.93	49574.89
519.10	49567.87
519.27	49970.44
519.45	49844.05
519.62	50218.53
519.79	50047.68
519.96	50199.81
520.14	50497.06
520.31	50197.47
520.48	50501.74
520.65	50492.38
520.83	50967.51
521.00	50857.50
521.17	50841.12
521.34	51021.34
521.52	50997.93
521.69	51051.76
521.86	51276.46
522.03	51426.25
522.20	51531.57
522.38	51611.15
522.55	51466.04
522.72	51243.69
522.89	51110.28
523.07	51922.44
523.24	51636.90
523.41	51966.91
523.58	51650.94
523.75	51796.06
523.92	51870.95
524.10	51849.89
524.27	52289.91
524.44	52587.16
524.61	52165.86
524.78	52179.90
524.96	52189.27
525.13	52238.42
525.30	52507.58
525.47	52809.51
525.64	52870.36
525.81	52875.04
525.98	53092.71
526.16	52222.03
526.33	52580.13
526.50	53104.41
526.67	52746.31
526.84	53102.07
527.01	53116.12
527.18	53013.13
527.36	53183.99
527.53	53195.70
527.70	53453.15
527.87	53375.92
528.04	53237.83
528.21	53600.61
528.38	53443.79
528.55	53811.26
528.72	53621.67
528.89	53649.76
529.07	53537.41
529.24	53539.75
529.41	54028.93
529.58	53858.07
529.75	53858.07
529.92	53883.81
530.09	54253.62
530.26	53909.56
530.43	54171.70
530.60	53998.50
530.77	53975.09
530.94	54342.56
531.11	54284.04
531.28	54302.77
531.46	54295.75
531.63	54726.41
531.80	54270.00
531.97	54628.10
532.14	54670.23
532.31	54410.43
532.48	54581.29
532.65	54855.14
532.82	54417.46
532.99	54958.12
533.16	54616.40
533.33	54866.84
533.50	54906.63
533.67	55068.12
533.84	54969.82
534.01	54897.27
534.18	54915.99
534.35	55262.39
534.52	55047.06
534.69	55192.17
534.86	55576.02
535.03	55072.81
535.20	55318.56
535.37	55522.19
535.54	55447.29
535.71	55353.67
535.88	55419.20
536.05	55767.94
536.22	55697.73
536.38	55634.53
536.55	55725.81
536.72	55749.22
536.89	55674.32
537.06	55884.97
537.23	55796.03
537.40	55913.06
537.57	56006.68
537.74	55929.44
537.91	56065.19
538.08	56018.38
538.25	55655.60
538.42	55681.34
538.59	56285.20
538.75	55964.55
538.92	56095.62
539.09	56505.21
539.26	56381.16
539.43	56203.28
539.60	56486.49
539.77	56477.13
539.94	56409.25
540.11	56795.44
540.28	56502.87
540.44	56533.30
540.61	56418.61
540.78	56516.92
540.95	56584.79
541.12	56456.06
541.29	56664.37
541.46	56743.95
541.62	56790.76
541.79	56797.78
541.96	56444.36
542.13	56664.37
542.30	56865.66
542.47	57062.26
542.63	57106.73
542.80	56963.96
542.97	56851.61
543.14	57324.40
543.31	57352.49
543.48	57296.31
543.64	57544.41
543.81	57382.91
543.98	57368.87
544.15	57251.84
544.32	57542.07
544.48	57876.77
544.65	57443.77
544.82	57549.09
544.99	57352.49
545.16	57546.75
545.32	57380.57
545.49	57954.00
545.66	57911.88
545.83	57642.71
546.00	57801.87
546.16	57832.30
546.33	57649.74
546.50	57633.35
546.67	57991.45
546.83	57682.50
547.00	57958.69
547.17	57925.92
547.34	58064.01
547.50	58033.58
547.67	58166.99
547.84	58157.63
548.00	58216.14
548.17	58379.98
548.34	58370.62
548.51	58122.52
548.67	58251.25
548.84	58171.67
549.01	58225.51
549.18	58145.93
549.34	58527.44
549.51	58599.99
549.68	58571.91
549.84	58571.91
550.01	58534.46
550.18	58314.45
550.34	58539.14
550.51	58557.86
550.68	58361.26
550.84	58387.00
551.01	58834.05
551.18	58546.16
551.34	58557.86
551.51	58497.01
551.68	58440.84
551.84	58810.64
552.01	58815.32
552.18	58815.32
552.34	58698.30
552.51	58880.86
552.68	58658.51
552.84	58541.48
553.01	59189.81
553.18	58901.92
553.34	58993.20
553.51	58773.19
553.67	58953.41
553.84	59040.01
554.01	58946.39
554.17	59058.74
554.34	59377.05
554.51	59058.74
554.67	59283.43
554.84	58859.79
555.00	59150.02
555.17	59154.70
555.33	59011.93
555.50	59051.72
555.67	59192.15
555.83	59091.51
556.00	59285.77
556.16	59419.18
556.33	59391.09
556.50	59426.20
556.66	59344.28
556.83	59206.19
556.99	59451.95
557.16	59437.90
557.32	59758.56
557.49	59842.82
557.65	59475.35
557.82	59421.52
557.98	59316.20
558.15	59533.87
558.32	59454.29
558.48	59643.87
558.65	59585.36
558.81	59753.88
558.98	59545.57
559.14	59817.07
559.31	59728.13
559.47	59891.97
559.64	59716.43
559.80	59948.14
559.97	59999.63
560.13	59646.21
560.30	59971.55
560.46	59718.77
560.63	59943.46
560.79	59821.75
560.96	60011.34
561.12	59941.12
561.29	59978.57
561.45	60034.74
561.61	60097.94
561.78	60004.31
561.94	59840.48
562.11	60076.87
562.27	59859.20
562.44	59908.35
562.60	60287.52
562.77	60123.68
562.93	59915.37
563.10	60151.77
563.26	59950.48
563.42	60301.56
563.59	60280.50
563.75	60198.58
563.92	60111.98
564.08	60053.47
564.24	60308.58
564.41	60458.38
564.57	60434.97
564.74	60179.85
564.90	60203.26
565.07	60175.17
565.23	60294.54
565.39	60266.45
565.56	60252.41
565.72	60395.18
565.88	60336.67
566.05	60296.88
566.21	60229.01
566.38	60441.99
566.54	60378.80
566.70	60662.00
566.87	60491.15
567.03	60156.45
567.19	60636.26
567.36	60479.44
567.52	60418.59
567.68	60488.80
567.85	60346.03
568.01	60502.85
568.17	60502.85
568.34	60669.03
568.50	60214.96
568.66	60652.64
568.83	60456.04
568.99	60472.42
569.15	60683.07
569.32	60591.79
569.48	60451.36
569.64	60692.43
569.81	60507.53
569.97	60535.62
570.13	60657.32
570.30	60470.08
570.46	60659.66
570.62	60566.04
570.78	60559.02
570.95	60598.81
571.11	60825.84
571.27	60699.45
571.43	60633.92
571.60	60949.89
571.76	60678.39
571.92	60715.84
572.09	60767.33
572.25	60699.45
572.41	60584.77
572.57	60678.39
572.74	60816.48
572.90	60804.78
573.06	60736.90
573.22	60676.05
573.38	60659.66
573.55	60608.17
573.71	60947.55
573.87	60870.31
574.03	60638.60
574.20	60657.32
574.36	60741.58
574.52	61017.77
574.68	60921.80
574.84	60905.42
575.01	60926.49
575.17	60844.57
575.33	60924.14
575.49	60750.94
575.65	60921.80
575.82	60889.04
575.98	60977.98
576.14	61165.22
576.30	60921.80
576.46	60865.63
576.62	60839.89
576.79	60912.44
576.95	60835.20
577.11	60987.34
577.27	60966.27
577.43	60996.70
577.59	60849.25
577.75	60692.43
577.92	60610.51
578.08	60874.99
578.24	60989.68
578.40	61048.19
578.56	61095.00
578.72	60835.20
578.88	61162.88
579.04	61130.11
579.21	61111.39
579.37	61043.51
579.53	61085.64
579.69	60767.33
579.85	60970.96
580.01	60884.36
580.17	60697.11
580.33	60956.91
580.49	60970.96
580.65	61085.64
580.82	61036.49
580.98	60779.03
581.14	60949.89
581.30	61212.03
581.46	60994.36
581.62	60917.12
581.78	60985.00
581.94	61048.19
582.10	61013.08
582.26	60867.97
582.42	61038.83
582.58	61242.46
582.74	61043.51
582.90	61059.90
583.06	61008.40
583.22	60853.93
583.38	60968.61
583.54	61043.51
583.70	60942.87
583.86	61200.33
584.02	60975.64
584.18	61043.51
584.34	61144.16
584.50	61256.50
584.66	61020.11
584.82	60816.48
584.98	61446.08
585.14	61228.41
585.30	60795.42
585.46	61352.46
585.62	61144.16
585.78	61378.21
585.94	60839.89
586.10	61275.22
586.26	61272.88
586.42	61263.52
586.58	61230.75
586.74	61172.24
586.90	61186.28
587.06	60989.68
587.22	61188.63
587.38	61106.71
587.54	61361.82
587.70	61256.50
587.86	61240.12
588.02	61167.56
588.18	61219.05
588.34	61078.62
