SpectraSuite Data File
++++++++++++++++++++++++++++++++++++
Date: Fri Oct 25 11:25:15 EDT 2013
User: price-jones
Dark Spectrum Present: No
Reference Spectrum Present: No
Number of Sampled Component Spectra: 1
Spectrometers: USB2+H05261
Integration Time (usec): 100000 (USB2+H05261)
Spectra Averaged: 1 (USB2+H05261)
Boxcar Smoothing: 0 (USB2+H05261)
Correct for Electrical Dark: No (USB2+H05261)
Strobe/Lamp Enabled: No (USB2+H05261)
Correct for Detector Non-linearity: No (USB2+H05261)
Correct for Stray Light: No (USB2+H05261)
Number of Pixels in Processed Spectrum: 2048
>>>>>Begin Processed Spectral Data<<<<<
365.73	304.27
365.92	304.27
366.12	304.27
366.32	142.77
366.52	138.09
366.72	105.32
366.91	81.92
367.11	149.79
367.31	145.11
367.51	170.86
367.70	149.79
367.90	124.05
368.10	124.05
368.30	222.35
368.49	133.41
368.69	131.07
368.89	187.24
369.09	156.82
369.28	196.60
369.48	133.41
369.68	198.95
369.87	138.09
370.07	194.26
370.27	241.08
370.47	311.29
370.66	589.82
370.86	624.92
371.06	599.18
371.25	681.10
371.45	683.44
371.65	606.20
371.84	678.76
372.04	758.33
372.24	741.95
372.44	653.01
372.63	753.65
372.83	657.69
373.03	730.25
373.22	739.61
373.42	718.54
373.62	755.99
373.81	784.08
374.01	823.87
374.21	772.38
374.40	765.36
374.60	837.91
374.79	830.89
374.99	854.30
375.19	887.06
375.38	915.15
375.58	837.91
375.78	823.87
375.97	903.45
376.17	917.49
376.37	866.00
376.56	884.72
376.76	842.59
376.95	844.93
377.15	889.40
377.35	875.36
377.54	908.13
377.74	938.55
377.93	945.58
378.13	971.32
378.33	957.28
378.52	933.87
378.72	983.02
378.91	908.13
379.11	1008.77
379.31	1001.75
379.50	856.64
379.70	976.00
379.89	945.58
380.09	964.30
380.28	912.81
380.48	952.60
380.68	1025.15
380.87	978.34
381.07	983.02
381.26	1048.56
381.46	947.92
381.65	1029.84
381.85	997.07
382.04	1055.58
382.24	1036.86
382.43	1018.13
382.63	1067.28
382.83	1137.50
383.02	1144.52
383.22	1160.91
383.41	1060.26
383.61	1067.28
383.80	1071.97
384.00	1151.54
384.19	1153.88
384.39	1165.59
384.58	1156.22
384.78	1142.18
384.97	1261.55
385.17	1181.97
385.36	1081.33
385.56	1186.65
385.75	1100.05
385.95	1191.33
386.14	1270.91
386.34	1221.76
386.53	1172.61
386.72	1188.99
386.92	1212.40
387.11	1188.99
387.31	1221.76
387.50	1224.10
387.70	1228.78
387.89	1252.19
388.09	1231.12
388.28	1167.93
388.48	1306.02
388.67	1320.06
388.86	1348.15
389.06	1380.92
389.25	1301.34
389.45	1352.83
389.64	1313.04
389.84	1322.40
390.03	1303.68
390.22	1406.66
390.42	1394.96
390.61	1387.94
390.81	1324.74
391.00	1348.15
391.19	1437.09
391.39	1404.32
391.58	1469.86
391.78	1462.83
391.97	1469.86
392.16	1533.05
392.36	1476.88
392.55	1488.58
392.75	1490.92
392.94	1493.26
393.13	1537.73
393.33	1502.62
393.52	1570.50
393.71	1640.72
393.91	1570.50
394.10	1600.93
394.29	1561.14
394.49	1577.52
394.68	1750.72
394.88	1694.55
395.07	1685.19
395.26	1727.32
395.46	1652.42
395.65	1741.36
395.84	1783.49
396.04	1746.04
396.23	1762.42
396.42	1774.13
396.62	1734.34
396.81	1834.98
397.00	1743.70
397.19	1795.19
397.39	1788.17
397.58	1799.87
397.77	1781.15
397.97	1729.66
398.16	1778.81
398.35	1867.75
398.55	1865.41
398.74	1977.75
398.93	1982.43
399.12	1907.54
399.32	1879.45
399.51	1902.86
399.70	2029.24
399.90	2040.95
400.09	1926.26
400.28	2047.97
400.47	2043.29
400.67	2122.87
400.86	1994.14
401.05	1989.46
401.24	2125.21
401.44	2115.84
401.63	2160.31
401.82	2143.93
402.01	2115.84
402.21	2141.59
402.40	2172.02
402.59	2190.74
402.78	2113.50
402.97	2275.00
403.17	2256.28
403.36	2312.45
403.55	2242.23
403.74	2338.20
403.93	2478.63
404.13	2406.07
404.32	2424.80
404.51	2298.41
404.70	2422.45
404.89	2401.39
405.09	2452.88
405.28	2497.35
405.47	2511.39
405.66	2473.95
405.85	2509.05
406.05	2576.93
406.24	2485.65
406.43	2579.27
406.62	2649.49
406.81	2583.95
407.00	2518.42
407.20	2614.38
407.39	2565.23
407.58	2654.17
407.77	2693.96
407.96	2729.06
408.15	2764.17
408.34	2693.96
408.54	2909.29
408.73	2708.00
408.92	2731.41
409.11	2892.90
409.30	2916.31
409.49	2825.03
409.68	2878.86
409.87	2825.03
410.07	3068.44
410.26	3049.72
410.45	2949.08
410.64	3016.95
410.83	3019.29
411.02	3005.25
411.21	3131.64
411.40	3073.12
411.59	3276.75
411.78	3251.00
411.98	3126.96
412.17	3293.13
412.36	3323.56
412.55	3335.26
412.74	3358.67
412.93	3473.36
413.12	3365.69
413.31	3588.04
413.50	3463.99
413.69	3487.40
413.88	3466.33
414.07	3597.40
414.26	3658.26
414.45	3618.47
414.64	3634.85
414.83	3796.35
415.02	3749.54
415.22	3847.84
415.41	3913.38
415.60	3808.05
415.79	3976.57
415.98	3896.99
416.17	3873.59
416.36	3899.33
416.55	3953.16
416.74	4138.07
416.93	4077.21
417.12	4042.11
417.31	4105.30
417.50	4161.47
417.69	4112.32
417.88	4332.33
418.07	4318.29
418.26	4299.56
418.45	4313.61
418.64	4568.73
418.83	4475.10
419.02	4320.63
419.21	4423.61
419.39	4594.47
419.58	4596.81
419.77	4379.14
419.96	4519.57
420.15	4599.15
420.34	4557.02
420.53	4641.28
420.72	4662.35
420.91	4631.92
421.10	4744.27
421.29	4739.58
421.48	4622.56
421.67	4744.27
421.86	4678.73
422.05	4627.24
422.24	4903.42
422.43	4861.29
422.61	4940.87
422.80	4983.00
422.99	4922.15
423.18	4898.74
423.37	4940.87
423.56	4844.91
423.75	4851.93
423.94	4873.00
424.13	4664.69
424.32	4795.76
424.50	5036.83
424.69	4945.55
424.88	5053.22
425.07	5011.09
425.26	4901.08
425.45	4973.64
425.64	4814.48
425.83	4940.87
426.01	5029.81
426.20	4917.47
426.39	5041.51
426.58	4985.34
426.77	5081.30
426.96	5097.69
427.15	5107.05
427.33	5359.83
427.52	5083.64
427.71	5198.33
427.90	5069.60
428.09	5404.30
428.28	5111.73
428.46	5245.14
428.65	5181.95
428.84	5420.68
429.03	5619.63
429.22	5504.94
429.40	5453.45
429.59	5509.62
429.78	5341.10
429.97	5242.80
430.16	5455.79
430.34	5619.63
430.53	5565.79
430.72	5603.24
430.91	5636.01
431.10	5547.07
431.28	5640.69
431.47	5863.04
431.66	5830.27
431.85	5640.69
432.03	5799.85
432.22	6029.22
432.41	5900.49
432.60	5914.53
432.79	5879.43
432.97	6054.97
433.16	5898.15
433.35	5856.02
433.54	6005.81
433.72	6101.78
433.91	6008.16
434.10	6101.78
434.28	5961.34
434.47	6120.50
434.66	6179.01
434.85	6289.02
435.03	6356.90
435.22	6235.19
435.41	6399.02
435.59	6263.27
435.78	6431.79
435.97	6445.84
436.16	6310.08
436.34	6448.18
436.53	6558.18
436.72	6513.71
436.90	6324.13
437.09	6583.93
437.28	6504.35
437.46	6516.05
437.65	6583.93
437.84	6684.57
438.02	6483.28
438.21	6766.49
438.40	6637.76
438.58	7070.76
438.77	6787.55
438.96	6843.73
439.14	7143.32
439.33	7169.06
439.52	7265.02
439.70	7206.51
439.89	7250.98
440.08	7234.60
440.26	7356.30
440.45	7487.37
440.63	7344.60
440.82	7564.61
441.01	7581.00
441.19	7702.70
441.38	7761.22
441.57	7819.73
441.75	7791.64
441.94	7831.43
442.12	8006.97
442.31	7967.18
442.50	7864.20
442.68	7901.65
442.87	7995.27
443.05	8081.87
443.24	8201.24
443.43	8140.38
443.61	8121.66
443.80	8416.57
443.98	7953.14
444.17	7822.07
444.35	8067.83
444.54	8334.65
444.73	8224.64
444.91	8294.86
445.10	8191.88
445.28	8355.71
445.47	8355.71
445.65	8425.93
445.84	8187.19
446.02	8484.44
446.21	8341.67
446.39	8262.09
446.58	8430.61
446.77	8540.61
446.95	8294.86
447.14	8526.57
447.32	8465.72
447.51	8262.09
447.69	8442.31
447.88	8468.06
448.06	8505.51
448.25	8491.46
448.43	8538.27
448.62	8463.38
448.80	8545.30
448.99	8795.73
449.17	8669.34
449.36	8573.38
449.54	8683.39
449.73	8807.44
449.91	8786.37
450.10	8997.02
450.28	9074.26
450.46	8919.78
450.65	9036.81
450.83	8929.14
451.02	8769.99
451.20	9121.07
451.39	9039.15
451.57	9198.31
451.76	8982.98
451.94	9153.84
452.13	9418.32
452.31	9179.58
452.49	9165.54
452.68	9270.86
452.86	9324.69
453.05	9259.16
453.23	9483.85
453.42	9179.58
453.60	9514.28
453.78	9521.30
453.97	9362.14
454.15	9378.53
454.34	9373.85
454.52	9680.46
454.70	9570.45
454.89	9572.79
455.07	9682.80
455.26	9790.46
455.44	9860.68
455.62	9886.42
455.81	9802.16
455.99	10153.24
456.17	10092.39
456.36	10141.54
456.54	10134.52
456.73	10134.52
456.91	10326.44
457.09	10569.86
457.28	10530.07
457.46	10274.95
457.64	10532.41
457.83	10361.55
458.01	10296.02
458.19	10651.78
458.38	10314.74
458.56	10696.25
458.74	10600.29
458.93	10469.22
459.11	10565.18
459.29	10787.53
459.48	10541.77
459.66	10604.97
459.84	10789.87
460.03	10946.69
460.21	10979.45
460.39	10927.96
460.57	10897.53
460.76	11187.76
460.94	11063.71
461.12	11033.29
461.31	10949.03
461.49	11122.23
461.67	11180.74
461.85	11304.79
462.04	11304.79
462.22	11349.26
462.40	11496.71
462.59	11473.31
462.77	11400.75
462.95	11365.64
463.13	11377.34
463.32	11569.27
463.50	11634.80
463.68	11637.14
463.86	11733.11
464.05	11386.71
464.23	11548.20
464.41	11784.60
464.59	11625.44
464.78	11948.43
464.96	11866.52
465.14	11927.37
465.32	12030.35
465.50	11992.90
465.69	12053.76
465.87	11992.90
466.05	12166.10
466.23	12056.10
466.41	12189.51
466.60	12683.36
466.78	12086.53
466.96	12093.55
467.14	12332.28
467.32	12301.86
467.51	12339.30
467.69	12156.74
467.87	12505.48
468.05	12475.06
468.23	12575.70
468.41	12318.24
468.60	12470.37
468.78	12624.85
468.96	12580.38
469.14	12985.29
469.32	13022.74
469.50	12472.71
469.69	12884.65
469.87	13188.92
470.05	12961.89
470.23	12954.87
470.41	12957.21
470.59	13334.03
470.77	13235.73
470.95	13121.04
471.14	13444.04
471.32	13221.69
471.50	13710.86
471.68	13701.50
471.86	13628.94
472.04	13855.97
472.22	13781.07
472.40	13561.06
472.58	13659.37
472.77	13914.48
472.95	14099.39
473.13	14422.38
473.31	13909.80
473.49	14190.67
473.67	14249.18
473.85	14122.79
474.03	14413.02
474.21	14614.30
474.39	14569.83
474.57	14508.98
474.75	14979.43
474.93	14953.68
475.12	14906.87
475.30	15218.16
475.48	14988.79
475.66	15222.84
475.84	15019.22
476.02	15332.85
476.20	15562.22
476.38	15672.23
476.56	15840.75
476.74	15815.00
476.92	15829.04
477.10	15786.91
477.28	16018.63
477.46	15964.79
477.64	16208.21
477.82	16250.34
478.00	16758.24
478.18	16463.33
478.36	16673.98
478.54	17156.13
478.72	16849.52
478.90	17214.64
479.08	17521.25
479.26	17858.29
479.44	17710.83
479.62	17841.90
479.80	17905.10
479.98	18015.10
480.16	18579.17
480.34	18291.29
480.52	18457.46
480.70	18431.72
480.88	18209.37
481.06	18684.50
481.24	18735.99
481.41	18984.09
481.59	19545.81
481.77	19232.18
481.95	19157.28
482.13	19878.17
482.31	19503.68
482.49	20250.32
482.67	20166.06
482.85	20264.36
483.03	20549.90
483.21	20720.76
483.39	20496.07
483.57	20720.76
483.74	20751.19
483.92	21521.23
484.10	21219.30
484.28	21813.79
484.46	21799.75
484.64	22225.73
484.82	21750.60
485.00	22251.47
485.18	22466.80
485.35	22480.85
485.53	22640.00
485.71	22991.08
485.89	23672.18
486.07	23119.81
486.25	23285.99
486.43	23601.96
486.61	23583.24
486.78	23852.40
486.96	23997.51
487.14	24767.55
487.32	24697.33
487.50	24830.74
487.68	24940.75
487.85	24882.24
488.03	25523.54
488.21	25530.56
488.39	25694.40
488.57	26012.71
488.75	26082.93
488.92	26221.02
489.10	26717.22
489.28	26529.97
489.46	26871.69
489.64	26738.28
489.81	27662.79
489.99	27615.98
490.17	27658.11
490.35	27826.63
490.53	28048.98
490.70	28549.85
490.88	27971.74
491.06	28720.71
491.24	28601.35
491.41	28950.09
491.59	29071.79
491.77	29350.32
491.95	29607.78
492.13	29687.36
492.30	29968.22
492.48	30045.46
492.66	29764.59
492.84	30391.86
493.01	30555.69
493.19	30323.98
493.37	30862.30
493.54	30843.58
493.72	31412.33
493.90	31391.26
494.08	31667.45
494.25	31796.18
494.43	31653.40
494.61	32524.08
494.79	32622.39
494.96	32271.31
495.14	32514.72
495.32	32952.40
495.49	33214.54
495.67	32809.63
495.85	33289.44
496.02	33502.43
496.20	34054.79
496.38	34274.80
496.55	33942.45
496.73	34553.33
496.91	34260.76
497.09	35044.84
497.26	34703.12
497.44	35065.91
497.62	35138.46
497.79	35676.79
497.97	35189.95
498.14	35683.81
498.32	35803.17
498.50	36294.69
498.67	36208.09
498.85	36378.95
499.03	36407.03
499.20	36879.82
499.38	36451.50
499.56	36966.42
499.73	36570.87
499.91	36982.80
500.08	37322.18
500.26	36992.17
500.44	37366.65
500.61	37549.21
500.79	37715.39
500.97	37851.14
501.14	38330.95
501.32	38122.65
501.49	38682.03
501.67	38253.72
501.84	39084.61
502.02	38773.31
502.20	38995.67
502.37	38787.36
502.55	38888.00
502.72	39576.12
502.90	39746.98
503.07	39166.52
503.25	39288.23
503.43	39522.29
503.60	40175.30
503.78	40004.44
503.95	39772.72
504.13	40336.79
504.30	39966.99
504.48	40184.66
504.65	40739.36
504.83	40755.75
505.01	40849.37
505.18	41060.02
505.36	41219.17
505.53	41041.29
505.71	41352.58
505.88	41401.74
506.06	40898.52
506.23	41804.31
506.41	41530.47
506.58	41708.35
506.76	41640.47
506.93	42230.29
507.11	42160.07
507.28	41923.68
507.46	42347.31
507.63	42623.50
507.81	42836.48
507.98	42981.60
508.16	42988.62
508.33	43232.04
508.50	43225.01
508.68	43477.79
508.85	43629.93
509.03	43587.80
509.20	43901.43
509.38	44285.28
509.55	44416.35
509.73	44498.26
509.90	44119.10
510.08	44512.31
510.25	44467.84
510.42	44589.55
510.60	44685.51
510.77	45144.25
510.95	45284.68
511.12	44837.64
511.30	45008.50
511.47	45502.35
511.64	45144.25
511.82	45624.06
511.99	45537.46
512.17	45727.05
512.34	45663.85
512.51	45972.80
512.69	46047.70
512.86	45937.69
513.04	46422.19
513.21	46478.36
513.38	46642.20
513.56	46710.07
513.73	46946.47
513.90	46478.36
514.08	46515.81
514.25	46948.81
514.43	47138.39
514.60	47501.17
514.77	47246.05
514.95	47852.25
515.12	47164.14
515.29	47327.97
515.47	47732.89
515.64	47945.87
515.81	47519.90
515.99	47770.33
516.16	48374.19
516.33	48240.78
516.51	48589.52
516.68	48074.60
516.85	48275.89
517.03	48575.48
517.20	48795.49
517.37	48879.75
517.54	48598.88
517.72	48964.01
517.89	48959.33
518.06	49364.24
518.24	49034.22
518.41	48992.09
518.58	49214.44
518.75	49223.81
518.93	49399.35
519.10	49471.90
519.27	49301.04
519.45	50024.27
519.62	49832.35
519.79	49825.32
519.96	49832.35
520.14	50197.47
520.31	49808.94
520.48	50075.76
520.65	49876.82
520.83	50171.72
521.00	50281.73
521.17	50450.25
521.34	50239.60
521.52	50419.82
521.69	50726.43
521.86	50611.74
522.03	50749.84
522.20	51503.49
522.38	51220.28
522.55	51133.68
522.72	51278.80
522.89	51201.56
523.07	51669.67
523.24	51370.08
523.41	51346.67
523.58	51327.95
523.75	51608.81
523.92	51877.97
524.10	51847.55
524.27	51793.71
524.44	51721.16
524.61	52144.80
524.78	51779.67
524.96	51835.84
525.13	52095.64
525.30	52128.41
525.47	51983.30
525.64	52205.65
525.81	52470.13
525.98	52584.82
526.16	52463.11
526.33	52392.89
526.50	52849.30
526.67	52633.97
526.84	52835.25
527.01	52750.99
527.18	52650.35
527.36	52669.08
527.53	52622.26
527.70	53062.29
527.87	53153.57
528.04	53268.25
528.21	53394.64
528.38	53176.97
528.55	53518.69
528.72	53174.63
528.89	53141.86
529.07	53268.25
529.24	53188.67
529.41	53467.20
529.58	53509.33
529.75	53289.32
529.92	53607.63
530.09	53659.12
530.26	53839.34
530.43	54040.63
530.60	53710.61
530.77	53670.82
530.94	53949.35
531.11	53619.33
531.28	54000.84
531.46	54120.21
531.63	54049.99
531.80	53897.86
531.97	54302.77
532.14	54232.55
532.31	54054.67
532.48	54485.33
532.65	54522.78
532.82	54258.30
532.99	54501.71
533.16	54564.91
533.33	54520.44
533.50	54548.53
533.67	55047.06
533.84	54571.93
534.01	54656.19
534.18	54656.19
534.35	55274.09
534.52	54997.91
534.69	55033.02
534.86	54965.14
535.03	54827.05
535.20	54906.63
535.37	55299.84
535.54	55260.05
535.71	54920.67
535.88	55463.67
536.05	55337.29
536.22	55622.83
536.38	55407.50
536.55	55496.44
536.72	55323.24
536.89	55395.80
537.06	55533.89
537.23	55629.85
537.40	55430.91
537.57	55557.30
537.74	55810.07
537.91	55770.28
538.08	55870.93
538.25	55569.00
538.42	55585.38
538.59	55866.25
538.75	55561.98
538.92	55657.94
539.09	55838.16
539.26	56030.08
539.43	55735.18
539.60	56060.51
539.77	55966.89
539.94	56409.25
540.11	55994.98
540.28	56266.48
540.44	56266.48
540.61	56336.69
540.78	56126.05
540.95	56559.05
541.12	56313.29
541.29	56617.56
541.46	56505.21
541.62	56552.02
541.79	56566.07
541.96	56144.77
542.13	56645.65
542.30	56530.96
542.47	56720.54
542.63	56617.56
542.80	56844.59
542.97	56772.03
543.14	57205.03
543.31	57095.03
543.48	57034.17
543.64	57172.27
543.81	57415.68
543.98	57605.26
544.15	56978.00
544.32	57235.46
544.48	57626.33
544.65	57181.63
544.82	57380.57
544.99	57181.63
545.16	57476.54
545.32	57254.18
545.49	57539.73
545.66	57469.51
545.83	57628.67
546.00	57513.98
546.16	57670.80
546.33	57392.28
546.50	57286.95
546.67	57516.32
546.83	57102.05
547.00	57701.23
547.17	57427.38
547.34	57628.67
547.50	57806.55
547.67	57855.70
547.84	58017.20
548.00	58038.26
548.17	58073.37
548.34	57724.63
548.51	57975.07
548.67	58080.39
548.84	57998.48
549.01	57869.75
549.18	58094.44
549.34	58042.95
549.51	57972.73
549.68	58181.04
549.84	58232.53
550.01	58185.72
550.18	58152.95
550.34	58272.32
550.51	58019.54
550.68	58375.30
550.84	58171.67
551.01	58567.23
551.18	58433.81
551.34	58529.78
551.51	58464.24
551.68	58447.86
551.84	58372.96
552.01	58169.33
552.18	58443.18
552.34	58464.24
552.51	58618.72
552.68	58536.80
552.84	58487.65
553.01	58780.21
553.18	58574.25
553.34	58852.77
553.51	58731.06
553.67	58684.25
553.84	58892.56
554.01	58880.86
554.17	58812.98
554.34	59025.97
554.51	58717.02
554.67	59007.25
554.84	58714.68
555.00	58981.50
555.17	59023.63
555.33	59341.94
555.50	58993.20
555.67	58726.38
555.83	58920.65
556.00	59054.06
556.16	59473.01
556.33	59135.98
556.50	59140.66
556.66	59189.81
556.83	59040.01
556.99	59196.83
557.16	59470.67
557.32	59348.96
557.49	59482.37
557.65	59222.58
557.82	59253.00
557.98	58937.03
558.15	59213.21
558.32	59508.12
558.48	59353.65
558.65	59363.01
558.81	59318.54
558.98	59318.54
559.14	59515.14
559.31	59470.67
559.47	59559.61
559.64	59512.80
559.80	59573.66
559.97	59554.93
560.13	59437.90
560.30	59554.93
560.46	59543.23
560.63	59810.05
560.79	59835.80
560.96	59774.94
561.12	59831.11
561.29	59676.64
561.45	59805.37
561.61	59667.28
561.78	59629.83
561.94	59629.83
562.11	59693.02
562.27	59697.70
562.44	60004.31
562.60	59950.48
562.77	59812.39
562.93	59465.99
563.10	60041.76
563.26	59681.32
563.42	60100.28
563.59	59959.84
563.75	59915.37
563.92	59849.84
564.08	59774.94
564.24	59999.63
564.41	59980.91
564.57	59962.18
564.74	59966.87
564.90	60137.72
565.07	59980.91
565.23	60013.68
565.39	59934.10
565.56	59915.37
565.72	60023.04
565.88	60142.41
566.05	59943.46
566.21	60025.38
566.38	60032.40
566.54	60034.74
566.70	60268.79
566.87	60310.92
567.03	59962.18
567.19	60306.24
567.36	60081.55
567.52	60193.90
567.68	60540.30
567.85	60179.85
568.01	60259.43
568.17	60336.67
568.34	60430.29
568.50	60306.24
568.66	60226.66
568.83	60388.16
568.99	60149.43
569.15	60331.99
569.32	60207.94
569.48	60343.69
569.64	60390.50
569.81	60514.55
569.97	60207.94
570.13	60463.06
570.30	60247.73
570.46	60395.18
570.62	60420.93
570.78	60348.37
570.95	60434.97
571.11	60535.62
571.27	60292.20
571.43	60292.20
571.60	60566.04
571.76	60552.00
571.92	60542.64
572.09	60432.63
572.25	60404.55
572.41	60472.42
572.57	60357.74
572.74	60603.49
572.90	60474.76
573.06	60458.38
573.22	60416.25
573.38	60493.49
573.55	60336.67
573.71	60816.48
573.87	60762.65
574.03	60577.75
574.20	60673.71
574.36	60554.34
574.52	60587.11
574.68	60622.22
574.84	60748.60
575.01	60715.84
575.17	60540.30
575.33	60446.68
575.49	60683.07
575.65	60479.44
575.82	60633.92
575.98	60708.82
576.14	60760.31
576.30	60779.03
576.46	60566.04
576.62	60715.84
576.79	60547.32
576.95	60645.62
577.11	60715.84
577.27	60697.11
577.43	60673.71
577.59	60830.52
577.75	60807.12
577.92	60610.51
578.08	60671.37
578.24	60886.70
578.40	60821.16
578.56	60996.70
578.72	60568.38
578.88	60842.23
579.04	61195.65
579.21	60729.88
579.37	60769.67
579.53	60992.02
579.69	60591.79
579.85	60685.41
580.01	60589.45
580.17	60657.32
580.33	60886.70
580.49	60842.23
580.65	60825.84
580.82	60727.54
580.98	60687.75
581.14	60622.22
581.30	60898.40
581.46	60839.89
581.62	60903.08
581.78	60633.92
581.94	60725.20
582.10	60898.40
582.26	60664.35
582.42	60694.77
582.58	60818.82
582.74	60701.79
582.90	60725.20
583.06	60685.41
583.22	60856.27
583.38	61001.38
583.54	60940.53
583.70	61029.47
583.86	60926.49
584.02	60664.35
584.18	60835.20
584.34	60956.91
584.50	60715.84
584.66	60654.98
584.82	60678.39
584.98	61141.81
585.14	61085.64
585.30	60823.50
585.46	60905.42
585.62	60933.51
585.78	61071.60
585.94	60643.28
586.10	60966.27
586.26	60884.36
586.42	60739.24
586.58	61010.74
586.74	60931.17
586.90	60718.18
587.06	60870.31
587.22	60975.64
587.38	60882.02
587.54	60982.66
587.70	61062.24
587.86	61076.28
588.02	60954.57
588.18	61043.51
588.34	60973.30
588.49	60989.68
