SpectraSuite Data File
++++++++++++++++++++++++++++++++++++
Date: Fri Oct 25 11:33:19 EDT 2013
User: price-jones
Dark Spectrum Present: No
Reference Spectrum Present: No
Number of Sampled Component Spectra: 1
Spectrometers: USB2+H05261
Integration Time (usec): 100000 (USB2+H05261)
Spectra Averaged: 1 (USB2+H05261)
Boxcar Smoothing: 0 (USB2+H05261)
Correct for Electrical Dark: No (USB2+H05261)
Strobe/Lamp Enabled: No (USB2+H05261)
Correct for Detector Non-linearity: No (USB2+H05261)
Correct for Stray Light: No (USB2+H05261)
Number of Pixels in Processed Spectrum: 2048
>>>>>Begin Processed Spectral Data<<<<<
365.73	360.44
365.92	360.44
366.12	360.44
366.32	229.37
366.52	212.99
366.72	166.18
366.91	131.07
367.11	166.18
367.31	208.31
367.51	149.79
367.70	187.24
367.90	189.58
368.10	84.26
368.30	191.92
368.49	117.03
368.69	257.46
368.89	168.52
369.09	191.92
369.28	229.37
369.48	257.46
369.68	245.76
369.87	243.42
370.07	238.73
370.27	287.89
370.47	330.02
370.66	477.47
370.86	489.17
371.06	545.34
371.25	613.22
371.45	491.51
371.65	552.37
371.84	528.96
372.04	603.86
372.24	610.88
372.44	575.77
372.63	603.86
372.83	554.71
373.03	631.94
373.22	653.01
373.42	594.50
373.62	608.54
373.81	631.94
374.01	648.33
374.21	624.92
374.40	690.46
374.60	608.54
374.79	676.41
374.99	657.69
375.19	660.03
375.38	613.22
375.58	650.67
375.78	688.12
375.97	695.14
376.17	718.54
376.37	603.86
376.56	653.01
376.76	643.65
376.95	685.78
377.15	662.37
377.35	650.67
377.54	688.12
377.74	716.20
377.93	737.27
378.13	692.80
378.33	746.63
378.52	688.12
378.72	723.23
378.91	727.91
379.11	786.42
379.31	662.37
379.50	620.24
379.70	685.78
379.89	770.04
380.09	711.52
380.28	772.38
380.48	805.14
380.68	702.16
380.87	690.46
381.07	727.91
381.26	746.63
381.46	805.14
381.65	760.67
381.85	751.31
382.04	777.06
382.24	772.38
382.43	739.61
382.63	732.59
382.83	746.63
383.02	753.65
383.22	730.25
383.41	791.10
383.61	814.51
383.80	873.02
384.00	807.48
384.19	861.32
384.39	777.06
384.58	800.46
384.78	849.61
384.97	898.77
385.17	755.99
385.36	807.48
385.56	823.87
385.75	847.27
385.95	875.36
386.14	830.89
386.34	884.72
386.53	905.79
386.72	812.17
386.92	978.34
387.11	844.93
387.31	912.81
387.50	858.98
387.70	931.53
387.89	905.79
388.09	856.64
388.28	908.13
388.48	917.49
388.67	917.49
388.86	936.21
389.06	889.40
389.25	1006.43
389.45	1015.79
389.64	985.37
389.84	1053.24
390.03	978.34
390.22	938.55
390.42	905.79
390.61	1001.75
390.81	968.98
391.00	1008.77
391.19	1027.50
391.39	978.34
391.58	950.26
391.78	1039.20
391.97	1022.81
392.16	959.62
392.36	1025.15
392.55	959.62
392.75	1097.71
392.94	1064.94
393.13	990.05
393.33	1062.60
393.52	1060.26
393.71	1086.01
393.91	1032.18
394.10	1060.26
394.29	1144.52
394.49	1121.12
394.68	1139.84
394.88	1107.07
395.07	1093.03
395.26	1146.86
395.46	1221.76
395.65	1188.99
395.84	1179.63
396.04	1301.34
396.23	1231.12
396.42	1139.84
396.62	1181.97
396.81	1196.01
397.00	1160.91
397.19	1226.44
397.39	1273.25
397.58	1282.61
397.77	1200.69
397.97	1261.55
398.16	1329.42
398.35	1355.17
398.55	1221.76
398.74	1277.93
398.93	1296.66
399.12	1369.21
399.32	1301.34
399.51	1397.30
399.70	1362.19
399.90	1378.58
400.09	1416.02
400.28	1394.96
400.47	1352.83
400.67	1336.45
400.86	1355.17
401.05	1416.02
401.24	1299.00
401.44	1453.47
401.63	1394.96
401.82	1481.56
402.01	1465.18
402.21	1472.20
402.40	1605.61
402.59	1540.07
402.78	1526.03
402.97	1575.18
403.17	1476.88
403.36	1528.37
403.55	1568.16
403.74	1556.46
403.93	1612.63
404.13	1607.95
404.32	1626.67
404.51	1570.50
404.70	1678.16
404.89	1636.03
405.09	1657.10
405.28	1650.08
405.47	1753.06
405.66	1654.76
405.85	1792.85
406.05	1694.55
406.24	1685.19
406.43	1795.19
406.62	1710.93
406.81	1839.66
407.00	1774.13
407.20	1795.19
407.39	1678.16
407.58	1802.21
407.77	1849.02
407.96	1933.28
408.15	1863.07
408.34	1877.11
408.54	1912.22
408.73	1919.24
408.92	1844.34
409.11	1870.09
409.30	2069.03
409.49	1919.24
409.68	2012.86
409.87	2080.74
410.07	2057.33
410.26	2078.40
410.45	2136.91
410.64	2043.29
410.83	2071.37
411.02	2073.71
411.21	2157.97
411.40	2183.72
411.59	2181.38
411.78	2153.29
411.98	2148.61
412.17	2260.96
412.36	2328.83
412.55	2305.43
412.74	2377.98
412.93	2352.24
413.12	2396.71
413.31	2473.95
413.50	2417.77
413.69	2382.67
413.88	2476.29
414.07	2607.36
414.26	2495.01
414.45	2511.39
414.64	2455.22
414.83	2541.82
415.02	2621.40
415.22	2579.27
415.41	2724.38
415.60	2607.36
415.79	2607.36
415.98	2668.21
416.17	2818.00
416.36	2729.06
416.55	2829.71
416.74	2719.70
416.93	2897.58
417.12	2726.72
417.31	2946.73
417.50	3021.63
417.69	3012.27
417.88	3045.04
418.07	2981.84
418.26	2981.84
418.45	2974.82
418.64	3155.04
418.83	3070.78
419.02	3199.51
419.21	3164.40
419.39	3141.00
419.58	3028.65
419.77	3005.25
419.96	3171.43
420.15	3176.11
420.34	3087.17
420.53	3204.19
420.72	3222.92
420.91	3272.07
421.10	3229.94
421.29	3435.91
421.48	3243.98
421.67	3262.71
421.86	3330.58
422.05	3272.07
422.24	3323.56
422.43	3440.59
422.61	3379.73
422.80	3445.27
422.99	3440.59
423.18	3426.54
423.37	3506.12
423.56	3403.14
423.75	3389.10
423.94	3311.86
424.13	3295.47
424.32	3384.41
424.50	3576.34
424.69	3627.83
424.88	3599.74
425.07	3515.48
425.26	3478.04
425.45	3379.73
425.64	3485.06
425.83	3424.20
426.01	3581.02
426.20	3557.61
426.39	3630.17
426.58	3548.25
426.77	3466.33
426.96	3538.89
427.15	3545.91
427.33	3581.02
427.52	3665.28
427.71	3646.55
427.90	3641.87
428.09	3674.64
428.28	3695.71
428.46	3707.41
428.65	3716.77
428.84	3850.18
429.03	3789.33
429.22	3817.41
429.40	3688.68
429.59	3721.45
429.78	3667.62
429.97	3651.24
430.16	3676.98
430.34	3922.74
430.53	3906.35
430.72	3992.95
430.91	3815.07
431.10	3943.80
431.28	3941.46
431.47	3929.76
431.66	3978.91
431.85	4042.11
432.03	4135.73
432.22	4093.60
432.41	4102.96
432.60	4124.02
432.79	4081.89
432.97	4102.96
433.16	4140.41
433.35	4093.60
433.54	4224.67
433.72	4320.63
433.91	4121.68
434.10	4215.30
434.28	4191.90
434.47	4292.54
434.66	4287.86
434.85	4255.09
435.03	4273.82
435.22	4344.03
435.41	4468.08
435.59	4327.65
435.78	4533.62
435.97	4561.70
436.16	4442.34
436.34	4421.27
436.53	4592.13
436.72	4505.53
436.90	4456.38
437.09	4587.45
437.28	4456.38
437.46	4533.62
437.65	4540.64
437.84	4638.94
438.02	4730.22
438.21	4636.60
438.40	4620.22
438.58	4741.93
438.77	4812.14
438.96	4828.53
439.14	4894.06
439.33	4912.78
439.52	4924.49
439.70	4966.62
439.89	4891.72
440.08	5022.79
440.26	4999.38
440.45	4945.55
440.63	5025.13
440.82	5071.94
441.01	5193.65
441.19	5240.46
441.38	5247.48
441.57	5338.76
441.75	5308.34
441.94	5467.49
442.12	5416.00
442.31	5511.96
442.50	5476.85
442.68	5535.37
442.87	5467.49
443.05	5624.31
443.24	5643.03
443.43	5458.13
443.61	5568.13
443.80	5661.76
443.98	5500.26
444.17	5439.40
444.35	5818.57
444.54	5738.99
444.73	5645.37
444.91	5619.63
445.10	5621.97
445.28	5633.67
445.47	5582.18
445.65	5743.67
445.84	5797.51
446.02	5820.91
446.21	5710.91
446.39	5741.33
446.58	5753.04
446.77	5989.43
446.95	5586.86
447.14	5909.85
447.32	5912.19
447.51	5783.46
447.69	5675.80
447.88	5834.96
448.06	5879.43
448.25	5834.96
448.43	5888.79
448.62	5778.78
448.80	5682.82
448.99	5710.91
449.17	5956.66
449.36	5788.14
449.54	6118.16
449.73	6223.48
449.91	6174.33
450.10	6090.07
450.28	6183.70
450.46	6150.93
450.65	6143.91
450.83	6209.44
451.02	6223.48
451.20	6317.11
451.39	6052.63
451.57	6249.23
451.76	6197.74
451.94	6289.02
452.13	6373.28
452.31	6352.21
452.49	6267.95
452.68	6424.77
452.86	6413.07
453.05	6537.12
453.23	6455.20
453.42	6260.93
453.60	6384.98
453.78	6569.88
453.97	6452.86
454.15	6487.96
454.34	6394.34
454.52	6642.44
454.70	6574.56
454.89	6633.08
455.07	6553.50
455.26	6670.53
455.44	6743.08
455.62	6789.89
455.81	6810.96
455.99	6803.94
456.17	6686.91
456.36	6853.09
456.54	6780.53
456.73	6939.69
456.91	7143.32
457.09	6991.18
457.28	7229.91
457.46	6965.43
457.64	7211.19
457.83	7204.17
458.01	7049.69
458.19	7311.83
458.38	7150.34
458.56	7375.03
458.74	7232.26
458.93	7061.40
459.11	7480.35
459.29	7332.90
459.48	7311.83
459.66	7342.26
459.84	7461.63
460.03	7454.61
460.21	7536.52
460.39	7389.07
460.57	7552.91
460.76	7480.35
460.94	7627.81
461.12	7520.14
461.31	7669.94
461.49	7513.12
461.67	7599.72
461.85	7817.39
462.04	7524.82
462.22	8112.30
462.40	7775.26
462.59	7775.26
462.77	7824.41
462.95	7716.75
463.13	7850.16
463.32	7988.25
463.50	7812.71
463.68	8100.59
463.86	7941.44
464.05	7882.92
464.23	7925.05
464.41	8098.25
464.59	7889.95
464.78	8124.00
464.96	8180.17
465.14	8023.36
465.32	8105.28
465.50	8002.29
465.69	8126.34
465.87	8339.33
466.05	8116.98
466.23	8255.07
466.41	8458.70
466.60	8510.19
466.78	8205.92
466.96	8308.90
467.14	8154.43
467.32	8411.89
467.51	8409.54
467.69	8205.92
467.87	8196.56
468.05	8575.72
468.23	8215.28
468.41	8341.67
468.60	8435.29
468.78	8793.39
468.96	8365.07
469.14	8568.70
469.32	8561.68
469.50	8468.06
469.69	8716.16
469.87	8746.58
470.05	8795.73
470.23	8842.54
470.41	8645.94
470.59	8961.91
470.77	8809.78
470.95	8840.20
471.14	9130.43
471.32	8980.64
471.50	9029.79
471.68	9406.61
471.86	9224.05
472.04	9210.01
472.22	9537.68
472.40	9205.33
472.58	9298.95
472.77	9224.05
472.95	9343.42
473.13	9832.59
473.31	9427.68
473.49	9247.46
473.67	9495.55
473.85	9516.62
474.03	9863.02
474.21	9853.66
474.39	9795.14
474.57	9834.93
474.75	9970.68
474.93	10047.92
475.12	9975.36
475.30	10012.81
475.48	10061.96
475.66	10239.84
475.84	10178.99
476.02	10321.76
476.20	10391.98
476.38	10303.04
476.56	10532.41
476.74	10607.31
476.92	10487.94
477.10	10403.68
477.28	10834.34
477.46	10689.23
477.64	10888.17
477.82	10993.50
478.00	11185.42
478.18	11389.05
478.36	11375.00
478.54	11297.77
478.72	11382.03
478.90	11625.44
479.08	11873.54
479.26	11630.12
479.44	11637.14
479.62	11840.77
479.80	11983.54
479.98	12070.14
480.16	12269.09
480.34	12138.02
480.52	12388.46
480.70	12250.36
480.88	12322.92
481.06	12517.18
481.24	12425.90
481.41	12699.75
481.59	12837.84
481.77	12894.01
481.95	12877.63
482.13	13212.32
482.31	13261.48
482.49	13249.77
482.67	13364.46
482.85	13504.89
483.03	13680.43
483.21	13741.29
483.39	13944.91
483.57	13942.57
483.74	14029.17
483.92	14256.20
484.10	14094.71
484.28	14794.53
484.46	14473.87
484.64	14677.50
484.82	14658.78
485.00	14885.81
485.18	15232.21
485.35	15466.26
485.53	15049.64
485.71	15389.02
485.89	15548.18
486.07	15674.57
486.25	15445.20
486.43	15559.88
486.61	16187.14
486.78	15960.11
486.96	16154.38
487.14	16152.04
487.32	16381.41
487.50	16575.67
487.68	16578.01
487.85	16816.75
488.03	16924.41
488.21	17125.70
488.39	17029.74
488.57	17216.98
488.75	17404.22
488.92	17649.98
489.10	17680.41
489.28	17638.28
489.46	17855.95
489.64	17621.89
489.81	18284.26
489.99	18448.10
490.17	18314.69
490.35	18614.28
490.53	18356.82
490.70	19009.83
490.88	19026.21
491.06	19000.47
491.24	19192.39
491.41	19278.99
491.59	19580.92
491.77	19431.13
491.95	19337.51
492.13	19704.97
492.30	19775.19
492.48	19740.08
492.66	20243.29
492.84	20255.00
493.01	20535.86
493.19	20376.70
493.37	20798.00
493.54	20615.44
493.72	20730.12
493.90	21050.78
494.08	21053.12
494.25	21015.67
494.43	21617.19
494.61	21612.51
494.79	21656.98
494.96	21549.31
495.14	21860.60
495.32	22099.34
495.49	21912.10
495.67	22277.22
495.85	22263.18
496.02	22382.54
496.20	22279.56
496.38	22721.92
496.55	22757.03
496.73	23318.76
496.91	23042.57
497.09	23147.90
497.26	23274.29
497.44	23225.14
497.62	23103.43
497.79	23714.31
497.97	23484.94
498.14	23550.47
498.32	23814.95
498.50	23721.33
498.67	24364.98
498.85	24123.90
499.03	24243.27
499.20	23983.47
499.38	24727.76
499.56	24751.17
499.73	24978.20
499.91	24947.77
500.08	25069.48
500.26	24915.00
500.44	24805.00
500.61	24996.92
500.79	25090.54
500.97	25172.46
501.14	25259.06
501.32	25891.01
501.49	25762.28
501.67	25575.03
501.84	25968.24
502.02	25731.85
502.20	25748.23
502.37	26122.72
502.55	25888.67
502.72	26223.36
502.90	26235.06
503.07	25944.84
503.25	26562.74
503.43	26118.04
503.60	26721.90
503.78	26398.90
503.95	26789.77
504.13	26745.30
504.30	27054.25
504.48	26714.87
504.65	27040.21
504.83	27248.52
505.01	27555.13
505.18	27283.62
505.36	27962.38
505.53	27372.57
505.71	27655.77
505.88	27789.18
506.06	27728.33
506.23	28070.04
506.41	27498.95
506.58	27866.42
506.76	27922.59
506.93	28521.77
507.11	28589.64
507.28	28224.52
507.46	28533.47
507.63	28470.28
507.81	28781.57
507.98	28472.62
508.16	28648.16
508.33	28683.27
508.50	29479.05
508.68	29013.28
508.85	29378.40
509.03	28844.76
509.20	29509.47
509.38	29663.95
509.55	29511.81
509.73	29439.26
509.90	29504.79
510.08	29670.97
510.25	29340.96
510.42	29806.72
510.60	30087.59
510.77	30141.42
510.95	30754.64
511.12	30319.30
511.30	30237.38
511.47	30567.40
511.64	30551.01
511.82	30714.85
511.99	30485.48
512.17	30820.17
512.34	30717.19
512.51	30974.65
512.69	31442.76
512.86	30965.29
513.04	31386.58
513.21	31005.08
513.38	31796.18
513.56	31725.96
513.73	31384.24
513.90	31711.92
514.08	31405.31
514.25	31803.20
514.43	31796.18
514.60	32151.94
514.77	32175.34
514.95	32194.07
515.12	32116.83
515.29	31791.50
515.47	32706.65
515.64	32411.74
515.81	31981.08
515.99	32011.51
516.16	32659.84
516.33	32793.25
516.51	32561.53
516.68	32795.59
516.85	32774.52
517.03	32856.44
517.20	33153.69
517.37	33228.59
517.54	33120.92
517.72	32826.01
517.89	33322.21
518.06	33422.85
518.24	33888.62
518.41	33247.31
518.58	33462.64
518.75	33415.83
518.93	33771.59
519.10	33408.81
519.27	33979.90
519.45	34099.26
519.62	34162.46
519.79	34075.86
519.96	33975.22
520.14	34047.77
520.31	33832.44
520.48	34642.27
520.65	34520.56
520.83	34761.64
521.00	34742.91
521.17	34653.97
521.34	34763.98
521.52	34740.57
521.69	34518.22
521.86	35274.21
522.03	35585.50
522.20	35194.64
522.38	35421.67
522.55	35262.51
522.72	35005.05
522.89	35555.08
523.07	36208.09
523.24	35445.07
523.41	35983.40
523.58	35449.75
523.75	36006.80
523.92	35484.86
524.10	36247.88
524.27	36142.55
524.44	36446.82
524.61	36196.38
524.78	35477.84
524.96	36322.77
525.13	36292.35
525.30	36524.06
525.47	36797.90
525.64	36203.41
525.81	36917.27
525.98	36554.49
526.16	36566.19
526.33	36673.85
526.50	37282.39
526.67	36673.85
526.84	36746.41
527.01	36629.38
527.18	36610.66
527.36	37235.58
527.53	37481.34
527.70	37366.65
527.87	37469.64
528.04	37514.11
528.21	37574.96
528.38	37467.30
528.55	37324.52
528.72	37710.71
528.89	37626.45
529.07	37324.52
529.24	37591.34
529.41	37722.41
529.58	37933.06
529.75	37954.13
529.92	37813.70
530.09	37837.10
530.26	38003.28
530.43	38410.53
530.60	37858.17
530.77	38043.07
530.94	38520.54
531.11	37965.83
531.28	38052.43
531.46	38337.98
531.63	38440.96
531.80	38635.22
531.97	38637.56
532.14	38621.18
532.31	38539.26
532.48	38866.94
532.65	39023.75
532.82	38815.44
532.99	38747.57
533.16	38871.62
533.33	39400.58
533.50	39379.51
533.67	39131.42
533.84	38880.98
534.01	39384.19
534.18	39452.07
534.35	39531.65
534.52	39791.45
534.69	39744.64
534.86	39838.26
535.03	39754.00
535.20	39391.22
535.37	39929.54
535.54	39908.47
535.71	39552.71
535.88	40025.50
536.05	39791.45
536.22	39784.43
536.38	39985.71
536.55	40126.14
536.72	40383.60
536.89	39842.94
537.06	39901.45
537.23	40364.88
537.40	39999.76
537.57	40172.96
537.74	40364.88
537.91	40297.00
538.08	40105.08
538.25	40540.42
538.42	40582.55
538.59	40741.71
538.75	40631.70
538.92	40828.30
539.09	40931.29
539.26	40982.78
539.43	41099.81
539.60	41069.38
539.77	40711.28
539.94	40858.73
540.11	41242.58
540.28	40987.46
540.44	41401.74
540.61	40837.67
540.78	41338.54
540.95	41226.20
541.12	40973.42
541.29	41198.11
541.46	41574.94
541.62	41874.52
541.79	41926.02
541.96	41675.58
542.13	41254.28
542.30	41816.01
542.47	41827.71
542.63	41397.06
542.80	41897.93
542.97	42305.18
543.14	41890.91
543.31	42146.03
543.48	42164.75
543.64	42155.39
543.81	42403.49
543.98	42476.04
544.15	42557.96
544.32	42335.61
544.48	42904.36
544.65	42408.17
544.82	42567.32
544.99	42508.81
545.16	42520.51
545.32	42742.86
545.49	42607.11
545.66	43409.92
545.83	42979.26
546.00	42967.55
546.16	43058.84
546.33	42850.53
546.50	42621.16
546.67	43000.32
546.83	42150.71
547.00	43189.91
547.17	43358.42
547.34	42859.89
547.50	43533.96
547.67	43323.32
547.84	43147.78
548.00	43632.27
548.17	43861.64
548.34	43356.08
548.51	43756.32
548.67	43648.65
548.84	43515.24
549.01	43650.99
549.18	43871.00
549.34	43686.10
549.51	44004.41
549.68	44299.32
549.84	43824.19
550.01	44130.80
550.18	43709.50
550.34	44032.50
550.51	43817.17
550.68	43721.21
550.84	43885.04
551.01	44573.16
551.18	44196.34
551.34	44062.93
551.51	44252.51
551.68	44313.36
551.84	44128.46
552.01	44088.67
552.18	44252.51
552.34	44250.17
552.51	44755.72
552.68	44170.59
552.84	44341.45
553.01	44458.48
553.18	44245.49
553.34	44690.19
553.51	44500.61
553.67	44521.67
553.84	45144.25
554.01	44762.75
554.17	44535.71
554.34	44594.23
554.51	45024.89
554.67	45277.66
554.84	44699.55
555.00	44774.45
555.17	45099.78
555.33	45261.28
555.50	45102.12
555.67	45074.04
555.83	44870.41
556.00	45127.87
556.16	45710.66
556.33	45851.09
556.50	45659.17
556.66	45099.78
556.83	45034.25
556.99	45624.06
557.16	45542.14
557.32	45603.00
557.49	45556.19
557.65	45523.42
557.82	45914.29
557.98	45467.25
558.15	45673.21
558.32	46129.62
558.48	45277.66
558.65	45595.98
558.81	45890.88
558.98	45291.71
559.14	45923.65
559.31	45614.70
559.47	45467.25
559.64	45965.78
559.80	45855.78
559.97	45933.01
560.13	45406.39
560.30	45663.85
560.46	45837.05
560.63	46050.04
560.79	46312.18
560.96	46038.34
561.12	45996.21
561.29	45815.99
561.45	46148.34
561.61	45958.76
561.78	46377.72
561.94	45752.79
562.11	46143.66
562.27	46277.07
562.44	45808.96
562.60	46141.32
562.77	46288.77
562.93	46078.13
563.10	46525.17
563.26	46085.15
563.42	46211.54
563.59	46075.79
563.75	45773.86
563.92	46501.76
564.08	46403.46
564.24	46541.55
564.41	46590.70
564.57	46431.55
564.74	46127.28
564.90	45851.09
565.07	46110.89
565.23	46803.69
565.39	46515.81
565.56	46784.97
565.72	46438.57
565.88	46501.76
566.05	46370.69
566.21	46527.51
566.38	46946.47
566.54	46464.32
566.70	47091.58
566.87	46810.71
567.03	46597.73
567.19	46794.33
567.36	46707.73
567.52	46674.96
567.68	47313.93
567.85	46859.87
568.01	46827.10
568.17	46628.15
568.34	46787.31
568.50	46972.21
568.66	46693.69
568.83	46656.24
568.99	46656.24
569.15	46693.69
569.32	46485.38
569.48	46934.76
569.64	47295.21
569.81	47194.56
569.97	47243.71
570.13	46981.57
570.30	46735.82
570.46	46789.65
570.62	47367.76
570.78	47058.81
570.95	46864.55
571.11	47597.13
571.27	46768.58
571.43	46616.45
571.60	47143.07
571.76	46887.95
571.92	46871.57
572.09	47297.55
572.25	46838.80
572.41	46873.91
572.57	47330.31
572.74	47578.41
572.90	47089.24
573.06	47255.42
573.22	47276.48
573.38	47414.57
573.55	47267.12
573.71	47725.86
573.87	47306.91
574.03	47206.26
574.20	47412.23
574.36	47349.04
574.52	47470.75
574.68	47562.03
574.84	47728.20
575.01	47515.22
575.17	47606.50
575.33	47215.63
575.49	47243.71
575.65	47566.71
575.82	47732.89
575.98	46934.76
576.14	47749.27
576.30	47882.68
576.46	47557.35
576.62	46993.28
576.79	47210.95
576.95	47407.55
577.11	47063.49
577.27	47419.25
577.43	47377.12
577.59	47356.06
577.75	46873.91
577.92	47112.64
578.08	47077.54
578.24	47351.38
578.40	47718.84
578.56	47496.49
578.72	47299.89
578.88	47868.64
579.04	47821.83
579.21	47377.12
579.37	47887.36
579.53	47908.43
579.69	47688.42
579.85	47777.36
580.01	47725.86
580.17	47707.14
580.33	47487.13
580.49	47597.13
580.65	48105.03
580.82	47714.16
580.98	47496.49
581.14	47110.30
581.30	47695.44
581.46	47299.89
581.62	47620.54
581.78	47318.61
581.94	47489.47
582.10	47250.74
582.26	47594.79
582.42	47800.76
582.58	47749.27
582.74	47964.60
582.90	47533.94
583.06	47945.87
583.22	47643.94
583.38	47709.48
583.54	47880.34
583.70	47777.36
583.86	47817.14
584.02	47566.71
584.18	48158.86
584.34	47681.39
584.50	48060.56
584.66	48472.49
584.82	48058.22
584.98	47978.64
585.14	47901.40
585.30	47559.69
585.46	48051.20
585.62	47519.90
585.78	47929.49
585.94	47409.89
586.10	47449.68
586.26	47538.62
586.42	47763.31
586.58	47707.14
586.74	47896.72
586.90	47728.20
587.06	47936.51
587.22	47744.59
587.38	47634.58
587.54	48205.67
587.70	47728.20
587.86	47735.23
588.02	47899.06
588.18	47882.68
588.34	47943.53
588.49	47393.51
588.65	47796.08
588.81	47931.83
588.97	48413.98
589.13	47803.10
589.29	47681.39
589.45	48205.67
589.61	48231.42
589.77	48519.31
589.93	48177.59
