SpectraSuite Data File
++++++++++++++++++++++++++++++++++++
Date: Fri Oct 25 11:34:24 EDT 2013
User: price-jones
Dark Spectrum Present: No
Reference Spectrum Present: No
Number of Sampled Component Spectra: 1
Spectrometers: USB2+H05261
Integration Time (usec): 100000 (USB2+H05261)
Spectra Averaged: 1 (USB2+H05261)
Boxcar Smoothing: 0 (USB2+H05261)
Correct for Electrical Dark: No (USB2+H05261)
Strobe/Lamp Enabled: No (USB2+H05261)
Correct for Detector Non-linearity: No (USB2+H05261)
Correct for Stray Light: No (USB2+H05261)
Number of Pixels in Processed Spectrum: 2048
>>>>>Begin Processed Spectral Data<<<<<
365.73	285.55
365.92	285.55
366.12	285.55
366.32	194.26
366.52	149.79
366.72	234.05
366.91	114.69
367.11	149.79
367.31	196.60
367.51	124.05
367.70	152.13
367.90	222.35
368.10	161.50
368.30	170.86
368.49	191.92
368.69	175.54
368.89	234.05
369.09	182.56
369.28	269.16
369.48	182.56
369.68	145.11
369.87	175.54
370.07	292.57
370.27	301.93
370.47	306.61
370.66	486.83
370.86	404.91
371.06	514.92
371.25	477.47
371.45	512.58
371.65	521.94
371.84	545.34
372.04	585.13
372.24	601.52
372.44	641.31
372.63	585.13
372.83	648.33
373.03	606.20
373.22	634.29
373.42	589.82
373.62	596.84
373.81	617.90
374.01	608.54
374.21	592.16
374.40	557.05
374.60	657.69
374.79	697.48
374.99	624.92
375.19	664.71
375.38	706.84
375.58	610.88
375.78	667.05
375.97	716.20
376.17	711.52
376.37	739.61
376.56	645.99
376.76	737.27
376.95	650.67
377.15	631.94
377.35	674.07
377.54	641.31
377.74	622.58
377.93	697.48
378.13	624.92
378.33	648.33
378.52	676.41
378.72	692.80
378.91	671.73
379.11	690.46
379.31	685.78
379.50	709.18
379.70	812.17
379.89	784.08
380.09	683.44
380.28	685.78
380.48	723.23
380.68	664.71
380.87	751.31
381.07	709.18
381.26	746.63
381.46	760.67
381.65	683.44
381.85	746.63
382.04	657.69
382.24	765.36
382.43	758.33
382.63	812.17
382.83	781.74
383.02	814.51
383.22	723.23
383.41	819.19
383.61	767.70
383.80	835.57
384.00	821.53
384.19	758.33
384.39	777.06
384.58	763.01
384.78	856.64
384.97	725.57
385.17	866.00
385.36	784.08
385.56	758.33
385.75	765.36
385.95	844.93
386.14	847.27
386.34	866.00
386.53	882.38
386.72	816.85
386.92	912.81
387.11	952.60
387.31	880.04
387.50	793.44
387.70	833.23
387.89	903.45
388.09	891.74
388.28	821.53
388.48	863.66
388.67	929.19
388.86	938.55
389.06	912.81
389.25	978.34
389.45	926.85
389.64	837.91
389.84	961.96
390.03	915.15
390.22	994.73
390.42	905.79
390.61	966.64
390.81	1015.79
391.00	961.96
391.19	1008.77
391.39	1053.24
391.58	985.37
391.78	997.07
391.97	1041.54
392.16	957.28
392.36	978.34
392.55	919.83
392.75	990.05
392.94	992.39
393.13	1076.65
393.33	940.90
393.52	1006.43
393.71	1139.84
393.91	987.71
394.10	1074.31
394.29	1121.12
394.49	1053.24
394.68	1100.05
394.88	1114.10
395.07	1118.78
395.26	1069.62
395.46	1139.84
395.65	1104.73
395.84	1149.20
396.04	1242.82
396.23	1186.65
396.42	1097.71
396.62	1186.65
396.81	1158.57
397.00	1214.74
397.19	1191.33
397.39	1184.31
397.58	1259.21
397.77	1226.44
397.97	1196.01
398.16	1219.42
398.35	1289.64
398.55	1191.33
398.74	1268.57
398.93	1266.23
399.12	1315.38
399.32	1331.76
399.51	1214.74
399.70	1306.02
399.90	1362.19
400.09	1320.06
400.28	1329.42
400.47	1371.55
400.67	1362.19
400.86	1322.40
401.05	1315.38
401.24	1392.62
401.44	1495.60
401.63	1441.77
401.82	1366.87
402.01	1343.47
402.21	1369.21
402.40	1406.66
402.59	1432.41
402.78	1479.22
402.97	1425.39
403.17	1509.65
403.36	1516.67
403.55	1432.41
403.74	1565.82
403.93	1526.03
404.13	1570.50
404.32	1500.28
404.51	1558.80
404.70	1673.48
404.89	1570.50
405.09	1661.78
405.28	1696.89
405.47	1596.25
405.66	1654.76
405.85	1603.27
406.05	1685.19
406.24	1682.85
406.43	1523.69
406.62	1781.15
406.81	1757.74
407.00	1729.66
407.20	1661.78
407.39	1657.10
407.58	1715.61
407.77	1783.49
407.96	1813.92
408.15	1895.83
408.34	1806.89
408.54	1926.26
408.73	1926.26
408.92	1870.09
409.11	1860.73
409.30	2022.22
409.49	1926.26
409.68	1860.73
409.87	1921.58
410.07	1942.64
410.26	1975.41
410.45	1977.75
410.64	1987.11
410.83	2090.10
411.02	2183.72
411.21	2111.16
411.40	2064.35
411.59	2139.25
411.78	2047.97
411.98	2125.21
412.17	2141.59
412.36	2312.45
412.55	2207.13
412.74	2249.25
412.93	2342.88
413.12	2197.76
413.31	2366.28
413.50	2275.00
413.69	2179.04
413.88	2286.70
414.07	2392.03
414.26	2502.03
414.45	2450.54
414.64	2579.27
414.83	2408.41
415.02	2562.89
415.22	2593.31
415.41	2569.91
415.60	2509.05
415.79	2614.38
415.98	2593.31
416.17	2600.34
416.36	2532.46
416.55	2640.12
416.74	2731.41
416.93	2663.53
417.12	2745.45
417.31	2771.19
417.50	2743.11
417.69	2874.18
417.88	2902.26
418.07	2829.71
418.26	2780.56
418.45	2878.86
418.64	2993.55
418.83	2857.79
419.02	2916.31
419.21	3035.67
419.39	3009.93
419.58	2939.71
419.77	3133.98
419.96	3002.91
420.15	3021.63
420.34	3098.87
420.53	3052.06
420.72	3129.30
420.91	3155.04
421.10	3262.71
421.29	3227.60
421.48	3122.27
421.67	3192.49
421.86	3150.36
422.05	3185.47
422.24	3112.91
422.43	3220.58
422.61	3187.81
422.80	3295.47
422.99	3199.51
423.18	3234.62
423.37	3276.75
423.56	3138.66
423.75	3311.86
423.94	3225.26
424.13	3061.42
424.32	3178.45
424.50	3314.20
424.69	3332.92
424.88	3424.20
425.07	3279.09
425.26	3213.56
425.45	3452.29
425.64	3173.77
425.83	3316.54
426.01	3400.80
426.20	3435.91
426.39	3246.32
426.58	3375.05
426.77	3452.29
426.96	3466.33
427.15	3426.54
427.33	3433.57
427.52	3499.10
427.71	3459.31
427.90	3407.82
428.09	3513.14
428.28	3602.08
428.46	3620.81
428.65	3552.93
428.84	3686.34
429.03	3691.02
429.22	3538.89
429.40	3606.77
429.59	3639.53
429.78	3471.01
429.97	3503.78
430.16	3545.91
430.34	3705.07
430.53	3719.11
430.72	3761.24
430.91	3655.92
431.10	3595.06
431.28	3791.67
431.47	3829.12
431.66	3810.39
431.85	3805.71
432.03	3850.18
432.22	3920.40
432.41	3836.14
432.60	3833.80
432.79	4067.85
432.97	4032.74
433.16	3894.65
433.35	3971.89
433.54	3955.51
433.72	4093.60
433.91	4077.21
434.10	4147.43
434.28	4191.90
434.47	4063.17
434.66	4231.69
434.85	4095.94
435.03	4257.43
435.22	4035.08
435.41	4287.86
435.59	4145.09
435.78	4210.62
435.97	4131.05
436.16	4124.02
436.34	4252.75
436.53	4393.19
436.72	4554.68
436.90	4184.88
437.09	4362.76
437.28	4498.51
437.46	4222.33
437.65	4409.57
437.84	4447.02
438.02	4397.87
438.21	4514.89
438.40	4320.63
438.58	4550.00
438.77	4664.69
438.96	4524.26
439.14	4526.60
439.33	4706.82
439.52	4765.33
439.70	4732.56
439.89	4716.18
440.08	4905.76
440.26	4919.81
440.45	4917.47
440.63	4957.25
440.82	4992.36
441.01	4908.10
441.19	5018.11
441.38	5046.20
441.57	5027.47
441.75	5114.07
441.94	5282.59
442.12	5107.05
442.31	5226.42
442.50	5303.65
442.68	5123.43
442.87	5252.16
443.05	5331.74
443.24	5343.44
443.43	5263.86
443.61	5338.76
443.80	5481.53
443.98	5125.77
444.17	5081.30
444.35	5369.19
444.54	5380.89
444.73	5511.96
444.91	5458.13
445.10	5420.68
445.28	5401.96
445.47	5514.30
445.65	5565.79
445.84	5582.18
446.02	5680.48
446.21	5614.95
446.39	5411.32
446.58	5743.67
446.77	5582.18
446.95	5369.19
447.14	5542.39
447.32	5526.00
447.51	5481.53
447.69	5448.77
447.88	5579.84
448.06	5516.64
448.25	5664.10
448.43	5600.90
448.62	5582.18
448.80	5570.48
448.99	5591.54
449.17	5373.87
449.36	5563.45
449.54	5895.81
449.73	5867.72
449.91	6010.50
450.10	5839.64
450.28	5987.09
450.46	5863.04
450.65	6085.39
450.83	5839.64
451.02	5921.56
451.20	6024.54
451.39	5933.26
451.57	5916.87
451.76	6015.18
451.94	5996.45
452.13	5902.83
452.31	6176.67
452.49	6040.92
452.68	6190.72
452.86	6108.80
453.05	6134.54
453.23	6242.21
453.42	6069.01
453.60	6113.48
453.78	6164.97
453.97	5987.09
454.15	6150.93
454.34	6176.67
454.52	6132.20
454.70	6368.60
454.89	6120.50
455.07	6328.81
455.26	6450.52
455.44	6619.04
455.62	6356.90
455.81	6441.15
455.99	6410.73
456.17	6492.65
456.36	6452.86
456.54	6607.33
456.73	6651.80
456.91	6647.12
457.09	6644.78
457.28	6855.43
457.46	6726.70
457.64	6841.39
457.83	6780.53
458.01	6754.79
458.19	6923.30
458.38	6871.81
458.56	7169.06
458.74	7019.27
458.93	6853.09
459.11	6918.62
459.29	6876.49
459.48	6979.48
459.66	6923.30
459.84	7101.19
460.03	7215.87
460.21	7164.38
460.39	7082.46
460.57	7204.17
460.76	7307.15
460.94	7129.27
461.12	7290.77
461.31	7201.83
461.49	7321.20
461.67	7140.97
461.85	7330.56
462.04	7300.13
462.22	7971.86
462.40	7508.44
462.59	7522.48
462.77	7379.71
462.95	7396.09
463.13	7571.63
463.32	7515.46
463.50	7375.03
463.68	7482.69
463.86	7679.30
464.05	7346.94
464.23	7475.67
464.41	7623.12
464.59	7541.21
464.78	7875.90
464.96	7733.13
465.14	7478.01
465.32	7793.98
465.50	7765.90
465.69	7777.60
465.87	7763.56
466.05	7765.90
466.23	7810.37
466.41	7929.74
466.60	8121.66
466.78	7948.46
466.96	7962.50
467.14	8002.29
467.32	7896.97
467.51	8124.00
467.69	8042.08
467.87	7953.14
468.05	8009.31
468.23	7932.08
468.41	7953.14
468.60	8173.15
468.78	8088.89
468.96	8084.21
469.14	8074.85
469.32	8306.56
469.50	8173.15
469.69	8229.32
469.87	8458.70
470.05	8470.40
470.23	8353.37
470.41	8418.91
470.59	8716.16
470.77	8418.91
470.95	8566.36
471.14	8720.84
471.32	8610.83
471.50	8823.82
471.68	8571.04
471.86	8702.11
472.04	8659.98
472.22	8950.21
472.40	8840.20
472.58	8889.35
472.77	8875.31
472.95	8922.12
473.13	9280.22
473.31	8933.82
473.49	9081.28
473.67	9163.20
473.85	9327.03
474.03	9460.45
474.21	9341.08
474.39	9598.54
474.57	9439.38
474.75	9561.09
474.93	9640.67
475.12	9394.91
475.30	9404.27
475.48	9504.92
475.66	9687.48
475.84	9619.60
476.02	9682.80
476.20	9753.01
476.38	9790.46
476.56	10171.97
476.74	10113.45
476.92	10071.33
477.10	10040.90
477.28	10059.62
477.46	10326.44
477.64	10403.68
477.82	10270.27
478.00	10834.34
478.18	10525.39
478.36	10778.17
478.54	10939.66
478.72	10881.15
478.90	10930.30
479.08	11325.85
479.26	11164.36
479.44	11192.44
479.62	11417.13
479.80	11358.62
479.98	11414.79
480.16	11744.81
480.34	11433.52
480.52	11885.24
480.70	11700.34
480.88	11646.51
481.06	11796.30
481.24	12100.57
481.41	11969.50
481.59	12205.89
481.77	12372.07
481.95	12491.44
482.13	12540.59
482.31	12264.41
482.49	12830.82
482.67	12952.52
482.85	12891.67
483.03	12884.65
483.21	13099.98
483.39	13160.83
483.57	13233.39
483.74	13474.46
483.92	13542.34
484.10	13518.93
484.28	13816.18
484.46	13827.88
484.64	13907.46
484.82	13898.10
485.00	14188.33
485.18	13996.40
485.35	14375.57
485.53	14366.21
485.71	14342.80
485.89	14890.49
486.07	14878.79
486.25	14740.69
486.43	15159.65
486.61	14953.68
486.78	15169.01
486.96	15012.20
487.14	15140.93
487.32	15499.03
487.50	15569.24
487.68	15697.97
487.85	15719.04
488.03	16374.39
488.21	16229.27
488.39	16531.20
488.57	16365.03
488.75	16292.47
488.92	16505.46
489.10	17076.55
489.28	16737.17
489.46	17139.74
489.64	17228.68
489.81	17352.73
489.99	17380.82
490.17	17455.72
490.35	17778.71
490.53	17752.96
490.70	17635.94
490.88	17891.06
491.06	18036.17
491.24	18302.99
491.41	18471.51
491.59	18352.14
491.77	18569.81
491.95	18668.11
492.13	18792.16
492.30	18504.28
492.48	18768.76
492.66	18808.54
492.84	18934.93
493.01	19269.63
493.19	19248.57
493.37	19768.16
493.54	19197.07
493.72	19630.07
493.90	19616.03
494.08	19768.16
494.25	20313.51
494.43	20020.94
494.61	20390.75
494.79	20556.93
494.96	20161.37
495.14	20479.69
495.32	20812.04
495.49	21062.48
495.67	21128.02
495.85	20713.74
496.02	21060.14
496.20	21308.24
496.38	21511.86
496.55	21420.58
496.73	21865.28
496.91	21811.45
497.09	21785.71
497.26	21919.12
497.44	22190.62
497.62	22270.20
497.79	22054.87
497.97	22202.32
498.14	22670.43
498.32	22604.89
498.50	22408.29
498.67	23023.85
498.85	22834.27
499.03	23257.90
499.20	23152.58
499.38	23187.69
499.56	23278.97
499.73	23384.29
499.91	23463.87
500.08	23632.39
500.26	23868.78
500.44	23508.34
500.61	23941.34
500.79	23817.29
500.97	24051.34
501.14	24149.65
501.32	24137.94
501.49	24191.78
501.67	24102.84
501.84	24704.35
502.02	24535.84
502.20	24409.45
502.37	24797.98
502.55	24608.39
502.72	24776.91
502.90	24933.73
503.07	24694.99
503.25	24886.92
503.43	24954.79
503.60	25188.85
503.78	25497.80
503.95	25266.08
504.13	25832.49
504.30	25582.06
504.48	25366.73
504.65	25731.85
504.83	25944.84
505.01	26036.12
505.18	25914.41
505.36	26167.19
505.53	26026.76
505.71	26314.64
505.88	26260.81
506.06	26054.84
506.23	26579.12
506.41	26548.70
506.58	26618.91
506.76	26733.60
506.93	26885.73
507.11	26848.29
507.28	26595.51
507.46	26691.47
507.63	27428.74
507.81	27442.78
507.98	26677.43
508.16	27136.17
508.33	27129.15
508.50	27173.62
508.68	27379.59
508.85	27789.18
509.03	27391.29
509.20	27683.86
509.38	28297.08
509.55	28254.95
509.73	28140.26
509.90	28013.87
510.08	28676.24
510.25	28217.50
510.42	28306.44
510.60	28554.54
510.77	28776.89
510.95	28807.31
511.12	28685.61
511.30	29064.77
511.47	28493.68
511.64	29165.42
511.82	29345.64
511.99	28982.85
512.17	29432.24
512.34	29228.61
512.51	29249.67
512.69	29493.09
512.86	29612.46
513.04	29359.68
513.21	29654.59
513.38	30113.33
513.56	29846.51
513.73	29738.85
513.90	29607.78
514.08	30204.61
514.25	30068.86
514.43	30373.13
514.60	30242.06
514.77	30239.72
514.95	30497.18
515.12	30417.60
515.29	30286.53
515.47	30642.29
515.64	30754.64
515.81	30508.88
515.99	30937.20
516.16	30979.33
516.33	31276.58
516.51	30925.50
516.68	30993.37
516.85	31197.00
517.03	31634.68
517.20	31611.28
517.37	31299.98
517.54	31615.96
517.72	31232.11
517.89	31372.54
518.06	31330.41
518.24	31606.59
518.41	31812.56
518.58	31889.80
518.75	31850.01
518.93	31793.84
519.10	31744.69
519.27	32378.97
519.45	32151.94
519.62	32322.80
519.79	32327.48
519.96	32109.81
520.14	32643.45
520.31	32205.77
520.48	32598.98
520.65	32538.13
520.83	33296.46
521.00	33345.61
521.17	33067.09
521.34	33336.25
521.52	33071.77
521.69	32973.47
521.86	33195.82
522.03	33586.69
522.20	33724.78
522.38	33493.07
522.55	33280.08
522.72	33137.30
522.89	33710.74
523.07	33638.18
523.24	33926.07
523.41	33771.59
523.58	33677.97
523.75	34230.33
523.92	33830.10
524.10	33902.66
524.27	34305.23
524.44	34195.23
524.61	34122.67
524.78	34227.99
524.96	34574.39
525.13	34597.80
525.30	34890.37
525.47	34679.72
525.64	34689.08
525.81	34829.51
525.98	34368.43
526.16	34604.82
526.33	34855.26
526.50	34918.45
526.67	34560.35
526.84	34885.68
527.01	34857.60
527.18	35349.11
527.36	35391.24
527.53	35335.07
527.70	35299.96
527.87	35620.61
528.04	35395.92
528.21	35660.40
528.38	35473.16
528.55	35398.26
528.72	35922.54
528.89	35796.15
529.07	35384.22
529.24	35807.86
529.41	36070.00
529.58	35545.72
529.75	36175.32
529.92	36308.73
530.09	36182.34
530.26	36147.23
530.43	36226.81
530.60	35786.79
530.77	36201.07
530.94	36615.34
531.11	36034.89
531.28	36772.16
531.46	36627.04
531.63	36835.35
531.80	36156.60
531.97	36512.36
532.14	36554.49
532.31	37095.15
532.48	36952.38
532.65	36704.28
532.82	37036.64
532.99	36959.40
533.16	36760.45
533.33	37343.25
533.50	37427.51
533.67	36802.58
533.84	36802.58
534.01	37474.32
534.18	37088.13
534.35	37383.04
534.52	37521.13
534.69	37745.82
534.86	37778.59
535.03	37507.08
535.20	37926.04
535.37	37593.68
535.54	37825.40
535.71	37565.60
535.88	38279.46
536.05	37940.08
536.22	37977.53
536.38	38239.67
536.55	38078.18
536.72	37919.02
536.89	37872.21
537.06	38204.56
537.23	38644.59
537.40	38134.35
537.57	37937.74
537.74	38354.36
537.91	38373.08
538.08	38375.42
538.25	38490.11
538.42	38859.91
538.59	38944.17
538.75	38447.98
538.92	38974.60
539.09	38988.64
539.26	38913.75
539.43	39203.97
539.60	39159.50
539.77	39030.77
539.94	39267.17
540.11	38974.60
540.28	39159.50
540.44	39037.80
540.61	39274.19
540.78	39405.26
540.95	39168.87
541.12	39250.78
541.29	38859.91
541.46	39358.45
541.62	39409.94
541.79	39793.79
541.96	39168.87
542.13	39295.25
542.30	39477.82
542.47	39849.96
542.63	39779.74
542.80	40006.78
542.97	40030.18
543.14	40212.74
543.31	39920.18
543.48	39906.13
543.64	40641.06
543.81	40390.62
543.98	40245.51
544.15	40442.12
544.32	40416.37
544.48	40769.79
544.65	40357.86
544.82	40627.02
544.99	40332.11
545.16	40620.00
545.32	40641.06
545.49	40938.31
545.66	40992.14
545.83	40772.13
546.00	40868.09
546.16	40861.07
546.33	40879.80
546.50	40727.66
546.67	41034.27
546.83	40971.08
547.00	40730.00
547.17	40966.40
547.34	41020.23
547.50	41357.27
547.67	41214.49
547.84	40996.82
548.00	41378.33
548.17	41563.23
548.34	41490.68
548.51	41343.22
548.67	41338.54
548.84	41944.74
549.01	41560.89
549.18	41432.16
549.34	41523.44
549.51	41846.44
549.68	41598.34
549.84	41404.08
550.01	41830.05
550.18	41963.46
550.34	41677.92
550.51	42092.19
550.68	42029.00
550.84	41794.95
551.01	42146.03
551.18	41968.15
551.34	41841.76
551.51	42272.42
551.68	42087.51
551.84	42026.66
552.01	41989.21
552.18	42153.05
552.34	41830.05
552.51	41858.14
552.68	41958.78
552.84	42466.68
553.01	42225.60
553.18	42249.01
553.34	42422.21
553.51	42256.03
553.67	42752.23
553.84	42618.81
554.01	42553.28
554.17	42602.43
554.34	42899.68
554.51	42794.36
554.67	43325.66
554.84	43098.62
555.00	42504.13
555.17	42653.92
555.33	43007.34
555.50	42946.49
555.67	43456.73
555.83	42824.78
556.00	43112.67
556.16	43669.72
556.33	43344.38
556.50	43370.13
556.66	43035.43
556.83	42944.15
556.99	43543.33
557.16	43328.00
557.32	43335.02
557.49	43150.12
557.65	43107.99
557.82	43346.72
557.98	43608.86
558.15	43501.20
558.32	43826.53
558.48	42934.79
558.65	43309.27
558.81	43456.73
558.98	43346.72
559.14	43552.69
559.31	43316.29
559.47	43332.68
559.64	44023.14
559.80	43320.98
559.97	43992.71
560.13	43449.70
560.30	43812.49
560.46	44287.62
560.63	43744.61
560.79	43906.11
560.96	44353.15
561.12	43931.86
561.29	43723.55
561.45	44041.86
561.61	43803.13
561.78	43955.26
561.94	44023.14
562.11	44128.46
562.27	43566.73
562.44	44016.11
562.60	44091.01
562.77	43945.90
562.93	43819.51
563.10	44514.65
563.26	44378.90
563.42	44601.25
563.59	43840.57
563.75	43981.01
563.92	44098.03
564.08	44257.19
564.24	44083.99
564.41	43988.03
564.57	44540.39
564.74	44378.90
564.90	44304.00
565.07	44479.54
565.23	44154.21
565.39	44615.29
565.56	44622.31
565.72	44697.21
565.88	44561.46
566.05	44699.55
566.21	44626.99
566.38	44521.67
566.54	44687.85
566.70	44737.00
566.87	44718.28
567.03	44662.10
567.19	44739.34
567.36	44327.41
567.52	44243.15
567.68	44945.31
567.85	44711.25
568.01	44933.60
568.17	44437.41
568.34	44655.08
568.50	44767.43
568.66	44381.24
568.83	44858.71
568.99	44725.30
569.15	44610.61
569.32	44240.81
569.48	44804.88
569.64	45172.34
569.81	45043.61
569.97	45247.24
570.13	44713.59
570.30	44519.33
570.46	44830.62
570.62	44823.60
570.78	44648.06
570.95	44989.78
571.11	44814.24
571.27	45036.59
571.43	45001.48
571.60	44900.84
571.76	44788.49
571.92	44800.19
572.09	44961.69
572.25	44854.03
572.41	44514.65
572.57	44961.69
572.74	45289.37
572.90	45052.97
573.06	45109.14
573.22	45610.02
573.38	45153.62
573.55	44751.04
573.71	45263.62
573.87	45338.52
574.03	45301.07
574.20	45041.27
574.36	44903.18
574.52	45083.40
574.68	45179.36
574.84	44830.62
575.01	45544.48
575.17	45275.32
575.33	45219.15
575.49	44910.20
575.65	45610.02
575.82	45579.59
575.98	45209.79
576.14	45504.70
576.30	45603.00
576.46	45132.55
576.62	45132.55
576.79	45645.13
576.95	44835.30
577.11	44603.59
577.27	45282.34
577.43	45123.19
577.59	45258.94
577.75	44854.03
577.92	44680.83
578.08	45354.90
578.24	45305.75
578.40	45628.74
578.56	45361.92
578.72	45523.42
578.88	45535.12
579.04	45202.77
579.21	45333.84
579.37	45205.11
579.53	45621.72
579.69	45090.42
579.85	45055.31
580.01	45462.57
580.17	45532.78
580.33	45710.66
580.49	45368.94
580.65	45216.81
580.82	45408.73
580.98	45411.07
581.14	44905.52
581.30	45666.19
581.46	45251.92
581.62	45359.58
581.78	45090.42
581.94	45830.03
582.10	45361.92
582.26	45628.74
582.42	45701.30
582.58	45394.69
582.74	45645.13
582.90	45160.64
583.06	45755.13
583.22	45516.40
583.38	45979.82
583.54	45333.84
583.70	45338.52
583.86	46028.98
584.02	45331.50
584.18	45654.49
584.34	45481.29
584.50	45839.39
584.66	45581.93
584.82	45558.53
584.98	45993.87
585.14	45846.41
585.30	45701.30
585.46	45773.86
585.62	45455.54
585.78	46012.59
585.94	45378.31
586.10	45645.13
586.26	45083.40
586.42	45127.87
586.58	45631.08
586.74	45834.71
586.90	45879.18
587.06	45415.76
587.22	45806.62
587.38	45811.31
587.54	45876.84
587.70	45649.81
587.86	45607.68
588.02	45808.96
588.18	45724.71
588.34	45827.69
588.49	45666.19
588.65	45907.27
588.81	45457.88
588.97	45806.62
589.13	45509.38
589.29	45666.19
589.45	46199.83
589.61	45886.20
589.77	46164.73
589.93	45698.96
590.08	45902.59
