SpectraSuite Data File
++++++++++++++++++++++++++++++++++++
Date: Fri Oct 25 11:26:31 EDT 2013
User: price-jones
Dark Spectrum Present: No
Reference Spectrum Present: No
Number of Sampled Component Spectra: 1
Spectrometers: USB2+H05261
Integration Time (usec): 100000 (USB2+H05261)
Spectra Averaged: 1 (USB2+H05261)
Boxcar Smoothing: 0 (USB2+H05261)
Correct for Electrical Dark: No (USB2+H05261)
Strobe/Lamp Enabled: No (USB2+H05261)
Correct for Detector Non-linearity: No (USB2+H05261)
Correct for Stray Light: No (USB2+H05261)
Number of Pixels in Processed Spectrum: 2048
>>>>>Begin Processed Spectral Data<<<<<
365.73	229.37
365.92	229.37
366.12	229.37
366.32	215.33
366.52	117.03
366.72	121.71
366.91	138.09
367.11	184.90
367.31	212.99
367.51	86.60
367.70	161.50
367.90	128.73
368.10	124.05
368.30	142.77
368.49	177.88
368.69	198.95
368.89	110.01
369.09	196.60
369.28	194.26
369.48	245.76
369.68	243.42
369.87	184.90
370.07	175.54
370.27	217.67
370.47	301.93
370.66	606.20
370.86	664.71
371.06	706.84
371.25	697.48
371.45	692.80
371.65	688.12
371.84	685.78
372.04	739.61
372.24	807.48
372.44	734.93
372.63	781.74
372.83	798.12
373.03	765.36
373.22	713.86
373.42	840.25
373.62	784.08
373.81	833.23
374.01	788.76
374.21	887.06
374.40	767.70
374.60	868.34
374.79	898.77
374.99	786.42
375.19	866.00
375.38	901.11
375.58	784.08
375.78	866.00
375.97	861.32
376.17	938.55
376.37	938.55
376.56	887.06
376.76	854.30
376.95	922.17
377.15	952.60
377.35	929.19
377.54	884.72
377.74	826.21
377.93	905.79
378.13	887.06
378.33	978.34
378.52	924.51
378.72	919.83
378.91	978.34
379.11	938.55
379.31	905.79
379.50	950.26
379.70	971.32
379.89	1048.56
380.09	940.90
380.28	987.71
380.48	994.73
380.68	990.05
380.87	1006.43
381.07	959.62
381.26	1039.20
381.46	1071.97
381.65	1034.52
381.85	1025.15
382.04	1083.67
382.24	1083.67
382.43	1006.43
382.63	1029.84
382.83	1074.31
383.02	1034.52
383.22	1146.86
383.41	1165.59
383.61	1114.10
383.80	1158.57
384.00	1095.37
384.19	1191.33
384.39	1135.16
384.58	1069.62
384.78	1151.54
384.97	1191.33
385.17	1163.25
385.36	1203.04
385.56	1224.10
385.75	1181.97
385.95	1188.99
386.14	1231.12
386.34	1207.72
386.53	1263.89
386.72	1172.61
386.92	1158.57
387.11	1167.93
387.31	1219.42
387.50	1233.46
387.70	1224.10
387.89	1334.11
388.09	1247.51
388.28	1207.72
388.48	1343.47
388.67	1331.76
388.86	1303.68
389.06	1306.02
389.25	1376.24
389.45	1366.87
389.64	1299.00
389.84	1350.49
390.03	1432.41
390.22	1385.60
390.42	1371.55
390.61	1406.66
390.81	1444.11
391.00	1406.66
391.19	1486.24
391.39	1427.73
391.58	1467.52
391.78	1502.62
391.97	1444.11
392.16	1533.05
392.36	1614.97
392.55	1490.92
392.75	1490.92
392.94	1401.98
393.13	1619.65
393.33	1551.78
393.52	1561.14
393.71	1624.33
393.91	1547.09
394.10	1579.86
394.29	1579.86
394.49	1617.31
394.68	1675.82
394.88	1713.27
395.07	1610.29
395.26	1680.50
395.46	1722.63
395.65	1727.32
395.84	1643.06
396.04	1858.39
396.23	1771.79
396.42	1729.66
396.62	1802.21
396.81	1781.15
397.00	1781.15
397.19	1799.87
397.39	1879.45
397.58	1907.54
397.77	1867.75
397.97	1795.19
398.16	1846.68
398.35	1851.36
398.55	1930.94
398.74	1846.68
398.93	1984.77
399.12	1851.36
399.32	1923.92
399.51	1989.46
399.70	2024.56
399.90	1966.05
400.09	1919.24
400.28	2073.71
400.47	2033.93
400.67	2122.87
400.86	2064.35
401.05	2073.71
401.24	2087.76
401.44	2120.53
401.63	2108.82
401.82	2097.12
402.01	2134.57
402.21	2172.02
402.40	2186.06
402.59	2172.02
402.78	2282.02
402.97	2204.78
403.17	2267.98
403.36	2225.85
403.55	2340.54
403.74	2403.73
403.93	2312.45
404.13	2340.54
404.32	2363.94
404.51	2520.76
404.70	2478.63
404.89	2392.03
405.09	2401.39
405.28	2455.22
405.47	2579.27
405.66	2478.63
405.85	2567.57
406.05	2700.98
406.24	2607.36
406.43	2635.44
406.62	2574.59
406.81	2693.96
407.00	2605.02
407.20	2572.25
407.39	2686.94
407.58	2710.34
407.77	2775.88
407.96	2768.85
408.15	2815.66
408.34	2766.51
408.54	2775.88
408.73	2710.34
408.92	2775.88
409.11	2895.24
409.30	2899.92
409.49	2902.26
409.68	3038.02
409.87	2986.52
410.07	2958.44
410.26	3014.61
410.45	3047.38
410.64	2998.23
410.83	3096.53
411.02	3030.99
411.21	3180.79
411.40	3087.17
411.59	3251.00
411.78	3206.53
411.98	3204.19
412.17	3407.82
412.36	3215.90
412.55	3382.07
412.74	3449.95
412.93	3342.28
413.12	3391.44
413.31	3543.57
413.50	3506.12
413.69	3538.89
413.88	3604.42
414.07	3576.34
414.26	3644.21
414.45	3648.90
414.64	3728.47
414.83	3861.88
415.02	3756.56
415.22	3749.54
415.41	3826.78
415.60	3908.69
415.79	3920.40
415.98	4007.00
416.17	3906.35
416.36	4079.55
416.55	3995.29
416.74	4168.49
416.93	3985.93
417.12	4128.70
417.31	4156.79
417.50	4257.43
417.69	4344.03
417.88	4198.92
418.07	4304.25
418.26	4402.55
418.45	4290.20
418.64	4475.10
418.83	4571.07
419.02	4362.76
419.21	4531.28
419.39	4507.87
419.58	4587.45
419.77	4393.19
419.96	4706.82
420.15	4664.69
420.34	4599.15
420.53	4575.75
420.72	4648.30
420.91	4695.11
421.10	4779.37
421.29	4936.19
421.48	4819.16
421.67	4856.61
421.86	4739.58
422.05	4849.59
422.24	4610.86
422.43	4723.20
422.61	4882.36
422.80	4968.96
422.99	4828.53
423.18	5034.49
423.37	5036.83
423.56	4908.10
423.75	5146.84
423.94	4933.85
424.13	4816.82
424.32	4725.54
424.50	5015.77
424.69	5088.32
424.88	5123.43
425.07	4919.81
425.26	4891.72
425.45	5046.20
425.64	5013.43
425.83	5085.98
426.01	5078.96
426.20	5078.96
426.39	5018.11
426.58	5071.94
426.77	4980.66
426.96	5331.74
427.15	5078.96
427.33	5298.97
427.52	5153.86
427.71	5137.48
427.90	5116.41
428.09	5186.63
428.28	5397.28
428.46	5350.46
428.65	5453.45
428.84	5556.43
429.03	5577.50
429.22	5500.26
429.40	5554.09
429.59	5518.98
429.78	5317.70
429.97	5275.57
430.16	5474.51
430.34	5628.99
430.53	5572.82
430.72	5703.89
430.91	5703.89
431.10	5617.29
431.28	5863.04
431.47	5830.27
431.66	5980.07
431.85	5715.59
432.03	6015.18
432.22	5998.79
432.41	5891.13
432.60	5767.08
432.79	5959.00
432.97	5959.00
433.16	6069.01
433.35	5949.64
433.54	6106.46
433.72	6190.72
433.91	6064.33
434.10	6176.67
434.28	6008.16
434.47	6246.89
434.66	6223.48
434.85	6303.06
435.03	6452.86
435.22	6279.66
435.41	6604.99
435.59	6527.75
435.78	6478.60
435.97	6562.86
436.16	6516.05
436.34	6579.25
436.53	6651.80
436.72	6724.36
436.90	6370.94
437.09	6684.57
437.28	6473.92
437.46	6738.40
437.65	6766.49
437.84	6796.92
438.02	6717.34
438.21	6693.93
438.40	6787.55
438.58	6979.48
438.77	7131.61
438.96	7112.89
439.14	7206.51
439.33	7059.06
439.52	7349.28
439.70	7370.35
439.89	7372.69
440.08	7391.41
440.26	7368.01
440.45	7459.29
440.63	7393.75
440.82	7496.74
441.01	7620.78
441.19	7625.47
441.38	7756.54
441.57	7772.92
441.75	7843.14
441.94	8023.36
442.12	8046.76
442.31	8006.97
442.50	8425.93
442.68	7885.26
442.87	8147.40
443.05	8147.40
443.24	8180.17
443.43	8196.56
443.61	8098.25
443.80	8219.96
443.98	8138.04
444.17	7875.90
444.35	8402.52
444.54	8362.73
444.73	8255.07
444.91	8486.78
445.10	8535.93
445.28	8292.52
445.47	8482.10
445.65	8397.84
445.84	8463.38
446.02	8369.76
446.21	8482.10
446.39	8428.27
446.58	8549.98
446.77	8517.21
446.95	8395.50
447.14	8505.51
447.32	8557.00
447.51	8334.65
447.69	8449.33
447.88	8505.51
448.06	8540.61
448.25	8629.56
448.43	8737.22
448.62	8629.56
448.80	8739.56
448.99	8667.00
449.17	8695.09
449.36	8617.85
449.54	8697.43
449.73	9048.51
449.91	9165.54
450.10	9144.47
450.28	8908.08
450.46	9062.55
450.65	8964.25
450.83	9095.32
451.02	8938.51
451.20	9406.61
451.39	9186.60
451.57	9202.99
451.76	9214.69
451.94	9322.35
452.13	9315.33
452.31	9465.13
452.49	9036.81
452.68	9399.59
452.86	9425.34
453.05	9338.74
453.23	9584.49
453.42	9249.80
453.60	9535.34
453.78	9816.21
453.97	9701.52
454.15	9453.42
454.34	9488.53
454.52	9547.05
454.70	9572.79
454.89	9640.67
455.07	9987.07
455.26	9930.89
455.44	10040.90
455.62	10050.26
455.81	9949.62
455.99	10157.92
456.17	10129.84
456.36	10085.37
456.54	10263.25
456.73	10431.77
456.91	10223.46
457.09	10310.06
457.28	10537.09
457.46	10317.08
457.64	10572.20
457.83	10700.93
458.01	10321.76
458.19	10745.40
458.38	10504.32
458.56	10576.88
458.74	10944.34
458.93	10752.42
459.11	10546.45
459.29	10843.70
459.48	10829.66
459.66	10808.59
459.84	10820.30
460.03	11056.69
460.21	11073.07
460.39	11047.33
460.57	11014.56
460.76	11080.10
460.94	11176.06
461.12	11325.85
461.31	11040.31
461.49	11131.59
461.67	11290.74
461.85	11604.38
462.04	11503.73
462.22	11578.63
462.40	11632.46
462.59	11662.89
462.77	11632.46
462.95	11421.81
463.13	11712.04
463.32	11410.11
463.50	11845.45
463.68	12018.65
463.86	11824.39
464.05	11824.39
464.23	11686.29
464.41	11953.12
464.59	11707.36
464.78	12243.34
464.96	12152.06
465.14	11667.57
465.32	12046.74
465.50	12072.48
465.69	12453.99
465.87	12126.32
466.05	12109.93
466.23	12285.47
466.41	12662.30
466.60	12535.91
466.78	12107.59
466.96	12030.35
467.14	12231.64
467.32	12571.02
467.51	12655.28
467.69	12285.47
467.87	12393.14
468.05	12404.84
468.23	12369.73
468.41	12554.63
468.60	12629.53
468.78	12837.84
468.96	12870.61
469.14	12755.92
469.32	12996.99
469.50	12606.13
469.69	12926.78
469.87	13289.56
470.05	13088.28
470.23	13046.15
470.41	13350.42
470.59	13298.92
470.77	13219.35
470.95	13207.64
471.14	13647.66
471.32	13364.46
471.50	13659.37
471.68	13736.60
471.86	13706.18
472.04	13900.44
472.22	14071.30
472.40	13713.20
472.58	13713.20
472.77	14169.60
472.95	14129.81
473.13	14520.68
473.31	14279.61
473.49	14314.72
473.67	14106.41
473.85	14338.12
474.03	14684.52
474.21	14787.50
474.39	14972.41
474.57	14801.55
474.75	14918.57
474.93	15059.01
475.12	15096.46
475.30	15248.59
475.48	15098.80
475.66	15318.81
475.84	15367.96
476.02	15307.10
476.20	15470.94
476.38	15793.94
476.56	16418.86
476.74	15932.03
476.92	15826.70
477.10	15962.45
477.28	16472.69
477.46	16318.22
477.64	16350.98
477.82	16786.32
478.00	16994.63
478.18	16720.79
478.36	17329.33
478.54	17397.20
478.72	16992.29
478.90	17521.25
479.08	17858.29
479.26	17750.62
479.44	17628.92
479.62	18113.41
479.80	18473.85
479.98	18370.86
480.16	18761.73
480.34	18565.13
480.52	18735.99
480.70	18382.57
480.88	18459.81
481.06	18974.72
481.24	18757.05
481.41	18998.13
481.59	19269.63
481.77	19721.35
481.95	19735.40
482.13	20030.30
482.31	19660.50
482.49	20119.24
482.67	20332.23
482.85	20643.52
483.03	20755.87
483.21	20847.15
483.39	21235.68
483.57	21060.14
483.74	21443.99
483.92	21689.74
484.10	21345.69
484.28	21483.78
484.46	21979.97
484.64	22129.77
484.82	22036.14
485.00	22291.26
485.18	22717.24
485.35	23154.92
485.53	23152.58
485.71	23407.70
485.89	23349.18
486.07	23112.79
486.25	23665.16
486.43	23772.82
486.61	23974.11
486.78	24252.63
486.96	24505.41
487.14	24694.99
487.32	24774.57
487.50	24849.47
487.68	24938.41
487.85	25383.11
488.03	25722.49
488.21	25755.26
488.39	25951.86
488.57	26452.73
488.75	26185.91
488.92	26506.57
489.10	26614.23
489.28	26679.77
489.46	27316.39
489.64	27384.27
489.81	27665.13
489.99	27669.81
490.17	27857.06
490.35	28084.09
490.53	28203.46
490.70	28664.54
490.88	28327.50
491.06	28631.77
491.24	28842.42
491.41	29429.90
491.59	29450.96
491.77	29294.14
491.95	29500.11
492.13	29907.37
492.30	30204.61
492.48	30047.80
492.66	29923.75
492.84	30155.46
493.01	30962.95
493.19	30501.86
493.37	31103.38
493.54	31309.35
493.72	31250.83
493.90	31365.52
494.08	31821.92
494.25	32369.61
494.43	32135.56
494.61	32641.11
494.79	32486.64
494.96	32818.99
495.14	32961.76
495.32	33809.04
495.49	33404.13
495.67	33036.66
495.85	33600.73
496.02	33647.54
496.20	33823.08
496.38	34525.24
496.55	34536.94
496.73	34885.68
496.91	34827.17
497.09	34991.01
497.26	34925.47
497.44	35229.74
497.62	35409.96
497.79	36065.31
497.97	35744.66
498.14	36423.42
498.32	36091.06
498.50	36627.04
498.67	37069.40
498.85	36273.62
499.03	36547.47
499.20	36753.43
499.38	37312.82
499.56	37258.99
499.73	37212.18
499.91	37490.70
500.08	38017.32
500.26	37949.45
500.44	37675.60
500.61	37799.65
500.79	37975.19
500.97	38291.16
501.14	38696.08
501.32	38904.38
501.49	38642.24
501.67	38857.57
501.84	38934.81
502.02	38864.60
502.20	39105.67
502.37	39456.75
502.55	39395.90
502.72	39941.24
502.90	39391.22
503.07	39805.49
503.25	39800.81
503.43	40114.44
503.60	39999.76
503.78	40481.91
503.95	39997.41
504.13	40816.60
504.30	40776.81
504.48	40320.41
504.65	41027.25
504.83	40896.18
505.01	41832.39
505.18	41191.09
505.36	41869.84
505.53	41780.90
505.71	42087.51
505.88	42314.55
506.06	41872.18
506.23	42234.97
506.41	42691.37
506.58	41827.71
506.76	42253.69
506.93	42909.04
507.11	41900.27
507.28	43021.39
507.46	42700.73
507.63	43040.11
507.81	43667.37
507.98	43098.62
508.16	43306.93
508.33	43725.89
508.50	43672.06
508.68	43896.75
508.85	43978.67
509.03	44081.65
509.20	44215.06
509.38	44676.15
509.55	44748.70
509.73	44673.81
509.90	44952.33
510.08	45017.86
510.25	45120.85
510.42	44678.49
510.60	45617.04
510.77	45558.53
510.95	45715.34
511.12	44964.03
511.30	45528.10
511.47	45659.17
511.64	45532.78
511.82	46204.52
511.99	46216.22
512.17	46209.20
512.34	46302.82
512.51	46820.08
512.69	46614.11
512.86	46300.48
513.04	47215.63
513.21	46689.01
513.38	46665.60
513.56	47253.08
513.73	46646.88
513.90	47065.83
514.08	47082.22
514.25	47199.24
514.43	47625.22
514.60	47847.57
514.77	47681.39
514.95	47749.27
515.12	47517.56
515.29	47775.02
515.47	48051.20
515.64	48287.59
515.81	47910.77
515.99	48105.03
516.16	48713.57
516.33	48758.04
516.51	48968.69
516.68	48959.33
516.85	48259.51
517.03	48800.17
517.20	48800.17
517.37	48828.26
517.54	49120.82
517.72	48889.11
517.89	48989.75
518.06	49064.65
518.24	49216.78
518.41	49544.46
518.58	49748.09
518.75	49392.33
518.93	49925.97
519.10	49954.05
519.27	50024.27
519.45	49677.87
519.62	50431.52
519.79	49986.82
519.96	49921.29
520.14	50113.21
520.31	50082.78
520.48	50361.31
520.65	50351.94
520.83	50447.91
521.00	50801.33
521.17	50899.63
521.34	50712.39
521.52	50852.82
521.69	51323.27
521.86	51278.80
522.03	51372.42
522.20	51463.70
522.38	51569.02
522.55	51632.22
522.72	51688.39
522.89	51414.55
523.07	51838.18
523.24	51828.82
523.41	51882.66
523.58	51611.15
523.75	52278.21
523.92	51978.62
524.10	52217.35
524.27	52545.03
524.44	52142.45
524.61	51931.81
524.78	52013.73
524.96	52163.52
525.13	52648.01
525.30	52713.55
525.47	52912.49
525.64	52617.58
525.81	52655.03
525.98	52846.96
526.16	52800.15
526.33	52767.38
526.50	53144.20
526.67	53106.76
526.84	52875.04
527.01	53268.25
527.18	53275.27
527.36	52853.98
527.53	53359.53
527.70	53514.01
527.87	53624.01
528.04	53308.04
528.21	53600.61
528.38	53907.22
528.55	53773.81
528.72	53530.39
528.89	53408.68
529.07	53443.79
529.24	53556.14
529.41	54035.95
529.58	53598.27
529.75	53605.29
529.92	53820.62
530.09	53965.73
530.26	54363.62
530.43	54253.62
530.60	53996.16
530.77	53895.52
530.94	54033.61
531.11	54396.39
531.28	54258.30
531.46	54300.43
531.63	54541.50
531.80	54450.22
531.97	54305.11
532.14	54681.94
532.31	54466.61
532.48	54583.63
532.65	54983.86
532.82	54602.36
532.99	54712.36
533.16	54555.55
533.33	54972.16
533.50	55100.89
533.67	54822.37
533.84	54838.75
534.01	54908.97
534.18	54915.99
534.35	55367.71
534.52	55011.95
534.69	55320.90
534.86	55377.08
535.03	55229.62
535.20	55292.82
535.37	55402.82
535.54	55419.20
535.71	55533.89
535.88	55620.49
536.05	55627.51
536.22	55753.90
536.38	55812.41
536.55	55653.26
536.72	55707.09
536.89	55657.94
537.06	55870.93
537.23	55763.26
537.40	55931.78
537.57	55908.38
537.74	55735.18
537.91	56339.04
538.08	56093.28
538.25	55976.25
538.42	55994.98
538.59	56158.81
538.75	56072.21
538.92	56039.45
539.09	56336.69
539.26	56074.55
539.43	56465.42
539.60	56507.55
539.77	56247.75
539.94	56645.65
540.11	56493.51
540.28	56507.55
540.44	56809.48
540.61	56729.90
540.78	56521.60
540.95	56516.92
541.12	56481.81
541.29	56545.00
541.46	56633.94
541.62	56626.92
541.79	56926.51
541.96	56678.41
542.13	56526.28
542.30	56786.08
542.47	57085.67
542.63	56809.48
542.80	57247.16
542.97	57088.01
543.14	57073.96
543.31	57272.91
543.48	57396.96
543.64	57635.69
543.81	57265.89
543.98	57488.24
544.15	57495.26
544.32	57579.52
544.48	57890.81
544.65	57546.75
544.82	57731.65
544.99	57621.65
545.16	57579.52
545.32	57633.35
545.49	58028.90
545.66	57680.16
545.83	57804.21
546.00	57855.70
546.16	57958.69
546.33	57794.85
546.50	57560.79
546.67	57701.23
546.83	57654.42
547.00	57970.39
547.17	57900.17
547.34	58019.54
547.50	57970.39
547.67	58300.40
547.84	58075.71
548.00	58412.75
548.17	58363.60
548.34	58260.62
548.51	58295.72
548.67	58330.83
548.84	58333.17
549.01	57939.96
549.18	58127.20
549.34	58450.20
549.51	58478.28
549.68	58361.26
549.84	58564.88
550.01	58398.71
550.18	58068.69
550.34	58553.18
550.51	58672.55
550.68	58588.29
550.84	58426.79
551.01	58824.68
551.18	58546.16
551.34	58672.55
551.51	58899.58
551.68	58672.55
551.84	58775.53
552.01	58553.18
552.18	58777.87
552.34	58808.30
552.51	58635.10
552.68	58529.78
552.84	58817.66
553.01	58836.39
553.18	58838.73
553.34	59128.95
553.51	58901.92
553.67	59025.97
553.84	58913.62
554.01	58955.75
554.17	59152.36
554.34	59168.74
554.51	59274.07
554.67	59063.42
554.84	59203.85
555.00	59203.85
555.17	59000.22
555.33	59217.89
555.50	58986.18
555.67	58871.49
555.83	58967.46
556.00	59180.45
556.16	59613.44
556.33	59501.10
556.50	59208.53
556.66	59487.06
556.83	59196.83
556.99	59360.67
557.16	59517.48
557.32	59622.81
557.49	59646.21
557.65	59313.86
557.82	59522.16
557.98	59407.48
558.15	59475.35
558.32	59744.51
558.48	59524.50
558.65	59693.02
558.81	59634.51
558.98	59503.44
559.14	59688.34
559.31	59791.33
559.47	59735.15
559.64	59992.61
559.80	59894.31
559.97	59873.24
560.13	59688.34
560.30	59784.30
560.46	59777.28
560.63	59962.18
560.79	59786.64
560.96	60023.04
561.12	59936.44
561.29	59882.61
561.45	59957.50
561.61	59910.69
561.78	59973.89
561.94	59810.05
562.11	60104.96
562.27	60004.31
562.44	59957.50
562.60	60172.83
562.77	60172.83
562.93	59943.46
563.10	60147.09
563.26	60018.36
563.42	60294.54
563.59	60083.89
563.75	60088.57
563.92	59999.63
564.08	60189.22
564.24	60062.83
564.41	60062.83
564.57	60186.88
564.74	60317.95
564.90	60175.17
565.07	60102.62
565.23	60030.06
565.39	60111.98
565.56	60299.22
565.72	60371.78
565.88	60299.22
566.05	60303.90
566.21	60212.62
566.38	60500.51
566.54	60313.26
566.70	60434.97
566.87	60633.92
567.03	60282.84
567.19	60509.87
567.36	60306.24
567.52	60528.59
567.68	60502.85
567.85	60369.44
568.01	60713.50
568.17	60229.01
568.34	60561.36
568.50	60453.70
568.66	60418.59
568.83	60470.08
568.99	60301.56
569.15	60523.91
569.32	60481.78
569.48	60444.33
569.64	60694.77
569.81	60456.04
569.97	60336.67
570.13	60547.32
570.30	60341.35
570.46	60603.49
570.62	60566.04
570.78	60643.28
570.95	60477.10
571.11	60837.54
571.27	60608.17
571.43	60474.76
571.60	60615.19
571.76	60708.82
571.92	60657.32
572.09	60825.84
572.25	60626.90
572.41	60767.33
572.57	60832.86
572.74	60884.36
572.90	60732.22
573.06	60718.18
573.22	60638.60
573.38	60636.26
573.55	60711.16
573.71	60767.33
573.87	60767.33
574.03	60954.57
574.20	60961.59
574.36	60851.59
574.52	60814.14
574.68	60879.67
574.84	60748.60
575.01	60896.06
575.17	60800.10
575.33	60692.43
575.49	60535.62
575.65	60706.47
575.82	60940.53
575.98	61087.98
576.14	60910.10
576.30	60959.25
576.46	60844.57
576.62	60823.50
576.79	60736.90
576.95	60781.37
577.11	60783.71
577.27	60882.02
577.43	60919.46
577.59	60786.05
577.75	60753.29
577.92	60853.93
578.08	60989.68
578.24	60825.84
578.40	61118.41
578.56	61125.43
578.72	60975.64
578.88	61043.51
579.04	61073.94
579.21	60837.54
579.37	61167.56
579.53	60886.70
579.69	60903.08
579.85	60746.26
580.01	60928.83
580.17	60795.42
580.33	61069.26
580.49	61059.90
580.65	60863.29
580.82	61172.24
580.98	60867.97
581.14	60860.95
581.30	61092.66
581.46	60804.78
581.62	61057.56
581.78	60669.03
581.94	61137.13
582.10	60945.21
582.26	60963.93
582.42	60832.86
582.58	61052.87
582.74	61144.16
582.90	61069.26
583.06	61141.81
583.22	60846.91
583.38	61029.47
583.54	61090.32
583.70	61022.45
583.86	61233.10
584.02	60999.04
584.18	61174.58
584.34	61036.49
584.50	61158.20
584.66	60858.61
584.82	61052.87
584.98	61326.72
585.14	61141.81
585.30	60912.44
585.46	61205.01
585.62	61169.90
585.78	61151.18
585.94	61120.75
586.10	60919.46
586.26	61006.06
586.42	61202.67
586.58	61282.25
586.74	61237.78
586.90	61319.70
587.06	61010.74
587.22	61219.05
587.38	61176.92
587.54	61385.23
587.70	61307.99
587.86	61272.88
588.02	61174.58
588.18	61319.70
588.34	61200.33
