SpectraSuite Data File
++++++++++++++++++++++++++++++++++++
Date: Fri Oct 25 10:47:06 EDT 2013
User: price-jones
Dark Spectrum Present: No
Reference Spectrum Present: No
Number of Sampled Component Spectra: 1
Spectrometers: USB2+H05261
Integration Time (usec): 100000 (USB2+H05261)
Spectra Averaged: 1 (USB2+H05261)
Boxcar Smoothing: 0 (USB2+H05261)
Correct for Electrical Dark: No (USB2+H05261)
Strobe/Lamp Enabled: No (USB2+H05261)
Correct for Detector Non-linearity: No (USB2+H05261)
Correct for Stray Light: No (USB2+H05261)
Number of Pixels in Processed Spectrum: 2048
>>>>>Begin Processed Spectral Data<<<<<
365.73	121.71
365.92	121.71
366.12	121.71
366.32	102.98
366.52	58.51
366.72	11.70
366.91	0.00
367.11	39.79
367.31	32.77
367.51	49.15
367.70	60.85
367.90	0.00
368.10	14.04
368.30	37.45
368.49	72.56
368.69	70.22
368.89	65.54
369.09	100.64
369.28	23.41
369.48	63.19
369.68	67.88
369.87	74.90
370.07	110.01
370.27	117.03
370.47	276.18
370.66	320.65
370.86	409.59
371.06	416.62
371.25	440.02
371.45	362.78
371.65	423.64
371.84	517.26
372.04	447.04
372.24	510.24
372.44	461.09
372.63	545.34
372.83	535.98
373.03	475.13
373.22	454.06
373.42	561.73
373.62	489.17
373.81	568.75
374.01	521.94
374.21	486.83
374.40	566.41
374.60	638.97
374.79	526.62
374.99	468.11
375.19	568.75
375.38	528.96
375.58	613.22
375.78	624.92
375.97	596.84
376.17	554.71
376.37	545.34
376.56	496.19
376.76	608.54
376.95	580.45
377.15	702.16
377.35	641.31
377.54	671.73
377.74	603.86
377.93	589.82
378.13	610.88
378.33	613.22
378.52	695.14
378.72	657.69
378.91	669.39
379.11	667.05
379.31	596.84
379.50	535.98
379.70	709.18
379.89	653.01
380.09	636.63
380.28	610.88
380.48	697.48
380.68	709.18
380.87	662.37
381.07	641.31
381.26	695.14
381.46	631.94
381.65	624.92
381.85	727.91
382.04	667.05
382.24	706.84
382.43	648.33
382.63	725.57
382.83	748.97
383.02	791.10
383.22	781.74
383.41	725.57
383.61	748.97
383.80	767.70
384.00	706.84
384.19	725.57
384.39	695.14
384.58	716.20
384.78	741.95
384.97	685.78
385.17	692.80
385.36	767.70
385.56	833.23
385.75	676.41
385.95	741.95
386.14	788.76
386.34	713.86
386.53	748.97
386.72	748.97
386.92	819.19
387.11	854.30
387.31	805.14
387.50	779.40
387.70	877.70
387.89	866.00
388.09	744.29
388.28	849.61
388.48	800.46
388.67	887.06
388.86	758.33
389.06	875.36
389.25	905.79
389.45	903.45
389.64	999.41
389.84	922.17
390.03	875.36
390.22	912.81
390.42	952.60
390.61	847.27
390.81	922.17
391.00	889.40
391.19	870.68
391.39	947.92
391.58	1036.86
391.78	1046.22
391.97	945.58
392.16	994.73
392.36	990.05
392.55	896.43
392.75	957.28
392.94	961.96
393.13	983.02
393.33	931.53
393.52	887.06
393.71	973.66
393.91	1128.14
394.10	1071.97
394.29	1020.47
394.49	1060.26
394.68	1067.28
394.88	1207.72
395.07	1095.37
395.26	1095.37
395.46	1139.84
395.65	1256.87
395.84	1146.86
396.04	1179.63
396.23	1151.54
396.42	1090.69
396.62	1174.95
396.81	1123.46
397.00	1170.27
397.19	1102.39
397.39	1116.44
397.58	1205.38
397.77	1266.23
397.97	1188.99
398.16	1310.70
398.35	1254.53
398.55	1348.15
398.74	1287.29
398.93	1423.05
399.12	1331.76
399.32	1270.91
399.51	1306.02
399.70	1348.15
399.90	1284.95
400.09	1425.39
400.28	1451.13
400.47	1320.06
400.67	1434.75
400.86	1420.71
401.05	1460.49
401.24	1474.54
401.44	1526.03
401.63	1533.05
401.82	1610.29
402.01	1502.62
402.21	1483.90
402.40	1537.73
402.59	1591.56
402.78	1544.75
402.97	1451.13
403.17	1586.88
403.36	1530.71
403.55	1619.65
403.74	1706.25
403.93	1774.13
404.13	1626.67
404.32	1664.12
404.51	1659.44
404.70	1607.95
404.89	1694.55
405.09	1720.29
405.28	1680.50
405.47	1650.08
405.66	1673.48
405.85	1790.51
406.05	1736.68
406.24	1746.04
406.43	1820.94
406.62	1839.66
406.81	1834.98
407.00	1694.55
407.20	1720.29
407.39	1858.39
407.58	1853.70
407.77	1987.11
407.96	1982.43
408.15	1994.14
408.34	2001.16
408.54	2057.33
408.73	2024.56
408.92	1994.14
409.11	2059.67
409.30	2001.16
409.49	2005.84
409.68	2090.10
409.87	2024.56
410.07	2078.40
410.26	1984.77
410.45	2120.53
410.64	2111.16
410.83	2176.70
411.02	2272.66
411.21	2197.76
411.40	2289.04
411.59	2370.96
411.78	2275.00
411.98	2380.32
412.17	2303.09
412.36	2431.82
412.55	2394.37
412.74	2434.16
412.93	2363.94
413.12	2497.35
413.31	2429.48
413.50	2396.71
413.69	2385.01
413.88	2588.63
414.07	2640.12
414.26	2576.93
414.45	2586.29
414.64	2654.17
414.83	2743.11
415.02	2637.78
415.22	2836.73
415.41	2911.63
415.60	2832.05
415.79	2775.88
415.98	2918.65
416.17	2815.66
416.36	2808.64
416.55	2857.79
416.74	3014.61
416.93	2864.82
417.12	2736.09
417.31	2981.84
417.50	2857.79
417.69	3040.36
417.88	2970.14
418.07	3038.02
418.26	3138.66
418.45	3049.72
418.64	3225.26
418.83	3155.04
419.02	3126.96
419.21	3309.52
419.39	3248.66
419.58	3126.96
419.77	3101.21
419.96	3103.55
420.15	3267.39
420.34	3330.58
420.53	3375.05
420.72	3391.44
420.91	3321.22
421.10	3302.50
421.29	3482.72
421.48	3316.54
421.67	3365.69
421.86	3440.59
422.05	3463.99
422.24	3454.63
422.43	3433.57
422.61	3386.76
422.80	3531.87
422.99	3562.30
423.18	3524.85
423.37	3648.90
423.56	3452.29
423.75	3466.33
423.94	3346.97
424.13	3180.79
424.32	3389.10
424.50	3393.78
424.69	3494.42
424.88	3646.55
425.07	3447.61
425.26	3501.44
425.45	3445.27
425.64	3520.17
425.83	3482.72
426.01	3478.04
426.20	3527.19
426.39	3665.28
426.58	3632.51
426.77	3506.12
426.96	3648.90
427.15	3592.72
427.33	3765.92
427.52	3700.39
427.71	3747.20
427.90	3667.62
428.09	3641.87
428.28	3735.50
428.46	3857.20
428.65	3798.69
428.84	3826.78
429.03	3948.48
429.22	3665.28
429.40	3693.37
429.59	3775.28
429.78	3630.17
429.97	3522.51
430.16	3737.84
430.34	3794.01
430.53	3815.07
430.72	3908.69
430.91	4002.32
431.10	4025.72
431.28	4131.05
431.47	4049.13
431.66	4292.54
431.85	4058.49
432.03	4236.37
432.22	4109.98
432.41	4131.05
432.60	4217.65
432.79	4217.65
432.97	4341.69
433.16	4138.07
433.35	4259.78
433.54	4311.27
433.72	4297.22
433.91	4285.52
434.10	4376.80
434.28	4219.99
434.47	4386.16
434.66	4514.89
434.85	4447.02
435.03	4402.55
435.22	4407.23
435.41	4552.34
435.59	4608.51
435.78	4449.36
435.97	4650.64
436.16	4484.47
436.34	4589.79
436.53	4578.09
436.72	4655.33
436.90	4535.96
437.09	4660.01
437.28	4454.04
437.46	4638.94
437.65	4599.15
437.84	4622.56
438.02	4716.18
438.21	4774.69
438.40	4669.37
438.58	4856.61
438.77	4819.16
438.96	4821.50
439.14	5060.24
439.33	4938.53
439.52	5078.96
439.70	5104.71
439.89	5153.86
440.08	5254.50
440.26	5137.48
440.45	5177.26
440.63	5343.44
440.82	5301.31
441.01	5287.27
441.19	5350.46
441.38	5406.64
441.57	5399.62
441.75	5343.44
441.94	5528.35
442.12	5423.02
442.31	5720.27
442.50	5650.05
442.68	5706.23
442.87	5596.22
443.05	5781.12
443.24	5757.72
443.43	5694.52
443.61	5762.40
443.80	5951.98
443.98	5687.50
444.17	5628.99
444.35	5762.40
444.54	5790.49
444.73	5951.98
444.91	5905.17
445.10	5699.20
445.28	5797.51
445.47	5774.10
445.65	5783.46
445.84	5734.31
446.02	5921.56
446.21	5851.34
446.39	5844.32
446.58	5966.03
446.77	6008.16
446.95	5841.98
447.14	5921.56
447.32	6099.44
447.51	6076.03
447.69	6171.99
447.88	6059.65
448.06	6029.22
448.25	6087.73
448.43	6050.28
448.62	6008.16
448.80	6132.20
448.99	6078.37
449.17	6150.93
449.36	6045.60
449.54	6321.79
449.73	6326.47
449.91	6321.79
450.10	6373.28
450.28	6377.96
450.46	6555.84
450.65	6452.86
450.83	6700.95
451.02	6338.17
451.20	6506.69
451.39	6548.82
451.57	6445.84
451.76	6347.53
451.94	6342.85
452.13	6494.99
452.31	6509.03
452.49	6384.98
452.68	6499.67
452.86	6602.65
453.05	6576.91
453.23	6490.31
453.42	6455.20
453.60	6633.08
453.78	6658.82
453.97	6525.41
454.15	6600.31
454.34	6651.80
454.52	6855.43
454.70	6642.44
454.89	6817.98
455.07	6855.43
455.26	6972.46
455.44	6991.18
455.62	7042.67
455.81	7070.76
455.99	6988.84
456.17	6932.67
456.36	7019.27
456.54	7138.63
456.73	7428.86
456.91	7297.79
457.09	7164.38
457.28	7250.98
457.46	7178.42
457.64	7276.73
457.83	7218.21
458.01	7302.47
458.19	7396.09
458.38	7269.70
458.56	7419.50
458.74	7391.41
458.93	7377.37
459.11	7536.52
459.29	7712.07
459.48	7590.36
459.66	7506.10
459.84	7365.67
460.03	7726.11
460.21	7597.38
460.39	7669.94
460.57	7658.23
460.76	7662.91
460.94	7810.37
461.12	7784.62
461.31	7775.26
461.49	7695.68
461.67	7805.69
461.85	8035.06
462.04	7777.60
462.22	8332.31
462.40	8198.90
462.59	7918.03
462.77	7911.01
462.95	8128.68
463.13	8159.11
463.32	8011.65
463.50	8128.68
463.68	8098.25
463.86	8060.80
464.05	8013.99
464.23	8018.68
464.41	8203.58
464.59	7896.97
464.78	8203.58
464.96	8250.39
465.14	8229.32
465.32	8575.72
465.50	8369.76
465.69	8198.90
465.87	8365.07
466.05	8327.63
466.23	8194.22
466.41	8322.94
466.60	8414.23
466.78	8446.99
466.96	8301.88
467.14	8336.99
467.32	8580.40
467.51	8493.80
467.69	8521.89
467.87	8306.56
468.05	8578.06
468.23	8472.74
468.41	8538.27
468.60	8699.77
468.78	8772.33
468.96	8596.79
469.14	8741.90
469.32	9048.51
469.50	8641.26
469.69	8903.40
469.87	8999.36
470.05	8931.48
470.23	8947.87
470.41	8762.97
470.59	9081.28
470.77	8931.48
470.95	9001.70
471.14	9200.65
471.32	8823.82
471.50	9329.38
471.68	9212.35
471.86	9324.69
472.04	9132.77
472.22	9551.73
472.40	9385.55
472.58	9479.17
472.77	9614.92
472.95	9385.55
473.13	9769.40
473.31	9298.95
473.49	9469.81
473.67	9591.52
473.85	9722.59
474.03	9991.75
474.21	9844.29
474.39	10008.13
474.57	10024.51
474.75	9970.68
474.93	10024.51
475.12	9996.43
475.30	10099.41
475.48	9973.02
475.66	10085.37
475.84	10286.65
476.02	10209.42
476.20	10607.31
476.38	10633.05
476.56	10778.17
476.74	10457.51
476.92	10614.33
477.10	10721.99
477.28	10944.34
477.46	10757.10
477.64	11080.10
477.82	11283.72
478.00	11328.19
478.18	11346.92
478.36	11536.50
478.54	11477.99
478.72	11508.41
478.90	11454.58
479.08	11962.48
479.26	12042.06
479.44	12210.57
479.62	11964.82
479.80	12070.14
479.98	12042.06
480.16	12578.04
480.34	12343.99
480.52	12407.18
480.70	12292.49
480.88	12358.03
481.06	12674.00
481.24	12620.17
481.41	12812.09
481.59	13004.02
481.77	12945.50
481.95	13088.28
482.13	13380.84
482.31	13298.92
482.49	13502.55
482.67	13413.61
482.85	13429.99
483.03	13654.69
483.21	14068.96
483.39	13860.65
483.57	13853.63
483.74	14090.02
483.92	14471.53
484.10	14216.41
484.28	14214.07
484.46	14668.14
484.64	14817.93
484.82	14551.11
485.00	14991.13
485.18	15033.26
485.35	15129.22
485.53	15115.18
485.71	14963.04
485.89	15391.36
486.07	15232.21
486.25	15597.33
486.43	15599.67
486.61	15749.46
486.78	15967.13
486.96	15833.72
487.14	16149.70
487.32	16095.86
487.50	16355.66
487.68	16650.57
487.85	16748.87
488.03	16681.00
488.21	17172.51
488.39	17095.27
488.57	17331.67
488.75	17518.91
488.92	17481.46
489.10	17633.60
489.28	17516.57
489.46	17942.55
489.64	17816.16
489.81	18366.18
489.99	18171.92
490.17	18317.03
490.35	18583.85
490.53	18544.06
490.70	18810.89
490.88	18787.48
491.06	19197.07
491.24	18721.95
491.41	18780.46
491.59	19082.39
491.77	19119.84
491.95	19571.56
492.13	19515.39
492.30	19934.34
492.48	19728.38
492.66	19840.72
492.84	19845.40
493.01	20233.93
493.19	20327.55
493.37	20688.00
493.54	20479.69
493.72	20531.18
493.90	20734.81
494.08	20893.96
494.25	21348.03
494.43	21050.78
494.61	21427.60
494.79	21268.45
494.96	21549.31
495.14	21404.20
495.32	21837.20
495.49	21656.98
495.67	21994.01
495.85	21968.27
496.02	22111.04
496.20	22459.78
496.38	22691.49
496.55	22450.42
496.73	23218.11
496.91	22555.74
497.09	23197.05
497.26	22827.24
497.44	22972.36
497.62	22789.80
497.79	23365.57
497.97	23300.03
498.14	23314.08
498.32	23531.75
498.50	23651.11
498.67	23765.80
498.85	23840.70
499.03	24341.57
499.20	24154.33
499.38	24130.92
499.56	24369.66
499.73	24507.75
499.91	24334.55
500.08	24753.51
500.26	24826.06
500.44	25095.22
500.61	24638.82
500.79	24491.37
500.97	24837.76
501.14	25032.03
501.32	25046.07
501.49	24900.96
501.67	25439.28
501.84	25483.75
502.02	25436.94
502.20	25633.55
502.37	25851.22
502.55	25717.81
502.72	25647.59
502.90	25771.64
503.07	26094.63
503.25	26223.36
503.43	26003.35
503.60	26258.47
503.78	26324.01
503.95	26008.03
504.13	26518.27
504.30	26408.26
504.48	26284.22
504.65	26647.00
504.83	26988.72
505.01	26986.38
505.18	26766.37
505.36	27016.80
505.53	27033.19
505.71	27372.57
505.88	27292.99
506.06	27124.47
506.23	27580.87
506.41	27400.65
506.58	27410.01
506.76	27674.49
506.93	27744.71
507.11	27496.61
507.28	27929.61
507.46	27995.15
507.63	27613.64
507.81	28217.50
507.98	28196.43
508.16	28280.69
508.33	28357.93
508.50	28252.61
508.68	28540.49
508.85	28816.68
509.03	28386.02
509.20	28746.46
509.38	28954.77
509.55	29003.92
509.73	29076.48
509.90	28704.33
510.08	29017.96
510.25	28833.06
510.42	29336.27
510.60	29500.11
510.77	29252.02
510.95	30118.01
511.12	29125.63
511.30	29647.57
511.47	29752.89
511.64	30139.08
511.82	30300.58
511.99	29951.84
512.17	30199.93
512.34	30129.72
512.51	30298.23
512.69	30529.95
512.86	30822.51
513.04	30359.09
513.21	30848.26
513.38	30712.51
513.56	31009.76
513.73	30298.23
513.90	31009.76
514.08	30738.26
514.25	30909.11
514.43	30881.03
514.60	31370.20
514.77	31101.04
514.95	31405.31
515.12	31297.64
515.29	31257.85
515.47	31931.93
515.64	31522.34
515.81	31307.01
515.99	31377.22
516.16	31365.52
516.33	31768.09
516.51	31810.22
516.68	31620.64
516.85	31452.12
517.03	31580.85
517.20	32264.28
517.37	31751.71
517.54	32350.88
517.72	32369.61
517.89	32025.55
518.06	31997.46
518.24	32224.50
518.41	32191.73
518.58	32109.81
518.75	32606.00
518.93	32568.55
519.10	32842.40
519.27	32980.49
519.45	32900.91
519.62	33015.60
519.79	32840.06
519.96	33504.77
520.14	33102.20
520.31	32844.74
520.48	33848.83
520.65	33263.69
520.83	33834.78
521.00	33684.99
521.17	33483.70
521.34	33806.70
521.52	33752.87
521.69	33626.48
521.86	33603.07
522.03	33853.51
522.20	34227.99
522.38	34604.82
522.55	34520.56
522.72	34382.47
522.89	33827.76
523.07	34639.93
523.24	34085.22
523.41	34328.64
523.58	34136.71
523.75	34864.62
523.92	34169.48
524.10	34883.34
524.27	34920.79
524.44	35321.02
524.61	34705.46
524.78	35353.79
524.96	35218.04
525.13	35318.68
525.30	35849.99
525.47	35840.62
525.64	35484.86
525.81	35639.34
525.98	35264.85
526.16	35075.27
526.33	35253.15
526.50	35573.80
526.67	35037.82
526.84	35768.07
527.01	35534.01
527.18	35510.61
527.36	35894.46
527.53	35962.33
527.70	36151.91
527.87	36397.67
528.04	36245.54
528.21	36362.56
528.38	35899.14
528.55	36435.12
528.72	36734.71
528.89	36257.24
529.07	36622.36
529.24	36025.53
529.41	36414.05
529.58	36297.03
529.75	36341.50
529.92	36556.83
530.09	36900.89
530.26	36701.94
530.43	36711.30
530.60	36837.69
530.77	37312.82
530.94	37043.66
531.11	37186.43
531.28	37156.00
531.46	37207.50
531.63	37380.70
531.80	37221.54
531.97	37289.42
532.14	37251.97
532.31	37518.79
532.48	37336.23
532.65	37427.51
532.82	37488.36
532.99	37919.02
533.16	37076.43
533.33	37577.30
533.50	37399.42
533.67	37661.56
533.84	37640.50
534.01	38244.35
534.18	37893.27
534.35	38026.68
534.52	38183.50
534.69	38148.39
534.86	38213.93
535.03	37736.46
535.20	38408.19
535.37	38415.21
535.54	38639.90
535.71	38401.17
535.88	38572.03
536.05	38679.69
536.22	38953.54
536.38	38326.27
536.55	38700.76
536.72	38930.13
536.89	38658.63
537.06	38796.72
537.23	38925.45
537.40	38817.78
537.57	38644.59
537.74	38869.28
537.91	38960.56
538.08	39220.36
538.25	38892.68
538.42	38508.83
538.59	39105.67
538.75	39285.89
538.92	39304.62
539.09	39339.72
539.26	39091.63
539.43	39159.50
539.60	39241.42
539.77	39213.34
539.94	39309.30
540.11	39243.76
540.28	39716.55
540.44	39634.63
540.61	39587.82
540.78	39533.99
540.95	39543.35
541.12	39618.25
541.29	39391.22
541.46	39627.61
541.62	39536.33
541.79	39793.79
541.96	39435.69
542.13	39842.94
542.30	39885.07
542.47	39878.05
542.63	39725.91
542.80	39974.01
542.97	40701.92
543.14	40678.51
543.31	40538.08
543.48	40102.74
543.64	40711.28
543.81	40446.80
543.98	40800.22
544.15	40610.64
544.32	40889.16
544.48	41263.64
544.65	40706.60
544.82	40818.94
544.99	40531.06
545.16	40783.83
545.32	40587.23
545.49	40931.29
545.66	41130.23
545.83	41022.57
546.00	41270.67
546.16	41113.85
546.33	40842.35
546.50	40526.38
546.67	40982.78
546.83	41092.79
547.00	40807.24
547.17	41139.60
547.34	40999.16
547.50	41441.53
547.67	41397.06
547.84	41020.23
548.00	41488.34
548.17	41476.63
548.34	41514.08
548.51	42019.64
548.67	41586.64
548.84	41698.98
549.01	41635.79
549.18	41031.93
549.34	41759.84
549.51	41965.81
549.68	41993.89
549.84	41474.29
550.01	41984.53
550.18	41691.96
550.34	41979.85
550.51	41738.77
550.68	42337.95
550.84	41406.42
551.01	42494.77
551.18	42057.09
551.34	42246.67
551.51	42017.30
551.68	42436.25
551.84	41858.14
552.01	41986.87
552.18	42181.13
552.34	42202.20
552.51	42440.93
552.68	42328.59
552.84	42494.77
553.01	42754.57
553.18	42059.43
553.34	42504.13
553.51	42061.77
553.67	42742.86
553.84	43040.11
554.01	42167.09
554.17	42897.34
554.34	43040.11
554.51	42749.88
554.67	42880.95
554.84	42602.43
555.00	42384.76
555.17	42742.86
555.33	42614.13
555.50	42979.26
555.67	42925.42
555.83	43136.07
556.00	42674.99
556.16	43267.14
556.33	42988.62
556.50	42934.79
556.66	42850.53
556.83	42843.51
556.99	43246.08
557.16	43430.98
557.32	43484.81
557.49	42997.98
557.65	42960.53
557.82	43140.75
557.98	43112.67
558.15	42756.91
558.32	42892.66
558.48	43180.54
558.65	43409.92
558.81	43105.65
558.98	43166.50
559.14	43220.33
559.31	43313.95
559.47	43601.84
559.64	43505.88
559.80	43941.22
559.97	43372.47
560.13	43721.21
560.30	43438.00
560.46	43370.13
560.63	43606.52
560.79	43695.46
560.96	43924.83
561.12	43786.74
561.29	43077.56
561.45	43648.65
561.61	43426.30
561.78	43594.82
561.94	43306.93
562.11	43578.43
562.27	43789.08
562.44	43601.84
562.60	43707.16
562.77	43901.43
562.93	43538.65
563.10	44053.56
563.26	43613.54
563.42	43625.25
563.59	44020.80
563.75	44161.23
563.92	43697.80
564.08	43995.05
564.24	43796.10
564.41	43807.81
564.57	44186.97
564.74	44025.48
564.90	44149.53
565.07	44186.97
565.23	43835.89
565.39	43828.87
565.56	43880.36
565.72	44147.18
565.88	43978.67
566.05	44142.50
566.21	43871.00
566.38	43957.60
566.54	44123.78
566.70	44472.52
566.87	44374.22
567.03	44355.49
567.19	44561.46
567.36	44402.30
567.52	44306.34
567.68	44058.24
567.85	43667.37
568.01	43913.13
568.17	43753.97
568.34	44467.84
568.50	43803.13
568.66	44432.73
568.83	44254.85
568.99	44259.53
569.15	44016.11
569.32	43721.21
569.48	43882.70
569.64	44673.81
569.81	44495.92
569.97	44240.81
570.13	44212.72
570.30	44067.61
570.46	43866.32
570.62	44212.72
570.78	44030.16
570.95	44034.84
571.11	44404.64
571.27	43845.26
571.43	44231.44
571.60	44563.80
571.76	44406.98
571.92	44182.29
572.09	44472.52
572.25	43990.37
572.41	44280.60
572.57	44179.95
572.74	44671.46
572.90	45036.59
573.06	44299.32
573.22	44793.17
573.38	44320.38
573.55	44093.35
573.71	44362.51
573.87	44112.08
574.03	43922.49
574.20	44381.24
574.36	44329.75
574.52	44765.09
574.68	44521.67
574.84	44673.81
575.01	44619.97
575.17	44257.19
575.33	43966.96
575.49	44587.21
575.65	44910.20
575.82	44879.77
575.98	44315.70
576.14	44828.28
576.30	44699.55
576.46	44535.71
576.62	44137.82
576.79	44357.83
576.95	43845.26
577.11	44514.65
577.27	44451.45
577.43	45125.53
577.59	44729.98
577.75	44484.22
577.92	44568.48
578.08	44549.76
578.24	44151.87
578.40	44397.62
578.56	44486.56
578.72	44198.68
578.88	44399.96
579.04	44818.92
579.21	44641.04
579.37	44376.56
579.53	44662.10
579.69	44123.78
579.85	44631.68
580.01	44278.25
580.17	44624.65
580.33	44580.18
580.49	44685.51
580.65	44636.36
580.82	44573.16
580.98	44718.28
581.14	44346.13
581.30	45001.48
581.46	44540.39
581.62	44615.29
581.78	44364.85
581.94	45209.79
582.10	44825.94
582.26	44655.08
582.42	44636.36
582.58	44357.83
582.74	44406.98
582.90	44603.59
583.06	44739.34
583.22	44924.24
583.38	44849.35
583.54	44521.67
583.70	44758.06
583.86	44533.37
584.02	44531.03
584.18	44851.69
584.34	44671.46
584.50	44208.04
584.66	44765.09
584.82	44442.09
584.98	44629.34
585.14	44718.28
585.30	44502.95
585.46	44301.66
585.62	44079.31
585.78	44484.22
585.94	44116.76
586.10	44594.23
586.26	44495.92
586.42	44662.10
586.58	44872.75
586.74	44767.43
586.90	44367.20
587.06	44612.95
587.22	44942.97
587.38	44325.07
587.54	44624.65
587.70	45247.24
587.86	44919.56
588.02	45162.98
588.18	45043.61
588.34	44978.07
588.49	44446.77
588.65	44381.24
588.81	43901.43
588.97	44414.01
589.13	44524.01
589.29	44814.24
589.45	44949.99
589.61	44715.93
589.77	45123.19
589.93	44893.82
590.08	44945.31
590.24	45184.04
