SpectraSuite Data File
++++++++++++++++++++++++++++++++++++
Date: Fri Oct 25 11:23:12 EDT 2013
User: price-jones
Dark Spectrum Present: No
Reference Spectrum Present: No
Number of Sampled Component Spectra: 1
Spectrometers: USB2+H05261
Integration Time (usec): 100000 (USB2+H05261)
Spectra Averaged: 1 (USB2+H05261)
Boxcar Smoothing: 0 (USB2+H05261)
Correct for Electrical Dark: No (USB2+H05261)
Strobe/Lamp Enabled: No (USB2+H05261)
Correct for Detector Non-linearity: No (USB2+H05261)
Correct for Stray Light: No (USB2+H05261)
Number of Pixels in Processed Spectrum: 2048
>>>>>Begin Processed Spectral Data<<<<<
365.73	203.63
365.92	203.63
366.12	203.63
366.32	154.48
366.52	140.43
366.72	159.16
366.91	114.69
367.11	145.11
367.31	121.71
367.51	124.05
367.70	161.50
367.90	107.66
368.10	110.01
368.30	163.84
368.49	170.86
368.69	170.86
368.89	70.22
369.09	180.22
369.28	175.54
369.48	135.75
369.68	131.07
369.87	145.11
370.07	187.24
370.27	257.46
370.47	390.87
370.66	634.29
370.86	674.07
371.06	641.31
371.25	711.52
371.45	631.94
371.65	723.23
371.84	692.80
372.04	643.65
372.24	664.71
372.44	638.97
372.63	690.46
372.83	760.67
373.03	772.38
373.22	723.23
373.42	695.14
373.62	830.89
373.81	786.42
374.01	835.57
374.21	798.12
374.40	858.98
374.60	875.36
374.79	891.74
374.99	807.48
375.19	798.12
375.38	868.34
375.58	851.96
375.78	873.02
375.97	814.51
376.17	915.15
376.37	786.42
376.56	978.34
376.76	851.96
376.95	847.27
377.15	976.00
377.35	898.77
377.54	910.47
377.74	964.30
377.93	875.36
378.13	947.92
378.33	954.94
378.52	964.30
378.72	882.38
378.91	903.45
379.11	903.45
379.31	873.02
379.50	950.26
379.70	945.58
379.89	940.90
380.09	940.90
380.28	952.60
380.48	940.90
380.68	980.68
380.87	1025.15
381.07	959.62
381.26	1027.50
381.46	1039.20
381.65	1130.48
381.85	1076.65
382.04	1041.54
382.24	943.24
382.43	1015.79
382.63	1050.90
382.83	1036.86
383.02	1100.05
383.22	1097.71
383.41	1062.60
383.61	1076.65
383.80	1203.04
384.00	1104.73
384.19	1062.60
384.39	1121.12
384.58	1144.52
384.78	1116.44
384.97	1118.78
385.17	1235.80
385.36	1125.80
385.56	1186.65
385.75	1151.54
385.95	1116.44
386.14	1196.01
386.34	1238.14
386.53	1221.76
386.72	1170.27
386.92	1362.19
387.11	1228.78
387.31	1289.64
387.50	1299.00
387.70	1299.00
387.89	1233.46
388.09	1301.34
388.28	1303.68
388.48	1324.74
388.67	1430.07
388.86	1306.02
389.06	1277.93
389.25	1359.85
389.45	1350.49
389.64	1380.92
389.84	1418.36
390.03	1331.76
390.22	1469.86
390.42	1376.24
390.61	1420.71
390.81	1348.15
391.00	1416.02
391.19	1406.66
391.39	1458.15
391.58	1579.86
391.78	1411.34
391.97	1488.58
392.16	1420.71
392.36	1509.65
392.55	1507.30
392.75	1530.71
392.94	1504.96
393.13	1556.46
393.33	1526.03
393.52	1654.76
393.71	1629.01
393.91	1563.48
394.10	1572.84
394.29	1509.65
394.49	1586.88
394.68	1710.93
394.88	1743.70
395.07	1675.82
395.26	1643.06
395.46	1687.53
395.65	1720.29
395.84	1750.72
396.04	1778.81
396.23	1762.42
396.42	1675.82
396.62	1769.44
396.81	1804.55
397.00	1748.38
397.19	1746.04
397.39	1825.62
397.58	1863.07
397.77	1881.79
397.97	1865.41
398.16	1809.23
398.35	1940.30
398.55	1912.22
398.74	1877.11
398.93	1879.45
399.12	1860.73
399.32	1907.54
399.51	1966.05
399.70	2001.16
399.90	1870.09
400.09	2043.29
400.28	1998.82
400.47	2043.29
400.67	2115.84
400.86	2153.29
401.05	2073.71
401.24	2113.50
401.44	2193.08
401.63	2223.51
401.82	2260.96
402.01	2237.55
402.21	2179.04
402.40	2235.21
402.59	2214.15
402.78	2279.68
402.97	2267.98
403.17	2265.64
403.36	2256.28
403.55	2349.90
403.74	2342.88
403.93	2345.22
404.13	2466.92
404.32	2448.20
404.51	2331.17
404.70	2499.69
404.89	2413.09
405.09	2466.92
405.28	2450.54
405.47	2544.16
405.66	2569.91
405.85	2569.91
406.05	2579.27
406.24	2630.76
406.43	2544.16
406.62	2605.02
406.81	2717.36
407.00	2609.70
407.20	2572.25
407.39	2717.36
407.58	2778.22
407.77	2717.36
407.96	2820.35
408.15	2782.90
408.34	2722.04
408.54	2738.43
408.73	2731.41
408.92	2846.09
409.11	2855.45
409.30	2913.97
409.49	2818.00
409.68	2942.05
409.87	2942.05
410.07	2888.22
410.26	2937.37
410.45	2944.39
410.64	3143.34
410.83	3187.81
411.02	3084.83
411.21	3150.36
411.40	3089.51
411.59	3243.98
411.78	3239.30
411.98	3143.34
412.17	3290.79
412.36	3234.62
412.55	3379.73
412.74	3449.95
412.93	3510.80
413.12	3426.54
413.31	3499.10
413.50	3499.10
413.69	3545.91
413.88	3637.19
414.07	3482.72
414.26	3667.62
414.45	3709.75
414.64	3620.81
414.83	3772.94
415.02	3878.27
415.22	3838.48
415.41	3798.69
415.60	3922.74
415.79	4002.32
415.98	4004.66
416.17	4128.70
416.36	4004.66
416.55	4147.43
416.74	4074.87
416.93	4079.55
417.12	4135.73
417.31	4201.26
417.50	4339.35
417.69	4219.99
417.88	4313.61
418.07	4212.96
418.26	4383.82
418.45	4276.16
418.64	4554.68
418.83	4404.89
419.02	4461.06
419.21	4449.36
419.39	4430.63
419.58	4500.85
419.77	4477.44
419.96	4531.28
420.15	4657.67
420.34	4606.17
420.53	4704.48
420.72	4720.86
420.91	4983.00
421.10	4767.67
421.29	4795.76
421.48	4732.56
421.67	4849.59
421.86	4826.18
422.05	4908.10
422.24	4950.23
422.43	5001.72
422.61	5088.32
422.80	4868.31
422.99	4964.28
423.18	4910.44
423.37	5130.45
423.56	5085.98
423.75	5011.09
423.94	4849.59
424.13	4744.27
424.32	4851.93
424.50	5078.96
424.69	5085.98
424.88	5043.85
425.07	4971.30
425.26	5039.17
425.45	5221.74
425.64	5069.60
425.83	4908.10
426.01	4947.89
426.20	5144.50
426.39	5043.85
426.58	5018.11
426.77	5055.56
426.96	5135.14
427.15	5034.49
427.33	5394.93
427.52	5198.33
427.71	5394.93
427.90	5195.99
428.09	5191.31
428.28	5458.13
428.46	5294.29
428.65	5343.44
428.84	5640.69
429.03	5448.77
429.22	5500.26
429.40	5617.29
429.59	5444.09
429.78	5455.79
429.97	5249.82
430.16	5490.90
430.34	5579.84
430.53	5678.14
430.72	5738.99
430.91	5844.32
431.10	5647.71
431.28	5743.67
431.47	5898.15
431.66	6071.35
431.85	6012.84
432.03	5940.28
432.22	5998.79
432.41	5973.05
432.60	5959.00
432.79	5738.99
432.97	6087.73
433.16	6132.20
433.35	5966.03
433.54	6054.97
433.72	6183.70
433.91	6253.91
434.10	6179.01
434.28	6052.63
434.47	6246.89
434.66	6181.35
434.85	6387.32
435.03	6296.04
435.22	6277.32
435.41	6572.22
435.59	6513.71
435.78	6438.81
435.97	6518.39
436.16	6478.60
436.34	6656.48
436.53	6602.65
436.72	6836.70
436.90	6616.69
437.09	6623.72
437.28	6541.80
437.46	6677.55
437.65	6691.59
437.84	6703.29
438.02	6810.96
438.21	6829.68
438.40	6750.10
438.58	6970.12
438.77	7152.68
438.96	7183.10
439.14	7028.63
439.33	7314.17
439.52	7410.14
439.70	7346.94
439.89	7384.39
440.08	7482.69
440.26	7527.16
440.45	7559.93
440.63	7644.19
440.82	7763.56
441.01	7625.47
441.19	7770.58
441.38	7817.39
441.57	7885.26
441.75	8074.85
441.94	8102.93
442.12	7840.79
442.31	7978.89
442.50	8243.37
442.68	8049.10
442.87	8210.60
443.05	8308.90
443.24	8203.58
443.43	8348.69
443.61	8411.89
443.80	8418.91
443.98	8124.00
444.17	7803.35
444.35	8250.39
444.54	8346.35
444.73	8353.37
444.91	8341.67
445.10	8414.23
445.28	8332.31
445.47	8301.88
445.65	8255.07
445.84	8554.66
446.02	8589.77
446.21	8549.98
446.39	8402.52
446.58	8491.46
446.77	8580.40
446.95	8304.22
447.14	8645.94
447.32	8564.02
447.51	8650.62
447.69	8486.78
447.88	8652.96
448.06	8645.94
448.25	8667.00
448.43	8571.04
448.62	8718.50
448.80	8482.10
448.99	8704.45
449.17	8664.66
449.36	8713.81
449.54	8793.39
449.73	9071.92
449.91	9221.71
450.10	9111.71
450.28	8978.30
450.46	9228.73
450.65	9312.99
450.83	9078.94
451.02	9121.07
451.20	9301.29
451.39	9191.28
451.57	9317.67
451.76	9015.74
451.94	9074.26
452.13	9444.06
452.31	9547.05
452.49	9385.55
452.68	9376.19
452.86	9334.06
453.05	9533.00
453.23	9811.53
453.42	9331.72
453.60	9502.58
453.78	9537.68
453.97	9547.05
454.15	9448.74
454.34	9748.33
454.52	9879.40
454.70	9657.05
454.89	9846.63
455.07	9865.36
455.26	9961.32
455.44	10050.26
455.62	10038.56
455.81	10104.09
455.99	10157.92
456.17	10188.35
456.36	10143.88
456.54	10150.90
456.73	10209.42
456.91	10609.65
457.09	10455.17
457.28	10518.37
457.46	10274.95
457.64	10506.66
457.83	10628.37
458.01	10368.57
458.19	10874.13
458.38	10743.06
458.56	10874.13
458.74	10923.28
458.93	10721.99
459.11	11044.99
459.29	10930.30
459.48	10963.07
459.66	10729.02
459.84	10895.19
460.03	11152.65
460.21	11124.57
460.39	11215.85
460.57	10904.56
460.76	11239.25
460.94	11248.61
461.12	11192.44
461.31	11314.15
461.49	11283.72
461.67	11262.66
461.85	11836.09
462.04	11421.81
462.22	11660.55
462.40	11538.84
462.59	11730.76
462.77	11470.97
462.95	11875.88
463.13	11506.07
463.32	11796.30
463.50	11943.75
463.68	11920.35
463.86	11831.41
464.05	11679.27
464.23	11948.43
464.41	12159.08
464.59	11730.76
464.78	12376.75
464.96	12091.21
465.14	11983.54
465.32	12170.79
465.50	12131.00
465.69	12311.22
465.87	12161.42
466.05	12084.19
466.23	12299.52
466.41	12491.44
466.60	12418.88
466.78	12376.75
466.96	12280.79
467.14	12498.46
467.32	12585.06
467.51	12589.74
467.69	12255.04
467.87	12645.91
468.05	12645.91
468.23	12411.86
468.41	12755.92
468.60	12601.44
468.78	12950.18
468.96	12952.52
469.14	13067.21
469.32	12886.99
469.50	12809.75
469.69	13270.84
469.87	13249.77
470.05	12905.71
470.23	13238.07
470.41	13092.96
470.59	13518.93
470.77	13303.60
470.95	13549.36
471.14	13575.11
471.32	13359.78
471.50	13748.31
471.68	13579.79
471.86	13664.05
472.04	13949.59
472.22	14148.54
472.40	13977.68
472.58	14083.00
472.77	14239.82
472.95	14066.62
473.13	14691.54
473.31	14328.76
473.49	14436.42
473.67	14141.52
473.85	14340.46
474.03	14792.19
474.21	14789.85
474.39	14967.73
474.57	14956.02
474.75	15147.95
474.93	15096.46
475.12	15049.64
475.30	15178.37
475.48	15049.64
475.66	15342.21
475.84	15562.22
476.02	15541.16
476.20	15410.09
476.38	15744.78
476.56	16084.16
476.74	16154.38
476.92	16219.91
477.10	15901.60
477.28	16369.71
477.46	16168.42
477.64	16350.98
477.82	16692.70
478.00	17029.74
478.18	16996.97
478.36	16812.07
478.54	17319.96
478.72	17322.30
478.90	17802.11
479.08	17619.55
479.26	18043.19
479.44	17991.70
479.62	17949.57
479.80	18305.33
479.98	18024.47
480.16	18843.65
480.34	18672.79
480.52	18836.63
480.70	18778.12
480.88	18473.85
481.06	18799.18
481.24	18824.93
481.41	19356.23
481.59	19583.26
481.77	19747.10
481.95	19723.69
482.13	20046.69
482.31	20009.24
482.49	20285.42
482.67	20379.04
482.85	20760.55
483.03	20865.88
483.21	21240.36
483.39	21191.21
483.57	20999.29
483.74	21261.43
483.92	21757.62
484.10	21453.35
484.28	21774.00
484.46	22630.64
484.64	22326.37
484.82	22038.48
485.00	22522.98
485.18	22906.82
485.35	23016.83
485.53	22930.23
485.71	23339.82
485.89	23487.28
486.07	23421.74
486.25	23466.21
486.43	23882.83
486.61	23974.11
486.78	24238.59
486.96	24510.09
487.14	24641.16
487.32	24924.36
487.50	25207.57
487.68	25245.02
487.85	25610.14
488.03	25874.62
488.21	26171.87
488.39	26232.72
488.57	26169.53
488.75	26457.42
488.92	26689.13
489.10	26904.46
489.28	26885.73
489.46	27524.70
489.64	27395.97
489.81	27707.26
489.99	27938.97
490.17	27967.06
490.35	28341.55
490.53	28474.96
490.70	28767.52
490.88	28493.68
491.06	29039.03
491.24	29256.70
491.41	29347.98
491.59	29565.65
491.77	29488.41
491.95	30005.67
492.13	30197.59
492.30	30333.34
492.48	30422.28
492.66	30888.05
492.84	30841.24
493.01	30686.76
493.19	30829.54
493.37	31349.14
493.54	31466.16
493.72	32264.28
493.90	31468.50
494.08	32156.62
494.25	32067.68
494.43	32165.98
494.61	32708.99
494.79	33060.07
494.96	32683.24
495.14	33333.91
495.32	33273.06
495.49	33457.96
495.67	33221.56
495.85	33919.04
496.02	34113.31
496.20	34394.17
496.38	34487.79
496.55	34429.28
496.73	35246.13
496.91	34717.17
497.09	34817.81
497.26	35505.93
497.44	35512.95
497.62	35447.41
497.79	35793.81
497.97	35906.16
498.14	36287.67
498.32	36182.34
498.50	36821.31
498.67	37106.85
498.85	36957.06
499.03	37368.99
499.20	37003.87
499.38	37010.89
499.56	37605.39
499.73	37233.24
499.91	37631.13
500.08	38438.62
500.26	37544.53
500.44	37949.45
500.61	38408.19
500.79	38167.12
500.97	38574.37
501.14	38953.54
501.32	39012.05
501.49	39037.80
501.67	38946.51
501.84	39634.63
502.02	39147.80
502.20	39952.94
502.37	39384.19
502.55	39732.93
502.72	39887.41
502.90	40130.83
503.07	39812.51
503.25	40135.51
503.43	40236.15
503.60	40467.86
503.78	40526.38
503.95	40832.99
504.13	41095.13
504.30	41153.64
504.48	40612.98
504.65	41308.11
504.83	41446.21
505.01	41806.65
505.18	41361.95
505.36	41986.87
505.53	41914.31
505.71	42047.72
505.88	42614.13
506.06	41794.95
506.23	42068.79
506.41	42213.90
506.58	42478.38
506.76	42616.47
506.93	43058.84
507.11	43077.56
507.28	42871.59
507.46	43171.18
507.63	43470.77
507.81	43943.56
507.98	43185.22
508.16	43543.33
508.33	43515.24
508.50	43931.86
508.68	43929.51
508.85	44580.18
509.03	44383.58
509.20	43992.71
509.38	44797.85
509.55	44800.19
509.73	45502.35
509.90	44690.19
510.08	44641.04
510.25	45069.36
510.42	45198.09
510.60	45666.19
510.77	45413.41
510.95	45715.34
511.12	45546.82
511.30	45516.40
511.47	45542.14
511.64	45696.62
511.82	46454.95
511.99	46431.55
512.17	45989.19
512.34	46162.39
512.51	46946.47
512.69	46801.35
512.86	46696.03
513.04	47267.12
513.21	47075.19
513.38	47138.39
513.56	47370.10
513.73	47194.56
513.90	47662.67
514.08	47241.37
514.25	47655.65
514.43	47693.10
514.60	47620.54
514.77	48004.39
514.95	48362.49
515.12	48299.30
515.29	48009.07
515.47	48460.79
515.64	48423.34
515.81	48100.35
515.99	48552.07
516.16	48968.69
516.33	48650.38
516.51	49137.21
516.68	48851.66
516.85	48921.88
517.03	49237.85
517.20	49006.14
517.37	48846.98
517.54	49647.44
517.72	49645.10
517.89	49303.38
518.06	49624.04
518.24	49773.83
518.41	49415.73
518.58	49982.14
518.75	49759.79
518.93	49970.44
519.10	50045.33
519.27	50040.65
519.45	50042.99
519.62	50358.97
519.79	50204.49
519.96	50405.78
520.14	50529.83
520.31	50518.12
520.48	50822.39
520.65	50244.28
520.83	50806.01
521.00	51145.39
521.17	50937.08
521.34	51126.66
521.52	51147.73
521.69	51344.33
521.86	51332.63
522.03	51774.99
522.20	51681.37
522.38	51718.82
522.55	51805.42
522.72	51756.27
522.89	51634.56
523.07	52156.50
523.24	51976.28
523.41	51760.95
523.58	51856.91
523.75	52217.35
523.92	52360.12
524.10	52247.78
524.27	52060.54
524.44	52231.40
524.61	52631.63
524.78	52486.51
524.96	52587.16
525.13	52720.57
525.30	52507.58
525.47	53148.88
525.64	52774.40
525.81	52636.31
525.98	53174.63
526.16	53207.40
526.33	52949.94
526.50	53408.68
526.67	53022.50
526.84	53242.51
527.01	53319.74
527.18	53179.31
527.36	53509.33
527.53	53499.97
527.70	53914.24
527.87	53570.18
528.04	53092.71
528.21	53666.14
528.38	53633.38
528.55	53773.81
528.72	53673.16
528.89	53696.57
529.07	53778.49
529.24	53883.81
529.41	53982.12
529.58	53729.34
529.75	53982.12
529.92	54145.95
530.09	54234.89
530.26	54412.77
530.43	54351.92
530.60	54148.29
530.77	54372.99
530.94	54588.31
531.11	54192.76
531.28	54433.84
531.46	54532.14
531.63	54262.98
531.80	54515.76
531.97	54761.51
532.14	54852.80
532.31	54766.20
532.48	54939.39
532.65	55061.10
532.82	54759.17
532.99	54899.61
533.16	55007.27
533.33	55388.78
533.50	55154.72
533.67	55021.31
533.84	55231.96
534.01	55215.58
534.18	55100.89
534.35	55512.83
534.52	55379.42
534.69	55302.18
534.86	55407.50
535.03	55430.91
535.20	55482.40
535.37	55583.04
535.54	55744.54
535.71	55444.95
535.88	55966.89
536.05	55676.66
536.22	56025.40
536.38	55854.54
536.55	55852.20
536.72	56116.68
536.89	55648.58
537.06	55927.10
537.23	55835.82
537.40	55861.57
537.57	55945.83
537.74	56002.00
537.91	56224.35
538.08	56210.31
538.25	55901.36
538.42	56144.77
538.59	56456.06
538.75	56200.94
538.92	56175.20
539.09	56552.02
539.26	56458.40
539.43	56474.79
539.60	56540.32
539.77	56774.37
539.94	56509.89
540.11	56619.90
540.28	56662.03
540.44	56900.76
540.61	56753.31
540.78	56568.41
540.95	56683.09
541.12	56547.34
541.29	56921.83
541.46	56619.90
541.62	56783.74
541.79	56996.73
541.96	56601.18
542.13	56605.86
542.30	56746.29
542.47	57078.64
542.63	57181.63
542.80	57303.34
542.97	57315.04
543.14	57336.10
543.31	57427.38
543.48	57305.68
543.64	57612.29
543.81	57488.24
543.98	57602.92
544.15	57614.63
544.32	57773.78
544.48	57970.39
544.65	57675.48
544.82	57858.04
544.99	57511.64
545.16	57874.43
545.32	57748.04
545.49	58078.05
545.66	57937.62
545.83	57731.65
546.00	58078.05
546.16	58028.90
546.33	57783.15
546.50	57743.36
546.67	57972.73
546.83	57750.38
547.00	57993.79
547.17	58141.25
547.34	58005.50
547.50	58358.92
547.67	58302.74
547.84	58064.01
548.00	58274.66
548.17	58550.84
548.34	58370.62
548.51	58431.47
548.67	58518.07
548.84	58415.09
549.01	58356.58
549.18	58370.62
549.34	58436.16
549.51	58541.48
549.68	58588.29
549.84	58595.31
550.01	58763.83
550.18	58548.50
550.34	58801.28
550.51	58642.12
550.68	58518.07
550.84	58447.86
551.01	58960.44
551.18	58820.00
551.34	58810.64
551.51	58843.41
551.68	58824.68
551.84	58717.02
552.01	58766.17
552.18	58611.70
552.34	58525.10
552.51	58941.71
552.68	58726.38
552.84	58883.20
553.01	59133.63
553.18	59054.06
553.34	59121.93
553.51	58890.22
553.67	59056.40
553.84	59058.74
554.01	59372.37
554.17	59320.88
554.34	59267.05
554.51	59327.90
554.67	59208.53
554.84	59185.13
555.00	59117.25
555.17	59021.29
555.33	59114.91
555.50	59054.06
555.67	59114.91
555.83	59229.60
556.00	59248.32
556.16	59737.49
556.33	59587.70
556.50	59510.46
556.66	59643.87
556.83	59292.79
556.99	59690.68
557.16	59873.24
557.32	59763.24
557.49	59756.22
557.65	59749.20
557.82	59554.93
557.98	59641.53
558.15	59583.02
558.32	59803.03
558.48	59648.55
558.65	59777.28
558.81	59737.49
558.98	59936.44
559.14	59793.67
559.31	60006.65
559.47	59966.87
559.64	60102.62
559.80	59887.29
559.97	60046.44
560.13	59866.22
560.30	59861.54
560.46	60018.36
560.63	60072.19
560.79	60053.47
560.96	60170.49
561.12	60149.43
561.29	60205.60
561.45	60182.19
561.61	60055.81
561.78	60009.00
561.94	60273.48
562.11	60023.04
562.27	60268.79
562.44	60079.21
562.60	60198.58
562.77	60346.03
562.93	59952.82
563.10	60250.07
563.26	60233.69
563.42	60390.50
563.59	60198.58
563.75	60310.92
563.92	60210.28
564.08	60163.47
564.24	60458.38
564.41	60273.48
564.57	60329.65
564.74	60308.58
564.90	60465.40
565.07	60441.99
565.23	60282.84
565.39	60383.48
565.56	60406.89
565.72	60310.92
565.88	60484.12
566.05	60196.24
566.21	60563.70
566.38	60598.81
566.54	60516.89
566.70	60809.46
566.87	60711.16
567.03	60456.04
567.19	60870.31
567.36	60659.66
567.52	60367.10
567.68	60893.72
567.85	60577.75
568.01	60530.93
568.17	60715.84
568.34	60427.95
568.50	60514.55
568.66	60662.00
568.83	60704.13
568.99	60523.91
569.15	60472.42
569.32	60722.86
569.48	60753.29
569.64	60746.26
569.81	60559.02
569.97	60643.28
570.13	60757.97
570.30	60561.36
570.46	60755.63
570.62	60666.69
570.78	60977.98
570.95	60697.11
571.11	60924.14
571.27	60732.22
571.43	60874.99
571.60	60992.02
571.76	60781.37
571.92	61045.85
572.09	60652.64
572.25	60982.66
572.41	60718.18
572.57	60830.52
572.74	61113.73
572.90	60900.74
573.06	60757.97
573.22	60830.52
573.38	61010.74
573.55	60839.89
573.71	61038.83
573.87	61015.43
574.03	60797.76
574.20	60905.42
574.36	60814.14
574.52	61092.66
574.68	60975.64
574.84	60989.68
575.01	61015.43
575.17	60977.98
575.33	60961.59
575.49	60804.78
575.65	61137.13
575.82	61111.39
575.98	60931.17
576.14	61209.69
576.30	61202.67
576.46	60900.74
576.62	60966.27
576.79	61010.74
576.95	60736.90
577.11	61057.56
577.27	61144.16
577.43	61043.51
577.59	60968.61
577.75	60938.19
577.92	61006.06
578.08	60912.44
578.24	61073.94
578.40	61181.60
578.56	61176.92
578.72	61205.01
578.88	61193.31
579.04	61219.05
579.21	60821.16
579.37	61256.50
579.53	61242.46
579.69	60966.27
579.85	61029.47
580.01	61095.00
580.17	60879.67
580.33	61202.67
580.49	61167.56
580.65	61268.20
580.82	61069.26
580.98	60985.00
581.14	61102.03
581.30	61270.54
581.46	61167.56
581.62	61219.05
581.78	61062.24
581.94	61209.69
582.10	61092.66
582.26	61254.16
582.42	61020.11
582.58	61169.90
582.74	61401.61
582.90	61282.25
583.06	61284.59
583.22	61205.01
583.38	61111.39
583.54	61268.20
583.70	61373.53
583.86	61130.11
584.02	61134.79
584.18	61298.63
584.34	61242.46
584.50	61069.26
584.66	61090.32
584.82	61038.83
584.98	61195.65
585.14	61291.61
585.30	61015.43
585.46	61219.05
585.62	61153.52
585.78	61268.20
585.94	61010.74
586.10	61272.88
586.26	61270.54
586.42	61268.20
586.58	61359.48
586.74	61284.59
586.90	61230.75
587.06	61326.72
587.22	61399.27
587.38	61251.82
587.54	61394.59
587.70	61446.08
587.86	61279.91
588.02	61333.74
588.18	61413.32
588.34	61317.35
588.49	61436.72
