SpectraSuite Data File
++++++++++++++++++++++++++++++++++++
Date: Fri Oct 25 10:44:37 EDT 2013
User: price-jones
Dark Spectrum Present: No
Reference Spectrum Present: No
Number of Sampled Component Spectra: 1
Spectrometers: USB2+H05261
Integration Time (usec): 100000 (USB2+H05261)
Spectra Averaged: 1 (USB2+H05261)
Boxcar Smoothing: 0 (USB2+H05261)
Correct for Electrical Dark: No (USB2+H05261)
Strobe/Lamp Enabled: No (USB2+H05261)
Correct for Detector Non-linearity: No (USB2+H05261)
Correct for Stray Light: No (USB2+H05261)
Number of Pixels in Processed Spectrum: 2048
>>>>>Begin Processed Spectral Data<<<<<
365.73	149.79
365.92	149.79
366.12	149.79
366.32	35.11
366.52	23.41
366.72	65.54
366.91	16.38
367.11	72.56
367.31	0.00
367.51	46.81
367.70	14.04
367.90	0.00
368.10	7.02
368.30	30.43
368.49	4.68
368.69	65.54
368.89	0.00
369.09	100.64
369.28	81.92
369.48	81.92
369.68	63.19
369.87	124.05
370.07	23.41
370.27	79.58
370.47	173.20
370.66	414.27
370.86	407.25
371.06	428.32
371.25	402.57
371.45	428.32
371.65	430.66
371.84	379.17
372.04	470.45
372.24	484.49
372.44	491.51
372.63	507.90
372.83	440.02
373.03	449.38
373.22	447.04
373.42	468.11
373.62	519.60
373.81	514.92
374.01	531.30
374.21	545.34
374.40	479.81
374.60	545.34
374.79	566.41
374.99	526.62
375.19	582.79
375.38	435.34
375.58	624.92
375.78	538.32
375.97	550.03
376.17	641.31
376.37	634.29
376.56	667.05
376.76	580.45
376.95	589.82
377.15	606.20
377.35	554.71
377.54	648.33
377.74	634.29
377.93	575.77
378.13	559.39
378.33	587.47
378.52	676.41
378.72	599.18
378.91	599.18
379.11	615.56
379.31	526.62
379.50	643.65
379.70	615.56
379.89	603.86
380.09	627.26
380.28	617.90
380.48	634.29
380.68	603.86
380.87	610.88
381.07	655.35
381.26	620.24
381.46	620.24
381.65	674.07
381.85	636.63
382.04	662.37
382.24	655.35
382.43	657.69
382.63	667.05
382.83	706.84
383.02	718.54
383.22	716.20
383.41	697.48
383.61	641.31
383.80	627.26
384.00	674.07
384.19	681.10
384.39	774.72
384.58	725.57
384.78	751.31
384.97	763.01
385.17	814.51
385.36	709.18
385.56	812.17
385.75	763.01
385.95	741.95
386.14	748.97
386.34	760.67
386.53	767.70
386.72	781.74
386.92	807.48
387.11	793.44
387.31	788.76
387.50	730.25
387.70	716.20
387.89	774.72
388.09	847.27
388.28	784.08
388.48	788.76
388.67	917.49
388.86	814.51
389.06	901.11
389.25	875.36
389.45	800.46
389.64	884.72
389.84	954.94
390.03	863.66
390.22	940.90
390.42	929.19
390.61	866.00
390.81	901.11
391.00	917.49
391.19	964.30
391.39	924.51
391.58	1008.77
391.78	933.87
391.97	992.39
392.16	905.79
392.36	971.32
392.55	961.96
392.75	922.17
392.94	933.87
393.13	978.34
393.33	961.96
393.52	1006.43
393.71	1036.86
393.91	1022.81
394.10	1015.79
394.29	1001.75
394.49	1022.81
394.68	1071.97
394.88	1060.26
395.07	1135.16
395.26	1102.39
395.46	1067.28
395.65	1151.54
395.84	1123.46
396.04	1177.29
396.23	950.26
396.42	1041.54
396.62	1238.14
396.81	1170.27
397.00	1104.73
397.19	1118.78
397.39	1203.04
397.58	1259.21
397.77	1240.48
397.97	1303.68
398.16	1212.40
398.35	1196.01
398.55	1280.27
398.74	1313.04
398.93	1434.75
399.12	1364.53
399.32	1287.29
399.51	1327.08
399.70	1416.02
399.90	1420.71
400.09	1430.07
400.28	1493.26
400.47	1348.15
400.67	1401.98
400.86	1481.56
401.05	1490.92
401.24	1418.36
401.44	1511.99
401.63	1364.53
401.82	1462.83
402.01	1497.94
402.21	1500.28
402.40	1556.46
402.59	1519.01
402.78	1535.39
402.97	1530.71
403.17	1549.43
403.36	1577.52
403.55	1647.74
403.74	1778.81
403.93	1643.06
404.13	1687.53
404.32	1603.27
404.51	1535.39
404.70	1668.80
404.89	1792.85
405.09	1760.08
405.28	1739.02
405.47	1645.40
405.66	1764.76
405.85	1748.38
406.05	1813.92
406.24	1762.42
406.43	1842.00
406.62	1781.15
406.81	1998.82
407.00	1870.09
407.20	1717.95
407.39	1830.30
407.58	1912.22
407.77	1839.66
407.96	1961.37
408.15	2085.42
408.34	2022.22
408.54	1935.62
408.73	2012.86
408.92	2015.20
409.11	1961.37
409.30	2059.67
409.49	2015.20
409.68	2012.86
409.87	2143.93
410.07	2099.46
410.26	2176.70
410.45	2148.61
410.64	2223.51
410.83	2160.31
411.02	2321.81
411.21	2256.28
411.40	2253.94
411.59	2167.34
411.78	2270.32
411.98	2333.51
412.17	2349.90
412.36	2403.73
412.55	2480.97
412.74	2368.62
412.93	2518.42
413.12	2427.14
413.31	2576.93
413.50	2513.74
413.69	2607.36
413.88	2614.38
414.07	2605.02
414.26	2731.41
414.45	2647.15
414.64	2593.31
414.83	2670.55
415.02	2649.49
415.22	2689.28
415.41	2878.86
415.60	2768.85
415.79	2834.39
415.98	2883.54
416.17	2808.64
416.36	2928.01
416.55	2942.05
416.74	2867.16
416.93	2878.86
417.12	2946.73
417.31	3005.25
417.50	2944.39
417.69	3028.65
417.88	3042.70
418.07	3124.62
418.26	3119.93
418.45	3145.68
418.64	3234.62
418.83	3197.17
419.02	3208.87
419.21	3316.54
419.39	3201.85
419.58	3232.28
419.77	3173.77
419.96	3269.73
420.15	3241.64
420.34	3260.37
420.53	3328.24
420.72	3440.59
420.91	3485.06
421.10	3396.12
421.29	3543.57
421.48	3372.71
421.67	3342.28
421.86	3232.28
422.05	3510.80
422.24	3506.12
422.43	3407.82
422.61	3468.67
422.80	3564.64
422.99	3473.36
423.18	3529.53
423.37	3538.89
423.56	3508.46
423.75	3499.10
423.94	3405.48
424.13	3332.92
424.32	3358.67
424.50	3644.21
424.69	3592.72
424.88	3599.74
425.07	3520.17
425.26	3618.47
425.45	3501.44
425.64	3602.08
425.83	3620.81
426.01	3562.30
426.20	3702.73
426.39	3592.72
426.58	3499.10
426.77	3520.17
426.96	3602.08
427.15	3623.15
427.33	3641.87
427.52	3634.85
427.71	3824.44
427.90	3789.33
428.09	3812.73
428.28	3850.18
428.46	3873.59
428.65	3784.65
428.84	3824.44
429.03	3896.99
429.22	3808.05
429.40	3873.59
429.59	3742.52
429.78	3531.87
429.97	3627.83
430.16	3714.43
430.34	3812.73
430.53	3878.27
430.72	3782.31
430.91	3740.18
431.10	3859.54
431.28	4191.90
431.47	4297.22
431.66	4292.54
431.85	4159.13
432.03	4126.36
432.22	4311.27
432.41	4201.26
432.60	4182.54
432.79	4276.16
432.97	4297.22
433.16	4189.56
433.35	4315.95
433.54	4280.84
433.72	4177.86
433.91	4231.69
434.10	4271.48
434.28	4325.31
434.47	4259.78
434.66	4475.10
434.85	4341.69
435.03	4425.95
435.22	4437.66
435.41	4470.42
435.59	4521.92
435.78	4395.53
435.97	4561.70
436.16	4514.89
436.34	4699.80
436.53	4720.86
436.72	4589.79
436.90	4622.56
437.09	4528.94
437.28	4484.47
437.46	4713.84
437.65	4779.37
437.84	4683.41
438.02	4739.58
438.21	4734.90
438.40	4561.70
438.58	4992.36
438.77	4959.60
438.96	4985.34
439.14	4997.04
439.33	5097.69
439.52	5088.32
439.70	4964.28
439.89	5151.52
440.08	5186.63
440.26	5193.65
440.45	5193.65
440.63	5226.42
440.82	5364.51
441.01	5455.79
441.19	5317.70
441.38	5483.88
441.57	5378.55
441.75	5692.18
441.94	5610.26
442.12	5692.18
442.31	5607.92
442.50	5673.46
442.68	5511.96
442.87	5867.72
443.05	5682.82
443.24	5734.31
443.43	5769.42
443.61	5689.84
443.80	5923.90
443.98	5699.20
444.17	5563.45
444.35	5959.00
444.54	5961.34
444.73	5870.06
444.91	6003.47
445.10	5942.62
445.28	5898.15
445.47	5556.43
445.65	5844.32
445.84	5898.15
446.02	5895.81
446.21	6026.88
446.39	6017.52
446.58	6076.03
446.77	5844.32
446.95	5827.93
447.14	5977.73
447.32	6134.54
447.51	6097.10
447.69	5947.30
447.88	5942.62
448.06	6085.39
448.25	6076.03
448.43	5975.39
448.62	6097.10
448.80	6146.25
448.99	6069.01
449.17	6211.78
449.36	6181.35
449.54	6312.42
449.73	6333.49
449.91	6359.24
450.10	6457.54
450.28	6483.28
450.46	6569.88
450.65	6604.99
450.83	6429.45
451.02	6314.77
451.20	6679.89
451.39	6455.20
451.57	6293.70
451.76	6373.28
451.94	6459.88
452.13	6546.48
452.31	6441.15
452.49	6307.74
452.68	6572.22
452.86	6504.35
453.05	6581.59
453.23	6602.65
453.42	6628.40
453.60	6656.48
453.78	6743.08
453.97	6567.54
454.15	6661.16
454.34	6649.46
454.52	6731.38
454.70	6958.41
454.89	6766.49
455.07	6808.62
455.26	6909.26
455.44	7005.22
455.62	6937.35
455.81	7049.69
455.99	6874.15
456.17	7124.59
456.36	6923.30
456.54	7171.40
456.73	7288.43
456.91	7323.54
457.09	7185.44
457.28	7435.88
457.46	7159.70
457.64	7410.14
457.83	7309.49
458.01	7283.75
458.19	7508.44
458.38	7339.92
458.56	7412.48
458.74	7445.24
458.93	7396.09
459.11	7536.52
459.29	7454.61
459.48	7592.70
459.66	7513.12
459.84	7716.75
460.03	7772.92
460.21	7719.09
460.39	7733.13
460.57	7693.34
460.76	7510.78
460.94	7662.91
461.12	7892.29
461.31	7815.05
461.49	7669.94
461.67	7854.84
461.85	8006.97
462.04	7964.84
462.22	7950.80
462.40	8018.68
462.59	8056.12
462.77	8037.40
462.95	7892.29
463.13	8032.72
463.32	8170.81
463.50	8210.60
463.68	8264.43
463.86	8210.60
464.05	8042.08
464.23	8060.80
464.41	8098.25
464.59	8133.36
464.78	8365.07
464.96	8044.42
465.14	8138.04
465.32	8393.16
465.50	8189.53
465.69	8645.94
465.87	8170.81
466.05	8393.16
466.23	8332.31
466.41	8430.61
466.60	8397.84
466.78	8273.79
466.96	8510.19
467.14	8622.53
467.32	8514.87
467.51	8762.97
467.69	8535.93
467.87	8652.96
468.05	8472.74
468.23	8528.91
468.41	8535.93
468.60	8767.65
468.78	8858.93
468.96	8659.98
469.14	8739.56
469.32	8924.46
469.50	8498.49
469.69	8975.95
469.87	8875.31
470.05	9149.15
470.23	8982.98
470.41	8978.30
470.59	9167.88
470.77	9097.66
470.95	9137.45
471.14	9385.55
471.32	8915.10
471.50	9179.58
471.68	9249.80
471.86	9357.46
472.04	9301.29
472.22	9549.39
472.40	9266.18
472.58	9378.53
472.77	9483.85
472.95	9666.41
473.13	9654.71
473.31	9591.52
473.49	9633.64
473.67	9701.52
473.85	9858.34
474.03	10101.75
474.21	10071.33
474.39	10162.61
474.57	9966.00
474.75	10303.04
474.93	10377.94
475.12	10033.88
475.30	10232.82
475.48	10413.04
475.66	10270.27
475.84	10469.22
476.02	10424.75
476.20	10560.50
476.38	10590.92
476.56	10925.62
476.74	10724.33
476.92	10576.88
477.10	10822.64
477.28	11077.76
477.46	10993.50
477.64	11206.48
477.82	11194.78
478.00	11506.07
478.18	11417.13
478.36	11396.07
478.54	11613.74
478.72	11389.05
478.90	11927.37
479.08	11836.09
479.26	11822.05
479.44	12018.65
479.62	11988.22
479.80	11978.86
479.98	12432.93
480.16	12444.63
480.34	12248.02
480.52	12479.74
480.70	12652.94
480.88	12351.01
481.06	12788.69
481.24	12699.75
481.41	13076.57
481.59	13004.02
481.77	13027.42
481.95	13137.43
482.13	13228.71
482.31	13345.73
482.49	13605.53
482.67	13701.50
482.85	13556.38
483.03	13755.33
483.21	13963.64
483.39	13891.08
483.57	14045.55
483.74	14335.78
483.92	14160.24
484.10	14310.04
484.28	14251.52
484.46	14792.19
484.64	15040.28
484.82	14672.82
485.00	14988.79
485.18	15248.59
485.35	15161.99
485.53	15122.20
485.71	15000.49
485.89	15545.84
486.07	15396.04
486.25	15302.42
486.43	15288.38
486.61	15625.42
486.78	15910.96
486.96	15791.59
487.14	16381.41
487.32	16425.88
487.50	16460.99
487.68	16746.53
487.85	16669.30
488.03	17015.69
488.21	17085.91
488.39	16971.22
488.57	17455.72
488.75	17490.82
488.92	17558.70
489.10	17755.30
489.28	17809.14
489.46	17987.02
489.64	18200.01
489.81	18328.74
489.99	18218.73
490.17	18672.79
490.35	18979.40
490.53	18586.19
490.70	18806.20
490.88	19035.58
491.06	19073.03
491.24	19082.39
491.41	18941.96
491.59	19105.79
491.77	19164.31
491.95	19702.63
492.13	19489.64
492.30	20020.94
492.48	19955.41
492.66	20292.44
492.84	20020.94
493.01	20327.55
493.19	20297.13
493.37	20617.78
493.54	20760.55
493.72	20926.73
493.90	20779.28
494.08	21146.74
494.25	21177.17
494.43	21256.75
494.61	21294.19
494.79	21577.40
494.96	21514.20
495.14	21528.25
495.32	21865.28
495.49	22045.51
495.67	21958.91
495.85	22300.62
496.02	22408.29
496.20	22452.76
496.38	22520.63
496.55	22588.51
496.73	23377.27
496.91	22815.54
497.09	22941.93
497.26	23239.18
497.44	23290.67
497.62	23161.94
497.79	23585.58
497.97	23206.41
498.14	23374.93
498.32	23580.90
498.50	23922.62
498.67	23749.42
498.85	23875.80
499.03	24212.84
499.20	24070.07
499.38	24400.08
499.56	24367.32
499.73	24261.99
499.91	24463.28
500.08	24929.05
500.26	24491.37
500.44	24662.22
500.61	24856.49
500.79	24606.05
500.97	25097.56
501.14	25116.29
501.32	25448.64
501.49	25170.12
501.67	25280.13
501.84	25439.28
502.02	25518.86
502.20	25472.05
502.37	25692.06
502.55	25689.72
502.72	25816.11
502.90	26387.20
503.07	25919.09
503.25	26307.62
503.43	25991.65
503.60	26223.36
503.78	25862.92
503.95	26443.37
504.13	26153.15
504.30	26749.98
504.48	26719.56
504.65	26890.41
504.83	27019.14
505.01	26977.01
505.18	27023.83
505.36	27138.51
505.53	27253.20
505.71	27513.00
505.88	27520.02
506.06	27232.13
506.23	27388.95
506.41	27241.50
506.58	27618.32
506.76	28173.03
506.93	27850.03
507.11	27770.46
507.28	27756.41
507.46	27828.97
507.63	27988.13
507.81	28226.86
507.98	27875.78
508.16	28180.05
508.33	28196.43
508.50	28709.01
508.68	28613.05
508.85	28896.25
509.03	29034.35
509.20	28779.23
509.38	28910.30
509.55	29240.31
509.73	29469.69
509.90	29027.32
510.08	29039.03
510.25	28929.02
510.42	29497.77
510.60	29575.01
510.77	29415.85
510.95	29865.24
511.12	29610.12
511.30	29893.32
511.47	30300.58
511.64	30120.35
511.82	29818.42
511.99	29804.38
512.17	30242.06
512.34	29874.60
512.51	30494.84
512.69	30764.00
512.86	30438.67
513.04	30583.78
513.21	30778.04
513.38	30735.92
513.56	30663.36
513.73	30646.97
513.90	30733.57
514.08	30717.19
514.25	30899.75
514.43	31131.47
514.60	31295.30
514.77	31168.91
514.95	31372.54
515.12	31386.58
515.29	31405.31
515.47	31962.36
515.64	31662.77
515.81	31601.91
515.99	31683.83
516.16	31585.53
516.33	31461.48
516.51	31997.46
516.68	31674.47
516.85	31491.91
517.03	31508.29
517.20	31964.70
517.37	31997.46
517.54	31852.35
517.72	32194.07
517.89	32053.64
518.06	31807.88
518.24	32767.50
518.41	32624.73
518.58	32641.11
518.75	32294.71
518.93	32924.32
519.10	32643.45
519.27	32816.65
519.45	32910.27
519.62	33029.64
519.79	33233.27
519.96	33041.34
520.14	33427.53
520.31	33209.86
520.48	33280.08
520.65	33137.30
520.83	33383.06
521.00	33701.37
521.17	33446.26
521.34	33940.11
521.52	33535.20
521.69	33694.35
521.86	34190.55
522.03	34031.39
522.20	34340.34
522.38	34375.45
522.55	33982.24
522.72	34239.70
522.89	34085.22
523.07	34595.46
523.24	34572.05
523.41	34813.13
523.58	34602.48
523.75	34529.92
523.92	34607.16
524.10	35131.44
524.27	34747.59
524.44	34686.74
524.61	35337.41
524.78	35014.41
524.96	34995.69
525.13	35180.59
525.30	34972.28
525.47	35367.84
525.64	35620.61
525.81	35204.00
525.98	35550.40
526.16	35227.40
526.33	35807.86
526.50	35225.06
526.67	35143.14
526.84	35215.70
527.01	35211.02
527.18	35761.05
527.36	36034.89
527.53	35676.79
527.70	36573.21
527.87	36320.43
528.04	35756.36
528.21	35948.29
528.38	36610.66
528.55	36140.21
528.72	36594.28
528.89	36737.05
529.07	36369.58
529.24	36392.99
529.41	36350.86
529.58	36488.95
529.75	36203.41
529.92	36856.42
530.09	36692.58
530.26	36821.31
530.43	36715.98
530.60	36921.95
530.77	36744.07
530.94	37326.86
531.11	36994.51
531.28	36783.86
531.46	37158.34
531.63	37493.04
531.80	37762.20
531.97	37085.79
532.14	37277.71
532.31	37457.93
532.48	37338.57
532.65	37415.80
532.82	37453.25
532.99	37921.36
533.16	37549.21
533.33	37933.06
533.50	37839.44
533.67	37785.61
533.84	37558.58
534.01	37729.44
534.18	37385.38
534.35	38050.09
534.52	38157.75
534.69	38377.76
534.86	38094.56
535.03	37961.15
535.20	38263.08
535.37	38307.55
535.54	38550.96
535.71	38340.32
535.88	38520.54
536.05	38555.64
536.22	38288.82
536.38	38124.99
536.55	38560.33
536.72	38223.29
536.89	38410.53
537.06	38300.53
537.23	38494.79
537.40	38742.89
537.57	38653.95
537.74	38609.48
537.91	39023.75
538.08	39395.90
538.25	38927.79
538.42	39178.23
538.59	38672.67
538.75	39023.75
538.92	38916.09
539.09	39182.91
539.26	39234.40
539.43	39431.01
539.60	39620.59
539.77	38789.70
539.94	39218.02
540.11	38913.75
540.28	39431.01
540.44	39138.44
540.61	39321.00
540.78	39398.24
540.95	39445.05
541.12	39056.52
541.29	39522.29
541.46	39756.34
541.62	39981.03
541.79	39473.13
541.96	39517.60
542.13	39625.27
542.30	39831.24
542.47	39831.24
542.63	40046.57
542.80	40175.30
542.97	40409.35
543.14	40758.09
543.31	40416.37
543.48	40659.79
543.64	40624.68
543.81	40795.54
543.98	40919.59
544.15	40561.48
544.32	40580.21
544.48	40961.72
544.65	40502.97
544.82	40889.16
544.99	40769.79
545.16	41174.70
545.32	40308.71
545.49	41343.22
545.66	41188.75
545.83	41443.87
546.00	41553.87
546.16	41191.09
546.33	40645.74
546.50	40783.83
546.67	41256.62
546.83	40772.13
547.00	40903.20
547.17	41048.32
547.34	40919.59
547.50	41074.06
547.67	41205.13
547.84	41207.47
548.00	41628.77
548.17	41661.54
548.34	41743.45
548.51	41736.43
548.67	41361.95
548.84	41507.06
549.01	41610.04
549.18	41745.80
549.34	41514.08
549.51	41624.09
549.68	41553.87
549.84	41706.01
550.01	41916.65
550.18	41593.66
550.34	41612.38
550.51	42157.73
550.68	42099.22
550.84	41581.96
551.01	41942.40
551.18	41926.02
551.34	41806.65
551.51	42363.70
551.68	42131.98
551.84	42209.22
552.01	42298.16
552.18	41993.89
552.34	42232.63
552.51	42129.64
552.68	42115.60
552.84	42359.02
553.01	42726.48
553.18	42607.11
553.34	42445.62
553.51	42134.32
553.67	42246.67
553.84	42745.20
554.01	42557.96
554.17	42344.97
554.34	42328.59
554.51	42452.64
554.67	42766.27
554.84	42707.76
555.00	42653.92
555.17	42848.19
555.33	42600.09
555.50	42373.06
555.67	43014.37
555.83	42944.15
556.00	43007.34
556.16	43246.08
556.33	42621.16
556.50	42483.06
556.66	43143.09
556.83	42773.29
556.99	42738.18
557.16	43056.50
557.32	43168.84
557.49	43051.81
557.65	42988.62
557.82	43210.97
557.98	43253.10
558.15	43311.61
558.32	43480.13
558.48	43093.94
558.65	43035.43
558.81	43356.08
558.98	42838.83
559.14	42843.51
559.31	43288.21
559.47	43145.44
559.64	43859.30
559.80	43356.08
559.97	43494.18
560.13	43194.59
560.30	43136.07
560.46	43524.60
560.63	43704.82
560.79	43524.60
560.96	43615.88
561.12	43580.78
561.29	43749.29
561.45	43597.16
561.61	43445.02
561.78	43597.16
561.94	43419.28
562.11	43571.41
562.27	43620.56
562.44	43419.28
562.60	43838.23
562.77	43835.89
562.93	43611.20
563.10	43540.99
563.26	43349.06
563.42	43732.91
563.59	43414.60
563.75	43438.00
563.92	43683.76
564.08	43854.62
564.24	44006.75
564.41	43562.05
564.57	43847.60
564.74	43999.73
564.90	44287.62
565.07	43871.00
565.23	43831.21
565.39	43868.66
565.56	43728.23
565.72	43695.46
565.88	43569.07
566.05	43950.58
566.21	43878.02
566.38	43634.61
566.54	43950.58
566.70	43988.03
566.87	44226.76
567.03	43938.88
567.19	44304.00
567.36	44168.25
567.52	43620.56
567.68	43618.22
567.85	43590.14
568.01	43629.93
568.17	43730.57
568.34	44098.03
568.50	44091.01
568.66	43859.30
568.83	43945.90
568.99	43627.59
569.15	43735.25
569.32	43861.64
569.48	43842.92
569.64	44137.82
569.81	44694.87
569.97	44147.18
570.13	44053.56
570.30	43821.85
570.46	44278.25
570.62	43714.19
570.78	43721.21
570.95	44011.43
571.11	44774.45
571.27	44074.63
571.43	44055.90
571.60	44140.16
571.76	44273.57
571.92	44425.71
572.09	44074.63
572.25	44275.91
572.41	43826.53
572.57	43878.02
572.74	44931.26
572.90	44179.95
573.06	44224.42
573.22	44053.56
573.38	44362.51
573.55	44184.63
573.71	44236.12
573.87	44751.04
574.03	43824.19
574.20	44463.16
574.36	44128.46
574.52	44264.21
574.68	44201.02
574.84	44428.05
575.01	44329.75
575.17	44308.68
575.33	43917.81
575.49	44046.54
575.65	44446.77
575.82	44521.67
575.98	44165.91
576.14	44577.84
576.30	44467.84
576.46	43728.23
576.62	44737.00
576.79	44376.56
576.95	43739.93
577.11	44355.49
577.27	44374.22
577.43	44629.34
577.59	44130.80
577.75	44076.97
577.92	43770.36
578.08	44238.47
578.24	44524.01
578.40	44032.50
578.56	44343.79
578.72	44135.48
578.88	44568.48
579.04	44701.89
579.21	44315.70
579.37	44332.09
579.53	44390.60
579.69	44341.45
579.85	44041.86
580.01	44292.30
580.17	44432.73
580.33	44463.16
580.49	44371.88
580.65	44542.74
580.82	44760.40
580.98	44201.02
581.14	44392.94
581.30	44720.62
581.46	44596.57
581.62	44437.41
581.78	44470.18
581.94	44472.52
582.10	44186.97
582.26	44645.72
582.42	44172.93
582.58	44505.29
582.74	44142.50
582.90	44839.98
583.06	44147.18
583.22	44931.26
583.38	44788.49
583.54	44505.29
583.70	44566.14
583.86	44378.90
584.02	44130.80
584.18	44940.63
584.34	44294.64
584.50	44540.39
584.66	44538.05
584.82	44348.47
584.98	44395.28
585.14	44509.97
585.30	44507.63
585.46	44629.34
585.62	44526.35
585.78	44332.09
585.94	44119.10
586.10	44521.67
586.26	44294.64
586.42	44486.56
586.58	44891.48
586.74	44343.79
586.90	44463.16
587.06	44608.27
587.22	44676.15
587.38	44194.00
587.54	44091.01
587.70	44741.68
587.86	44453.79
588.02	44568.48
588.18	44664.44
588.34	44275.91
588.49	44348.47
588.65	43920.15
588.81	44032.50
588.97	44411.67
589.13	44524.01
589.29	44341.45
589.45	44814.24
589.61	44430.39
589.77	44959.35
589.93	44591.89
590.08	44907.86
590.24	44746.36
