SpectraSuite Data File
++++++++++++++++++++++++++++++++++++
Date: Fri Oct 25 11:33:31 EDT 2013
User: price-jones
Dark Spectrum Present: No
Reference Spectrum Present: No
Number of Sampled Component Spectra: 1
Spectrometers: USB2+H05261
Integration Time (usec): 100000 (USB2+H05261)
Spectra Averaged: 1 (USB2+H05261)
Boxcar Smoothing: 0 (USB2+H05261)
Correct for Electrical Dark: No (USB2+H05261)
Strobe/Lamp Enabled: No (USB2+H05261)
Correct for Detector Non-linearity: No (USB2+H05261)
Correct for Stray Light: No (USB2+H05261)
Number of Pixels in Processed Spectrum: 2048
>>>>>Begin Processed Spectral Data<<<<<
365.73	234.05
365.92	234.05
366.12	234.05
366.32	205.97
366.52	145.11
366.72	196.60
366.91	166.18
367.11	187.24
367.31	133.41
367.51	138.09
367.70	168.52
367.90	161.50
368.10	238.73
368.30	191.92
368.49	159.16
368.69	147.45
368.89	184.90
369.09	156.82
369.28	217.67
369.48	238.73
369.68	234.05
369.87	308.95
370.07	131.07
370.27	304.27
370.47	334.70
370.66	388.53
370.86	531.30
371.06	498.53
371.25	622.58
371.45	580.45
371.65	561.73
371.84	634.29
372.04	557.05
372.24	601.52
372.44	608.54
372.63	573.43
372.83	643.65
373.03	585.13
373.22	622.58
373.42	624.92
373.62	636.63
373.81	631.94
374.01	643.65
374.21	660.03
374.40	638.97
374.60	624.92
374.79	690.46
374.99	718.54
375.19	613.22
375.38	662.37
375.58	655.35
375.78	662.37
375.97	681.10
376.17	674.07
376.37	674.07
376.56	725.57
376.76	702.16
376.95	732.59
377.15	697.48
377.35	634.29
377.54	767.70
377.74	758.33
377.93	678.76
378.13	643.65
378.33	645.99
378.52	674.07
378.72	723.23
378.91	657.69
379.11	688.12
379.31	678.76
379.50	685.78
379.70	713.86
379.89	737.27
380.09	683.44
380.28	772.38
380.48	758.33
380.68	702.16
380.87	725.57
381.07	791.10
381.26	854.30
381.46	746.63
381.65	746.63
381.85	713.86
382.04	737.27
382.24	795.78
382.43	779.40
382.63	760.67
382.83	713.86
383.02	809.83
383.22	854.30
383.41	793.44
383.61	812.17
383.80	800.46
384.00	788.76
384.19	793.44
384.39	842.59
384.58	748.97
384.78	826.21
384.97	854.30
385.17	819.19
385.36	800.46
385.56	842.59
385.75	835.57
385.95	873.02
386.14	898.77
386.34	793.44
386.53	873.02
386.72	844.93
386.92	896.43
387.11	866.00
387.31	905.79
387.50	868.34
387.70	903.45
387.89	891.74
388.09	912.81
388.28	840.25
388.48	971.32
388.67	1027.50
388.86	978.34
389.06	983.02
389.25	898.77
389.45	826.21
389.64	973.66
389.84	978.34
390.03	978.34
390.22	999.41
390.42	966.64
390.61	973.66
390.81	1048.56
391.00	903.45
391.19	1022.81
391.39	1027.50
391.58	1001.75
391.78	1020.47
391.97	1111.75
392.16	947.92
392.36	1109.41
392.55	1036.86
392.75	1076.65
392.94	1153.88
393.13	1055.58
393.33	971.32
393.52	1109.41
393.71	1153.88
393.91	1128.14
394.10	1025.15
394.29	1128.14
394.49	1149.20
394.68	1102.39
394.88	1095.37
395.07	1170.27
395.26	1207.72
395.46	1132.82
395.65	1163.25
395.84	1179.63
396.04	1233.46
396.23	1217.08
396.42	1111.75
396.62	1193.67
396.81	1245.16
397.00	1254.53
397.19	1240.48
397.39	1221.76
397.58	1214.74
397.77	1217.08
397.97	1238.14
398.16	1207.72
398.35	1252.19
398.55	1214.74
398.74	1289.64
398.93	1336.45
399.12	1383.26
399.32	1266.23
399.51	1261.55
399.70	1350.49
399.90	1434.75
400.09	1413.68
400.28	1453.47
400.47	1394.96
400.67	1369.21
400.86	1376.24
401.05	1394.96
401.24	1504.96
401.44	1458.15
401.63	1490.92
401.82	1451.13
402.01	1439.43
402.21	1483.90
402.40	1397.30
402.59	1526.03
402.78	1504.96
402.97	1458.15
403.17	1537.73
403.36	1490.92
403.55	1533.05
403.74	1568.16
403.93	1591.56
404.13	1554.12
404.32	1586.88
404.51	1694.55
404.70	1526.03
404.89	1589.22
405.09	1617.31
405.28	1652.42
405.47	1771.79
405.66	1668.80
405.85	1722.63
406.05	1750.72
406.24	1750.72
406.43	1673.48
406.62	1874.77
406.81	1940.30
407.00	1689.87
407.20	1755.40
407.39	1804.55
407.58	1900.52
407.77	1916.90
407.96	1928.60
408.15	1818.60
408.34	1898.17
408.54	1966.05
408.73	1949.67
408.92	1893.49
409.11	1987.11
409.30	1898.17
409.49	2066.69
409.68	2073.71
409.87	1935.62
410.07	2008.18
410.26	1998.82
410.45	2125.21
410.64	2195.42
410.83	2129.89
411.02	2136.91
411.21	2045.63
411.40	2040.95
411.59	2207.13
411.78	2122.87
411.98	2272.66
412.17	2202.44
412.36	2293.72
412.55	2282.02
412.74	2394.37
412.93	2349.90
413.12	2328.83
413.31	2382.67
413.50	2399.05
413.69	2401.39
413.88	2347.56
414.07	2373.30
414.26	2527.78
414.45	2572.25
414.64	2495.01
414.83	2619.06
415.02	2679.91
415.22	2626.08
415.41	2684.59
415.60	2619.06
415.79	2619.06
415.98	2787.58
416.17	2616.72
416.36	2731.41
416.55	2967.80
416.74	2733.75
416.93	2782.90
417.12	2829.71
417.31	2843.75
417.50	2913.97
417.69	2890.56
417.88	2890.56
418.07	2911.63
418.26	2913.97
418.45	2979.50
418.64	3119.93
418.83	3115.25
419.02	3049.72
419.21	3148.02
419.39	3204.19
419.58	3148.02
419.77	3014.61
419.96	3206.53
420.15	3145.68
420.34	3178.45
420.53	3204.19
420.72	3258.03
420.91	3232.28
421.10	3302.50
421.29	3136.32
421.48	3222.92
421.67	3311.86
421.86	3178.45
422.05	3234.62
422.24	3248.66
422.43	3288.45
422.61	3487.40
422.80	3403.14
422.99	3253.34
423.18	3513.14
423.37	3358.67
423.56	3358.67
423.75	3475.70
423.94	3346.97
424.13	3204.19
424.32	3197.17
424.50	3304.84
424.69	3618.47
424.88	3489.74
425.07	3466.33
425.26	3494.42
425.45	3400.80
425.64	3428.88
425.83	3445.27
426.01	3691.02
426.20	3501.44
426.39	3660.60
426.58	3473.36
426.77	3485.06
426.96	3396.12
427.15	3419.52
427.33	3531.87
427.52	3660.60
427.71	3595.06
427.90	3620.81
428.09	3583.36
428.28	3749.54
428.46	3679.32
428.65	3810.39
428.84	3808.05
429.03	3737.84
429.22	3735.50
429.40	3775.28
429.59	3672.30
429.78	3691.02
429.97	3707.41
430.16	3847.84
430.34	3812.73
430.53	3782.31
430.72	3920.40
430.91	3885.29
431.10	3859.54
431.28	3983.59
431.47	4060.83
431.66	4093.60
431.85	3932.10
432.03	4114.66
432.22	4086.58
432.41	4184.88
432.60	4039.76
432.79	4063.17
432.97	4039.76
433.16	4194.24
433.35	4175.52
433.54	4325.31
433.72	4252.75
433.91	4222.33
434.10	4161.47
434.28	4299.56
434.47	4241.05
434.66	4212.96
434.85	4320.63
435.03	4369.78
435.22	4255.09
435.41	4358.08
435.59	4329.99
435.78	4313.61
435.97	4514.89
436.16	4454.04
436.34	4376.80
436.53	4447.02
436.72	4421.27
436.90	4463.40
437.09	4451.70
437.28	4500.85
437.46	4402.55
437.65	4594.47
437.84	4554.68
438.02	4671.71
438.21	4716.18
438.40	4566.39
438.58	4868.31
438.77	4858.95
438.96	4720.86
439.14	4877.68
439.33	4884.70
439.52	4931.51
439.70	4774.69
439.89	5034.49
440.08	5078.96
440.26	5004.07
440.45	5027.47
440.63	5130.45
440.82	5111.73
441.01	4964.28
441.19	5273.23
441.38	5149.18
441.57	5226.42
441.75	5408.98
441.94	5495.58
442.12	5341.10
442.31	5420.68
442.50	5624.31
442.68	5427.70
442.87	5446.43
443.05	5423.02
443.24	5584.52
443.43	5448.77
443.61	5547.07
443.80	5666.44
443.98	5666.44
444.17	5301.31
444.35	5558.77
444.54	5753.04
444.73	5689.84
444.91	5746.02
445.10	5689.84
445.28	5650.05
445.47	5701.54
445.65	5535.37
445.84	5671.12
446.02	5858.36
446.21	5722.61
446.39	5715.59
446.58	5682.82
446.77	5832.62
446.95	5582.18
447.14	5661.76
447.32	5767.08
447.51	5645.37
447.69	5591.54
447.88	5844.32
448.06	5832.62
448.25	5783.46
448.43	5830.27
448.62	5867.72
448.80	5823.25
448.99	5799.85
449.17	5966.03
449.36	5816.23
449.54	5886.45
449.73	6057.31
449.91	5935.60
450.10	6115.82
450.28	6167.31
450.46	6101.78
450.65	6181.35
450.83	6181.35
451.02	6026.88
451.20	6169.65
451.39	6284.34
451.57	6265.61
451.76	6059.65
451.94	6195.40
452.13	6274.98
452.31	6377.96
452.49	6282.00
452.68	6293.70
452.86	6310.08
453.05	6317.11
453.23	6286.68
453.42	6352.21
453.60	6272.64
453.78	6448.18
453.97	6408.39
454.15	6345.19
454.34	6239.87
454.52	6455.20
454.70	6586.27
454.89	6677.55
455.07	6635.42
455.26	6637.76
455.44	6815.64
455.62	6771.17
455.81	6759.47
455.99	6649.46
456.17	6757.13
456.36	6661.16
456.54	6761.81
456.73	6768.83
456.91	7131.61
457.09	6916.28
457.28	7140.97
457.46	6888.20
457.64	7129.27
457.83	7005.22
458.01	7194.81
458.19	7339.92
458.38	7124.59
458.56	7105.87
458.74	7080.12
458.93	7248.64
459.11	7178.42
459.29	7143.32
459.48	7379.71
459.66	7318.86
459.84	7379.71
460.03	7386.73
460.21	7403.11
460.39	7449.93
460.57	7309.49
460.76	7421.84
460.94	7389.07
461.12	7489.71
461.31	7325.88
461.49	7480.35
461.67	7522.48
461.85	7737.81
462.04	7609.08
462.22	8203.58
462.40	7894.63
462.59	7875.90
462.77	7775.26
462.95	7922.71
463.13	7819.73
463.32	7808.03
463.50	7887.61
463.68	7922.71
463.86	7932.08
464.05	7726.11
464.23	7981.23
464.41	7992.93
464.59	7702.70
464.78	8191.88
464.96	7964.84
465.14	8018.68
465.32	8140.38
465.50	8219.96
465.69	7941.44
465.87	8180.17
466.05	8035.06
466.23	8168.47
466.41	8166.13
466.60	8322.94
466.78	7997.61
466.96	8271.45
467.14	8252.73
467.32	8215.28
467.51	8617.85
467.69	8163.79
467.87	8299.54
468.05	8449.33
468.23	8379.12
468.41	8287.84
468.60	8477.42
468.78	8758.28
468.96	8475.08
469.14	8486.78
469.32	8608.49
469.50	8517.21
469.69	8568.70
469.87	8751.26
470.05	8690.41
470.23	8741.90
470.41	8863.61
470.59	8769.99
470.77	8894.04
470.95	8713.81
471.14	8982.98
471.32	8809.78
471.50	9205.33
471.68	9109.36
471.86	9039.15
472.04	9149.15
472.22	9451.08
472.40	9081.28
472.58	9186.60
472.77	9369.16
472.95	9404.27
473.13	9767.06
473.31	9502.58
473.49	9432.36
473.67	9511.94
473.85	9600.88
474.03	9659.39
474.21	9741.31
474.39	9877.06
474.57	10118.14
474.75	9841.95
474.93	9956.64
475.12	9940.26
475.30	10033.88
475.48	10043.24
475.66	10038.56
475.84	9996.43
476.02	10118.14
476.20	10225.80
476.38	10319.42
476.56	10607.31
476.74	10473.90
476.92	10466.88
477.10	10476.24
477.28	10841.36
477.46	10817.96
477.64	10932.64
477.82	10953.71
478.00	11246.27
478.18	10967.75
478.36	11384.37
478.54	11330.53
478.72	11372.66
478.90	11669.91
479.08	11829.07
479.26	11627.78
479.44	11623.10
479.62	11913.33
479.80	12049.08
479.98	11910.99
480.16	12397.82
480.34	12198.87
480.52	12451.65
480.70	12224.62
480.88	12053.76
481.06	12388.46
481.24	12217.60
481.41	12528.89
481.59	12905.71
481.77	13071.89
481.95	12947.84
482.13	13090.62
482.31	12957.21
482.49	13554.04
482.67	13343.39
482.85	13490.85
483.03	13575.11
483.21	13848.95
483.39	13729.58
483.57	13549.36
483.74	14097.05
483.92	14057.26
484.10	14141.52
484.28	14448.13
484.46	14305.35
484.64	14743.03
484.82	14370.89
485.00	14860.06
485.18	14977.09
485.35	15110.50
485.53	15295.40
485.71	15222.84
485.89	15384.34
486.07	15349.23
486.25	15363.28
486.43	15683.93
486.61	15800.96
486.78	15756.49
486.96	15957.77
487.14	16322.90
487.32	16067.78
487.50	16229.27
487.68	16601.42
487.85	16655.25
488.03	16854.20
488.21	17132.72
488.39	16898.67
488.57	16992.29
488.75	17235.70
488.92	17188.89
489.10	17455.72
489.28	17626.57
489.46	17813.82
489.64	17759.98
489.81	18094.68
489.99	18476.19
490.17	18216.39
490.35	18401.29
490.53	18597.90
490.70	18462.15
490.88	18689.18
491.06	18918.55
491.24	19063.66
491.41	19197.07
491.59	19314.10
491.77	19384.32
491.95	19674.54
492.13	19810.29
492.30	19702.63
492.48	19903.92
492.66	19641.78
492.84	19992.86
493.01	20135.63
493.19	20173.08
493.37	20395.43
493.54	20453.94
493.72	20875.24
493.90	20535.86
494.08	20786.30
494.25	20900.98
494.43	20877.58
494.61	21429.94
494.79	21266.11
494.96	21352.71
495.14	21532.93
495.32	21600.80
495.49	22029.12
495.67	21907.41
495.85	22094.66
496.02	22305.31
496.20	22471.48
496.38	22204.66
496.55	22394.25
496.73	23096.41
496.91	22623.62
497.09	22663.41
497.26	23023.85
497.44	23056.62
497.62	23302.37
497.79	23597.28
497.97	23239.18
498.14	23641.75
498.32	23688.56
498.50	23894.53
498.67	23721.33
498.85	23892.19
499.03	24261.99
499.20	24304.12
499.38	24474.98
499.56	24306.46
499.73	24767.55
499.91	24514.77
500.08	24819.04
500.26	25057.78
500.44	24482.00
500.61	24783.93
500.79	25046.07
500.97	24833.08
501.14	25495.46
501.32	25198.21
501.49	25310.55
501.67	25706.10
501.84	25645.25
502.02	25544.61
502.20	25460.35
502.37	25823.13
502.55	25743.55
502.72	26108.68
502.90	25907.39
503.07	25956.54
503.25	26001.01
503.43	25848.88
503.60	26583.80
503.78	26508.91
503.95	26562.74
504.13	26328.69
504.30	26925.52
504.48	26925.52
504.65	26939.57
504.83	26859.99
505.01	27058.93
505.18	27337.46
505.36	27407.67
505.53	27557.47
505.71	27489.59
505.88	27681.52
506.06	27199.37
506.23	27498.95
506.41	27402.99
506.58	27901.53
506.76	27800.88
506.93	27983.44
507.11	28046.64
507.28	28615.39
507.46	28538.15
507.63	28315.80
507.81	28439.85
507.98	28390.70
508.16	28573.26
508.33	28552.20
508.50	28863.49
508.68	28704.33
508.85	28978.17
509.03	29010.94
509.20	28994.56
509.38	29284.78
509.55	29223.93
509.73	29200.52
509.90	29399.47
510.08	29240.31
510.25	29879.28
510.42	29937.79
510.60	29820.77
510.77	30178.87
510.95	30015.03
511.12	29883.96
511.30	29827.79
511.47	29933.11
511.64	30331.00
511.82	30639.95
511.99	30249.08
512.17	30616.55
512.34	30197.59
512.51	30955.93
512.69	31117.42
512.86	30918.48
513.04	30993.37
513.21	31054.23
513.38	30848.26
513.56	31119.76
513.73	30981.67
513.90	31803.20
514.08	31452.12
514.25	31379.56
514.43	31608.93
514.60	31887.46
514.77	31901.50
514.95	32067.68
515.12	31662.77
515.29	32128.53
515.47	32006.83
515.64	31924.91
515.81	31957.67
515.99	31962.36
516.16	32734.73
516.33	32390.67
516.51	32889.21
516.68	32275.99
516.85	32313.44
517.03	32510.04
517.20	32568.55
517.37	32739.41
517.54	32741.75
517.72	32807.29
517.89	33425.19
518.06	33055.39
518.24	33242.63
518.41	33296.46
518.58	32865.80
518.75	32641.11
518.93	33497.75
519.10	33273.06
519.27	33769.25
519.45	33809.04
519.62	33699.03
519.79	33603.07
519.96	33865.21
520.14	33787.97
520.31	33413.49
520.48	34363.75
520.65	34064.16
520.83	34649.29
521.00	34227.99
521.17	34052.45
521.34	34614.18
521.52	34792.06
521.69	34684.40
521.86	34841.21
522.03	34745.25
522.20	34787.38
522.38	35110.38
522.55	34855.26
522.72	34890.37
522.89	35625.29
523.07	35220.38
523.24	35590.19
523.41	35229.74
523.58	35257.83
523.75	35931.90
523.92	35267.19
524.10	35356.13
524.27	35601.89
524.44	35868.71
524.61	35695.51
524.78	35866.37
524.96	36065.31
525.13	36116.81
525.30	36362.56
525.47	35985.74
525.64	36280.64
525.81	35959.99
525.98	36456.18
526.16	36418.74
526.33	36198.73
526.50	36842.37
526.67	36261.92
526.84	36453.84
527.01	36982.80
527.18	36683.22
527.36	37109.19
527.53	36725.35
527.70	37268.35
527.87	37277.71
528.04	36935.99
528.21	37268.35
528.38	37226.22
528.55	37474.32
528.72	37579.64
528.89	37298.78
529.07	37179.41
529.24	36957.06
529.41	37771.57
529.58	37563.26
529.75	37354.95
529.92	37312.82
530.09	37457.93
530.26	37509.43
530.43	38045.41
530.60	37497.72
530.77	37446.23
530.94	38288.82
531.11	37722.41
531.28	38426.92
531.46	38188.18
531.63	38494.79
531.80	37839.44
531.97	38181.16
532.14	38057.11
532.31	37825.40
532.48	38565.01
532.65	38267.76
532.82	38265.42
532.99	38557.99
533.16	38604.80
533.33	38550.96
533.50	38590.75
533.67	38684.37
533.84	38431.60
534.01	39248.44
534.18	38841.19
534.35	39435.69
534.52	39412.28
534.69	39206.31
534.86	39423.98
535.03	39323.34
535.20	39522.29
535.37	39707.19
535.54	39388.88
535.71	39222.70
535.88	39636.97
536.05	39838.26
536.22	39952.94
536.38	40046.57
536.55	39966.99
536.72	39606.55
536.89	39761.02
537.06	39714.21
537.23	39901.45
537.40	39906.13
537.57	40016.14
537.74	40069.97
537.91	40287.64
538.08	40292.32
538.25	40163.59
538.42	40076.99
538.59	40409.35
538.75	40519.35
538.92	40725.32
539.09	41057.68
539.26	40348.50
539.43	40842.35
539.60	40259.55
539.77	40617.66
539.94	40697.24
540.11	40966.40
540.28	41001.50
540.44	40870.43
540.61	40783.83
540.78	40697.24
540.95	41146.62
541.12	40533.40
541.29	40582.55
541.46	41020.23
541.62	41230.88
541.79	41502.38
541.96	41184.07
542.13	41200.45
542.30	41265.99
542.47	41525.78
542.63	41523.44
542.80	41614.72
542.97	41895.59
543.14	41867.50
543.31	41338.54
543.48	41610.04
543.64	42347.31
543.81	42443.27
543.98	41635.79
544.15	42286.46
544.32	42403.49
544.48	42859.89
544.65	42464.34
544.82	42316.89
544.99	42122.62
545.16	42040.70
545.32	41888.57
545.49	42775.63
545.66	42857.55
545.83	42286.46
546.00	43150.12
546.16	42693.71
546.33	42487.74
546.50	41909.63
546.67	42759.25
546.83	42557.96
547.00	42679.67
547.17	42564.98
547.34	42726.48
547.50	43342.04
547.67	43487.15
547.84	43243.74
548.00	43103.31
548.17	43353.74
548.34	43676.74
548.51	43480.13
548.67	43168.84
548.84	43283.53
549.01	43236.72
549.18	43168.84
549.34	43643.97
549.51	43290.55
549.68	43739.93
549.84	43393.53
550.01	43423.96
550.18	43405.23
550.34	43407.58
550.51	43386.51
550.68	43922.49
550.84	43206.29
551.01	43709.50
551.18	43765.68
551.34	43349.06
551.51	44179.95
551.68	43992.71
551.84	43966.96
552.01	43569.07
552.18	43995.05
552.34	43819.51
552.51	44151.87
552.68	44170.59
552.84	44055.90
553.01	44533.37
553.18	43868.66
553.34	44449.11
553.51	44289.96
553.67	44549.76
553.84	44488.90
554.01	44245.49
554.17	44954.67
554.34	44624.65
554.51	44500.61
554.67	44531.03
554.84	45076.38
555.00	44692.53
555.17	44744.02
555.33	44973.39
555.50	44732.32
555.67	44589.55
555.83	45069.36
556.00	45223.83
556.16	45038.93
556.33	44767.43
556.50	45226.17
556.66	45226.17
556.83	44608.27
556.99	45305.75
557.16	45106.80
557.32	45478.95
557.49	44924.24
557.65	44657.42
557.82	44875.09
557.98	44903.18
558.15	45036.59
558.32	45287.03
558.48	45008.50
558.65	45432.14
558.81	45333.84
558.98	45406.39
559.14	45099.78
559.31	44914.88
559.47	45443.84
559.64	45284.68
559.80	45518.74
559.97	45631.08
560.13	45331.50
560.30	45713.00
560.46	45790.24
560.63	45757.47
560.79	45965.78
560.96	46190.47
561.12	45902.59
561.29	45895.56
561.45	45352.56
561.61	45617.04
561.78	45546.82
561.94	45806.62
562.11	45883.86
562.27	45703.64
562.44	46061.74
562.60	45977.48
562.77	45975.14
562.93	46054.72
563.10	46218.56
563.26	45890.88
563.42	45998.55
563.59	46003.23
563.75	45808.96
563.92	46241.96
564.08	45900.25
564.24	46223.24
564.41	45813.65
564.57	45928.33
564.74	46213.88
564.90	45801.94
565.07	46213.88
565.23	45684.92
565.39	46045.36
565.56	46190.47
565.72	46342.61
565.88	46256.01
566.05	46176.43
566.21	46340.27
566.38	46256.01
566.54	46337.93
566.70	46192.81
566.87	46209.20
567.03	46583.68
567.19	46721.77
567.36	46127.28
567.52	46384.74
567.68	46955.83
567.85	46670.28
568.01	46520.49
568.17	46897.31
568.34	46478.36
568.50	46698.37
568.66	46639.86
568.83	46504.10
568.99	46625.81
569.15	46710.07
569.32	46483.04
569.48	46337.93
569.64	46836.46
569.81	46710.07
569.97	47016.68
570.13	46824.76
570.30	46391.76
570.46	46841.14
570.62	46562.62
570.78	46857.52
570.95	46550.91
571.11	47215.63
571.27	46763.90
571.43	47065.83
571.60	46625.81
571.76	46775.61
571.92	46815.40
572.09	46476.02
572.25	46663.26
572.41	46712.41
572.57	47232.01
572.74	47206.26
572.90	47098.60
573.06	47065.83
573.22	47009.66
573.38	47107.96
573.55	47023.70
573.71	47281.16
573.87	47239.03
574.03	47288.18
574.20	47618.20
574.36	47072.85
574.52	47398.19
574.68	46869.23
574.84	46934.76
575.01	47466.06
575.17	46892.63
575.33	47161.79
575.49	46972.21
575.65	47306.91
575.82	47356.06
575.98	47302.23
576.14	47620.54
576.30	47615.86
576.46	47098.60
576.62	47129.03
576.79	47131.37
576.95	46848.16
577.11	46714.75
577.27	46993.28
577.43	46916.04
577.59	46976.89
577.75	46939.44
577.92	46855.18
578.08	47344.36
578.24	47206.26
578.40	47110.30
578.56	47459.04
578.72	47227.33
578.88	47119.66
579.04	47021.36
579.21	47489.47
579.37	47253.08
579.53	47323.29
579.69	46834.12
579.85	47185.20
580.01	47388.83
580.17	47192.22
580.33	47119.66
580.49	47267.12
580.65	47391.17
580.82	47412.23
580.98	46822.42
581.14	47157.11
581.30	47402.87
581.46	47358.40
581.62	47192.22
581.78	47026.04
581.94	47386.49
582.10	47114.98
582.26	47381.80
582.42	47374.78
582.58	47409.89
582.74	47494.15
582.90	47360.74
583.06	47559.69
583.22	47168.82
583.38	47550.32
583.54	47323.29
583.70	47356.06
583.86	47313.93
584.02	47374.78
584.18	47688.42
584.34	47381.80
584.50	47772.67
584.66	47313.93
584.82	47559.69
584.98	47482.45
585.14	47662.67
585.30	47114.98
585.46	47613.52
585.62	47601.82
585.78	47709.48
585.94	47159.45
586.10	47435.64
586.26	47344.36
586.42	47236.69
586.58	47590.11
586.74	47742.25
586.90	47112.64
587.06	47416.91
587.22	47540.96
587.38	47292.86
587.54	47334.99
587.70	47718.84
587.86	47217.97
588.02	47178.18
588.18	47292.86
588.34	47704.80
588.49	47555.00
588.65	47232.01
588.81	47473.09
588.97	47978.64
589.13	47229.67
589.29	47566.71
589.45	47845.23
589.61	48107.37
589.77	47955.24
589.93	47613.52
