SpectraSuite Data File
++++++++++++++++++++++++++++++++++++
Date: Fri Oct 25 11:23:56 EDT 2013
User: price-jones
Dark Spectrum Present: No
Reference Spectrum Present: No
Number of Sampled Component Spectra: 1
Spectrometers: USB2+H05261
Integration Time (usec): 100000 (USB2+H05261)
Spectra Averaged: 1 (USB2+H05261)
Boxcar Smoothing: 0 (USB2+H05261)
Correct for Electrical Dark: No (USB2+H05261)
Strobe/Lamp Enabled: No (USB2+H05261)
Correct for Detector Non-linearity: No (USB2+H05261)
Correct for Stray Light: No (USB2+H05261)
Number of Pixels in Processed Spectrum: 2048
>>>>>Begin Processed Spectral Data<<<<<
365.73	215.33
365.92	215.33
366.12	215.33
366.32	145.11
366.52	154.48
366.72	117.03
366.91	72.56
367.11	72.56
367.31	124.05
367.51	166.18
367.70	135.75
367.90	168.52
368.10	140.43
368.30	166.18
368.49	166.18
368.69	149.79
368.89	168.52
369.09	159.16
369.28	259.80
369.48	182.56
369.68	142.77
369.87	227.03
370.07	168.52
370.27	269.16
370.47	311.29
370.66	500.87
370.86	620.24
371.06	671.73
371.25	685.78
371.45	695.14
371.65	681.10
371.84	704.50
372.04	690.46
372.24	812.17
372.44	744.29
372.63	732.59
372.83	755.99
373.03	725.57
373.22	751.31
373.42	699.82
373.62	718.54
373.81	826.21
374.01	816.85
374.21	795.78
374.40	720.88
374.60	828.55
374.79	779.40
374.99	849.61
375.19	896.43
375.38	812.17
375.58	770.04
375.78	968.98
375.97	868.34
376.17	922.17
376.37	819.19
376.56	880.04
376.76	758.33
376.95	912.81
377.15	924.51
377.35	894.08
377.54	968.98
377.74	910.47
377.93	898.77
378.13	870.68
378.33	887.06
378.52	931.53
378.72	938.55
378.91	901.11
379.11	924.51
379.31	947.92
379.50	940.90
379.70	964.30
379.89	1004.09
380.09	961.96
380.28	915.15
380.48	919.83
380.68	889.40
380.87	940.90
381.07	947.92
381.26	931.53
381.46	961.96
381.65	1060.26
381.85	1055.58
382.04	1055.58
382.24	1018.13
382.43	1008.77
382.63	1095.37
382.83	1109.41
383.02	1078.99
383.22	1128.14
383.41	1149.20
383.61	1156.22
383.80	1139.84
384.00	1137.50
384.19	1100.05
384.39	1193.67
384.58	1039.20
384.78	1139.84
384.97	1083.67
385.17	1100.05
385.36	1233.46
385.56	1268.57
385.75	1137.50
385.95	1163.25
386.14	1188.99
386.34	1266.23
386.53	1210.06
386.72	1219.42
386.92	1210.06
387.11	1135.16
387.31	1205.38
387.50	1165.59
387.70	1214.74
387.89	1203.04
388.09	1345.81
388.28	1261.55
388.48	1341.13
388.67	1355.17
388.86	1167.93
389.06	1320.06
389.25	1334.11
389.45	1397.30
389.64	1320.06
389.84	1350.49
390.03	1284.95
390.22	1432.41
390.42	1357.51
390.61	1458.15
390.81	1460.49
391.00	1472.20
391.19	1432.41
391.39	1373.89
391.58	1526.03
391.78	1462.83
391.97	1488.58
392.16	1411.34
392.36	1596.25
392.55	1551.78
392.75	1556.46
392.94	1451.13
393.13	1521.35
393.33	1593.90
393.52	1547.09
393.71	1530.71
393.91	1526.03
394.10	1568.16
394.29	1519.01
394.49	1626.67
394.68	1579.86
394.88	1636.03
395.07	1645.40
395.26	1654.76
395.46	1647.74
395.65	1647.74
395.84	1729.66
396.04	1834.98
396.23	1739.02
396.42	1722.63
396.62	1736.68
396.81	1696.89
397.00	1792.85
397.19	1792.85
397.39	1804.55
397.58	1818.60
397.77	1937.96
397.97	1806.89
398.16	1849.02
398.35	1961.37
398.55	1944.99
398.74	1900.52
398.93	1984.77
399.12	1935.62
399.32	1853.70
399.51	1970.73
399.70	1860.73
399.90	1856.04
400.09	2050.31
400.28	2008.18
400.47	2012.86
400.67	2071.37
400.86	2045.63
401.05	2066.69
401.24	2155.63
401.44	2136.91
401.63	2094.78
401.82	2087.76
402.01	2099.46
402.21	2188.40
402.40	2221.17
402.59	2157.97
402.78	2148.61
402.97	2286.70
403.17	2221.17
403.36	2256.28
403.55	2207.13
403.74	2417.77
403.93	2305.43
404.13	2380.32
404.32	2422.45
404.51	2291.38
404.70	2436.50
404.89	2382.67
405.09	2438.84
405.28	2424.80
405.47	2504.37
405.66	2520.76
405.85	2546.50
406.05	2441.18
406.24	2560.55
406.43	2626.08
406.62	2693.96
406.81	2576.93
407.00	2579.27
407.20	2649.49
407.39	2672.89
407.58	2759.49
407.77	2682.25
407.96	2792.26
408.15	2689.28
408.34	2700.98
408.54	2731.41
408.73	2888.22
408.92	2794.60
409.11	2874.18
409.30	2778.22
409.49	2928.01
409.68	2951.42
409.87	2836.73
410.07	2958.44
410.26	3049.72
410.45	3005.25
410.64	3082.49
410.83	2960.78
411.02	3077.80
411.21	3119.93
411.40	3122.27
411.59	3239.30
411.78	3215.90
411.98	3108.23
412.17	3321.22
412.36	3314.20
412.55	3290.79
412.74	3398.46
412.93	3492.08
413.12	3335.26
413.31	3566.98
413.50	3452.29
413.69	3461.65
413.88	3660.60
414.07	3520.17
414.26	3592.72
414.45	3679.32
414.64	3672.30
414.83	3620.81
415.02	3894.65
415.22	3833.80
415.41	3918.06
415.60	3824.44
415.79	3803.37
415.98	4037.42
416.17	4002.32
416.36	4060.83
416.55	3997.64
416.74	4004.66
416.93	4011.68
417.12	4046.79
417.31	4210.62
417.50	4266.80
417.69	4290.20
417.88	4290.20
418.07	4248.07
418.26	4358.08
418.45	4362.76
418.64	4409.57
418.83	4374.46
419.02	4332.33
419.21	4606.17
419.39	4430.63
419.58	4376.80
419.77	4545.32
419.96	4592.13
420.15	4753.63
420.34	4613.20
420.53	4496.17
420.72	4624.90
420.91	4559.36
421.10	4865.97
421.29	4889.38
421.48	4652.98
421.67	4849.59
421.86	4856.61
422.05	4868.31
422.24	4896.40
422.43	4889.38
422.61	5041.51
422.80	4856.61
422.99	4912.78
423.18	4847.25
423.37	4983.00
423.56	4978.32
423.75	4926.83
423.94	4915.12
424.13	4620.22
424.32	4585.11
424.50	4894.06
424.69	5050.88
424.88	5088.32
425.07	4959.60
425.26	4985.34
425.45	4887.04
425.64	4943.21
425.83	4938.53
426.01	4910.44
426.20	4978.32
426.39	5207.69
426.58	5095.35
426.77	4968.96
426.96	5083.64
427.15	5142.16
427.33	5069.60
427.52	5210.03
427.71	5228.76
427.90	5118.75
428.09	5090.67
428.28	5481.53
428.46	5217.05
428.65	5310.68
428.84	5423.02
429.03	5530.69
429.22	5359.83
429.40	5495.58
429.59	5511.96
429.78	5366.85
429.97	5369.19
430.16	5717.93
430.34	5706.23
430.53	5584.52
430.72	5631.33
430.91	5769.42
431.10	5614.95
431.28	5795.17
431.47	5713.25
431.66	5820.91
431.85	5795.17
432.03	5966.03
432.22	6085.39
432.41	5886.45
432.60	5785.80
432.79	5961.34
432.97	5954.32
433.16	6228.17
433.35	5916.87
433.54	6125.18
433.72	6054.97
433.91	6045.60
434.10	6218.80
434.28	6143.91
434.47	6008.16
434.66	6265.61
434.85	6263.27
435.03	6237.53
435.22	6321.79
435.41	6443.49
435.59	6441.15
435.78	6356.90
435.97	6537.12
436.16	6349.87
436.34	6387.32
436.53	6539.46
436.72	6820.32
436.90	6443.49
437.09	6712.66
437.28	6565.20
437.46	6684.57
437.65	6647.12
437.84	6839.05
438.02	6885.86
438.21	6768.83
438.40	6780.53
438.58	7077.78
438.77	7016.93
438.96	7023.95
439.14	7187.79
439.33	7239.28
439.52	7066.08
439.70	7155.02
439.89	7335.24
440.08	7236.94
440.26	7559.93
440.45	7494.40
440.63	7410.14
440.82	7688.66
441.01	7564.61
441.19	7578.65
441.38	7843.14
441.57	7730.79
441.75	7822.07
441.94	8063.15
442.12	7983.57
442.31	8016.33
442.50	7985.91
442.68	8084.21
442.87	7901.65
443.05	7990.59
443.24	8067.83
443.43	8329.97
443.61	8145.06
443.80	8535.93
443.98	7969.52
444.17	7859.52
444.35	8393.16
444.54	8500.83
444.73	8526.57
444.91	8294.86
445.10	8355.71
445.28	8475.08
445.47	8313.58
445.65	8557.00
445.84	8428.27
446.02	8498.49
446.21	8393.16
446.39	8449.33
446.58	8449.33
446.77	8599.13
446.95	8402.52
447.14	8388.48
447.32	8540.61
447.51	8432.95
447.69	8545.30
447.88	8706.79
448.06	8589.77
448.25	8482.10
448.43	8711.47
448.62	8561.68
448.80	8444.65
448.99	8636.58
449.17	8638.92
449.36	8617.85
449.54	8741.90
449.73	8985.32
449.91	8922.12
450.10	8999.36
450.28	8931.48
450.46	9142.13
450.65	8940.85
450.83	9256.82
451.02	9142.13
451.20	9170.22
451.39	9245.12
451.57	9404.27
451.76	8947.87
451.94	9224.05
452.13	9254.48
452.31	9305.97
452.49	9174.90
452.68	9415.98
452.86	9355.12
453.05	9514.28
453.23	9514.28
453.42	9483.85
453.60	9163.20
453.78	9305.97
453.97	9439.38
454.15	9488.53
454.34	9729.61
454.52	9743.65
454.70	9659.39
454.89	9827.91
455.07	9755.35
455.26	9825.57
455.44	9823.23
455.62	9841.95
455.81	10083.03
455.99	10214.10
456.17	10143.88
456.36	10073.67
456.54	10129.84
456.73	10256.23
456.91	10588.58
457.09	10602.63
457.28	10567.52
457.46	10207.08
457.64	10656.46
457.83	10406.02
458.01	10396.66
458.19	10644.76
458.38	10616.67
458.56	10799.23
458.74	10590.92
458.93	10808.59
459.11	10841.36
459.29	10740.72
459.48	10853.06
459.66	10817.96
459.84	10700.93
460.03	11145.63
460.21	11101.16
460.39	11096.48
460.57	10867.11
460.76	11133.93
460.94	11215.85
461.12	11201.80
461.31	11178.40
461.49	11157.33
461.67	11365.64
461.85	11625.44
462.04	11496.71
462.22	11475.65
462.40	11515.44
462.59	11466.28
462.77	11665.23
462.95	11779.92
463.13	11700.34
463.32	11674.59
463.50	11630.12
463.68	11623.10
463.86	11878.22
464.05	11590.33
464.23	11583.31
464.41	11667.57
464.59	11705.02
464.78	12063.12
464.96	11995.25
465.14	11798.64
465.32	12152.06
465.50	11971.84
465.69	12395.48
465.87	12107.59
466.05	12248.02
466.23	12407.18
466.41	12166.10
466.60	12439.95
466.78	12180.15
466.96	12189.51
467.14	12297.17
467.32	12435.27
467.51	12498.46
467.69	12297.17
467.87	12475.06
468.05	12510.16
468.23	12423.56
468.41	12514.84
468.60	12362.71
468.78	12802.73
468.96	12571.02
469.14	12814.43
469.32	12805.07
469.50	12826.14
469.69	12980.61
469.87	13142.11
470.05	12898.69
470.23	13167.85
470.41	13132.75
470.59	13348.08
470.77	13214.66
470.95	13179.56
471.14	13525.96
471.32	13256.79
471.50	13757.67
471.68	13778.73
471.86	13994.06
472.04	13783.41
472.22	14033.85
472.40	13724.90
472.58	13935.55
472.77	14012.79
472.95	14333.44
473.13	14590.90
473.31	14171.94
473.49	14202.37
473.67	14101.73
473.85	14312.38
474.03	14672.82
474.21	14581.54
474.39	14527.71
474.57	14733.67
474.75	14686.86
474.93	14977.09
475.12	15059.01
475.30	15309.44
475.48	14951.34
475.66	15178.37
475.84	15346.89
476.02	15620.74
476.20	15253.27
476.38	15592.65
476.56	16004.58
476.74	16154.38
476.92	15761.17
477.10	16025.65
477.28	16170.76
477.46	16390.77
477.64	16652.91
477.82	16910.37
478.00	17102.29
478.18	17064.85
478.36	16966.54
478.54	17139.74
478.72	17018.04
478.90	17568.06
479.08	17767.01
479.26	17593.81
479.44	17816.16
479.62	17951.91
479.80	18090.00
479.98	18310.01
480.16	18242.14
480.34	18256.18
480.52	18476.19
480.70	18876.42
480.88	18366.18
481.06	18677.48
481.24	18803.86
481.41	19215.80
481.59	19534.11
481.77	19889.87
481.95	19726.04
482.13	19845.40
482.31	20259.68
482.49	20301.81
482.67	20004.56
482.85	20613.10
483.03	20526.50
483.21	21039.08
483.39	21097.59
483.57	21020.35
483.74	21443.99
483.92	21422.92
484.10	21336.32
484.28	21649.96
484.46	22073.59
484.64	22319.35
484.82	22216.36
485.00	22333.39
485.18	22471.48
485.35	22773.41
485.53	22855.33
485.71	23065.98
485.89	23667.50
486.07	23400.68
486.25	23337.48
486.43	23770.48
486.61	24081.77
486.78	23896.87
486.96	23812.61
487.14	24819.04
487.32	24842.45
487.50	25212.25
487.68	25053.09
487.85	25610.14
488.03	25666.31
488.21	25752.91
488.39	26024.42
488.57	26190.59
488.75	26506.57
488.92	26738.28
489.10	26845.94
489.28	26642.32
489.46	27241.50
489.64	27157.24
489.81	27679.18
489.99	27974.08
490.17	27658.11
490.35	28460.91
490.53	28393.04
490.70	28388.36
490.88	28510.07
491.06	28999.24
491.24	28893.91
491.41	29195.84
491.59	29455.64
491.77	29504.79
491.95	29886.30
492.13	29961.20
492.30	30382.49
492.48	30125.04
492.66	30675.06
492.84	30426.96
493.01	30899.75
493.19	30799.11
493.37	31276.58
493.54	31323.39
493.72	31365.52
493.90	31852.35
494.08	31955.33
494.25	32184.71
494.43	32449.19
494.61	32273.65
494.79	32844.74
494.96	32510.04
495.14	32898.57
495.32	33067.09
495.49	33284.76
495.67	33130.28
495.85	33703.71
496.02	34117.99
496.20	34361.40
496.38	34169.48
496.55	34639.93
496.73	34644.61
496.91	34658.65
497.09	35068.25
497.26	35112.72
497.44	34897.39
497.62	35950.63
497.79	35704.87
497.97	35613.59
498.14	35941.27
498.32	36086.38
498.50	36100.42
498.67	36914.93
498.85	36973.44
499.03	36725.35
499.20	36994.51
499.38	37046.00
499.56	37078.77
499.73	37486.02
499.91	37558.58
500.08	37930.72
500.26	37579.64
500.44	37605.39
500.61	38078.18
500.79	37703.69
500.97	37811.35
501.14	38682.03
501.32	38703.10
501.49	38864.60
501.67	38799.06
501.84	39297.59
502.02	38974.60
502.20	39278.87
502.37	39538.67
502.55	39260.15
502.72	39803.15
502.90	39250.78
503.07	39721.23
503.25	40037.20
503.43	39573.78
503.60	40229.13
503.78	40907.88
503.95	40369.56
504.13	40549.78
504.30	40861.07
504.48	40821.28
504.65	40912.56
504.83	41464.93
505.01	41336.20
505.18	41684.94
505.36	41448.55
505.53	41261.30
505.71	41668.56
505.88	41921.34
506.06	41614.72
506.23	41907.29
506.41	41680.26
506.58	42099.22
506.76	42401.14
506.93	42298.16
507.11	42497.11
507.28	42792.01
507.46	42976.92
507.63	43021.39
507.81	43906.11
507.98	43005.00
508.16	43311.61
508.33	43290.55
508.50	43721.21
508.68	43641.63
508.85	44102.71
509.03	44271.23
509.20	44151.87
509.38	43749.29
509.55	44804.88
509.73	44516.99
509.90	44938.29
510.08	44678.49
510.25	44795.51
510.42	44877.43
510.60	45118.51
510.77	45251.92
510.95	45633.42
511.12	45481.29
511.30	45385.33
511.47	45464.91
511.64	45720.02
511.82	46080.47
511.99	45691.94
512.17	46333.24
512.34	46122.60
512.51	46770.93
512.69	46438.57
512.86	46576.66
513.04	46817.74
513.21	46925.40
513.38	46719.43
513.56	47061.15
513.73	47035.41
513.90	47030.72
514.08	47051.79
514.25	47276.48
514.43	47505.85
514.60	47452.02
514.77	47402.87
514.95	47819.49
515.12	47695.44
515.29	47763.31
515.47	47653.31
515.64	47856.93
515.81	48245.46
515.99	48395.26
516.16	48680.80
516.33	48428.02
516.51	48671.44
516.68	48161.20
516.85	48617.61
517.03	48872.73
517.20	48774.42
517.37	48839.96
517.54	49172.31
517.72	48964.01
517.89	48980.39
518.06	49134.87
518.24	49394.67
518.41	49617.02
518.58	49792.56
518.75	49179.34
518.93	49860.43
519.10	49645.10
519.27	49937.67
519.45	49848.73
519.62	49879.16
519.79	50092.15
519.96	50082.78
520.14	50305.13
520.31	50323.86
520.48	50560.25
520.65	50609.40
520.83	50820.05
521.00	50845.80
521.17	50733.45
521.34	50920.70
521.52	50822.39
521.69	51138.36
521.86	50789.62
522.03	51224.96
522.20	51838.18
522.38	51639.24
522.55	51260.07
522.72	51716.48
522.89	51536.26
523.07	51901.38
523.24	51444.98
523.41	51786.69
523.58	51444.98
523.75	51964.57
523.92	51915.42
524.10	52285.23
524.27	52210.33
524.44	52097.98
524.61	52133.09
524.78	52505.24
524.96	52193.95
525.13	52509.92
525.30	52713.55
525.47	52617.58
525.64	52720.57
525.81	52788.44
525.98	52729.93
526.16	52587.16
526.33	52832.91
526.50	53148.88
526.67	52783.76
526.84	53153.57
527.01	53095.05
527.18	53240.17
527.36	53120.80
527.53	53268.25
527.70	53528.05
527.87	53268.25
528.04	53286.98
528.21	53652.10
528.38	53333.79
528.55	53544.44
528.72	53429.75
528.89	53614.65
529.07	53822.96
529.24	53712.95
529.41	53888.49
529.58	53965.73
529.75	53904.88
529.92	53858.07
530.09	53895.52
530.26	54061.69
530.43	53975.09
530.60	53647.42
530.77	53822.96
530.94	54377.67
531.11	54312.13
531.28	54190.42
531.46	54305.11
531.63	54258.30
531.80	54330.86
531.97	54590.66
532.14	54452.56
532.31	54595.34
532.48	54712.36
532.65	54707.68
532.82	54347.24
532.99	54913.65
533.16	54955.78
533.33	54784.92
533.50	54791.94
533.67	54695.98
533.84	54787.26
534.01	54838.75
534.18	54939.39
534.35	55299.84
534.52	55222.60
534.69	55222.60
534.86	55250.69
535.03	54864.50
535.20	55182.81
535.37	55496.44
535.54	55561.98
535.71	55489.42
535.88	55714.11
536.05	55650.92
536.22	55611.13
536.38	55571.34
536.55	55714.11
536.72	55927.10
536.89	55725.81
537.06	56107.32
537.23	55767.94
537.40	55627.51
537.57	55671.98
537.74	55819.44
537.91	55749.22
538.08	56119.02
538.25	55833.48
538.42	55875.61
538.59	56179.88
538.75	56072.21
538.92	56299.25
539.09	56367.12
539.26	56189.24
539.43	56193.92
539.60	56179.88
539.77	56355.42
539.94	56554.36
540.11	56420.95
540.28	56463.08
540.44	56474.79
540.61	56559.05
540.78	56442.02
540.95	56282.86
541.12	56477.13
541.29	56409.25
541.46	56685.43
541.62	56783.74
541.79	56753.31
541.96	56406.91
542.13	56556.70
542.30	56676.07
542.47	56746.29
542.63	57155.88
542.80	56989.70
542.97	57106.73
543.14	57158.22
543.31	57073.96
543.48	57408.66
543.64	57462.49
543.81	57340.78
543.98	57275.25
544.15	57492.92
544.32	57705.91
544.48	57638.03
544.65	57581.86
544.82	57387.60
544.99	57322.06
545.16	57755.06
545.32	57380.57
545.49	57712.93
545.66	57612.29
545.83	57748.04
546.00	57743.36
546.16	57673.14
546.33	57640.37
546.50	57422.70
546.67	58012.52
546.83	57509.30
547.00	57876.77
547.17	57914.22
547.34	57928.26
547.50	58234.87
547.67	58059.33
547.84	58185.72
548.00	58092.10
548.17	58145.93
548.34	58225.51
548.51	58422.11
548.67	58326.15
548.84	58176.36
549.01	58185.72
549.18	58511.05
549.34	58372.96
549.51	58363.60
549.68	58464.24
549.84	58349.56
550.01	58532.12
550.18	58569.57
550.34	58567.23
550.51	58515.73
550.68	58536.80
550.84	58354.24
551.01	58632.76
551.18	58522.76
551.34	58660.85
551.51	58642.12
551.68	58604.67
551.84	58719.36
552.01	58702.98
552.18	58880.86
552.34	58607.01
552.51	58922.99
552.68	58560.20
552.84	58948.73
553.01	59208.53
553.18	58831.71
553.34	59014.27
553.51	58726.38
553.67	58740.42
553.84	58983.84
554.01	58887.88
554.17	59021.29
554.34	59107.89
554.51	59042.35
554.67	59264.70
554.84	58965.12
555.00	59079.80
555.17	58901.92
555.33	59131.29
555.50	59131.29
555.67	58925.33
555.83	58993.20
556.00	59302.15
556.16	59561.95
556.33	59498.76
556.50	59360.67
556.66	59374.71
556.83	59171.08
556.99	59435.56
557.16	59674.30
557.32	59412.16
557.49	59583.02
557.65	59519.82
557.82	59234.28
557.98	59344.28
558.15	59568.97
558.32	59597.06
558.48	59592.38
558.65	59419.18
558.81	59683.66
558.98	59529.19
559.14	59718.77
559.31	59770.26
559.47	59714.09
559.64	59667.28
559.80	59730.47
559.97	59606.42
560.13	59622.81
560.30	59767.92
560.46	59973.89
560.63	59784.30
560.79	60016.02
560.96	60032.40
561.12	59922.40
561.29	60044.10
561.45	59891.97
561.61	60020.70
561.78	59955.16
561.94	59891.97
562.11	59927.08
562.27	59943.46
562.44	60065.17
562.60	60163.47
562.77	60168.15
562.93	59908.35
563.10	60083.89
563.26	59906.01
563.42	59997.29
563.59	60149.43
563.75	60189.22
563.92	60083.89
564.08	60048.78
564.24	60252.41
564.41	60154.11
564.57	60172.83
564.74	60114.32
564.90	60315.61
565.07	60088.57
565.23	60196.24
565.39	60261.77
565.56	60324.97
565.72	60142.41
565.88	60083.89
566.05	60214.96
566.21	60137.72
566.38	60252.41
566.54	60268.79
566.70	60409.23
566.87	60512.21
567.03	60273.48
567.19	60439.65
567.36	60336.67
567.52	60416.25
567.68	60509.87
567.85	60416.25
568.01	60348.37
568.17	60355.39
568.34	60523.91
568.50	60669.03
568.66	60360.08
568.83	60427.95
568.99	60376.46
569.15	60432.63
569.32	60505.19
569.48	60570.72
569.64	60598.81
569.81	60416.25
569.97	60331.99
570.13	60638.60
570.30	60376.46
570.46	60657.32
570.62	60619.88
570.78	60603.49
570.95	60631.58
571.11	60919.46
571.27	60470.08
571.43	60467.74
571.60	60783.71
571.76	60456.04
571.92	60573.06
572.09	60961.59
572.25	60804.78
572.41	60678.39
572.57	60715.84
572.74	60743.92
572.90	60736.90
573.06	60629.24
573.22	60561.36
573.38	60605.83
573.55	60830.52
573.71	60685.41
573.87	60666.69
574.03	60624.56
574.20	60788.39
574.36	60542.64
574.52	60807.12
574.68	60739.24
574.84	60926.49
575.01	60690.09
575.17	60671.37
575.33	60863.29
575.49	60893.72
575.65	60704.13
575.82	60814.14
575.98	60956.91
576.14	60952.23
576.30	60846.91
576.46	60530.93
576.62	60734.56
576.79	60734.56
576.95	60575.40
577.11	60952.23
577.27	60933.51
577.43	60870.31
577.59	60877.33
577.75	60821.16
577.92	60830.52
578.08	60767.33
578.24	61001.38
578.40	61006.06
578.56	60924.14
578.72	60987.34
578.88	61219.05
579.04	61006.06
579.21	60985.00
579.37	61085.64
579.53	61090.32
579.69	60715.84
579.85	60905.42
580.01	61125.43
580.17	60863.29
580.33	61066.92
580.49	61001.38
580.65	60877.33
580.82	60963.93
580.98	60977.98
581.14	60954.57
581.30	61010.74
581.46	61034.15
581.62	61307.99
581.78	60907.76
581.94	61155.86
582.10	60935.85
582.26	60966.27
582.42	60903.08
582.58	60874.99
582.74	61020.11
582.90	61006.06
583.06	61010.74
583.22	60907.76
583.38	60910.10
583.54	60987.34
583.70	61113.73
583.86	60926.49
584.02	61090.32
584.18	61167.56
584.34	61097.34
584.50	61242.46
584.66	61015.43
584.82	60800.10
584.98	61263.52
585.14	60982.66
585.30	61207.35
585.46	61181.60
585.62	61226.07
585.78	61352.46
585.94	60896.06
586.10	61036.49
586.26	61256.50
586.42	61087.98
586.58	61181.60
586.74	61104.37
586.90	61165.22
587.06	60970.96
587.22	61205.01
587.38	61176.92
587.54	61235.44
587.70	61329.06
587.86	61212.03
588.02	60968.61
588.18	61279.91
588.34	61165.22
588.49	61057.56
