SpectraSuite Data File
++++++++++++++++++++++++++++++++++++
Date: Fri Oct 25 10:43:43 EDT 2013
User: price-jones
Dark Spectrum Present: No
Reference Spectrum Present: No
Number of Sampled Component Spectra: 1
Spectrometers: USB2+H05261
Integration Time (usec): 100000 (USB2+H05261)
Spectra Averaged: 1 (USB2+H05261)
Boxcar Smoothing: 0 (USB2+H05261)
Correct for Electrical Dark: No (USB2+H05261)
Strobe/Lamp Enabled: No (USB2+H05261)
Correct for Detector Non-linearity: No (USB2+H05261)
Correct for Stray Light: No (USB2+H05261)
Number of Pixels in Processed Spectrum: 2048
>>>>>Begin Processed Spectral Data<<<<<
365.73	98.30
365.92	98.30
366.12	98.30
366.32	81.92
366.52	0.00
366.72	65.54
366.91	39.79
367.11	25.75
367.31	0.00
367.51	39.79
367.70	30.43
367.90	2.34
368.10	42.13
368.30	11.70
368.49	42.13
368.69	37.45
368.89	0.00
369.09	60.85
369.28	21.06
369.48	21.06
369.68	135.75
369.87	49.15
370.07	42.13
370.27	142.77
370.47	184.90
370.66	411.93
370.86	440.02
371.06	397.89
371.25	496.19
371.45	456.40
371.65	402.57
371.84	552.37
372.04	421.30
372.24	463.43
372.44	561.73
372.63	458.74
372.83	557.05
373.03	564.07
373.22	477.47
373.42	454.06
373.62	458.74
373.81	519.60
374.01	561.73
374.21	599.18
374.40	571.09
374.60	564.07
374.79	557.05
374.99	610.88
375.19	610.88
375.38	566.41
375.58	589.82
375.78	660.03
375.97	641.31
376.17	657.69
376.37	627.26
376.56	594.50
376.76	667.05
376.95	657.69
377.15	702.16
377.35	669.39
377.54	681.10
377.74	606.20
377.93	662.37
378.13	627.26
378.33	648.33
378.52	613.22
378.72	695.14
378.91	657.69
379.11	650.67
379.31	624.92
379.50	624.92
379.70	678.76
379.89	662.37
380.09	643.65
380.28	760.67
380.48	681.10
380.68	634.29
380.87	753.65
381.07	758.33
381.26	748.97
381.46	802.80
381.65	695.14
381.85	655.35
382.04	720.88
382.24	741.95
382.43	671.73
382.63	727.91
382.83	671.73
383.02	732.59
383.22	772.38
383.41	587.47
383.61	704.50
383.80	774.72
384.00	809.83
384.19	690.46
384.39	777.06
384.58	709.18
384.78	840.25
384.97	816.85
385.17	833.23
385.36	847.27
385.56	800.46
385.75	816.85
385.95	866.00
386.14	814.51
386.34	812.17
386.53	854.30
386.72	805.14
386.92	884.72
387.11	880.04
387.31	858.98
387.50	854.30
387.70	929.19
387.89	861.32
388.09	875.36
388.28	866.00
388.48	798.12
388.67	894.08
388.86	931.53
389.06	929.19
389.25	905.79
389.45	943.24
389.64	915.15
389.84	1025.15
390.03	999.41
390.22	1001.75
390.42	1022.81
390.61	983.02
390.81	964.30
391.00	1048.56
391.19	999.41
391.39	1011.11
391.58	1062.60
391.78	1034.52
391.97	1041.54
392.16	1050.90
392.36	968.98
392.55	1069.62
392.75	1062.60
392.94	985.37
393.13	931.53
393.33	983.02
393.52	1011.11
393.71	1114.10
393.91	1109.41
394.10	1104.73
394.29	1111.75
394.49	1116.44
394.68	1242.82
394.88	1151.54
395.07	1238.14
395.26	1256.87
395.46	1273.25
395.65	1291.98
395.84	1170.27
396.04	1207.72
396.23	1186.65
396.42	1203.04
396.62	1254.53
396.81	1263.89
397.00	1210.06
397.19	1184.31
397.39	1343.47
397.58	1453.47
397.77	1397.30
397.97	1371.55
398.16	1427.73
398.35	1493.26
398.55	1465.18
398.74	1437.09
398.93	1497.94
399.12	1448.79
399.32	1500.28
399.51	1495.60
399.70	1488.58
399.90	1542.41
400.09	1579.86
400.28	1640.72
400.47	1575.18
400.67	1568.16
400.86	1589.22
401.05	1650.08
401.24	1720.29
401.44	1605.61
401.63	1605.61
401.82	1739.02
402.01	1788.17
402.21	1682.85
402.40	1682.85
402.59	1755.40
402.78	1774.13
402.97	1811.57
403.17	1797.53
403.36	1774.13
403.55	1858.39
403.74	1825.62
403.93	1844.34
404.13	1923.92
404.32	1930.94
404.51	1825.62
404.70	1954.35
404.89	1844.34
405.09	2001.16
405.28	1998.82
405.47	1905.20
405.66	2047.97
405.85	2125.21
406.05	1919.24
406.24	1989.46
406.43	2113.50
406.62	2022.22
406.81	2209.47
407.00	2064.35
407.20	2076.06
407.39	1984.77
407.58	2139.25
407.77	2134.57
407.96	2186.06
408.15	2160.31
408.34	2188.40
408.54	2258.62
408.73	2326.49
408.92	2335.85
409.11	2347.56
409.30	2244.57
409.49	2284.36
409.68	2289.04
409.87	2319.47
410.07	2347.56
410.26	2399.05
410.45	2401.39
410.64	2480.97
410.83	2457.56
411.02	2469.27
411.21	2609.70
411.40	2518.42
411.59	2429.48
411.78	2602.68
411.98	2532.46
412.17	2586.29
412.36	2637.78
412.55	2796.94
412.74	2698.64
412.93	2698.64
413.12	2684.59
413.31	2843.75
413.50	2878.86
413.69	2937.37
413.88	2956.10
414.07	2979.50
414.26	2951.42
414.45	3012.27
414.64	3073.12
414.83	3007.59
415.02	3038.02
415.22	3084.83
415.41	2986.52
415.60	3115.25
415.79	3075.46
415.98	3307.18
416.17	3309.52
416.36	3213.56
416.55	3236.96
416.74	3145.68
416.93	3222.92
417.12	3145.68
417.31	3342.28
417.50	3288.45
417.69	3456.97
417.88	3431.23
418.07	3342.28
418.26	3541.23
418.45	3529.53
418.64	3618.47
418.83	3583.36
419.02	3459.31
419.21	3644.21
419.39	3569.32
419.58	3475.70
419.77	3552.93
419.96	3527.19
420.15	3623.15
420.34	3733.15
420.53	3735.50
420.72	3768.26
420.91	3721.45
421.10	3822.09
421.29	3880.61
421.48	3655.92
421.67	3995.29
421.86	3662.94
422.05	3836.14
422.24	3597.40
422.43	3775.28
422.61	3737.84
422.80	3971.89
422.99	3875.93
423.18	3899.33
423.37	3899.33
423.56	3920.40
423.75	3866.56
423.94	3812.73
424.13	3646.55
424.32	3698.05
424.50	3943.80
424.69	4032.74
424.88	4053.81
425.07	3831.46
425.26	3941.46
425.45	3964.87
425.64	4016.36
425.83	3896.99
426.01	4067.85
426.20	4016.36
426.39	3983.59
426.58	3859.54
426.77	3819.75
426.96	3976.57
427.15	4030.40
427.33	4049.13
427.52	4079.55
427.71	4067.85
427.90	4114.66
428.09	4138.07
428.28	4222.33
428.46	4133.39
428.65	4128.70
428.84	4365.10
429.03	4276.16
429.22	4208.28
429.40	4180.20
429.59	4236.37
429.78	3948.48
429.97	3932.10
430.16	3974.23
430.34	4074.87
430.53	4283.18
430.72	4238.71
430.91	4149.77
431.10	4285.52
431.28	4603.83
431.47	4655.33
431.66	4622.56
431.85	4493.83
432.03	4573.41
432.22	4678.73
432.41	4634.26
432.60	4634.26
432.79	4585.11
432.97	4851.93
433.16	4793.42
433.35	4706.82
433.54	4589.79
433.72	4685.75
433.91	4755.97
434.10	4643.62
434.28	4765.33
434.47	4898.74
434.66	4950.23
434.85	4990.02
435.03	4999.38
435.22	4999.38
435.41	5118.75
435.59	5081.30
435.78	5018.11
435.97	5214.71
436.16	5205.35
436.34	5184.29
436.53	4961.94
436.72	5226.42
436.90	5064.92
437.09	5177.26
437.28	5121.09
437.46	5172.58
437.65	5217.05
437.84	5195.99
438.02	5130.45
438.21	5165.56
438.40	5184.29
438.58	5387.91
438.77	5476.85
438.96	5399.62
439.14	5497.92
439.33	5675.80
439.52	5617.29
439.70	5530.69
439.89	5654.73
440.08	5708.57
440.26	5703.89
440.45	5659.42
440.63	5865.38
440.82	6132.20
441.01	5928.58
441.19	5942.62
441.38	5959.00
441.57	6127.52
441.75	6228.17
441.94	6267.95
442.12	6408.39
442.31	6296.04
442.50	6459.88
442.68	6260.93
442.87	6345.19
443.05	6274.98
443.24	6211.78
443.43	6415.41
443.61	6452.86
443.80	6530.09
443.98	6214.12
444.17	6282.00
444.35	6621.38
444.54	6588.61
444.73	6518.39
444.91	6516.05
445.10	6354.55
445.28	6593.29
445.47	6530.09
445.65	6476.26
445.84	6619.04
446.02	6509.03
446.21	6459.88
446.39	6597.97
446.58	6743.08
446.77	6569.88
446.95	6392.00
447.14	6633.08
447.32	6621.38
447.51	6588.61
447.69	6656.48
447.88	6682.23
448.06	6757.13
448.25	6707.98
448.43	6700.95
448.62	6724.36
448.80	6630.74
448.99	6778.19
449.17	6876.49
449.36	6794.58
449.54	6916.28
449.73	6892.88
449.91	7124.59
450.10	7171.40
450.28	7192.47
450.46	7173.74
450.65	7391.41
450.83	7293.11
451.02	7073.10
451.20	7295.45
451.39	7162.04
451.57	7073.10
451.76	7126.93
451.94	7220.55
452.13	7136.29
452.31	7183.10
452.49	7009.90
452.68	7218.21
452.86	7101.19
453.05	7227.57
453.23	7386.73
453.42	7229.91
453.60	7290.77
453.78	7634.83
453.97	7276.73
454.15	7363.33
454.34	7400.77
454.52	7669.94
454.70	7550.57
454.89	7478.01
455.07	7534.18
455.26	7559.93
455.44	7772.92
455.62	7632.49
455.81	7817.39
455.99	7885.26
456.17	7911.01
456.36	7864.20
456.54	8145.06
456.73	7950.80
456.91	8051.44
457.09	8229.32
457.28	8287.84
457.46	8070.17
457.64	8236.35
457.83	8212.94
458.01	8121.66
458.19	8191.88
458.38	7911.01
458.56	8292.52
458.74	8093.57
458.93	8114.64
459.11	8262.09
459.29	8053.78
459.48	8320.60
459.66	8121.66
459.84	8297.20
460.03	8425.93
460.21	8568.70
460.39	8613.17
460.57	8514.87
460.76	8622.53
460.94	8667.00
461.12	8568.70
461.31	8683.39
461.49	8507.85
461.67	8568.70
461.85	9022.77
462.04	8837.86
462.22	9420.66
462.40	8966.59
462.59	9008.72
462.77	8973.61
462.95	9095.32
463.13	8767.65
463.32	9015.74
463.50	8769.99
463.68	8879.99
463.86	9074.26
464.05	8791.05
464.23	8840.20
464.41	9034.47
464.59	8844.88
464.78	9181.92
464.96	8957.23
465.14	8936.17
465.32	9427.68
465.50	9060.21
465.69	9364.48
465.87	9305.97
466.05	9507.26
466.23	9221.71
466.41	9195.96
466.60	9308.31
466.78	9057.87
466.96	9200.65
467.14	9308.31
467.32	9420.66
467.51	9516.62
467.69	9095.32
467.87	9273.20
468.05	9504.92
468.23	9430.02
468.41	9427.68
468.60	9268.52
468.78	9530.66
468.96	9439.38
469.14	9500.23
469.32	9797.48
469.50	9446.40
469.69	9535.34
469.87	9839.61
470.05	9898.13
470.23	9738.97
470.41	9893.44
470.59	9797.48
470.77	9785.78
470.95	10108.77
471.14	10064.30
471.32	9865.36
471.50	10204.74
471.68	10164.95
471.86	10263.25
472.04	10445.81
472.22	10635.39
472.40	10097.07
472.58	10473.90
472.77	10541.77
472.95	10354.53
473.13	11150.31
473.31	10384.96
473.49	10621.35
473.67	10579.22
473.85	10750.08
474.03	10902.22
474.21	10911.58
474.39	10963.07
474.57	10984.13
474.75	11047.33
474.93	11173.72
475.12	11082.44
475.30	11229.89
475.48	11232.23
475.66	11293.08
475.84	11290.74
476.02	11419.47
476.20	11342.24
476.38	11611.40
476.56	11901.62
476.74	11833.75
476.92	11669.91
477.10	11906.31
477.28	11946.09
477.46	11903.96
477.64	12262.07
477.82	12610.81
478.00	12500.80
478.18	12674.00
478.36	12479.74
478.54	12542.93
478.72	12606.13
478.90	12779.32
479.08	12982.95
479.26	13511.91
479.44	13034.44
479.62	13280.20
479.80	13254.45
479.98	13514.25
480.16	13696.82
480.34	13743.63
480.52	13680.43
480.70	13682.77
480.88	13451.06
481.06	13961.30
481.24	13865.33
481.41	14162.58
481.59	14534.73
481.77	14209.39
481.95	14274.93
482.13	14672.82
482.31	14754.74
482.49	14876.44
482.67	14747.72
482.85	14937.30
483.03	15187.74
483.21	15152.63
483.39	15321.15
483.57	15370.30
483.74	15662.86
483.92	15620.74
484.10	15559.88
484.28	16032.67
484.46	16063.10
484.64	16500.78
484.82	15861.81
485.00	15999.90
485.18	16283.11
485.35	16608.44
485.53	16100.55
485.71	16439.92
485.89	16327.58
486.07	16301.83
486.25	16730.15
486.43	16973.56
486.61	16950.16
486.78	16959.52
486.96	17371.46
487.14	17488.48
487.32	17720.20
487.50	17841.90
487.68	18438.74
487.85	18239.79
488.03	18288.95
488.21	18712.58
488.39	18661.09
488.57	18544.06
488.75	18714.92
488.92	18967.70
489.10	19646.46
489.28	19353.89
489.46	19634.75
489.64	19983.49
489.81	20222.23
489.99	19924.98
490.17	20231.59
490.35	20538.20
490.53	20219.89
490.70	20650.55
490.88	20458.62
491.06	20697.36
491.24	20531.18
491.41	20723.10
491.59	20945.45
491.77	20776.94
491.95	21380.79
492.13	21504.84
492.30	21563.36
492.48	21451.01
492.66	21804.43
492.84	21898.05
493.01	22174.24
493.19	21998.70
493.37	22347.44
493.54	22497.23
493.72	22721.92
493.90	22530.00
494.08	22913.84
494.25	23440.47
494.43	23297.69
494.61	23360.89
494.79	23267.27
494.96	23557.49
495.14	23693.24
495.32	23431.10
495.49	23562.17
495.67	24100.50
495.85	23868.78
496.02	24437.53
496.20	24259.65
496.38	24187.10
496.55	24666.91
496.73	25291.83
496.91	24776.91
497.09	24933.73
497.26	25200.55
497.44	25301.19
497.62	25099.90
497.79	25317.57
497.97	25273.10
498.14	25383.11
498.32	25495.46
498.50	25867.60
498.67	26033.78
498.85	26183.57
499.03	25921.43
499.20	25949.52
499.38	26443.37
499.56	25947.18
499.73	26431.67
499.91	26553.38
500.08	26969.99
500.26	25898.03
500.44	26663.38
500.61	26766.37
500.79	26647.00
500.97	26761.69
501.14	27082.34
501.32	27063.61
501.49	26969.99
501.67	27140.85
501.84	27180.64
502.02	27491.93
502.20	27990.47
502.37	28025.57
502.55	27871.10
502.72	27716.62
502.90	28072.39
503.07	27934.29
503.25	28140.26
503.43	27803.22
503.60	28381.34
503.78	27927.27
503.95	28552.20
504.13	28070.04
504.30	28332.18
504.48	28683.27
504.65	29219.25
504.83	29146.69
505.01	29184.14
505.18	29008.60
505.36	29535.22
505.53	29345.64
505.71	29680.33
505.88	29560.97
506.06	29198.18
506.23	29874.60
506.41	29834.81
506.58	29745.87
506.76	29809.06
506.93	29858.21
507.11	30080.56
507.28	29818.42
507.46	29722.46
507.63	29963.54
507.81	29907.37
507.98	30019.71
508.16	30497.18
508.33	30377.81
508.50	30682.08
508.68	30436.33
508.85	31173.60
509.03	30749.96
509.20	31218.07
509.38	31187.64
509.55	30974.65
509.73	31094.02
509.90	31566.81
510.08	30817.83
510.25	31625.32
510.42	31370.20
510.60	31988.10
510.77	31475.52
510.95	31651.06
511.12	31871.07
511.30	32297.05
511.47	32531.11
511.64	32566.21
511.82	32353.23
511.99	32168.32
512.17	32278.33
512.34	32093.43
512.51	32893.89
512.69	32847.08
512.86	32741.75
513.04	32893.89
513.21	33172.41
513.38	32833.04
513.56	32863.46
513.73	32561.53
513.90	33102.20
514.08	32699.62
514.25	33081.13
514.43	33219.22
514.60	33008.58
514.77	33612.43
514.95	33603.07
515.12	33322.21
515.29	33834.78
515.47	33846.49
515.64	34272.46
515.81	34197.57
515.99	33631.16
516.16	33687.33
516.33	33715.42
516.51	33645.20
516.68	33521.15
516.85	32973.47
517.03	33394.76
517.20	33970.54
517.37	34122.67
517.54	34146.08
517.72	34422.26
517.89	34380.13
518.06	34054.79
518.24	34366.09
518.41	34148.42
518.58	34726.53
518.75	34309.91
518.93	34789.72
519.10	34700.78
519.27	35058.88
519.45	35023.78
519.62	35021.44
519.79	35136.12
519.96	35559.76
520.14	35360.81
520.31	35124.42
520.48	35597.21
520.65	35248.47
520.83	35981.06
521.00	35669.76
521.17	35651.04
521.34	36093.40
521.52	36313.41
521.69	36470.23
521.86	35817.22
522.03	36062.97
522.20	36720.66
522.38	36243.20
522.55	36163.62
522.72	36430.44
522.89	36636.41
523.07	36460.87
523.24	36458.52
523.41	36823.65
523.58	36760.45
523.75	37523.47
523.92	36943.02
524.10	37502.40
524.27	37354.95
524.44	37172.39
524.61	37610.07
524.78	37280.05
524.96	37191.11
525.13	37350.27
525.30	37778.59
525.47	37530.49
525.64	37652.20
525.81	37628.79
525.98	37415.80
526.16	37226.22
526.33	37228.56
526.50	37436.87
526.67	37109.19
526.84	37141.96
527.01	37668.58
527.18	37984.55
527.36	38075.84
527.53	37647.52
527.70	38234.99
527.87	38492.45
528.04	38071.15
528.21	38637.56
528.38	38368.40
528.55	38443.30
528.72	38443.30
528.89	38707.78
529.07	38803.74
529.24	38766.29
529.41	39058.86
529.58	38913.75
529.75	38787.36
529.92	38986.30
530.09	39166.52
530.26	39356.11
530.43	39440.37
530.60	38766.29
530.77	39398.24
530.94	39407.60
531.11	38995.67
531.28	39246.10
531.46	39414.62
531.63	39550.37
531.80	39590.16
531.97	39271.85
532.14	39800.81
532.31	39187.59
532.48	39288.23
532.65	39522.29
532.82	39754.00
532.99	39538.67
533.16	39782.09
533.33	39784.43
533.50	39880.39
533.67	40025.50
533.84	39498.88
534.01	39950.60
534.18	40201.04
534.35	40526.38
534.52	40006.78
534.69	40282.96
534.86	40446.80
535.03	40498.29
535.20	40858.73
535.37	40816.60
535.54	40992.14
535.71	40694.89
535.88	40863.41
536.05	40547.44
536.22	40671.49
536.38	40942.99
536.55	40399.99
536.72	40835.33
536.89	40346.15
537.06	40734.68
537.23	41457.91
537.40	41219.17
537.57	41361.95
537.74	41336.20
537.91	41684.94
538.08	41289.39
538.25	40942.99
538.42	41317.48
538.59	41406.42
538.75	40893.84
538.92	41125.55
539.09	40847.03
539.26	41563.23
539.43	41408.76
539.60	41425.14
539.77	41581.96
539.94	41282.37
540.11	41539.83
540.28	41624.09
540.44	41406.42
540.61	41729.41
540.78	41432.16
540.95	41764.52
541.12	41195.77
541.29	41736.43
541.46	41694.30
541.62	42614.13
541.79	41755.16
541.96	41511.74
542.13	42195.18
542.30	41937.72
542.47	42225.60
542.63	42124.96
542.80	42141.35
542.97	42536.90
543.14	42663.28
543.31	42541.58
543.48	42501.79
543.64	43115.01
543.81	43110.33
543.98	42766.27
544.15	42899.68
544.32	42614.13
544.48	43318.64
544.65	42880.95
544.82	42890.32
544.99	42583.71
545.16	43140.75
545.32	42485.40
545.49	43477.79
545.66	43082.24
545.83	43166.50
546.00	43487.15
546.16	43353.74
546.33	43161.82
546.50	42817.76
546.67	43194.59
546.83	42794.36
547.00	43470.77
547.17	42944.15
547.34	43096.28
547.50	43262.46
547.67	43463.75
547.84	43491.83
548.00	43491.83
548.17	43981.01
548.34	43871.00
548.51	44088.67
548.67	43959.94
548.84	43887.39
549.01	43913.13
549.18	43676.74
549.34	43517.58
549.51	43966.96
549.68	43728.23
549.84	43889.73
550.01	43966.96
550.18	44451.45
550.34	43793.76
550.51	44020.80
550.68	44083.99
550.84	43683.76
551.01	43936.54
551.18	43964.62
551.34	43749.29
551.51	44048.88
551.68	44341.45
551.84	44165.91
552.01	43782.06
552.18	43969.30
552.34	43826.53
552.51	44074.63
552.68	44414.01
552.84	44282.94
553.01	44626.99
553.18	44612.95
553.34	44421.03
553.51	44573.16
553.67	44978.07
553.84	44470.18
554.01	44708.91
554.17	44708.91
554.34	44521.67
554.51	44851.69
554.67	44971.05
554.84	44762.75
555.00	44474.86
555.17	44535.71
555.33	44769.77
555.50	44619.97
555.67	44605.93
555.83	44870.41
556.00	44694.87
556.16	45553.85
556.33	44322.72
556.50	44744.02
556.66	44999.14
556.83	44624.65
556.99	44734.66
557.16	45097.44
557.32	44992.12
557.49	45106.80
557.65	44701.89
557.82	45055.31
557.98	44744.02
558.15	45015.52
558.32	45127.87
558.48	44921.90
558.65	44832.96
558.81	44369.54
558.98	44945.31
559.14	45223.83
559.31	44893.82
559.47	45057.65
559.64	45036.59
559.80	45347.88
559.97	45240.21
560.13	44999.14
560.30	45038.93
560.46	45338.52
560.63	45610.02
560.79	45516.40
560.96	45684.92
561.12	45532.78
561.29	45294.05
561.45	45170.00
561.61	45155.96
561.78	45294.05
561.94	45137.23
562.11	45144.25
562.27	45500.01
562.44	45258.94
562.60	45769.18
562.77	45469.59
562.93	45322.13
563.10	45408.73
563.26	45275.32
563.42	45801.94
563.59	45022.54
563.75	45338.52
563.92	45916.63
564.08	46190.47
564.24	45851.09
564.41	45670.87
564.57	45591.30
564.74	45855.78
564.90	45682.58
565.07	45296.39
565.23	45935.35
565.39	45507.04
565.56	45783.22
565.72	45146.59
565.88	45530.44
566.05	45574.91
566.21	45429.80
566.38	45336.18
566.54	45764.49
566.70	46096.85
566.87	45727.05
567.03	45715.34
567.19	46300.48
567.36	45759.81
567.52	45570.23
567.68	45867.48
567.85	45593.64
568.01	46202.18
568.17	45612.36
568.34	45815.99
568.50	46036.00
568.66	45940.04
568.83	46057.06
568.99	45460.23
569.15	45647.47
569.32	45818.33
569.48	45797.26
569.64	46075.79
569.81	45682.58
569.97	45794.92
570.13	45530.44
570.30	45617.04
570.46	45797.26
570.62	45982.16
570.78	45553.85
570.95	45310.43
571.11	45897.91
571.27	45595.98
571.43	45801.94
571.60	46192.81
571.76	45794.92
571.92	45918.97
572.09	45933.01
572.25	45698.96
572.41	46272.39
572.57	45909.61
572.74	46492.40
572.90	46176.43
573.06	46162.39
573.22	46354.31
573.38	46043.02
573.55	45715.34
573.71	46607.09
573.87	46185.79
574.03	46213.88
574.20	45961.10
574.36	46445.59
574.52	46265.37
574.68	46075.79
574.84	46298.14
575.01	46050.04
575.17	46115.58
575.33	45869.82
575.49	46021.95
575.65	46113.23
575.82	45937.69
575.98	45848.75
576.14	46185.79
576.30	46113.23
576.46	45750.45
576.62	45958.76
576.79	46117.92
576.95	45830.03
577.11	46047.70
577.27	46370.69
577.43	45853.44
577.59	45705.98
577.75	45801.94
577.92	45521.08
578.08	45462.57
578.24	46087.49
578.40	45855.78
578.56	46354.31
578.72	46068.76
578.88	46607.09
579.04	45734.07
579.21	45923.65
579.37	45705.98
579.53	46028.98
579.69	46045.36
579.85	46010.25
580.01	46260.69
580.17	45846.41
580.33	45956.42
580.49	46059.40
580.65	46256.01
580.82	45881.52
580.98	45947.06
581.14	45869.82
581.30	46073.45
581.46	46520.49
581.62	46206.86
581.78	45984.51
581.94	46417.50
582.10	46422.19
582.26	45972.80
582.42	46234.94
582.58	46354.31
582.74	46026.63
582.90	46183.45
583.06	46234.94
583.22	46267.71
583.38	46342.61
583.54	46412.82
583.70	46337.93
583.86	46082.81
584.02	45724.71
584.18	46178.77
584.34	46258.35
584.50	46082.81
584.66	46274.73
584.82	46501.76
584.98	46351.97
585.14	46490.06
585.30	46281.75
585.46	46227.92
585.62	45628.74
585.78	46003.23
585.94	45830.03
586.10	46014.93
586.26	45947.06
586.42	46354.31
586.58	46342.61
586.74	46438.57
586.90	46174.09
587.06	46021.95
587.22	46408.14
587.38	45907.27
587.54	46103.87
587.70	46476.02
587.86	46335.59
588.02	45993.87
588.18	46312.18
588.34	46082.81
588.49	45841.73
588.65	45315.11
588.81	45488.31
588.97	45944.72
589.13	45883.86
589.29	45977.48
589.45	46028.98
589.61	45687.26
589.77	46342.61
589.93	46382.40
590.08	46309.84
