SpectraSuite Data File
++++++++++++++++++++++++++++++++++++
Date: Fri Oct 25 11:25:47 EDT 2013
User: price-jones
Dark Spectrum Present: No
Reference Spectrum Present: No
Number of Sampled Component Spectra: 1
Spectrometers: USB2+H05261
Integration Time (usec): 100000 (USB2+H05261)
Spectra Averaged: 1 (USB2+H05261)
Boxcar Smoothing: 0 (USB2+H05261)
Correct for Electrical Dark: No (USB2+H05261)
Strobe/Lamp Enabled: No (USB2+H05261)
Correct for Detector Non-linearity: No (USB2+H05261)
Correct for Stray Light: No (USB2+H05261)
Number of Pixels in Processed Spectrum: 2048
>>>>>Begin Processed Spectral Data<<<<<
365.73	220.01
365.92	220.01
366.12	220.01
366.32	128.73
366.52	177.88
366.72	290.23
366.91	166.18
367.11	124.05
367.31	133.41
367.51	128.73
367.70	177.88
367.90	126.39
368.10	58.51
368.30	112.35
368.49	126.39
368.69	121.71
368.89	201.29
369.09	117.03
369.28	173.20
369.48	161.50
369.68	173.20
369.87	208.31
370.07	182.56
370.27	222.35
370.47	198.95
370.66	582.79
370.86	617.90
371.06	711.52
371.25	671.73
371.45	615.56
371.65	627.26
371.84	688.12
372.04	685.78
372.24	711.52
372.44	716.20
372.63	699.82
372.83	779.40
373.03	734.93
373.22	730.25
373.42	809.83
373.62	772.38
373.81	814.51
374.01	833.23
374.21	816.85
374.40	849.61
374.60	793.44
374.79	765.36
374.99	748.97
375.19	821.53
375.38	889.40
375.58	746.63
375.78	849.61
375.97	987.71
376.17	866.00
376.37	844.93
376.56	802.80
376.76	877.70
376.95	908.13
377.15	884.72
377.35	903.45
377.54	961.96
377.74	926.85
377.93	882.38
378.13	992.39
378.33	954.94
378.52	851.96
378.72	947.92
378.91	978.34
379.11	922.17
379.31	994.73
379.50	889.40
379.70	947.92
379.89	894.08
380.09	1039.20
380.28	961.96
380.48	938.55
380.68	1064.94
380.87	940.90
381.07	1114.10
381.26	997.07
381.46	1078.99
381.65	1015.79
381.85	1071.97
382.04	1093.03
382.24	1036.86
382.43	1111.75
382.63	1053.24
382.83	933.87
383.02	1191.33
383.22	1146.86
383.41	1090.69
383.61	1076.65
383.80	1067.28
384.00	1109.41
384.19	1104.73
384.39	1055.58
384.58	1217.08
384.78	1074.31
384.97	1174.95
385.17	1235.80
385.36	1156.22
385.56	1233.46
385.75	1142.18
385.95	1184.31
386.14	1273.25
386.34	1137.50
386.53	1128.14
386.72	1114.10
386.92	1252.19
387.11	1310.70
387.31	1214.74
387.50	1254.53
387.70	1287.29
387.89	1371.55
388.09	1296.66
388.28	1280.27
388.48	1336.45
388.67	1310.70
388.86	1287.29
389.06	1324.74
389.25	1303.68
389.45	1261.55
389.64	1331.76
389.84	1390.28
390.03	1308.36
390.22	1385.60
390.42	1341.13
390.61	1348.15
390.81	1327.08
391.00	1467.52
391.19	1413.68
391.39	1500.28
391.58	1432.41
391.78	1460.49
391.97	1570.50
392.16	1425.39
392.36	1554.12
392.55	1476.88
392.75	1579.86
392.94	1582.20
393.13	1526.03
393.33	1572.84
393.52	1472.20
393.71	1586.88
393.91	1544.75
394.10	1582.20
394.29	1607.95
394.49	1561.14
394.68	1638.38
394.88	1636.03
395.07	1586.88
395.26	1652.42
395.46	1701.57
395.65	1633.69
395.84	1809.23
396.04	1834.98
396.23	1764.76
396.42	1739.02
396.62	1689.87
396.81	1781.15
397.00	1753.06
397.19	1701.57
397.39	1813.92
397.58	1867.75
397.77	1846.68
397.97	1750.72
398.16	1830.30
398.35	1980.09
398.55	1884.13
398.74	1888.81
398.93	2001.16
399.12	1881.79
399.32	1867.75
399.51	1902.86
399.70	1954.35
399.90	1996.48
400.09	1954.35
400.28	1977.75
400.47	2005.84
400.67	2120.53
400.86	2038.61
401.05	2052.65
401.24	2087.76
401.44	2139.25
401.63	1984.77
401.82	2197.76
402.01	2125.21
402.21	2221.17
402.40	2113.50
402.59	2267.98
402.78	2232.87
402.97	2197.76
403.17	2237.55
403.36	2160.31
403.55	2251.60
403.74	2331.17
403.93	2312.45
404.13	2340.54
404.32	2251.60
404.51	2410.75
404.70	2420.11
404.89	2324.15
405.09	2420.11
405.28	2518.42
405.47	2394.37
405.66	2574.59
405.85	2471.61
406.05	2352.24
406.24	2487.99
406.43	2600.34
406.62	2621.40
406.81	2633.10
407.00	2532.46
407.20	2562.89
407.39	2750.13
407.58	2745.45
407.77	2616.72
407.96	2689.28
408.15	2743.11
408.34	2616.72
408.54	2848.43
408.73	2869.50
408.92	2836.73
409.11	2857.79
409.30	2958.44
409.49	3030.99
409.68	2911.63
409.87	2963.12
410.07	3002.91
410.26	2991.20
410.45	2932.69
410.64	2939.71
410.83	3068.44
411.02	3052.06
411.21	3054.40
411.40	3033.33
411.59	3169.09
411.78	3211.22
411.98	3204.19
412.17	3227.60
412.36	3279.09
412.55	3328.24
412.74	3375.05
412.93	3321.22
413.12	3356.33
413.31	3534.21
413.50	3478.04
413.69	3339.94
413.88	3658.26
414.07	3499.10
414.26	3616.13
414.45	3599.74
414.64	3637.19
414.83	3653.58
415.02	3777.62
415.22	3770.60
415.41	3843.16
415.60	3857.20
415.79	3992.95
415.98	3955.51
416.17	4060.83
416.36	4007.00
416.55	3943.80
416.74	4011.68
416.93	4135.73
417.12	4086.58
417.31	4105.30
417.50	4173.18
417.69	4355.74
417.88	4194.24
418.07	4201.26
418.26	4273.82
418.45	4376.80
418.64	4505.53
418.83	4414.25
419.02	4444.68
419.21	4449.36
419.39	4535.96
419.58	4425.95
419.77	4423.61
419.96	4685.75
420.15	4634.26
420.34	4554.68
420.53	4622.56
420.72	4652.98
420.91	4589.79
421.10	4725.54
421.29	4828.53
421.48	4720.86
421.67	4812.14
421.86	4688.09
422.05	4727.88
422.24	4676.39
422.43	4819.16
422.61	4844.91
422.80	5050.88
422.99	4851.93
423.18	4793.42
423.37	4985.34
423.56	5015.77
423.75	4870.65
423.94	4889.38
424.13	4652.98
424.32	4840.23
424.50	4943.21
424.69	5043.85
424.88	5027.47
425.07	4915.12
425.26	4938.53
425.45	4961.94
425.64	4851.93
425.83	4952.57
426.01	5069.60
426.20	5093.01
426.39	4882.36
426.58	5060.24
426.77	5043.85
426.96	4961.94
427.15	5207.69
427.33	5078.96
427.52	5083.64
427.71	5179.61
427.90	5172.58
428.09	5298.97
428.28	5385.57
428.46	5275.57
428.65	5296.63
428.84	5490.90
429.03	5387.91
429.22	5310.68
429.40	5355.15
429.59	5451.11
429.78	5125.77
429.97	5151.52
430.16	5528.35
430.34	5654.73
430.53	5626.65
430.72	5605.58
430.91	5657.07
431.10	5607.92
431.28	5720.27
431.47	5692.18
431.66	5846.66
431.85	5607.92
432.03	5874.74
432.22	6005.81
432.41	5916.87
432.60	5884.11
432.79	5926.24
432.97	6029.22
433.16	6017.52
433.35	6083.05
433.54	5959.00
433.72	5951.98
433.91	6153.27
434.10	6211.78
434.28	6040.92
434.47	6108.80
434.66	6289.02
434.85	6326.47
435.03	6300.72
435.22	6279.66
435.41	6471.58
435.59	6296.04
435.78	6174.33
435.97	6347.53
436.16	6518.39
436.34	6300.72
436.53	6516.05
436.72	6485.62
436.90	6478.60
437.09	6424.77
437.28	6555.84
437.46	6672.87
437.65	6771.17
437.84	6768.83
438.02	6843.73
438.21	6820.32
438.40	6801.60
438.58	6712.66
438.77	7042.67
438.96	7035.65
439.14	6974.80
439.33	7108.21
439.52	7061.40
439.70	7007.56
439.89	7290.77
440.08	7356.30
440.26	7274.38
440.45	7332.90
440.63	7566.95
440.82	7651.21
441.01	7417.16
441.19	7559.93
441.38	7683.98
441.57	7658.23
441.75	7808.03
441.94	7922.71
442.12	7803.35
442.31	7950.80
442.50	8105.28
442.68	7824.41
442.87	8011.65
443.05	8006.97
443.24	8175.49
443.43	8035.06
443.61	8049.10
443.80	8416.57
443.98	8011.65
444.17	7815.05
444.35	8002.29
444.54	8414.23
444.73	8351.03
444.91	8264.43
445.10	8276.13
445.28	8369.76
445.47	8229.32
445.65	8182.51
445.84	8278.47
446.02	8503.17
446.21	8418.91
446.39	8477.42
446.58	8500.83
446.77	8294.86
446.95	8203.58
447.14	8390.82
447.32	8659.98
447.51	8435.29
447.69	8362.73
447.88	8484.44
448.06	8596.79
448.25	8505.51
448.43	8720.84
448.62	8624.87
448.80	8336.99
448.99	8744.24
449.17	8751.26
449.36	8489.12
449.54	8741.90
449.73	8938.51
449.91	8730.20
450.10	8858.93
450.28	8968.93
450.46	9039.15
450.65	8968.93
450.83	9109.36
451.02	8828.50
451.20	9011.06
451.39	9177.24
451.57	9210.01
451.76	9240.44
451.94	8997.02
452.13	9411.29
452.31	9214.69
452.49	9284.91
452.68	9303.63
452.86	9228.73
453.05	9305.97
453.23	9291.93
453.42	9399.59
453.60	9390.23
453.78	9617.26
453.97	9504.92
454.15	9348.10
454.34	9525.98
454.52	9621.94
454.70	9617.26
454.89	9689.82
455.07	9877.06
455.26	9820.89
455.44	9921.53
455.62	9998.77
455.81	9802.16
455.99	10033.88
456.17	10008.13
456.36	10157.92
456.54	10064.30
456.73	10214.10
456.91	10338.15
457.09	10476.24
457.28	10504.32
457.46	10181.33
457.64	10377.94
457.83	10541.77
458.01	10303.04
458.19	10710.29
458.38	10375.59
458.56	10644.76
458.74	10789.87
458.93	10663.48
459.11	10478.58
459.29	10799.23
459.48	10874.13
459.66	10775.83
459.84	10981.79
460.03	10874.13
460.21	11023.92
460.39	11033.29
460.57	11056.69
460.76	11042.65
460.94	11143.29
461.12	10895.19
461.31	11044.99
461.49	11115.20
461.67	10967.75
461.85	11445.22
462.04	11253.30
462.22	11829.07
462.40	11400.75
462.59	11398.41
462.77	11417.13
462.95	11585.65
463.13	11534.16
463.32	11737.79
463.50	11843.11
463.68	11623.10
463.86	11843.11
464.05	11648.85
464.23	11798.64
464.41	11889.92
464.59	11716.72
464.78	11885.24
464.96	11864.18
465.14	11735.45
465.32	12091.21
465.50	12072.48
465.69	12198.87
465.87	12252.70
466.05	12060.78
466.23	12266.75
466.41	12273.77
466.60	12397.82
466.78	12116.95
466.96	11999.93
467.14	12255.04
467.32	12472.71
467.51	12533.57
467.69	12051.42
467.87	12390.80
468.05	12472.71
468.23	12358.03
468.41	12388.46
468.60	12547.61
468.78	12648.26
468.96	12622.51
469.14	12489.10
469.32	13041.46
469.50	12657.62
469.69	13167.85
469.87	13055.51
470.05	13254.45
470.23	13053.17
470.41	13238.07
470.59	13291.90
470.77	13156.15
470.95	12912.74
471.14	13561.06
471.32	13123.38
471.50	13642.98
471.68	13481.49
471.86	13650.00
472.04	13708.52
472.22	13874.70
472.40	13708.52
472.58	13671.07
472.77	14003.43
472.95	14017.47
473.13	14457.49
473.31	14012.79
473.49	14043.21
473.67	13951.93
473.85	14178.97
474.03	14710.27
474.21	14562.81
474.39	14792.19
474.57	14600.26
474.75	14874.10
474.93	15044.96
475.12	14752.40
475.30	15051.99
475.48	14862.40
475.66	14916.23
475.84	15300.08
476.02	15510.73
476.20	15536.48
476.38	15520.09
476.56	15857.13
476.74	15962.45
476.92	15702.65
477.10	15648.82
477.28	16187.14
477.46	16130.97
477.64	16238.64
477.82	16411.84
478.00	16741.85
478.18	16786.32
478.36	16786.32
478.54	17200.60
478.72	17439.33
478.90	17401.88
479.08	17762.33
479.26	17736.58
479.44	17771.69
479.62	17895.74
479.80	18080.64
479.98	17898.08
480.16	18485.55
480.34	18384.91
480.52	18602.58
480.70	18485.55
480.88	18373.21
481.06	18764.07
481.24	18925.57
481.41	18927.91
481.59	19398.36
481.77	19381.98
481.95	19503.68
482.13	19807.95
482.31	19707.31
482.49	20109.88
482.67	20100.52
482.85	19971.79
483.03	20559.27
483.21	20730.12
483.39	20891.62
483.57	20884.60
483.74	21186.53
483.92	21238.02
484.10	21076.52
484.28	21788.05
484.46	21834.86
484.64	22235.09
484.82	21919.12
485.00	22022.10
485.18	22860.01
485.35	22845.97
485.53	23002.78
485.71	22647.02
485.89	23608.98
486.07	22939.59
486.25	23171.30
486.43	23623.03
486.61	23641.75
486.78	24177.73
486.96	24058.37
487.14	24409.45
487.32	24690.31
487.50	24559.24
487.68	25188.85
487.85	25046.07
488.03	25420.56
488.21	25678.02
488.39	25743.55
488.57	25834.83
488.75	26263.15
488.92	26263.15
489.10	26803.82
489.28	26501.89
489.46	26981.70
489.64	26616.57
489.81	27250.86
489.99	27548.11
490.17	27674.49
490.35	27800.88
490.53	28154.30
490.70	28294.74
490.88	28364.95
491.06	28723.05
491.24	28353.25
491.41	29158.39
491.59	29392.45
491.77	29032.00
491.95	29535.22
492.13	29460.32
492.30	29745.87
492.48	29872.26
492.66	30300.58
492.84	30223.34
493.01	30478.46
493.19	30532.29
493.37	30738.26
493.54	30796.77
493.72	31138.49
493.90	30981.67
494.08	31754.05
494.25	31686.17
494.43	32006.83
494.61	32273.65
494.79	32156.62
494.96	32325.14
495.14	32238.54
495.32	32708.99
495.49	33095.18
495.67	33001.55
495.85	33350.29
496.02	33989.26
496.20	34092.24
496.38	34017.35
496.55	33991.60
496.73	34962.92
496.91	34672.70
497.09	34567.37
497.26	34569.71
497.44	34960.58
497.62	35082.29
497.79	35964.67
497.97	35433.37
498.14	35779.77
498.32	35854.67
498.50	36046.59
498.67	36641.09
498.85	36554.49
499.03	36481.93
499.20	36884.50
499.38	36713.64
499.56	36772.16
499.73	37095.15
499.91	37209.84
500.08	37509.43
500.26	37046.00
500.44	37617.09
500.61	37436.87
500.79	37750.50
500.97	37661.56
501.14	38167.12
501.32	38230.31
501.49	38375.42
501.67	38885.66
501.84	39218.02
502.02	38967.58
502.20	38728.84
502.37	39201.63
502.55	38801.40
502.72	39391.22
502.90	39281.21
503.07	39503.56
503.25	39765.70
503.43	39709.53
503.60	39948.26
503.78	40247.85
503.95	40187.00
504.13	40259.55
504.30	40498.29
504.48	40357.86
504.65	40343.81
504.83	40823.62
505.01	41282.37
505.18	41064.70
505.36	41177.04
505.53	41111.51
505.71	41235.56
505.88	41970.49
506.06	41064.70
506.23	42115.60
506.41	41642.81
506.58	41670.90
506.76	42115.60
506.93	42003.25
507.11	42485.40
507.28	42485.40
507.46	42349.65
507.63	42604.77
507.81	43033.09
507.98	42792.01
508.16	43278.85
508.33	43103.31
508.50	43728.23
508.68	43297.57
508.85	43709.50
509.03	43665.03
509.20	43735.25
509.38	44453.79
509.55	44205.70
509.73	44348.47
509.90	44257.19
510.08	44318.04
510.25	44304.00
510.42	44477.20
510.60	44577.84
510.77	44872.75
510.95	45029.57
511.12	45275.32
511.30	44828.28
511.47	45067.02
511.64	45127.87
511.82	45352.56
511.99	45736.41
512.17	46033.66
512.34	45537.46
512.51	46115.58
512.69	46230.26
512.86	45895.56
513.04	46478.36
513.21	46433.89
513.38	46693.69
513.56	47042.43
513.73	46363.67
513.90	46696.03
514.08	46756.88
514.25	47096.26
514.43	47189.88
514.60	47370.10
514.77	47138.39
514.95	47573.73
515.12	47166.48
515.29	47164.14
515.47	47964.60
515.64	47971.62
515.81	47976.30
515.99	48093.33
516.16	48135.46
516.33	48055.88
516.51	48257.17
516.68	48182.27
516.85	48247.80
517.03	48442.07
517.20	48772.08
517.37	48458.45
517.54	49064.65
517.72	49008.48
517.89	48919.54
518.06	48664.42
518.24	49090.40
518.41	49088.06
518.58	48973.37
518.75	48940.60
518.93	49462.54
519.10	49160.61
519.27	49282.32
519.45	49450.84
519.62	49661.49
519.79	49841.71
519.96	49574.89
520.14	49947.03
520.31	49963.42
520.48	50113.21
520.65	49918.95
520.83	50368.33
521.00	50511.10
521.17	50698.34
521.34	50429.18
521.52	50775.58
521.69	50798.99
521.86	50513.44
522.03	50995.59
522.20	51145.39
522.38	51269.43
522.55	51524.55
522.72	51274.12
522.89	51248.37
523.07	51700.09
523.24	51381.78
523.41	51700.09
523.58	51290.50
523.75	51945.85
523.92	51660.30
524.10	51978.62
524.27	51704.77
524.44	51992.66
524.61	51760.95
524.78	52034.79
524.96	51938.83
525.13	52058.20
525.30	52378.85
525.47	52556.73
525.64	52355.44
525.81	52289.91
525.98	52435.02
526.16	52435.02
526.33	52851.64
526.50	52631.63
526.67	52437.36
526.84	52643.33
527.01	52629.29
527.18	52797.80
527.36	52790.78
527.53	52973.34
527.70	53298.68
527.87	53242.51
528.04	52959.30
528.21	53544.44
528.38	53324.43
528.55	53460.18
528.72	53368.90
528.89	53450.81
529.07	53010.79
529.24	53324.43
529.41	53443.79
529.58	53787.85
529.75	53743.38
529.92	53808.92
530.09	53572.52
530.26	53787.85
530.43	54136.59
530.60	53624.01
530.77	53869.77
530.94	53818.28
531.11	53806.58
531.28	54246.60
531.46	53951.69
531.63	54178.72
531.80	54035.95
531.97	54176.38
532.14	54461.93
532.31	54447.88
532.48	54581.29
532.65	54354.26
532.82	54103.82
532.99	54653.85
533.16	54487.67
533.33	54607.04
533.50	54803.64
533.67	54649.17
533.84	54635.13
534.01	54733.43
534.18	54705.34
534.35	54817.69
534.52	54958.12
534.69	55028.34
534.86	55213.24
535.03	54876.20
535.20	54986.21
535.37	55405.16
535.54	55332.60
535.71	55271.75
535.88	55145.36
536.05	55304.52
536.22	55606.45
536.38	55473.04
536.55	55112.59
536.72	55611.13
536.89	55377.08
537.06	55262.39
537.23	55557.30
537.40	55660.28
537.57	55604.11
537.74	55522.19
537.91	55899.01
538.08	55725.81
538.25	55723.47
538.42	55676.66
538.59	56189.24
538.75	55870.93
538.92	56053.49
539.09	55978.59
539.26	56142.43
539.43	56095.62
539.60	56112.00
539.77	55973.91
539.94	56217.33
540.11	56451.38
540.28	56425.64
540.44	56378.82
540.61	56322.65
540.78	56334.35
540.95	56252.44
541.12	56058.17
541.29	56306.27
541.46	56516.92
541.62	56502.87
541.79	56580.11
541.96	56446.70
542.13	56374.14
542.30	56568.41
542.47	56659.69
542.63	56788.42
542.80	56865.66
542.97	56966.30
543.14	57045.88
543.31	56924.17
543.48	57050.56
543.64	57258.87
543.81	57293.97
543.98	57027.15
544.15	57212.06
544.32	57293.97
544.48	57492.92
544.65	57272.91
544.82	57158.22
544.99	57010.77
545.16	57380.57
545.32	57352.49
545.49	57687.18
545.66	57556.11
545.83	57513.98
546.00	57558.45
546.16	57537.39
546.33	57425.04
546.50	57347.81
546.67	57663.78
546.83	57432.07
547.00	57762.08
547.17	57474.20
547.34	57586.54
547.50	57818.25
547.67	57787.83
547.84	57766.76
548.00	58131.89
548.17	57888.47
548.34	58033.58
548.51	58106.14
548.67	58061.67
548.84	58000.82
549.01	58028.90
549.18	58148.27
549.34	58155.29
549.51	58213.80
549.68	58358.92
549.84	58272.32
550.01	58445.52
550.18	58019.54
550.34	58379.98
550.51	58394.03
550.68	58117.84
550.84	58190.40
551.01	58365.94
551.18	58176.36
551.34	58433.81
551.51	58543.82
551.68	58592.97
551.84	58457.22
552.01	58450.20
552.18	58630.42
552.34	58379.98
552.51	58583.61
552.68	58351.90
552.84	58756.81
553.01	58803.62
553.18	58824.68
553.34	58820.00
553.51	58665.53
553.67	58679.57
553.84	58941.71
554.01	59032.99
554.17	58948.73
554.34	58876.18
554.51	58894.90
554.67	58815.32
554.84	58766.17
555.00	58866.81
555.17	58721.70
555.33	58981.50
555.50	58880.86
555.67	58824.68
555.83	58869.15
556.00	59091.51
556.16	59384.07
556.33	59196.83
556.50	59040.01
556.66	59318.54
556.83	59035.33
556.99	59363.01
557.16	59365.35
557.32	59409.82
557.49	59442.59
557.65	59330.24
557.82	59320.88
557.98	59152.36
558.15	59451.95
558.32	59250.66
558.48	59131.29
558.65	59292.79
558.81	59491.74
558.98	59353.65
559.14	59533.87
559.31	59533.87
559.47	59557.27
559.64	59781.96
559.80	59716.43
559.97	59597.06
560.13	59426.20
560.30	59449.61
560.46	59667.28
560.63	59540.89
560.79	59611.10
560.96	59873.24
561.12	59620.47
561.29	59695.36
561.45	59592.38
561.61	59622.81
561.78	59480.03
561.94	59573.66
562.11	59634.51
562.27	59803.03
562.44	59707.07
562.60	59833.46
562.77	59817.07
562.93	59821.75
563.10	59728.13
563.26	59550.25
563.42	60095.60
563.59	59880.27
563.75	59840.48
563.92	59999.63
564.08	59774.94
564.24	59962.18
564.41	59924.74
564.57	60069.85
564.74	60030.06
564.90	60175.17
565.07	60032.40
565.23	59868.56
565.39	59966.87
565.56	60102.62
565.72	60212.62
565.88	60081.55
566.05	59945.80
566.21	60109.64
566.38	60149.43
566.54	60088.57
566.70	60271.14
566.87	60200.92
567.03	59931.76
567.19	60198.58
567.36	60142.41
567.52	60247.73
567.68	60385.82
567.85	60439.65
568.01	60097.94
568.17	60264.11
568.34	60451.36
568.50	60156.45
568.66	60247.73
568.83	60322.63
568.99	60111.98
569.15	60439.65
569.32	60399.86
569.48	60191.56
569.64	60556.68
569.81	60259.43
569.97	60310.92
570.13	60214.96
570.30	60158.79
570.46	60367.10
570.62	60313.26
570.78	60271.14
570.95	60261.77
571.11	60381.14
571.27	60474.76
571.43	60170.49
571.60	60584.77
571.76	60514.55
571.92	60664.35
572.09	60467.74
572.25	60402.21
572.41	60533.28
572.57	60573.06
572.74	60741.58
572.90	60329.65
573.06	60573.06
573.22	60528.59
573.38	60458.38
573.55	60643.28
573.71	60755.63
573.87	60659.66
574.03	60488.80
574.20	60463.06
574.36	60591.79
574.52	60509.87
574.68	60561.36
574.84	60549.66
575.01	60603.49
575.17	60432.63
575.33	60488.80
575.49	60425.61
575.65	60418.59
575.82	60767.33
575.98	60903.08
576.14	60809.46
576.30	60573.06
576.46	60729.88
576.62	60708.82
576.79	60757.97
576.95	60463.06
577.11	60587.11
577.27	60860.95
577.43	60692.43
577.59	60612.85
577.75	60453.70
577.92	60619.88
578.08	60816.48
578.24	60711.16
578.40	60809.46
578.56	60970.96
578.72	60729.88
578.88	60711.16
579.04	60818.82
579.21	60788.39
579.37	61020.11
579.53	60832.86
579.69	60788.39
579.85	60687.75
580.01	60753.29
580.17	60678.39
580.33	60757.97
580.49	61034.15
580.65	60933.51
580.82	60587.11
580.98	60821.16
581.14	60776.69
581.30	60856.27
581.46	60743.92
581.62	60884.36
581.78	60615.19
581.94	60776.69
582.10	60779.03
582.26	60699.45
582.42	60781.37
582.58	60846.91
582.74	60928.83
582.90	60837.54
583.06	60910.10
583.22	60601.15
583.38	60793.07
583.54	60917.12
583.70	60858.61
583.86	61008.40
584.02	60809.46
584.18	61020.11
584.34	60743.92
584.50	60912.44
584.66	60858.61
584.82	60591.79
584.98	61083.30
585.14	61048.19
585.30	60842.23
585.46	60914.78
585.62	61057.56
585.78	60952.23
585.94	60903.08
586.10	60924.14
586.26	60804.78
586.42	60947.55
586.58	61062.24
586.74	61052.87
586.90	60968.61
587.06	60877.33
587.22	61059.90
587.38	60961.59
587.54	61066.92
587.70	61118.41
587.86	60788.39
588.02	60879.67
588.18	61155.86
588.34	60856.27
588.49	61106.71
