SpectraSuite Data File
++++++++++++++++++++++++++++++++++++
Date: Fri Oct 25 11:23:46 EDT 2013
User: price-jones
Dark Spectrum Present: No
Reference Spectrum Present: No
Number of Sampled Component Spectra: 1
Spectrometers: USB2+H05261
Integration Time (usec): 100000 (USB2+H05261)
Spectra Averaged: 1 (USB2+H05261)
Boxcar Smoothing: 0 (USB2+H05261)
Correct for Electrical Dark: No (USB2+H05261)
Strobe/Lamp Enabled: No (USB2+H05261)
Correct for Detector Non-linearity: No (USB2+H05261)
Correct for Stray Light: No (USB2+H05261)
Number of Pixels in Processed Spectrum: 2048
>>>>>Begin Processed Spectral Data<<<<<
365.73	194.26
365.92	194.26
366.12	194.26
366.32	107.66
366.52	98.30
366.72	121.71
366.91	145.11
367.11	110.01
367.31	74.90
367.51	91.28
367.70	98.30
367.90	110.01
368.10	107.66
368.30	107.66
368.49	124.05
368.69	180.22
368.89	124.05
369.09	168.52
369.28	170.86
369.48	119.37
369.68	194.26
369.87	140.43
370.07	170.86
370.27	241.08
370.47	407.25
370.66	564.07
370.86	669.39
371.06	667.05
371.25	746.63
371.45	725.57
371.65	669.39
371.84	650.67
372.04	786.42
372.24	685.78
372.44	681.10
372.63	725.57
372.83	685.78
373.03	746.63
373.22	727.91
373.42	767.70
373.62	695.14
373.81	765.36
374.01	793.44
374.21	720.88
374.40	732.59
374.60	821.53
374.79	753.65
374.99	737.27
375.19	849.61
375.38	835.57
375.58	788.76
375.78	901.11
375.97	835.57
376.17	910.47
376.37	896.43
376.56	851.96
376.76	858.98
376.95	863.66
377.15	821.53
377.35	858.98
377.54	828.55
377.74	884.72
377.93	933.87
378.13	945.58
378.33	966.64
378.52	863.66
378.72	966.64
378.91	950.26
379.11	889.40
379.31	985.37
379.50	905.79
379.70	976.00
379.89	971.32
380.09	919.83
380.28	1022.81
380.48	1036.86
380.68	980.68
380.87	997.07
381.07	945.58
381.26	1104.73
381.46	1011.11
381.65	1048.56
381.85	1032.18
382.04	973.66
382.24	1004.09
382.43	1053.24
382.63	961.96
382.83	1001.75
383.02	1057.92
383.22	1121.12
383.41	1025.15
383.61	1100.05
383.80	1228.78
384.00	1184.31
384.19	1055.58
384.39	1130.48
384.58	1076.65
384.78	1186.65
384.97	1165.59
385.17	1123.46
385.36	1207.72
385.56	1186.65
385.75	1064.94
385.95	1114.10
386.14	1142.18
386.34	1137.50
386.53	1210.06
386.72	1170.27
386.92	1301.34
387.11	1291.98
387.31	1299.00
387.50	1373.89
387.70	1217.08
387.89	1282.61
388.09	1198.35
388.28	1380.92
388.48	1352.83
388.67	1343.47
388.86	1306.02
389.06	1238.14
389.25	1336.45
389.45	1341.13
389.64	1303.68
389.84	1350.49
390.03	1423.05
390.22	1427.73
390.42	1383.26
390.61	1366.87
390.81	1416.02
391.00	1509.65
391.19	1540.07
391.39	1439.43
391.58	1493.26
391.78	1455.81
391.97	1519.01
392.16	1404.32
392.36	1516.67
392.55	1500.28
392.75	1537.73
392.94	1598.59
393.13	1455.81
393.33	1629.01
393.52	1577.52
393.71	1572.84
393.91	1565.82
394.10	1582.20
394.29	1645.40
394.49	1530.71
394.68	1654.76
394.88	1605.61
395.07	1706.25
395.26	1706.25
395.46	1696.89
395.65	1650.08
395.84	1699.23
396.04	1774.13
396.23	1790.51
396.42	1774.13
396.62	1795.19
396.81	1781.15
397.00	1724.97
397.19	1767.10
397.39	1790.51
397.58	1797.53
397.77	1792.85
397.97	1888.81
398.16	1919.24
398.35	1926.26
398.55	1849.02
398.74	1846.68
398.93	1961.37
399.12	1933.28
399.32	1926.26
399.51	1928.60
399.70	1935.62
399.90	1900.52
400.09	1973.07
400.28	2085.42
400.47	1991.80
400.67	2104.14
400.86	2057.33
401.05	2157.97
401.24	2017.54
401.44	2136.91
401.63	2157.97
401.82	2190.74
402.01	2155.63
402.21	2195.42
402.40	2204.78
402.59	2174.36
402.78	2115.84
402.97	2291.38
403.17	2176.70
403.36	2275.00
403.55	2375.64
403.74	2434.16
403.93	2307.77
404.13	2466.92
404.32	2279.68
404.51	2263.30
404.70	2382.67
404.89	2506.71
405.09	2485.65
405.28	2431.82
405.47	2429.48
405.66	2473.95
405.85	2492.67
406.05	2497.35
406.24	2677.57
406.43	2579.27
406.62	2560.55
406.81	2642.46
407.00	2560.55
407.20	2614.38
407.39	2630.76
407.58	2689.28
407.77	2782.90
407.96	2754.81
408.15	2789.92
408.34	2787.58
408.54	2801.62
408.73	2743.11
408.92	2754.81
409.11	2834.39
409.30	2930.35
409.49	2864.82
409.68	2890.56
409.87	3038.02
410.07	2930.35
410.26	2942.05
410.45	2979.50
410.64	3056.74
410.83	3152.70
411.02	3164.40
411.21	3218.24
411.40	3164.40
411.59	3307.18
411.78	3201.85
411.98	3089.51
412.17	3274.41
412.36	3379.73
412.55	3297.81
412.74	3396.12
412.93	3375.05
413.12	3433.57
413.31	3510.80
413.50	3449.95
413.69	3557.61
413.88	3625.49
414.07	3651.24
414.26	3786.99
414.45	3794.01
414.64	3772.94
414.83	3667.62
415.02	3674.64
415.22	3871.25
415.41	3871.25
415.60	3939.12
415.79	3906.35
415.98	4016.36
416.17	4095.94
416.36	4114.66
416.55	4044.45
416.74	4100.62
416.93	4133.39
417.12	4037.42
417.31	4234.03
417.50	4065.51
417.69	4210.62
417.88	4266.80
418.07	4175.52
418.26	4219.99
418.45	4344.03
418.64	4599.15
418.83	4449.36
419.02	4479.79
419.21	4664.69
419.39	4559.36
419.58	4362.76
419.77	4489.15
419.96	4660.01
420.15	4610.86
420.34	4669.37
420.53	4629.58
420.72	4713.84
420.91	4695.11
421.10	4798.10
421.29	4823.84
421.48	4664.69
421.67	4748.95
421.86	4566.39
422.05	4805.12
422.24	4791.08
422.43	4917.47
422.61	4971.30
422.80	4987.68
422.99	4877.68
423.18	5118.75
423.37	5093.01
423.56	4858.95
423.75	4889.38
423.94	4847.25
424.13	4652.98
424.32	4765.33
424.50	4929.17
424.69	5095.35
424.88	4858.95
425.07	4957.25
425.26	4971.30
425.45	5004.07
425.64	4882.36
425.83	4858.95
426.01	5032.15
426.20	5088.32
426.39	4896.40
426.58	4945.55
426.77	5095.35
426.96	4964.28
427.15	5228.76
427.33	5273.23
427.52	5266.21
427.71	5266.21
427.90	5181.95
428.09	5266.21
428.28	5324.72
428.46	5444.09
428.65	5411.32
428.84	5540.05
429.03	5568.13
429.22	5219.39
429.40	5465.15
429.59	5591.54
429.78	5483.88
429.97	5261.52
430.16	5577.50
430.34	5586.86
430.53	5682.82
430.72	5678.14
430.91	5729.63
431.10	5589.20
431.28	5912.19
431.47	5790.49
431.66	5884.11
431.85	5846.66
432.03	5891.13
432.22	6010.50
432.41	5900.49
432.60	5923.90
432.79	5853.68
432.97	6104.12
433.16	6094.76
433.35	6120.50
433.54	5919.21
433.72	6120.50
433.91	6099.44
434.10	6164.97
434.28	6015.18
434.47	6197.74
434.66	6303.06
434.85	6218.80
435.03	6338.17
435.22	6190.72
435.41	6452.86
435.59	6502.01
435.78	6511.37
435.97	6466.90
436.16	6518.39
436.34	6576.91
436.53	6705.63
436.72	6771.17
436.90	6354.55
437.09	6628.40
437.28	6476.26
437.46	6546.48
437.65	6656.48
437.84	6670.53
438.02	6640.10
438.21	6773.51
438.40	6682.23
438.58	6881.18
438.77	6984.16
438.96	6897.56
439.14	7159.70
439.33	7169.06
439.52	7234.60
439.70	7272.04
439.89	7398.43
440.08	7463.97
440.26	7410.14
440.45	7353.96
440.63	7620.78
440.82	7705.04
441.01	7559.93
441.19	7613.76
441.38	7609.08
441.57	7545.89
441.75	7815.05
441.94	7918.03
442.12	7882.92
442.31	8135.70
442.50	8138.04
442.68	8060.80
442.87	8105.28
443.05	8285.50
443.24	8280.82
443.43	8219.96
443.61	8065.49
443.80	8444.65
443.98	8028.04
444.17	8018.68
444.35	8210.60
444.54	8306.56
444.73	8212.94
444.91	8381.46
445.10	8578.06
445.28	8308.90
445.47	8376.78
445.65	8428.27
445.84	8585.08
446.02	8479.76
446.21	8512.53
446.39	8549.98
446.58	8603.81
446.77	8615.51
446.95	8189.53
447.14	8421.25
447.32	8505.51
447.51	8629.56
447.69	8468.06
447.88	8578.06
448.06	8496.14
448.25	8627.21
448.43	8549.98
448.62	8648.28
448.80	8709.13
448.99	8777.01
449.17	8805.10
449.36	8638.92
449.54	8931.48
449.73	9043.83
449.91	9102.34
450.10	8997.02
450.28	9156.18
450.46	9081.28
450.65	9071.92
450.83	9125.75
451.02	9088.30
451.20	9212.35
451.39	9238.09
451.57	9060.21
451.76	9308.31
451.94	9462.79
452.13	9242.78
452.31	9301.29
452.49	9284.91
452.68	9371.50
452.86	9275.54
453.05	9430.02
453.23	9549.39
453.42	9266.18
453.60	9434.70
453.78	9371.50
453.97	9397.25
454.15	9731.95
454.34	9652.37
454.52	9706.20
454.70	9942.60
454.89	9731.95
455.07	9776.42
455.26	9848.97
455.44	9994.09
455.62	10038.56
455.81	9914.51
455.99	9832.59
456.17	10073.67
456.36	10300.70
456.54	10146.22
456.73	10354.53
456.91	10523.05
457.09	10471.56
457.28	10544.11
457.46	10317.08
457.64	10593.26
457.83	10841.36
458.01	10338.15
458.19	10684.55
458.38	10354.53
458.56	11077.76
458.74	10576.88
458.93	10679.86
459.11	10871.79
459.29	10761.78
459.48	10647.10
459.66	10799.23
459.84	11098.82
460.03	11077.76
460.21	10878.81
460.39	10984.13
460.57	11328.19
460.76	11253.30
460.94	11332.87
461.12	11382.03
461.31	11328.19
461.49	11112.86
461.67	11103.50
461.85	11639.48
462.04	11461.60
462.22	11506.07
462.40	11515.44
462.59	11440.54
462.77	11707.36
462.95	11618.42
463.13	11751.83
463.32	11648.85
463.50	11889.92
463.68	11885.24
463.86	11698.00
464.05	11749.49
464.23	11695.66
464.41	11964.82
464.59	11536.50
464.78	12177.81
464.96	11908.65
465.14	11992.90
465.32	11800.98
465.50	11990.56
465.69	12072.48
465.87	12276.11
466.05	12126.32
466.23	12273.77
466.41	12353.35
466.60	12690.38
466.78	12156.74
466.96	12306.54
467.14	12379.09
467.32	12531.23
467.51	12631.87
467.69	12182.49
467.87	12362.71
468.05	12800.39
468.23	12573.36
468.41	12620.17
468.60	12676.34
468.78	12599.10
468.96	12561.66
469.14	12891.67
469.32	13146.79
469.50	12690.38
469.69	12898.69
469.87	12908.05
470.05	13088.28
470.23	13331.69
470.41	13336.37
470.59	13439.36
470.77	13146.79
470.95	13315.31
471.14	13521.27
471.32	13097.64
471.50	13603.19
471.68	13635.96
471.86	13717.88
472.04	13631.28
472.22	13858.31
472.40	13661.71
472.58	13944.91
472.77	13877.04
472.95	14190.67
473.13	14499.62
473.31	14281.95
473.49	14155.56
473.67	14183.65
473.85	14523.02
474.03	14618.99
474.21	14736.01
474.39	14738.35
474.57	14785.16
474.75	14874.10
474.93	15227.53
475.12	15054.33
475.30	15213.48
475.48	15016.88
475.66	15211.14
475.84	15536.48
476.02	15510.73
476.20	15510.73
476.38	15723.72
476.56	16086.50
476.74	16107.57
476.92	16060.76
477.10	15784.57
477.28	16046.71
477.46	16147.36
477.64	16552.27
477.82	16709.08
478.00	17025.06
478.18	16692.70
478.36	17160.81
478.54	17305.92
478.72	17153.79
478.90	17451.03
479.08	17612.53
479.26	17619.55
479.44	17591.47
479.62	17717.86
479.80	18317.03
479.98	18352.14
480.16	18735.99
480.34	18473.85
480.52	19009.83
480.70	18630.66
480.88	18281.92
481.06	18948.98
481.24	18780.46
481.41	19152.60
481.59	19625.39
481.77	19775.19
481.95	19735.40
482.13	20025.62
482.31	19992.86
482.49	20372.02
482.67	20306.49
482.85	20489.05
483.03	20610.76
483.21	21010.99
483.39	20695.02
483.57	20891.62
483.74	21436.97
483.92	21460.37
484.10	21474.42
484.28	21825.50
484.46	21563.36
484.64	22483.19
484.82	22033.80
485.00	22651.70
485.18	22750.01
485.35	23459.19
485.53	22967.68
485.71	22981.72
485.89	23463.87
486.07	23463.87
486.25	23770.48
486.43	23924.96
486.61	23910.91
486.78	24301.78
486.96	24198.80
487.14	24521.79
487.32	25104.59
487.50	25043.73
487.68	25127.99
487.85	25542.27
488.03	25699.08
488.21	26134.42
488.39	25984.63
488.57	26223.36
488.75	26188.25
488.92	26714.87
489.10	27096.38
489.28	26932.54
489.46	27283.62
489.64	26607.21
489.81	28243.24
489.99	27817.27
490.17	27601.94
490.35	27943.66
490.53	28163.67
490.70	28577.94
490.88	28453.89
491.06	29195.84
491.24	28992.22
491.41	29263.72
491.59	29350.32
491.77	29256.70
491.95	29755.23
492.13	30087.59
492.30	30005.67
492.48	30331.00
492.66	30253.76
492.84	30473.78
493.01	31164.23
493.19	30794.43
493.37	31229.77
493.54	31564.46
493.72	31756.39
493.90	31639.36
494.08	31908.52
494.25	32364.93
494.43	32280.67
494.61	32353.23
494.79	32552.17
494.96	32664.52
495.14	32947.72
495.32	32940.70
495.49	33769.25
495.67	33170.07
495.85	33280.08
496.02	33979.90
496.20	34401.19
496.38	34448.00
496.55	34330.98
496.73	35255.49
496.91	34972.28
497.09	35044.84
497.26	35428.69
497.44	35124.42
497.62	35215.70
497.79	36306.39
497.97	35997.44
498.14	36027.87
498.32	36367.24
498.50	36329.80
498.67	36730.03
498.85	36711.30
499.03	36737.05
499.20	37130.26
499.38	37415.80
499.56	37287.07
499.73	37216.86
499.91	37713.05
500.08	38017.32
500.26	37399.42
500.44	38022.00
500.61	38462.02
500.79	37701.35
500.97	38607.14
501.14	38373.08
501.32	38611.82
501.49	38775.66
501.67	38967.58
501.84	39288.23
502.02	38960.56
502.20	39033.11
502.37	39538.67
502.55	39363.13
502.72	39608.89
502.90	39695.49
503.07	39735.27
503.25	39983.37
503.43	39910.82
503.60	40336.79
503.78	40554.46
503.95	40528.72
504.13	40985.12
504.30	40959.38
504.48	40589.57
504.65	40720.64
504.83	41125.55
505.01	41605.36
505.18	40924.27
505.36	42078.15
505.53	41134.92
505.71	41752.82
505.88	42391.78
506.06	41397.06
506.23	42064.11
506.41	42122.62
506.58	42316.89
506.76	42600.09
506.93	42361.36
507.11	42366.04
507.28	42696.05
507.46	42808.40
507.63	43194.59
507.81	43435.66
507.98	43107.99
508.16	43650.99
508.33	43210.97
508.50	43871.00
508.68	44093.35
508.85	44549.76
509.03	44306.34
509.20	44062.93
509.38	44959.35
509.55	44538.05
509.73	44928.92
509.90	44755.72
510.08	44849.35
510.25	44966.37
510.42	45130.21
510.60	45219.15
510.77	45368.94
510.95	45762.15
511.12	45200.43
511.30	45951.74
511.47	45673.21
511.64	45673.21
511.82	46120.26
511.99	46019.61
512.17	46244.30
512.34	45792.58
512.51	46344.95
512.69	46642.20
512.86	46265.37
513.04	46864.55
513.21	46880.93
513.38	47178.18
513.56	47133.71
513.73	47019.02
513.90	47351.38
514.08	47114.98
514.25	47304.57
514.43	47489.47
514.60	47709.48
514.77	47672.03
514.95	47838.21
515.12	47885.02
515.29	48002.05
515.47	48278.23
515.64	48303.98
515.81	48493.56
515.99	48484.20
516.16	48638.67
516.33	48641.01
516.51	49249.55
516.68	48734.63
516.85	48329.72
517.03	49539.78
517.20	48690.16
517.37	48708.89
517.54	49174.66
517.72	49139.55
517.89	49581.91
518.06	49436.80
518.24	49474.24
518.41	49748.09
518.58	49364.24
518.75	49645.10
518.93	49698.94
519.10	49464.88
519.27	49874.48
519.45	50117.89
519.62	50080.44
519.79	50141.30
519.96	50810.69
520.14	50457.27
520.31	50447.91
520.48	50534.51
520.65	50745.15
520.83	50733.45
521.00	50784.94
521.17	50632.81
521.34	50913.67
521.52	51084.53
521.69	50974.53
521.86	50958.14
522.03	51388.80
522.20	51866.27
522.38	51505.83
522.55	51597.11
522.72	51533.92
522.89	51531.57
523.07	52088.62
523.24	51824.14
523.41	52004.36
523.58	51531.57
523.75	52137.77
523.92	52149.48
524.10	51810.10
524.27	52449.06
524.44	52140.11
524.61	52086.28
524.78	52271.18
524.96	52355.44
525.13	52559.07
525.30	52395.23
525.47	52704.18
525.64	52690.14
525.81	52676.10
525.98	52961.64
526.16	52802.49
526.33	52727.59
526.50	53272.93
526.67	52933.56
526.84	53036.54
527.01	53022.50
527.18	53172.29
527.36	53104.41
527.53	53329.11
527.70	53862.75
527.87	53499.97
528.04	53162.93
528.21	53717.64
528.38	53532.73
528.55	53499.97
528.72	53478.90
528.89	53935.30
529.07	53244.85
529.24	53504.65
529.41	53591.25
529.58	53923.60
529.75	53563.16
529.92	54049.99
530.09	54195.10
530.26	54281.70
530.43	54190.42
530.60	54003.18
530.77	54066.38
530.94	54040.63
531.11	54440.86
531.28	54101.48
531.46	54253.62
531.63	54454.90
531.80	54239.57
531.97	54642.15
532.14	54569.59
532.31	54747.47
532.48	54857.48
532.65	54532.14
532.82	54794.28
532.99	54934.71
533.16	54553.21
533.33	54850.45
533.50	54995.57
533.67	54890.24
533.84	54614.06
534.01	54948.76
534.18	54871.52
534.35	55477.72
534.52	55182.81
534.69	55402.82
534.86	55157.06
535.03	55229.62
535.20	55320.90
535.37	55428.57
535.54	55299.84
535.71	55503.46
535.88	55494.10
536.05	55552.62
536.22	55887.31
536.38	55639.22
536.55	55784.33
536.72	55842.84
536.89	55662.62
537.06	55826.46
537.23	56039.45
537.40	55491.76
537.57	55763.26
537.74	55828.80
537.91	56076.90
538.08	56133.07
538.25	55983.27
538.42	56011.36
538.59	56439.68
538.75	56170.52
538.92	56034.77
539.09	56437.34
539.26	56535.64
539.43	56296.91
539.60	56491.17
539.77	56545.00
539.94	56673.73
540.11	56772.03
540.28	56741.61
540.44	56666.71
540.61	56755.65
540.78	56629.26
540.95	56442.02
541.12	56690.12
541.29	56559.05
541.46	56647.99
541.62	56769.69
541.79	56685.43
541.96	56486.49
542.13	56842.25
542.30	56914.81
542.47	57048.22
542.63	57209.71
542.80	56882.04
542.97	57076.30
543.14	57221.42
543.31	57392.28
543.48	57186.31
543.64	57504.62
543.81	57509.30
543.98	57408.66
544.15	57272.91
544.32	57602.92
544.48	57752.72
544.65	57462.49
544.82	57532.71
544.99	57504.62
545.16	57605.26
545.32	57336.10
545.49	57769.10
545.66	57888.47
545.83	57801.87
546.00	57827.62
546.16	57928.26
546.33	57640.37
546.50	57612.29
546.67	58026.56
546.83	57483.56
547.00	57869.75
547.17	57808.89
547.34	58040.60
547.50	58087.42
547.67	58293.38
547.84	58047.63
548.00	58080.39
548.17	58255.93
548.34	58337.85
548.51	58269.98
548.67	58239.55
548.84	58171.67
549.01	58120.18
549.18	58260.62
549.34	58363.60
549.51	58351.90
549.68	58564.88
549.84	58599.99
550.01	58581.27
550.18	58389.34
550.34	58564.88
550.51	58459.56
550.68	58492.33
550.84	58365.94
551.01	58934.69
551.18	58693.61
551.34	58672.55
551.51	58817.66
551.68	58705.32
551.84	58731.06
552.01	58852.77
552.18	58726.38
552.34	58585.95
552.51	58997.88
552.68	58602.33
552.84	58616.38
553.01	58988.52
553.18	59044.69
553.34	58993.20
553.51	58894.90
553.67	58974.48
553.84	59119.59
554.01	58862.13
554.17	59075.12
554.34	59201.51
554.51	58955.75
554.67	59133.63
554.84	59297.47
555.00	58869.15
555.17	59042.35
555.33	59051.72
555.50	59264.70
555.67	59171.08
555.83	59201.51
556.00	59341.94
556.16	59428.54
556.33	59348.96
556.50	59421.52
556.66	59519.82
556.83	59168.74
556.99	59550.25
557.16	59660.26
557.32	59590.04
557.49	59693.02
557.65	59341.94
557.82	59489.40
557.98	59540.89
558.15	59594.72
558.32	59751.54
558.48	59566.63
558.65	59547.91
558.81	59606.42
558.98	59554.93
559.14	59863.88
559.31	59765.58
559.47	59882.61
559.64	60144.75
559.80	59700.04
559.97	60011.34
560.13	59522.16
560.30	59669.62
560.46	59973.89
560.63	59931.76
560.79	59838.14
560.96	59898.99
561.12	59924.74
561.29	59962.18
561.45	60032.40
561.61	59770.26
561.78	59856.86
561.94	59915.37
562.11	60027.72
562.27	60013.68
562.44	60104.96
562.60	60018.36
562.77	60381.14
562.93	59964.52
563.10	60083.89
563.26	60097.94
563.42	60467.74
563.59	59987.93
563.75	60111.98
563.92	60074.53
564.08	59931.76
564.24	60198.58
564.41	60367.10
564.57	60306.24
564.74	60243.05
564.90	60271.14
565.07	60172.83
565.23	60327.31
565.39	60292.20
565.56	60203.26
565.72	60149.43
565.88	60278.16
566.05	60149.43
566.21	60378.80
566.38	60327.31
566.54	60348.37
566.70	60477.10
566.87	60357.74
567.03	60327.31
567.19	60657.32
567.36	60399.86
567.52	60299.22
567.68	60596.47
567.85	60587.11
568.01	60505.19
568.17	60521.57
568.34	60573.06
568.50	60474.76
568.66	60383.48
568.83	60481.78
568.99	60542.64
569.15	60612.85
569.32	60449.02
569.48	60488.80
569.64	60556.68
569.81	60739.24
569.97	60629.24
570.13	60507.53
570.30	60535.62
570.46	60626.90
570.62	60636.26
570.78	60460.72
570.95	60753.29
571.11	60874.99
571.27	60650.30
571.43	60512.21
571.60	60743.92
571.76	60697.11
571.92	60907.76
572.09	60874.99
572.25	60898.40
572.41	60638.60
572.57	60772.01
572.74	60914.78
572.90	60715.84
573.06	60610.51
573.22	60814.14
573.38	60563.70
573.55	60701.79
573.71	60898.40
573.87	60783.71
574.03	60701.79
574.20	60610.51
574.36	60729.88
574.52	60917.12
574.68	60849.25
574.84	61017.77
575.01	61052.87
575.17	60891.38
575.33	60725.20
575.49	60690.09
575.65	60921.80
575.82	60977.98
575.98	61038.83
576.14	61181.60
576.30	60963.93
576.46	60816.48
576.62	60853.93
576.79	60949.89
576.95	60697.11
577.11	60835.20
577.27	60935.85
577.43	61031.81
577.59	60802.44
577.75	60945.21
577.92	60718.18
578.08	60748.60
578.24	60877.33
578.40	61212.03
578.56	61050.53
578.72	60945.21
578.88	61205.01
579.04	61017.77
579.21	61069.26
579.37	61169.90
579.53	61219.05
579.69	60734.56
579.85	61050.53
580.01	61109.05
580.17	60706.47
580.33	61062.24
580.49	61113.73
580.65	61027.13
580.82	61043.51
580.98	60842.23
581.14	60886.70
581.30	61008.40
581.46	60942.87
581.62	61237.78
581.78	61137.13
581.94	61181.60
582.10	61034.15
582.26	61132.45
582.42	60985.00
582.58	60987.34
582.74	61153.52
582.90	61038.83
583.06	60963.93
583.22	60924.14
583.38	61123.09
583.54	61256.50
583.70	61024.79
583.86	60882.02
584.02	61024.79
584.18	61212.03
584.34	61251.82
584.50	61132.45
584.66	60914.78
584.82	60884.36
584.98	61249.48
585.14	61151.18
585.30	61050.53
585.46	61050.53
585.62	61092.66
585.78	61125.43
585.94	60886.70
586.10	61116.07
586.26	61146.50
586.42	61212.03
586.58	61183.94
586.74	61235.44
586.90	61265.86
587.06	61298.63
587.22	61315.01
587.38	61214.37
587.54	61408.64
587.70	61289.27
587.86	61144.16
588.02	61282.25
588.18	61450.77
588.34	61268.20
588.49	61118.41
