SpectraSuite Data File
++++++++++++++++++++++++++++++++++++
Date: Fri Oct 25 11:34:42 EDT 2013
User: price-jones
Dark Spectrum Present: No
Reference Spectrum Present: No
Number of Sampled Component Spectra: 1
Spectrometers: USB2+H05261
Integration Time (usec): 100000 (USB2+H05261)
Spectra Averaged: 1 (USB2+H05261)
Boxcar Smoothing: 0 (USB2+H05261)
Correct for Electrical Dark: No (USB2+H05261)
Strobe/Lamp Enabled: No (USB2+H05261)
Correct for Detector Non-linearity: No (USB2+H05261)
Correct for Stray Light: No (USB2+H05261)
Number of Pixels in Processed Spectrum: 2048
>>>>>Begin Processed Spectral Data<<<<<
365.73	308.95
365.92	308.95
366.12	308.95
366.32	227.03
366.52	175.54
366.72	273.84
366.91	152.13
367.11	222.35
367.31	220.01
367.51	114.69
367.70	142.77
367.90	201.29
368.10	175.54
368.30	173.20
368.49	147.45
368.69	201.29
368.89	88.94
369.09	191.92
369.28	236.39
369.48	163.84
369.68	290.23
369.87	234.05
370.07	283.20
370.27	320.65
370.47	285.55
370.66	470.45
370.86	486.83
371.06	552.37
371.25	603.86
371.45	587.47
371.65	603.86
371.84	514.92
372.04	561.73
372.24	564.07
372.44	645.99
372.63	528.96
372.83	662.37
373.03	606.20
373.22	470.45
373.42	571.09
373.62	667.05
373.81	585.13
374.01	608.54
374.21	720.88
374.40	648.33
374.60	636.63
374.79	585.13
374.99	622.58
375.19	655.35
375.38	620.24
375.58	643.65
375.78	695.14
375.97	713.86
376.17	774.72
376.37	657.69
376.56	676.41
376.76	692.80
376.95	683.44
377.15	692.80
377.35	650.67
377.54	662.37
377.74	713.86
377.93	638.97
378.13	702.16
378.33	730.25
378.52	683.44
378.72	727.91
378.91	755.99
379.11	613.22
379.31	667.05
379.50	674.07
379.70	734.93
379.89	725.57
380.09	674.07
380.28	706.84
380.48	777.06
380.68	758.33
380.87	697.48
381.07	725.57
381.26	781.74
381.46	788.76
381.65	763.01
381.85	725.57
382.04	812.17
382.24	784.08
382.43	755.99
382.63	793.44
382.83	713.86
383.02	795.78
383.22	765.36
383.41	774.72
383.61	767.70
383.80	858.98
384.00	847.27
384.19	798.12
384.39	779.40
384.58	753.65
384.78	748.97
384.97	788.76
385.17	767.70
385.36	833.23
385.56	868.34
385.75	763.01
385.95	816.85
386.14	947.92
386.34	837.91
386.53	823.87
386.72	835.57
386.92	875.36
387.11	858.98
387.31	905.79
387.50	863.66
387.70	842.59
387.89	870.68
388.09	912.81
388.28	777.06
388.48	924.51
388.67	961.96
388.86	924.51
389.06	971.32
389.25	814.51
389.45	952.60
389.64	915.15
389.84	929.19
390.03	961.96
390.22	898.77
390.42	891.74
390.61	936.21
390.81	959.62
391.00	957.28
391.19	943.24
391.39	1034.52
391.58	978.34
391.78	1015.79
391.97	997.07
392.16	983.02
392.36	1015.79
392.55	1041.54
392.75	1036.86
392.94	1041.54
393.13	1041.54
393.33	1015.79
393.52	1013.45
393.71	1107.07
393.91	1027.50
394.10	943.24
394.29	1034.52
394.49	1013.45
394.68	1144.52
394.88	1076.65
395.07	1064.94
395.26	1067.28
395.46	1116.44
395.65	1240.48
395.84	1121.12
396.04	1163.25
396.23	1111.75
396.42	1184.31
396.62	1212.40
396.81	1121.12
397.00	1107.07
397.19	1153.88
397.39	1170.27
397.58	1193.67
397.77	1130.48
397.97	1240.48
398.16	1188.99
398.35	1210.06
398.55	1226.44
398.74	1270.91
398.93	1303.68
399.12	1245.16
399.32	1212.40
399.51	1233.46
399.70	1240.48
399.90	1207.72
400.09	1212.40
400.28	1303.68
400.47	1355.17
400.67	1378.58
400.86	1315.38
401.05	1416.02
401.24	1345.81
401.44	1345.81
401.63	1366.87
401.82	1327.08
402.01	1320.06
402.21	1350.49
402.40	1432.41
402.59	1397.30
402.78	1343.47
402.97	1509.65
403.17	1434.75
403.36	1526.03
403.55	1530.71
403.74	1441.77
403.93	1629.01
404.13	1516.67
404.32	1533.05
404.51	1486.24
404.70	1561.14
404.89	1584.54
405.09	1668.80
405.28	1661.78
405.47	1629.01
405.66	1519.01
405.85	1668.80
406.05	1675.82
406.24	1661.78
406.43	1682.85
406.62	1757.74
406.81	1724.97
407.00	1631.35
407.20	1556.46
407.39	1643.06
407.58	1729.66
407.77	1802.21
407.96	1783.49
408.15	1755.40
408.34	1816.26
408.54	1907.54
408.73	1851.36
408.92	1937.96
409.11	1802.21
409.30	1937.96
409.49	1839.66
409.68	1905.20
409.87	1970.73
410.07	1860.73
410.26	2003.50
410.45	1839.66
410.64	2024.56
410.83	2029.24
411.02	2003.50
411.21	2134.57
411.40	1984.77
411.59	2010.52
411.78	2085.42
411.98	2202.44
412.17	2244.57
412.36	2057.33
412.55	2225.85
412.74	2394.37
412.93	2242.23
413.12	2204.78
413.31	2434.16
413.50	2303.09
413.69	2326.49
413.88	2258.62
414.07	2349.90
414.26	2429.48
414.45	2469.27
414.64	2420.11
414.83	2406.07
415.02	2448.20
415.22	2469.27
415.41	2539.48
415.60	2537.14
415.79	2462.24
415.98	2525.44
416.17	2579.27
416.36	2530.12
416.55	2637.78
416.74	2600.34
416.93	2595.65
417.12	2679.91
417.31	2731.41
417.50	2691.62
417.69	2808.64
417.88	2813.32
418.07	2745.45
418.26	2815.66
418.45	2928.01
418.64	2878.86
418.83	2876.52
419.02	2916.31
419.21	2970.14
419.39	3089.51
419.58	3005.25
419.77	2761.83
419.96	3014.61
420.15	3014.61
420.34	2874.18
420.53	2909.29
420.72	3033.33
420.91	2991.20
421.10	3054.40
421.29	3063.76
421.48	3052.06
421.67	3035.67
421.86	3145.68
422.05	3206.53
422.24	3042.70
422.43	3211.22
422.61	3229.94
422.80	3269.73
422.99	3133.98
423.18	3269.73
423.37	3225.26
423.56	3183.13
423.75	3180.79
423.94	3115.25
424.13	3040.36
424.32	3145.68
424.50	3251.00
424.69	3311.86
424.88	3290.79
425.07	3253.34
425.26	3159.72
425.45	3183.13
425.64	3229.94
425.83	3243.98
426.01	3344.63
426.20	3279.09
426.39	3316.54
426.58	3241.64
426.77	3206.53
426.96	3412.50
427.15	3318.88
427.33	3293.13
427.52	3417.18
427.71	3339.94
427.90	3414.84
428.09	3527.19
428.28	3459.31
428.46	3431.23
428.65	3421.86
428.84	3520.17
429.03	3726.13
429.22	3461.65
429.40	3616.13
429.59	3609.11
429.78	3550.59
429.97	3471.01
430.16	3522.51
430.34	3667.62
430.53	3592.72
430.72	3609.11
430.91	3705.07
431.10	3627.83
431.28	3669.96
431.47	3623.15
431.66	3679.32
431.85	3712.09
432.03	3815.07
432.22	3932.10
432.41	3812.73
432.60	3873.59
432.79	3887.63
432.97	3861.88
433.16	3906.35
433.35	3824.44
433.54	3927.42
433.72	4018.70
433.91	3992.95
434.10	3946.14
434.28	3992.95
434.47	3992.95
434.66	4224.67
434.85	3964.87
435.03	4102.96
435.22	4119.34
435.41	4229.35
435.59	4168.49
435.78	4252.75
435.97	4152.11
436.16	4182.54
436.34	4046.79
436.53	4334.67
436.72	4308.93
436.90	4283.18
437.09	4250.41
437.28	4299.56
437.46	4327.65
437.65	4271.48
437.84	4311.27
438.02	4318.29
438.21	4477.44
438.40	4416.59
438.58	4334.67
438.77	4582.77
438.96	4432.97
439.14	4521.92
439.33	4615.54
439.52	4624.90
439.70	4535.96
439.89	4828.53
440.08	4674.05
440.26	4645.96
440.45	4706.82
440.63	4856.61
440.82	4877.68
441.01	4720.86
441.19	5011.09
441.38	4990.02
441.57	5011.09
441.75	4945.55
441.94	5057.90
442.12	5015.77
442.31	5219.39
442.50	5280.25
442.68	5277.91
442.87	5170.24
443.05	5153.86
443.24	5345.78
443.43	5174.92
443.61	5313.02
443.80	5254.50
443.98	5214.71
444.17	5022.79
444.35	5247.48
444.54	5303.65
444.73	5320.04
444.91	5362.17
445.10	5380.89
445.28	5383.23
445.47	5245.14
445.65	5305.99
445.84	5369.19
446.02	5313.02
446.21	5474.51
446.39	5570.48
446.58	5570.48
446.77	5514.30
446.95	5245.14
447.14	5451.11
447.32	5455.79
447.51	5439.40
447.69	5383.23
447.88	5427.70
448.06	5315.36
448.25	5441.75
448.43	5490.90
448.62	5394.93
448.80	5547.07
448.99	5703.89
449.17	5582.18
449.36	5483.88
449.54	5661.76
449.73	5661.76
449.91	5584.52
450.10	5659.42
450.28	5832.62
450.46	5837.30
450.65	5823.25
450.83	5736.65
451.02	5694.52
451.20	5937.94
451.39	5776.44
451.57	5746.02
451.76	5935.60
451.94	5792.83
452.13	6003.47
452.31	5893.47
452.49	5738.99
452.68	5846.66
452.86	5877.09
453.05	5935.60
453.23	6083.05
453.42	5949.64
453.60	5963.68
453.78	6015.18
453.97	5930.92
454.15	5933.26
454.34	5832.62
454.52	6218.80
454.70	6338.17
454.89	6251.57
455.07	6122.84
455.26	6265.61
455.44	6300.72
455.62	6291.36
455.81	6284.34
455.99	6490.31
456.17	6476.26
456.36	6368.60
456.54	6450.52
456.73	6408.39
456.91	6724.36
457.09	6712.66
457.28	6736.06
457.46	6530.09
457.64	6689.25
457.83	6551.16
458.01	6516.05
458.19	6927.99
458.38	6679.89
458.56	6705.63
458.74	6827.34
458.93	6630.74
459.11	6808.62
459.29	6707.98
459.48	6747.76
459.66	7016.93
459.84	7021.61
460.03	7157.36
460.21	6984.16
460.39	6785.21
460.57	6953.73
460.76	7035.65
460.94	7094.16
461.12	7084.80
461.31	7033.31
461.49	6967.77
461.67	7145.66
461.85	7234.60
462.04	7124.59
462.22	7286.09
462.40	7349.28
462.59	7262.68
462.77	7503.76
462.95	7482.69
463.13	7325.88
463.32	7164.38
463.50	7325.88
463.68	7400.77
463.86	7644.19
464.05	7424.18
464.23	7452.27
464.41	7538.87
464.59	7412.48
464.78	7786.96
464.96	7529.50
465.14	7510.78
465.32	7653.55
465.50	7747.17
465.69	7583.34
465.87	7590.36
466.05	7714.41
466.23	7683.98
466.41	7873.56
466.60	7957.82
466.78	7730.79
466.96	7707.38
467.14	7808.03
467.32	7819.73
467.51	7939.10
467.69	7686.32
467.87	7733.13
468.05	7695.68
468.23	7770.58
468.41	7672.28
468.60	7939.10
468.78	8002.29
468.96	7946.12
469.14	8184.85
469.32	8156.77
469.50	7868.88
469.69	8280.82
469.87	8299.54
470.05	8264.43
470.23	8367.42
470.41	8063.15
470.59	8280.82
470.77	8262.09
470.95	8397.84
471.14	8454.02
471.32	8241.03
471.50	8718.50
471.68	8636.58
471.86	8545.30
472.04	8507.85
472.22	8823.82
472.40	8615.51
472.58	8589.77
472.77	8833.18
472.95	8734.88
473.13	9188.94
473.31	8865.95
473.49	9001.70
473.67	9062.55
473.85	9057.87
474.03	9011.06
474.21	9151.49
474.39	9163.20
474.57	8980.64
474.75	9240.44
474.93	9331.72
475.12	9427.68
475.30	9425.34
475.48	9425.34
475.66	9432.36
475.84	9680.46
476.02	9516.62
476.20	9469.81
476.38	9853.66
476.56	10043.24
476.74	9994.09
476.92	9912.17
477.10	9844.29
477.28	10134.52
477.46	10066.64
477.64	9998.77
477.82	10326.44
478.00	10382.62
478.18	10431.77
478.36	10679.86
478.54	10757.10
478.72	10857.75
478.90	10782.85
479.08	10785.19
479.26	11061.37
479.44	11009.88
479.62	10967.75
479.80	11389.05
479.98	11386.71
480.16	11616.08
480.34	11433.52
480.52	11599.70
480.70	11510.75
480.88	11541.18
481.06	11702.68
481.24	11653.53
481.41	11925.03
481.59	11981.20
481.77	11971.84
481.95	12102.91
482.13	12353.35
482.31	12233.98
482.49	12556.97
482.67	12465.69
482.85	12692.73
483.03	12741.88
483.21	12840.18
483.39	13032.10
483.57	12910.40
483.74	12917.42
483.92	13170.19
484.10	13092.96
484.28	13348.08
484.46	13509.57
484.64	13781.07
484.82	13802.14
485.00	13542.34
485.18	14200.03
485.35	14539.41
485.53	14066.62
485.71	14265.57
485.89	14658.78
486.07	14551.11
486.25	14604.94
486.43	14607.28
486.61	14656.43
486.78	14714.95
486.96	14696.22
487.14	15087.09
487.32	15295.40
487.50	15489.67
487.68	15412.43
487.85	15667.55
488.03	15908.62
488.21	15810.32
488.39	15847.77
488.57	16037.35
488.75	16182.46
488.92	16608.44
489.10	16531.20
489.28	16542.91
489.46	16360.34
489.64	16596.74
489.81	17249.75
489.99	16903.35
490.17	17146.76
490.35	17554.02
490.53	17411.25
490.70	17561.04
490.88	17678.07
491.06	17848.93
491.24	17664.02
491.41	17877.01
491.59	18120.43
491.77	17996.38
491.95	18185.96
492.13	18228.09
492.30	18588.53
492.48	18366.18
492.66	18843.65
492.84	19117.50
493.01	19138.56
493.19	19304.74
493.37	19094.09
493.54	19468.58
493.72	19241.54
493.90	19716.67
494.08	19253.25
494.25	19800.93
494.43	19791.57
494.61	20170.74
494.79	19807.95
494.96	20107.54
495.14	20432.88
495.32	20299.47
495.49	20585.01
495.67	20266.70
495.85	20751.19
496.02	20802.68
496.20	20987.58
496.38	21046.10
496.55	20924.39
496.73	21338.66
496.91	21343.35
497.09	21635.91
497.26	21233.34
497.44	21544.63
497.62	21755.28
497.79	21671.02
497.97	21759.96
498.14	22146.15
498.32	22492.55
498.50	22501.91
498.67	22745.33
498.85	22625.96
499.03	22698.52
499.20	22878.74
499.38	22572.13
499.56	22939.59
499.73	22768.73
499.91	22948.95
500.08	23330.46
500.26	23091.73
500.44	23084.70
500.61	23466.21
500.79	23241.52
500.97	23419.40
501.14	23541.11
501.32	23852.40
501.49	23854.74
501.67	23751.76
501.84	24226.89
502.02	23758.78
502.20	24189.44
502.37	24238.59
502.55	24369.66
502.72	24224.54
502.90	24376.68
503.07	24364.98
503.25	24456.26
503.43	24613.07
503.60	24842.45
503.78	25067.14
503.95	24938.41
504.13	25245.02
504.30	24968.84
504.48	25263.74
504.65	25055.43
504.83	25123.31
505.01	25404.17
505.18	25518.86
505.36	25886.32
505.53	25296.51
505.71	25701.42
505.88	25675.68
506.06	25907.39
506.23	25855.90
506.41	26129.74
506.58	26391.88
506.76	26469.12
506.93	26295.92
507.11	26134.42
507.28	26291.24
507.46	26419.97
507.63	26747.64
507.81	26955.95
507.98	26721.90
508.16	26841.26
508.33	27140.85
508.50	27246.18
508.68	26651.68
508.85	27646.41
509.03	27281.28
509.20	27386.61
509.38	27686.20
509.55	27669.81
509.73	27330.44
509.90	27218.09
510.08	27924.93
510.25	27667.47
510.42	27812.59
510.60	28395.38
510.77	28116.86
510.95	28313.46
511.12	27974.08
511.30	28250.27
511.47	28292.40
511.64	28051.32
511.82	28563.90
511.99	28486.66
512.17	28568.58
512.34	28273.67
512.51	29010.94
512.69	28940.72
512.86	28587.30
513.04	29092.86
513.21	29076.48
513.38	29486.07
513.56	29663.95
513.73	29050.73
513.90	29380.74
514.08	29399.47
514.25	29792.68
514.43	29778.64
514.60	29216.91
514.77	29883.96
514.95	29720.12
515.12	29673.31
515.29	29970.56
515.47	30040.78
515.64	29921.41
515.81	30155.46
515.99	30221.00
516.16	30588.46
516.33	30487.82
516.51	30651.66
516.68	30335.68
516.85	30120.35
517.03	30789.75
517.20	30572.08
517.37	30630.59
517.54	30377.81
517.72	30988.69
517.89	30513.56
518.06	30995.71
518.24	31075.29
518.41	31016.78
518.58	30878.69
518.75	30946.56
518.93	31253.17
519.10	31503.61
519.27	31615.96
519.45	31784.48
519.62	31852.35
519.79	31824.26
519.96	31803.20
520.14	31718.94
520.31	31550.42
520.48	32016.19
520.65	32362.59
520.83	32428.12
521.00	32210.45
521.17	32458.55
521.34	32334.50
521.52	32465.57
521.69	31971.72
521.86	32627.07
522.03	32790.91
522.20	32905.59
522.38	33003.89
522.55	33301.14
522.72	32730.05
522.89	32687.92
523.07	33322.21
523.24	33226.24
523.41	33322.21
523.58	33048.36
523.75	33380.72
523.92	33160.71
524.10	33724.78
524.27	33504.77
524.44	33830.10
524.61	33832.44
524.78	33771.59
524.96	33628.82
525.13	33895.64
525.30	34087.56
525.47	34220.97
525.64	34078.20
525.81	34054.79
525.98	34038.41
526.16	34075.86
526.33	34106.29
526.50	34328.64
526.67	34181.18
526.84	34625.89
527.01	34251.40
527.18	34223.31
527.36	34415.24
527.53	34490.13
527.70	34719.51
527.87	35000.37
528.04	34543.97
528.21	34433.96
528.38	34581.42
528.55	35285.92
528.72	34904.41
528.89	35026.12
529.07	34869.30
529.24	35061.22
529.41	35241.45
529.58	35402.94
529.75	34953.56
529.92	35562.10
530.09	35526.99
530.26	35955.31
530.43	35281.24
530.60	35220.38
530.77	35421.67
530.94	35494.22
531.11	35585.50
531.28	35892.12
531.46	35690.83
531.63	36306.39
531.80	35859.35
531.97	36044.25
532.14	36093.40
532.31	36053.61
532.48	36360.22
532.65	36549.81
532.82	36327.45
532.99	35955.31
533.16	35637.00
533.33	36353.20
533.50	36229.15
533.67	36053.61
533.84	36414.05
534.01	36594.28
534.18	36741.73
534.35	36954.72
534.52	36610.66
534.69	37123.24
534.86	37125.58
535.03	36849.39
535.20	36858.76
535.37	37057.70
535.54	37130.26
535.71	36797.90
535.88	37469.64
536.05	37308.14
536.22	37067.06
536.38	37621.77
536.55	37397.08
536.72	37188.77
536.89	37420.48
537.06	37099.83
537.23	37418.14
537.40	37275.37
537.57	37785.61
537.74	37476.66
537.91	37893.27
538.08	38000.94
538.25	37469.64
538.42	37862.85
538.59	38066.47
538.75	37958.81
538.92	38429.26
539.09	38291.16
539.26	37993.92
539.43	38157.75
539.60	38115.62
539.77	38108.60
539.94	38660.97
540.11	38775.66
540.28	38557.99
540.44	38574.37
540.61	38485.43
540.78	37940.08
540.95	38504.15
541.12	38806.08
541.29	38440.96
541.46	38658.63
541.62	38637.56
541.79	38576.71
541.96	38323.93
542.13	38803.74
542.30	38541.60
542.47	38773.31
542.63	38480.75
542.80	39103.33
542.97	39384.19
543.14	39531.65
543.31	39019.07
543.48	39426.32
543.64	39594.84
543.81	39789.11
543.98	39372.49
544.15	39658.04
544.32	39349.09
544.48	39964.65
544.65	39838.26
544.82	39768.04
544.99	39700.17
545.16	40004.44
545.32	39700.17
545.49	40144.87
545.66	40294.66
545.83	39922.52
546.00	40107.42
546.16	39976.35
546.33	40009.12
546.50	40177.64
546.67	40304.02
546.83	39880.39
547.00	40416.37
547.17	40367.22
547.34	40025.50
547.50	40367.22
547.67	40535.74
547.84	39831.24
548.00	39922.52
548.17	41284.71
548.34	40907.88
548.51	40425.73
548.67	41139.60
548.84	40367.22
549.01	41013.21
549.18	40739.36
549.34	40928.95
549.51	41165.34
549.68	40718.30
549.84	40638.72
550.01	41429.82
550.18	40758.09
550.34	41020.23
550.51	41092.79
550.68	40947.67
550.84	40858.73
551.01	41521.10
551.18	41045.97
551.34	41106.83
551.51	41322.16
551.68	40912.56
551.84	41706.01
552.01	41308.11
552.18	41422.80
552.34	41258.96
552.51	41638.13
552.68	41383.01
552.84	41827.71
553.01	41586.64
553.18	41364.29
553.34	41507.06
553.51	41357.27
553.67	41261.30
553.84	42082.83
554.01	41687.28
554.17	41642.81
554.34	41584.30
554.51	42110.92
554.67	42120.28
554.84	42333.27
555.00	42017.30
555.17	42033.68
555.33	42408.17
555.50	41684.94
555.67	41984.53
555.83	42424.55
556.00	42321.57
556.16	42499.45
556.33	42391.78
556.50	42363.70
556.66	42176.45
556.83	41923.68
556.99	42462.00
557.16	42883.30
557.32	42340.29
557.49	42497.11
557.65	42450.30
557.82	42101.56
557.98	42396.46
558.15	42618.81
558.32	42740.52
558.48	42543.92
558.65	42642.22
558.81	42588.39
558.98	42394.12
559.14	42703.07
559.31	42326.25
559.47	42969.90
559.64	42775.63
559.80	42368.38
559.97	43283.53
560.13	42391.78
560.30	43023.73
560.46	43086.92
560.63	43351.40
560.79	43243.74
560.96	43328.00
561.12	43075.22
561.29	43138.41
561.45	43093.94
561.61	43393.53
561.78	42857.55
561.94	42717.12
562.11	43028.41
562.27	43262.46
562.44	43501.20
562.60	43122.03
562.77	43328.00
562.93	42845.85
563.10	43236.72
563.26	43161.82
563.42	43854.62
563.59	43337.36
563.75	43473.11
563.92	43580.78
564.08	43187.56
564.24	43646.31
564.41	43543.33
564.57	43906.11
564.74	43430.98
564.90	43367.79
565.07	43484.81
565.23	43309.27
565.39	43491.83
565.56	43491.83
565.72	43667.37
565.88	43611.20
566.05	43559.71
566.21	43239.06
566.38	43412.26
566.54	43800.79
566.70	43805.47
566.87	43955.26
567.03	43601.84
567.19	43608.86
567.36	43777.38
567.52	43737.59
567.68	44198.68
567.85	43983.35
568.01	44341.45
568.17	43880.36
568.34	44009.09
568.50	43798.44
568.66	43786.74
568.83	43838.23
568.99	43873.34
569.15	43725.89
569.32	44325.07
569.48	43739.93
569.64	44044.20
569.81	43985.69
569.97	44205.70
570.13	44357.83
570.30	43419.28
570.46	43988.03
570.62	44198.68
570.78	43957.60
570.95	43777.38
571.11	44367.20
571.27	43917.81
571.43	43711.84
571.60	44498.26
571.76	44271.23
571.92	44079.31
572.09	44179.95
572.25	43770.36
572.41	44123.78
572.57	44385.92
572.74	44304.00
572.90	44278.25
573.06	44217.40
573.22	44198.68
573.38	44357.83
573.55	44385.92
573.71	44421.03
573.87	44502.95
574.03	44266.55
574.20	44098.03
574.36	43969.30
574.52	44423.37
574.68	44278.25
574.84	44617.63
575.01	44786.15
575.17	44292.30
575.33	44318.04
575.49	44222.08
575.65	44198.68
575.82	44512.31
575.98	44065.27
576.14	44505.29
576.30	44191.65
576.46	44320.38
576.62	44385.92
576.79	44402.30
576.95	44081.65
577.11	44151.87
577.27	44533.37
577.43	44390.60
577.59	44350.81
577.75	43978.67
577.92	43943.56
578.08	44662.10
578.24	44133.14
578.40	44767.43
578.56	44341.45
578.72	44217.40
578.88	44704.23
579.04	44816.58
579.21	44694.87
579.37	44673.81
579.53	44500.61
579.69	43910.79
579.85	44437.41
580.01	44729.98
580.17	44669.12
580.33	44643.38
580.49	44825.94
580.65	44673.81
580.82	44428.05
580.98	44542.74
581.14	44610.61
581.30	44531.03
581.46	44030.16
581.62	44786.15
581.78	44430.39
581.94	44858.71
582.10	45167.66
582.26	44786.15
582.42	44657.42
582.58	44751.04
582.74	44844.66
582.90	44554.44
583.06	45052.97
583.22	44449.11
583.38	44519.33
583.54	45034.25
583.70	44954.67
583.86	44781.47
584.02	44650.40
584.18	44781.47
584.34	44872.75
584.50	45064.67
584.66	44814.24
584.82	44645.72
584.98	45226.17
585.14	44975.73
585.30	44451.45
585.46	45074.04
585.62	44451.45
585.78	44861.05
585.94	44655.08
586.10	44573.16
586.26	44655.08
586.42	44488.90
586.58	44655.08
586.74	44692.53
586.90	44905.52
587.06	44563.80
587.22	45291.71
587.38	44928.92
587.54	44591.89
587.70	45027.23
587.86	44685.51
588.02	44811.90
588.18	44619.97
588.34	44811.90
588.49	44896.16
588.65	44406.98
588.81	44910.20
588.97	44839.98
589.13	44746.36
589.29	44847.00
589.45	45024.89
589.61	45106.80
589.77	45275.32
589.93	45251.92
590.08	44882.11
590.24	44980.42
