SpectraSuite Data File
++++++++++++++++++++++++++++++++++++
Date: Fri Oct 25 10:47:08 EDT 2013
User: price-jones
Dark Spectrum Present: No
Reference Spectrum Present: No
Number of Sampled Component Spectra: 1
Spectrometers: USB2+H05261
Integration Time (usec): 100000 (USB2+H05261)
Spectra Averaged: 1 (USB2+H05261)
Boxcar Smoothing: 0 (USB2+H05261)
Correct for Electrical Dark: No (USB2+H05261)
Strobe/Lamp Enabled: No (USB2+H05261)
Correct for Detector Non-linearity: No (USB2+H05261)
Correct for Stray Light: No (USB2+H05261)
Number of Pixels in Processed Spectrum: 2048
>>>>>Begin Processed Spectral Data<<<<<
365.73	170.86
365.92	170.86
366.12	170.86
366.32	56.17
366.52	102.98
366.72	44.47
366.91	25.75
367.11	70.22
367.31	25.75
367.51	0.00
367.70	0.00
367.90	51.49
368.10	0.00
368.30	0.00
368.49	32.77
368.69	37.45
368.89	2.34
369.09	81.92
369.28	138.09
369.48	0.00
369.68	63.19
369.87	102.98
370.07	98.30
370.27	131.07
370.47	184.90
370.66	315.97
370.86	351.08
371.06	463.43
371.25	449.38
371.45	449.38
371.65	348.74
371.84	409.59
372.04	461.09
372.24	451.72
372.44	489.17
372.63	505.56
372.83	517.26
373.03	521.94
373.22	489.17
373.42	449.38
373.62	496.19
373.81	552.37
374.01	524.28
374.21	573.43
374.40	561.73
374.60	479.81
374.79	585.13
374.99	524.28
375.19	641.31
375.38	664.71
375.58	517.26
375.78	573.43
375.97	582.79
376.17	547.69
376.37	545.34
376.56	507.90
376.76	573.43
376.95	545.34
377.15	608.54
377.35	599.18
377.54	692.80
377.74	580.45
377.93	582.79
378.13	606.20
378.33	613.22
378.52	559.39
378.72	564.07
378.91	648.33
379.11	629.60
379.31	622.58
379.50	695.14
379.70	657.69
379.89	657.69
380.09	657.69
380.28	601.52
380.48	643.65
380.68	589.82
380.87	641.31
381.07	678.76
381.26	737.27
381.46	631.94
381.65	713.86
381.85	610.88
382.04	685.78
382.24	718.54
382.43	683.44
382.63	711.52
382.83	674.07
383.02	692.80
383.22	667.05
383.41	620.24
383.61	653.01
383.80	744.29
384.00	751.31
384.19	725.57
384.39	716.20
384.58	753.65
384.78	788.76
384.97	748.97
385.17	718.54
385.36	697.48
385.56	788.76
385.75	720.88
385.95	667.05
386.14	823.87
386.34	765.36
386.53	741.95
386.72	802.80
386.92	753.65
387.11	763.01
387.31	814.51
387.50	798.12
387.70	765.36
387.89	807.48
388.09	770.04
388.28	840.25
388.48	737.27
388.67	835.57
388.86	875.36
389.06	870.68
389.25	858.98
389.45	856.64
389.64	861.32
389.84	924.51
390.03	875.36
390.22	875.36
390.42	985.37
390.61	901.11
390.81	894.08
391.00	936.21
391.19	957.28
391.39	952.60
391.58	929.19
391.78	875.36
391.97	866.00
392.16	936.21
392.36	1008.77
392.55	880.04
392.75	938.55
392.94	849.61
393.13	1013.45
393.33	901.11
393.52	987.71
393.71	978.34
393.91	994.73
394.10	1076.65
394.29	1004.09
394.49	922.17
394.68	971.32
394.88	1095.37
395.07	1081.33
395.26	1055.58
395.46	1132.82
395.65	1137.50
395.84	1172.61
396.04	1116.44
396.23	1135.16
396.42	1093.03
396.62	1179.63
396.81	1128.14
397.00	1158.57
397.19	1214.74
397.39	1172.61
397.58	1259.21
397.77	1266.23
397.97	1249.85
398.16	1242.82
398.35	1284.95
398.55	1203.04
398.74	1226.44
398.93	1273.25
399.12	1146.86
399.32	1376.24
399.51	1313.04
399.70	1404.32
399.90	1392.62
400.09	1362.19
400.28	1474.54
400.47	1401.98
400.67	1387.94
400.86	1392.62
401.05	1427.73
401.24	1397.30
401.44	1432.41
401.63	1380.92
401.82	1493.26
402.01	1528.37
402.21	1495.60
402.40	1488.58
402.59	1556.46
402.78	1500.28
402.97	1537.73
403.17	1607.95
403.36	1589.22
403.55	1528.37
403.74	1596.25
403.93	1570.50
404.13	1603.27
404.32	1591.56
404.51	1535.39
404.70	1671.14
404.89	1673.48
405.09	1769.44
405.28	1629.01
405.47	1769.44
405.66	1748.38
405.85	1699.23
406.05	1699.23
406.24	1661.78
406.43	1767.10
406.62	1820.94
406.81	1771.79
407.00	1811.57
407.20	1729.66
407.39	1860.73
407.58	1921.58
407.77	1776.47
407.96	1914.56
408.15	1970.73
408.34	1888.81
408.54	1872.43
408.73	1994.14
408.92	1949.67
409.11	1944.99
409.30	2087.76
409.49	1909.88
409.68	2080.74
409.87	1982.43
410.07	1937.96
410.26	2092.44
410.45	2073.71
410.64	2031.58
410.83	2172.02
411.02	2113.50
411.21	2200.10
411.40	2193.08
411.59	2232.87
411.78	2324.15
411.98	2211.81
412.17	2291.38
412.36	2314.79
412.55	2373.30
412.74	2377.98
412.93	2487.99
413.12	2333.51
413.31	2450.54
413.50	2438.84
413.69	2387.35
413.88	2527.78
414.07	2490.33
414.26	2513.74
414.45	2546.50
414.64	2654.17
414.83	2722.04
415.02	2682.25
415.22	2780.56
415.41	2672.89
415.60	2675.23
415.79	2747.79
415.98	2766.51
416.17	2832.05
416.36	2787.58
416.55	2825.03
416.74	2672.89
416.93	2869.50
417.12	2754.81
417.31	2920.99
417.50	2991.20
417.69	2953.76
417.88	2928.01
418.07	2981.84
418.26	3103.55
418.45	3133.98
418.64	3045.04
418.83	3059.08
419.02	3098.87
419.21	3126.96
419.39	3199.51
419.58	2981.84
419.77	3054.40
419.96	3260.37
420.15	3438.25
420.34	3192.49
420.53	3351.65
420.72	3300.16
420.91	3311.86
421.10	3346.97
421.29	3489.74
421.48	3246.32
421.67	3332.92
421.86	3361.01
422.05	3440.59
422.24	3393.78
422.43	3220.58
422.61	3433.57
422.80	3496.76
422.99	3571.66
423.18	3545.91
423.37	3531.87
423.56	3485.06
423.75	3496.76
423.94	3335.26
424.13	3162.06
424.32	3332.92
424.50	3485.06
424.69	3616.13
424.88	3524.85
425.07	3410.16
425.26	3318.88
425.45	3527.19
425.64	3433.57
425.83	3426.54
426.01	3569.32
426.20	3527.19
426.39	3557.61
426.58	3562.30
426.77	3529.53
426.96	3634.85
427.15	3620.81
427.33	3653.58
427.52	3548.25
427.71	3583.36
427.90	3655.92
428.09	3735.50
428.28	3733.15
428.46	3747.20
428.65	3653.58
428.84	3810.39
429.03	3822.09
429.22	3714.43
429.40	3815.07
429.59	3789.33
429.78	3730.81
429.97	3487.40
430.16	3672.30
430.34	3810.39
430.53	3969.55
430.72	3779.97
430.91	3908.69
431.10	3808.05
431.28	4063.17
431.47	4081.89
431.66	4177.86
431.85	3997.64
432.03	4053.81
432.22	4182.54
432.41	4238.71
432.60	4236.37
432.79	4142.75
432.97	4236.37
433.16	4149.77
433.35	4042.11
433.54	4166.15
433.72	4159.13
433.91	4182.54
434.10	4264.46
434.28	4053.81
434.47	4257.43
434.66	4332.33
434.85	4393.19
435.03	4503.19
435.22	4414.25
435.41	4493.83
435.59	4461.06
435.78	4468.08
435.97	4606.17
436.16	4540.64
436.34	4545.32
436.53	4550.00
436.72	4631.92
436.90	4652.98
437.09	4430.63
437.28	4514.89
437.46	4648.30
437.65	4547.66
437.84	4629.58
438.02	4629.58
438.21	4585.11
438.40	4601.49
438.58	4758.31
438.77	4999.38
438.96	4737.24
439.14	5025.13
439.33	4973.64
439.52	4875.34
439.70	5004.07
439.89	5004.07
440.08	5020.45
440.26	5226.42
440.45	5266.21
440.63	5263.86
440.82	5177.26
441.01	5242.80
441.19	5212.37
441.38	5472.17
441.57	5369.19
441.75	5408.98
441.94	5298.97
442.12	5373.87
442.31	5488.56
442.50	5495.58
442.68	5490.90
442.87	5612.60
443.05	5621.97
443.24	5776.44
443.43	5516.64
443.61	5757.72
443.80	5743.67
443.98	5551.75
444.17	5401.96
444.35	5734.31
444.54	5844.32
444.73	5722.61
444.91	5776.44
445.10	5650.05
445.28	5795.17
445.47	5565.79
445.65	5579.84
445.84	5884.11
446.02	5893.47
446.21	5820.91
446.39	5706.23
446.58	5785.80
446.77	5884.11
446.95	5909.85
447.14	5825.59
447.32	5914.53
447.51	5895.81
447.69	5937.94
447.88	5977.73
448.06	5947.30
448.25	6054.97
448.43	5928.58
448.62	5827.93
448.80	5989.43
448.99	6052.63
449.17	6104.12
449.36	6050.28
449.54	6111.14
449.73	6200.08
449.91	6251.57
450.10	6289.02
450.28	6401.37
450.46	6246.89
450.65	6363.92
450.83	6363.92
451.02	6277.32
451.20	6289.02
451.39	6399.02
451.57	6354.55
451.76	6387.32
451.94	6338.17
452.13	6392.00
452.31	6450.52
452.49	6492.65
452.68	6286.68
452.86	6174.33
453.05	6382.64
453.23	6487.96
453.42	6572.22
453.60	6506.69
453.78	6434.13
453.97	6607.33
454.15	6609.67
454.34	6658.82
454.52	6670.53
454.70	6583.93
454.89	6787.55
455.07	6614.35
455.26	6761.81
455.44	6972.46
455.62	6867.13
455.81	6930.33
455.99	6867.13
456.17	6850.75
456.36	6932.67
456.54	7103.53
456.73	6890.54
456.91	7066.08
457.09	7075.44
457.28	7281.41
457.46	7084.80
457.64	7152.68
457.83	7309.49
458.01	6963.09
458.19	7311.83
458.38	7082.46
458.56	7403.11
458.74	7225.23
458.93	7330.56
459.11	7400.77
459.29	7241.62
459.48	7506.10
459.66	7234.60
459.84	7393.75
460.03	7475.67
460.21	7623.12
460.39	7538.87
460.57	7644.19
460.76	7625.47
460.94	7712.07
461.12	7707.38
461.31	7791.64
461.49	7655.89
461.67	7550.57
461.85	7737.81
462.04	7768.24
462.22	8119.32
462.40	7826.75
462.59	7997.61
462.77	7691.00
462.95	7999.95
463.13	7864.20
463.32	7838.45
463.50	7983.57
463.68	7894.63
463.86	7953.14
464.05	8177.83
464.23	8046.76
464.41	8004.63
464.59	8042.08
464.78	8276.13
464.96	7978.89
465.14	8194.22
465.32	8269.11
465.50	8243.37
465.69	8252.73
465.87	8222.30
466.05	8098.25
466.23	8287.84
466.41	8322.94
466.60	8287.84
466.78	8166.13
466.96	8402.52
467.14	8262.09
467.32	8196.56
467.51	8383.80
467.69	7969.52
467.87	8292.52
468.05	8306.56
468.23	8318.26
468.41	8451.67
468.60	8358.05
468.78	8355.71
468.96	8390.82
469.14	8758.28
469.32	8828.50
469.50	8435.29
469.69	8753.60
469.87	8737.22
470.05	8739.56
470.23	8676.37
470.41	9062.55
470.59	8997.02
470.77	8777.01
470.95	8999.36
471.14	9006.38
471.32	8947.87
471.50	9312.99
471.68	9102.34
471.86	9343.42
472.04	9109.36
472.22	9542.36
472.40	9121.07
472.58	9188.94
472.77	9303.63
472.95	9408.95
473.13	9717.90
473.31	9399.59
473.49	9397.25
473.67	9364.48
473.85	9514.28
474.03	9753.01
474.21	9685.14
474.39	9825.57
474.57	9851.31
474.75	9970.68
474.93	10190.69
475.12	10050.26
475.30	10115.80
475.48	10047.92
475.66	10057.28
475.84	10176.65
476.02	10190.69
476.20	10176.65
476.38	10314.74
476.56	10626.03
476.74	10614.33
476.92	10600.29
477.10	10504.32
477.28	10759.44
477.46	10712.63
477.64	10960.73
477.82	11016.90
478.00	11328.19
478.18	11232.23
478.36	11375.00
478.54	11557.57
478.72	11290.74
478.90	11379.68
479.08	11735.45
479.26	11850.13
479.44	11922.69
479.62	11779.92
479.80	11957.80
479.98	12011.63
480.16	12154.40
480.34	12320.58
480.52	12634.21
480.70	12280.79
480.88	12273.77
481.06	12472.71
481.24	12542.93
481.41	12844.86
481.59	12971.25
481.77	12894.01
481.95	13029.76
482.13	12695.07
482.31	13207.64
482.49	13422.97
482.67	13050.83
482.85	13568.09
483.03	13785.76
483.21	13577.45
483.39	13596.17
483.57	13757.67
483.74	13940.23
483.92	14073.64
484.10	14001.08
484.28	14235.14
484.46	14279.61
484.64	14850.70
484.82	14516.00
485.00	14668.14
485.18	14815.59
485.35	14927.94
485.53	14752.40
485.71	14607.28
485.89	14899.85
486.07	15112.84
486.25	15304.76
486.43	15370.30
486.61	15475.62
486.78	15784.57
486.96	16011.60
487.14	16322.90
487.32	15887.56
487.50	16168.42
487.68	16285.45
487.85	16664.61
488.03	16753.55
488.21	16989.95
488.39	16910.37
488.57	17125.70
488.75	17050.80
488.92	17294.22
489.10	17628.92
489.28	17511.89
489.46	17987.02
489.64	17680.41
489.81	18190.64
489.99	18080.64
490.17	18167.24
490.35	18665.77
490.53	18476.19
490.70	18761.73
490.88	18649.39
491.06	18824.93
491.24	18614.28
491.41	19082.39
491.59	18972.38
491.77	18803.86
491.95	19398.36
492.13	19367.93
492.30	19695.61
492.48	19648.80
492.66	19562.20
492.84	19590.28
493.01	19812.63
493.19	20121.59
493.37	20409.47
493.54	20191.80
493.72	20624.80
493.90	20505.43
494.08	20865.88
494.25	20842.47
494.43	21172.49
494.61	21085.89
494.79	21060.14
494.96	21102.27
495.14	21256.75
495.32	21387.82
495.49	21371.43
495.67	21951.88
495.85	21909.75
496.02	21979.97
496.20	21823.16
496.38	22085.30
496.55	22490.21
496.73	22724.26
496.91	22515.95
497.09	22483.19
497.26	22890.44
497.44	22628.30
497.62	22965.34
497.79	23262.58
497.97	22906.82
498.14	23407.70
498.32	23396.00
498.50	23314.08
498.67	23421.74
498.85	23365.57
499.03	23857.08
499.20	23931.98
499.38	23730.69
499.56	24177.73
499.73	24072.41
499.91	23946.02
500.08	24320.51
500.26	24482.00
500.44	24519.45
500.61	24589.67
500.79	24304.12
500.97	24367.32
501.14	25296.51
501.32	24781.59
501.49	24758.19
501.67	24734.78
501.84	25207.57
502.02	25130.33
502.20	25153.74
502.37	25401.83
502.55	25345.66
502.72	25799.73
502.90	25738.87
503.07	25654.61
503.25	25696.74
503.43	25757.60
503.60	26078.25
503.78	25848.88
503.95	26169.53
504.13	26218.68
504.30	26183.57
504.48	26136.76
504.65	26518.27
504.83	26279.54
505.01	26328.69
505.18	26787.43
505.36	26916.16
505.53	26834.24
505.71	26967.65
505.88	27182.98
506.06	27152.55
506.23	27220.43
506.41	27180.64
506.58	27131.49
506.76	27386.61
506.93	27363.20
507.11	27421.72
507.28	28060.68
507.46	27262.56
507.63	27777.48
507.81	27580.87
507.98	27826.63
508.16	27999.83
508.33	27967.06
508.50	28046.64
508.68	28386.02
508.85	28189.41
509.03	28442.19
509.20	28446.87
509.38	28697.31
509.55	28849.44
509.73	28652.84
509.90	28596.67
510.08	28830.72
510.25	28739.44
510.42	29032.00
510.60	29230.95
510.77	29443.94
510.95	29654.59
511.12	29380.74
511.30	29813.74
511.47	29795.02
511.64	29830.13
511.82	29937.79
511.99	29816.08
512.17	30073.54
512.34	29895.66
512.51	29989.28
512.69	30551.01
512.86	30068.86
513.04	30206.95
513.21	30370.79
513.38	29977.58
513.56	30281.85
513.73	30321.64
513.90	30539.31
514.08	30513.56
514.25	30932.52
514.43	30719.53
514.60	31098.70
514.77	30738.26
514.95	31040.18
515.12	31208.70
515.29	31351.48
515.47	31653.40
515.64	31459.14
515.81	31136.15
515.99	31370.20
516.16	31477.86
516.33	31704.90
516.51	31353.82
516.68	31669.79
516.85	31143.17
517.03	31534.04
517.20	31620.64
517.37	31569.15
517.54	31842.99
517.72	31868.73
517.89	31976.40
518.06	31887.46
518.24	31821.92
518.41	31828.95
518.58	32126.19
518.75	31995.12
518.93	32528.77
519.10	32479.61
519.27	32521.74
519.45	32393.01
519.62	32620.05
519.79	33193.48
519.96	33095.18
520.14	33247.31
520.31	33280.08
520.48	33050.70
520.65	32840.06
520.83	33453.28
521.00	33572.64
521.17	33371.36
521.34	33207.52
521.52	33591.37
521.69	33675.63
521.86	33993.94
522.03	34110.97
522.20	34064.16
522.38	33844.15
522.55	34045.43
522.72	33743.50
522.89	33916.70
523.07	34429.28
523.24	33809.04
523.41	33574.98
523.58	33897.98
523.75	34562.69
523.92	34572.05
524.10	34831.85
524.27	34930.16
524.44	34766.32
524.61	35049.52
524.78	34920.79
524.96	34981.65
525.13	35091.65
525.30	35335.07
525.47	35505.93
525.64	34920.79
525.81	35325.71
525.98	34979.31
526.16	34843.56
526.33	35302.30
526.50	35475.50
526.67	35253.15
526.84	34871.64
527.01	35236.77
527.18	35400.60
527.36	35524.65
527.53	35541.03
527.70	36088.72
527.87	36154.26
528.04	35552.74
528.21	36072.34
528.38	35847.64
528.55	36329.80
528.72	36353.20
528.89	36201.07
529.07	36023.19
529.24	35866.37
529.41	36521.72
529.58	35775.09
529.75	36109.78
529.92	36149.57
530.09	36407.03
530.26	36240.86
530.43	36587.25
530.60	36652.79
530.77	36795.56
530.94	36825.99
531.11	36613.00
531.28	37177.07
531.46	36924.29
531.63	37186.43
531.80	36964.08
531.97	36772.16
532.14	37118.56
532.31	36868.12
532.48	36954.72
532.65	37167.71
532.82	37397.08
532.99	37216.86
533.16	37200.47
533.33	37331.54
533.50	37663.90
533.67	37460.27
533.84	37352.61
534.01	37605.39
534.18	37301.12
534.35	37556.24
534.52	37708.37
534.69	37914.34
534.86	38183.50
535.03	37897.95
535.20	38302.87
535.37	38160.09
535.54	38618.84
535.71	38043.07
535.88	38274.78
536.05	37942.42
536.22	38157.75
536.38	38211.59
536.55	38604.80
536.72	38218.61
536.89	38447.98
537.06	37748.16
537.23	38583.73
537.40	38354.36
537.57	38251.38
537.74	38628.20
537.91	38913.75
538.08	38499.47
538.25	38242.01
538.42	38838.85
538.59	38742.89
538.75	38616.50
538.92	39236.74
539.09	39278.87
539.26	39014.39
539.43	39115.03
539.60	39358.45
539.77	39168.87
539.94	39136.10
540.11	39098.65
540.28	38841.19
540.44	38869.28
540.61	39232.06
540.78	38890.34
540.95	39185.25
541.12	39051.84
541.29	39234.40
541.46	39203.97
541.62	39601.86
541.79	39887.41
541.96	39140.78
542.13	39803.15
542.30	39459.09
542.47	39653.36
542.63	39564.42
542.80	39679.10
542.97	40474.88
543.14	40116.78
543.31	40638.72
543.48	40020.82
543.64	40215.08
543.81	40804.90
543.98	40280.62
544.15	40634.04
544.32	40666.81
544.48	40832.99
544.65	40339.13
544.82	40694.89
544.99	40570.85
545.16	40652.76
545.32	40748.73
545.49	41258.96
545.66	40680.85
545.83	40678.51
546.00	40898.52
546.16	40500.63
546.33	40629.36
546.50	40102.74
546.67	40603.61
546.83	40950.01
547.00	40959.38
547.17	40666.81
547.34	40762.77
547.50	41160.66
547.67	41373.65
547.84	41251.94
548.00	41280.03
548.17	41518.76
548.34	40872.78
548.51	41200.45
548.67	41198.11
548.84	41399.40
549.01	41134.92
549.18	41462.59
549.34	41640.47
549.51	41750.48
549.68	41528.13
549.84	41645.15
550.01	42019.64
550.18	41572.60
550.34	42223.26
550.51	41624.09
550.68	41324.50
550.84	41797.29
551.01	42157.73
551.18	41532.81
551.34	41584.30
551.51	41944.74
551.68	42146.03
551.84	42047.72
552.01	41773.88
552.18	41270.67
552.34	41656.85
552.51	42300.50
552.68	41897.93
552.84	42263.05
553.01	42237.31
553.18	42171.77
553.34	42199.86
553.51	41675.58
553.67	42024.32
553.84	42232.63
554.01	42120.28
554.17	42614.13
554.34	42649.24
554.51	42422.21
554.67	42909.04
554.84	42415.19
555.00	42789.67
555.17	42359.02
555.33	42834.14
555.50	42216.24
555.67	42607.11
555.83	42714.78
556.00	42663.28
556.16	42897.34
556.33	42609.45
556.50	42576.69
556.66	42855.21
556.83	42782.65
556.99	43201.61
557.16	42703.07
557.32	42939.47
557.49	42990.96
557.65	42342.63
557.82	42642.22
557.98	42941.81
558.15	43061.18
558.32	42972.24
558.48	42698.39
558.65	43173.52
558.81	43276.51
558.98	43288.21
559.14	43089.26
559.31	43012.02
559.47	43199.27
559.64	43423.96
559.80	43335.02
559.97	43199.27
560.13	43243.74
560.30	43320.98
560.46	43234.38
560.63	43264.80
560.79	43370.13
560.96	43196.93
561.12	43475.45
561.29	43433.32
561.45	43278.85
561.61	43005.00
561.78	43728.23
561.94	43196.93
562.11	43175.86
562.27	43379.49
562.44	43475.45
562.60	43260.12
562.77	43456.73
562.93	43459.07
563.10	43512.90
563.26	43222.67
563.42	44058.24
563.59	43438.00
563.75	43711.84
563.92	43814.83
564.08	43887.39
564.24	43938.88
564.41	43634.61
564.57	43356.08
564.74	43735.25
564.90	44165.91
565.07	43569.07
565.23	43892.07
565.39	43608.86
565.56	43950.58
565.72	43302.25
565.88	43548.01
566.05	43559.71
566.21	43672.06
566.38	43473.11
566.54	43732.91
566.70	43707.16
566.87	44112.08
567.03	44058.24
567.19	44477.20
567.36	43753.97
567.52	43782.06
567.68	43906.11
567.85	43833.55
568.01	44311.02
568.17	43852.28
568.34	43702.48
568.50	43817.17
568.66	43931.86
568.83	43812.49
568.99	43931.86
569.15	43426.30
569.32	44027.82
569.48	43971.64
569.64	43889.73
569.81	44081.65
569.97	43950.58
570.13	43903.77
570.30	43627.59
570.46	43634.61
570.62	43908.45
570.78	43643.97
570.95	44041.86
571.11	43871.00
571.27	44149.53
571.43	44048.88
571.60	44327.41
571.76	43903.77
571.92	44081.65
572.09	43739.93
572.25	43863.98
572.41	43571.41
572.57	44098.03
572.74	44891.48
572.90	44105.06
573.06	44072.29
573.22	43934.20
573.38	43999.73
573.55	43564.39
573.71	44144.84
573.87	44306.34
574.03	43704.82
574.20	44189.31
574.36	44062.93
574.52	44657.42
574.68	44175.27
574.84	44444.43
575.01	44825.94
575.17	44243.15
575.33	44233.78
575.49	44247.83
575.65	44762.75
575.82	44954.67
575.98	44215.06
576.14	44727.64
576.30	44531.03
576.46	44226.76
576.62	44301.66
576.79	44219.74
576.95	43814.83
577.11	44350.81
577.27	44004.41
577.43	44327.41
577.59	44296.98
577.75	44252.51
577.92	44348.47
578.08	43868.66
578.24	43873.34
578.40	44451.45
578.56	44549.76
578.72	44357.83
578.88	44631.68
579.04	44545.08
579.21	44224.42
579.37	44072.29
579.53	44203.36
579.69	44048.88
579.85	44549.76
580.01	44722.96
580.17	44453.79
580.33	44505.29
580.49	44442.09
580.65	44357.83
580.82	44189.31
580.98	44678.49
581.14	44507.63
581.30	44491.24
581.46	44128.46
581.62	44472.52
581.78	44051.22
581.94	44444.43
582.10	44425.71
582.26	44807.22
582.42	44264.21
582.58	44505.29
582.74	44266.55
582.90	44524.01
583.06	44332.09
583.22	44493.58
583.38	44430.39
583.54	44477.20
583.70	44676.15
583.86	44240.81
584.02	44406.98
584.18	44006.75
584.34	44421.03
584.50	44786.15
584.66	44229.10
584.82	44060.58
584.98	44531.03
585.14	44374.22
585.30	44479.54
585.46	44493.58
585.62	44198.68
585.78	44154.21
585.94	44435.07
586.10	44268.89
586.26	44325.07
586.42	44896.16
586.58	44931.26
586.74	44790.83
586.90	44081.65
587.06	44507.63
587.22	44964.03
587.38	44217.40
587.54	44802.53
587.70	44596.57
587.86	44694.87
588.02	44882.11
588.18	44809.56
588.34	44608.27
588.49	44369.54
588.65	44542.74
588.81	44385.92
588.97	44318.04
589.13	44580.18
589.29	44266.55
589.45	44708.91
589.61	44505.29
589.77	44746.36
589.93	44856.37
590.08	44837.64
590.24	44545.08
590.40	45106.80
