SpectraSuite Data File
++++++++++++++++++++++++++++++++++++
Date: Fri Oct 25 11:25:25 EDT 2013
User: price-jones
Dark Spectrum Present: No
Reference Spectrum Present: No
Number of Sampled Component Spectra: 1
Spectrometers: USB2+H05261
Integration Time (usec): 100000 (USB2+H05261)
Spectra Averaged: 1 (USB2+H05261)
Boxcar Smoothing: 0 (USB2+H05261)
Correct for Electrical Dark: No (USB2+H05261)
Strobe/Lamp Enabled: No (USB2+H05261)
Correct for Detector Non-linearity: No (USB2+H05261)
Correct for Stray Light: No (USB2+H05261)
Number of Pixels in Processed Spectrum: 2048
>>>>>Begin Processed Spectral Data<<<<<
365.73	250.44
365.92	250.44
366.12	250.44
366.32	135.75
366.52	84.26
366.72	152.13
366.91	138.09
367.11	88.94
367.31	56.17
367.51	149.79
367.70	110.01
367.90	145.11
368.10	142.77
368.30	60.85
368.49	156.82
368.69	222.35
368.89	147.45
369.09	138.09
369.28	140.43
369.48	91.28
369.68	264.48
369.87	177.88
370.07	189.58
370.27	236.39
370.47	418.96
370.66	533.64
370.86	613.22
371.06	664.71
371.25	704.50
371.45	638.97
371.65	702.16
371.84	697.48
372.04	692.80
372.24	706.84
372.44	725.57
372.63	638.97
372.83	772.38
373.03	784.08
373.22	744.29
373.42	760.67
373.62	739.61
373.81	858.98
374.01	844.93
374.21	814.51
374.40	814.51
374.60	819.19
374.79	837.91
374.99	858.98
375.19	842.59
375.38	908.13
375.58	877.70
375.78	770.04
375.97	788.76
376.17	868.34
376.37	912.81
376.56	849.61
376.76	814.51
376.95	844.93
377.15	854.30
377.35	805.14
377.54	915.15
377.74	903.45
377.93	898.77
378.13	856.64
378.33	931.53
378.52	931.53
378.72	898.77
378.91	964.30
379.11	978.34
379.31	915.15
379.50	940.90
379.70	964.30
379.89	997.07
380.09	926.85
380.28	1022.81
380.48	919.83
380.68	952.60
380.87	957.28
381.07	985.37
381.26	966.64
381.46	922.17
381.65	1069.62
381.85	1001.75
382.04	1046.22
382.24	1039.20
382.43	1025.15
382.63	950.26
382.83	999.41
383.02	1048.56
383.22	978.34
383.41	1086.01
383.61	1090.69
383.80	1163.25
384.00	1217.08
384.19	1107.07
384.39	1137.50
384.58	1123.46
384.78	1132.82
384.97	1160.91
385.17	1100.05
385.36	1123.46
385.56	1177.29
385.75	1181.97
385.95	1198.35
386.14	1165.59
386.34	1158.57
386.53	1156.22
386.72	1207.72
386.92	1177.29
387.11	1235.80
387.31	1273.25
387.50	1289.64
387.70	1214.74
387.89	1392.62
388.09	1174.95
388.28	1252.19
388.48	1198.35
388.67	1376.24
388.86	1357.51
389.06	1364.53
389.25	1444.11
389.45	1343.47
389.64	1350.49
389.84	1341.13
390.03	1371.55
390.22	1383.26
390.42	1373.89
390.61	1308.36
390.81	1369.21
391.00	1430.07
391.19	1432.41
391.39	1551.78
391.58	1448.79
391.78	1502.62
391.97	1467.52
392.16	1427.73
392.36	1430.07
392.55	1544.75
392.75	1554.12
392.94	1549.43
393.13	1575.18
393.33	1554.12
393.52	1474.54
393.71	1591.56
393.91	1638.38
394.10	1575.18
394.29	1572.84
394.49	1540.07
394.68	1596.25
394.88	1680.50
395.07	1626.67
395.26	1626.67
395.46	1652.42
395.65	1715.61
395.84	1673.48
396.04	1771.79
396.23	1732.00
396.42	1732.00
396.62	1806.89
396.81	1762.42
397.00	1760.08
397.19	1724.97
397.39	1692.21
397.58	1919.24
397.77	1764.76
397.97	1874.77
398.16	1867.75
398.35	1825.62
398.55	1806.89
398.74	1804.55
398.93	1940.30
399.12	1942.64
399.32	1825.62
399.51	2022.22
399.70	2036.27
399.90	2008.18
400.09	2024.56
400.28	2059.67
400.47	2031.58
400.67	2080.74
400.86	2024.56
401.05	2122.87
401.24	2115.84
401.44	2127.55
401.63	2176.70
401.82	2132.23
402.01	2190.74
402.21	2181.38
402.40	2132.23
402.59	2176.70
402.78	2249.25
402.97	2076.06
403.17	2209.47
403.36	2361.60
403.55	2296.07
403.74	2380.32
403.93	2265.64
404.13	2427.14
404.32	2338.20
404.51	2382.67
404.70	2380.32
404.89	2363.94
405.09	2452.88
405.28	2459.90
405.47	2324.15
405.66	2415.43
405.85	2560.55
406.05	2382.67
406.24	2445.86
406.43	2480.97
406.62	2682.25
406.81	2626.08
407.00	2516.08
407.20	2497.35
407.39	2670.55
407.58	2679.91
407.77	2789.92
407.96	2729.06
408.15	2696.30
408.34	2647.15
408.54	2719.70
408.73	2703.32
408.92	2761.83
409.11	2881.20
409.30	2923.33
409.49	2787.58
409.68	2920.99
409.87	2967.80
410.07	2998.23
410.26	2974.82
410.45	3000.57
410.64	2960.78
410.83	2951.42
411.02	3164.40
411.21	3108.23
411.40	3030.99
411.59	3215.90
411.78	3185.47
411.98	3192.49
412.17	3185.47
412.36	3267.39
412.55	3363.35
412.74	3274.41
412.93	3309.52
413.12	3452.29
413.31	3550.59
413.50	3344.63
413.69	3473.36
413.88	3442.93
414.07	3613.79
414.26	3536.55
414.45	3679.32
414.64	3693.37
414.83	3639.53
415.02	3756.56
415.22	3843.16
415.41	3754.22
415.60	3784.65
415.79	3875.93
415.98	4070.19
416.17	3925.08
416.36	3915.72
416.55	3946.14
416.74	4058.49
416.93	3988.27
417.12	4098.28
417.31	4037.42
417.50	4205.94
417.69	4208.28
417.88	4372.12
418.07	4231.69
418.26	4355.74
418.45	4229.35
418.64	4332.33
418.83	4517.23
419.02	4372.12
419.21	4329.99
419.39	4367.44
419.58	4500.85
419.77	4390.84
419.96	4470.42
420.15	4486.81
420.34	4545.32
420.53	4463.40
420.72	4723.20
420.91	4727.88
421.10	4704.48
421.29	4765.33
421.48	4676.39
421.67	4610.86
421.86	4725.54
422.05	4779.37
422.24	4727.88
422.43	4875.34
422.61	4603.83
422.80	4903.42
422.99	4765.33
423.18	4842.57
423.37	4987.68
423.56	4894.06
423.75	4617.88
423.94	4681.07
424.13	4587.45
424.32	4641.28
424.50	4901.08
424.69	4940.87
424.88	4978.32
425.07	4828.53
425.26	4709.16
425.45	4903.42
425.64	4823.84
425.83	4908.10
426.01	5048.54
426.20	4994.70
426.39	4983.00
426.58	5081.30
426.77	5135.14
426.96	5174.92
427.15	5011.09
427.33	5167.90
427.52	4985.34
427.71	5245.14
427.90	5352.81
428.09	5076.62
428.28	5245.14
428.46	5270.89
428.65	5378.55
428.84	5439.40
429.03	5572.82
429.22	5483.88
429.40	5280.25
429.59	5430.04
429.78	5256.84
429.97	5107.05
430.16	5589.20
430.34	5558.77
430.53	5727.29
430.72	5504.94
430.91	5565.79
431.10	5554.09
431.28	5565.79
431.47	5717.93
431.66	5834.96
431.85	5724.95
432.03	5944.96
432.22	5956.66
432.41	5968.37
432.60	5923.90
432.79	6047.94
432.97	5902.83
433.16	5914.53
433.35	5799.85
433.54	6064.33
433.72	6136.88
433.91	6050.28
434.10	6134.54
434.28	6115.82
434.47	6045.60
434.66	6300.72
434.85	6361.58
435.03	6179.01
435.22	6197.74
435.41	6370.94
435.59	6359.24
435.78	6445.84
435.97	6422.43
436.16	6429.45
436.34	6354.55
436.53	6551.16
436.72	6534.78
436.90	6502.01
437.09	6619.04
437.28	6370.94
437.46	6457.54
437.65	6665.85
437.84	6761.81
438.02	6663.51
438.21	6672.87
438.40	6656.48
438.58	6937.35
438.77	6984.16
438.96	6890.54
439.14	7030.97
439.33	6998.20
439.52	6998.20
439.70	7056.72
439.89	7138.63
440.08	7552.91
440.26	7290.77
440.45	7250.98
440.63	7307.15
440.82	7595.04
441.01	7342.26
441.19	7386.73
441.38	7651.21
441.57	7623.12
441.75	7562.27
441.94	7754.19
442.12	7915.69
442.31	7801.01
442.50	7838.45
442.68	7775.26
442.87	7992.93
443.05	8058.46
443.24	8201.24
443.43	7878.24
443.61	8107.62
443.80	8400.18
443.98	8009.31
444.17	7695.68
444.35	8058.46
444.54	8135.70
444.73	8100.59
444.91	7946.12
445.10	8231.66
445.28	8264.43
445.47	8147.40
445.65	8109.96
445.84	8386.14
446.02	8344.01
446.21	8353.37
446.39	8379.12
446.58	8524.23
446.77	8456.36
446.95	8159.11
447.14	8351.03
447.32	8489.12
447.51	8369.76
447.69	8292.52
447.88	8566.36
448.06	8346.35
448.25	8472.74
448.43	8531.25
448.62	8458.70
448.80	8446.99
448.99	8615.51
449.17	8519.55
449.36	8753.60
449.54	8732.54
449.73	8781.69
449.91	8936.17
450.10	8929.14
450.28	8781.69
450.46	8931.48
450.65	8931.48
450.83	8947.87
451.02	8912.76
451.20	8950.21
451.39	9071.92
451.57	9055.53
451.76	9060.21
451.94	9083.62
452.13	9467.47
452.31	9266.18
452.49	8917.44
452.68	9186.60
452.86	9090.64
453.05	9254.48
453.23	9535.34
453.42	9343.42
453.60	9448.74
453.78	9488.53
453.97	9397.25
454.15	9345.76
454.34	9432.36
454.52	9610.24
454.70	9425.34
454.89	9645.35
455.07	9774.08
455.26	9856.00
455.44	9877.06
455.62	9687.48
455.81	9956.64
455.99	9874.72
456.17	10029.20
456.36	9710.88
456.54	10125.16
456.73	10174.31
456.91	10354.53
457.09	10331.12
457.28	10391.98
457.46	10363.89
457.64	10494.96
457.83	10274.95
458.01	10487.94
458.19	10520.71
458.38	10644.76
458.56	10663.48
458.74	10516.03
458.93	10438.79
459.11	10656.46
459.29	10654.12
459.48	10942.00
459.66	10637.73
459.84	10813.28
460.03	11239.25
460.21	10766.46
460.39	10944.34
460.57	10946.69
460.76	10839.02
460.94	11033.29
461.12	11049.67
461.31	11052.01
461.49	11082.44
461.67	11080.10
461.85	11389.05
462.04	11089.46
462.22	11730.76
462.40	11559.91
462.59	11410.11
462.77	11119.89
462.95	11499.05
463.13	11508.41
463.32	11744.81
463.50	11667.57
463.68	11651.19
463.86	11838.43
464.05	11541.18
464.23	11405.43
464.41	11566.93
464.59	11480.33
464.78	11957.80
464.96	11901.62
465.14	11693.32
465.32	11934.39
465.50	12077.16
465.69	11978.86
465.87	11962.48
466.05	11992.90
466.23	11960.14
466.41	12067.80
466.60	12308.88
466.78	12112.27
466.96	11995.25
467.14	11899.28
467.32	12201.21
467.51	12666.98
467.69	11950.78
467.87	12194.19
468.05	12226.96
468.23	12271.43
468.41	12608.47
468.60	12706.77
468.78	12596.76
468.96	12528.89
469.14	12849.54
469.32	12819.11
469.50	12383.77
469.69	12814.43
469.87	12856.56
470.05	12870.61
470.23	12915.08
470.41	13018.06
470.59	13352.76
470.77	13327.01
470.95	13132.75
471.14	13682.77
471.32	13029.76
471.50	13514.25
471.68	13579.79
471.86	13535.32
472.04	13675.75
472.22	13902.78
472.40	13554.04
472.58	13579.79
472.77	14015.13
472.95	13811.50
473.13	14270.25
473.31	13991.72
473.49	13818.52
473.67	14122.79
473.85	14288.97
474.03	14750.06
474.21	14326.42
474.39	14583.88
474.57	14618.99
474.75	14728.99
474.93	14693.88
475.12	14796.87
475.30	15143.27
475.48	14775.80
475.66	15119.86
475.84	15152.63
476.02	15112.84
476.20	15260.29
476.38	15733.08
476.56	15716.70
476.74	15709.68
476.92	15545.84
477.10	15398.38
477.28	15749.46
477.46	15866.49
477.64	15969.48
477.82	16489.07
478.00	16692.70
478.18	16638.87
478.36	16767.60
478.54	16896.33
478.72	16737.17
478.90	16978.25
479.08	17626.57
479.26	17359.75
479.44	17481.46
479.62	17802.11
479.80	17895.74
479.98	17994.04
480.16	18370.86
480.34	18031.49
480.52	18611.94
480.70	18225.75
480.88	18302.99
481.06	18679.82
481.24	18728.97
481.41	18813.23
481.59	18911.53
481.77	19391.34
481.95	19421.77
482.13	19814.98
482.31	19257.93
482.49	20060.73
482.67	20009.24
482.85	20189.46
483.03	20397.77
483.21	20510.11
483.39	20489.05
483.57	20765.23
483.74	20812.04
483.92	21191.21
484.10	21130.36
484.28	21399.52
484.46	21881.67
484.64	22239.77
484.82	21715.49
485.00	22501.91
485.18	22705.54
485.35	22726.60
485.53	22831.93
485.71	22604.89
485.89	23358.55
486.07	22998.10
486.25	23295.35
486.43	23330.46
486.61	23726.01
486.78	23908.57
486.96	23852.40
487.14	24409.45
487.32	24166.03
487.50	24465.62
487.68	24643.50
487.85	24790.95
488.03	25123.31
488.21	25649.93
488.39	25876.96
488.57	25975.27
488.75	25907.39
488.92	26267.83
489.10	26305.28
489.28	26316.98
489.46	27133.83
489.64	26764.03
489.81	27623.00
489.99	27431.08
490.17	27578.53
490.35	27674.49
490.53	28041.96
490.70	28032.60
490.88	28037.28
491.06	28655.18
491.24	28493.68
491.41	28833.06
491.59	28711.35
491.77	28828.38
491.95	29530.54
492.13	29685.01
492.30	29226.27
492.48	29699.06
492.66	29567.99
492.84	30017.37
493.01	30398.88
493.19	30429.30
493.37	31049.55
493.54	30787.41
493.72	31342.11
493.90	31606.59
494.08	31498.93
494.25	31683.83
494.43	31651.06
494.61	32161.30
494.79	32130.87
494.96	32077.04
495.14	32046.62
495.32	32598.98
495.49	33055.39
495.67	32664.52
495.85	32926.66
496.02	33778.61
496.20	33935.43
496.38	33797.34
496.55	33591.37
496.73	34263.10
496.91	33933.09
497.09	34668.02
497.26	34820.15
497.44	34675.04
497.62	34899.73
497.79	35922.54
497.97	35335.07
498.14	35477.84
498.32	35618.27
498.50	35849.99
498.67	36130.85
498.85	36327.45
499.03	36268.94
499.20	36002.12
499.38	36552.15
499.56	36774.50
499.73	36730.03
499.91	36797.90
500.08	36982.80
500.26	37127.92
500.44	37048.34
500.61	37254.31
500.79	37324.52
500.97	37853.48
501.14	38742.89
501.32	38417.55
501.49	38059.45
501.67	38361.38
501.84	38398.83
502.02	38092.22
502.20	38469.04
502.37	38869.28
502.55	38848.21
502.72	39007.37
502.90	38960.56
503.07	39063.54
503.25	39580.80
503.43	39779.74
503.60	39491.86
503.78	39849.96
503.95	39676.76
504.13	39995.07
504.30	40142.53
504.48	39651.02
504.65	40416.37
504.83	40172.96
505.01	41305.77
505.18	41549.19
505.36	41394.71
505.53	41062.36
505.71	41535.15
505.88	41624.09
506.06	40975.76
506.23	41476.63
506.41	41340.88
506.58	41851.12
506.76	41806.65
506.93	41769.20
507.11	41982.19
507.28	42185.82
507.46	42714.78
507.63	42085.17
507.81	42595.41
507.98	42625.84
508.16	42656.26
508.33	42873.93
508.50	43122.03
508.68	42951.17
508.85	43217.99
509.03	43669.72
509.20	43749.29
509.38	43966.96
509.55	43873.34
509.73	43824.19
509.90	44055.90
510.08	43966.96
510.25	44657.42
510.42	44325.07
510.60	44861.05
510.77	44589.55
510.95	45102.12
511.12	44701.89
511.30	44802.53
511.47	44818.92
511.64	44931.26
511.82	45202.77
511.99	45382.99
512.17	45474.27
512.34	45563.21
512.51	45663.85
512.69	46066.42
512.86	46078.13
513.04	46160.05
513.21	46281.75
513.38	46274.73
513.56	46351.97
513.73	46272.39
513.90	46621.13
514.08	46644.54
514.25	46749.86
514.43	47047.11
514.60	47054.13
514.77	46883.27
514.95	47409.89
515.12	47182.86
515.29	47171.16
515.47	47545.64
515.64	47498.83
515.81	47419.25
515.99	47831.19
516.16	47730.54
516.33	47770.33
516.51	48023.11
516.68	48107.37
516.85	48226.74
517.03	48547.39
517.20	48371.85
517.37	48168.22
517.54	48931.24
517.72	48886.77
517.89	49003.80
518.06	48884.43
518.24	48608.25
518.41	48769.74
518.58	48811.87
518.75	49092.74
518.93	49027.20
519.10	48903.15
519.27	49497.65
519.45	49404.03
519.62	49867.45
519.79	49324.45
519.96	49858.09
520.14	49801.92
520.31	49549.14
520.48	49633.40
520.65	49815.96
520.83	49932.99
521.00	50213.85
521.17	50365.99
521.34	50768.56
521.52	50564.93
521.69	50422.16
521.86	50782.60
522.03	50808.35
522.20	51306.88
522.38	51093.89
522.55	51016.66
522.72	50988.57
522.89	50822.39
523.07	51070.49
523.24	51117.30
523.41	51519.87
523.58	51505.83
523.75	51515.19
523.92	51433.27
524.10	51241.35
524.27	51805.42
524.44	51531.57
524.61	51515.19
524.78	51655.62
524.96	51622.86
525.13	52121.39
525.30	52030.11
525.47	51910.74
525.64	52095.64
525.81	52420.98
525.98	52453.75
526.16	52156.50
526.33	52554.39
526.50	52692.48
526.67	52477.15
526.84	52940.58
527.01	52533.32
527.18	52678.44
527.36	52690.14
527.53	52706.52
527.70	53071.65
527.87	53015.47
528.04	52619.92
528.21	53202.72
528.38	53109.10
528.55	53347.83
528.72	53095.05
528.89	53282.30
529.07	52891.43
529.24	53247.19
529.41	53200.38
529.58	53317.40
529.75	53343.15
529.92	53450.81
530.09	53551.46
530.26	54024.25
530.43	54014.88
530.60	53251.87
530.77	53530.39
530.94	53741.04
531.11	53638.06
531.28	53762.11
531.46	53968.07
531.63	54045.31
531.80	54026.59
531.97	54131.91
532.14	54333.20
532.31	54314.47
532.48	54255.96
532.65	54375.33
532.82	54150.63
532.99	54054.67
533.16	54075.74
533.33	54616.40
533.50	54674.91
533.67	54597.68
533.84	54525.12
534.01	54160.00
534.18	54405.75
534.35	54815.35
534.52	54742.79
534.69	55047.06
534.86	55018.97
535.03	54688.96
535.20	54859.82
535.37	54752.15
535.54	55021.31
535.71	55096.21
535.88	55391.12
536.05	55271.75
536.22	55353.67
536.38	55475.38
536.55	55372.39
536.72	55320.90
536.89	55323.24
537.06	55466.02
537.23	55400.48
537.40	55274.09
537.57	55508.14
537.74	55402.82
537.91	55880.29
538.08	55561.98
538.25	55433.25
538.42	55613.47
538.59	55817.10
538.75	55559.64
538.92	55634.53
539.09	55873.27
539.26	55639.22
539.43	55849.86
539.60	55959.87
539.77	55983.27
539.94	56193.92
540.11	56126.05
540.28	56114.34
540.44	56072.21
540.61	56266.48
540.78	56147.11
540.95	56104.98
541.12	56069.87
541.29	56514.58
541.46	56299.25
541.62	56212.65
541.79	56662.03
541.96	56179.88
542.13	56317.97
542.30	56397.55
542.47	56470.11
542.63	56720.54
542.80	56818.84
542.97	56750.97
543.14	57064.60
543.31	56914.81
543.48	56959.28
543.64	57111.41
543.81	57099.71
543.98	57293.97
544.15	57066.94
544.32	57195.67
544.48	57174.61
544.65	56973.32
544.82	57258.87
544.99	56992.04
545.16	57193.33
545.32	57027.15
545.49	57331.42
545.66	57460.15
545.83	57315.04
546.00	57443.77
546.16	57244.82
546.33	57371.21
546.50	57371.21
546.67	57319.72
546.83	57240.14
547.00	57549.09
547.17	57581.86
547.34	57434.41
547.50	57560.79
547.67	57691.86
547.84	57631.01
548.00	57932.94
548.17	58014.86
548.34	58047.63
548.51	58106.14
548.67	58188.06
548.84	57858.04
549.01	58007.84
549.18	57663.78
549.34	57979.75
549.51	58225.51
549.68	57911.88
549.84	58206.78
550.01	58054.65
550.18	58059.33
550.34	58117.84
550.51	58192.74
550.68	58056.99
550.84	57846.34
551.01	58220.83
551.18	58234.87
551.34	58267.64
551.51	58358.92
551.68	58335.51
551.84	58412.75
552.01	58064.01
552.18	58529.78
552.34	58258.27
552.51	58511.05
552.68	58258.27
552.84	58370.62
553.01	58571.91
553.18	58417.43
553.34	58553.18
553.51	58506.37
553.67	58365.94
553.84	58677.23
554.01	58782.55
554.17	58791.92
554.34	58983.84
554.51	58827.02
554.67	58777.87
554.84	58967.46
555.00	58937.03
555.17	58752.13
555.33	59047.04
555.50	58852.77
555.67	58845.75
555.83	58979.16
556.00	58972.14
556.16	59257.68
556.33	59112.57
556.50	59044.69
556.66	59032.99
556.83	58805.96
556.99	59231.94
557.16	59395.77
557.32	59189.81
557.49	59412.16
557.65	59203.85
557.82	59208.53
557.98	59281.09
558.15	59089.16
558.32	59269.39
558.48	59180.45
558.65	59222.58
558.81	59150.02
558.98	59440.24
559.14	59428.54
559.31	59414.50
559.47	59540.89
559.64	59475.35
559.80	59348.96
559.97	59458.97
560.13	59341.94
560.30	59355.99
560.46	59590.04
560.63	59587.70
560.79	59674.30
560.96	59767.92
561.12	59606.42
561.29	59597.06
561.45	59674.30
561.61	59676.64
561.78	59632.17
561.94	59393.43
562.11	59667.28
562.27	59671.96
562.44	59725.79
562.60	59812.39
562.77	59739.83
562.93	59533.87
563.10	59676.64
563.26	59786.64
563.42	59971.55
563.59	59746.86
563.75	59875.58
563.92	59793.67
564.08	59767.92
564.24	60032.40
564.41	59983.25
564.57	59849.84
564.74	59828.77
564.90	59817.07
565.07	60016.02
565.23	59845.16
565.39	59901.33
565.56	60001.97
565.72	59812.39
565.88	60037.08
566.05	59847.50
566.21	59861.54
566.38	60069.85
566.54	60067.51
566.70	60217.30
566.87	60147.09
567.03	59990.27
567.19	60214.96
567.36	60196.24
567.52	59866.22
567.68	60437.31
567.85	60313.26
568.01	60149.43
568.17	59945.80
568.34	60111.98
568.50	60182.19
568.66	60128.36
568.83	60221.98
568.99	60123.68
569.15	60357.74
569.32	60212.62
569.48	59898.99
569.64	60360.08
569.81	60158.79
569.97	60147.09
570.13	60060.49
570.30	60175.17
570.46	60430.29
570.62	60261.77
570.78	60149.43
570.95	60097.94
571.11	60425.61
571.27	60341.35
571.43	60285.18
571.60	60568.38
571.76	60381.14
571.92	60273.48
572.09	60411.57
572.25	60210.28
572.41	60224.32
572.57	60353.05
572.74	60657.32
572.90	60301.56
573.06	60224.32
573.22	60397.52
573.38	60364.76
573.55	60116.66
573.71	60699.45
573.87	60434.97
574.03	60369.44
574.20	60573.06
574.36	60357.74
574.52	60449.02
574.68	60601.15
574.84	60690.09
575.01	60514.55
575.17	60519.23
575.33	60491.15
575.49	60339.01
575.65	60542.64
575.82	60322.63
575.98	60659.66
576.14	60844.57
576.30	60624.56
576.46	60549.66
576.62	60385.82
576.79	60533.28
576.95	60453.70
577.11	60491.15
577.27	60540.30
577.43	60853.93
577.59	60472.42
577.75	60355.39
577.92	60371.78
578.08	60516.89
578.24	60589.45
578.40	60612.85
578.56	60811.80
578.72	60683.07
578.88	60711.16
579.04	60783.71
579.21	60425.61
579.37	60612.85
579.53	60804.78
579.69	60479.44
579.85	60507.53
580.01	60591.79
580.17	60537.96
580.33	60636.26
580.49	60657.32
580.65	60769.67
580.82	60669.03
580.98	60671.37
581.14	60769.67
581.30	60842.23
581.46	60743.92
581.62	60884.36
581.78	60662.00
581.94	60769.67
582.10	60692.43
582.26	60629.24
582.42	60718.18
582.58	60762.65
582.74	60643.28
582.90	60772.01
583.06	60818.82
583.22	60477.10
583.38	60659.66
583.54	60776.69
583.70	60734.56
583.86	60594.13
584.02	60519.23
584.18	60830.52
584.34	60879.67
584.50	60762.65
584.66	60781.37
584.82	60439.65
584.98	60977.98
585.14	60809.46
585.30	60746.26
585.46	60823.50
585.62	60846.91
585.78	60959.25
585.94	60533.28
586.10	60704.13
586.26	60722.86
586.42	60711.16
586.58	60874.99
586.74	60879.67
586.90	60867.97
587.06	60942.87
587.22	60783.71
587.38	60905.42
587.54	61076.28
587.70	60914.78
587.86	60903.08
588.02	60818.82
588.18	60837.54
588.34	60725.20
588.49	60680.73
