SpectraSuite Data File
++++++++++++++++++++++++++++++++++++
Date: Fri Oct 25 10:47:46 EDT 2013
User: price-jones
Dark Spectrum Present: No
Reference Spectrum Present: No
Number of Sampled Component Spectra: 1
Spectrometers: USB2+H05261
Integration Time (usec): 100000 (USB2+H05261)
Spectra Averaged: 1 (USB2+H05261)
Boxcar Smoothing: 0 (USB2+H05261)
Correct for Electrical Dark: No (USB2+H05261)
Strobe/Lamp Enabled: No (USB2+H05261)
Correct for Detector Non-linearity: No (USB2+H05261)
Correct for Stray Light: No (USB2+H05261)
Number of Pixels in Processed Spectrum: 2048
>>>>>Begin Processed Spectral Data<<<<<
365.73	147.45
365.92	147.45
366.12	147.45
366.32	53.83
366.52	18.72
366.72	63.19
366.91	58.51
367.11	70.22
367.31	53.83
367.51	4.68
367.70	46.81
367.90	65.54
368.10	37.45
368.30	100.64
368.49	35.11
368.69	56.17
368.89	42.13
369.09	0.00
369.28	42.13
369.48	163.84
369.68	149.79
369.87	112.35
370.07	102.98
370.27	159.16
370.47	191.92
370.66	395.55
370.86	416.62
371.06	458.74
371.25	493.85
371.45	421.30
371.65	482.15
371.84	507.90
372.04	475.13
372.24	428.32
372.44	535.98
372.63	500.87
372.83	514.92
373.03	465.77
373.22	444.70
373.42	458.74
373.62	486.83
373.81	594.50
374.01	578.11
374.21	554.71
374.40	533.64
374.60	505.56
374.79	571.09
374.99	547.69
375.19	622.58
375.38	533.64
375.58	571.09
375.78	564.07
375.97	650.67
376.17	650.67
376.37	585.13
376.56	634.29
376.76	645.99
376.95	594.50
377.15	615.56
377.35	575.77
377.54	545.34
377.74	543.00
377.93	662.37
378.13	606.20
378.33	645.99
378.52	704.50
378.72	751.31
378.91	683.44
379.11	582.79
379.31	596.84
379.50	615.56
379.70	645.99
379.89	674.07
380.09	779.40
380.28	683.44
380.48	603.86
380.68	543.00
380.87	608.54
381.07	636.63
381.26	674.07
381.46	599.18
381.65	669.39
381.85	702.16
382.04	613.22
382.24	692.80
382.43	669.39
382.63	711.52
382.83	671.73
383.02	610.88
383.22	657.69
383.41	685.78
383.61	716.20
383.80	664.71
384.00	753.65
384.19	706.84
384.39	772.38
384.58	837.91
384.78	676.41
384.97	844.93
385.17	767.70
385.36	807.48
385.56	723.23
385.75	746.63
385.95	791.10
386.14	713.86
386.34	730.25
386.53	758.33
386.72	816.85
386.92	842.59
387.11	823.87
387.31	798.12
387.50	777.06
387.70	830.89
387.89	777.06
388.09	826.21
388.28	814.51
388.48	826.21
388.67	950.26
388.86	788.76
389.06	842.59
389.25	896.43
389.45	880.04
389.64	940.90
389.84	978.34
390.03	961.96
390.22	898.77
390.42	915.15
390.61	938.55
390.81	957.28
391.00	926.85
391.19	957.28
391.39	929.19
391.58	947.92
391.78	924.51
391.97	945.58
392.16	912.81
392.36	997.07
392.55	1022.81
392.75	1020.47
392.94	929.19
393.13	908.13
393.33	938.55
393.52	1043.88
393.71	1053.24
393.91	980.68
394.10	1011.11
394.29	1100.05
394.49	997.07
394.68	1132.82
394.88	1067.28
395.07	1158.57
395.26	1121.12
395.46	1128.14
395.65	1107.07
395.84	1242.82
396.04	1102.39
396.23	1086.01
396.42	1128.14
396.62	1163.25
396.81	1170.27
397.00	1212.40
397.19	1240.48
397.39	1214.74
397.58	1233.46
397.77	1128.14
397.97	1261.55
398.16	1261.55
398.35	1296.66
398.55	1320.06
398.74	1299.00
398.93	1287.29
399.12	1411.34
399.32	1317.72
399.51	1299.00
399.70	1299.00
399.90	1301.34
400.09	1437.09
400.28	1385.60
400.47	1390.28
400.67	1406.66
400.86	1444.11
401.05	1497.94
401.24	1544.75
401.44	1640.72
401.63	1504.96
401.82	1582.20
402.01	1502.62
402.21	1547.09
402.40	1521.35
402.59	1570.50
402.78	1551.78
402.97	1568.16
403.17	1680.50
403.36	1502.62
403.55	1549.43
403.74	1652.42
403.93	1600.93
404.13	1671.14
404.32	1619.65
404.51	1621.99
404.70	1619.65
404.89	1732.00
405.09	1724.97
405.28	1671.14
405.47	1729.66
405.66	1715.61
405.85	1706.25
406.05	1713.27
406.24	1734.34
406.43	1778.81
406.62	1799.87
406.81	1844.34
407.00	1788.17
407.20	1778.81
407.39	1755.40
407.58	1952.01
407.77	1877.11
407.96	1956.69
408.15	2045.63
408.34	1914.56
408.54	1947.33
408.73	1982.43
408.92	1930.94
409.11	1977.75
409.30	2050.31
409.49	1994.14
409.68	1989.46
409.87	1989.46
410.07	2076.06
410.26	2047.97
410.45	2200.10
410.64	2214.15
410.83	2097.12
411.02	2129.89
411.21	2223.51
411.40	2211.81
411.59	2303.09
411.78	2420.11
411.98	2307.77
412.17	2256.28
412.36	2291.38
412.55	2424.80
412.74	2389.69
412.93	2506.71
413.12	2363.94
413.31	2516.08
413.50	2415.43
413.69	2422.45
413.88	2548.84
414.07	2434.16
414.26	2562.89
414.45	2523.10
414.64	2588.63
414.83	2682.25
415.02	2712.68
415.22	2729.06
415.41	2801.62
415.60	2757.15
415.79	2729.06
415.98	2766.51
416.17	2796.94
416.36	2855.45
416.55	2911.63
416.74	2953.76
416.93	2911.63
417.12	2874.18
417.31	2970.14
417.50	2977.16
417.69	3143.34
417.88	3112.91
418.07	2988.86
418.26	2960.78
418.45	3059.08
418.64	3258.03
418.83	3115.25
419.02	3089.51
419.21	3185.47
419.39	3131.64
419.58	3190.15
419.77	3122.27
419.96	3234.62
420.15	3321.22
420.34	3351.65
420.53	3356.33
420.72	3358.67
420.91	3222.92
421.10	3492.08
421.29	3412.50
421.48	3346.97
421.67	3433.57
421.86	3379.73
422.05	3339.94
422.24	3391.44
422.43	3389.10
422.61	3534.21
422.80	3552.93
422.99	3550.59
423.18	3471.01
423.37	3588.04
423.56	3449.95
423.75	3510.80
423.94	3330.58
424.13	3335.26
424.32	3412.50
424.50	3501.44
424.69	3550.59
424.88	3623.15
425.07	3597.40
425.26	3386.76
425.45	3466.33
425.64	3639.53
425.83	3520.17
426.01	3712.09
426.20	3735.50
426.39	3574.00
426.58	3588.04
426.77	3522.51
426.96	3674.64
427.15	3719.11
427.33	3735.50
427.52	3646.55
427.71	3609.11
427.90	3613.79
428.09	3679.32
428.28	3772.94
428.46	3716.77
428.65	3627.83
428.84	3915.72
429.03	3794.01
429.22	3709.75
429.40	3775.28
429.59	3882.95
429.78	3618.47
429.97	3548.25
430.16	3599.74
430.34	3943.80
430.53	3751.88
430.72	3889.97
430.91	3936.78
431.10	3911.04
431.28	3997.64
431.47	4037.42
431.66	4147.43
431.85	4121.68
432.03	4203.60
432.22	4224.67
432.41	4219.99
432.60	4086.58
432.79	4194.24
432.97	4198.92
433.16	4269.14
433.35	4135.73
433.54	4264.46
433.72	4173.18
433.91	4159.13
434.10	4308.93
434.28	4292.54
434.47	4475.10
434.66	4341.69
434.85	4374.46
435.03	4486.81
435.22	4482.13
435.41	4472.76
435.59	4582.77
435.78	4430.63
435.97	4461.06
436.16	4582.77
436.34	4400.21
436.53	4596.81
436.72	4510.21
436.90	4568.73
437.09	4613.20
437.28	4498.51
437.46	4606.17
437.65	4643.62
437.84	4535.96
438.02	4514.89
438.21	4704.48
438.40	4554.68
438.58	4667.03
438.77	4788.74
438.96	4884.70
439.14	5090.67
439.33	5167.90
439.52	5060.24
439.70	5032.15
439.89	5135.14
440.08	5142.16
440.26	5067.26
440.45	5137.48
440.63	5357.49
440.82	5252.16
441.01	5179.61
441.19	5327.06
441.38	5549.41
441.57	5502.60
441.75	5540.05
441.94	5502.60
442.12	5582.18
442.31	5652.39
442.50	5628.99
442.68	5586.86
442.87	5809.21
443.05	5521.32
443.24	5640.69
443.43	5659.42
443.61	5612.60
443.80	5713.25
443.98	5748.36
444.17	5645.37
444.35	5783.46
444.54	5879.43
444.73	5879.43
444.91	5799.85
445.10	5919.21
445.28	5853.68
445.47	5769.42
445.65	5729.63
445.84	5909.85
446.02	5865.38
446.21	5872.40
446.39	5937.94
446.58	6054.97
446.77	6001.13
446.95	5783.46
447.14	5797.51
447.32	6183.70
447.51	5942.62
447.69	5980.07
447.88	5942.62
448.06	6141.57
448.25	5900.49
448.43	5937.94
448.62	6001.13
448.80	5947.30
448.99	6078.37
449.17	6195.40
449.36	6167.31
449.54	6218.80
449.73	6277.32
449.91	6171.99
450.10	6438.81
450.28	6312.42
450.46	6427.11
450.65	6328.81
450.83	6464.56
451.02	6450.52
451.20	6562.86
451.39	6326.47
451.57	6520.73
451.76	6389.66
451.94	6590.95
452.13	6504.35
452.31	6361.58
452.49	6408.39
452.68	6415.41
452.86	6464.56
453.05	6581.59
453.23	6555.84
453.42	6619.04
453.60	6441.15
453.78	6661.16
453.97	6661.16
454.15	6494.99
454.34	6434.13
454.52	6869.47
454.70	6864.79
454.89	6813.30
455.07	7049.69
455.26	6796.92
455.44	7033.31
455.62	7002.88
455.81	6780.53
455.99	7007.56
456.17	6967.77
456.36	6848.41
456.54	7080.12
456.73	7080.12
456.91	7087.14
457.09	7206.51
457.28	7260.34
457.46	7169.06
457.64	7239.28
457.83	7171.40
458.01	7255.66
458.19	7386.73
458.38	7208.85
458.56	7529.50
458.74	7360.98
458.93	7506.10
459.11	7410.14
459.29	7548.23
459.48	7356.30
459.66	7431.20
459.84	7454.61
460.03	7599.72
460.21	7674.62
460.39	7623.12
460.57	7665.25
460.76	7733.13
460.94	7702.70
461.12	7831.43
461.31	7775.26
461.49	7761.22
461.67	7623.12
461.85	7838.45
462.04	7903.99
462.22	8325.29
462.40	8063.15
462.59	8002.29
462.77	8051.44
462.95	8086.55
463.13	8105.28
463.32	8028.04
463.50	8030.38
463.68	7894.63
463.86	8004.63
464.05	7962.50
464.23	8124.00
464.41	8039.74
464.59	8229.32
464.78	8388.48
464.96	8074.85
465.14	7978.89
465.32	8374.44
465.50	8571.04
465.69	8372.10
465.87	8276.13
466.05	8280.82
466.23	8294.86
466.41	8329.97
466.60	8594.45
466.78	8365.07
466.96	8245.71
467.14	8446.99
467.32	8472.74
467.51	8489.12
467.69	8311.24
467.87	8659.98
468.05	8828.50
468.23	8402.52
468.41	8421.25
468.60	8636.58
468.78	8608.49
468.96	8528.91
469.14	8990.00
469.32	8739.56
469.50	8493.80
469.69	8802.75
469.87	8835.52
470.05	8877.65
470.23	8800.41
470.41	8905.74
470.59	9212.35
470.77	9008.72
470.95	9027.45
471.14	9226.39
471.32	9090.64
471.50	9128.09
471.68	9228.73
471.86	9144.47
472.04	9331.72
472.22	9554.07
472.40	9394.91
472.58	9336.40
472.77	9378.53
472.95	9514.28
473.13	9703.86
473.31	9565.77
473.49	9713.22
473.67	9530.66
473.85	9603.22
474.03	9865.36
474.21	9844.29
474.39	10066.64
474.57	9975.36
474.75	9881.74
474.93	9860.68
475.12	9961.32
475.30	10146.22
475.48	10139.20
475.66	10225.80
475.84	10087.71
476.02	10312.40
476.20	10417.72
476.38	10541.77
476.56	10747.74
476.74	10696.25
476.92	10677.52
477.10	10651.78
477.28	10703.27
477.46	10899.87
477.64	10867.11
477.82	10939.66
478.00	11213.51
478.18	11477.99
478.36	11485.01
478.54	11311.81
478.72	11449.90
478.90	11705.02
479.08	11852.47
479.26	12123.98
479.44	11936.73
479.62	12241.00
479.80	12100.57
479.98	12297.17
480.16	12297.17
480.34	12411.86
480.52	12390.80
480.70	12212.92
480.88	12453.99
481.06	12524.21
481.24	12608.47
481.41	12858.90
481.59	12727.83
481.77	12905.71
481.95	13069.55
482.13	13329.35
482.31	12947.84
482.49	13444.04
482.67	13509.57
482.85	13752.99
483.03	13870.01
483.21	13741.29
483.39	13961.30
483.57	14033.85
483.74	14333.44
483.92	14237.48
484.10	13891.08
484.28	14342.80
484.46	14604.94
484.64	14803.89
484.82	14649.41
485.00	15075.39
485.18	14991.13
485.35	15077.73
485.53	14780.48
485.71	14871.76
485.89	15400.72
486.07	14892.83
486.25	15424.13
486.43	15279.02
486.61	15555.20
486.78	15796.28
486.96	15955.43
487.14	16390.77
487.32	16374.39
487.50	16212.89
487.68	16486.73
487.85	16638.87
488.03	16875.26
488.21	16896.33
488.39	16795.68
488.57	16671.64
488.75	17301.24
488.92	17355.07
489.10	17771.69
489.28	17642.96
489.46	17888.71
489.64	17987.02
489.81	18134.47
489.99	18450.44
490.17	18455.12
490.35	18508.96
490.53	18534.70
490.70	18780.46
490.88	18455.12
491.06	19049.62
491.24	18785.14
491.41	19126.86
491.59	19323.46
491.77	19056.64
491.95	19187.71
492.13	19660.50
492.30	19520.07
492.48	19775.19
492.66	19924.98
492.84	19922.64
493.01	20477.35
493.19	20140.31
493.37	20376.70
493.54	20194.14
493.72	20561.61
493.90	21046.10
494.08	20875.24
494.25	21020.35
494.43	21067.16
494.61	21479.10
494.79	21259.09
494.96	21380.79
495.14	21378.45
495.32	21741.24
495.49	21532.93
495.67	21972.95
495.85	22033.80
496.02	21972.95
496.20	22324.03
496.38	22368.50
496.55	22410.63
496.73	23033.21
496.91	22860.01
497.09	22855.33
497.26	23243.86
497.44	22841.29
497.62	22995.76
497.79	23414.72
497.97	23168.96
498.14	23384.29
498.32	23501.32
498.50	23587.92
498.67	24058.37
498.85	23662.82
499.03	24065.39
499.20	23967.09
499.38	24463.28
499.56	24219.86
499.73	24383.70
499.91	24552.22
500.08	24868.19
500.26	24273.70
500.44	24341.57
500.61	24432.85
500.79	24690.31
500.97	24673.93
501.14	25188.85
501.32	24893.94
501.49	25029.69
501.67	25074.16
501.84	25582.06
502.02	25153.74
502.20	25565.67
502.37	25713.13
502.55	25710.78
502.72	25462.69
502.90	25762.28
503.07	25663.97
503.25	25844.20
503.43	25989.31
503.60	26324.01
503.78	25998.67
503.95	26431.67
504.13	26518.27
504.30	26607.21
504.48	26216.34
504.65	26904.46
504.83	26874.03
505.01	26899.78
505.18	26930.20
505.36	27044.89
505.53	26780.41
505.71	27143.19
505.88	27564.49
506.06	27447.46
506.23	27328.10
506.41	27440.44
506.58	27709.60
506.76	27786.84
506.93	27761.09
507.11	27353.84
507.28	27896.85
507.46	28095.79
507.63	27414.69
507.81	28074.73
507.98	27845.35
508.16	27990.47
508.33	28268.99
508.50	28484.32
508.68	28339.21
508.85	28573.26
509.03	28811.99
509.20	28739.44
509.38	28975.83
509.55	28591.98
509.73	29095.20
509.90	29380.74
510.08	29067.11
510.25	29163.08
510.42	29298.83
510.60	29244.99
510.77	29759.91
510.95	29780.98
511.12	28989.88
511.30	29668.63
511.47	29933.11
511.64	29708.42
511.82	30075.88
511.99	29965.88
512.17	30036.09
512.34	29977.58
512.51	30188.23
512.69	30309.94
512.86	30583.78
513.04	30742.94
513.21	30808.47
513.38	30665.70
513.56	30529.95
513.73	30588.46
513.90	30700.81
514.08	30361.43
514.25	30705.49
514.43	30742.94
514.60	30817.83
514.77	31124.44
514.95	31299.98
515.12	31164.23
515.29	31215.72
515.47	31496.59
515.64	31255.51
515.81	31126.78
515.99	31510.63
516.16	31786.82
516.33	31723.62
516.51	31828.95
516.68	31545.74
516.85	31447.44
517.03	31433.39
517.20	31732.98
517.37	31852.35
517.54	32100.45
517.72	32187.05
517.89	32107.47
518.06	32273.65
518.24	32191.73
518.41	32683.24
518.58	32591.96
518.75	32114.49
518.93	32519.40
519.10	32891.55
519.27	32650.47
519.45	32804.95
519.62	32856.44
519.79	33102.20
519.96	33390.08
520.14	33373.70
520.31	33048.36
520.48	33301.14
520.65	33390.08
520.83	33479.02
521.00	33467.32
521.17	33853.51
521.34	33551.58
521.52	33652.22
521.69	33823.08
521.86	33748.18
522.03	34007.98
522.20	33675.63
522.38	34263.10
522.55	34572.05
522.72	34279.49
522.89	34284.17
523.07	34384.81
523.24	33748.18
523.41	34394.17
523.58	34110.97
523.75	34639.93
523.92	35035.48
524.10	35105.70
524.27	34852.92
524.44	34883.34
524.61	34646.95
524.78	35028.46
524.96	35302.30
525.13	35578.48
525.30	35426.35
525.47	35393.58
525.64	35248.47
525.81	35096.33
525.98	35218.04
526.16	34696.10
526.33	34815.47
526.50	35508.27
526.67	35344.43
526.84	35798.49
527.01	35330.39
527.18	35679.13
527.36	35817.22
527.53	35583.16
527.70	36390.65
527.87	36208.09
528.04	35751.68
528.21	35796.15
528.38	35786.79
528.55	36201.07
528.72	36903.23
528.89	36535.76
529.07	36196.38
529.24	36613.00
529.41	36313.41
529.58	36147.23
529.75	36556.83
529.92	36472.57
530.09	36720.66
530.26	36786.20
530.43	36720.66
530.60	36730.03
530.77	36690.24
530.94	36624.70
531.11	36919.61
531.28	37177.07
531.46	36865.78
531.63	37216.86
531.80	36903.23
531.97	37184.09
532.14	37085.79
532.31	36629.38
532.48	37160.69
532.65	37275.37
532.82	37298.78
532.99	37750.50
533.16	37174.73
533.33	37605.39
533.50	37811.35
533.67	38096.90
533.84	37689.65
534.01	38064.13
534.18	37677.94
534.35	38103.92
534.52	37937.74
534.69	38087.54
534.86	38440.96
535.03	37998.60
535.20	38333.29
535.37	38469.04
535.54	38480.75
535.71	38459.68
535.88	38588.41
536.05	38349.68
536.22	38590.75
536.38	38628.20
536.55	38464.36
536.72	38415.21
536.89	38431.60
537.06	38747.57
537.23	38885.66
537.40	38738.21
537.57	38515.86
537.74	38621.18
537.91	39423.98
538.08	39260.15
538.25	38719.48
538.42	38824.81
538.59	39110.35
538.75	38878.64
538.92	38871.62
539.09	39360.79
539.26	39409.94
539.43	39168.87
539.60	39250.78
539.77	39241.42
539.94	39077.58
540.11	39271.85
540.28	39218.02
540.44	39133.76
540.61	39194.61
540.78	38869.28
540.95	39370.15
541.12	39709.53
541.29	39115.03
541.46	39775.06
541.62	39442.71
541.79	40062.95
541.96	39861.66
542.13	39842.94
542.30	39950.60
542.47	39875.71
542.63	39732.93
542.80	39779.74
542.97	40112.10
543.14	40367.22
543.31	40460.84
543.48	40280.62
543.64	40458.50
543.81	40594.25
543.98	40437.44
544.15	40685.53
544.32	41057.68
544.48	40662.13
544.65	40369.56
544.82	40708.94
544.99	40250.19
545.16	40662.13
545.32	39992.73
545.49	41324.50
545.66	40905.54
545.83	40863.41
546.00	41280.03
546.16	40950.01
546.33	41036.61
546.50	40634.04
546.67	40811.92
546.83	40526.38
547.00	40863.41
547.17	41144.28
547.34	41167.68
547.50	41141.94
547.67	41546.85
547.84	41317.48
548.00	41340.88
548.17	41535.15
548.34	41713.03
548.51	41820.69
548.67	41502.38
548.84	41689.62
549.01	41507.06
549.18	41720.05
549.34	41846.44
549.51	41518.76
549.68	41682.60
549.84	41448.55
550.01	42323.91
550.18	41670.90
550.34	41661.54
550.51	41516.42
550.68	41773.88
550.84	41633.45
551.01	42017.30
551.18	41762.18
551.34	42293.48
551.51	42169.43
551.68	41764.52
551.84	42263.05
552.01	42033.68
552.18	42337.95
552.34	41942.40
552.51	42478.38
552.68	42267.73
552.84	42279.44
553.01	42693.71
553.18	42375.40
553.34	42071.13
553.51	42333.27
553.67	42438.59
553.84	42719.46
554.01	42829.46
554.17	43232.04
554.34	42454.98
554.51	42454.98
554.67	43129.05
554.84	42869.25
555.00	42562.64
555.17	42520.51
555.33	42628.18
555.50	42506.47
555.67	42815.42
555.83	42726.48
556.00	42742.86
556.16	43192.25
556.33	42663.28
556.50	42857.55
556.66	42902.02
556.83	42817.76
556.99	43393.53
557.16	43447.36
557.32	43351.40
557.49	43089.26
557.65	42621.16
557.82	43075.22
557.98	42972.24
558.15	43110.33
558.32	43613.54
558.48	43079.90
558.65	43400.55
558.81	43255.44
558.98	43229.69
559.14	42967.55
559.31	43189.91
559.47	43370.13
559.64	43115.01
559.80	43377.15
559.97	43662.69
560.13	43522.26
560.30	42951.17
560.46	43477.79
560.63	43861.64
560.79	43466.09
560.96	43744.61
561.12	43175.86
561.29	43955.26
561.45	43761.00
561.61	43683.76
561.78	43882.70
561.94	43447.36
562.11	43445.02
562.27	43400.55
562.44	43463.75
562.60	43798.44
562.77	43796.10
562.93	43524.60
563.10	44144.84
563.26	43328.00
563.42	43782.06
563.59	43559.71
563.75	43803.13
563.92	44439.75
564.08	43386.51
564.24	44102.71
564.41	43880.36
564.57	44294.64
564.74	43880.36
564.90	44107.40
565.07	44147.18
565.23	43931.86
565.39	43641.63
565.56	43938.88
565.72	43973.98
565.88	44252.51
566.05	43976.33
566.21	43952.92
566.38	43655.67
566.54	43915.47
566.70	44212.72
566.87	44287.62
567.03	43772.70
567.19	44252.51
567.36	44257.19
567.52	44046.54
567.68	44142.50
567.85	44100.37
568.01	44062.93
568.17	44053.56
568.34	44315.70
568.50	43938.88
568.66	44282.94
568.83	44428.05
568.99	44093.35
569.15	43973.98
569.32	43856.96
569.48	44128.46
569.64	44369.54
569.81	44072.29
569.97	44144.84
570.13	44205.70
570.30	43941.22
570.46	43812.49
570.62	43887.39
570.78	43941.22
570.95	43789.08
571.11	44334.43
571.27	44526.35
571.43	44081.65
571.60	44552.10
571.76	43814.83
571.92	44224.42
572.09	43686.10
572.25	44280.60
572.41	44172.93
572.57	44266.55
572.74	44685.51
572.90	44526.35
573.06	44133.14
573.22	44282.94
573.38	44348.47
573.55	44198.68
573.71	44687.85
573.87	44105.06
574.03	44594.23
574.20	44168.25
574.36	44226.76
574.52	44509.97
574.68	44584.86
574.84	44629.34
575.01	44011.43
575.17	44596.57
575.33	44456.14
575.49	44163.57
575.65	44638.70
575.82	44825.94
575.98	44514.65
576.14	44971.05
576.30	44636.36
576.46	44100.37
576.62	44226.76
576.79	44460.82
576.95	44327.41
577.11	43920.15
577.27	44346.13
577.43	44531.03
577.59	44697.21
577.75	44414.01
577.92	44767.43
578.08	44341.45
578.24	44357.83
578.40	44285.28
578.56	44170.59
578.72	44493.58
578.88	44484.22
579.04	44140.16
579.21	44367.20
579.37	44512.31
579.53	44477.20
579.69	44231.44
579.85	44156.55
580.01	44320.38
580.17	44463.16
580.33	44924.24
580.49	44741.68
580.65	44516.99
580.82	44545.08
580.98	44435.07
581.14	44652.74
581.30	44994.46
581.46	45010.84
581.62	44718.28
581.78	44673.81
581.94	44802.53
582.10	44229.10
582.26	44680.83
582.42	44704.23
582.58	44418.69
582.74	44622.31
582.90	44545.08
583.06	44671.46
583.22	44751.04
583.38	44900.84
583.54	44678.49
583.70	44460.82
583.86	44500.61
584.02	44128.46
584.18	44563.80
584.34	44877.43
584.50	44528.69
584.66	44954.67
584.82	44395.28
584.98	44989.78
585.14	44898.50
585.30	44655.08
585.46	44952.33
585.62	44315.70
585.78	44626.99
585.94	44093.35
586.10	44875.09
586.26	44378.90
586.42	44907.86
586.58	45134.89
586.74	44594.23
586.90	44825.94
587.06	44336.77
587.22	44589.55
587.38	44507.63
587.54	44713.59
587.70	44753.38
587.86	44734.66
588.02	44678.49
588.18	44713.59
588.34	44212.72
588.49	44479.54
588.65	44182.29
588.81	44037.18
588.97	44739.34
589.13	44563.80
589.29	44505.29
589.45	44774.45
589.61	44509.97
589.77	44919.56
589.93	44582.52
590.08	44636.36
590.24	45022.54
