SpectraSuite Data File
++++++++++++++++++++++++++++++++++++
Date: Fri Oct 25 10:47:04 EDT 2013
User: price-jones
Dark Spectrum Present: No
Reference Spectrum Present: No
Number of Sampled Component Spectra: 1
Spectrometers: USB2+H05261
Integration Time (usec): 100000 (USB2+H05261)
Spectra Averaged: 1 (USB2+H05261)
Boxcar Smoothing: 0 (USB2+H05261)
Correct for Electrical Dark: No (USB2+H05261)
Strobe/Lamp Enabled: No (USB2+H05261)
Correct for Detector Non-linearity: No (USB2+H05261)
Correct for Stray Light: No (USB2+H05261)
Number of Pixels in Processed Spectrum: 2048
>>>>>Begin Processed Spectral Data<<<<<
365.73	198.95
365.92	198.95
366.12	198.95
366.32	0.00
366.52	0.00
366.72	49.15
366.91	51.49
367.11	35.11
367.31	56.17
367.51	25.75
367.70	14.04
367.90	23.41
368.10	56.17
368.30	18.72
368.49	84.26
368.69	39.79
368.89	187.24
369.09	110.01
369.28	46.81
369.48	140.43
369.68	37.45
369.87	56.17
370.07	84.26
370.27	117.03
370.47	145.11
370.66	369.80
370.86	362.78
371.06	454.06
371.25	486.83
371.45	444.70
371.65	414.27
371.84	421.30
372.04	442.36
372.24	503.22
372.44	475.13
372.63	428.32
372.83	505.56
373.03	484.49
373.22	505.56
373.42	535.98
373.62	543.00
373.81	482.15
374.01	507.90
374.21	540.66
374.40	524.28
374.60	603.86
374.79	559.39
374.99	519.60
375.19	561.73
375.38	573.43
375.58	568.75
375.78	538.32
375.97	578.11
376.17	636.63
376.37	557.05
376.56	599.18
376.76	645.99
376.95	587.47
377.15	629.60
377.35	620.24
377.54	655.35
377.74	535.98
377.93	582.79
378.13	711.52
378.33	622.58
378.52	660.03
378.72	638.97
378.91	690.46
379.11	627.26
379.31	547.69
379.50	608.54
379.70	631.94
379.89	688.12
380.09	695.14
380.28	622.58
380.48	755.99
380.68	648.33
380.87	709.18
381.07	720.88
381.26	685.78
381.46	641.31
381.65	629.60
381.85	645.99
382.04	746.63
382.24	706.84
382.43	620.24
382.63	716.20
382.83	664.71
383.02	781.74
383.22	720.88
383.41	732.59
383.61	692.80
383.80	702.16
384.00	697.48
384.19	718.54
384.39	784.08
384.58	741.95
384.78	784.08
384.97	767.70
385.17	795.78
385.36	727.91
385.56	774.72
385.75	779.40
385.95	760.67
386.14	802.80
386.34	807.48
386.53	737.27
386.72	737.27
386.92	847.27
387.11	842.59
387.31	793.44
387.50	795.78
387.70	842.59
387.89	833.23
388.09	889.40
388.28	919.83
388.48	833.23
388.67	903.45
388.86	926.85
389.06	903.45
389.25	964.30
389.45	938.55
389.64	933.87
389.84	992.39
390.03	966.64
390.22	919.83
390.42	908.13
390.61	976.00
390.81	830.89
391.00	922.17
391.19	936.21
391.39	917.49
391.58	1008.77
391.78	1029.84
391.97	994.73
392.16	990.05
392.36	1001.75
392.55	1006.43
392.75	873.02
392.94	983.02
393.13	943.24
393.33	917.49
393.52	964.30
393.71	1062.60
393.91	992.39
394.10	1114.10
394.29	1121.12
394.49	1039.20
394.68	1034.52
394.88	1160.91
395.07	1060.26
395.26	1107.07
395.46	1165.59
395.65	1170.27
395.84	1088.35
396.04	1125.80
396.23	1109.41
396.42	1212.40
396.62	1158.57
396.81	1186.65
397.00	1193.67
397.19	1132.82
397.39	1224.10
397.58	1263.89
397.77	1247.51
397.97	1306.02
398.16	1287.29
398.35	1259.21
398.55	1383.26
398.74	1352.83
398.93	1362.19
399.12	1310.70
399.32	1385.60
399.51	1308.36
399.70	1439.43
399.90	1437.09
400.09	1399.64
400.28	1486.24
400.47	1416.02
400.67	1493.26
400.86	1441.77
401.05	1486.24
401.24	1486.24
401.44	1568.16
401.63	1652.42
401.82	1434.75
402.01	1526.03
402.21	1598.59
402.40	1551.78
402.59	1565.82
402.78	1472.20
402.97	1540.07
403.17	1652.42
403.36	1657.10
403.55	1647.74
403.74	1729.66
403.93	1603.27
404.13	1678.16
404.32	1631.35
404.51	1671.14
404.70	1706.25
404.89	1720.29
405.09	1825.62
405.28	1717.95
405.47	1692.21
405.66	1652.42
405.85	1743.70
406.05	1839.66
406.24	1778.81
406.43	1797.53
406.62	1926.26
406.81	1921.58
407.00	1881.79
407.20	1900.52
407.39	1834.98
407.58	1909.88
407.77	2052.65
407.96	1898.17
408.15	1959.03
408.34	2001.16
408.54	1937.96
408.73	2090.10
408.92	2146.27
409.11	2176.70
409.30	2076.06
409.49	2038.61
409.68	2022.22
409.87	1973.07
410.07	2122.87
410.26	2099.46
410.45	2165.00
410.64	2260.96
410.83	2270.32
411.02	2087.76
411.21	2256.28
411.40	2186.06
411.59	2373.30
411.78	2293.72
411.98	2406.07
412.17	2349.90
412.36	2408.41
412.55	2445.86
412.74	2495.01
412.93	2471.61
413.12	2576.93
413.31	2532.46
413.50	2499.69
413.69	2579.27
413.88	2626.08
414.07	2663.53
414.26	2672.89
414.45	2665.87
414.64	2710.34
414.83	2710.34
415.02	2808.64
415.22	2827.37
415.41	2890.56
415.60	2860.13
415.79	2897.58
415.98	2843.75
416.17	2848.43
416.36	2895.24
416.55	2993.55
416.74	2904.60
416.93	2974.82
417.12	3030.99
417.31	3045.04
417.50	3045.04
417.69	3110.57
417.88	3122.27
418.07	3103.55
418.26	3159.72
418.45	3138.66
418.64	3325.90
418.83	3262.71
419.02	3192.49
419.21	3253.34
419.39	3276.75
419.58	3166.74
419.77	3297.81
419.96	3358.67
420.15	3517.83
420.34	3215.90
420.53	3349.31
420.72	3428.88
420.91	3489.74
421.10	3332.92
421.29	3449.95
421.48	3421.86
421.67	3531.87
421.86	3421.86
422.05	3485.06
422.24	3431.23
422.43	3562.30
422.61	3599.74
422.80	3644.21
422.99	3536.55
423.18	3824.44
423.37	3588.04
423.56	3606.77
423.75	3611.45
423.94	3555.27
424.13	3421.86
424.32	3410.16
424.50	3492.08
424.69	3728.47
424.88	3737.84
425.07	3522.51
425.26	3576.34
425.45	3641.87
425.64	3676.98
425.83	3571.66
426.01	3632.51
426.20	3686.34
426.39	3768.26
426.58	3667.62
426.77	3592.72
426.96	3634.85
427.15	3646.55
427.33	3772.94
427.52	3740.18
427.71	3702.73
427.90	3705.07
428.09	3801.03
428.28	3819.75
428.46	3798.69
428.65	3765.92
428.84	3999.98
429.03	3941.46
429.22	3969.55
429.40	3784.65
429.59	3840.82
429.78	3620.81
429.97	3646.55
430.16	3712.09
430.34	3936.78
430.53	3960.19
430.72	3934.44
430.91	3906.35
431.10	4018.70
431.28	4177.86
431.47	4098.28
431.66	4201.26
431.85	4091.26
432.03	4152.11
432.22	4236.37
432.41	4285.52
432.60	4212.96
432.79	4325.31
432.97	4271.48
433.16	4348.72
433.35	4219.99
433.54	4400.21
433.72	4278.50
433.91	4243.39
434.10	4411.91
434.28	4482.13
434.47	4306.59
434.66	4470.42
434.85	4418.93
435.03	4648.30
435.22	4510.21
435.41	4645.96
435.59	4652.98
435.78	4650.64
435.97	4643.62
436.16	4739.58
436.34	4690.43
436.53	4713.84
436.72	4800.44
436.90	4620.22
437.09	4805.12
437.28	4704.48
437.46	4807.46
437.65	4887.04
437.84	4784.06
438.02	4697.46
438.21	4660.01
438.40	4711.50
438.58	4985.34
438.77	4978.32
438.96	4940.87
439.14	5107.05
439.33	5214.71
439.52	5167.90
439.70	5179.61
439.89	5224.08
440.08	5373.87
440.26	5275.57
440.45	5174.92
440.63	5329.40
440.82	5371.53
441.01	5369.19
441.19	5439.40
441.38	5579.84
441.57	5605.58
441.75	5636.01
441.94	5544.73
442.12	5600.90
442.31	5673.46
442.50	5631.33
442.68	5827.93
442.87	5778.78
443.05	5715.59
443.24	5959.00
443.43	6001.13
443.61	5853.68
443.80	5900.49
443.98	5809.21
444.17	5717.93
444.35	5930.92
444.54	6040.92
444.73	6150.93
444.91	5755.38
445.10	5923.90
445.28	5928.58
445.47	5816.23
445.65	5923.90
445.84	5966.03
446.02	5937.94
446.21	6012.84
446.39	5940.28
446.58	6207.10
446.77	6080.71
446.95	6047.94
447.14	5949.64
447.32	6164.97
447.51	6045.60
447.69	5970.71
447.88	6097.10
448.06	6073.69
448.25	6113.48
448.43	6153.27
448.62	6157.95
448.80	6076.03
448.99	6097.10
449.17	6129.86
449.36	6218.80
449.54	6286.68
449.73	6394.34
449.91	6471.58
450.10	6410.73
450.28	6555.84
450.46	6534.78
450.65	6546.48
450.83	6551.16
451.02	6464.56
451.20	6731.38
451.39	6546.48
451.57	6530.09
451.76	6553.50
451.94	6595.63
452.13	6661.16
452.31	6462.22
452.49	6509.03
452.68	6670.53
452.86	6560.52
453.05	6600.31
453.23	6705.63
453.42	6560.52
453.60	6637.76
453.78	6766.49
453.97	6565.20
454.15	6691.59
454.34	6663.51
454.52	6871.81
454.70	6932.67
454.89	6810.96
455.07	6782.87
455.26	6782.87
455.44	6956.07
455.62	6981.82
455.81	6981.82
455.99	7098.84
456.17	7260.34
456.36	7145.66
456.54	7236.94
456.73	7288.43
456.91	7173.74
457.09	7353.96
457.28	7501.42
457.46	7283.75
457.64	7332.90
457.83	7590.36
458.01	7538.87
458.19	7679.30
458.38	7550.57
458.56	7545.89
458.74	7665.25
458.93	7543.55
459.11	7665.25
459.29	7653.55
459.48	7686.32
459.66	7681.64
459.84	7559.93
460.03	7929.74
460.21	7765.90
460.39	7843.14
460.57	7688.66
460.76	7843.14
460.94	7817.39
461.12	7943.78
461.31	7885.26
461.49	7861.86
461.67	7964.84
461.85	8121.66
462.04	7934.42
462.22	8439.97
462.40	8088.89
462.59	8226.98
462.77	8180.17
462.95	8084.21
463.13	7969.52
463.32	8255.07
463.50	8259.75
463.68	8203.58
463.86	8255.07
464.05	8135.70
464.23	8250.39
464.41	8294.86
464.59	8128.68
464.78	8390.82
464.96	8416.57
465.14	8156.77
465.32	8564.02
465.50	8582.74
465.69	8507.85
465.87	8416.57
466.05	8262.09
466.23	8652.96
466.41	8615.51
466.60	8542.96
466.78	8470.40
466.96	8416.57
467.14	8423.59
467.32	8568.70
467.51	8858.93
467.69	8491.46
467.87	8645.94
468.05	8681.05
468.23	8585.08
468.41	8578.06
468.60	8723.18
468.78	8720.84
468.96	8795.73
469.14	9128.09
469.32	8931.48
469.50	8978.30
469.69	9104.68
469.87	9137.45
470.05	8954.89
470.23	9242.78
470.41	9111.71
470.59	9114.05
470.77	8959.57
470.95	9053.19
471.14	9369.16
471.32	9022.77
471.50	9514.28
471.68	9373.85
471.86	9502.58
472.04	9528.32
472.22	9928.55
472.40	9404.27
472.58	9472.15
472.77	9647.69
472.95	9685.14
473.13	10057.28
473.31	9870.04
473.49	9675.77
473.67	10076.01
473.85	9582.15
474.03	10066.64
474.21	10061.96
474.39	10143.88
474.57	10223.46
474.75	10417.72
474.93	10291.34
475.12	10108.77
475.30	10333.47
475.48	10363.89
475.66	10459.85
475.84	10619.01
476.02	10586.24
476.20	10593.26
476.38	10726.68
476.56	10822.64
476.74	10803.91
476.92	10864.77
477.10	10731.36
477.28	11204.14
477.46	10867.11
477.64	11152.65
477.82	11382.03
478.00	11772.89
478.18	11372.66
478.36	11536.50
478.54	11840.77
478.72	11777.58
478.90	11887.58
479.08	12030.35
479.26	12100.57
479.44	12109.93
479.62	12198.87
479.80	12435.27
479.98	12465.69
480.16	12456.33
480.34	12397.82
480.52	12812.09
480.70	12746.56
480.88	12430.59
481.06	12854.22
481.24	12992.31
481.41	13228.71
481.59	13212.32
481.77	13336.37
481.95	13280.20
482.13	13525.96
482.31	13308.29
482.49	13940.23
482.67	13612.56
482.85	13832.57
483.03	14017.47
483.21	14321.74
483.39	14239.82
483.57	14036.19
483.74	14279.61
483.92	14576.86
484.10	14445.79
484.28	14656.43
484.46	14787.50
484.64	15236.89
484.82	14773.46
485.00	15115.18
485.18	15084.75
485.35	15559.88
485.53	14974.75
485.71	15147.95
485.89	15276.68
486.07	15370.30
486.25	15634.78
486.43	15770.53
486.61	15875.85
486.78	16304.17
486.96	16231.62
487.14	16421.20
487.32	16418.86
487.50	16690.36
487.68	16641.21
487.85	17132.72
488.03	17289.54
488.21	17378.48
488.39	17312.94
488.57	17523.59
488.75	17900.42
488.92	17774.03
489.10	17996.38
489.28	18054.89
489.46	18281.92
489.64	18155.54
489.81	18927.91
489.99	18757.05
490.17	18831.95
490.35	18920.89
490.53	19101.11
490.70	19190.05
490.88	19133.88
491.06	19103.45
491.24	19349.21
491.41	19491.98
491.59	19517.73
491.77	19456.87
491.95	19957.75
492.13	19695.61
492.30	20208.19
492.48	20271.38
492.66	20283.08
492.84	20463.30
493.01	20662.25
493.19	20531.18
493.37	20540.54
493.54	21118.65
493.72	21083.55
493.90	21022.69
494.08	21542.29
494.25	21369.09
494.43	21497.82
494.61	21546.97
494.79	21785.71
494.96	21979.97
495.14	21591.44
495.32	22178.92
495.49	22288.92
495.67	22199.98
495.85	22466.80
496.02	22534.68
496.20	22785.12
496.38	22817.88
496.55	22815.54
496.73	23232.16
496.91	23030.87
497.09	23124.49
497.26	23246.20
497.44	23302.37
497.62	23669.84
497.79	23435.78
497.97	23515.36
498.14	23929.64
498.32	23625.37
498.50	24240.93
498.67	24203.48
498.85	24470.30
499.03	24416.47
499.20	24224.54
499.38	24542.86
499.56	24835.42
499.73	24566.26
499.91	24896.28
500.08	25067.14
500.26	24875.21
500.44	24542.86
500.61	24959.47
500.79	25238.00
500.97	25369.07
501.14	25486.09
501.32	25530.56
501.49	25881.64
501.67	25560.99
501.84	25619.50
502.02	25853.56
502.20	26029.10
502.37	26017.40
502.55	26024.42
502.72	26057.18
502.90	26586.15
503.07	26125.06
503.25	26363.79
503.43	26391.88
503.60	26436.35
503.78	26448.05
503.95	26333.37
504.13	26670.40
504.30	26981.70
504.48	26675.09
504.65	26848.29
504.83	27372.57
505.01	27126.81
505.18	27316.39
505.36	27658.11
505.53	27353.84
505.71	27899.19
505.88	28102.81
506.06	27709.60
506.23	27702.58
506.41	27796.20
506.58	27812.59
506.76	27845.35
506.93	28364.95
507.11	28423.47
507.28	28170.69
507.46	28327.50
507.63	28151.96
507.81	28641.14
507.98	28306.44
508.16	28627.09
508.33	28833.06
508.50	28650.50
508.68	29092.86
508.85	29422.87
509.03	28987.53
509.20	29233.29
509.38	29390.11
509.55	29652.25
509.73	29261.38
509.90	29472.03
510.08	29621.82
510.25	29528.20
510.42	30010.35
510.60	29982.26
510.77	29677.99
510.95	30532.29
511.12	29813.74
511.30	30314.62
511.47	30441.01
511.64	30925.50
511.82	30721.87
511.99	30125.04
512.17	30436.33
512.34	30246.74
512.51	31119.76
512.69	30984.01
512.86	30895.07
513.04	31002.74
513.21	31199.34
513.38	30890.39
513.56	30801.45
513.73	31094.02
513.90	31201.68
514.08	31527.02
514.25	31634.68
514.43	31421.69
514.60	31204.02
514.77	31370.20
514.95	31978.74
515.12	31901.50
515.29	32154.28
515.47	31847.67
515.64	31955.33
515.81	31887.46
515.99	31871.07
516.16	32226.84
516.33	32046.62
516.51	32112.15
516.68	31866.39
516.85	32133.21
517.03	31814.90
517.20	31920.23
517.37	31962.36
517.54	32697.28
517.72	32573.24
517.89	33017.94
518.06	32704.31
518.24	32620.05
518.41	32701.96
518.58	32601.32
518.75	32708.99
518.93	33055.39
519.10	32781.54
519.27	33266.03
519.45	33336.25
519.62	33645.20
519.79	33462.64
519.96	33820.74
520.14	34010.32
520.31	33813.72
520.48	33654.56
520.65	33722.44
520.83	34330.98
521.00	34134.37
521.17	34426.94
521.34	34565.03
521.52	34352.04
521.69	34288.85
521.86	34330.98
522.03	34707.80
522.20	33921.38
522.38	34134.37
522.55	35166.55
522.72	34354.38
522.89	34646.95
523.07	34883.34
523.24	34361.40
523.41	34810.79
523.58	34733.55
523.75	35122.08
523.92	34920.79
524.10	35009.73
524.27	35697.85
524.44	35526.99
524.61	35739.98
524.78	35639.34
524.96	35845.30
525.13	36032.55
525.30	36084.04
525.47	36172.98
525.64	35763.39
525.81	35690.83
525.98	36222.13
526.16	35908.50
526.33	35737.64
526.50	36474.91
526.67	35728.28
526.84	35948.29
527.01	35634.66
527.18	36290.01
527.36	36645.77
527.53	36467.89
527.70	36610.66
527.87	36470.23
528.04	36538.10
528.21	36491.29
528.38	36510.02
528.55	37027.28
528.72	36776.84
528.89	37324.52
529.07	36865.78
529.24	36898.55
529.41	37151.32
529.58	36650.45
529.75	36692.58
529.92	37291.76
530.09	36931.31
530.26	37387.72
530.43	37717.73
530.60	37420.48
530.77	37347.93
530.94	38108.60
531.11	37020.25
531.28	37752.84
531.46	37825.40
531.63	37670.92
531.80	37333.89
531.97	37811.35
532.14	37734.12
532.31	37551.56
532.48	37699.01
532.65	37612.41
532.82	37874.55
532.99	37986.89
533.16	37546.87
533.33	37750.50
533.50	38120.31
533.67	38167.12
533.84	37635.81
534.01	38099.24
534.18	38066.47
534.35	38553.30
534.52	38567.35
534.69	38827.15
534.86	38691.40
535.03	38724.16
535.20	39023.75
535.37	38993.32
535.54	39159.50
535.71	38969.92
535.88	38653.95
536.05	38897.36
536.22	39084.61
536.38	39061.20
536.55	39140.78
536.72	38766.29
536.89	38836.51
537.06	39150.14
537.23	39150.14
537.40	39000.35
537.57	39096.31
537.74	39536.33
537.91	39803.15
538.08	39714.21
538.25	39267.17
538.42	39241.42
538.59	39782.09
538.75	39332.70
538.92	39700.17
539.09	39782.09
539.26	39608.89
539.43	39772.72
539.60	39831.24
539.77	39562.08
539.94	40187.00
540.11	39908.47
540.28	40243.17
540.44	39999.76
540.61	39910.82
540.78	39945.92
540.95	39819.53
541.12	40018.48
541.29	39737.62
541.46	39821.87
541.62	39901.45
541.79	40704.26
541.96	40041.88
542.13	40512.33
542.30	40179.98
542.47	40472.54
542.63	40196.36
542.80	40374.24
542.97	40715.96
543.14	41200.45
543.31	41064.70
543.48	40849.37
543.64	41165.34
543.81	41359.61
543.98	41067.04
544.15	41319.82
544.32	41619.41
544.48	41652.17
544.65	41347.90
544.82	41315.14
544.99	40896.18
545.16	41251.94
545.32	40882.14
545.49	41139.60
545.66	41605.36
545.83	41450.89
546.00	41656.85
546.16	41509.40
546.33	41722.39
546.50	41446.21
546.67	41773.88
546.83	41551.53
547.00	41574.94
547.17	41713.03
547.34	41902.61
547.50	41715.37
547.67	42052.41
547.84	41792.61
548.00	42239.65
548.17	42232.63
548.34	42073.47
548.51	41743.45
548.67	42337.95
548.84	42375.40
549.01	42253.69
549.18	41928.36
549.34	42174.11
549.51	42071.13
549.68	42412.85
549.84	42012.62
550.01	42344.97
550.18	42050.06
550.34	42106.24
550.51	42267.73
550.68	42160.07
550.84	41851.12
551.01	42265.39
551.18	42602.43
551.34	42623.50
551.51	42567.32
551.68	42550.94
551.84	42916.06
552.01	42656.26
552.18	42440.93
552.34	42422.21
552.51	43009.68
552.68	42518.17
552.84	42693.71
553.01	42981.60
553.18	42794.36
553.34	42866.91
553.51	42951.17
553.67	43175.86
553.84	43201.61
554.01	43501.20
554.17	42981.60
554.34	43206.29
554.51	43210.97
554.67	43517.58
554.84	42864.57
555.00	43255.44
555.17	42717.12
555.33	43587.80
555.50	43264.80
555.67	43412.26
555.83	43171.18
556.00	43178.20
556.16	43299.91
556.33	43718.87
556.50	43030.75
556.66	43519.92
556.83	43426.30
556.99	43391.19
557.16	43744.61
557.32	43786.74
557.49	44041.86
557.65	43707.16
557.82	43735.25
557.98	43910.79
558.15	43686.10
558.32	43943.56
558.48	43753.97
558.65	43753.97
558.81	43627.59
558.98	43648.65
559.14	43803.13
559.31	43725.89
559.47	43920.15
559.64	44083.99
559.80	43903.77
559.97	43962.28
560.13	43800.79
560.30	44081.65
560.46	44266.55
560.63	43887.39
560.79	43966.96
560.96	44100.37
561.12	44126.12
561.29	44589.55
561.45	44069.95
561.61	43948.24
561.78	44201.02
561.94	44334.43
562.11	44170.59
562.27	43714.19
562.44	44343.79
562.60	44456.14
562.77	44591.89
562.93	44439.75
563.10	44093.35
563.26	43805.47
563.42	44364.85
563.59	44289.96
563.75	44217.40
563.92	44603.59
564.08	44561.46
564.24	44760.40
564.41	43831.21
564.57	44488.90
564.74	44088.67
564.90	44383.58
565.07	44591.89
565.23	44367.20
565.39	44472.52
565.56	44278.25
565.72	44142.50
565.88	44325.07
566.05	44133.14
566.21	44142.50
566.38	44421.03
566.54	44458.48
566.70	44701.89
566.87	44460.82
567.03	44296.98
567.19	44713.59
567.36	44388.26
567.52	44610.61
567.68	44886.79
567.85	44655.08
568.01	44285.28
568.17	44540.39
568.34	45015.52
568.50	44561.46
568.66	44467.84
568.83	44823.60
568.99	44137.82
569.15	44414.01
569.32	44753.38
569.48	44371.88
569.64	44669.12
569.81	44561.46
569.97	44669.12
570.13	44924.24
570.30	45041.27
570.46	44481.88
570.62	44023.14
570.78	44547.42
570.95	44318.04
571.11	44900.84
571.27	44898.50
571.43	44767.43
571.60	45139.57
571.76	44847.00
571.92	44837.64
572.09	44566.14
572.25	44509.97
572.41	45015.52
572.57	44758.06
572.74	44982.76
572.90	44662.10
573.06	45057.65
573.22	44739.34
573.38	44758.06
573.55	44687.85
573.71	44793.17
573.87	44615.29
574.03	44678.49
574.20	44741.68
574.36	44662.10
574.52	44854.03
574.68	45109.14
574.84	44952.33
575.01	44865.73
575.17	44868.07
575.33	44411.67
575.49	44879.77
575.65	45296.39
575.82	45256.60
575.98	45102.12
576.14	45200.43
576.30	44837.64
576.46	45055.31
576.62	44926.58
576.79	45141.91
576.95	44540.39
577.11	44839.98
577.27	44837.64
577.43	45160.64
577.59	44631.68
577.75	44875.09
577.92	44563.80
578.08	44428.05
578.24	44664.44
578.40	44446.77
578.56	45219.15
578.72	44641.04
578.88	44758.06
579.04	45200.43
579.21	45399.37
579.37	44910.20
579.53	45230.85
579.69	44273.57
579.85	45226.17
580.01	45116.17
580.17	44938.29
580.33	44701.89
580.49	45022.54
580.65	45045.95
580.82	45481.29
580.98	45483.63
581.14	44942.97
581.30	44727.64
581.46	45111.49
581.62	44830.62
581.78	44957.01
581.94	45261.28
582.10	44713.59
582.26	45240.21
582.42	44900.84
582.58	44999.14
582.74	44811.90
582.90	45017.86
583.06	45034.25
583.22	45221.49
583.38	44992.12
583.54	45382.99
583.70	44893.82
583.86	45010.84
584.02	44809.56
584.18	45027.23
584.34	45230.85
584.50	45193.40
584.66	44563.80
584.82	45048.29
584.98	45467.25
585.14	45574.91
585.30	45064.67
585.46	44830.62
585.62	44624.65
585.78	45291.71
585.94	44516.99
586.10	44701.89
586.26	44847.00
586.42	44818.92
586.58	45652.15
586.74	45078.72
586.90	45036.59
587.06	45024.89
587.22	45209.79
587.38	45074.04
587.54	45242.56
587.70	45387.67
587.86	45357.24
588.02	45160.64
588.18	45240.21
588.34	45034.25
588.49	45118.51
588.65	44301.66
588.81	44793.17
588.97	44629.34
589.13	45006.16
589.29	44701.89
589.45	45045.95
589.61	45209.79
589.77	45177.02
589.93	45301.07
590.08	45350.22
590.24	45191.06
