SpectraSuite Data File
++++++++++++++++++++++++++++++++++++
Date: Fri Oct 25 11:25:37 EDT 2013
User: price-jones
Dark Spectrum Present: No
Reference Spectrum Present: No
Number of Sampled Component Spectra: 1
Spectrometers: USB2+H05261
Integration Time (usec): 100000 (USB2+H05261)
Spectra Averaged: 1 (USB2+H05261)
Boxcar Smoothing: 0 (USB2+H05261)
Correct for Electrical Dark: No (USB2+H05261)
Strobe/Lamp Enabled: No (USB2+H05261)
Correct for Detector Non-linearity: No (USB2+H05261)
Correct for Stray Light: No (USB2+H05261)
Number of Pixels in Processed Spectrum: 2048
>>>>>Begin Processed Spectral Data<<<<<
365.73	203.63
365.92	203.63
366.12	203.63
366.32	135.75
366.52	110.01
366.72	117.03
366.91	196.60
367.11	86.60
367.31	147.45
367.51	142.77
367.70	79.58
367.90	126.39
368.10	81.92
368.30	114.69
368.49	114.69
368.69	184.90
368.89	152.13
369.09	156.82
369.28	161.50
369.48	212.99
369.68	175.54
369.87	128.73
370.07	128.73
370.27	224.69
370.47	325.33
370.66	594.50
370.86	573.43
371.06	697.48
371.25	573.43
371.45	720.88
371.65	720.88
371.84	631.94
372.04	786.42
372.24	727.91
372.44	669.39
372.63	685.78
372.83	725.57
373.03	669.39
373.22	629.60
373.42	692.80
373.62	800.46
373.81	772.38
374.01	842.59
374.21	861.32
374.40	788.76
374.60	849.61
374.79	781.74
374.99	889.40
375.19	793.44
375.38	873.02
375.58	873.02
375.78	873.02
375.97	856.64
376.17	889.40
376.37	924.51
376.56	898.77
376.76	889.40
376.95	844.93
377.15	880.04
377.35	905.79
377.54	908.13
377.74	896.43
377.93	950.26
378.13	905.79
378.33	1006.43
378.52	987.71
378.72	945.58
378.91	971.32
379.11	957.28
379.31	952.60
379.50	884.72
379.70	985.37
379.89	1048.56
380.09	990.05
380.28	952.60
380.48	1029.84
380.68	968.98
380.87	1004.09
381.07	1067.28
381.26	1060.26
381.46	1004.09
381.65	990.05
381.85	1114.10
382.04	1064.94
382.24	1025.15
382.43	1074.31
382.63	1001.75
382.83	1118.78
383.02	1090.69
383.22	1109.41
383.41	1184.31
383.61	1055.58
383.80	1121.12
384.00	1200.69
384.19	1144.52
384.39	1203.04
384.58	1036.86
384.78	1142.18
384.97	1088.35
385.17	1123.46
385.36	1188.99
385.56	1123.46
385.75	1219.42
385.95	1135.16
386.14	1191.33
386.34	1200.69
386.53	1231.12
386.72	1172.61
386.92	1203.04
387.11	1217.08
387.31	1212.40
387.50	1247.51
387.70	1249.85
387.89	1233.46
388.09	1249.85
388.28	1259.21
388.48	1303.68
388.67	1308.36
388.86	1249.85
389.06	1385.60
389.25	1369.21
389.45	1341.13
389.64	1287.29
389.84	1284.95
390.03	1366.87
390.22	1394.96
390.42	1387.94
390.61	1308.36
390.81	1394.96
391.00	1467.52
391.19	1404.32
391.39	1516.67
391.58	1369.21
391.78	1476.88
391.97	1474.54
392.16	1589.22
392.36	1500.28
392.55	1474.54
392.75	1504.96
392.94	1519.01
393.13	1540.07
393.33	1549.43
393.52	1528.37
393.71	1540.07
393.91	1593.90
394.10	1664.12
394.29	1575.18
394.49	1638.38
394.68	1694.55
394.88	1603.27
395.07	1647.74
395.26	1617.31
395.46	1643.06
395.65	1720.29
395.84	1645.40
396.04	1788.17
396.23	1739.02
396.42	1685.19
396.62	1753.06
396.81	1682.85
397.00	1746.04
397.19	1678.16
397.39	1762.42
397.58	1804.55
397.77	1724.97
397.97	1809.23
398.16	1825.62
398.35	1865.41
398.55	1802.21
398.74	1879.45
398.93	1961.37
399.12	1944.99
399.32	1858.39
399.51	1956.69
399.70	1916.90
399.90	1919.24
400.09	2118.18
400.28	2005.84
400.47	2010.52
400.67	1966.05
400.86	2134.57
401.05	2059.67
401.24	2066.69
401.44	2052.65
401.63	2097.12
401.82	2076.06
402.01	2165.00
402.21	2232.87
402.40	2246.91
402.59	2125.21
402.78	2113.50
402.97	2305.43
403.17	2340.54
403.36	2193.08
403.55	2305.43
403.74	2300.75
403.93	2354.58
404.13	2307.77
404.32	2244.57
404.51	2314.79
404.70	2363.94
404.89	2408.41
405.09	2455.22
405.28	2359.26
405.47	2370.96
405.66	2455.22
405.85	2431.82
406.05	2523.10
406.24	2532.46
406.43	2487.99
406.62	2651.83
406.81	2782.90
407.00	2658.85
407.20	2525.44
407.39	2640.12
407.58	2654.17
407.77	2637.78
407.96	2766.51
408.15	2743.11
408.34	2736.09
408.54	2820.35
408.73	2848.43
408.92	2836.73
409.11	2839.07
409.30	2949.08
409.49	2904.60
409.68	2923.33
409.87	2944.39
410.07	3009.93
410.26	3016.95
410.45	3030.99
410.64	3070.78
410.83	3075.46
411.02	3087.17
411.21	3115.25
411.40	3152.70
411.59	3094.19
411.78	3190.15
411.98	3204.19
412.17	3274.41
412.36	3309.52
412.55	3251.00
412.74	3431.23
412.93	3403.14
413.12	3351.65
413.31	3562.30
413.50	3356.33
413.69	3447.61
413.88	3513.14
414.07	3531.87
414.26	3709.75
414.45	3688.68
414.64	3599.74
414.83	3728.47
415.02	3833.80
415.22	3742.52
415.41	3904.01
415.60	3845.50
415.79	3894.65
415.98	3950.82
416.17	3908.69
416.36	3974.23
416.55	3894.65
416.74	4119.34
416.93	3904.01
417.12	3997.64
417.31	4187.22
417.50	4121.68
417.69	4259.78
417.88	4290.20
418.07	4217.65
418.26	4332.33
418.45	4229.35
418.64	4397.87
418.83	4489.15
419.02	4461.06
419.21	4404.89
419.39	4514.89
419.58	4388.50
419.77	4372.12
419.96	4629.58
420.15	4692.77
420.34	4557.02
420.53	4690.43
420.72	4664.69
420.91	4610.86
421.10	4828.53
421.29	4830.87
421.48	4683.41
421.67	4648.30
421.86	4648.30
422.05	4786.40
422.24	4847.25
422.43	4858.95
422.61	4919.81
422.80	4987.68
422.99	4847.25
423.18	4929.17
423.37	5039.17
423.56	4950.23
423.75	4844.91
423.94	4760.65
424.13	4547.66
424.32	4798.10
424.50	5085.98
424.69	5177.26
424.88	5008.75
425.07	4877.68
425.26	4718.52
425.45	4910.44
425.64	4868.31
425.83	4837.89
426.01	5011.09
426.20	5011.09
426.39	5011.09
426.58	4894.06
426.77	4929.17
426.96	5050.88
427.15	5109.39
427.33	5233.44
427.52	5062.58
427.71	5273.23
427.90	5245.14
428.09	5238.12
428.28	5329.40
428.46	5418.34
428.65	5451.11
428.84	5392.59
429.03	5397.28
429.22	5408.98
429.40	5500.26
429.59	5502.60
429.78	5320.04
429.97	5165.56
430.16	5542.39
430.34	5467.49
430.53	5628.99
430.72	5671.12
430.91	5591.54
431.10	5476.85
431.28	5727.29
431.47	5755.38
431.66	5877.09
431.85	5643.03
432.03	5846.66
432.22	5860.70
432.41	5949.64
432.60	5963.68
432.79	5877.09
432.97	5905.17
433.16	6176.67
433.35	5870.06
433.54	5937.94
433.72	6033.90
433.91	6157.95
434.10	6054.97
434.28	6181.35
434.47	6139.23
434.66	6214.12
434.85	6183.70
435.03	6232.85
435.22	6118.16
435.41	6307.74
435.59	6263.27
435.78	6319.45
435.97	6361.58
436.16	6417.75
436.34	6307.74
436.53	6394.34
436.72	6558.18
436.90	6291.36
437.09	6546.48
437.28	6553.50
437.46	6548.82
437.65	6665.85
437.84	6677.55
438.02	6696.27
438.21	6661.16
438.40	6782.87
438.58	6937.35
438.77	6834.36
438.96	6937.35
439.14	7183.10
439.33	6991.18
439.52	7112.89
439.70	7124.59
439.89	7274.38
440.08	7325.88
440.26	7276.73
440.45	7403.11
440.63	7454.61
440.82	7630.15
441.01	7494.40
441.19	7667.60
441.38	7520.14
441.57	7599.72
441.75	7763.56
441.94	7817.39
442.12	7833.77
442.31	7985.91
442.50	8189.53
442.68	7793.98
442.87	8053.78
443.05	8152.09
443.24	8109.96
443.43	8126.34
443.61	8112.30
443.80	8461.04
443.98	7852.50
444.17	7845.48
444.35	8161.45
444.54	8299.54
444.73	8231.66
444.91	8269.11
445.10	8222.30
445.28	8217.62
445.47	8262.09
445.65	8250.39
445.84	8341.67
446.02	8603.81
446.21	8355.71
446.39	8301.88
446.58	8416.57
446.77	8435.29
446.95	8088.89
447.14	8367.42
447.32	8458.70
447.51	8484.44
447.69	8318.26
447.88	8329.97
448.06	8538.27
448.25	8482.10
448.43	8496.14
448.62	8311.24
448.80	8552.32
448.99	8713.81
449.17	8748.92
449.36	8744.24
449.54	8744.24
449.73	8905.74
449.91	8800.41
450.10	8905.74
450.28	8847.22
450.46	9029.79
450.65	8940.85
450.83	9167.88
451.02	9032.13
451.20	9287.25
451.39	9109.36
451.57	8814.46
451.76	8985.32
451.94	9174.90
452.13	9132.77
452.31	9266.18
452.49	9006.38
452.68	9383.21
452.86	9296.61
453.05	9537.68
453.23	9502.58
453.42	9355.12
453.60	9305.97
453.78	9537.68
453.97	9355.12
454.15	9509.60
454.34	9582.15
454.52	9528.32
454.70	9600.88
454.89	9568.11
455.07	9830.25
455.26	9713.22
455.44	9753.01
455.62	9984.73
455.81	10024.51
455.99	9989.41
456.17	9987.07
456.36	10108.77
456.54	10209.42
456.73	10143.88
456.91	10345.17
457.09	10532.41
457.28	10619.01
457.46	10328.78
457.64	10434.11
457.83	10548.79
458.01	10483.26
458.19	10675.18
458.38	10427.09
458.56	10509.01
458.74	10658.80
458.93	10721.99
459.11	10532.41
459.29	10733.70
459.48	10970.09
459.66	10986.47
459.84	10832.00
460.03	11061.37
460.21	11023.92
460.39	11183.08
460.57	10967.75
460.76	10913.92
460.94	11042.65
461.12	11019.24
461.31	11290.74
461.49	11096.48
461.67	11061.37
461.85	11536.50
462.04	11215.85
462.22	11683.95
462.40	11407.77
462.59	11272.02
462.77	11440.54
462.95	11393.73
463.13	11529.48
463.32	11604.38
463.50	11489.69
463.68	11705.02
463.86	11688.64
464.05	11569.27
464.23	11782.26
464.41	11658.21
464.59	11384.37
464.78	12138.02
464.96	11939.07
465.14	11779.92
465.32	12046.74
465.50	11981.20
465.69	12252.70
465.87	12091.21
466.05	12011.63
466.23	12123.98
466.41	12262.07
466.60	12568.68
466.78	12177.81
466.96	12049.08
467.14	11908.65
467.32	12411.86
467.51	12500.80
467.69	12138.02
467.87	12418.88
468.05	12575.70
468.23	12203.55
468.41	12395.48
468.60	12383.77
468.78	12620.17
468.96	12662.30
469.14	12894.01
469.32	13217.01
469.50	12666.98
469.69	13032.10
469.87	13107.00
470.05	13160.83
470.23	13043.81
470.41	13095.30
470.59	13224.03
470.77	12861.24
470.95	13327.01
471.14	13715.54
471.32	13146.79
471.50	13387.86
471.68	13614.90
471.86	13591.49
472.04	13783.41
472.22	13844.27
472.40	13832.57
472.58	13781.07
472.77	13771.71
472.95	14122.79
473.13	14516.00
473.31	13781.07
473.49	14022.15
473.67	13963.64
473.85	14237.48
474.03	14675.16
474.21	14516.00
474.39	14700.90
474.57	14874.10
474.75	14806.23
474.93	14796.87
475.12	14904.53
475.30	15000.49
475.48	14831.97
475.66	15311.78
475.84	15087.09
476.02	15274.34
476.20	15424.13
476.38	15396.04
476.56	15946.07
476.74	15864.15
476.92	15812.66
477.10	15953.09
477.28	16290.13
477.46	16065.44
477.64	16313.53
477.82	16475.03
478.00	16753.55
478.18	16535.88
478.36	16847.18
478.54	17130.38
478.72	17186.55
478.90	17242.73
479.08	17235.70
479.26	17832.54
479.44	17694.45
479.62	17586.79
479.80	17970.63
479.98	18162.56
480.16	18558.11
480.34	18244.48
480.52	18644.71
480.70	18530.02
480.88	18237.45
481.06	18670.45
481.24	18672.79
481.41	18745.35
481.59	19396.02
481.77	19281.33
481.95	19543.47
482.13	19700.29
482.31	19765.82
482.49	20449.26
482.67	19681.56
482.85	20215.21
483.03	20573.31
483.21	20498.41
483.39	21071.84
483.57	20837.79
483.74	21022.69
483.92	21172.49
484.10	21387.82
484.28	21568.04
484.46	22111.04
484.64	22471.48
484.82	21935.50
485.00	22349.78
485.18	22522.98
485.35	22759.37
485.53	23138.54
485.71	22993.42
485.89	23374.93
486.07	22986.40
486.25	23129.17
486.43	23700.26
486.61	24114.54
486.78	23948.36
486.96	23924.96
487.14	24376.68
487.32	24472.64
487.50	24940.75
487.68	24760.53
487.85	25163.10
488.03	25371.41
488.21	25280.13
488.39	25813.77
488.57	26040.80
488.75	25965.90
488.92	26553.38
489.10	26544.02
489.28	26768.71
489.46	26810.84
489.64	26803.82
489.81	27379.59
489.99	27353.84
490.17	27906.21
490.35	27892.16
490.53	27992.81
490.70	28137.92
490.88	27992.81
491.06	28753.48
491.24	28762.84
491.41	29113.92
491.59	29039.03
491.77	29429.90
491.95	29476.71
492.13	29600.76
492.30	29673.31
492.48	29862.90
492.66	30326.32
492.84	30260.79
493.01	30632.93
493.19	30724.21
493.37	30967.63
493.54	30883.37
493.72	31281.26
493.90	31622.98
494.08	31566.81
494.25	32063.00
494.43	31709.58
494.61	32203.43
494.79	32467.91
494.96	32079.38
495.14	32554.51
495.32	33078.79
495.49	32746.44
495.67	33001.55
495.85	33376.04
496.02	33858.19
496.20	33626.48
496.38	34005.64
496.55	34141.39
496.73	34693.76
496.91	34628.23
497.09	34583.76
497.26	34897.39
497.44	35192.30
497.62	35318.68
497.79	35573.80
497.97	35309.32
498.14	35739.98
498.32	36172.98
498.50	36215.11
498.67	36430.44
498.85	36065.31
499.03	36664.49
499.20	36828.33
499.38	36362.56
499.56	36917.27
499.73	37010.89
499.91	37495.38
500.08	37469.64
500.26	37570.28
500.44	37572.62
500.61	37481.34
500.79	37591.34
500.97	38146.05
501.14	38497.13
501.32	38227.97
501.49	38548.62
501.67	38022.00
501.84	38700.76
502.02	38471.39
502.20	39082.27
502.37	39608.89
502.55	39344.41
502.72	39562.08
502.90	39515.26
503.07	39227.38
503.25	39915.50
503.43	39906.13
503.60	40194.02
503.78	39791.45
503.95	40006.78
504.13	40388.28
504.30	40793.20
504.48	40275.94
504.65	40502.97
504.83	40891.50
505.01	41064.70
505.18	41045.97
505.36	41399.40
505.53	40765.11
505.71	41401.74
505.88	41530.47
506.06	41329.18
506.23	42066.45
506.41	41560.89
506.58	41991.55
506.76	42103.90
506.93	42300.50
507.11	42031.34
507.28	42583.71
507.46	42508.81
507.63	42639.88
507.81	43154.80
507.98	42780.31
508.16	43276.51
508.33	43206.29
508.50	43402.89
508.68	43552.69
508.85	43854.62
509.03	43765.68
509.20	43702.48
509.38	44409.32
509.55	44416.35
509.73	44378.90
509.90	44334.43
510.08	44428.05
510.25	44769.77
510.42	44498.26
510.60	44942.97
510.77	44814.24
510.95	45223.83
511.12	45139.57
511.30	45359.58
511.47	45390.01
511.64	45429.80
511.82	45902.59
511.99	45308.09
512.17	45827.69
512.34	45474.27
512.51	46021.95
512.69	46340.27
512.86	46014.93
513.04	46415.16
513.21	46309.84
513.38	46693.69
513.56	46546.23
513.73	46679.64
513.90	47112.64
514.08	47058.81
514.25	46684.33
514.43	47236.69
514.60	46885.61
514.77	47068.17
514.95	47419.25
515.12	47316.27
515.29	47606.50
515.47	47777.36
515.64	48268.87
515.81	47641.60
515.99	48238.44
516.16	48107.37
516.33	48133.12
516.51	48315.68
516.68	48154.18
516.85	48098.01
517.03	48804.85
517.20	49013.16
517.37	48680.80
517.54	48837.62
517.72	48825.92
517.89	49139.55
518.06	48879.75
518.24	49169.97
518.41	49146.57
518.58	49034.22
518.75	49020.18
518.93	49453.18
519.10	49144.23
519.27	49455.52
519.45	49464.88
519.62	49539.78
519.79	49509.35
519.96	49757.45
520.14	50316.84
520.31	50127.25
520.48	50183.43
520.65	50497.06
520.83	50143.64
521.00	50529.83
521.17	50660.90
521.34	50550.89
521.52	50557.91
521.69	50419.82
521.86	50890.27
522.03	51093.89
522.20	51414.55
522.38	51224.96
522.55	51442.63
522.72	51400.50
522.89	51175.81
523.07	51629.88
523.24	51594.77
523.41	51842.87
523.58	51419.23
523.75	51779.67
523.92	51789.03
524.10	51870.95
524.27	51531.57
524.44	51695.41
524.61	52238.42
524.78	52259.48
524.96	51845.21
525.13	52163.52
525.30	52189.27
525.47	52273.52
525.64	52350.76
525.81	52444.38
525.98	52458.43
526.16	52360.12
526.33	52701.84
526.50	52872.70
526.67	52643.33
526.84	52711.20
527.01	52886.74
527.18	52790.78
527.36	52685.46
527.53	52994.41
527.70	53305.70
527.87	52975.69
528.04	53502.31
528.21	53064.63
528.38	52975.69
528.55	53549.12
528.72	53476.56
528.89	53282.30
529.07	53401.66
529.24	53427.41
529.41	53460.18
529.58	53499.97
529.75	53415.71
529.92	53862.75
530.09	53876.79
530.26	53869.77
530.43	54045.31
530.60	53787.85
530.77	53942.33
530.94	54007.86
531.11	53886.15
531.28	53911.90
531.46	53996.16
531.63	54234.89
531.80	54349.58
531.97	54071.06
532.14	54199.79
532.31	54307.45
532.48	54499.37
532.65	54651.51
532.82	54590.66
532.99	54616.40
533.16	54305.11
533.33	54827.05
533.50	54918.33
533.67	54674.91
533.84	54295.75
534.01	54878.54
534.18	54979.18
534.35	55222.60
534.52	55009.61
534.69	54883.22
534.86	55234.30
535.03	54810.67
535.20	55044.72
535.37	55210.90
535.54	55274.09
535.71	55269.41
535.88	55356.01
536.05	55297.50
536.22	55428.57
536.38	55615.81
536.55	55805.39
536.72	55538.57
536.89	55337.29
537.06	55388.78
537.23	55531.55
537.40	55437.93
537.57	55468.36
537.74	55622.83
537.91	56107.32
538.08	55721.13
538.25	55716.45
538.42	55763.26
538.59	55964.55
538.75	55908.38
538.92	55931.78
539.09	56037.11
539.26	56004.34
539.43	56130.73
539.60	56245.41
539.77	55915.40
539.94	56420.95
540.11	56207.97
540.28	56413.93
540.44	56439.68
540.61	56264.14
540.78	56432.66
540.95	56577.77
541.12	56339.04
541.29	56446.70
541.46	56317.97
541.62	56250.09
541.79	56636.28
541.96	56292.22
542.13	56451.38
542.30	56423.29
542.47	56633.94
542.63	56722.88
542.80	56898.42
542.97	57041.20
543.14	57277.59
543.31	57008.43
543.48	57015.45
543.64	57373.55
543.81	57104.39
543.98	57223.76
544.15	57235.46
544.32	57277.59
544.48	57453.13
544.65	57474.20
544.82	57303.34
544.99	57181.63
545.16	57539.73
545.32	57155.88
545.49	57645.05
545.66	57476.54
545.83	57315.04
546.00	57579.52
546.16	57598.24
546.33	57539.73
546.50	57396.96
546.67	57551.43
546.83	57396.96
547.00	57584.20
547.17	57574.84
547.34	57703.57
547.50	57748.04
547.67	57916.56
547.84	57804.21
548.00	58010.18
548.17	58024.22
548.34	57869.75
548.51	58316.79
548.67	58117.84
548.84	58248.91
549.01	58143.59
549.18	58115.50
549.34	57970.39
549.51	58363.60
549.68	58199.76
549.84	58239.55
550.01	58178.70
550.18	57944.64
550.34	58466.58
550.51	58471.26
550.68	58293.38
550.84	58190.40
551.01	58450.20
551.18	58525.10
551.34	58433.81
551.51	58319.13
551.68	58602.33
551.84	58660.85
552.01	58356.58
552.18	58644.46
552.34	58251.25
552.51	58466.58
552.68	58440.84
552.84	58611.70
553.01	58871.49
553.18	58539.14
553.34	58761.49
553.51	58691.27
553.67	58810.64
553.84	58927.67
554.01	58892.56
554.17	58899.58
554.34	58983.84
554.51	58958.09
554.67	58962.78
554.84	58880.86
555.00	58908.94
555.17	59126.61
555.33	59018.95
555.50	58754.47
555.67	58976.82
555.83	58887.88
556.00	58972.14
556.16	59465.99
556.33	59161.72
556.50	59220.23
556.66	59283.43
556.83	59145.34
556.99	59348.96
557.16	59412.16
557.32	59480.03
557.49	59515.14
557.65	59245.98
557.82	59365.35
557.98	59215.55
558.15	59412.16
558.32	59381.73
558.48	59285.77
558.65	59465.99
558.81	59423.86
558.98	59395.77
559.14	59545.57
559.31	59671.96
559.47	59639.19
559.64	59678.98
559.80	59788.98
559.97	59629.83
560.13	59487.06
560.30	59608.76
560.46	59700.04
560.63	59646.21
560.79	59601.74
560.96	59948.14
561.12	59700.04
561.29	59772.60
561.45	59753.88
561.61	59725.79
561.78	59763.24
561.94	59952.82
562.11	59737.49
562.27	59814.73
562.44	59842.82
562.60	60037.08
562.77	59856.86
562.93	59962.18
563.10	59767.92
563.26	59803.03
563.42	60051.12
563.59	59938.78
563.75	59957.50
563.92	59845.16
564.08	59934.10
564.24	60090.91
564.41	60179.85
564.57	60090.91
564.74	60121.34
564.90	60121.34
565.07	59798.35
565.23	60156.45
565.39	60233.69
565.56	60128.36
565.72	60046.44
565.88	59938.78
566.05	60137.72
566.21	60016.02
566.38	60156.45
566.54	60348.37
566.70	60229.01
566.87	60287.52
567.03	60193.90
567.19	60479.44
567.36	60217.30
567.52	60191.56
567.68	60554.34
567.85	60179.85
568.01	60353.05
568.17	60179.85
568.34	60350.71
568.50	60154.11
568.66	60310.92
568.83	60444.33
568.99	60233.69
569.15	60266.45
569.32	60259.43
569.48	60214.96
569.64	60395.18
569.81	60350.71
569.97	60268.79
570.13	60498.17
570.30	60280.50
570.46	60451.36
570.62	60264.11
570.78	60257.09
570.95	60566.04
571.11	60577.75
571.27	60388.16
571.43	60603.49
571.60	60619.88
571.76	60191.56
571.92	60622.22
572.09	60498.17
572.25	60411.57
572.41	60430.29
572.57	60378.80
572.74	60790.73
572.90	60453.70
573.06	60650.30
573.22	60449.02
573.38	60669.03
573.55	60420.93
573.71	60762.65
573.87	60729.88
574.03	60523.91
574.20	60617.53
574.36	60640.94
574.52	60554.34
574.68	60587.11
574.84	60746.26
575.01	60788.39
575.17	60760.31
575.33	60610.51
575.49	60439.65
575.65	60722.86
575.82	60788.39
575.98	60633.92
576.14	60762.65
576.30	60779.03
576.46	60842.23
576.62	60706.47
576.79	60591.79
576.95	60645.62
577.11	60718.18
577.27	60790.73
577.43	60992.02
577.59	60594.13
577.75	60900.74
577.92	60617.53
578.08	60687.75
578.24	60750.94
578.40	60963.93
578.56	60919.46
578.72	60821.16
578.88	60924.14
579.04	60872.65
579.21	60835.20
579.37	60924.14
579.53	60832.86
579.69	60516.89
579.85	60617.53
580.01	60657.32
580.17	60654.98
580.33	60842.23
580.49	60903.08
580.65	60687.75
580.82	60701.79
580.98	60804.78
581.14	60767.33
581.30	60992.02
581.46	60889.04
581.62	60676.05
581.78	60570.72
581.94	60757.97
582.10	60657.32
582.26	60750.94
582.42	60636.26
582.58	60811.80
582.74	60814.14
582.90	60921.80
583.06	60844.57
583.22	60690.09
583.38	60849.25
583.54	61057.56
583.70	60935.85
583.86	60797.76
584.02	60858.61
584.18	60985.00
584.34	60942.87
584.50	60874.99
584.66	60823.50
584.82	60804.78
584.98	61188.63
585.14	60931.17
585.30	60809.46
585.46	61013.08
585.62	60874.99
585.78	61214.37
585.94	60879.67
586.10	60956.91
586.26	61181.60
586.42	61090.32
586.58	61052.87
586.74	61071.60
586.90	60849.25
587.06	60938.19
587.22	61146.50
587.38	60879.67
587.54	61258.84
587.70	61066.92
587.86	61146.50
588.02	60931.17
588.18	61080.96
588.34	61153.52
588.49	61069.26
