SpectraSuite Data File
++++++++++++++++++++++++++++++++++++
Date: Fri Oct 25 10:43:23 EDT 2013
User: price-jones
Dark Spectrum Present: No
Reference Spectrum Present: No
Number of Sampled Component Spectra: 1
Spectrometers: USB2+H05261
Integration Time (usec): 100000 (USB2+H05261)
Spectra Averaged: 1 (USB2+H05261)
Boxcar Smoothing: 0 (USB2+H05261)
Correct for Electrical Dark: No (USB2+H05261)
Strobe/Lamp Enabled: No (USB2+H05261)
Correct for Detector Non-linearity: No (USB2+H05261)
Correct for Stray Light: No (USB2+H05261)
Number of Pixels in Processed Spectrum: 2048
>>>>>Begin Processed Spectral Data<<<<<
365.73	189.58
365.92	189.58
366.12	189.58
366.32	84.26
366.52	65.54
366.72	35.11
366.91	11.70
367.11	14.04
367.31	0.00
367.51	25.75
367.70	42.13
367.90	9.36
368.10	86.60
368.30	53.83
368.49	30.43
368.69	81.92
368.89	9.36
369.09	28.09
369.28	0.00
369.48	67.88
369.68	51.49
369.87	88.94
370.07	86.60
370.27	189.58
370.47	154.48
370.66	330.02
370.86	355.76
371.06	463.43
371.25	500.87
371.45	435.34
371.65	519.60
371.84	503.22
372.04	498.53
372.24	442.36
372.44	538.32
372.63	514.92
372.83	517.26
373.03	451.72
373.22	543.00
373.42	489.17
373.62	470.45
373.81	545.34
374.01	540.66
374.21	606.20
374.40	571.09
374.60	573.43
374.79	545.34
374.99	580.45
375.19	592.16
375.38	610.88
375.58	624.92
375.78	620.24
375.97	601.52
376.17	601.52
376.37	634.29
376.56	645.99
376.76	617.90
376.95	634.29
377.15	697.48
377.35	566.41
377.54	664.71
377.74	662.37
377.93	645.99
378.13	650.67
378.33	641.31
378.52	601.52
378.72	622.58
378.91	692.80
379.11	734.93
379.31	641.31
379.50	641.31
379.70	645.99
379.89	723.23
380.09	676.41
380.28	725.57
380.48	664.71
380.68	704.50
380.87	676.41
381.07	704.50
381.26	681.10
381.46	720.88
381.65	772.38
381.85	739.61
382.04	805.14
382.24	718.54
382.43	699.82
382.63	758.33
382.83	809.83
383.02	753.65
383.22	774.72
383.41	645.99
383.61	734.93
383.80	741.95
384.00	716.20
384.19	844.93
384.39	830.89
384.58	821.53
384.78	805.14
384.97	786.42
385.17	851.96
385.36	798.12
385.56	798.12
385.75	870.68
385.95	877.70
386.14	917.49
386.34	851.96
386.53	791.10
386.72	837.91
386.92	940.90
387.11	877.70
387.31	880.04
387.50	826.21
387.70	887.06
387.89	842.59
388.09	814.51
388.28	931.53
388.48	896.43
388.67	940.90
388.86	917.49
389.06	929.19
389.25	980.68
389.45	999.41
389.64	992.39
389.84	931.53
390.03	926.85
390.22	994.73
390.42	1025.15
390.61	959.62
390.81	1039.20
391.00	997.07
391.19	1121.12
391.39	985.37
391.58	1046.22
391.78	1008.77
391.97	1069.62
392.16	1022.81
392.36	1074.31
392.55	1034.52
392.75	999.41
392.94	1025.15
393.13	1034.52
393.33	1048.56
393.52	1025.15
393.71	1081.33
393.91	1006.43
394.10	1167.93
394.29	1090.69
394.49	1172.61
394.68	1114.10
394.88	1198.35
395.07	1196.01
395.26	1228.78
395.46	1217.08
395.65	1252.19
395.84	1341.13
396.04	1217.08
396.23	1254.53
396.42	1165.59
396.62	1125.80
396.81	1203.04
397.00	1188.99
397.19	1329.42
397.39	1291.98
397.58	1380.92
397.77	1376.24
397.97	1362.19
398.16	1397.30
398.35	1392.62
398.55	1439.43
398.74	1446.45
398.93	1612.63
399.12	1544.75
399.32	1509.65
399.51	1519.01
399.70	1612.63
399.90	1582.20
400.09	1528.37
400.28	1596.25
400.47	1511.99
400.67	1657.10
400.86	1610.29
401.05	1678.16
401.24	1746.04
401.44	1593.90
401.63	1703.91
401.82	1757.74
402.01	1661.78
402.21	1746.04
402.40	1743.70
402.59	1799.87
402.78	1717.95
402.97	1781.15
403.17	1849.02
403.36	1790.51
403.55	1799.87
403.74	1827.96
403.93	1797.53
404.13	1825.62
404.32	1867.75
404.51	1916.90
404.70	1968.39
404.89	2036.27
405.09	1996.48
405.28	1968.39
405.47	1991.80
405.66	2003.50
405.85	2026.90
406.05	2031.58
406.24	2019.88
406.43	2090.10
406.62	2155.63
406.81	2207.13
407.00	2040.95
407.20	2038.61
407.39	2122.87
407.58	2218.83
407.77	2188.40
407.96	2197.76
408.15	2225.85
408.34	2195.42
408.54	2277.34
408.73	2263.30
408.92	2338.20
409.11	2277.34
409.30	2237.55
409.49	2359.26
409.68	2328.83
409.87	2349.90
410.07	2415.43
410.26	2410.75
410.45	2373.30
410.64	2452.88
410.83	2546.50
411.02	2459.90
411.21	2569.91
411.40	2560.55
411.59	2600.34
411.78	2778.22
411.98	2712.68
412.17	2581.61
412.36	2649.49
412.55	2684.59
412.74	2665.87
412.93	2801.62
413.12	2712.68
413.31	2850.77
413.50	2794.60
413.69	2764.17
413.88	3023.97
414.07	2825.03
414.26	2937.37
414.45	3066.10
414.64	3009.93
414.83	2981.84
415.02	3094.19
415.22	2993.55
415.41	3169.09
415.60	3042.70
415.79	3286.11
415.98	3328.24
416.17	3183.13
416.36	3361.01
416.55	3155.04
416.74	3251.00
416.93	3332.92
417.12	3351.65
417.31	3318.88
417.50	3276.75
417.69	3536.55
417.88	3400.80
418.07	3426.54
418.26	3407.82
418.45	3431.23
418.64	3669.96
418.83	3646.55
419.02	3506.12
419.21	3665.28
419.39	3482.72
419.58	3576.34
419.77	3520.17
419.96	3700.39
420.15	3714.43
420.34	3648.90
420.53	3749.54
420.72	3829.12
420.91	3768.26
421.10	3826.78
421.29	3822.09
421.48	3744.86
421.67	3824.44
421.86	3681.66
422.05	3920.40
422.24	3686.34
422.43	3794.01
422.61	3873.59
422.80	4032.74
422.99	4035.08
423.18	3878.27
423.37	3831.46
423.56	3915.72
423.75	3971.89
423.94	3904.01
424.13	3695.71
424.32	3798.69
424.50	3974.23
424.69	3957.85
424.88	4011.68
425.07	3899.33
425.26	3976.57
425.45	3932.10
425.64	3913.38
425.83	3946.14
426.01	3946.14
426.20	4042.11
426.39	3934.44
426.58	3929.76
426.77	3983.59
426.96	3953.16
427.15	4016.36
427.33	4030.40
427.52	4112.32
427.71	4264.46
427.90	4177.86
428.09	4241.05
428.28	4327.65
428.46	4147.43
428.65	4222.33
428.84	4311.27
429.03	4329.99
429.22	4140.41
429.40	4395.53
429.59	4210.62
429.78	3889.97
429.97	3817.41
430.16	4016.36
430.34	3985.93
430.53	4170.83
430.72	4215.30
430.91	4229.35
431.10	4353.40
431.28	4528.94
431.47	4718.52
431.66	4634.26
431.85	4491.49
432.03	4557.02
432.22	4767.67
432.41	4507.87
432.60	4709.16
432.79	4655.33
432.97	4645.96
433.16	4798.10
433.35	4622.56
433.54	4519.57
433.72	4676.39
433.91	4751.29
434.10	4760.65
434.28	4746.61
434.47	4643.62
434.66	4915.12
434.85	5188.97
435.03	5034.49
435.22	4887.04
435.41	5261.52
435.59	5011.09
435.78	5041.51
435.97	5172.58
436.16	5097.69
436.34	5273.23
436.53	5301.31
436.72	5320.04
436.90	5163.22
437.09	5165.56
437.28	5097.69
437.46	5060.24
437.65	5137.48
437.84	5233.44
438.02	5074.28
438.21	5130.45
438.40	5191.31
438.58	5373.87
438.77	5362.17
438.96	5203.01
439.14	5591.54
439.33	5511.96
439.52	5537.71
439.70	5401.96
439.89	5767.08
440.08	5638.35
440.26	5792.83
440.45	5689.84
440.63	5881.77
440.82	6052.63
441.01	5926.24
441.19	6143.91
441.38	6073.69
441.57	5998.79
441.75	6197.74
441.94	6356.90
442.12	6267.95
442.31	6359.24
442.50	6324.13
442.68	6422.43
442.87	6384.98
443.05	6312.42
443.24	6485.62
443.43	6450.52
443.61	6546.48
443.80	6476.26
443.98	6230.51
444.17	6296.04
444.35	6623.72
444.54	6562.86
444.73	6677.55
444.91	6359.24
445.10	6469.24
445.28	6614.35
445.47	6455.20
445.65	6286.68
445.84	6567.54
446.02	6609.67
446.21	6525.41
446.39	6466.90
446.58	6771.17
446.77	6614.35
446.95	6532.44
447.14	6696.27
447.32	6733.72
447.51	6817.98
447.69	6581.59
447.88	6576.91
448.06	6698.61
448.25	6799.26
448.43	6956.07
448.62	6724.36
448.80	6782.87
448.99	6780.53
449.17	6918.62
449.36	6810.96
449.54	7007.56
449.73	7131.61
449.91	7400.77
450.10	7218.21
450.28	7213.53
450.46	7082.46
450.65	7087.14
450.83	7180.76
451.02	7246.30
451.20	7131.61
451.39	7335.24
451.57	7309.49
451.76	7325.88
451.94	7236.94
452.13	7295.45
452.31	7208.85
452.49	7190.13
452.68	7281.41
452.86	7253.32
453.05	7262.68
453.23	7414.82
453.42	7286.09
453.60	7279.07
453.78	7595.04
453.97	7258.00
454.15	7309.49
454.34	7459.29
454.52	7676.96
454.70	7588.02
454.89	7714.41
455.07	7637.17
455.26	7674.62
455.44	7723.77
455.62	7702.70
455.81	7756.54
455.99	7705.04
456.17	7744.83
456.36	7969.52
456.54	7929.74
456.73	8088.89
456.91	7913.35
457.09	8084.21
457.28	8285.50
457.46	8002.29
457.64	8210.60
457.83	8166.13
458.01	7927.39
458.19	8292.52
458.38	8046.76
458.56	8552.32
458.74	8334.65
458.93	8329.97
459.11	8320.60
459.29	8271.45
459.48	8575.72
459.66	8344.01
459.84	8353.37
460.03	8479.76
460.21	8498.49
460.39	8559.34
460.57	8327.63
460.76	8423.59
460.94	8751.26
461.12	8685.73
461.31	8737.22
461.49	8557.00
461.67	8599.13
461.85	8978.30
462.04	8959.57
462.22	9472.15
462.40	8879.99
462.59	8943.19
462.77	8676.37
462.95	8952.55
463.13	8847.22
463.32	8919.78
463.50	8961.91
463.68	8952.55
463.86	9036.81
464.05	8800.41
464.23	8947.87
464.41	9027.45
464.59	8908.08
464.78	9172.56
464.96	9205.33
465.14	8940.85
465.32	9252.14
465.50	9259.16
465.69	9310.65
465.87	9149.15
466.05	9284.91
466.23	8973.61
466.41	9048.51
466.60	9338.74
466.78	9114.05
466.96	9385.55
467.14	9394.91
467.32	9467.47
467.51	9399.59
467.69	9104.68
467.87	9212.35
468.05	9474.49
468.23	9533.00
468.41	9504.92
468.60	9500.23
468.78	9479.17
468.96	9612.58
469.14	9647.69
469.32	9753.01
469.50	9521.30
469.69	9603.22
469.87	9799.82
470.05	9987.07
470.23	9996.43
470.41	9729.61
470.59	9846.63
470.77	9942.60
470.95	10078.35
471.14	10174.31
471.32	9806.84
471.50	10312.40
471.68	10289.00
471.86	10408.36
472.04	10427.09
472.22	10611.99
472.40	10281.97
472.58	10345.17
472.77	10473.90
472.95	10686.89
473.13	10806.25
473.31	10656.46
473.49	10494.96
473.67	10534.75
473.85	10750.08
474.03	11140.95
474.21	10878.81
474.39	10970.09
474.57	11096.48
474.75	11173.72
474.93	11372.66
475.12	11283.72
475.30	11400.75
475.48	11276.70
475.66	11272.02
475.84	11353.94
476.02	11431.18
476.20	11379.68
476.38	11772.89
476.56	11922.69
476.74	11805.66
476.92	11791.62
477.10	11812.68
477.28	12006.95
477.46	12084.19
477.64	12334.62
477.82	12475.06
478.00	12617.83
478.18	12479.74
478.36	12493.78
478.54	12854.22
478.72	12702.09
478.90	12924.44
479.08	12896.35
479.26	12929.12
479.44	13109.34
479.62	13212.32
479.80	13661.71
479.98	13327.01
480.16	13956.61
480.34	13547.02
480.52	13884.06
480.70	13748.31
480.88	13867.67
481.06	14024.49
481.24	13973.00
481.41	14155.56
481.59	14090.02
481.77	14478.55
481.95	14717.29
482.13	14682.18
482.31	14511.32
482.49	14916.23
482.67	14941.98
482.85	15063.69
483.03	15225.18
483.21	15630.10
483.39	15482.64
483.57	15183.06
483.74	15651.16
483.92	15737.76
484.10	15545.84
484.28	15765.85
484.46	16032.67
484.64	16505.46
484.82	16189.49
485.00	16376.73
485.18	16367.37
485.35	16613.12
485.53	16287.79
485.71	16098.20
485.89	16526.52
486.07	16627.17
486.25	16725.47
486.43	17043.78
486.61	17062.51
486.78	17146.76
486.96	17404.22
487.14	17692.11
487.32	17727.22
487.50	17942.55
487.68	18427.04
487.85	18455.12
488.03	18328.74
488.21	18469.17
488.39	18424.70
488.57	18541.72
488.75	18745.35
488.92	19154.94
489.10	19307.08
489.28	19536.45
489.46	19658.16
489.64	19651.14
489.81	20058.39
489.99	20418.83
490.17	20535.86
490.35	20535.86
490.53	20266.70
490.70	20395.43
490.88	20510.11
491.06	20765.23
491.24	21060.14
491.41	20634.16
491.59	20685.65
491.77	20570.97
491.95	21179.51
492.13	21605.49
492.30	21268.45
492.48	21799.75
492.66	21610.17
492.84	21869.97
493.01	22019.76
493.19	21736.56
493.37	22309.99
493.54	22022.10
493.72	22466.80
493.90	22745.33
494.08	22576.81
494.25	23108.11
494.43	23199.39
494.61	23494.30
494.79	23527.06
494.96	23442.81
495.14	23372.59
495.32	23737.71
495.49	23688.56
495.67	23690.90
495.85	24074.75
496.02	24318.17
496.20	24170.71
496.38	24322.85
496.55	24435.19
496.73	25074.16
496.91	24830.74
497.09	24973.52
497.26	24915.00
497.44	24805.00
497.62	25205.23
497.79	25497.80
497.97	25123.31
498.14	25219.27
498.32	25781.00
498.50	25848.88
498.67	25631.21
498.85	25958.88
499.03	26164.85
499.20	26572.10
499.38	26305.28
499.56	26361.45
499.73	26691.47
499.91	26536.99
500.08	26759.34
500.26	26511.25
500.44	26639.98
500.61	26665.72
500.79	26478.48
500.97	26803.82
501.14	27194.68
501.32	27033.19
501.49	26944.25
501.67	26944.25
501.84	27243.84
502.02	27365.54
502.20	27300.01
502.37	27440.44
502.55	27637.05
502.72	27946.00
502.90	27885.14
503.07	28095.79
503.25	28528.79
503.43	27953.02
503.60	28278.35
503.78	28666.88
503.95	28437.51
504.13	28336.87
504.30	28701.99
504.48	28865.83
504.65	29092.86
504.83	28996.90
505.01	29116.26
505.18	29230.95
505.36	29195.84
505.53	29504.79
505.71	29769.27
505.88	29645.23
506.06	29607.78
506.23	29802.04
506.41	29567.99
506.58	29949.50
506.76	29715.44
506.93	29706.08
507.11	29893.32
507.28	29820.77
507.46	29886.30
507.63	30043.12
507.81	30256.11
507.98	30064.18
508.16	30441.01
508.33	30459.73
508.50	30745.28
508.68	30632.93
508.85	31267.22
509.03	31075.29
509.20	31023.80
509.38	31299.98
509.55	31515.31
509.73	31358.50
509.90	31597.23
510.08	31412.33
510.25	31051.89
510.42	31817.24
510.60	31363.18
510.77	31889.80
510.95	31854.69
511.12	31875.76
511.30	32393.01
511.47	32278.33
511.64	32147.26
511.82	32325.14
511.99	32304.07
512.17	32584.94
512.34	32336.84
512.51	32528.77
512.69	32519.40
512.86	32994.53
513.04	32826.01
513.21	33074.11
513.38	32947.72
513.56	32856.44
513.73	32755.80
513.90	32891.55
514.08	33326.89
514.25	32634.09
514.43	33296.46
514.60	33298.80
514.77	32903.25
514.95	33785.63
515.12	33486.04
515.29	33797.34
515.47	34227.99
515.64	34005.64
515.81	33537.54
515.99	33565.62
516.16	33804.36
516.33	33577.33
516.51	33432.21
516.68	33544.56
516.85	33593.71
517.03	33539.88
517.20	33769.25
517.37	34169.48
517.54	34529.92
517.72	34553.33
517.89	33921.38
518.06	34143.74
518.24	33839.47
518.41	34223.31
518.58	34220.97
518.75	34417.58
518.93	35096.33
519.10	34562.69
519.27	35302.30
519.45	34976.97
519.62	35035.48
519.79	35314.00
519.96	35171.23
520.14	35644.02
520.31	35550.40
520.48	35611.25
520.65	35569.12
520.83	36046.59
521.00	35665.08
521.17	35882.75
521.34	35824.24
521.52	36325.11
521.69	36208.09
521.86	36367.24
522.03	36549.81
522.20	36051.27
522.38	36439.80
522.55	36631.72
522.72	36119.15
522.89	36318.09
523.07	36711.30
523.24	36886.84
523.41	37163.03
523.58	37038.98
523.75	37443.89
523.92	37539.85
524.10	37174.73
524.27	37200.47
524.44	37172.39
524.61	37469.64
524.78	37380.70
524.96	37701.35
525.13	37095.15
525.30	38061.79
525.47	38265.42
525.64	37731.78
525.81	37584.32
525.98	37174.73
526.16	37261.33
526.33	37165.37
526.50	37542.19
526.67	37427.51
526.84	37139.62
527.01	37834.76
527.18	37476.66
527.36	38005.62
527.53	38249.03
527.70	38316.91
527.87	38431.60
528.04	38174.14
528.21	38658.63
528.38	38672.67
528.55	38595.43
528.72	39173.55
528.89	38817.78
529.07	39108.01
529.24	38649.27
529.41	38574.37
529.58	38600.12
529.75	39136.10
529.92	38845.87
530.09	39445.05
530.26	39524.63
530.43	39239.08
530.60	39079.92
530.77	39026.09
530.94	39842.94
531.11	39409.94
531.28	39047.16
531.46	39548.03
531.63	39789.11
531.80	39215.68
531.97	39117.37
532.14	39381.85
532.31	39084.61
532.48	39761.02
532.65	39435.69
532.82	39625.27
532.99	39871.03
533.16	39952.94
533.33	39864.00
533.50	39847.62
533.67	39775.06
533.84	40119.12
534.01	40250.19
534.18	40144.87
534.35	40109.76
534.52	40451.48
534.69	40177.64
534.86	40603.61
535.03	40421.05
535.20	40732.34
535.37	41020.23
535.54	40734.68
535.71	40231.47
535.88	40620.00
536.05	40673.83
536.22	41163.00
536.38	41198.11
536.55	40758.09
536.72	40648.08
536.89	40442.12
537.06	40835.33
537.23	41277.69
537.40	40732.34
537.57	40865.75
537.74	41188.75
537.91	41825.37
538.08	41027.25
538.25	40699.58
538.42	41053.00
538.59	41687.28
538.75	41057.68
538.92	41109.17
539.09	41174.70
539.26	41415.78
539.43	41471.95
539.60	41509.40
539.77	41514.08
539.94	41645.15
540.11	41375.99
540.28	41305.77
540.44	41846.44
540.61	41411.10
540.78	40844.69
540.95	41860.48
541.12	41619.41
541.29	41970.49
541.46	41516.42
541.62	41776.22
541.79	41701.32
541.96	41546.85
542.13	41961.12
542.30	41794.95
542.47	41904.95
542.63	41504.72
542.80	41874.52
542.97	42380.08
543.14	42651.58
543.31	42295.82
543.48	42625.84
543.64	43105.65
543.81	43105.65
543.98	42937.13
544.15	42724.14
544.32	42993.30
544.48	43510.56
544.65	42738.18
544.82	42813.08
544.99	42564.98
545.16	42775.63
545.32	42756.91
545.49	43428.64
545.66	43662.69
545.83	43227.35
546.00	43339.70
546.16	42808.40
546.33	42955.85
546.50	42476.04
546.67	43454.39
546.83	42712.44
547.00	43283.53
547.17	43007.34
547.34	42656.26
547.50	43487.15
547.67	43466.09
547.84	43608.86
548.00	43353.74
548.17	43625.25
548.34	43555.03
548.51	44067.61
548.67	44079.31
548.84	44210.38
549.01	43819.51
549.18	43653.33
549.34	43777.38
549.51	43863.98
549.68	43543.33
549.84	43412.26
550.01	43653.33
550.18	43976.33
550.34	43739.93
550.51	43894.41
550.68	44039.52
550.84	43028.41
551.01	44128.46
551.18	43756.32
551.34	43426.30
551.51	43751.63
551.68	44383.58
551.84	44194.00
552.01	43983.35
552.18	44119.10
552.34	44027.82
552.51	44177.61
552.68	44091.01
552.84	44226.76
553.01	44685.51
553.18	43927.17
553.34	44369.54
553.51	44385.92
553.67	44322.72
553.84	44802.53
554.01	45158.30
554.17	44949.99
554.34	44643.38
554.51	44584.86
554.67	44706.57
554.84	44474.86
555.00	44261.87
555.17	44673.81
555.33	45013.18
555.50	45081.06
555.67	45085.74
555.83	44781.47
556.00	44580.18
556.16	44870.41
556.33	44858.71
556.50	44872.75
556.66	45137.23
556.83	44598.91
556.99	44706.57
557.16	44947.65
557.32	44376.56
557.49	45303.41
557.65	44905.52
557.82	45024.89
557.98	44708.91
558.15	44755.72
558.32	45265.96
558.48	44788.49
558.65	45385.33
558.81	44959.35
558.98	44945.31
559.14	44898.50
559.31	44802.53
559.47	45265.96
559.64	45422.78
559.80	45394.69
559.97	45029.57
560.13	44903.18
560.30	45160.64
560.46	45373.63
560.63	45441.50
560.79	45500.01
560.96	45343.20
561.12	45422.78
561.29	45336.18
561.45	45041.27
561.61	45474.27
561.78	45216.81
561.94	44868.07
562.11	45193.40
562.27	44959.35
562.44	45476.61
562.60	45558.53
562.77	45682.58
562.93	45343.20
563.10	45844.07
563.26	45521.08
563.42	45961.10
563.59	45708.32
563.75	45790.24
563.92	45790.24
564.08	45621.72
564.24	45776.20
564.41	45652.15
564.57	45694.28
564.74	45645.13
564.90	45406.39
565.07	45418.10
565.23	45638.11
565.39	45244.90
565.56	45762.15
565.72	45132.55
565.88	45350.22
566.05	45492.99
566.21	45563.21
566.38	45563.21
566.54	45947.06
566.70	46005.57
566.87	45925.99
567.03	46021.95
567.19	46258.35
567.36	45680.24
567.52	45633.42
567.68	45841.73
567.85	45469.59
568.01	46026.63
568.17	45928.33
568.34	45923.65
568.50	45483.63
568.66	45778.54
568.83	45668.53
568.99	45272.98
569.15	45574.91
569.32	45874.50
569.48	45432.14
569.64	46176.43
569.81	45940.04
569.97	45780.88
570.13	45785.56
570.30	45572.57
570.46	45478.95
570.62	45441.50
570.78	45397.03
570.95	45415.76
571.11	45708.32
571.27	45881.52
571.43	45577.25
571.60	45673.21
571.76	45797.26
571.92	45783.22
572.09	45869.82
572.25	46010.25
572.41	46164.73
572.57	46038.34
572.74	46354.31
572.90	46007.91
573.06	46253.67
573.22	45794.92
573.38	46043.02
573.55	45581.93
573.71	46024.29
573.87	45930.67
574.03	46064.08
574.20	46351.97
574.36	45565.55
574.52	45684.92
574.68	45890.88
574.84	45762.15
575.01	46160.05
575.17	46038.34
575.33	45811.31
575.49	45745.77
575.65	46103.87
575.82	46134.30
575.98	45834.71
576.14	46096.85
576.30	46665.60
576.46	45886.20
576.62	45818.33
576.79	46071.10
576.95	45797.26
577.11	46274.73
577.27	46045.36
577.43	46094.51
577.59	45743.43
577.75	45837.05
577.92	45607.68
578.08	46045.36
578.24	45312.77
578.40	45752.79
578.56	45820.67
578.72	45951.74
578.88	46307.50
579.04	46050.04
579.21	45497.67
579.37	45572.57
579.53	46188.13
579.69	45298.73
579.85	45947.06
580.01	46220.90
580.17	46195.15
580.33	46216.22
580.49	45977.48
580.65	45848.75
580.82	45970.46
580.98	45876.84
581.14	46073.45
581.30	46307.50
581.46	45703.64
581.62	45930.67
581.78	45879.18
581.94	46258.35
582.10	46274.73
582.26	46101.53
582.42	46031.32
582.58	46321.54
582.74	46057.06
582.90	46260.69
583.06	46272.39
583.22	46202.18
583.38	46529.85
583.54	46417.50
583.70	46293.46
583.86	45963.44
584.02	45654.49
584.18	45961.10
584.34	45851.09
584.50	46043.02
584.66	46279.41
584.82	45748.11
584.98	45794.92
585.14	45975.14
585.30	45720.02
585.46	45970.46
585.62	46045.36
585.78	46363.67
585.94	45518.74
586.10	45717.68
586.26	45869.82
586.42	46209.20
586.58	46176.43
586.74	45993.87
586.90	46248.99
587.06	46202.18
587.22	45722.37
587.38	46010.25
587.54	46300.48
587.70	46326.22
587.86	46309.84
588.02	46113.23
588.18	45968.12
588.34	45551.51
588.49	45785.56
588.65	45958.76
588.81	45652.15
588.97	45736.41
589.13	45195.74
589.29	45474.27
589.45	45748.11
589.61	45624.06
589.77	46007.91
589.93	46394.10
590.08	45979.82
