SpectraSuite Data File
++++++++++++++++++++++++++++++++++++
Date: Fri Oct 25 11:34:50 EDT 2013
User: price-jones
Dark Spectrum Present: No
Reference Spectrum Present: No
Number of Sampled Component Spectra: 1
Spectrometers: USB2+H05261
Integration Time (usec): 100000 (USB2+H05261)
Spectra Averaged: 1 (USB2+H05261)
Boxcar Smoothing: 0 (USB2+H05261)
Correct for Electrical Dark: No (USB2+H05261)
Strobe/Lamp Enabled: No (USB2+H05261)
Correct for Detector Non-linearity: No (USB2+H05261)
Correct for Stray Light: No (USB2+H05261)
Number of Pixels in Processed Spectrum: 2048
>>>>>Begin Processed Spectral Data<<<<<
365.73	306.61
365.92	306.61
366.12	306.61
366.32	114.69
366.52	234.05
366.72	238.73
366.91	189.58
367.11	194.26
367.31	140.43
367.51	163.84
367.70	175.54
367.90	154.48
368.10	196.60
368.30	187.24
368.49	210.65
368.69	205.97
368.89	182.56
369.09	208.31
369.28	227.03
369.48	250.44
369.68	217.67
369.87	210.65
370.07	212.99
370.27	320.65
370.47	339.38
370.66	397.89
370.86	444.70
371.06	538.32
371.25	606.20
371.45	526.62
371.65	552.37
371.84	589.82
372.04	582.79
372.24	634.29
372.44	594.50
372.63	550.03
372.83	561.73
373.03	531.30
373.22	580.45
373.42	660.03
373.62	589.82
373.81	601.52
374.01	596.84
374.21	732.59
374.40	650.67
374.60	641.31
374.79	620.24
374.99	676.41
375.19	627.26
375.38	690.46
375.58	641.31
375.78	702.16
375.97	662.37
376.17	645.99
376.37	608.54
376.56	601.52
376.76	645.99
376.95	699.82
377.15	669.39
377.35	706.84
377.54	704.50
377.74	725.57
377.93	638.97
378.13	655.35
378.33	732.59
378.52	660.03
378.72	704.50
378.91	655.35
379.11	613.22
379.31	716.20
379.50	650.67
379.70	653.01
379.89	699.82
380.09	725.57
380.28	720.88
380.48	730.25
380.68	648.33
380.87	744.29
381.07	660.03
381.26	763.01
381.46	706.84
381.65	765.36
381.85	681.10
382.04	681.10
382.24	706.84
382.43	711.52
382.63	748.97
382.83	765.36
383.02	861.32
383.22	751.31
383.41	795.78
383.61	807.48
383.80	884.72
384.00	774.72
384.19	720.88
384.39	711.52
384.58	791.10
384.78	793.44
384.97	798.12
385.17	835.57
385.36	732.59
385.56	800.46
385.75	802.80
385.95	795.78
386.14	866.00
386.34	840.25
386.53	863.66
386.72	763.01
386.92	875.36
387.11	770.04
387.31	887.06
387.50	842.59
387.70	875.36
387.89	896.43
388.09	901.11
388.28	908.13
388.48	889.40
388.67	1011.11
388.86	936.21
389.06	816.85
389.25	929.19
389.45	903.45
389.64	978.34
389.84	971.32
390.03	976.00
390.22	887.06
390.42	894.08
390.61	978.34
390.81	973.66
391.00	1020.47
391.19	978.34
391.39	936.21
391.58	987.71
391.78	945.58
391.97	933.87
392.16	915.15
392.36	1027.50
392.55	1008.77
392.75	1057.92
392.94	1027.50
393.13	1121.12
393.33	992.39
393.52	1053.24
393.71	1109.41
393.91	1050.90
394.10	1043.88
394.29	1114.10
394.49	1069.62
394.68	1102.39
394.88	1083.67
395.07	1114.10
395.26	1097.71
395.46	1114.10
395.65	1172.61
395.84	1132.82
396.04	1177.29
396.23	1095.37
396.42	1097.71
396.62	1179.63
396.81	1114.10
397.00	1153.88
397.19	1174.95
397.39	1235.80
397.58	1224.10
397.77	1149.20
397.97	1188.99
398.16	1181.97
398.35	1231.12
398.55	1196.01
398.74	1233.46
398.93	1238.14
399.12	1254.53
399.32	1252.19
399.51	1287.29
399.70	1320.06
399.90	1291.98
400.09	1282.61
400.28	1338.79
400.47	1266.23
400.67	1357.51
400.86	1273.25
401.05	1348.15
401.24	1373.89
401.44	1380.92
401.63	1399.64
401.82	1303.68
402.01	1343.47
402.21	1418.36
402.40	1437.09
402.59	1327.08
402.78	1486.24
402.97	1432.41
403.17	1481.56
403.36	1458.15
403.55	1451.13
403.74	1561.14
403.93	1516.67
404.13	1554.12
404.32	1521.35
404.51	1490.92
404.70	1607.95
404.89	1565.82
405.09	1624.33
405.28	1643.06
405.47	1565.82
405.66	1554.12
405.85	1645.40
406.05	1570.50
406.24	1643.06
406.43	1666.46
406.62	1645.40
406.81	1778.81
407.00	1612.63
407.20	1764.76
407.39	1678.16
407.58	1724.97
407.77	1820.94
407.96	1694.55
408.15	1713.27
408.34	1743.70
408.54	1769.44
408.73	1818.60
408.92	1778.81
409.11	1944.99
409.30	1987.11
409.49	1870.09
409.68	1748.38
409.87	1942.64
410.07	2001.16
410.26	1842.00
410.45	2017.54
410.64	1947.33
410.83	2010.52
411.02	2040.95
411.21	2101.80
411.40	2136.91
411.59	2113.50
411.78	2134.57
411.98	2120.53
412.17	2057.33
412.36	2211.81
412.55	2195.42
412.74	2314.79
412.93	2225.85
413.12	2216.49
413.31	2263.30
413.50	2352.24
413.69	2303.09
413.88	2370.96
414.07	2319.47
414.26	2443.52
414.45	2455.22
414.64	2345.22
414.83	2420.11
415.02	2485.65
415.22	2572.25
415.41	2420.11
415.60	2548.84
415.79	2574.59
415.98	2572.25
416.17	2525.44
416.36	2551.18
416.55	2569.91
416.74	2684.59
416.93	2586.29
417.12	2759.49
417.31	2658.85
417.50	2665.87
417.69	2759.49
417.88	2698.64
418.07	2729.06
418.26	2864.82
418.45	2818.00
418.64	2928.01
418.83	2885.88
419.02	2895.24
419.21	2949.08
419.39	2801.62
419.58	2918.65
419.77	3009.93
419.96	2965.46
420.15	3009.93
420.34	2932.69
420.53	3070.78
420.72	2998.23
420.91	3009.93
421.10	3131.64
421.29	3014.61
421.48	3077.80
421.67	3169.09
421.86	3199.51
422.05	3220.58
422.24	3033.33
422.43	3241.64
422.61	3150.36
422.80	3239.30
422.99	3400.80
423.18	3258.03
423.37	3314.20
423.56	3194.83
423.75	3131.64
423.94	3222.92
424.13	2937.37
424.32	3028.65
424.50	3323.56
424.69	3335.26
424.88	3272.07
425.07	3297.81
425.26	3218.24
425.45	3234.62
425.64	3297.81
425.83	3178.45
426.01	3353.99
426.20	3410.16
426.39	3194.83
426.58	3290.79
426.77	3307.18
426.96	3426.54
427.15	3379.73
427.33	3267.39
427.52	3314.20
427.71	3475.70
427.90	3438.25
428.09	3435.91
428.28	3538.89
428.46	3337.60
428.65	3520.17
428.84	3576.34
429.03	3658.26
429.22	3475.70
429.40	3482.72
429.59	3463.99
429.78	3562.30
429.97	3463.99
430.16	3630.17
430.34	3777.62
430.53	3630.17
430.72	3796.35
430.91	3616.13
431.10	3564.64
431.28	3742.52
431.47	3796.35
431.66	3808.05
431.85	3794.01
432.03	3918.06
432.22	3915.72
432.41	3861.88
432.60	3817.41
432.79	3801.03
432.97	3779.97
433.16	3911.04
433.35	3899.33
433.54	3936.78
433.72	4002.32
433.91	3866.56
434.10	4056.15
434.28	4025.72
434.47	4074.87
434.66	4056.15
434.85	4156.79
435.03	4187.22
435.22	4107.64
435.41	4145.09
435.59	4152.11
435.78	4152.11
435.97	4084.23
436.16	4161.47
436.34	4243.39
436.53	4170.83
436.72	4318.29
436.90	4212.96
437.09	4351.06
437.28	4231.69
437.46	4252.75
437.65	4379.14
437.84	4409.57
438.02	4332.33
438.21	4250.41
438.40	4245.73
438.58	4397.87
438.77	4645.96
438.96	4615.54
439.14	4538.30
439.33	4699.80
439.52	4547.66
439.70	4526.60
439.89	4699.80
440.08	4823.84
440.26	4671.71
440.45	4594.47
440.63	4826.18
440.82	4812.14
441.01	4856.61
441.19	4819.16
441.38	5008.75
441.57	5008.75
441.75	5013.43
441.94	5006.41
442.12	5069.60
442.31	5252.16
442.50	5214.71
442.68	5160.88
442.87	5310.68
443.05	5167.90
443.24	5233.44
443.43	5158.54
443.61	5062.58
443.80	5275.57
443.98	5277.91
444.17	5036.83
444.35	5228.76
444.54	5329.40
444.73	5261.52
444.91	5125.77
445.10	5268.55
445.28	5376.21
445.47	5350.46
445.65	5364.51
445.84	5343.44
446.02	5507.28
446.21	5448.77
446.39	5479.19
446.58	5423.02
446.77	5465.15
446.95	5277.91
447.14	5423.02
447.32	5462.81
447.51	5392.59
447.69	5481.53
447.88	5434.72
448.06	5479.19
448.25	5528.35
448.43	5523.66
448.62	5551.75
448.80	5252.16
448.99	5537.71
449.17	5638.35
449.36	5621.97
449.54	5533.03
449.73	5626.65
449.91	5811.55
450.10	5825.59
450.28	5767.08
450.46	5724.95
450.65	5633.67
450.83	5724.95
451.02	5614.95
451.20	5783.46
451.39	5905.17
451.57	6005.81
451.76	5853.68
451.94	5839.64
452.13	5949.64
452.31	5968.37
452.49	6052.63
452.68	5863.04
452.86	5914.53
453.05	5975.39
453.23	6125.18
453.42	5816.23
453.60	5912.19
453.78	6031.56
453.97	6033.90
454.15	5959.00
454.34	6160.29
454.52	6087.73
454.70	6279.66
454.89	6162.63
455.07	6263.27
455.26	6289.02
455.44	6267.95
455.62	6314.77
455.81	6408.39
455.99	6305.40
456.17	6445.84
456.36	6319.45
456.54	6574.56
456.73	6356.90
456.91	6565.20
457.09	6670.53
457.28	6705.63
457.46	6555.84
457.64	6696.27
457.83	6696.27
458.01	6640.10
458.19	6789.89
458.38	6663.51
458.56	6897.56
458.74	6771.17
458.93	6780.53
459.11	6806.28
459.29	6899.90
459.48	6918.62
459.66	6916.28
459.84	7023.95
460.03	7061.40
460.21	6953.73
460.39	7098.84
460.57	6895.22
460.76	7255.66
460.94	7073.10
461.12	7211.19
461.31	7143.32
461.49	7133.95
461.67	7145.66
461.85	7213.53
462.04	7061.40
462.22	7302.47
462.40	7323.54
462.59	7379.71
462.77	7386.73
462.95	7424.18
463.13	7536.52
463.32	7351.62
463.50	7339.92
463.68	7506.10
463.86	7452.27
464.05	7442.90
464.23	7438.22
464.41	7520.14
464.59	7351.62
464.78	7747.17
464.96	7529.50
465.14	7459.29
465.32	7604.40
465.50	7597.38
465.69	7620.78
465.87	7550.57
466.05	7627.81
466.23	7693.34
466.41	7758.88
466.60	7999.95
466.78	7786.96
466.96	7735.47
467.14	7737.81
467.32	7868.88
467.51	7978.89
467.69	7712.07
467.87	7911.01
468.05	7985.91
468.23	7808.03
468.41	7709.72
468.60	7974.21
468.78	7911.01
468.96	7805.69
469.14	8126.34
469.32	8100.59
469.50	7995.27
469.69	8142.72
469.87	8163.79
470.05	8210.60
470.23	8315.92
470.41	8252.73
470.59	8477.42
470.77	8297.20
470.95	8325.29
471.14	8557.00
471.32	8276.13
471.50	8418.91
471.68	8531.25
471.86	8557.00
472.04	8636.58
472.22	8744.24
472.40	8512.53
472.58	8765.31
472.77	8755.94
472.95	8664.66
473.13	9107.02
473.31	8819.14
473.49	8791.05
473.67	8847.22
473.85	9032.13
474.03	9181.92
474.21	9114.05
474.39	9137.45
474.57	9362.14
474.75	9242.78
474.93	9488.53
475.12	9205.33
475.30	9423.00
475.48	9547.05
475.66	9373.85
475.84	9371.50
476.02	9596.20
476.20	9659.39
476.38	9839.61
476.56	9930.89
476.74	9935.57
476.92	9818.55
477.10	9809.19
477.28	9980.04
477.46	10111.11
477.64	10155.58
477.82	10303.04
478.00	10478.58
478.18	10408.36
478.36	10534.75
478.54	10803.91
478.72	10698.59
478.90	10801.57
479.08	10808.59
479.26	11014.56
479.44	10817.96
479.62	11162.01
479.80	11234.57
479.98	11257.98
480.16	11391.39
480.34	11267.34
480.52	11468.62
480.70	11571.61
480.88	11555.22
481.06	11599.70
481.24	11819.71
481.41	11723.74
481.59	12039.72
481.77	12093.55
481.95	11913.33
482.13	12421.22
482.31	12255.04
482.49	12580.38
482.67	12463.35
482.85	12730.17
483.03	12624.85
483.21	12833.16
483.39	12959.55
483.57	13172.54
483.74	13195.94
483.92	12924.44
484.10	13221.69
484.28	13589.15
484.46	13575.11
484.64	13935.55
484.82	13411.27
485.00	13862.99
485.18	13898.10
485.35	14328.76
485.53	14061.94
485.71	14277.27
485.89	14178.97
486.07	14387.27
486.25	14279.61
486.43	14483.24
486.61	14672.82
486.78	14890.49
486.96	14604.94
487.14	15087.09
487.32	15145.61
487.50	15419.45
487.68	15391.36
487.85	15398.38
488.03	15648.82
488.21	16084.16
488.39	16081.82
488.57	16173.10
488.75	16276.09
488.92	16402.47
489.10	16439.92
489.28	16608.44
489.46	16879.94
489.64	16671.64
489.81	17027.40
489.99	17104.64
490.17	16959.52
490.35	17263.79
490.53	17453.37
490.70	17434.65
490.88	17172.51
491.06	17816.16
491.24	17671.04
491.41	17696.79
491.59	18078.30
491.77	17846.58
491.95	18195.32
492.13	18295.97
492.30	18298.31
492.48	18265.54
492.66	18469.17
492.84	18466.83
493.01	18845.99
493.19	19023.87
493.37	19257.93
493.54	19084.73
493.72	19332.82
493.90	19110.47
494.08	19475.60
494.25	19639.44
494.43	19601.99
494.61	19852.42
494.79	19871.15
494.96	19936.68
495.14	20453.94
495.32	20685.65
495.49	20063.07
495.67	20484.37
495.85	20648.21
496.02	20985.24
496.20	20938.43
496.38	21078.86
496.55	21013.33
496.73	21483.78
496.91	21113.97
497.09	21476.76
497.26	21750.60
497.44	21652.30
497.62	21544.63
497.79	22265.52
497.97	21710.81
498.14	22003.38
498.32	22089.98
498.50	22155.51
498.67	22483.19
498.85	22429.35
499.03	22754.69
499.20	22773.41
499.38	22412.97
499.56	22934.91
499.73	22951.29
499.91	22796.82
500.08	23335.14
500.26	23035.55
500.44	23379.61
500.61	23365.57
500.79	22909.16
500.97	23555.15
501.14	23730.69
501.32	23302.37
501.49	23662.82
501.67	23826.65
501.84	23831.33
502.02	23934.32
502.20	24086.45
502.37	24205.82
502.55	24128.58
502.72	24294.76
502.90	24432.85
503.07	24505.41
503.25	24414.13
503.43	24395.40
503.60	24709.04
503.78	24840.11
503.95	24732.44
504.13	24856.49
504.30	25333.96
504.48	24917.34
504.65	24966.49
504.83	25465.03
505.01	25441.62
505.18	25488.43
505.36	25752.91
505.53	25387.79
505.71	25710.78
505.88	25879.30
506.06	25790.36
506.23	25996.33
506.41	25919.09
506.58	26270.17
506.76	26120.38
506.93	26485.50
507.11	26040.80
507.28	26429.33
507.46	26352.09
507.63	26284.22
507.81	26586.15
507.98	26349.75
508.16	26822.54
508.33	26506.57
508.50	27035.53
508.68	26969.99
508.85	27234.47
509.03	26700.83
509.20	27131.49
509.38	27550.45
509.55	27653.43
509.73	27278.94
509.90	27482.57
510.08	27812.59
510.25	27700.24
510.42	27606.62
510.60	28182.39
510.77	27892.16
510.95	28229.20
511.12	27796.20
511.30	27922.59
511.47	28261.97
511.64	28210.48
511.82	28416.44
511.99	28371.97
512.17	28844.76
512.34	28725.39
512.51	28737.10
512.69	28697.31
512.86	28741.78
513.04	29102.22
513.21	28823.70
513.38	28865.83
513.56	29074.13
513.73	29652.25
513.90	29170.10
514.08	29427.56
514.25	29310.53
514.43	29628.84
514.60	29626.50
514.77	29584.37
514.95	29846.51
515.12	29706.08
515.29	29956.52
515.47	30000.99
515.64	30068.86
515.81	29951.84
515.99	30157.80
516.16	30235.04
516.33	30286.53
516.51	30490.16
516.68	29993.97
516.85	30298.23
517.03	30646.97
517.20	30686.76
517.37	30672.72
517.54	30906.77
517.72	30967.63
517.89	30761.66
518.06	30841.24
518.24	31000.40
518.41	30768.68
518.58	30792.09
518.75	31241.47
518.93	31473.18
519.10	31569.15
519.27	31583.19
519.45	31632.34
519.62	31742.35
519.79	31527.02
519.96	31693.19
520.14	31826.60
520.31	31578.51
520.48	31674.47
520.65	31735.32
520.83	32659.84
521.00	32070.02
521.17	32060.66
521.34	32109.81
521.52	32465.57
521.69	32383.65
521.86	32748.78
522.03	32854.10
522.20	32692.60
522.38	33031.98
522.55	32907.93
522.72	32924.32
522.89	32706.65
523.07	33638.18
523.24	33022.62
523.41	33158.37
523.58	33001.55
523.75	33493.07
523.92	33235.61
524.10	33600.73
524.27	33078.79
524.44	33713.08
524.61	33656.90
524.78	33787.97
524.96	33703.71
525.13	33982.24
525.30	34007.98
525.47	34232.68
525.64	34047.77
525.81	34382.47
525.98	33876.91
526.16	34216.29
526.33	34115.65
526.50	34132.03
526.67	34115.65
526.84	34335.66
527.01	34565.03
527.18	34422.26
527.36	34291.19
527.53	34660.99
527.70	34869.30
527.87	35079.95
528.04	34775.68
528.21	34600.14
528.38	34958.24
528.55	35227.40
528.72	34986.33
528.89	34679.72
529.07	34904.41
529.24	34885.68
529.41	35419.33
529.58	35091.65
529.75	35126.76
529.92	35140.80
530.09	35473.16
530.26	35299.96
530.43	35531.67
530.60	35290.60
530.77	35283.58
530.94	35627.63
531.11	34904.41
531.28	35534.01
531.46	35857.01
531.63	36144.89
531.80	35637.00
531.97	36144.89
532.14	35859.35
532.31	35742.32
532.48	35864.03
532.65	36346.18
532.82	36100.42
532.99	36484.27
533.16	35601.89
533.33	36383.63
533.50	36559.17
533.67	36355.54
533.84	36247.88
534.01	36673.85
534.18	36271.28
534.35	36900.89
534.52	36720.66
534.69	36940.68
534.86	36914.93
535.03	36531.08
535.20	36666.83
535.37	37261.33
535.54	37479.00
535.71	36779.18
535.88	37244.94
536.05	37223.88
536.22	37282.39
536.38	36982.80
536.55	36954.72
536.72	37551.56
536.89	37734.12
537.06	37172.39
537.23	37462.61
537.40	37228.56
537.57	37460.27
537.74	37586.66
537.91	37989.24
538.08	37666.24
538.25	37364.31
538.42	37806.67
538.59	37682.62
538.75	37673.26
538.92	37900.29
539.09	38380.10
539.26	37794.97
539.43	38141.37
539.60	38150.73
539.77	38302.87
539.94	38377.76
540.11	38394.15
540.28	38431.60
540.44	37897.95
540.61	38623.52
540.78	38050.09
540.95	38562.67
541.12	38565.01
541.29	38597.77
541.46	38464.36
541.62	38986.30
541.79	38560.33
541.96	38316.91
542.13	38380.10
542.30	38555.64
542.47	38700.76
542.63	38672.67
542.80	39189.93
542.97	39480.16
543.14	39100.99
543.31	39487.18
543.48	39103.33
543.64	39578.46
543.81	39573.78
543.98	39210.99
544.15	39278.87
544.32	39742.30
544.48	40086.36
544.65	39452.07
544.82	40065.29
544.99	39782.09
545.16	39625.27
545.32	39658.04
545.49	40095.72
545.66	40257.21
545.83	39899.11
546.00	40215.08
546.16	40175.30
546.33	39648.68
546.50	39978.69
546.67	40477.22
546.83	39917.84
547.00	40163.59
547.17	40257.21
547.34	40301.68
547.50	40055.93
547.67	40245.51
547.84	40165.93
548.00	40605.95
548.17	40748.73
548.34	40509.99
548.51	40634.04
548.67	40552.12
548.84	40683.19
549.01	40399.99
549.18	40495.95
549.34	40753.41
549.51	40912.56
549.68	40816.60
549.84	40961.72
550.01	41017.89
550.18	40802.56
550.34	40994.48
550.51	41001.50
550.68	41010.87
550.84	40699.58
551.01	41478.97
551.18	40999.16
551.34	40919.59
551.51	40954.69
551.68	41317.48
551.84	40961.72
552.01	41062.36
552.18	41478.97
552.34	41050.66
552.51	41233.22
552.68	41015.55
552.84	41233.22
553.01	41486.00
553.18	41163.00
553.34	41757.50
553.51	41375.99
553.67	41724.73
553.84	41790.27
554.01	41598.34
554.17	41635.79
554.34	42312.20
554.51	41647.49
554.67	41879.21
554.84	42251.35
555.00	41956.44
555.17	41785.58
555.33	41816.01
555.50	41783.24
555.67	41757.50
555.83	42110.92
556.00	42078.15
556.16	42667.97
556.33	42368.38
556.50	42092.19
556.66	42274.76
556.83	41935.38
556.99	42361.36
557.16	42396.46
557.32	42752.23
557.49	42653.92
557.65	42487.74
557.82	42192.84
557.98	42293.48
558.15	42560.30
558.32	42342.63
558.48	42429.23
558.65	42803.72
558.81	42885.64
558.98	42518.17
559.14	42356.67
559.31	42843.51
559.47	42710.10
559.64	42586.05
559.80	42553.28
559.97	42794.36
560.13	42426.89
560.30	42408.17
560.46	42684.35
560.63	43217.99
560.79	43192.25
560.96	43189.91
561.12	43203.95
561.29	42988.62
561.45	42810.74
561.61	42614.13
561.78	42567.32
561.94	43070.54
562.11	42419.87
562.27	42836.48
562.44	43335.02
562.60	43243.74
562.77	43407.58
562.93	42761.59
563.10	43283.53
563.26	43203.95
563.42	43669.72
563.59	43105.65
563.75	42906.70
563.92	43349.06
564.08	43456.73
564.24	43288.21
564.41	43288.21
564.57	43423.96
564.74	43768.02
564.90	43028.41
565.07	43398.21
565.23	43288.21
565.39	43463.75
565.56	43430.98
565.72	43147.78
565.88	43646.31
566.05	43461.41
566.21	43353.74
566.38	43611.20
566.54	43543.33
566.70	43739.93
566.87	43737.59
567.03	43335.02
567.19	44135.48
567.36	43381.83
567.52	43573.75
567.68	43981.01
567.85	43950.58
568.01	43730.57
568.17	43793.76
568.34	43702.48
568.50	44016.11
568.66	43613.54
568.83	43686.10
568.99	43622.90
569.15	43957.60
569.32	43835.89
569.48	43650.99
569.64	43749.29
569.81	43721.21
569.97	43739.93
570.13	44046.54
570.30	43552.69
570.46	44177.61
570.62	43948.24
570.78	44016.11
570.95	44329.75
571.11	44048.88
571.27	43962.28
571.43	43959.94
571.60	43908.45
571.76	43590.14
571.92	44109.74
572.09	43936.54
572.25	44516.99
572.41	43597.16
572.57	43812.49
572.74	43966.96
572.90	43966.96
573.06	44177.61
573.22	44439.75
573.38	44147.18
573.55	44329.75
573.71	44278.25
573.87	44149.53
574.03	44100.37
574.20	44360.17
574.36	43807.81
574.52	44573.16
574.68	44179.95
574.84	44437.41
575.01	44397.62
575.17	44165.91
575.33	44378.90
575.49	44484.22
575.65	44666.78
575.82	44137.82
575.98	44439.75
576.14	44470.18
576.30	44638.70
576.46	44591.89
576.62	44105.06
576.79	43999.73
576.95	43931.86
577.11	43976.33
577.27	44839.98
577.43	44224.42
577.59	44392.94
577.75	44289.96
577.92	43620.56
578.08	44172.93
578.24	44463.16
578.40	44617.63
578.56	44851.69
578.72	44659.76
578.88	44304.00
579.04	44411.67
579.21	44219.74
579.37	44306.34
579.53	44357.83
579.69	44194.00
579.85	44355.49
580.01	44442.09
580.17	44509.97
580.33	44641.04
580.49	44737.00
580.65	44729.98
580.82	44156.55
580.98	44392.94
581.14	44584.86
581.30	44336.77
581.46	44341.45
581.62	44619.97
581.78	44659.76
581.94	44559.12
582.10	44243.15
582.26	44786.15
582.42	44638.70
582.58	44289.96
582.74	44320.38
582.90	44481.88
583.06	44903.18
583.22	44683.17
583.38	44772.11
583.54	44486.56
583.70	44301.66
583.86	44666.78
584.02	44268.89
584.18	45282.34
584.34	44781.47
584.50	44924.24
584.66	45165.32
584.82	44769.77
584.98	45118.51
585.14	44818.92
585.30	44751.04
585.46	45001.48
585.62	44348.47
585.78	44713.59
585.94	44416.35
586.10	44526.35
586.26	44573.16
586.42	44395.28
586.58	44367.20
586.74	44439.75
586.90	44493.58
587.06	44493.58
587.22	44655.08
587.38	44886.79
587.54	44598.91
587.70	44772.11
587.86	44498.26
588.02	44854.03
588.18	44488.90
588.34	44435.07
588.49	44928.92
588.65	44830.62
588.81	44491.24
588.97	44790.83
589.13	44877.43
589.29	44226.76
589.45	44947.65
589.61	44821.26
589.77	45275.32
589.93	45095.10
590.08	45141.91
590.24	45214.47
