SpectraSuite Data File
++++++++++++++++++++++++++++++++++++
Date: Fri Oct 25 10:47:09 EDT 2013
User: price-jones
Dark Spectrum Present: No
Reference Spectrum Present: No
Number of Sampled Component Spectra: 1
Spectrometers: USB2+H05261
Integration Time (usec): 100000 (USB2+H05261)
Spectra Averaged: 1 (USB2+H05261)
Boxcar Smoothing: 0 (USB2+H05261)
Correct for Electrical Dark: No (USB2+H05261)
Strobe/Lamp Enabled: No (USB2+H05261)
Correct for Detector Non-linearity: No (USB2+H05261)
Correct for Stray Light: No (USB2+H05261)
Number of Pixels in Processed Spectrum: 2048
>>>>>Begin Processed Spectral Data<<<<<
365.73	142.77
365.92	142.77
366.12	142.77
366.32	131.07
366.52	86.60
366.72	30.43
366.91	0.00
367.11	72.56
367.31	0.00
367.51	46.81
367.70	35.11
367.90	7.02
368.10	53.83
368.30	28.09
368.49	100.64
368.69	79.58
368.89	39.79
369.09	70.22
369.28	138.09
369.48	30.43
369.68	72.56
369.87	49.15
370.07	84.26
370.27	173.20
370.47	252.78
370.66	367.46
370.86	465.77
371.06	362.78
371.25	435.34
371.45	397.89
371.65	447.04
371.84	393.21
372.04	454.06
372.24	484.49
372.44	470.45
372.63	482.15
372.83	454.06
373.03	421.30
373.22	463.43
373.42	475.13
373.62	500.87
373.81	557.05
374.01	603.86
374.21	564.07
374.40	456.40
374.60	592.16
374.79	533.64
374.99	524.28
375.19	585.13
375.38	554.71
375.58	538.32
375.78	620.24
375.97	507.90
376.17	575.77
376.37	596.84
376.56	580.45
376.76	514.92
376.95	582.79
377.15	662.37
377.35	559.39
377.54	608.54
377.74	601.52
377.93	552.37
378.13	629.60
378.33	662.37
378.52	622.58
378.72	645.99
378.91	676.41
379.11	585.13
379.31	697.48
379.50	580.45
379.70	683.44
379.89	608.54
380.09	587.47
380.28	608.54
380.48	674.07
380.68	599.18
380.87	667.05
381.07	636.63
381.26	671.73
381.46	676.41
381.65	587.47
381.85	667.05
382.04	608.54
382.24	655.35
382.43	699.82
382.63	713.86
382.83	690.46
383.02	777.06
383.22	711.52
383.41	753.65
383.61	725.57
383.80	800.46
384.00	739.61
384.19	624.92
384.39	702.16
384.58	671.73
384.78	786.42
384.97	730.25
385.17	744.29
385.36	699.82
385.56	819.19
385.75	641.31
385.95	772.38
386.14	802.80
386.34	748.97
386.53	695.14
386.72	774.72
386.92	716.20
387.11	727.91
387.31	763.01
387.50	812.17
387.70	812.17
387.89	875.36
388.09	840.25
388.28	814.51
388.48	786.42
388.67	816.85
388.86	950.26
389.06	863.66
389.25	819.19
389.45	940.90
389.64	837.91
389.84	936.21
390.03	950.26
390.22	915.15
390.42	940.90
390.61	908.13
390.81	884.72
391.00	947.92
391.19	957.28
391.39	976.00
391.58	952.60
391.78	887.06
391.97	1057.92
392.16	966.64
392.36	1029.84
392.55	999.41
392.75	957.28
392.94	929.19
393.13	938.55
393.33	985.37
393.52	908.13
393.71	1062.60
393.91	1053.24
394.10	985.37
394.29	1053.24
394.49	1018.13
394.68	1041.54
394.88	1020.47
395.07	1128.14
395.26	1128.14
395.46	1081.33
395.65	1090.69
395.84	1158.57
396.04	1114.10
396.23	1123.46
396.42	1008.77
396.62	1069.62
396.81	1184.31
397.00	1111.75
397.19	1107.07
397.39	1104.73
397.58	1228.78
397.77	1203.04
397.97	1235.80
398.16	1240.48
398.35	1198.35
398.55	1343.47
398.74	1315.38
398.93	1350.49
399.12	1329.42
399.32	1364.53
399.51	1317.72
399.70	1296.66
399.90	1406.66
400.09	1355.17
400.28	1369.21
400.47	1380.92
400.67	1418.36
400.86	1329.42
401.05	1406.66
401.24	1472.20
401.44	1385.60
401.63	1455.81
401.82	1458.15
402.01	1497.94
402.21	1362.19
402.40	1556.46
402.59	1521.35
402.78	1465.18
402.97	1516.67
403.17	1544.75
403.36	1610.29
403.55	1500.28
403.74	1638.38
403.93	1619.65
404.13	1621.99
404.32	1652.42
404.51	1621.99
404.70	1727.32
404.89	1612.63
405.09	1617.31
405.28	1741.36
405.47	1624.33
405.66	1743.70
405.85	1703.91
406.05	1717.95
406.24	1739.02
406.43	1769.44
406.62	1860.73
406.81	1834.98
407.00	1790.51
407.20	1778.81
407.39	1764.76
407.58	1736.68
407.77	1923.92
407.96	1837.32
408.15	1863.07
408.34	1818.60
408.54	1973.07
408.73	1980.09
408.92	1982.43
409.11	1914.56
409.30	2094.78
409.49	1989.46
409.68	1909.88
409.87	2005.84
410.07	2132.23
410.26	2015.20
410.45	2080.74
410.64	1987.11
410.83	2115.84
411.02	2120.53
411.21	2218.83
411.40	2352.24
411.59	2169.68
411.78	2197.76
411.98	2211.81
412.17	2352.24
412.36	2267.98
412.55	2331.17
412.74	2317.13
412.93	2326.49
413.12	2333.51
413.31	2427.14
413.50	2331.17
413.69	2434.16
413.88	2455.22
414.07	2551.18
414.26	2495.01
414.45	2642.46
414.64	2518.42
414.83	2684.59
415.02	2644.81
415.22	2693.96
415.41	2642.46
415.60	2787.58
415.79	2853.11
415.98	2785.24
416.17	2839.07
416.36	2729.06
416.55	2754.81
416.74	2839.07
416.93	2939.71
417.12	2944.39
417.31	2906.95
417.50	2867.16
417.69	2918.65
417.88	3052.06
418.07	2988.86
418.26	3012.27
418.45	3152.70
418.64	3192.49
418.83	3129.30
419.02	3023.97
419.21	3141.00
419.39	3171.43
419.58	3110.57
419.77	3176.11
419.96	3112.91
420.15	3234.62
420.34	3279.09
420.53	3117.59
420.72	3258.03
420.91	3311.86
421.10	3150.36
421.29	3520.17
421.48	3314.20
421.67	3370.37
421.86	3274.41
422.05	3293.13
422.24	3300.16
422.43	3286.11
422.61	3368.03
422.80	3267.39
422.99	3407.82
423.18	3412.50
423.37	3459.31
423.56	3513.14
423.75	3421.86
423.94	3384.41
424.13	3211.22
424.32	3304.84
424.50	3375.05
424.69	3442.93
424.88	3459.31
425.07	3433.57
425.26	3379.73
425.45	3421.86
425.64	3456.97
425.83	3461.65
426.01	3496.76
426.20	3337.60
426.39	3541.23
426.58	3400.80
426.77	3543.57
426.96	3494.42
427.15	3522.51
427.33	3634.85
427.52	3595.06
427.71	3691.02
427.90	3662.94
428.09	3639.53
428.28	3768.26
428.46	3681.66
428.65	3735.50
428.84	3885.29
429.03	3730.81
429.22	3782.31
429.40	3819.75
429.59	3691.02
429.78	3447.61
429.97	3559.95
430.16	3721.45
430.34	3808.05
430.53	3803.37
430.72	3772.94
430.91	3882.95
431.10	3866.56
431.28	4100.62
431.47	3957.85
431.66	4079.55
431.85	4114.66
432.03	4042.11
432.22	4159.13
432.41	4102.96
432.60	4079.55
432.79	4173.18
432.97	4114.66
433.16	4299.56
433.35	4025.72
433.54	4098.28
433.72	4337.01
433.91	4198.92
434.10	4222.33
434.28	4063.17
434.47	4297.22
434.66	4451.70
434.85	4329.99
435.03	4374.46
435.22	4285.52
435.41	4463.40
435.59	4496.17
435.78	4470.42
435.97	4475.10
436.16	4526.60
436.34	4484.47
436.53	4463.40
436.72	4624.90
436.90	4444.68
437.09	4521.92
437.28	4353.40
437.46	4489.15
437.65	4500.85
437.84	4772.35
438.02	4671.71
438.21	4547.66
438.40	4477.44
438.58	4791.08
438.77	4716.18
438.96	4727.88
439.14	4950.23
439.33	4868.31
439.52	4943.21
439.70	4926.83
439.89	4966.62
440.08	5041.51
440.26	5076.62
440.45	5053.22
440.63	5153.86
440.82	5266.21
441.01	5217.05
441.19	5170.24
441.38	5408.98
441.57	5331.74
441.75	5537.71
441.94	5472.17
442.12	5439.40
442.31	5458.13
442.50	5528.35
442.68	5469.83
442.87	5455.79
443.05	5692.18
443.24	5664.10
443.43	5694.52
443.61	5568.13
443.80	5928.58
443.98	5423.02
444.17	5479.19
444.35	5657.07
444.54	5701.54
444.73	5710.91
444.91	5621.97
445.10	5614.95
445.28	5720.27
445.47	5638.35
445.65	5710.91
445.84	5872.40
446.02	5746.02
446.21	5680.48
446.39	5865.38
446.58	5860.70
446.77	5769.42
446.95	5804.53
447.14	5788.14
447.32	5935.60
447.51	5975.39
447.69	5858.36
447.88	5767.08
448.06	5996.45
448.25	5907.51
448.43	5811.55
448.62	5867.72
448.80	5930.92
448.99	5991.77
449.17	5949.64
449.36	5879.43
449.54	6214.12
449.73	6153.27
449.91	6216.46
450.10	6256.25
450.28	6279.66
450.46	6179.01
450.65	6246.89
450.83	6335.83
451.02	6253.91
451.20	6228.17
451.39	6420.09
451.57	6230.51
451.76	6274.98
451.94	6434.13
452.13	6417.75
452.31	6455.20
452.49	6345.19
452.68	6466.90
452.86	6256.25
453.05	6565.20
453.23	6562.86
453.42	6438.81
453.60	6459.88
453.78	6684.57
453.97	6436.47
454.15	6518.39
454.34	6314.77
454.52	6471.58
454.70	6574.56
454.89	6640.10
455.07	6738.40
455.26	6782.87
455.44	6630.74
455.62	6906.92
455.81	6857.77
455.99	6878.83
456.17	6850.75
456.36	6761.81
456.54	6970.12
456.73	7045.01
456.91	7169.06
457.09	7204.17
457.28	7262.68
457.46	7030.97
457.64	7176.08
457.83	7052.03
458.01	7119.91
458.19	7260.34
458.38	7349.28
458.56	7321.20
458.74	7363.33
458.93	7389.07
459.11	7262.68
459.29	7384.39
459.48	7248.64
459.66	7389.07
459.84	7407.80
460.03	7424.18
460.21	7449.93
460.39	7669.94
460.57	7508.44
460.76	7653.55
460.94	7581.00
461.12	7639.51
461.31	7555.25
461.49	7632.49
461.67	7581.00
461.85	7620.78
462.04	7737.81
462.22	8250.39
462.40	8011.65
462.59	7737.81
462.77	7707.38
462.95	7911.01
463.13	7733.13
463.32	7908.67
463.50	7960.16
463.68	8084.21
463.86	7974.21
464.05	7894.63
464.23	7880.58
464.41	8126.34
464.59	7852.50
464.78	8102.93
464.96	8077.19
465.14	8245.71
465.32	8145.06
465.50	8308.90
465.69	8262.09
465.87	8182.51
466.05	8189.53
466.23	8212.94
466.41	7889.95
466.60	8287.84
466.78	8180.17
466.96	8182.51
467.14	8252.73
467.32	8414.23
467.51	8341.67
467.69	8313.58
467.87	8332.31
468.05	8547.64
468.23	8435.29
468.41	8439.97
468.60	8533.59
468.78	8571.04
468.96	8599.13
469.14	8617.85
469.32	8634.24
469.50	8542.96
469.69	8498.49
469.87	8762.97
470.05	8767.65
470.23	8842.54
470.41	8807.44
470.59	8896.38
470.77	8704.45
470.95	8924.46
471.14	9029.79
471.32	8837.86
471.50	9195.96
471.68	9233.41
471.86	9343.42
472.04	9177.24
472.22	9474.49
472.40	9097.66
472.58	9352.78
472.77	9310.65
472.95	9277.88
473.13	9692.16
473.31	9078.94
473.49	9376.19
473.67	9624.28
473.85	9579.81
474.03	9689.82
474.21	9703.86
474.39	9657.05
474.57	9713.22
474.75	9879.40
474.93	9942.60
475.12	9947.28
475.30	10033.88
475.48	9914.51
475.66	10078.35
475.84	10085.37
476.02	10249.21
476.20	10186.01
476.38	10335.81
476.56	10541.77
476.74	10658.80
476.92	10305.38
477.10	10541.77
477.28	10661.14
477.46	10827.32
477.64	10965.41
477.82	11070.73
478.00	11253.30
478.18	11042.65
478.36	11370.32
478.54	11335.21
478.72	11573.95
478.90	11403.09
479.08	11342.24
479.26	11861.84
479.44	11889.92
479.62	11777.58
479.80	11910.99
479.98	12058.44
480.16	12093.55
480.34	12175.47
480.52	12135.68
480.70	12208.23
480.88	12313.56
481.06	12400.16
481.24	12304.20
481.41	12587.40
481.59	12805.07
481.77	12741.88
481.95	12945.50
482.13	12915.08
482.31	12875.29
482.49	13521.27
482.67	13345.73
482.85	13486.17
483.03	13668.73
483.21	13631.28
483.39	13654.69
483.57	13781.07
483.74	13970.66
483.92	13987.04
484.10	13982.36
484.28	14310.04
484.46	14595.58
484.64	14649.41
484.82	14253.86
485.00	14530.05
485.18	14878.79
485.35	14679.84
485.53	14670.48
485.71	14871.76
485.89	15129.22
486.07	15206.46
486.25	15213.48
486.43	15438.17
486.61	15417.11
486.78	15644.14
486.96	15466.26
487.14	15784.57
487.32	15906.28
487.50	16217.57
487.68	16329.92
487.85	16507.80
488.03	16559.29
488.21	16908.03
488.39	16833.13
488.57	17238.05
488.75	17043.78
488.92	17315.28
489.10	17399.54
489.28	17448.69
489.46	17734.24
489.64	17603.17
489.81	17818.50
489.99	17980.00
490.17	18113.41
490.35	18342.78
490.53	18305.33
490.70	18604.92
490.88	18616.62
491.06	18726.63
491.24	18738.33
491.41	18771.10
491.59	19241.54
491.77	18672.79
491.95	19075.37
492.13	19342.19
492.30	19246.23
492.48	19510.71
492.66	19709.65
492.84	19756.46
493.01	19957.75
493.19	19974.13
493.37	20252.66
493.54	20149.67
493.72	20367.34
493.90	20552.24
494.08	20538.20
494.25	20945.45
494.43	20849.49
494.61	21338.66
494.79	21296.53
494.96	20924.39
495.14	21235.68
495.32	21394.84
495.49	21184.19
495.67	21795.07
495.85	21855.92
496.02	21532.93
496.20	22038.48
496.38	22223.39
496.55	21919.12
496.73	22661.07
496.91	22492.55
497.09	22616.60
497.26	22728.94
497.44	22696.17
497.62	22864.69
497.79	23133.86
497.97	22827.24
498.14	23002.78
498.32	23517.70
498.50	23468.55
498.67	23522.38
498.85	23527.06
499.03	23836.02
499.20	23625.37
499.38	23899.21
499.56	23700.26
499.73	23775.16
499.91	24077.09
500.08	24348.59
500.26	23782.18
500.44	24416.47
500.61	24259.65
500.79	24442.21
500.97	24563.92
501.14	24821.38
501.32	24842.45
501.49	24989.90
501.67	24926.71
501.84	25025.01
502.02	25179.48
502.20	25167.78
502.37	25476.73
502.55	25465.03
502.72	25605.46
502.90	25572.69
503.07	26022.08
503.25	25722.49
503.43	25811.43
503.60	25855.90
503.78	25778.66
503.95	25591.42
504.13	26188.25
504.30	26099.31
504.48	26314.64
504.65	26548.70
504.83	26368.48
505.01	26670.40
505.18	26696.15
505.36	26885.73
505.53	26445.71
505.71	27016.80
505.88	26728.92
506.06	27002.76
506.23	27229.79
506.41	27328.10
506.58	27175.96
506.76	27374.91
506.93	27498.95
507.11	27271.92
507.28	27756.41
507.46	27529.38
507.63	27754.07
507.81	27920.25
507.98	27349.16
508.16	27646.41
508.33	28048.98
508.50	27920.25
508.68	28032.60
508.85	28203.46
509.03	28451.55
509.20	28479.64
509.38	28631.77
509.55	28723.05
509.73	28531.13
509.90	28634.11
510.08	28769.86
510.25	29076.48
510.42	29020.30
510.60	28741.78
510.77	29261.38
510.95	29785.66
511.12	29244.99
511.30	29436.92
511.47	29647.57
511.64	29666.29
511.82	29867.58
511.99	29479.05
512.17	29542.24
512.34	29673.31
512.51	29675.65
512.69	30221.00
512.86	30326.32
513.04	30342.70
513.21	30396.54
513.38	30223.34
513.56	30281.85
513.73	30022.05
513.90	30665.70
514.08	30724.21
514.25	30829.54
514.43	30480.80
514.60	30813.15
514.77	30827.20
514.95	31098.70
515.12	30766.34
515.29	30831.88
515.47	31005.08
515.64	31201.68
515.81	31325.73
515.99	31384.24
516.16	31548.08
516.33	31456.80
516.51	31711.92
516.68	31091.68
516.85	31215.72
517.03	31587.87
517.20	31826.60
517.37	31566.81
517.54	31777.45
517.72	31929.59
517.89	31889.80
518.06	31805.54
518.24	31786.82
518.41	31906.18
518.58	32032.57
518.75	31864.05
518.93	32381.31
519.10	32533.45
519.27	32601.32
519.45	32421.10
519.62	33006.23
519.79	32835.38
519.96	32573.24
520.14	33139.65
520.31	32505.36
520.48	32905.59
520.65	32720.69
520.83	33343.27
521.00	33266.03
521.17	33291.78
521.34	33205.18
521.52	33392.42
521.69	33312.84
521.86	33752.87
522.03	33497.75
522.20	33827.76
522.38	33631.16
522.55	34115.65
522.72	34022.03
522.89	34075.86
523.07	34160.12
523.24	33755.21
523.41	34256.08
523.58	34253.74
523.75	34115.65
523.92	34038.41
524.10	34522.90
524.27	34747.59
524.44	34815.47
524.61	34836.53
524.78	34630.57
524.96	34583.76
525.13	35103.35
525.30	34974.63
525.47	35082.29
525.64	35241.45
525.81	34831.85
525.98	34614.18
526.16	35168.89
526.33	34930.16
526.50	35297.62
526.67	34611.84
526.84	34993.35
527.01	34960.58
527.18	35339.75
527.36	35332.73
527.53	35875.73
527.70	36044.25
527.87	35873.39
528.04	35828.92
528.21	35651.04
528.38	35852.33
528.55	35548.06
528.72	35686.15
528.89	36123.83
529.07	35861.69
529.24	36304.05
529.41	36196.38
529.58	36224.47
529.75	35772.75
529.92	36526.40
530.09	36463.21
530.26	36718.32
530.43	36514.70
530.60	36112.13
530.77	36411.71
530.94	36844.71
531.11	36371.92
531.28	36517.04
531.46	36701.94
531.63	37029.62
531.80	36992.17
531.97	37504.74
532.14	37193.45
532.31	36711.30
532.48	36935.99
532.65	37057.70
532.82	37153.66
532.99	37097.49
533.16	36676.19
533.33	37413.46
533.50	37177.07
533.67	37790.29
533.84	37677.94
534.01	37631.13
534.18	37345.59
534.35	37558.58
534.52	37521.13
534.69	37691.99
534.86	38108.60
535.03	37867.53
535.20	38398.83
535.37	38019.66
535.54	38178.82
535.71	37968.17
535.88	38232.65
536.05	38234.99
536.22	38307.55
536.38	38323.93
536.55	37996.26
536.72	38288.82
536.89	38050.09
537.06	37998.60
537.23	38600.12
537.40	38113.28
537.57	38522.88
537.74	38494.79
537.91	38618.84
538.08	39098.65
538.25	38630.54
538.42	38394.15
538.59	38927.79
538.75	38672.67
538.92	38670.33
539.09	38885.66
539.26	39161.84
539.43	38740.55
539.60	38986.30
539.77	38824.81
539.94	39072.90
540.11	38742.89
540.28	38962.90
540.44	38939.49
540.61	39192.27
540.78	39143.12
540.95	38995.67
541.12	39079.92
541.29	39019.07
541.46	39255.46
541.62	39005.03
541.79	39519.95
541.96	39285.89
542.13	39187.59
542.30	39622.93
542.47	39742.30
542.63	39573.78
542.80	39952.94
542.97	40088.70
543.14	40084.01
543.31	40423.39
543.48	40264.24
543.64	40465.52
543.81	39983.37
543.98	40381.26
544.15	40112.10
544.32	40325.09
544.48	40699.58
544.65	40254.87
544.82	40395.31
544.99	40362.54
545.16	40498.29
545.32	40350.84
545.49	40706.60
545.66	40928.95
545.83	40659.79
546.00	40952.35
546.16	40973.42
546.33	40425.73
546.50	40224.45
546.67	40727.66
546.83	40512.33
547.00	40811.92
547.17	40474.88
547.34	41085.76
547.50	40781.49
547.67	41310.46
547.84	41174.70
548.00	41221.52
548.17	41497.70
548.34	40928.95
548.51	41497.70
548.67	41427.48
548.84	41598.34
549.01	41429.82
549.18	40832.99
549.34	41415.78
549.51	41537.49
549.68	41565.57
549.84	41460.25
550.01	41984.53
550.18	41097.47
550.34	41448.55
550.51	41439.18
550.68	41186.41
550.84	41083.42
551.01	42160.07
551.18	40964.06
551.34	41516.42
551.51	42178.79
551.68	41776.22
551.84	41649.83
552.01	41752.82
552.18	41574.94
552.34	41895.59
552.51	41846.44
552.68	41853.46
552.84	42078.15
553.01	42459.66
553.18	42483.06
553.34	42073.47
553.51	42113.26
553.67	41694.30
553.84	42080.49
554.01	42429.23
554.17	42878.61
554.34	42499.45
554.51	42632.86
554.67	42564.98
554.84	42682.01
555.00	42197.52
555.17	42176.45
555.33	42464.34
555.50	42728.82
555.67	42298.16
555.83	42422.21
556.00	42588.39
556.16	42426.89
556.33	43021.39
556.50	42639.88
556.66	42930.11
556.83	42773.29
556.99	42806.06
557.16	42789.67
557.32	42866.91
557.49	42792.01
557.65	42576.69
557.82	42621.16
557.98	42930.11
558.15	42752.23
558.32	43051.81
558.48	42443.27
558.65	42995.64
558.81	42986.28
558.98	42796.70
559.14	43058.84
559.31	42834.14
559.47	42876.27
559.64	43077.56
559.80	43615.88
559.97	42871.59
560.13	42993.30
560.30	42637.54
560.46	42981.60
560.63	43208.63
560.79	43763.34
560.96	43496.52
561.12	43449.70
561.29	43337.36
561.45	43084.58
561.61	43112.67
561.78	42843.51
561.94	43344.38
562.11	43648.65
562.27	42941.81
562.44	43564.39
562.60	43367.79
562.77	43599.50
562.93	43288.21
563.10	43540.99
563.26	43438.00
563.42	43807.81
563.59	43498.86
563.75	43538.65
563.92	43955.26
564.08	43650.99
564.24	43646.31
564.41	43634.61
564.57	43515.24
564.74	43569.07
564.90	43538.65
565.07	43414.60
565.23	43913.13
565.39	43409.92
565.56	43875.68
565.72	43496.52
565.88	43337.36
566.05	43461.41
566.21	43456.73
566.38	43669.72
566.54	43407.58
566.70	44116.76
566.87	44016.11
567.03	43929.51
567.19	43868.66
567.36	43838.23
567.52	43758.66
567.68	43669.72
567.85	43683.76
568.01	43732.91
568.17	44154.21
568.34	43901.43
568.50	43601.84
568.66	44088.67
568.83	43707.16
568.99	43847.60
569.15	44105.06
569.32	43566.73
569.48	43552.69
569.64	43976.33
569.81	43707.16
569.97	44009.09
570.13	43903.77
570.30	44039.52
570.46	43672.06
570.62	43838.23
570.78	43229.69
570.95	44018.46
571.11	43990.37
571.27	44144.84
571.43	44020.80
571.60	43791.42
571.76	43641.63
571.92	44142.50
572.09	43805.47
572.25	44341.45
572.41	43894.41
572.57	44168.25
572.74	44549.76
572.90	44032.50
573.06	44353.15
573.22	44210.38
573.38	44203.36
573.55	43749.29
573.71	44301.66
573.87	44126.12
574.03	44053.56
574.20	44151.87
574.36	44292.30
574.52	44208.04
574.68	44154.21
574.84	44245.49
575.01	44308.68
575.17	44631.68
575.33	44018.46
575.49	44645.72
575.65	44549.76
575.82	44722.96
575.98	44306.34
576.14	44289.96
576.30	44179.95
576.46	43892.07
576.62	44027.82
576.79	44006.75
576.95	43945.90
577.11	44296.98
577.27	43964.62
577.43	44402.30
577.59	44308.68
577.75	44137.82
577.92	43805.47
578.08	44308.68
578.24	44346.13
578.40	44210.38
578.56	44374.22
578.72	44362.51
578.88	44257.19
579.04	44313.36
579.21	44186.97
579.37	43910.79
579.53	44533.37
579.69	44236.12
579.85	44184.63
580.01	44224.42
580.17	44463.16
580.33	44481.88
580.49	44622.31
580.65	44133.14
580.82	44240.81
580.98	44086.33
581.14	44067.61
581.30	44083.99
581.46	44641.04
581.62	44755.72
581.78	44364.85
581.94	44690.19
582.10	44573.16
582.26	44371.88
582.42	44442.09
582.58	44346.13
582.74	44591.89
582.90	44158.89
583.06	44919.56
583.22	44577.84
583.38	44385.92
583.54	44257.19
583.70	44357.83
583.86	44744.02
584.02	43997.39
584.18	44580.18
584.34	44697.21
584.50	45038.93
584.66	44098.03
584.82	44229.10
584.98	44486.56
585.14	44219.74
585.30	44179.95
585.46	44212.72
585.62	44804.88
585.78	44119.10
585.94	44318.04
586.10	44259.53
586.26	44439.75
586.42	44362.51
586.58	44446.77
586.74	44044.20
586.90	44369.54
587.06	44435.07
587.22	44608.27
587.38	44114.42
587.54	44371.88
587.70	44395.28
587.86	44477.20
588.02	44516.99
588.18	44729.98
588.34	44444.43
588.49	44425.71
588.65	43714.19
588.81	44315.70
588.97	44360.17
589.13	44505.29
589.29	44336.77
589.45	44348.47
589.61	44601.25
589.77	44603.59
589.93	44678.49
590.08	44769.77
590.24	44334.43
590.40	44648.06
