SpectraSuite Data File
++++++++++++++++++++++++++++++++++++
Date: Fri Oct 25 11:24:09 EDT 2013
User: price-jones
Dark Spectrum Present: No
Reference Spectrum Present: No
Number of Sampled Component Spectra: 1
Spectrometers: USB2+H05261
Integration Time (usec): 100000 (USB2+H05261)
Spectra Averaged: 1 (USB2+H05261)
Boxcar Smoothing: 0 (USB2+H05261)
Correct for Electrical Dark: No (USB2+H05261)
Strobe/Lamp Enabled: No (USB2+H05261)
Correct for Detector Non-linearity: No (USB2+H05261)
Correct for Stray Light: No (USB2+H05261)
Number of Pixels in Processed Spectrum: 2048
>>>>>Begin Processed Spectral Data<<<<<
365.73	273.84
365.92	273.84
366.12	273.84
366.32	184.90
366.52	173.20
366.72	147.45
366.91	117.03
367.11	149.79
367.31	58.51
367.51	105.32
367.70	102.98
367.90	168.52
368.10	149.79
368.30	168.52
368.49	191.92
368.69	161.50
368.89	140.43
369.09	210.65
369.28	196.60
369.48	173.20
369.68	191.92
369.87	156.82
370.07	238.73
370.27	255.12
370.47	259.80
370.66	615.56
370.86	650.67
371.06	650.67
371.25	650.67
371.45	641.31
371.65	802.80
371.84	685.78
372.04	713.86
372.24	711.52
372.44	688.12
372.63	748.97
372.83	723.23
373.03	676.41
373.22	748.97
373.42	828.55
373.62	816.85
373.81	753.65
374.01	856.64
374.21	772.38
374.40	779.40
374.60	856.64
374.79	835.57
374.99	812.17
375.19	840.25
375.38	833.23
375.58	849.61
375.78	823.87
375.97	851.96
376.17	901.11
376.37	863.66
376.56	908.13
376.76	833.23
376.95	849.61
377.15	915.15
377.35	870.68
377.54	798.12
377.74	854.30
377.93	863.66
378.13	884.72
378.33	868.34
378.52	844.93
378.72	884.72
378.91	858.98
379.11	898.77
379.31	954.94
379.50	940.90
379.70	987.71
379.89	999.41
380.09	947.92
380.28	966.64
380.48	1018.13
380.68	1015.79
380.87	917.49
381.07	1055.58
381.26	1083.67
381.46	1050.90
381.65	1018.13
381.85	997.07
382.04	1104.73
382.24	1076.65
382.43	1041.54
382.63	1034.52
382.83	1071.97
383.02	1116.44
383.22	1174.95
383.41	1104.73
383.61	1179.63
383.80	1210.06
384.00	1104.73
384.19	1111.75
384.39	1095.37
384.58	1151.54
384.78	1121.12
384.97	1137.50
385.17	1146.86
385.36	1163.25
385.56	1118.78
385.75	1165.59
385.95	1135.16
386.14	1184.31
386.34	1219.42
386.53	1200.69
386.72	1188.99
386.92	1207.72
387.11	1249.85
387.31	1252.19
387.50	1200.69
387.70	1231.12
387.89	1268.57
388.09	1299.00
388.28	1233.46
388.48	1313.04
388.67	1343.47
388.86	1263.89
389.06	1336.45
389.25	1306.02
389.45	1327.08
389.64	1366.87
389.84	1373.89
390.03	1392.62
390.22	1362.19
390.42	1338.79
390.61	1390.28
390.81	1409.00
391.00	1502.62
391.19	1514.33
391.39	1453.47
391.58	1479.22
391.78	1458.15
391.97	1589.22
392.16	1373.89
392.36	1490.92
392.55	1528.37
392.75	1575.18
392.94	1509.65
393.13	1474.54
393.33	1521.35
393.52	1654.76
393.71	1610.29
393.91	1554.12
394.10	1589.22
394.29	1530.71
394.49	1554.12
394.68	1593.90
394.88	1596.25
395.07	1668.80
395.26	1629.01
395.46	1591.56
395.65	1732.00
395.84	1640.72
396.04	1760.08
396.23	1748.38
396.42	1654.76
396.62	1687.53
396.81	1865.41
397.00	1767.10
397.19	1921.58
397.39	1802.21
397.58	1809.23
397.77	1856.04
397.97	1858.39
398.16	1933.28
398.35	1900.52
398.55	1886.47
398.74	1935.62
398.93	1966.05
399.12	1989.46
399.32	1916.90
399.51	1893.49
399.70	2022.22
399.90	2054.99
400.09	2045.63
400.28	2015.20
400.47	2022.22
400.67	2024.56
400.86	2022.22
401.05	2045.63
401.24	2076.06
401.44	2040.95
401.63	2090.10
401.82	2202.44
402.01	2113.50
402.21	2153.29
402.40	2183.72
402.59	2183.72
402.78	2186.06
402.97	2230.53
403.17	2092.44
403.36	2312.45
403.55	2328.83
403.74	2373.30
403.93	2392.03
404.13	2394.37
404.32	2396.71
404.51	2434.16
404.70	2448.20
404.89	2466.92
405.09	2436.50
405.28	2551.18
405.47	2457.56
405.66	2551.18
405.85	2525.44
406.05	2588.63
406.24	2548.84
406.43	2593.31
406.62	2574.59
406.81	2677.57
407.00	2597.99
407.20	2658.85
407.39	2612.04
407.58	2670.55
407.77	2787.58
407.96	2822.69
408.15	2754.81
408.34	2761.83
408.54	2843.75
408.73	2759.49
408.92	2892.90
409.11	2850.77
409.30	2902.26
409.49	2745.45
409.68	2986.52
409.87	2965.46
410.07	3047.38
410.26	2904.60
410.45	3026.31
410.64	2977.16
410.83	3136.32
411.02	3045.04
411.21	3150.36
411.40	3059.08
411.59	3164.40
411.78	3251.00
411.98	3225.26
412.17	3262.71
412.36	3314.20
412.55	3356.33
412.74	3419.52
412.93	3442.93
413.12	3258.03
413.31	3503.78
413.50	3578.68
413.69	3510.80
413.88	3651.24
414.07	3562.30
414.26	3616.13
414.45	3744.86
414.64	3698.05
414.83	3770.60
415.02	3932.10
415.22	4023.38
415.41	3871.25
415.60	3798.69
415.79	3831.46
415.98	3981.25
416.17	3894.65
416.36	3974.23
416.55	4077.21
416.74	4016.36
416.93	4140.41
417.12	4011.68
417.31	4273.82
417.50	4297.22
417.69	4259.78
417.88	4285.52
418.07	4292.54
418.26	4290.20
418.45	4301.90
418.64	4479.79
418.83	4482.13
419.02	4409.57
419.21	4519.57
419.39	4592.13
419.58	4395.53
419.77	4624.90
419.96	4531.28
420.15	4540.64
420.34	4627.24
420.53	4650.64
420.72	4692.77
420.91	4660.01
421.10	4844.91
421.29	4779.37
421.48	4732.56
421.67	4812.14
421.86	4826.18
422.05	4875.34
422.24	4695.11
422.43	4917.47
422.61	4933.85
422.80	4954.91
422.99	4929.17
423.18	4922.15
423.37	5057.90
423.56	4961.94
423.75	5083.64
423.94	4823.84
424.13	4641.28
424.32	4713.84
424.50	5018.11
424.69	5090.67
424.88	5123.43
425.07	4964.28
425.26	4992.36
425.45	4929.17
425.64	5071.94
425.83	4819.16
426.01	5015.77
426.20	5156.20
426.39	4994.70
426.58	5132.79
426.77	4990.02
426.96	5004.07
427.15	5179.61
427.33	5210.03
427.52	5172.58
427.71	5158.54
427.90	5221.74
428.09	5397.28
428.28	5359.83
428.46	5308.34
428.65	5462.81
428.84	5579.84
429.03	5469.83
429.22	5317.70
429.40	5565.79
429.59	5486.22
429.78	5263.86
429.97	5334.08
430.16	5530.69
430.34	5643.03
430.53	5582.18
430.72	5769.42
430.91	5643.03
431.10	5678.14
431.28	5797.51
431.47	5841.98
431.66	5774.10
431.85	5844.32
432.03	5975.39
432.22	6024.54
432.41	5881.77
432.60	6097.10
432.79	6057.31
432.97	6171.99
433.16	5984.75
433.35	5940.28
433.54	6106.46
433.72	6274.98
433.91	6200.08
434.10	6076.03
434.28	6221.14
434.47	6183.70
434.66	6218.80
434.85	6347.53
435.03	6455.20
435.22	6033.90
435.41	6429.45
435.59	6544.14
435.78	6326.47
435.97	6389.66
436.16	6389.66
436.34	6438.81
436.53	6600.31
436.72	6675.21
436.90	6436.47
437.09	6492.65
437.28	6532.44
437.46	6668.19
437.65	6705.63
437.84	6853.09
438.02	6548.82
438.21	6841.39
438.40	6722.02
438.58	7103.53
438.77	7014.59
438.96	6906.92
439.14	6951.39
439.33	7176.08
439.52	7309.49
439.70	7110.55
439.89	7368.01
440.08	7335.24
440.26	7552.91
440.45	7304.81
440.63	7447.58
440.82	7651.21
441.01	7520.14
441.19	7644.19
441.38	7719.09
441.57	7639.51
441.75	7932.08
441.94	7857.18
442.12	8006.97
442.31	7915.69
442.50	8037.40
442.68	7943.78
442.87	8196.56
443.05	8109.96
443.24	8318.26
443.43	8194.22
443.61	8182.51
443.80	8463.38
443.98	8121.66
444.17	8028.04
444.35	8301.88
444.54	8346.35
444.73	8142.72
444.91	8353.37
445.10	8365.07
445.28	8365.07
445.47	8325.29
445.65	8390.82
445.84	8407.20
446.02	8456.36
446.21	8545.30
446.39	8400.18
446.58	8482.10
446.77	8458.70
446.95	8252.73
447.14	8379.12
447.32	8777.01
447.51	8627.21
447.69	8468.06
447.88	8458.70
448.06	8528.91
448.25	8503.17
448.43	8608.49
448.62	8561.68
448.80	8709.13
448.99	8613.17
449.17	8784.03
449.36	8617.85
449.54	8769.99
449.73	9256.82
449.91	9214.69
450.10	9018.08
450.28	8966.59
450.46	9081.28
450.65	9125.75
450.83	9163.20
451.02	9121.07
451.20	9268.52
451.39	9413.63
451.57	9275.54
451.76	9139.79
451.94	9200.65
452.13	9427.68
452.31	9390.23
452.49	9275.54
452.68	9460.45
452.86	9312.99
453.05	9359.80
453.23	9401.93
453.42	9596.20
453.60	9427.68
453.78	9788.12
453.97	9460.45
454.15	9439.38
454.34	9217.03
454.52	9724.93
454.70	9692.16
454.89	9813.87
455.07	9795.14
455.26	9664.07
455.44	9966.00
455.62	9827.91
455.81	10209.42
455.99	9954.30
456.17	10064.30
456.36	10083.03
456.54	10228.14
456.73	10281.97
456.91	10469.22
457.09	10623.69
457.28	10349.85
457.46	10523.05
457.64	10476.24
457.83	10469.22
458.01	10427.09
458.19	10663.48
458.38	10707.95
458.56	10841.36
458.74	10803.91
458.93	10640.08
459.11	10661.14
459.29	10799.23
459.48	10946.69
459.66	10714.97
459.84	10981.79
460.03	11194.78
460.21	11157.33
460.39	10972.43
460.57	10906.90
460.76	11185.42
460.94	11154.99
461.12	11384.37
461.31	11255.64
461.49	11234.57
461.67	11360.96
461.85	11393.73
462.04	11412.45
462.22	11815.02
462.40	11468.62
462.59	11475.65
462.77	11473.31
462.95	11702.68
463.13	11524.80
463.32	11730.76
463.50	11726.08
463.68	11758.85
463.86	11786.94
464.05	11847.79
464.23	11747.15
464.41	12126.32
464.59	11693.32
464.78	12091.21
464.96	11957.80
465.14	11838.43
465.32	12091.21
465.50	12182.49
465.69	12070.14
465.87	12414.20
466.05	12322.92
466.23	12002.27
466.41	12215.26
466.60	12315.90
466.78	12086.53
466.96	12241.00
467.14	12187.17
467.32	12329.94
467.51	12432.93
467.69	12276.11
467.87	12503.14
468.05	12559.31
468.23	12402.50
468.41	12648.26
468.60	12521.87
468.78	12671.66
468.96	12648.26
469.14	12875.29
469.32	13263.82
469.50	12554.63
469.69	13092.96
469.87	13219.35
470.05	13163.17
470.23	13200.62
470.41	13448.72
470.59	13422.97
470.77	13355.10
470.95	13308.29
471.14	13619.58
471.32	13273.18
471.50	13764.69
471.68	13720.22
471.86	14010.45
472.04	13710.86
472.22	13888.74
472.40	13717.88
472.58	13752.99
472.77	14050.24
472.95	14052.58
473.13	14600.26
473.31	14164.92
473.49	14279.61
473.67	14452.81
473.85	14361.53
474.03	14635.37
474.21	14813.25
474.39	14714.95
474.57	14518.34
474.75	15059.01
474.93	15222.84
475.12	15023.90
475.30	15236.89
475.48	15241.57
475.66	15386.68
475.84	15379.66
476.02	15396.04
476.20	15499.03
476.38	15765.85
476.56	15967.13
476.74	15971.82
476.92	16301.83
477.10	15971.82
477.28	16484.39
477.46	16311.19
477.64	16381.41
477.82	16578.01
478.00	16931.44
478.18	16858.88
478.36	17128.04
478.54	17114.00
478.72	17263.79
478.90	17530.61
479.08	17586.79
479.26	17848.93
479.44	17673.39
479.62	17998.72
479.80	17965.95
479.98	18223.41
480.16	18707.90
480.34	18171.92
480.52	18761.73
480.70	18611.94
480.88	18420.02
481.06	18649.39
481.24	18878.76
481.41	19173.67
481.59	19096.43
481.77	19353.89
481.95	19473.26
482.13	19711.99
482.31	19672.20
482.49	20156.69
482.67	20496.07
482.85	20362.66
483.03	20816.72
483.21	20961.84
483.39	21088.23
483.57	21029.71
483.74	21118.65
483.92	21401.86
484.10	21263.77
484.28	22022.10
484.46	22368.50
484.64	22656.39
484.82	21785.71
485.00	22642.34
485.18	22787.46
485.35	22951.29
485.53	22820.22
485.71	23335.14
485.89	23536.43
486.07	23374.93
486.25	23281.31
486.43	23630.05
486.61	23910.91
486.78	24257.31
486.96	24376.68
487.14	24718.40
487.32	24774.57
487.50	25170.12
487.68	25020.33
487.85	25378.43
488.03	25298.85
488.21	25781.00
488.39	25771.64
488.57	26139.10
488.75	26448.05
488.92	26637.64
489.10	27012.12
489.28	26806.16
489.46	27161.92
489.64	27285.97
489.81	27751.73
489.99	27845.35
490.17	28020.89
490.35	28348.57
490.53	28381.34
490.70	28800.29
490.88	28306.44
491.06	29003.92
491.24	28975.83
491.41	29071.79
491.59	29488.41
491.77	29413.51
491.95	30029.07
492.13	29935.45
492.30	30185.89
492.48	29916.73
492.66	30361.43
492.84	30532.29
493.01	31065.93
493.19	30684.42
493.37	31232.11
493.54	31337.43
493.72	31969.38
493.90	31419.35
494.08	31850.01
494.25	32065.34
494.43	32037.25
494.61	32528.77
494.79	32589.62
494.96	32842.40
495.14	32690.26
495.32	33703.71
495.49	32870.48
495.67	33544.56
495.85	33797.34
496.02	33584.35
496.20	33970.54
496.38	34267.78
496.55	34525.24
496.73	35026.12
496.91	34691.42
497.09	35124.42
497.26	34850.58
497.44	34965.26
497.62	35625.29
497.79	35812.54
497.97	35892.12
498.14	36322.77
498.32	36187.02
498.50	36484.27
498.67	36842.37
498.85	36620.02
499.03	36964.08
499.20	37034.30
499.38	37156.00
499.56	37048.34
499.73	37237.92
499.91	37425.17
500.08	37855.82
500.26	37752.84
500.44	37773.91
500.61	37631.13
500.79	38197.54
500.97	38429.26
501.14	38831.83
501.32	38721.82
501.49	38543.94
501.67	38469.04
501.84	38948.85
502.02	38965.24
502.20	38590.75
502.37	39552.71
502.55	39234.40
502.72	39679.10
502.90	39667.40
503.07	39653.36
503.25	40318.07
503.43	39880.39
503.60	40252.53
503.78	40472.54
503.95	40442.12
504.13	40641.06
504.30	40919.59
504.48	40957.03
504.65	40737.02
504.83	40954.69
505.01	41399.40
505.18	41518.76
505.36	41471.95
505.53	41361.95
505.71	41544.51
505.88	41778.56
506.06	41780.90
506.23	42061.77
506.41	42108.58
506.58	42270.08
506.76	42160.07
506.93	42513.49
507.11	42525.19
507.28	42700.73
507.46	43187.56
507.63	43400.55
507.81	43957.60
507.98	43288.21
508.16	43709.50
508.33	43604.18
508.50	43793.76
508.68	43789.08
508.85	44051.22
509.03	43604.18
509.20	44186.97
509.38	44706.57
509.55	44563.80
509.73	44336.77
509.90	44566.14
510.08	44643.38
510.25	44762.75
510.42	44634.02
510.60	45188.72
510.77	45216.81
510.95	45820.67
511.12	45167.66
511.30	45235.53
511.47	45310.43
511.64	45879.18
511.82	46181.11
511.99	45811.31
512.17	45951.74
512.34	46038.34
512.51	46852.84
512.69	46237.28
512.86	46560.28
513.04	46368.35
513.21	46838.80
513.38	47117.32
513.56	46738.16
513.73	47089.24
513.90	47267.12
514.08	47421.59
514.25	47388.83
514.43	47819.49
514.60	47868.64
514.77	47859.27
514.95	47826.51
515.12	47856.93
515.29	47969.28
515.47	48219.72
515.64	47941.19
515.81	47819.49
515.99	48622.29
516.16	48236.10
516.33	48573.14
516.51	48655.06
516.68	48495.90
516.85	48451.43
517.03	49045.93
517.20	48818.89
517.37	48935.92
517.54	49174.66
517.72	49034.22
517.89	49212.10
518.06	49525.74
518.24	49132.53
518.41	49420.41
518.58	49703.62
518.75	49525.74
518.93	49682.55
519.10	49549.14
519.27	49834.69
519.45	50038.31
519.62	50232.58
519.79	50096.83
519.96	50096.83
520.14	50075.76
520.31	50454.93
520.48	50422.16
520.65	50138.96
520.83	50707.71
521.00	50798.99
521.17	50859.84
521.34	51047.08
521.52	50623.45
521.69	51150.07
521.86	51131.34
522.03	51290.50
522.20	51344.33
522.38	51084.53
522.55	51489.45
522.72	51529.23
522.89	51742.22
523.07	51978.62
523.24	51463.70
523.41	51980.96
523.58	51473.06
523.75	52278.21
523.92	51889.68
524.10	52451.41
524.27	52282.89
524.44	52123.73
524.61	52088.62
524.78	52250.12
524.96	52514.60
525.13	52313.31
525.30	52399.91
525.47	52538.01
525.64	52451.41
525.81	53195.70
525.98	52893.77
526.16	52474.81
526.33	52917.17
526.50	53020.16
526.67	52987.39
526.84	53139.52
527.01	52645.67
527.18	52942.92
527.36	53165.27
527.53	53254.21
527.70	53537.41
527.87	53404.00
528.04	53408.68
528.21	53612.31
528.38	53574.86
528.55	53780.83
528.72	53457.84
528.89	53748.06
529.07	53401.66
529.24	53528.05
529.41	53820.62
529.58	53708.27
529.75	53673.16
529.92	54047.65
530.09	54042.97
530.26	53904.88
530.43	53991.48
530.60	54054.67
530.77	53951.69
530.94	54138.93
531.11	54138.93
531.28	54574.27
531.46	54569.59
531.63	54445.54
531.80	54415.11
531.97	54291.07
532.14	54628.10
532.31	54340.22
532.48	54747.47
532.65	54873.86
532.82	54923.01
532.99	54752.15
533.16	54562.57
533.33	54995.57
533.50	55042.38
533.67	54777.90
533.84	54827.05
534.01	54951.10
534.18	55035.36
534.35	55299.84
534.52	55131.32
534.69	55496.44
534.86	55444.95
535.03	55100.89
535.20	55332.60
535.37	55529.21
535.54	55346.65
535.71	55269.41
535.88	55386.44
536.05	55749.22
536.22	55870.93
536.38	55632.19
536.55	55803.05
536.72	55718.79
536.89	55615.81
537.06	55796.03
537.23	55884.97
537.40	55657.94
537.57	55739.86
537.74	55693.05
537.91	56193.92
538.08	55957.53
538.25	55833.48
538.42	55920.08
538.59	56205.62
538.75	56121.37
538.92	56217.33
539.09	56357.76
539.26	56011.36
539.43	56334.35
539.60	56537.98
539.77	56343.72
539.94	56612.88
540.11	56320.31
540.28	56285.20
540.44	56783.74
540.61	56348.40
540.78	56645.65
540.95	56451.38
541.12	56521.60
541.29	56774.37
541.46	56523.94
541.62	56741.61
541.79	56807.14
541.96	56165.84
542.13	56734.59
542.30	56774.37
542.47	57036.51
542.63	57041.20
542.80	57020.13
542.97	57317.38
543.14	57333.76
543.31	57190.99
543.48	57228.44
543.64	57506.96
543.81	57425.04
543.98	57535.05
544.15	57270.57
544.32	57457.81
544.48	57694.21
544.65	57659.10
544.82	57528.03
544.99	57607.61
545.16	57682.50
545.32	57420.36
545.49	57736.34
545.66	57677.82
545.83	57848.68
546.00	57808.89
546.16	57865.06
546.33	57717.61
546.50	57546.75
546.67	57944.64
546.83	57612.29
547.00	57750.38
547.17	57619.31
547.34	58019.54
547.50	57970.39
547.67	58286.36
547.84	58262.96
548.00	58258.27
548.17	58534.46
548.34	58340.19
548.51	58307.43
548.67	58429.13
548.84	58246.57
549.01	58166.99
549.18	58375.30
549.34	58225.51
549.51	58396.37
549.68	58597.65
549.84	58592.97
550.01	58599.99
550.18	58319.13
550.34	58480.63
550.51	58663.19
550.68	58508.71
550.84	58426.79
551.01	58358.92
551.18	58520.41
551.34	58754.47
551.51	58611.70
551.68	58688.93
551.84	58562.54
552.01	58726.38
552.18	58815.32
552.34	58684.25
552.51	58904.26
552.68	58527.44
552.84	58766.17
553.01	58944.05
553.18	58960.44
553.34	59133.63
553.51	58644.46
553.67	59133.63
553.84	58894.90
554.01	59157.04
554.17	59007.25
554.34	59189.81
554.51	59274.07
554.67	59000.22
554.84	59178.10
555.00	59014.27
555.17	59042.35
555.33	59189.81
555.50	58974.48
555.67	59075.12
555.83	58930.01
556.00	59276.41
556.16	59543.23
556.33	59313.86
556.50	59271.73
556.66	59224.92
556.83	59152.36
556.99	59594.72
557.16	59592.38
557.32	59657.91
557.49	59735.15
557.65	59451.95
557.82	59372.37
557.98	59449.61
558.15	59543.23
558.32	59728.13
558.48	59456.63
558.65	59613.44
558.81	59440.24
558.98	59618.13
559.14	59557.27
559.31	59779.62
559.47	59737.49
559.64	59828.77
559.80	59636.85
559.97	59838.14
560.13	59683.66
560.30	59966.87
560.46	59987.93
560.63	59952.82
560.79	60020.70
560.96	59854.52
561.12	59882.61
561.29	59971.55
561.45	60041.76
561.61	59835.80
561.78	59737.49
561.94	59920.05
562.11	59913.03
562.27	60058.15
562.44	60025.38
562.60	60210.28
562.77	60119.00
562.93	59952.82
563.10	60275.82
563.26	59962.18
563.42	60175.17
563.59	60135.38
563.75	60126.02
563.92	60163.47
564.08	60322.63
564.24	59992.61
564.41	60294.54
564.57	60130.70
564.74	60374.12
564.90	60191.56
565.07	60233.69
565.23	60247.73
565.39	60163.47
565.56	60313.26
565.72	60315.61
565.88	60390.50
566.05	60095.60
566.21	60254.75
566.38	60446.68
566.54	60470.08
566.70	60643.28
566.87	60385.82
567.03	60399.86
567.19	60530.93
567.36	60509.87
567.52	60280.50
567.68	60755.63
567.85	60451.36
568.01	60619.88
568.17	60217.30
568.34	60259.43
568.50	60329.65
568.66	60315.61
568.83	60470.08
568.99	60362.42
569.15	60425.61
569.32	60512.21
569.48	60287.52
569.64	60563.70
569.81	60369.44
569.97	60409.23
570.13	60528.59
570.30	60399.86
570.46	60512.21
570.62	60486.46
570.78	60505.19
570.95	60676.05
571.11	60750.94
571.27	60441.99
571.43	60732.22
571.60	60671.37
571.76	60652.64
571.92	60701.79
572.09	60753.29
572.25	60713.50
572.41	60783.71
572.57	60645.62
572.74	60708.82
572.90	60764.99
573.06	60764.99
573.22	60467.74
573.38	60818.82
573.55	60828.18
573.71	60992.02
573.87	60776.69
574.03	60451.36
574.20	60804.78
574.36	60615.19
574.52	60755.63
574.68	60680.73
574.84	60743.92
575.01	60872.65
575.17	60872.65
575.33	60788.39
575.49	60830.52
575.65	60727.54
575.82	60926.49
575.98	60687.75
576.14	60992.02
576.30	60942.87
576.46	60715.84
576.62	60762.65
576.79	60818.82
576.95	60772.01
577.11	60942.87
577.27	60963.93
577.43	61029.47
577.59	60963.93
577.75	61036.49
577.92	60842.23
578.08	61027.13
578.24	60907.76
578.40	61020.11
578.56	61197.99
578.72	60954.57
578.88	61038.83
579.04	61104.37
579.21	61078.62
579.37	61003.72
579.53	61062.24
579.69	60823.50
579.85	60977.98
580.01	60947.55
580.17	60884.36
580.33	61020.11
580.49	60912.44
580.65	60921.80
580.82	60823.50
580.98	60921.80
581.14	61034.15
581.30	61144.16
581.46	60959.25
581.62	61050.53
581.78	60701.79
581.94	61205.01
582.10	61090.32
582.26	61144.16
582.42	60839.89
582.58	60961.59
582.74	60935.85
582.90	60959.25
583.06	61029.47
583.22	60849.25
583.38	61008.40
583.54	60968.61
583.70	61076.28
583.86	61104.37
584.02	60954.57
584.18	61155.86
584.34	61188.63
584.50	60992.02
584.66	60795.42
584.82	60985.00
584.98	61130.11
585.14	61106.71
585.30	60853.93
585.46	61244.80
585.62	61237.78
585.78	61153.52
585.94	60928.83
586.10	61125.43
586.26	61160.54
586.42	61186.28
586.58	61265.86
586.74	61158.20
586.90	61127.77
587.06	61083.30
587.22	61172.24
587.38	61062.24
587.54	61305.65
587.70	61247.14
587.86	61195.65
588.02	61200.33
588.18	61300.97
588.34	61118.41
588.49	61001.38
