SpectraSuite Data File
++++++++++++++++++++++++++++++++++++
Date: Fri Oct 25 11:23:13 EDT 2013
User: price-jones
Dark Spectrum Present: No
Reference Spectrum Present: No
Number of Sampled Component Spectra: 1
Spectrometers: USB2+H05261
Integration Time (usec): 100000 (USB2+H05261)
Spectra Averaged: 1 (USB2+H05261)
Boxcar Smoothing: 0 (USB2+H05261)
Correct for Electrical Dark: No (USB2+H05261)
Strobe/Lamp Enabled: No (USB2+H05261)
Correct for Detector Non-linearity: No (USB2+H05261)
Correct for Stray Light: No (USB2+H05261)
Number of Pixels in Processed Spectrum: 2048
>>>>>Begin Processed Spectral Data<<<<<
365.73	220.01
365.92	220.01
366.12	220.01
366.32	196.60
366.52	131.07
366.72	100.64
366.91	177.88
367.11	156.82
367.31	124.05
367.51	180.22
367.70	156.82
367.90	189.58
368.10	81.92
368.30	70.22
368.49	102.98
368.69	110.01
368.89	110.01
369.09	140.43
369.28	135.75
369.48	131.07
369.68	156.82
369.87	222.35
370.07	224.69
370.27	313.63
370.47	273.84
370.66	547.69
370.86	554.71
371.06	624.92
371.25	702.16
371.45	636.63
371.65	720.88
371.84	636.63
372.04	606.20
372.24	734.93
372.44	706.84
372.63	702.16
372.83	741.95
373.03	791.10
373.22	788.76
373.42	786.42
373.62	805.14
373.81	681.10
374.01	784.08
374.21	837.91
374.40	788.76
374.60	854.30
374.79	802.80
374.99	816.85
375.19	800.46
375.38	844.93
375.58	903.45
375.78	795.78
375.97	833.23
376.17	943.24
376.37	844.93
376.56	840.25
376.76	842.59
376.95	924.51
377.15	912.81
377.35	901.11
377.54	945.58
377.74	812.17
377.93	905.79
378.13	938.55
378.33	952.60
378.52	851.96
378.72	976.00
378.91	950.26
379.11	947.92
379.31	985.37
379.50	898.77
379.70	898.77
379.89	992.39
380.09	915.15
380.28	922.17
380.48	940.90
380.68	980.68
380.87	959.62
381.07	1050.90
381.26	1039.20
381.46	1004.09
381.65	992.39
381.85	1130.48
382.04	1071.97
382.24	1015.79
382.43	1102.39
382.63	1069.62
382.83	1048.56
383.02	1121.12
383.22	1111.75
383.41	1111.75
383.61	1093.03
383.80	1095.37
384.00	1034.52
384.19	1188.99
384.39	1039.20
384.58	1097.71
384.78	1102.39
384.97	1184.31
385.17	1104.73
385.36	1146.86
385.56	1149.20
385.75	1121.12
385.95	1219.42
386.14	1207.72
386.34	1210.06
386.53	1158.57
386.72	1221.76
386.92	1247.51
387.11	1198.35
387.31	1273.25
387.50	1165.59
387.70	1217.08
387.89	1273.25
388.09	1310.70
388.28	1270.91
388.48	1226.44
388.67	1308.36
388.86	1348.15
389.06	1266.23
389.25	1376.24
389.45	1252.19
389.64	1310.70
389.84	1411.34
390.03	1514.33
390.22	1448.79
390.42	1320.06
390.61	1371.55
390.81	1350.49
391.00	1409.00
391.19	1453.47
391.39	1418.36
391.58	1526.03
391.78	1460.49
391.97	1434.75
392.16	1523.69
392.36	1401.98
392.55	1540.07
392.75	1624.33
392.94	1561.14
393.13	1565.82
393.33	1579.86
393.52	1521.35
393.71	1535.39
393.91	1579.86
394.10	1511.99
394.29	1640.72
394.49	1678.16
394.68	1708.59
394.88	1671.14
395.07	1682.85
395.26	1617.31
395.46	1818.60
395.65	1750.72
395.84	1762.42
396.04	1860.73
396.23	1748.38
396.42	1720.29
396.62	1748.38
396.81	1874.77
397.00	1802.21
397.19	1750.72
397.39	1776.47
397.58	1940.30
397.77	1874.77
397.97	1776.47
398.16	1893.49
398.35	1977.75
398.55	1893.49
398.74	1909.88
398.93	1923.92
399.12	1893.49
399.32	1760.08
399.51	1926.26
399.70	1994.14
399.90	1987.11
400.09	1959.03
400.28	2076.06
400.47	2040.95
400.67	2078.40
400.86	2050.31
401.05	2120.53
401.24	2134.57
401.44	2223.51
401.63	2134.57
401.82	2132.23
402.01	2118.18
402.21	2120.53
402.40	2204.78
402.59	2167.34
402.78	2256.28
402.97	2223.51
403.17	2314.79
403.36	2232.87
403.55	2324.15
403.74	2345.22
403.93	2480.97
404.13	2429.48
404.32	2401.39
404.51	2487.99
404.70	2499.69
404.89	2438.84
405.09	2541.82
405.28	2572.25
405.47	2466.92
405.66	2609.70
405.85	2572.25
406.05	2555.86
406.24	2518.42
406.43	2534.80
406.62	2696.30
406.81	2764.17
407.00	2654.17
407.20	2661.19
407.39	2644.81
407.58	2778.22
407.77	2696.30
407.96	2836.73
408.15	2787.58
408.34	2761.83
408.54	2808.64
408.73	2794.60
408.92	2932.69
409.11	2958.44
409.30	2892.90
409.49	2916.31
409.68	2981.84
409.87	2949.08
410.07	2925.67
410.26	3068.44
410.45	3080.14
410.64	3124.62
410.83	3117.59
411.02	3187.81
411.21	3169.09
411.40	3232.28
411.59	3145.68
411.78	3171.43
411.98	3197.17
412.17	3255.69
412.36	3255.69
412.55	3358.67
412.74	3487.40
412.93	3510.80
413.12	3241.64
413.31	3618.47
413.50	3564.64
413.69	3552.93
413.88	3456.97
414.07	3581.02
414.26	3702.73
414.45	3712.09
414.64	3705.07
414.83	3655.92
415.02	3885.29
415.22	3826.78
415.41	3960.19
415.60	3981.25
415.79	3892.31
415.98	4028.06
416.17	3967.21
416.36	3962.53
416.55	4063.17
416.74	4156.79
416.93	4095.94
417.12	4229.35
417.31	4119.34
417.50	4212.96
417.69	4430.63
417.88	4367.44
418.07	4201.26
418.26	4236.37
418.45	4369.78
418.64	4346.37
418.83	4411.91
419.02	4435.32
419.21	4578.09
419.39	4648.30
419.58	4601.49
419.77	4486.81
419.96	4622.56
420.15	4638.94
420.34	4638.94
420.53	4592.13
420.72	4685.75
420.91	4793.42
421.10	4753.63
421.29	4781.71
421.48	4762.99
421.67	4793.42
421.86	4765.33
422.05	4840.23
422.24	4851.93
422.43	4966.62
422.61	4966.62
422.80	5088.32
422.99	5032.15
423.18	4992.36
423.37	5130.45
423.56	4999.38
423.75	4894.06
423.94	4983.00
424.13	4580.43
424.32	4727.88
424.50	5020.45
424.69	5083.64
424.88	5093.01
425.07	5050.88
425.26	4964.28
425.45	5008.75
425.64	4985.34
425.83	5055.56
426.01	5083.64
426.20	4952.57
426.39	5177.26
426.58	5167.90
426.77	5217.05
426.96	5165.56
427.15	5069.60
427.33	5160.88
427.52	5280.25
427.71	5399.62
427.90	5151.52
428.09	5472.17
428.28	5486.22
428.46	5533.03
428.65	5348.12
428.84	5497.92
429.03	5561.11
429.22	5397.28
429.40	5561.11
429.59	5420.68
429.78	5238.12
429.97	5334.08
430.16	5521.32
430.34	5760.06
430.53	5523.66
430.72	5612.60
430.91	5748.36
431.10	5760.06
431.28	5973.05
431.47	5856.02
431.66	5867.72
431.85	5893.47
432.03	6010.50
432.22	5954.32
432.41	5942.62
432.60	5994.11
432.79	5961.34
432.97	6120.50
433.16	6127.52
433.35	6106.46
433.54	6078.37
433.72	6253.91
433.91	6108.80
434.10	6214.12
434.28	6108.80
434.47	6200.08
434.66	6331.15
434.85	6143.91
435.03	6377.96
435.22	6445.84
435.41	6518.39
435.59	6434.13
435.78	6392.00
435.97	6345.19
436.16	6377.96
436.34	6368.60
436.53	6551.16
436.72	6888.20
436.90	6518.39
437.09	6541.80
437.28	6602.65
437.46	6780.53
437.65	6722.02
437.84	6958.41
438.02	6778.19
438.21	7007.56
438.40	6843.73
438.58	7157.36
438.77	7140.97
438.96	6944.37
439.14	7164.38
439.33	7194.81
439.52	7157.36
439.70	7204.17
439.89	7353.96
440.08	7400.77
440.26	7447.58
440.45	7564.61
440.63	7503.76
440.82	7641.85
441.01	7569.29
441.19	7667.60
441.38	7646.53
441.57	7651.21
441.75	7836.11
441.94	8196.56
442.12	8030.38
442.31	8081.87
442.50	7887.61
442.68	7864.20
442.87	8177.83
443.05	8285.50
443.24	8243.37
443.43	8222.30
443.61	8346.35
443.80	8645.94
443.98	8327.63
444.17	7955.48
444.35	8222.30
444.54	8468.06
444.73	8540.61
444.91	8386.14
445.10	8397.84
445.28	8514.87
445.47	8468.06
445.65	8416.57
445.84	8423.59
446.02	8699.77
446.21	8683.39
446.39	8667.00
446.58	8671.68
446.77	8587.43
446.95	8210.60
447.14	8411.89
447.32	8650.62
447.51	8613.17
447.69	8437.63
447.88	8446.99
448.06	8465.72
448.25	8561.68
448.43	8774.67
448.62	8655.30
448.80	8587.43
448.99	8821.48
449.17	8891.70
449.36	8664.66
449.54	8954.89
449.73	9032.13
449.91	9156.18
450.10	9060.21
450.28	9046.17
450.46	9130.43
450.65	9085.96
450.83	9193.62
451.02	8915.10
451.20	9092.98
451.39	9289.59
451.57	9188.94
451.76	9074.26
451.94	9219.37
452.13	9235.75
452.31	9511.94
452.49	9275.54
452.68	9441.72
452.86	9451.08
453.05	9652.37
453.23	9673.43
453.42	9500.23
453.60	9401.93
453.78	9490.87
453.97	9584.49
454.15	9703.86
454.34	9465.13
454.52	9795.14
454.70	9891.10
454.89	9958.98
455.07	9893.44
455.26	9860.68
455.44	9956.64
455.62	10061.96
455.81	10087.71
455.99	9947.28
456.17	10073.67
456.36	10270.27
456.54	10235.16
456.73	10427.09
456.91	10546.45
457.09	10647.10
457.28	10689.23
457.46	10401.34
457.64	10724.33
457.83	10703.27
458.01	10527.73
458.19	10707.95
458.38	10593.26
458.56	10951.37
458.74	10647.10
458.93	10930.30
459.11	10808.59
459.29	10771.15
459.48	10832.00
459.66	10832.00
459.84	10911.58
460.03	10965.41
460.21	10871.79
460.39	10799.23
460.57	10920.94
460.76	11225.21
460.94	11295.43
461.12	11389.05
461.31	11103.50
461.49	11400.75
461.67	11220.53
461.85	11515.44
462.04	11253.30
462.22	11641.82
462.40	11812.68
462.59	11623.10
462.77	11562.25
462.95	11833.75
463.13	11749.49
463.32	11733.11
463.50	12020.99
463.68	11983.54
463.86	11922.69
464.05	11803.32
464.23	11655.87
464.41	12194.19
464.59	11756.51
464.78	12311.22
464.96	11920.35
465.14	11995.25
465.32	12273.77
465.50	12018.65
465.69	12229.30
465.87	12386.12
466.05	12173.13
466.23	12564.00
466.41	12154.40
466.60	12898.69
466.78	12252.70
466.96	12379.09
467.14	12526.55
467.32	12386.12
467.51	12713.79
467.69	12238.66
467.87	12538.25
468.05	12767.62
468.23	12650.60
468.41	12681.02
468.60	12830.82
468.78	12978.27
468.96	12547.61
469.14	12748.90
469.32	13160.83
469.50	12894.01
469.69	13137.43
469.87	13348.08
470.05	13294.24
470.23	13057.85
470.41	13415.95
470.59	13490.85
470.77	13460.42
470.95	13369.14
471.14	13654.69
471.32	13334.03
471.50	13692.13
471.68	13624.26
471.86	13797.46
472.04	13788.10
472.22	14108.75
472.40	13877.04
472.58	13980.02
472.77	14193.01
472.95	14171.94
473.13	14782.82
473.31	14111.09
473.49	14274.93
473.67	14260.88
473.85	14291.31
474.03	14682.18
474.21	14663.46
474.39	15042.62
474.57	14902.19
474.75	14986.45
474.93	15133.90
475.12	15171.35
475.30	15414.77
475.48	15131.56
475.66	15351.57
475.84	15452.22
476.02	15529.45
476.20	15665.21
476.38	15770.53
476.56	16065.44
476.74	16154.38
476.92	15948.41
477.10	16095.86
477.28	16166.08
477.46	16526.52
477.64	16365.03
477.82	16856.54
478.00	17036.76
478.18	17221.66
478.36	17085.91
478.54	17102.29
478.72	17516.57
478.90	17790.41
479.08	17738.92
479.26	17888.71
479.44	18022.12
479.62	17832.54
479.80	18059.57
479.98	18551.09
480.16	18721.95
480.34	18499.59
480.52	18853.02
480.70	18621.30
480.88	18499.59
481.06	19019.19
481.24	19122.18
481.41	19225.16
481.59	19667.52
481.77	19559.86
481.95	19719.01
482.13	19873.49
482.31	19543.47
482.49	20329.89
482.67	20491.39
482.85	20629.48
483.03	20664.59
483.21	20863.54
483.39	21078.86
483.57	21067.16
483.74	20947.79
483.92	21383.13
484.10	21507.18
484.28	21986.99
484.46	22457.44
484.64	22368.50
484.82	22038.48
485.00	22841.29
485.18	23047.26
485.35	22995.76
485.53	23054.28
485.71	23449.83
485.89	23899.21
486.07	23754.10
486.25	23339.82
486.43	23545.79
486.61	23960.06
486.78	24540.52
486.96	24496.05
487.14	24851.81
487.32	24512.43
487.50	24992.24
487.68	25238.00
487.85	25378.43
488.03	25607.80
488.21	26338.05
488.39	26611.89
488.57	26384.86
488.75	26499.55
488.92	26890.41
489.10	27056.59
489.28	27080.00
489.46	27440.44
489.64	27260.22
489.81	27798.54
489.99	28088.77
490.17	28030.26
490.35	28596.67
490.53	28147.28
490.70	28837.74
490.88	28830.72
491.06	29179.46
491.24	28938.38
491.41	29352.66
491.59	29575.01
491.77	29600.76
491.95	29853.53
492.13	29942.47
492.30	30192.91
492.48	29844.17
492.66	30436.33
492.84	31016.78
493.01	31030.82
493.19	30742.94
493.37	31421.69
493.54	31201.68
493.72	31805.54
493.90	31559.78
494.08	32121.51
494.25	32055.98
494.43	31995.12
494.61	32512.38
494.79	32652.81
494.96	32453.87
495.14	33181.77
495.32	33289.44
495.49	33333.91
495.67	33521.15
495.85	33523.49
496.02	34415.24
496.20	34429.28
496.38	34567.37
496.55	34279.49
496.73	35384.22
496.91	34827.17
497.09	34754.61
497.26	35374.86
497.44	35346.77
497.62	35772.75
497.79	36273.62
497.97	35838.28
498.14	36381.29
498.32	36650.45
498.50	36753.43
498.67	37153.66
498.85	36825.99
499.03	36823.65
499.20	37020.25
499.38	37179.41
499.56	37598.37
499.73	37600.71
499.91	37806.67
500.08	38094.56
500.26	37549.21
500.44	37958.81
500.61	38274.78
500.79	38183.50
500.97	38639.90
501.14	38864.60
501.32	38623.52
501.49	38803.74
501.67	38916.09
501.84	39538.67
502.02	39440.37
502.20	39433.35
502.37	39241.42
502.55	39594.84
502.72	40086.36
502.90	39957.63
503.07	40025.50
503.25	40081.67
503.43	40278.28
503.60	40224.45
503.78	40545.10
503.95	40629.36
504.13	40608.29
504.30	40980.44
504.48	40903.20
504.65	41303.43
504.83	41523.44
505.01	41514.08
505.18	41727.07
505.36	41490.68
505.53	41619.41
505.71	42050.06
505.88	41869.84
506.06	41422.80
506.23	42705.41
506.41	42433.91
506.58	42572.00
506.76	42642.22
506.93	42960.53
507.11	42920.74
507.28	43124.37
507.46	43133.73
507.63	43344.38
507.81	43868.66
507.98	43115.01
508.16	43573.75
508.33	43854.62
508.50	43950.58
508.68	44378.90
508.85	44388.26
509.03	44243.15
509.20	44594.23
509.38	44683.17
509.55	44589.55
509.73	44781.47
509.90	45097.44
510.08	44645.72
510.25	45097.44
510.42	45038.93
510.60	45350.22
510.77	45708.32
510.95	45874.50
511.12	45708.32
511.30	45797.26
511.47	45949.40
511.64	46174.09
511.82	46279.41
511.99	45853.44
512.17	46248.99
512.34	46337.93
512.51	46581.34
512.69	46464.32
512.86	46700.71
513.04	47189.88
513.21	47316.27
513.38	47388.83
513.56	47262.44
513.73	46932.42
513.90	47629.90
514.08	47107.96
514.25	47555.00
514.43	47578.41
514.60	47753.95
514.77	47531.60
514.95	48044.18
515.12	47889.70
515.29	47660.33
515.47	48692.50
515.64	48325.04
515.81	48409.30
515.99	48617.61
516.16	49092.74
516.33	48729.95
516.51	48935.92
516.68	48589.52
516.85	49036.56
517.03	49029.54
517.20	49303.38
517.37	49172.31
517.54	48842.30
517.72	49202.74
517.89	49148.91
518.06	49745.75
518.24	49680.21
518.41	49595.95
518.58	49677.87
518.75	49584.25
518.93	50108.53
519.10	49886.18
519.27	50031.29
519.45	50059.38
519.62	50305.13
519.79	50117.89
519.96	50115.55
520.14	50555.57
520.31	50373.01
520.48	50459.61
520.65	50932.40
520.83	51075.17
521.00	50890.27
521.17	50866.86
521.34	51079.85
521.52	51054.11
521.69	51051.76
521.86	51484.76
522.03	51473.06
522.20	51746.90
522.38	51777.33
522.55	51571.36
522.72	51590.09
522.89	51473.06
523.07	52009.04
523.24	51721.16
523.41	51913.08
523.58	52058.20
523.75	52327.36
523.92	52320.34
524.10	52320.34
524.27	52123.73
524.44	52472.47
524.61	52385.87
524.78	52713.55
524.96	52580.13
525.13	52678.44
525.30	52959.30
525.47	52907.81
525.64	52846.96
525.81	52781.42
525.98	52863.34
526.16	52865.68
526.33	53048.24
526.50	53591.25
526.67	52769.72
526.84	53038.88
527.01	52853.98
527.18	53371.24
527.36	53366.55
527.53	53284.64
527.70	53591.25
527.87	53441.45
528.04	53284.64
528.21	53649.76
528.38	53640.40
528.55	53853.39
528.72	53478.90
528.89	53759.76
529.07	53874.45
529.24	53909.56
529.41	53954.03
529.58	53909.56
529.75	53853.39
529.92	53932.96
530.09	54134.25
530.26	53982.12
530.43	54412.77
530.60	53972.75
530.77	54169.36
530.94	54265.32
531.11	54323.83
531.28	54176.38
531.46	54667.89
531.63	54728.75
531.80	54513.42
531.97	54747.47
532.14	54747.47
532.31	54738.11
532.48	54829.39
532.65	54754.49
532.82	54871.52
532.99	55068.12
533.16	54883.22
533.33	55203.88
533.50	55157.06
533.67	54944.08
533.84	54824.71
534.01	55348.99
534.18	55030.68
534.35	55613.47
534.52	55299.84
534.69	55402.82
534.86	55552.62
535.03	55554.96
535.20	55405.16
535.37	55440.27
535.54	55627.51
535.71	55669.64
535.88	55707.09
536.05	55800.71
536.22	56004.34
536.38	55604.11
536.55	55812.41
536.72	55728.16
536.89	55774.97
537.06	55882.63
537.23	56165.84
537.40	56081.58
537.57	55868.59
537.74	56020.72
537.91	56222.01
538.08	56182.22
538.25	56002.00
538.42	56002.00
538.59	56374.14
538.75	56212.65
538.92	56355.42
539.09	56467.76
539.26	56341.38
539.43	56322.65
539.60	56662.03
539.77	56603.52
539.94	56669.05
540.11	56435.00
540.28	56727.56
540.44	56652.67
540.61	56697.14
540.78	56481.81
540.95	56765.01
541.12	56573.09
541.29	56786.08
541.46	56664.37
541.62	56629.26
541.79	56886.72
541.96	56622.24
542.13	56584.79
542.30	57172.27
542.47	56994.39
542.63	56938.21
542.80	57090.35
542.97	57352.49
543.14	57492.92
543.31	57324.40
543.48	57668.46
543.64	57741.02
543.81	57680.16
543.98	57579.52
544.15	57378.23
544.32	57581.86
544.48	57726.97
544.65	57572.50
544.82	57623.99
544.99	57415.68
545.16	57869.75
545.32	57729.31
545.49	57958.69
545.66	57972.73
545.83	57932.94
546.00	57755.06
546.16	57872.09
546.33	57715.27
546.50	57904.85
546.67	58075.71
546.83	57614.63
547.00	58150.61
547.17	57778.46
547.34	58108.48
547.50	58234.87
547.67	58365.94
547.84	58148.27
548.00	58316.79
548.17	58738.08
548.34	58358.92
548.51	58567.23
548.67	58447.86
548.84	58330.83
549.01	58120.18
549.18	58429.13
549.34	58379.98
549.51	58391.68
549.68	58618.72
549.84	58340.19
550.01	58698.30
550.18	58754.47
550.34	58632.76
550.51	58852.77
550.68	58808.30
550.84	58548.50
551.01	58770.85
551.18	59061.08
551.34	58607.01
551.51	58618.72
551.68	58759.15
551.84	58810.64
552.01	58588.29
552.18	58993.20
552.34	58836.39
552.51	58988.52
552.68	58763.83
552.84	58782.55
553.01	59311.52
553.18	58913.62
553.34	59143.00
553.51	58965.12
553.67	58962.78
553.84	59250.66
554.01	59171.08
554.17	59269.39
554.34	59351.30
554.51	59365.35
554.67	59049.38
554.84	59344.28
555.00	59262.36
555.17	59051.72
555.33	59285.77
555.50	59192.15
555.67	59203.85
555.83	59370.03
556.00	59482.37
556.16	59519.82
556.33	59398.12
556.50	59447.27
556.66	59465.99
556.83	59519.82
556.99	59721.11
557.16	59686.00
557.32	59744.51
557.49	59662.60
557.65	59381.73
557.82	59821.75
557.98	59536.21
558.15	59629.83
558.32	59693.02
558.48	59615.79
558.65	59744.51
558.81	59599.40
558.98	59817.07
559.14	59868.56
559.31	59756.22
559.47	60004.31
559.64	59896.65
559.80	59891.97
559.97	59826.43
560.13	59866.22
560.30	59966.87
560.46	60023.04
560.63	60133.04
560.79	59891.97
560.96	59957.50
561.12	60104.96
561.29	60032.40
561.45	60133.04
561.61	60083.89
561.78	59948.14
561.94	60093.25
562.11	59866.22
562.27	60009.00
562.44	60095.60
562.60	60186.88
562.77	60224.32
562.93	59955.16
563.10	60076.87
563.26	60282.84
563.42	60324.97
563.59	60339.01
563.75	60154.11
563.92	60479.44
564.08	60217.30
564.24	60168.15
564.41	60416.25
564.57	60385.82
564.74	60495.83
564.90	60205.60
565.07	60369.44
565.23	60343.69
565.39	60292.20
565.56	60430.29
565.72	60509.87
565.88	60329.65
566.05	60329.65
566.21	60453.70
566.38	60514.55
566.54	60640.94
566.70	60563.70
566.87	60676.05
567.03	60381.14
567.19	60776.69
567.36	60383.48
567.52	60477.10
567.68	60690.09
567.85	60554.34
568.01	60439.65
568.17	60626.90
568.34	60711.16
568.50	60542.64
568.66	60711.16
568.83	60610.51
568.99	60713.50
569.15	60559.02
569.32	60643.28
569.48	60797.76
569.64	60612.85
569.81	60722.86
569.97	60626.90
570.13	60849.25
570.30	60594.13
570.46	60802.44
570.62	60823.50
570.78	60680.73
570.95	60451.36
571.11	60678.39
571.27	60622.22
571.43	60720.52
571.60	60879.67
571.76	60954.57
571.92	60921.80
572.09	60809.46
572.25	60921.80
572.41	60764.99
572.57	60882.02
572.74	60963.93
572.90	60889.04
573.06	61055.21
573.22	60807.12
573.38	60797.76
573.55	60729.88
573.71	61183.94
573.87	60746.26
574.03	60807.12
574.20	61038.83
574.36	60821.16
574.52	60917.12
574.68	61062.24
574.84	60947.55
575.01	60907.76
575.17	61029.47
575.33	60781.37
575.49	60804.78
575.65	60924.14
575.82	60942.87
575.98	60846.91
576.14	61422.68
576.30	61010.74
576.46	60779.03
576.62	61083.30
576.79	60872.65
576.95	61078.62
577.11	61006.06
577.27	60931.17
577.43	60992.02
577.59	61155.86
577.75	60970.96
577.92	61013.08
578.08	60977.98
578.24	61076.28
578.40	61127.77
578.56	61226.07
578.72	60786.05
578.88	61172.24
579.04	61141.81
579.21	61034.15
579.37	61202.67
579.53	61162.88
579.69	60905.42
579.85	61029.47
580.01	60835.20
580.17	60882.02
580.33	61029.47
580.49	61223.73
580.65	61167.56
580.82	61146.50
580.98	61104.37
581.14	61050.53
581.30	61165.22
581.46	61050.53
581.62	61083.30
581.78	61059.90
581.94	61097.34
582.10	61315.01
582.26	61190.97
582.42	61052.87
582.58	61277.57
582.74	61024.79
582.90	60942.87
583.06	61256.50
583.22	61085.64
583.38	61212.03
583.54	61155.86
583.70	61350.12
583.86	61071.60
584.02	61095.00
584.18	61331.40
584.34	61300.97
584.50	61275.22
584.66	60992.02
584.82	60926.49
584.98	61289.27
585.14	61256.50
585.30	61242.46
585.46	61284.59
585.62	61205.01
585.78	61357.14
585.94	61052.87
586.10	61102.03
586.26	61272.88
586.42	61396.93
586.58	61195.65
586.74	61172.24
586.90	61125.43
587.06	61312.67
587.22	61307.99
587.38	61258.84
587.54	61399.27
587.70	61425.02
587.86	61200.33
588.02	61455.45
588.18	61474.17
588.34	61216.71
588.49	61329.06
