SpectraSuite Data File
++++++++++++++++++++++++++++++++++++
Date: Fri Oct 25 11:26:13 EDT 2013
User: price-jones
Dark Spectrum Present: No
Reference Spectrum Present: No
Number of Sampled Component Spectra: 1
Spectrometers: USB2+H05261
Integration Time (usec): 100000 (USB2+H05261)
Spectra Averaged: 1 (USB2+H05261)
Boxcar Smoothing: 0 (USB2+H05261)
Correct for Electrical Dark: No (USB2+H05261)
Strobe/Lamp Enabled: No (USB2+H05261)
Correct for Detector Non-linearity: No (USB2+H05261)
Correct for Stray Light: No (USB2+H05261)
Number of Pixels in Processed Spectrum: 2048
>>>>>Begin Processed Spectral Data<<<<<
365.73	236.39
365.92	236.39
366.12	236.39
366.32	133.41
366.52	196.60
366.72	161.50
366.91	154.48
367.11	142.77
367.31	100.64
367.51	107.66
367.70	126.39
367.90	100.64
368.10	124.05
368.30	124.05
368.49	163.84
368.69	170.86
368.89	93.62
369.09	142.77
369.28	168.52
369.48	175.54
369.68	198.95
369.87	210.65
370.07	217.67
370.27	248.10
370.47	346.40
370.66	571.09
370.86	624.92
371.06	648.33
371.25	732.59
371.45	648.33
371.65	683.44
371.84	692.80
372.04	596.84
372.24	685.78
372.44	770.04
372.63	755.99
372.83	798.12
373.03	725.57
373.22	777.06
373.42	723.23
373.62	866.00
373.81	844.93
374.01	840.25
374.21	781.74
374.40	828.55
374.60	821.53
374.79	795.78
374.99	814.51
375.19	849.61
375.38	835.57
375.58	763.01
375.78	931.53
375.97	889.40
376.17	842.59
376.37	903.45
376.56	873.02
376.76	830.89
376.95	837.91
377.15	877.70
377.35	903.45
377.54	894.08
377.74	901.11
377.93	891.74
378.13	957.28
378.33	994.73
378.52	964.30
378.72	964.30
378.91	950.26
379.11	889.40
379.31	999.41
379.50	875.36
379.70	919.83
379.89	999.41
380.09	905.79
380.28	976.00
380.48	1032.18
380.68	1011.11
380.87	999.41
381.07	1048.56
381.26	1067.28
381.46	1053.24
381.65	990.05
381.85	1011.11
382.04	1039.20
382.24	1090.69
382.43	1074.31
382.63	1001.75
382.83	1100.05
383.02	1029.84
383.22	1170.27
383.41	1132.82
383.61	1118.78
383.80	1174.95
384.00	1071.97
384.19	1046.22
384.39	1198.35
384.58	1090.69
384.78	1188.99
384.97	1203.04
385.17	1050.90
385.36	1156.22
385.56	1184.31
385.75	1158.57
385.95	1191.33
386.14	1291.98
386.34	1193.67
386.53	1123.46
386.72	1163.25
386.92	1186.65
387.11	1256.87
387.31	1200.69
387.50	1228.78
387.70	1256.87
387.89	1203.04
388.09	1341.13
388.28	1413.68
388.48	1341.13
388.67	1406.66
388.86	1284.95
389.06	1247.51
389.25	1245.16
389.45	1376.24
389.64	1341.13
389.84	1373.89
390.03	1401.98
390.22	1434.75
390.42	1380.92
390.61	1413.68
390.81	1413.68
391.00	1359.85
391.19	1432.41
391.39	1416.02
391.58	1451.13
391.78	1458.15
391.97	1507.30
392.16	1420.71
392.36	1474.54
392.55	1474.54
392.75	1533.05
392.94	1528.37
393.13	1544.75
393.33	1577.52
393.52	1565.82
393.71	1577.52
393.91	1603.27
394.10	1577.52
394.29	1544.75
394.49	1575.18
394.68	1579.86
394.88	1614.97
395.07	1703.91
395.26	1682.85
395.46	1565.82
395.65	1739.02
395.84	1736.68
396.04	1748.38
396.23	1809.23
396.42	1685.19
396.62	1750.72
396.81	1813.92
397.00	1776.47
397.19	1783.49
397.39	1732.00
397.58	1799.87
397.77	1743.70
397.97	1902.86
398.16	1949.67
398.35	1980.09
398.55	1874.77
398.74	1956.69
398.93	1905.20
399.12	1956.69
399.32	1928.60
399.51	1820.94
399.70	1994.14
399.90	1947.33
400.09	2113.50
400.28	2113.50
400.47	2092.44
400.67	2111.16
400.86	2157.97
401.05	1998.82
401.24	2125.21
401.44	2015.20
401.63	2202.44
401.82	2115.84
402.01	2111.16
402.21	2087.76
402.40	2174.36
402.59	2296.07
402.78	2188.40
402.97	2207.13
403.17	2270.32
403.36	2195.42
403.55	2284.36
403.74	2361.60
403.93	2413.09
404.13	2345.22
404.32	2338.20
404.51	2392.03
404.70	2462.24
404.89	2319.47
405.09	2438.84
405.28	2356.92
405.47	2455.22
405.66	2541.82
405.85	2403.73
406.05	2647.15
406.24	2562.89
406.43	2628.42
406.62	2569.91
406.81	2670.55
407.00	2532.46
407.20	2626.08
407.39	2619.06
407.58	2703.32
407.77	2768.85
407.96	2869.50
408.15	2787.58
408.34	2686.94
408.54	2949.08
408.73	2740.77
408.92	2693.96
409.11	2848.43
409.30	2796.94
409.49	2853.11
409.68	2892.90
409.87	2846.09
410.07	3019.29
410.26	2946.73
410.45	3023.97
410.64	3075.46
410.83	3133.98
411.02	3159.72
411.21	3129.30
411.40	3047.38
411.59	3346.97
411.78	3169.09
411.98	3180.79
412.17	3243.98
412.36	3141.00
412.55	3316.54
412.74	3428.88
412.93	3393.78
413.12	3417.18
413.31	3459.31
413.50	3435.91
413.69	3496.76
413.88	3611.45
414.07	3634.85
414.26	3536.55
414.45	3548.25
414.64	3604.42
414.83	3761.24
415.02	3679.32
415.22	3808.05
415.41	3817.41
415.60	3737.84
415.79	3705.07
415.98	3950.82
416.17	3939.12
416.36	3957.85
416.55	3941.46
416.74	4100.62
416.93	4109.98
417.12	4222.33
417.31	4081.89
417.50	4030.40
417.69	4145.09
417.88	4276.16
418.07	4161.47
418.26	4297.22
418.45	4287.86
418.64	4416.59
418.83	4496.17
419.02	4416.59
419.21	4510.21
419.39	4571.07
419.58	4416.59
419.77	4498.51
419.96	4622.56
420.15	4702.14
420.34	4545.32
420.53	4617.88
420.72	4578.09
420.91	4610.86
421.10	4678.73
421.29	4669.37
421.48	4760.65
421.67	4755.97
421.86	4734.90
422.05	4788.74
422.24	4716.18
422.43	4952.57
422.61	4915.12
422.80	4938.53
422.99	4971.30
423.18	4858.95
423.37	5004.07
423.56	4873.00
423.75	4861.29
423.94	4858.95
424.13	4599.15
424.32	4727.88
424.50	4980.66
424.69	5039.17
424.88	4887.04
425.07	4891.72
425.26	4901.08
425.45	4882.36
425.64	4889.38
425.83	4910.44
426.01	4952.57
426.20	4901.08
426.39	4983.00
426.58	5097.69
426.77	4980.66
426.96	5041.51
427.15	5093.01
427.33	5249.82
427.52	5170.24
427.71	5198.33
427.90	5221.74
428.09	5172.58
428.28	5324.72
428.46	5462.81
428.65	5324.72
428.84	5268.55
429.03	5486.22
429.22	5373.87
429.40	5448.77
429.59	5621.97
429.78	5252.16
429.97	5249.82
430.16	5369.19
430.34	5624.31
430.53	5631.33
430.72	5619.63
430.91	5511.96
431.10	5575.16
431.28	5673.46
431.47	5909.85
431.66	5774.10
431.85	5717.93
432.03	5905.17
432.22	5966.03
432.41	5919.21
432.60	5923.90
432.79	5923.90
432.97	5982.41
433.16	6153.27
433.35	6122.84
433.54	6120.50
433.72	6230.51
433.91	5949.64
434.10	6017.52
434.28	6221.14
434.47	6183.70
434.66	6146.25
434.85	6286.68
435.03	6183.70
435.22	6415.41
435.41	6565.20
435.59	6490.31
435.78	6368.60
435.97	6539.46
436.16	6518.39
436.34	6494.99
436.53	6541.80
436.72	6586.27
436.90	6289.02
437.09	6513.71
437.28	6380.30
437.46	6677.55
437.65	6794.58
437.84	6918.62
438.02	6682.23
438.21	6722.02
438.40	6757.13
438.58	6988.84
438.77	6911.60
438.96	7033.31
439.14	7136.29
439.33	7056.72
439.52	7073.10
439.70	7129.27
439.89	7358.64
440.08	7396.09
440.26	7307.15
440.45	7201.83
440.63	7461.63
440.82	7531.84
441.01	7435.88
441.19	7644.19
441.38	7712.07
441.57	7639.51
441.75	7735.47
441.94	7941.44
442.12	7962.50
442.31	8011.65
442.50	8032.72
442.68	7896.97
442.87	7920.37
443.05	8051.44
443.24	8093.57
443.43	8074.85
443.61	8194.22
443.80	8304.22
443.98	8191.88
444.17	7903.99
444.35	8203.58
444.54	8173.15
444.73	8189.53
444.91	8318.26
445.10	8456.36
445.28	8166.13
445.47	8189.53
445.65	8425.93
445.84	8442.31
446.02	8421.25
446.21	8259.75
446.39	8341.67
446.58	8461.04
446.77	8454.02
446.95	8341.67
447.14	8425.93
447.32	8486.78
447.51	8393.16
447.69	8248.05
447.88	8428.27
448.06	8461.04
448.25	8669.34
448.43	8484.44
448.62	8407.20
448.80	8547.64
448.99	8554.66
449.17	8435.29
449.36	8486.78
449.54	8985.32
449.73	8842.54
449.91	8975.95
450.10	8992.34
450.28	9039.15
450.46	9158.52
450.65	8877.65
450.83	9001.70
451.02	9170.22
451.20	9191.28
451.39	9165.54
451.57	9020.42
451.76	9020.42
451.94	9228.73
452.13	9167.88
452.31	9322.35
452.49	9088.30
452.68	9481.51
452.86	9233.41
453.05	9399.59
453.23	9502.58
453.42	9116.39
453.60	9376.19
453.78	9486.19
453.97	9322.35
454.15	9500.23
454.34	9516.62
454.52	9961.32
454.70	9671.09
454.89	9589.17
455.07	9610.24
455.26	9811.53
455.44	9961.32
455.62	9816.21
455.81	9923.87
455.99	9961.32
456.17	9914.51
456.36	10008.13
456.54	10370.91
456.73	10382.62
456.91	10523.05
457.09	10221.12
457.28	10541.77
457.46	10246.87
457.64	10581.56
457.83	10562.84
458.01	10438.79
458.19	10855.40
458.38	10539.43
458.56	10593.26
458.74	10539.43
458.93	10689.23
459.11	10513.69
459.29	10766.46
459.48	10782.85
459.66	10801.57
459.84	10855.40
460.03	10988.82
460.21	10789.87
460.39	10738.38
460.57	11117.54
460.76	10771.15
460.94	11061.37
461.12	11143.29
461.31	11124.57
461.49	11192.44
461.67	11129.25
461.85	11239.25
462.04	11197.12
462.22	11728.42
462.40	11522.46
462.59	11604.38
462.77	11562.25
462.95	11770.55
463.13	11522.46
463.32	11487.35
463.50	11826.73
463.68	11595.01
463.86	11782.26
464.05	11559.91
464.23	11550.54
464.41	11864.18
464.59	11562.25
464.78	11950.78
464.96	12189.51
465.14	11742.47
465.32	11988.22
465.50	11941.41
465.69	12093.55
465.87	12184.83
466.05	12196.53
466.23	12081.85
466.41	11999.93
466.60	12336.96
466.78	11920.35
466.96	12086.53
467.14	12131.00
467.32	12269.09
467.51	12564.00
467.69	12053.76
467.87	12131.00
468.05	12479.74
468.23	12343.99
468.41	12215.26
468.60	12592.08
468.78	12762.94
468.96	12491.44
469.14	12622.51
469.32	12842.52
469.50	12678.68
469.69	12933.80
469.87	13011.04
470.05	13025.08
470.23	13062.53
470.41	13013.38
470.59	13135.09
470.77	13111.68
470.95	13174.88
471.14	13394.89
471.32	13303.60
471.50	13579.79
471.68	13385.52
471.86	13532.98
472.04	13532.98
472.22	14047.90
472.40	13619.58
472.58	13788.10
472.77	14019.81
472.95	14073.64
473.13	14459.83
473.31	13926.19
473.49	14029.17
473.67	14003.43
473.85	14066.62
474.03	14459.83
474.21	14590.90
474.39	14752.40
474.57	14560.47
474.75	14569.83
474.93	14857.72
475.12	14949.00
475.30	15257.95
475.48	14810.91
475.66	15208.80
475.84	15192.42
476.02	15293.06
476.20	15171.35
476.38	15384.34
476.56	15988.20
476.74	15934.37
476.92	15714.36
477.10	15925.00
477.28	15901.60
477.46	16257.36
477.64	16023.31
477.82	16535.88
478.00	16844.84
478.18	16774.62
478.36	16365.03
478.54	17125.70
478.72	17207.62
478.90	17397.20
479.08	17294.22
479.26	17474.44
479.44	17933.18
479.62	17612.53
479.80	17774.03
479.98	17823.18
480.16	18588.53
480.34	18434.06
480.52	18380.23
480.70	18342.78
480.88	18480.87
481.06	18508.96
481.24	18523.00
481.41	18780.46
481.59	19122.18
481.77	19227.50
481.95	19297.72
482.13	19489.64
482.31	19812.63
482.49	20297.13
482.67	20091.16
482.85	20245.63
483.03	20772.25
483.21	20301.81
483.39	20896.30
483.57	20891.62
483.74	20936.09
483.92	21212.28
484.10	21226.32
484.28	21568.04
484.46	21958.91
484.64	22136.79
484.82	22010.40
485.00	22012.74
485.18	22719.58
485.35	22700.86
485.53	22478.50
485.71	22782.77
485.89	23232.16
486.07	23091.73
486.25	23103.43
486.43	23466.21
486.61	23601.96
486.78	23587.92
486.96	24027.94
487.14	23946.02
487.32	24290.08
487.50	24629.46
487.68	24643.50
487.85	25137.35
488.03	25406.52
488.21	25614.82
488.39	25535.24
488.57	25977.61
488.75	25883.98
488.92	26167.19
489.10	26354.43
489.28	26857.65
489.46	27068.30
489.64	26918.50
489.81	27587.89
489.99	27487.25
490.17	27880.46
490.35	27704.92
490.53	27974.08
490.70	28222.18
490.88	28245.58
491.06	28741.78
491.24	28699.65
491.41	28650.50
491.59	29156.05
491.77	29523.52
491.95	29546.92
492.13	29399.47
492.30	29708.42
492.48	30073.54
492.66	29858.21
492.84	30424.62
493.01	30654.00
493.19	30630.59
493.37	31049.55
493.54	30944.22
493.72	31002.74
493.90	31283.60
494.08	31512.97
494.25	31929.59
494.43	31597.23
494.61	32236.20
494.79	32224.50
494.96	32116.83
495.14	32657.49
495.32	32959.42
495.49	33111.56
495.67	32851.76
495.85	33661.58
496.02	33450.94
496.20	33715.42
496.38	34185.86
496.55	33841.81
496.73	34614.18
496.91	34113.31
497.09	34529.92
497.26	35108.04
497.44	34597.80
497.62	34930.16
497.79	35566.78
497.97	35393.58
498.14	35915.52
498.32	36172.98
498.50	36187.02
498.67	36472.57
498.85	36229.15
499.03	36411.71
499.20	36308.73
499.38	36692.58
499.56	36758.11
499.73	36928.97
499.91	37160.69
500.08	37404.10
500.26	36931.31
500.44	37338.57
500.61	37652.20
500.79	37914.34
500.97	38181.16
501.14	38293.50
501.32	38593.09
501.49	38480.75
501.67	38103.92
501.84	38614.16
502.02	38660.97
502.20	39028.43
502.37	39093.97
502.55	39147.80
502.72	39548.03
502.90	39676.76
503.07	39454.41
503.25	39590.16
503.43	39433.35
503.60	39555.05
503.78	39831.24
503.95	39845.28
504.13	40397.65
504.30	40395.31
504.48	40355.52
504.65	40474.88
504.83	40755.75
505.01	41296.41
505.18	41067.04
505.36	41099.81
505.53	40858.73
505.71	41270.67
505.88	41357.27
506.06	41230.88
506.23	41904.95
506.41	41457.91
506.58	41357.27
506.76	41951.76
506.93	42349.65
507.11	42038.36
507.28	42429.23
507.46	42810.74
507.63	42967.55
507.81	43002.66
507.98	42609.45
508.16	43084.58
508.33	43257.78
508.50	43187.56
508.68	43112.67
508.85	43746.95
509.03	43753.97
509.20	43873.34
509.38	44109.74
509.55	44018.46
509.73	44189.31
509.90	44161.23
510.08	44449.11
510.25	44271.23
510.42	44610.61
510.60	44889.13
510.77	45144.25
510.95	45017.86
511.12	44966.37
511.30	44474.86
511.47	45366.60
511.64	45184.04
511.82	45806.62
511.99	45284.68
512.17	45642.79
512.34	45572.57
512.51	46401.12
512.69	45806.62
512.86	46258.35
513.04	46471.34
513.21	46394.10
513.38	47014.34
513.56	46740.50
513.73	46649.22
513.90	46866.89
514.08	47124.35
514.25	47091.58
514.43	47185.20
514.60	47363.08
514.77	46859.87
514.95	47419.25
515.12	47643.94
515.29	47510.53
515.47	48102.69
515.64	48168.22
515.81	47564.37
515.99	47868.64
516.16	48381.21
516.33	48266.53
516.51	48240.78
516.68	48402.28
516.85	48215.04
517.03	48807.19
517.20	48896.13
517.37	48137.80
517.54	48491.22
517.72	48711.23
517.89	48783.79
518.06	49277.64
518.24	48858.68
518.41	49523.40
518.58	48844.64
518.75	49261.26
518.93	49315.09
519.10	49315.09
519.27	49792.56
519.45	49553.82
519.62	50171.72
519.79	49720.00
519.96	49963.42
520.14	49886.18
520.31	50134.28
520.48	50347.26
520.65	50274.71
520.83	50564.93
521.00	50892.61
521.17	50607.06
521.34	50387.05
521.52	50202.15
521.69	50522.80
521.86	50761.54
522.03	50972.19
522.20	50993.25
522.38	51166.45
522.55	51257.73
522.72	51075.17
522.89	51498.81
523.07	51552.64
523.24	50955.80
523.41	51901.38
523.58	51194.54
523.75	51817.12
523.92	51550.30
524.10	51969.26
524.27	51728.18
524.44	52069.90
524.61	51983.30
524.78	51957.55
524.96	51997.34
525.13	52058.20
525.30	52355.44
525.47	52177.56
525.64	52165.86
525.81	52657.37
525.98	52669.08
526.16	52559.07
526.33	52369.49
526.50	52636.31
526.67	52868.02
526.84	52846.96
527.01	52678.44
527.18	52568.43
527.36	52963.98
527.53	52732.27
527.70	53071.65
527.87	53120.80
528.04	53153.57
528.21	52938.24
528.38	53174.63
528.55	53521.03
528.72	53422.73
528.89	53310.38
529.07	53099.73
529.24	53478.90
529.41	53764.45
529.58	53577.20
529.75	53649.76
529.92	53766.79
530.09	53738.70
530.26	53605.29
530.43	53904.88
530.60	53551.46
530.77	53661.46
530.94	53963.39
531.11	53790.19
531.28	53769.13
531.46	53930.62
531.63	54288.73
531.80	54190.42
531.97	54387.03
532.14	54588.31
532.31	53956.37
532.48	54365.96
532.65	54398.73
532.82	54328.52
532.99	54459.58
533.16	54553.21
533.33	54639.81
533.50	54693.64
533.67	54787.26
533.84	54398.73
534.01	54597.68
534.18	55068.12
534.35	54969.82
534.52	55112.59
534.69	54969.82
534.86	55224.94
535.03	54801.30
535.20	55199.19
535.37	55143.02
535.54	55381.76
535.71	55014.29
535.88	55468.36
536.05	55341.97
536.22	55356.01
536.38	55449.63
536.55	55414.52
536.72	55641.56
536.89	55367.71
537.06	55428.57
537.23	55391.12
537.40	55374.73
537.57	55489.42
537.74	55716.45
537.91	55725.81
538.08	55608.79
538.25	55423.89
538.42	55803.05
538.59	55786.67
538.75	55669.64
538.92	55840.50
539.09	56062.85
539.26	56130.73
539.43	56030.08
539.60	56158.81
539.77	56231.37
539.94	56341.38
540.11	56200.94
540.28	56329.67
540.44	56292.22
540.61	56210.31
540.78	56236.05
540.95	56435.00
541.12	56280.52
541.29	56563.73
541.46	56411.59
541.62	56540.32
541.79	56669.05
541.96	55964.55
542.13	56392.87
542.30	56882.04
542.47	56760.33
542.63	56519.26
542.80	56910.13
542.97	56877.36
543.14	57198.01
543.31	57176.95
543.48	57017.79
543.64	57411.00
543.81	57279.93
543.98	57235.46
544.15	57062.26
544.32	57298.65
544.48	57371.21
544.65	57268.23
544.82	57275.25
544.99	57013.11
545.16	57310.36
545.32	57148.86
545.49	57485.90
545.66	57698.89
545.83	57570.16
546.00	57614.63
546.16	57656.76
546.33	57460.15
546.50	57223.76
546.67	57762.08
546.83	57483.56
547.00	57661.44
547.17	57567.82
547.34	57733.99
547.50	57822.93
547.67	57815.91
547.84	57996.13
548.00	58059.33
548.17	58038.26
548.34	57691.86
548.51	58234.87
548.67	58108.48
548.84	58169.33
549.01	57916.56
549.18	57986.77
549.34	58258.27
549.51	57958.69
549.68	58314.45
549.84	58234.87
550.01	58241.89
550.18	58183.38
550.34	58347.21
550.51	58269.98
550.68	58370.62
550.84	58248.91
551.01	58370.62
551.18	58195.08
551.34	58429.13
551.51	58408.07
551.68	58499.35
551.84	58457.22
552.01	58286.36
552.18	58525.10
552.34	58389.34
552.51	58642.12
552.68	58377.64
552.84	58642.12
553.01	58749.79
553.18	58791.92
553.34	58770.85
553.51	58815.32
553.67	58597.65
553.84	58967.46
554.01	58857.45
554.17	58859.79
554.34	58817.66
554.51	58773.19
554.67	59016.61
554.84	58934.69
555.00	58915.96
555.17	58862.13
555.33	58824.68
555.50	58731.06
555.67	59018.95
555.83	58955.75
556.00	58958.09
556.16	59355.99
556.33	59105.55
556.50	59196.83
556.66	59182.79
556.83	59051.72
556.99	59302.15
557.16	59440.24
557.32	59463.65
557.49	59590.04
557.65	59131.29
557.82	59171.08
557.98	59269.39
558.15	59264.70
558.32	59248.32
558.48	59194.49
558.65	59367.69
558.81	59391.09
558.98	59384.07
559.14	59423.86
559.31	59599.40
559.47	59508.12
559.64	59433.22
559.80	59585.36
559.97	59573.66
560.13	59709.41
560.30	59503.44
560.46	59723.45
560.63	59613.44
560.79	59615.79
560.96	59678.98
561.12	59828.77
561.29	59639.19
561.45	59714.09
561.61	59784.30
561.78	59863.88
561.94	59627.49
562.11	59763.24
562.27	59564.29
562.44	59936.44
562.60	59957.50
562.77	59891.97
562.93	59657.91
563.10	60055.81
563.26	59751.54
563.42	60039.42
563.59	59927.08
563.75	59760.90
563.92	59980.91
564.08	59840.48
564.24	60016.02
564.41	60023.04
564.57	59992.61
564.74	59952.82
564.90	60217.30
565.07	60221.98
565.23	60221.98
565.39	59985.59
565.56	60116.66
565.72	60069.85
565.88	60126.02
566.05	60023.04
566.21	60186.88
566.38	60205.60
566.54	60212.62
566.70	60207.94
566.87	60111.98
567.03	59973.89
567.19	60399.86
567.36	60231.35
567.52	60123.68
567.68	60299.22
567.85	60329.65
568.01	60341.35
568.17	60142.41
568.34	60221.98
568.50	60327.31
568.66	60285.18
568.83	60570.72
568.99	60238.37
569.15	60367.10
569.32	60259.43
569.48	60364.76
569.64	60507.53
569.81	60200.92
569.97	60219.64
570.13	60278.16
570.30	60163.47
570.46	60301.56
570.62	60331.99
570.78	60495.83
570.95	60528.59
571.11	60573.06
571.27	60243.05
571.43	60278.16
571.60	60292.20
571.76	60479.44
571.92	60516.89
572.09	60535.62
572.25	60460.72
572.41	60315.61
572.57	60406.89
572.74	60781.37
572.90	60467.74
573.06	60467.74
573.22	60374.12
573.38	60451.36
573.55	60397.52
573.71	60556.68
573.87	60664.35
574.03	60526.25
574.20	60385.82
574.36	60474.76
574.52	60690.09
574.68	60612.85
574.84	60697.11
575.01	60823.50
575.17	60509.87
575.33	60575.40
575.49	60516.89
575.65	60528.59
575.82	60666.69
575.98	60762.65
576.14	60800.10
576.30	60647.96
576.46	60495.83
576.62	60638.60
576.79	60512.21
576.95	60411.57
577.11	60814.14
577.27	60886.70
577.43	60720.52
577.59	60509.87
577.75	60629.24
577.92	60530.93
578.08	60781.37
578.24	60804.78
578.40	60727.54
578.56	60776.69
578.72	60556.68
578.88	60970.96
579.04	61071.60
579.21	60853.93
579.37	60666.69
579.53	60970.96
579.69	60676.05
579.85	60720.52
580.01	60495.83
580.17	60540.30
580.33	60764.99
580.49	60816.48
580.65	60781.37
580.82	60699.45
580.98	60570.72
581.14	60692.43
581.30	60856.27
581.46	60715.84
581.62	60715.84
581.78	60788.39
581.94	60940.53
582.10	60727.54
582.26	60760.31
582.42	60706.47
582.58	60870.31
582.74	60921.80
582.90	60638.60
583.06	60907.76
583.22	60608.17
583.38	60856.27
583.54	60879.67
583.70	60837.54
583.86	60867.97
584.02	60776.69
584.18	60893.72
584.34	60945.21
584.50	60764.99
584.66	60912.44
584.82	60830.52
584.98	61263.52
585.14	60851.59
585.30	60804.78
585.46	60874.99
585.62	61134.79
585.78	60980.32
585.94	60795.42
586.10	60961.59
586.26	60844.57
586.42	60954.57
586.58	60919.46
586.74	60987.34
586.90	60989.68
587.06	60804.78
587.22	61027.13
587.38	60961.59
587.54	61071.60
587.70	61148.84
587.86	61038.83
588.02	60882.02
588.18	61118.41
588.34	60912.44
588.49	60924.14
