SpectraSuite Data File
++++++++++++++++++++++++++++++++++++
Date: Fri Oct 25 11:25:14 EDT 2013
User: price-jones
Dark Spectrum Present: No
Reference Spectrum Present: No
Number of Sampled Component Spectra: 1
Spectrometers: USB2+H05261
Integration Time (usec): 100000 (USB2+H05261)
Spectra Averaged: 1 (USB2+H05261)
Boxcar Smoothing: 0 (USB2+H05261)
Correct for Electrical Dark: No (USB2+H05261)
Strobe/Lamp Enabled: No (USB2+H05261)
Correct for Detector Non-linearity: No (USB2+H05261)
Correct for Stray Light: No (USB2+H05261)
Number of Pixels in Processed Spectrum: 2048
>>>>>Begin Processed Spectral Data<<<<<
365.73	250.44
365.92	250.44
366.12	250.44
366.32	145.11
366.52	121.71
366.72	126.39
366.91	175.54
367.11	205.97
367.31	138.09
367.51	170.86
367.70	152.13
367.90	145.11
368.10	203.63
368.30	170.86
368.49	138.09
368.69	163.84
368.89	201.29
369.09	203.63
369.28	238.73
369.48	194.26
369.68	180.22
369.87	266.82
370.07	175.54
370.27	201.29
370.47	301.93
370.66	610.88
370.86	655.35
371.06	671.73
371.25	678.76
371.45	594.50
371.65	683.44
371.84	681.10
372.04	678.76
372.24	695.14
372.44	653.01
372.63	653.01
372.83	727.91
373.03	709.18
373.22	772.38
373.42	716.20
373.62	725.57
373.81	807.48
374.01	863.66
374.21	784.08
374.40	772.38
374.60	807.48
374.79	842.59
374.99	784.08
375.19	753.65
375.38	830.89
375.58	844.93
375.78	849.61
375.97	798.12
376.17	903.45
376.37	875.36
376.56	891.74
376.76	854.30
376.95	835.57
377.15	961.96
377.35	870.68
377.54	966.64
377.74	840.25
377.93	833.23
378.13	992.39
378.33	924.51
378.52	952.60
378.72	990.05
378.91	968.98
379.11	952.60
379.31	1013.45
379.50	912.81
379.70	959.62
379.89	1032.18
380.09	931.53
380.28	990.05
380.48	915.15
380.68	968.98
380.87	968.98
381.07	1062.60
381.26	1111.75
381.46	994.73
381.65	1022.81
381.85	1057.92
382.04	1076.65
382.24	1029.84
382.43	1071.97
382.63	1022.81
382.83	1086.01
383.02	1107.07
383.22	1062.60
383.41	1151.54
383.61	1039.20
383.80	1064.94
384.00	1149.20
384.19	1078.99
384.39	1146.86
384.58	1158.57
384.78	1121.12
384.97	1191.33
385.17	1210.06
385.36	1228.78
385.56	1238.14
385.75	1224.10
385.95	1184.31
386.14	1170.27
386.34	1142.18
386.53	1186.65
386.72	1151.54
386.92	1217.08
387.11	1315.38
387.31	1205.38
387.50	1296.66
387.70	1219.42
387.89	1242.82
388.09	1242.82
388.28	1247.51
388.48	1252.19
388.67	1357.51
388.86	1369.21
389.06	1287.29
389.25	1313.04
389.45	1282.61
389.64	1345.81
389.84	1324.74
390.03	1350.49
390.22	1383.26
390.42	1455.81
390.61	1425.39
390.81	1369.21
391.00	1385.60
391.19	1380.92
391.39	1483.90
391.58	1423.05
391.78	1401.98
391.97	1401.98
392.16	1446.45
392.36	1568.16
392.55	1507.30
392.75	1549.43
392.94	1486.24
393.13	1589.22
393.33	1504.96
393.52	1535.39
393.71	1603.27
393.91	1607.95
394.10	1703.91
394.29	1572.84
394.49	1556.46
394.68	1657.10
394.88	1732.00
395.07	1778.81
395.26	1661.78
395.46	1708.59
395.65	1631.35
395.84	1652.42
396.04	1757.74
396.23	1734.34
396.42	1661.78
396.62	1778.81
396.81	1771.79
397.00	1790.51
397.19	1820.94
397.39	1767.10
397.58	1827.96
397.77	1722.63
397.97	1837.32
398.16	1830.30
398.35	1898.17
398.55	1783.49
398.74	1914.56
398.93	2017.54
399.12	1909.88
399.32	1942.64
399.51	2017.54
399.70	1961.37
399.90	1963.71
400.09	1912.22
400.28	1996.48
400.47	2040.95
400.67	2120.53
400.86	2059.67
401.05	2083.08
401.24	2026.90
401.44	2040.95
401.63	2097.12
401.82	2216.49
402.01	2054.99
402.21	2064.35
402.40	2099.46
402.59	2167.34
402.78	2127.55
402.97	2218.83
403.17	2136.91
403.36	2298.41
403.55	2239.89
403.74	2310.11
403.93	2328.83
404.13	2387.35
404.32	2363.94
404.51	2408.41
404.70	2448.20
404.89	2438.84
405.09	2485.65
405.28	2490.33
405.47	2436.50
405.66	2429.48
405.85	2511.39
406.05	2342.88
406.24	2663.53
406.43	2530.12
406.62	2583.95
406.81	2766.51
407.00	2541.82
407.20	2544.16
407.39	2518.42
407.58	2668.21
407.77	2686.94
407.96	2747.79
408.15	2822.69
408.34	2801.62
408.54	2792.26
408.73	2810.98
408.92	2876.52
409.11	2881.20
409.30	2988.86
409.49	2960.78
409.68	2930.35
409.87	2906.95
410.07	2958.44
410.26	2881.20
410.45	2881.20
410.64	3054.40
410.83	2991.20
411.02	3080.14
411.21	3049.72
411.40	3028.65
411.59	3145.68
411.78	3115.25
411.98	3059.08
412.17	3225.26
412.36	3300.16
412.55	3314.20
412.74	3349.31
412.93	3361.01
413.12	3370.37
413.31	3597.40
413.50	3428.88
413.69	3412.50
413.88	3721.45
414.07	3503.78
414.26	3623.15
414.45	3684.00
414.64	3660.60
414.83	3644.21
415.02	3723.79
415.22	3716.77
415.41	3920.40
415.60	3812.73
415.79	3852.52
415.98	3913.38
416.17	4021.04
416.36	3882.95
416.55	4133.39
416.74	4203.60
416.93	4032.74
417.12	4051.47
417.31	4212.96
417.50	4093.60
417.69	4299.56
417.88	4292.54
418.07	4245.73
418.26	4173.18
418.45	4381.48
418.64	4470.42
418.83	4341.69
419.02	4479.79
419.21	4353.40
419.39	4465.74
419.58	4465.74
419.77	4514.89
419.96	4641.28
420.15	4533.62
420.34	4557.02
420.53	4648.30
420.72	4652.98
420.91	4528.94
421.10	4540.64
421.29	4660.01
421.48	4622.56
421.67	4624.90
421.86	4727.88
422.05	4835.55
422.24	4711.50
422.43	4739.58
422.61	4926.83
422.80	4950.23
422.99	4908.10
423.18	4936.19
423.37	4961.94
423.56	4896.40
423.75	4858.95
423.94	4856.61
424.13	4608.51
424.32	4875.34
424.50	4908.10
424.69	4990.02
424.88	4943.21
425.07	4830.87
425.26	4926.83
425.45	4912.78
425.64	4966.62
425.83	4858.95
426.01	5032.15
426.20	4954.91
426.39	4983.00
426.58	4929.17
426.77	4945.55
426.96	5144.50
427.15	5034.49
427.33	5217.05
427.52	5195.99
427.71	5219.39
427.90	5088.32
428.09	5125.77
428.28	5322.38
428.46	5284.93
428.65	5238.12
428.84	5612.60
429.03	5458.13
429.22	5273.23
429.40	5401.96
429.59	5282.59
429.78	5263.86
429.97	5390.25
430.16	5380.89
430.34	5474.51
430.53	5558.77
430.72	5572.82
430.91	5619.63
431.10	5476.85
431.28	5701.54
431.47	5811.55
431.66	5788.14
431.85	5650.05
432.03	5781.12
432.22	5937.94
432.41	5912.19
432.60	5809.21
432.79	5823.25
432.97	5853.68
433.16	5893.47
433.35	6155.61
433.54	6047.94
433.72	6118.16
433.91	6019.86
434.10	6176.67
434.28	6106.46
434.47	6054.97
434.66	6059.65
434.85	6148.59
435.03	6251.57
435.22	6326.47
435.41	6445.84
435.59	6328.81
435.78	6300.72
435.97	6497.33
436.16	6370.94
436.34	6394.34
436.53	6558.18
436.72	6679.89
436.90	6476.26
437.09	6572.22
437.28	6424.77
437.46	6649.46
437.65	6485.62
437.84	6703.29
438.02	6684.57
438.21	6736.06
438.40	6630.74
438.58	6825.00
438.77	7056.72
438.96	6984.16
439.14	7204.17
439.33	7185.44
439.52	7246.30
439.70	7190.13
439.89	7178.42
440.08	7363.33
440.26	7393.75
440.45	7258.00
440.63	7470.99
440.82	7616.10
441.01	7513.12
441.19	7625.47
441.38	7719.09
441.57	7609.08
441.75	7754.19
441.94	7913.35
442.12	7833.77
442.31	8056.12
442.50	8004.63
442.68	8119.32
442.87	7941.44
443.05	7971.86
443.24	8131.02
443.43	8119.32
443.61	8147.40
443.80	8456.36
443.98	8051.44
444.17	7864.20
444.35	8109.96
444.54	8248.05
444.73	8196.56
444.91	8355.71
445.10	8346.35
445.28	8301.88
445.47	8334.65
445.65	8177.83
445.84	8397.84
446.02	8482.10
446.21	8334.65
446.39	8524.23
446.58	8336.99
446.77	8461.04
446.95	8133.36
447.14	8226.98
447.32	8416.57
447.51	8486.78
447.69	8463.38
447.88	8409.54
448.06	8341.67
448.25	8814.46
448.43	8374.44
448.62	8514.87
448.80	8444.65
448.99	8549.98
449.17	8603.81
449.36	8627.21
449.54	8819.14
449.73	8889.35
449.91	8868.29
450.10	8990.00
450.28	9039.15
450.46	9013.40
450.65	9085.96
450.83	9025.11
451.02	9132.77
451.20	9177.24
451.39	8966.59
451.57	8957.23
451.76	9097.66
451.94	9041.49
452.13	9415.98
452.31	9334.06
452.49	9146.81
452.68	9430.02
452.86	9137.45
453.05	9322.35
453.23	9643.01
453.42	9500.23
453.60	9376.19
453.78	9530.66
453.97	9312.99
454.15	9399.59
454.34	9509.60
454.52	9643.01
454.70	9565.77
454.89	9628.96
455.07	9678.12
455.26	9802.16
455.44	9881.74
455.62	10040.90
455.81	9703.86
455.99	9837.27
456.17	10162.61
456.36	10073.67
456.54	9863.02
456.73	9998.77
456.91	10476.24
457.09	10148.56
457.28	10532.41
457.46	10335.81
457.64	10326.44
457.83	10349.85
458.01	10448.15
458.19	10497.30
458.38	10485.60
458.56	10541.77
458.74	10703.27
458.93	10635.39
459.11	10714.97
459.29	10555.82
459.48	10855.40
459.66	10848.38
459.84	10569.86
460.03	10906.90
460.21	10630.71
460.39	10920.94
460.57	10974.77
460.76	11005.20
460.94	10998.18
461.12	11140.95
461.31	10963.07
461.49	11140.95
461.67	11159.67
461.85	11290.74
462.04	11096.48
462.22	11800.98
462.40	11557.57
462.59	11487.35
462.77	11365.64
462.95	11541.18
463.13	11611.40
463.32	11623.10
463.50	11831.41
463.68	11672.25
463.86	11833.75
464.05	11410.11
464.23	11571.61
464.41	11726.08
464.59	11536.50
464.78	12229.30
464.96	11976.52
465.14	11840.77
465.32	11754.17
465.50	12121.63
465.69	12046.74
465.87	12224.62
466.05	12072.48
466.23	12088.87
466.41	12177.81
466.60	12491.44
466.78	11922.69
466.96	11976.52
467.14	12187.17
467.32	12353.35
467.51	12428.24
467.69	12018.65
467.87	12304.20
468.05	12503.14
468.23	12388.46
468.41	12233.98
468.60	12545.27
468.78	12622.51
468.96	12491.44
469.14	12683.36
469.32	13041.46
469.50	12547.61
469.69	13022.74
469.87	13170.19
470.05	12940.82
470.23	13081.25
470.41	13006.36
470.59	13296.58
470.77	13238.07
470.95	13378.50
471.14	13284.88
471.32	13036.78
471.50	13617.24
471.68	13446.38
471.86	13420.63
472.04	13818.52
472.22	14193.01
472.40	13486.17
472.58	13708.52
472.77	13816.18
472.95	14010.45
473.13	14380.25
473.31	14008.11
473.49	14073.64
473.67	13881.72
473.85	14202.37
474.03	14415.36
474.21	14551.11
474.39	14937.30
474.57	14347.48
474.75	14647.07
474.93	14981.77
475.12	14747.72
475.30	15108.16
475.48	14871.76
475.66	15037.94
475.84	14958.36
476.02	15398.38
476.20	15176.03
476.38	15529.45
476.56	15674.57
476.74	15838.41
476.92	15779.89
477.10	15580.95
477.28	16187.14
477.46	15793.94
477.64	16491.41
477.82	16585.04
478.00	17011.01
478.18	16641.21
478.36	17123.36
478.54	16966.54
478.72	17099.95
478.90	17139.74
479.08	17610.19
479.26	17652.32
479.44	17270.81
479.62	17862.97
479.80	17851.27
479.98	18066.60
480.16	18417.68
480.34	18031.49
480.52	18317.03
480.70	18347.46
480.88	17935.53
481.06	18670.45
481.24	18574.49
481.41	19089.41
481.59	19311.76
481.77	19651.14
481.95	19686.25
482.13	19520.07
482.31	19599.65
482.49	20140.31
482.67	19978.81
482.85	20266.70
483.03	20666.93
483.21	20680.97
483.39	21003.97
483.57	20809.70
483.74	20922.05
483.92	21390.16
484.10	21341.00
484.28	21380.79
484.46	21862.94
484.64	22089.98
484.82	21647.61
485.00	22080.61
485.18	22771.07
485.35	22396.59
485.53	22920.87
485.71	23030.87
485.89	23363.23
486.07	23030.87
486.25	23218.11
486.43	23611.32
486.61	23749.42
486.78	23735.37
486.96	24063.05
487.14	24489.03
487.32	24362.64
487.50	25008.62
487.68	24699.67
487.85	24915.00
488.03	25380.77
488.21	25790.36
488.39	26003.35
488.57	25954.20
488.75	26019.74
488.92	26242.09
489.10	26302.94
489.28	26611.89
489.46	26787.43
489.64	26951.27
489.81	27386.61
489.99	27419.38
490.17	27571.51
490.35	28224.52
490.53	28119.20
490.70	28208.14
490.88	27969.40
491.06	28811.99
491.24	28460.91
491.41	28931.36
491.59	29039.03
491.77	29104.56
491.95	29645.23
492.13	29280.10
492.30	29809.06
492.48	29783.32
492.66	29827.79
492.84	30438.67
493.01	30536.97
493.19	30520.59
493.37	30801.45
493.54	31047.21
493.72	30979.33
493.90	31498.93
494.08	31803.20
494.25	31819.58
494.43	32093.43
494.61	32470.25
494.79	32060.66
494.96	31967.04
495.14	32261.94
495.32	32840.06
495.49	32807.29
495.67	32929.00
495.85	33036.66
496.02	33464.98
496.20	33764.57
496.38	33694.35
496.55	33895.64
496.73	34543.97
496.91	34380.13
497.09	34712.49
497.26	34728.87
497.44	34724.19
497.62	35215.70
497.79	35629.98
497.97	35379.54
498.14	35990.42
498.32	36030.21
498.50	35679.13
498.67	36212.77
498.85	36261.92
499.03	36701.94
499.20	36240.86
499.38	36655.13
499.56	36847.05
499.73	36928.97
499.91	37127.92
500.08	37373.67
500.26	36968.76
500.44	37380.70
500.61	37699.01
500.79	37839.44
500.97	37762.20
501.14	38541.60
501.32	38220.95
501.49	38506.49
501.67	38724.16
501.84	38630.54
502.02	38684.37
502.20	38953.54
502.37	39093.97
502.55	38749.91
502.72	39009.71
502.90	39569.10
503.07	39110.35
503.25	39440.37
503.43	39419.30
503.60	40076.99
503.78	39707.19
503.95	40107.42
504.13	40247.85
504.30	40758.09
504.48	40231.47
504.65	40407.01
504.83	40591.91
505.01	41069.38
505.18	41357.27
505.36	41006.19
505.53	41038.95
505.71	41399.40
505.88	41741.11
506.06	41918.99
506.23	41549.19
506.41	41537.49
506.58	41596.00
506.76	41773.88
506.93	42183.48
507.11	41993.89
507.28	42424.55
507.46	42490.09
507.63	42583.71
507.81	42808.40
507.98	42784.99
508.16	43009.68
508.33	42649.24
508.50	43365.45
508.68	43082.24
508.85	43852.28
509.03	43491.83
509.20	43901.43
509.38	44280.60
509.55	43831.21
509.73	44196.34
509.90	44591.89
510.08	44802.53
510.25	44357.83
510.42	44509.97
510.60	44774.45
510.77	44823.60
510.95	45146.59
511.12	44739.34
511.30	45055.31
511.47	44914.88
511.64	44928.92
511.82	45382.99
511.99	45350.22
512.17	45820.67
512.34	45546.82
512.51	46073.45
512.69	46167.07
512.86	45888.54
513.04	46555.60
513.21	46473.68
513.38	46153.02
513.56	46784.97
513.73	46871.57
513.90	46735.82
514.08	46700.71
514.25	47051.79
514.43	47367.76
514.60	47157.11
514.77	47400.53
514.95	47470.75
515.12	47372.44
515.29	47107.96
515.47	47442.66
515.64	48095.67
515.81	47585.43
515.99	48133.12
516.16	48308.66
516.33	48245.46
516.51	48458.45
516.68	48631.65
516.85	48671.44
517.03	48456.11
517.20	48875.07
517.37	48423.34
517.54	48765.06
517.72	48692.50
517.89	49209.76
518.06	48945.28
518.24	49116.14
518.41	49443.82
518.58	49429.77
518.75	49191.04
518.93	49556.16
519.10	48919.54
519.27	49581.91
519.45	49434.45
519.62	49745.75
519.79	49572.55
519.96	50209.17
520.14	49682.55
520.31	49970.44
520.48	50038.31
520.65	50059.38
520.83	50368.33
521.00	50089.80
521.17	50555.57
521.34	50930.06
521.52	50691.32
521.69	50560.25
521.86	51330.29
522.03	51058.79
522.20	51327.95
522.38	51416.89
522.55	51269.43
522.72	50981.55
522.89	50831.75
523.07	51327.95
523.24	51547.96
523.41	51470.72
523.58	51412.21
523.75	51288.16
523.92	51807.76
524.10	51819.46
524.27	51852.23
524.44	51569.02
524.61	51903.72
524.78	52135.43
524.96	52165.86
525.13	52027.77
525.30	52509.92
525.47	52385.87
525.64	52107.35
525.81	52528.64
525.98	52299.27
526.16	52409.28
526.33	52470.13
526.50	52701.84
526.67	52589.50
526.84	52926.53
527.01	52385.87
527.18	52896.11
527.36	52865.68
527.53	53055.26
527.70	53366.55
527.87	52959.30
528.04	53057.60
528.21	53439.11
528.38	53001.43
528.55	53497.62
528.72	53230.80
528.89	53347.83
529.07	53214.42
529.24	53186.33
529.41	53446.13
529.58	53542.10
529.75	53514.01
529.92	53670.82
530.09	53799.55
530.26	53729.34
530.43	53972.75
530.60	53787.85
530.77	53890.83
530.94	53968.07
531.11	53698.91
531.28	53787.85
531.46	54071.06
531.63	53982.12
531.80	54211.49
531.97	54410.43
532.14	54223.19
532.31	54071.06
532.48	54520.44
532.65	54286.39
532.82	54094.46
532.99	54485.33
533.16	54522.78
533.33	54600.02
533.50	54710.02
533.67	54728.75
533.84	54454.90
534.01	54649.17
534.18	54759.17
534.35	54986.21
534.52	54850.45
534.69	55199.19
534.86	55208.56
535.03	54995.57
535.20	54894.92
535.37	55217.92
535.54	55203.88
535.71	55016.63
535.88	55234.30
536.05	55255.37
536.22	55468.36
536.38	55517.51
536.55	55356.01
536.72	55402.82
536.89	55402.82
537.06	55557.30
537.23	55482.40
537.40	55309.20
537.57	55458.99
537.74	55821.78
537.91	55838.16
538.08	55779.65
538.25	55358.35
538.42	55648.58
538.59	56133.07
538.75	55681.34
538.92	55959.87
539.09	56179.88
539.26	56072.21
539.43	56048.81
539.60	56161.15
539.77	55779.65
539.94	56207.97
540.11	56198.60
540.28	56172.86
540.44	56247.75
540.61	56170.52
540.78	56362.44
540.95	56285.20
541.12	56343.72
541.29	56243.07
541.46	56261.80
541.62	56451.38
541.79	56655.01
541.96	56205.62
542.13	56479.47
542.30	56535.64
542.47	56584.79
542.63	56769.69
542.80	56652.67
542.97	56935.87
543.14	57193.33
543.31	56970.98
543.48	56949.92
543.64	57195.67
543.81	57205.03
543.98	57123.11
544.15	57013.11
544.32	57436.75
544.48	57406.32
544.65	57265.89
544.82	57343.12
544.99	56996.73
545.16	57521.01
545.32	57109.07
545.49	57375.89
545.66	57682.50
545.83	57172.27
546.00	57663.78
546.16	57549.09
546.33	57401.64
546.50	57202.69
546.67	57631.01
546.83	57172.27
547.00	57712.93
547.17	57645.05
547.34	57677.82
547.50	57874.43
547.67	57946.98
547.84	57813.57
548.00	58101.46
548.17	57921.24
548.34	57982.09
548.51	57939.96
548.67	57951.66
548.84	58108.48
549.01	57890.81
549.18	58122.52
549.34	58120.18
549.51	58099.12
549.68	58166.99
549.84	58286.36
550.01	58337.85
550.18	58148.27
550.34	58267.64
550.51	58433.81
550.68	58377.64
550.84	58183.38
551.01	58408.07
551.18	58410.41
551.34	58471.26
551.51	58387.00
551.68	58607.01
551.84	58408.07
552.01	58155.29
552.18	58326.15
552.34	58454.88
552.51	58677.23
552.68	58501.69
552.84	58625.74
553.01	58791.92
553.18	58677.23
553.34	58721.70
553.51	58597.65
553.67	58789.58
553.84	59009.59
554.01	58635.10
554.17	58906.60
554.34	58798.94
554.51	58777.87
554.67	59110.23
554.84	58972.14
555.00	58880.86
555.17	59061.08
555.33	58871.49
555.50	58946.39
555.67	58773.19
555.83	58698.30
556.00	58988.52
556.16	59189.81
556.33	59140.66
556.50	59196.83
556.66	59201.51
556.83	58983.84
556.99	59430.88
557.16	59302.15
557.32	59428.54
557.49	59458.97
557.65	59283.43
557.82	59248.32
557.98	59358.33
558.15	59545.57
558.32	59491.74
558.48	59269.39
558.65	59547.91
558.81	59465.99
558.98	59573.66
559.14	59561.95
559.31	59421.52
559.47	59468.33
559.64	59468.33
559.80	59543.23
559.97	59444.93
560.13	59449.61
560.30	59473.01
560.46	59760.90
560.63	59735.15
560.79	59599.40
560.96	59870.90
561.12	59496.42
561.29	59580.68
561.45	59763.24
561.61	59632.17
561.78	59709.41
561.94	59686.00
562.11	59831.11
562.27	59688.34
562.44	59615.79
562.60	59877.93
562.77	59934.10
562.93	59669.62
563.10	59826.43
563.26	59763.24
563.42	60142.41
563.59	59765.58
563.75	60095.60
563.92	59922.40
564.08	59695.36
564.24	60090.91
564.41	59969.21
564.57	59990.27
564.74	59936.44
564.90	59924.74
565.07	60177.51
565.23	60074.53
565.39	59856.86
565.56	60020.70
565.72	60140.07
565.88	60079.21
566.05	60053.47
566.21	60233.69
566.38	60156.45
566.54	60123.68
566.70	60247.73
566.87	60357.74
567.03	60128.36
567.19	60404.55
567.36	60069.85
567.52	60137.72
567.68	60430.29
567.85	60317.95
568.01	60383.48
568.17	60126.02
568.34	60273.48
568.50	60041.76
568.66	60306.24
568.83	60331.99
568.99	60341.35
569.15	60191.56
569.32	60203.26
569.48	60280.50
569.64	60378.80
569.81	60331.99
569.97	60266.45
570.13	60355.39
570.30	60104.96
570.46	60413.91
570.62	60261.77
570.78	60430.29
570.95	60221.98
571.11	60434.97
571.27	60367.10
571.43	60495.83
571.60	60456.04
571.76	60413.91
571.92	60463.06
572.09	60566.04
572.25	60425.61
572.41	60561.36
572.57	60615.19
572.74	60573.06
572.90	60556.68
573.06	60343.69
573.22	60458.38
573.38	60514.55
573.55	60528.59
573.71	60444.33
573.87	60521.57
574.03	60367.10
574.20	60502.85
574.36	60250.07
574.52	60795.42
574.68	60720.52
574.84	60640.94
575.01	60542.64
575.17	60498.17
575.33	60502.85
575.49	60434.97
575.65	60732.22
575.82	60692.43
575.98	60486.46
576.14	60921.80
576.30	60699.45
576.46	60523.91
576.62	60804.78
576.79	60652.64
576.95	60505.19
577.11	60542.64
577.27	60568.38
577.43	60849.25
577.59	60559.02
577.75	60601.15
577.92	60530.93
578.08	60697.11
578.24	60694.77
578.40	60891.38
578.56	61097.34
578.72	60563.70
578.88	60823.50
579.04	60996.70
579.21	60685.41
579.37	60809.46
579.53	60900.74
579.69	60570.72
579.85	60561.36
580.01	60790.73
580.17	60846.91
580.33	60755.63
580.49	60678.39
580.65	60886.70
580.82	60837.54
580.98	60603.49
581.14	60800.10
581.30	60828.18
581.46	60870.31
581.62	60816.48
581.78	60786.05
581.94	60996.70
582.10	60846.91
582.26	60884.36
582.42	60856.27
582.58	60774.35
582.74	60804.78
582.90	60804.78
583.06	60945.21
583.22	60577.75
583.38	61066.92
583.54	60823.50
583.70	60938.19
583.86	60779.03
584.02	60659.66
584.18	60919.46
584.34	60980.32
584.50	60879.67
584.66	60762.65
584.82	60701.79
584.98	61034.15
585.14	60987.34
585.30	60734.56
585.46	60917.12
585.62	61034.15
585.78	61125.43
585.94	60561.36
586.10	61153.52
586.26	60832.86
586.42	61027.13
586.58	61106.71
586.74	60781.37
586.90	60835.20
587.06	60987.34
587.22	61085.64
587.38	60795.42
587.54	61237.78
587.70	60954.57
587.86	61022.45
588.02	60807.12
588.18	60821.16
588.34	60982.66
588.49	60874.99
