SpectraSuite Data File
++++++++++++++++++++++++++++++++++++
Date: Fri Oct 25 11:25:28 EDT 2013
User: price-jones
Dark Spectrum Present: No
Reference Spectrum Present: No
Number of Sampled Component Spectra: 1
Spectrometers: USB2+H05261
Integration Time (usec): 100000 (USB2+H05261)
Spectra Averaged: 1 (USB2+H05261)
Boxcar Smoothing: 0 (USB2+H05261)
Correct for Electrical Dark: No (USB2+H05261)
Strobe/Lamp Enabled: No (USB2+H05261)
Correct for Detector Non-linearity: No (USB2+H05261)
Correct for Stray Light: No (USB2+H05261)
Number of Pixels in Processed Spectrum: 2048
>>>>>Begin Processed Spectral Data<<<<<
365.73	224.69
365.92	224.69
366.12	224.69
366.32	175.54
366.52	191.92
366.72	156.82
366.91	191.92
367.11	84.26
367.31	42.13
367.51	156.82
367.70	156.82
367.90	124.05
368.10	135.75
368.30	163.84
368.49	135.75
368.69	198.95
368.89	170.86
369.09	154.48
369.28	117.03
369.48	250.44
369.68	231.71
369.87	210.65
370.07	98.30
370.27	229.37
370.47	362.78
370.66	557.05
370.86	683.44
371.06	648.33
371.25	664.71
371.45	657.69
371.65	624.92
371.84	688.12
372.04	737.27
372.24	760.67
372.44	634.29
372.63	788.76
372.83	788.76
373.03	730.25
373.22	814.51
373.42	795.78
373.62	763.01
373.81	770.04
374.01	856.64
374.21	793.44
374.40	823.87
374.60	784.08
374.79	812.17
374.99	894.08
375.19	861.32
375.38	931.53
375.58	816.85
375.78	912.81
375.97	884.72
376.17	938.55
376.37	870.68
376.56	868.34
376.76	835.57
376.95	847.27
377.15	894.08
377.35	922.17
377.54	889.40
377.74	917.49
377.93	910.47
378.13	957.28
378.33	1008.77
378.52	910.47
378.72	922.17
378.91	954.94
379.11	908.13
379.31	898.77
379.50	896.43
379.70	1025.15
379.89	933.87
380.09	891.74
380.28	898.77
380.48	1060.26
380.68	978.34
380.87	999.41
381.07	940.90
381.26	945.58
381.46	1015.79
381.65	1029.84
381.85	999.41
382.04	1013.45
382.24	1090.69
382.43	1104.73
382.63	1011.11
382.83	1053.24
383.02	1071.97
383.22	1109.41
383.41	1123.46
383.61	1043.88
383.80	1203.04
384.00	1121.12
384.19	1067.28
384.39	1121.12
384.58	1188.99
384.78	1165.59
384.97	1036.86
385.17	1135.16
385.36	1217.08
385.56	1238.14
385.75	1167.93
385.95	1207.72
386.14	1196.01
386.34	1144.52
386.53	1186.65
386.72	1156.22
386.92	1294.32
387.11	1203.04
387.31	1343.47
387.50	1198.35
387.70	1153.88
387.89	1207.72
388.09	1313.04
388.28	1219.42
388.48	1259.21
388.67	1294.32
388.86	1341.13
389.06	1350.49
389.25	1289.64
389.45	1315.38
389.64	1385.60
389.84	1350.49
390.03	1313.04
390.22	1394.96
390.42	1364.53
390.61	1277.93
390.81	1352.83
391.00	1303.68
391.19	1526.03
391.39	1500.28
391.58	1490.92
391.78	1511.99
391.97	1437.09
392.16	1504.96
392.36	1596.25
392.55	1511.99
392.75	1465.18
392.94	1570.50
393.13	1507.30
393.33	1519.01
393.52	1521.35
393.71	1598.59
393.91	1603.27
394.10	1584.54
394.29	1575.18
394.49	1619.65
394.68	1547.09
394.88	1692.21
395.07	1547.09
395.26	1619.65
395.46	1643.06
395.65	1710.93
395.84	1813.92
396.04	1724.97
396.23	1722.63
396.42	1795.19
396.62	1724.97
396.81	1774.13
397.00	1774.13
397.19	1783.49
397.39	1783.49
397.58	1806.89
397.77	1701.57
397.97	1895.83
398.16	1879.45
398.35	1863.07
398.55	1907.54
398.74	1970.73
398.93	1968.39
399.12	1961.37
399.32	1963.71
399.51	1886.47
399.70	1961.37
399.90	1912.22
400.09	1914.56
400.28	1933.28
400.47	2050.31
400.67	2122.87
400.86	2008.18
401.05	2024.56
401.24	2125.21
401.44	2092.44
401.63	2087.76
401.82	2289.04
402.01	2092.44
402.21	2078.40
402.40	2165.00
402.59	2181.38
402.78	2111.16
402.97	2155.63
403.17	2132.23
403.36	2303.09
403.55	2300.75
403.74	2342.88
403.93	2310.11
404.13	2394.37
404.32	2366.28
404.51	2370.96
404.70	2377.98
404.89	2359.26
405.09	2495.01
405.28	2370.96
405.47	2455.22
405.66	2476.29
405.85	2532.46
406.05	2588.63
406.24	2616.72
406.43	2614.38
406.62	2583.95
406.81	2729.06
407.00	2614.38
407.20	2642.46
407.39	2527.78
407.58	2710.34
407.77	2663.53
407.96	2775.88
408.15	2853.11
408.34	2715.02
408.54	2864.82
408.73	2773.53
408.92	2689.28
409.11	2897.58
409.30	2920.99
409.49	2754.81
409.68	2970.14
409.87	2949.08
410.07	2972.48
410.26	2862.48
410.45	3080.14
410.64	2949.08
410.83	3038.02
411.02	3021.63
411.21	3246.32
411.40	3124.62
411.59	3141.00
411.78	3255.69
411.98	3159.72
412.17	3157.38
412.36	3290.79
412.55	3339.94
412.74	3400.80
412.93	3379.73
413.12	3255.69
413.31	3506.12
413.50	3501.44
413.69	3545.91
413.88	3513.14
414.07	3524.85
414.26	3599.74
414.45	3620.81
414.64	3667.62
414.83	3611.45
415.02	3651.24
415.22	3768.26
415.41	3817.41
415.60	3999.98
415.79	3908.69
415.98	4025.72
416.17	3978.91
416.36	3939.12
416.55	4063.17
416.74	3988.27
416.93	4133.39
417.12	4056.15
417.31	4077.21
417.50	4117.00
417.69	4229.35
417.88	4255.09
418.07	4252.75
418.26	4196.58
418.45	4332.33
418.64	4461.06
418.83	4369.78
419.02	4409.57
419.21	4461.06
419.39	4479.79
419.58	4479.79
419.77	4418.93
419.96	4514.89
420.15	4730.22
420.34	4613.20
420.53	4535.96
420.72	4657.67
420.91	4685.75
421.10	4676.39
421.29	4678.73
421.48	4603.83
421.67	4664.69
421.86	4795.76
422.05	4709.16
422.24	4746.61
422.43	4774.69
422.61	4880.02
422.80	4947.89
422.99	4880.02
423.18	4898.74
423.37	4865.97
423.56	4650.64
423.75	4901.08
423.94	4929.17
424.13	4493.83
424.32	4739.58
424.50	4889.38
424.69	5078.96
424.88	5081.30
425.07	5055.56
425.26	4713.84
425.45	5011.09
425.64	4968.96
425.83	4919.81
426.01	5107.05
426.20	5032.15
426.39	5107.05
426.58	5004.07
426.77	4905.76
426.96	5085.98
427.15	5242.80
427.33	5163.22
427.52	5233.44
427.71	5217.05
427.90	5282.59
428.09	5153.86
428.28	5268.55
428.46	5280.25
428.65	5350.46
428.84	5439.40
429.03	5554.09
429.22	5345.78
429.40	5462.81
429.59	5530.69
429.78	5294.29
429.97	5158.54
430.16	5516.64
430.34	5540.05
430.53	5575.16
430.72	5514.30
430.91	5610.26
431.10	5589.20
431.28	5717.93
431.47	5846.66
431.66	5827.93
431.85	5619.63
432.03	5954.32
432.22	5977.73
432.41	5994.11
432.60	5788.14
432.79	5818.57
432.97	5921.56
433.16	5930.92
433.35	5886.45
433.54	6186.04
433.72	6179.01
433.91	6216.46
434.10	5961.34
434.28	6099.44
434.47	6017.52
434.66	6291.36
434.85	6125.18
435.03	6235.19
435.22	6202.42
435.41	6513.71
435.59	6310.08
435.78	6410.73
435.97	6289.02
436.16	6328.81
436.34	6478.60
436.53	6427.11
436.72	6471.58
436.90	6314.77
437.09	6483.28
437.28	6509.03
437.46	6532.44
437.65	6628.40
437.84	6722.02
438.02	6665.85
438.21	6850.75
438.40	6595.63
438.58	6932.67
438.77	7101.19
438.96	6897.56
439.14	7049.69
439.33	7070.76
439.52	7094.16
439.70	6981.82
439.89	7253.32
440.08	7311.83
440.26	7321.20
440.45	7227.57
440.63	7485.03
440.82	7747.17
441.01	7433.54
441.19	7559.93
441.38	7555.25
441.57	7679.30
441.75	7906.33
441.94	7805.69
442.12	7826.75
442.31	7929.74
442.50	7857.18
442.68	8060.80
442.87	7889.95
443.05	8081.87
443.24	8086.55
443.43	8077.19
443.61	8229.32
443.80	8500.83
443.98	8119.32
444.17	7920.37
444.35	8016.33
444.54	8397.84
444.73	8236.35
444.91	8360.39
445.10	8231.66
445.28	8402.52
445.47	8018.68
445.65	8191.88
445.84	8428.27
446.02	8454.02
446.21	8201.24
446.39	8299.54
446.58	8248.05
446.77	8601.47
446.95	8053.78
447.14	8519.55
447.32	8372.10
447.51	8444.65
447.69	8491.46
447.88	8280.82
448.06	8432.95
448.25	8587.43
448.43	8498.49
448.62	8489.12
448.80	8531.25
448.99	8601.47
449.17	8748.92
449.36	8800.41
449.54	8805.10
449.73	8912.76
449.91	9025.11
450.10	8933.82
450.28	9214.69
450.46	9011.06
450.65	9055.53
450.83	9032.13
451.02	9034.47
451.20	9062.55
451.39	9050.85
451.57	8938.51
451.76	8922.12
451.94	9114.05
452.13	9233.41
452.31	9359.80
452.49	9235.75
452.68	9310.65
452.86	9411.29
453.05	9479.17
453.23	9628.96
453.42	9289.59
453.60	9263.84
453.78	9430.02
453.97	9291.93
454.15	9678.12
454.34	9385.55
454.52	9720.24
454.70	9657.05
454.89	9692.16
455.07	9729.61
455.26	9902.81
455.44	9954.30
455.62	9863.02
455.81	9996.43
455.99	9902.81
456.17	10080.69
456.36	10052.60
456.54	10003.45
456.73	10012.81
456.91	10265.59
457.09	10267.93
457.28	10509.01
457.46	10171.97
457.64	10607.31
457.83	10572.20
458.01	10328.78
458.19	10520.71
458.38	10504.32
458.56	10775.83
458.74	10736.04
458.93	10574.54
459.11	10628.37
459.29	10513.69
459.48	11023.92
459.66	10736.04
459.84	10855.40
460.03	10916.26
460.21	10902.22
460.39	10988.82
460.57	10923.28
460.76	10960.73
460.94	11246.27
461.12	11035.63
461.31	11159.67
461.49	10974.77
461.67	11138.61
461.85	11239.25
462.04	11169.04
462.22	11747.15
462.40	11489.69
462.59	11339.90
462.77	11602.04
462.95	11693.32
463.13	11651.19
463.32	11772.89
463.50	11564.59
463.68	11721.40
463.86	11775.24
464.05	11587.99
464.23	11796.30
464.41	11871.20
464.59	11527.14
464.78	11983.54
464.96	11838.43
465.14	11868.86
465.32	11948.43
465.50	11861.84
465.69	12210.57
465.87	12112.27
466.05	11967.16
466.23	12147.38
466.41	12212.92
466.60	12430.59
466.78	11997.59
466.96	12138.02
467.14	12248.02
467.32	12451.65
467.51	12683.36
467.69	12198.87
467.87	12472.71
468.05	12531.23
468.23	12435.27
468.41	12512.50
468.60	12432.93
468.78	12479.74
468.96	12823.80
469.14	12781.67
469.32	12856.56
469.50	12615.49
469.69	13142.11
469.87	13008.70
470.05	13214.66
470.23	13097.64
470.41	13114.02
470.59	13373.82
470.77	13095.30
470.95	12814.43
471.14	13301.26
471.32	13099.98
471.50	13568.09
471.68	13729.58
471.86	13563.40
472.04	13813.84
472.22	14085.34
472.40	13621.92
472.58	13865.33
472.77	13888.74
472.95	14031.51
473.13	14530.05
473.31	13982.36
473.49	14349.82
473.67	14305.35
473.85	14281.95
474.03	14736.01
474.21	14668.14
474.39	14644.73
474.57	14668.14
474.75	14745.38
474.93	14766.44
475.12	14890.49
475.30	15110.50
475.48	14876.44
475.66	15096.46
475.84	15061.35
476.02	15480.30
476.20	15405.41
476.38	15737.76
476.56	15990.54
476.74	15822.02
476.92	15892.24
477.10	15522.43
477.28	15957.77
477.46	16058.42
477.64	16484.39
477.82	16601.42
478.00	16821.43
478.18	16503.12
478.36	16688.02
478.54	16753.55
478.72	17114.00
478.90	17422.95
479.08	17172.51
479.26	17598.49
479.44	17385.50
479.62	17561.04
479.80	17752.96
479.98	17776.37
480.16	18310.01
480.34	18293.63
480.52	18307.67
480.70	18452.78
480.88	18183.62
481.06	18890.46
481.24	18476.19
481.41	19171.33
481.59	19229.84
481.77	19257.93
481.95	19407.72
482.13	19513.05
482.31	19508.37
482.49	20175.42
482.67	20142.65
482.85	20573.31
483.03	20327.55
483.21	20629.48
483.39	20772.25
483.57	20856.51
483.74	20814.38
483.92	21263.77
484.10	21202.91
484.28	21544.63
484.46	21694.43
484.64	22061.89
484.82	21626.55
485.00	22345.09
485.18	22735.96
485.35	22745.33
485.53	22534.68
485.71	22885.76
485.89	23323.44
486.07	23119.81
486.25	23161.94
486.43	23569.19
486.61	23683.88
486.78	23873.46
486.96	24004.53
487.14	24353.27
487.32	24442.21
487.50	24814.36
487.68	24863.51
487.85	25214.59
488.03	25474.39
488.21	25628.87
488.39	25811.43
488.57	25944.84
488.75	26373.16
488.92	26214.00
489.10	26340.39
489.28	26761.69
489.46	26611.89
489.64	26962.97
489.81	27859.40
489.99	27505.98
490.17	27498.95
490.35	28112.17
490.53	28135.58
490.70	28112.17
490.88	28067.70
491.06	28758.16
491.24	28678.58
491.41	29095.20
491.59	29022.64
491.77	28966.47
491.95	29560.97
492.13	29406.49
492.30	29820.77
492.48	29895.66
492.66	30195.25
492.84	30307.60
493.01	30609.53
493.19	30574.42
493.37	30876.35
493.54	30874.01
493.72	31405.31
493.90	31463.82
494.08	31585.53
494.25	32002.14
494.43	31655.75
494.61	31784.48
494.79	32669.20
494.96	32568.55
495.14	32243.22
495.32	32980.49
495.49	32985.17
495.67	32533.45
495.85	33647.54
496.02	33376.04
496.20	33890.96
496.38	34148.42
496.55	33703.71
496.73	34651.63
496.91	34352.04
497.09	34471.41
497.26	34663.33
497.44	34965.26
497.62	35154.85
497.79	35702.53
497.97	34829.51
498.14	35606.57
498.32	35981.06
498.50	36383.63
498.67	36210.43
498.85	36112.13
499.03	36528.74
499.20	36734.71
499.38	36589.59
499.56	36769.82
499.73	37116.22
499.91	37170.05
500.08	37373.67
500.26	37371.33
500.44	37383.04
500.61	37794.97
500.79	38188.18
500.97	37909.66
501.14	38553.30
501.32	38429.26
501.49	38277.12
501.67	38279.46
501.84	39147.80
502.02	38469.04
502.20	38897.36
502.37	39264.83
502.55	38937.15
502.72	39192.27
502.90	39056.52
503.07	39550.37
503.25	39700.17
503.43	39428.66
503.60	39859.32
503.78	40212.74
503.95	39990.39
504.13	40308.71
504.30	40407.01
504.48	40437.44
504.65	40474.88
504.83	40559.14
505.01	40758.09
505.18	41127.89
505.36	41322.16
505.53	40814.26
505.71	41399.40
505.88	40989.80
506.06	41366.63
506.23	41820.69
506.41	41406.42
506.58	42122.62
506.76	42087.51
506.93	42195.18
507.11	42026.66
507.28	42295.82
507.46	42635.20
507.63	43000.32
507.81	43320.98
507.98	42784.99
508.16	43210.97
508.33	43143.09
508.50	43049.47
508.68	43426.30
508.85	43761.00
509.03	43267.14
509.20	43826.53
509.38	44432.73
509.55	44147.18
509.73	44093.35
509.90	44229.10
510.08	44406.98
510.25	44554.44
510.42	44446.77
510.60	44711.25
510.77	45305.75
510.95	45214.47
511.12	45270.64
511.30	44989.78
511.47	45160.64
511.64	45347.88
511.82	45720.02
511.99	45507.04
512.17	45925.99
512.34	45649.81
512.51	46124.94
512.69	46602.41
512.86	46213.88
513.04	46791.99
513.21	46251.33
513.38	46719.43
513.56	46822.42
513.73	46614.11
513.90	46770.93
514.08	47122.01
514.25	47070.51
514.43	47461.38
514.60	47274.14
514.77	47122.01
514.95	47847.57
515.12	47213.29
515.29	47381.80
515.47	47906.08
515.64	48193.97
515.81	47674.37
515.99	48032.47
516.16	48444.41
516.33	48350.79
516.51	48428.02
516.68	48210.35
516.85	48423.34
517.03	48690.16
517.20	48846.98
517.37	48423.34
517.54	48533.35
517.72	48774.42
517.89	48914.86
518.06	48783.79
518.24	49144.23
518.41	49331.47
518.58	49432.11
518.75	48964.01
518.93	49361.90
519.10	49045.93
519.27	49635.74
519.45	49516.37
519.62	49729.36
519.79	49677.87
519.96	49530.42
520.14	49841.71
520.31	49886.18
520.48	49883.84
520.65	49881.50
520.83	50485.36
521.00	50532.17
521.17	50260.66
521.34	50291.09
521.52	50656.21
521.69	50410.46
521.86	50777.92
522.03	50602.38
522.20	51129.00
522.38	50930.06
522.55	51412.21
522.72	51239.01
522.89	51056.45
523.07	51482.42
523.24	51505.83
523.41	51550.30
523.58	51466.04
523.75	51547.96
523.92	51370.08
524.10	51683.71
524.27	52074.58
524.44	51452.00
524.61	51896.70
524.78	52130.75
524.96	51573.70
525.13	52090.96
525.30	52301.61
525.47	52133.09
525.64	52346.08
525.81	52463.11
525.98	52486.51
526.16	52591.84
526.33	52390.55
526.50	52711.20
526.67	52582.48
526.84	52905.47
527.01	52898.45
527.18	52523.96
527.36	52697.16
527.53	53020.16
527.70	53394.64
527.87	53251.87
528.04	53066.97
528.21	52999.09
528.38	53354.85
528.55	53263.57
528.72	53347.83
528.89	53176.97
529.07	53518.69
529.24	53296.34
529.41	53427.41
529.58	53574.86
529.75	53551.46
529.92	53724.66
530.09	53415.71
530.26	53848.71
530.43	54101.48
530.60	53394.64
530.77	53633.38
530.94	54216.17
531.11	53977.43
531.28	53778.49
531.46	54010.20
531.63	54094.46
531.80	54038.29
531.97	54391.71
532.14	54298.09
532.31	54375.33
532.48	54375.33
532.65	54595.34
532.82	54281.70
532.99	54251.28
533.16	54543.84
533.33	54927.69
533.50	54628.10
533.67	54585.97
533.84	54728.75
534.01	54372.99
534.18	54843.43
534.35	55236.64
534.52	54810.67
534.69	55033.02
534.86	55091.53
535.03	54822.37
535.20	55061.10
535.37	55435.59
535.54	55309.20
535.71	55124.30
535.88	55157.06
536.05	55264.73
536.22	55208.56
536.38	55444.95
536.55	55496.44
536.72	55217.92
536.89	55217.92
537.06	55496.44
537.23	55367.71
537.40	55388.78
537.57	55569.00
537.74	55728.16
537.91	55580.70
538.08	55742.20
538.25	55498.78
538.42	55667.30
538.59	56119.02
538.75	55770.28
538.92	55985.61
539.09	56060.51
539.26	56072.21
539.43	56018.38
539.60	56193.92
539.77	56214.99
539.94	56224.35
540.11	56296.91
540.28	56158.81
540.44	56317.97
540.61	56357.76
540.78	56069.87
540.95	56112.00
541.12	56322.65
541.29	56360.10
541.46	56376.48
541.62	56376.48
541.79	56465.42
541.96	56477.13
542.13	56348.40
542.30	56420.95
542.47	56605.86
542.63	56671.39
542.80	56706.50
542.97	56961.62
543.14	57162.90
543.31	57010.77
543.48	57069.28
543.64	57099.71
543.81	57118.43
543.98	57088.01
544.15	57366.53
544.32	57263.55
544.48	57226.10
544.65	57322.06
544.82	57308.02
544.99	57090.35
545.16	57242.48
545.32	57230.78
545.49	57382.91
545.66	57471.85
545.83	57478.88
546.00	57640.37
546.16	57481.22
546.33	57338.44
546.50	57425.04
546.67	57535.05
546.83	57415.68
547.00	57602.92
547.17	57523.35
547.34	57799.53
547.50	57705.91
547.67	57851.02
547.84	57729.31
548.00	57954.00
548.17	57907.19
548.34	57771.44
548.51	58293.38
548.67	58120.18
548.84	57832.30
549.01	57958.69
549.18	58145.93
549.34	58166.99
549.51	58220.83
549.68	58113.16
549.84	58082.73
550.01	58162.31
550.18	58073.37
550.34	58176.36
550.51	58209.12
550.68	58211.46
550.84	58241.89
551.01	58511.05
551.18	58342.53
551.34	58344.87
551.51	58230.19
551.68	58300.40
551.84	58497.01
552.01	58351.90
552.18	58387.00
552.34	58347.21
552.51	58733.40
552.68	58361.26
552.84	58506.37
553.01	58960.44
553.18	58581.27
553.34	58707.66
553.51	58564.88
553.67	58756.81
553.84	58904.26
554.01	58897.24
554.17	58836.39
554.34	58852.77
554.51	58986.18
554.67	58871.49
554.84	58824.68
555.00	58812.98
555.17	58829.37
555.33	59084.48
555.50	58850.43
555.67	58794.26
555.83	58967.46
556.00	59075.12
556.16	59316.20
556.33	59227.26
556.50	59049.38
556.66	59161.72
556.83	58960.44
556.99	59302.15
557.16	59405.14
557.32	59276.41
557.49	59365.35
557.65	59143.00
557.82	59037.67
557.98	58976.82
558.15	59330.24
558.32	59311.52
558.48	59229.60
558.65	59353.65
558.81	59276.41
558.98	59332.58
559.14	59480.03
559.31	59433.22
559.47	59604.08
559.64	59700.04
559.80	59648.55
559.97	59639.19
560.13	59465.99
560.30	59590.04
560.46	59686.00
560.63	59767.92
560.79	59423.86
560.96	59807.71
561.12	59674.30
561.29	59681.32
561.45	59725.79
561.61	59810.05
561.78	59477.69
561.94	59805.37
562.11	59742.17
562.27	59636.85
562.44	59833.46
562.60	59985.59
562.77	59788.98
562.93	59847.50
563.10	59971.55
563.26	59667.28
563.42	60200.92
563.59	59742.17
563.75	59849.84
563.92	60175.17
564.08	59786.64
564.24	60034.74
564.41	60037.08
564.57	60088.57
564.74	60200.92
564.90	60147.09
565.07	60179.85
565.23	60130.70
565.39	60055.81
565.56	60018.36
565.72	60009.00
565.88	60065.17
566.05	59997.29
566.21	60219.64
566.38	60030.06
566.54	60060.49
566.70	60303.90
566.87	60353.05
567.03	59971.55
567.19	60161.13
567.36	60231.35
567.52	60154.11
567.68	60528.59
567.85	60315.61
568.01	60285.18
568.17	60273.48
568.34	60205.60
568.50	60116.66
568.66	60191.56
568.83	60411.57
568.99	60095.60
569.15	60144.75
569.32	60399.86
569.48	60198.58
569.64	60399.86
569.81	60207.94
569.97	60006.65
570.13	60336.67
570.30	60437.31
570.46	60409.23
570.62	60289.86
570.78	60364.76
570.95	60308.58
571.11	60568.38
571.27	60350.71
571.43	60336.67
571.60	60734.56
571.76	60439.65
571.92	60449.02
572.09	60322.63
572.25	60739.24
572.41	60491.15
572.57	60346.03
572.74	60573.06
572.90	60282.84
573.06	60334.33
573.22	60537.96
573.38	60502.85
573.55	60732.22
573.71	60734.56
573.87	60809.46
574.03	60470.08
574.20	60537.96
574.36	60530.93
574.52	60535.62
574.68	60479.44
574.84	60643.28
575.01	60519.23
575.17	60392.84
575.33	60566.04
575.49	60708.82
575.65	60561.36
575.82	60633.92
575.98	60657.32
576.14	60860.95
576.30	60652.64
576.46	60563.70
576.62	60589.45
576.79	60647.96
576.95	60458.38
577.11	60741.58
577.27	60828.18
577.43	60832.86
577.59	60673.71
577.75	60755.63
577.92	60540.30
578.08	60514.55
578.24	60837.54
578.40	60750.94
578.56	60945.21
578.72	60811.80
578.88	60757.97
579.04	60977.98
579.21	60687.75
579.37	61055.21
579.53	60736.90
579.69	60573.06
579.85	60523.91
580.01	60657.32
580.17	60458.38
580.33	61059.90
580.49	60774.35
580.65	60832.86
580.82	60631.58
580.98	60610.51
581.14	60757.97
581.30	60811.80
581.46	60601.15
581.62	60856.27
581.78	60652.64
581.94	60846.91
582.10	60786.05
582.26	60804.78
582.42	60715.84
582.58	60837.54
582.74	60673.71
582.90	60776.69
583.06	60914.78
583.22	60741.58
583.38	60722.86
583.54	60676.05
583.70	60921.80
583.86	61017.77
584.02	60626.90
584.18	60851.59
584.34	60804.78
584.50	60945.21
584.66	60821.16
584.82	60610.51
584.98	60959.25
585.14	60975.64
585.30	60907.76
585.46	60917.12
585.62	60851.59
585.78	61024.79
585.94	60750.94
586.10	60985.00
586.26	61006.06
586.42	60685.41
586.58	61102.03
586.74	60968.61
586.90	60898.40
587.06	60879.67
587.22	61146.50
587.38	61078.62
587.54	60924.14
587.70	61015.43
587.86	60910.10
588.02	60830.52
588.18	61181.60
588.34	60800.10
588.49	60921.80
