SpectraSuite Data File
++++++++++++++++++++++++++++++++++++
Date: Fri Oct 25 11:22:41 EDT 2013
User: price-jones
Dark Spectrum Present: No
Reference Spectrum Present: No
Number of Sampled Component Spectra: 1
Spectrometers: USB2+H05261
Integration Time (usec): 100000 (USB2+H05261)
Spectra Averaged: 1 (USB2+H05261)
Boxcar Smoothing: 0 (USB2+H05261)
Correct for Electrical Dark: No (USB2+H05261)
Strobe/Lamp Enabled: No (USB2+H05261)
Correct for Detector Non-linearity: No (USB2+H05261)
Correct for Stray Light: No (USB2+H05261)
Number of Pixels in Processed Spectrum: 2048
>>>>>Begin Processed Spectral Data<<<<<
365.73	194.26
365.92	194.26
366.12	194.26
366.32	135.75
366.52	142.77
366.72	79.58
366.91	131.07
367.11	184.90
367.31	88.94
367.51	149.79
367.70	72.56
367.90	77.24
368.10	133.41
368.30	135.75
368.49	30.43
368.69	187.24
368.89	142.77
369.09	205.97
369.28	161.50
369.48	154.48
369.68	170.86
369.87	175.54
370.07	184.90
370.27	236.39
370.47	299.59
370.66	580.45
370.86	596.84
371.06	608.54
371.25	655.35
371.45	678.76
371.65	620.24
371.84	685.78
372.04	671.73
372.24	737.27
372.44	753.65
372.63	791.10
372.83	685.78
373.03	791.10
373.22	807.48
373.42	809.83
373.62	758.33
373.81	823.87
374.01	791.10
374.21	814.51
374.40	746.63
374.60	828.55
374.79	823.87
374.99	844.93
375.19	788.76
375.38	835.57
375.58	882.38
375.78	814.51
375.97	973.66
376.17	926.85
376.37	863.66
376.56	840.25
376.76	863.66
376.95	938.55
377.15	889.40
377.35	924.51
377.54	908.13
377.74	856.64
377.93	905.79
378.13	954.94
378.33	1004.09
378.52	849.61
378.72	915.15
378.91	894.08
379.11	866.00
379.31	968.98
379.50	917.49
379.70	1025.15
379.89	997.07
380.09	915.15
380.28	976.00
380.48	908.13
380.68	1001.75
380.87	987.71
381.07	1013.45
381.26	1036.86
381.46	987.71
381.65	1032.18
381.85	1008.77
382.04	1025.15
382.24	1109.41
382.43	1022.81
382.63	1093.03
382.83	1128.14
383.02	1151.54
383.22	1135.16
383.41	1055.58
383.61	1095.37
383.80	1231.12
384.00	1156.22
384.19	1083.67
384.39	1135.16
384.58	1163.25
384.78	1013.45
384.97	1144.52
385.17	1188.99
385.36	1137.50
385.56	1219.42
385.75	1144.52
385.95	1221.76
386.14	1181.97
386.34	1137.50
386.53	1160.91
386.72	1086.01
386.92	1235.80
387.11	1219.42
387.31	1249.85
387.50	1282.61
387.70	1245.16
387.89	1296.66
388.09	1256.87
388.28	1331.76
388.48	1383.26
388.67	1233.46
388.86	1266.23
389.06	1345.81
389.25	1411.34
389.45	1324.74
389.64	1362.19
389.84	1406.66
390.03	1387.94
390.22	1259.21
390.42	1385.60
390.61	1313.04
390.81	1427.73
391.00	1401.98
391.19	1453.47
391.39	1413.68
391.58	1533.05
391.78	1451.13
391.97	1455.81
392.16	1432.41
392.36	1586.88
392.55	1554.12
392.75	1500.28
392.94	1533.05
393.13	1572.84
393.33	1526.03
393.52	1460.49
393.71	1558.80
393.91	1596.25
394.10	1687.53
394.29	1661.78
394.49	1537.73
394.68	1708.59
394.88	1629.01
395.07	1636.03
395.26	1678.16
395.46	1647.74
395.65	1631.35
395.84	1743.70
396.04	1743.70
396.23	1795.19
396.42	1703.91
396.62	1750.72
396.81	1734.34
397.00	1846.68
397.19	1863.07
397.39	1750.72
397.58	1834.98
397.77	1783.49
397.97	1849.02
398.16	1785.83
398.35	1820.94
398.55	1806.89
398.74	1919.24
398.93	1994.14
399.12	1898.17
399.32	1879.45
399.51	1923.92
399.70	2062.01
399.90	1973.07
400.09	2029.24
400.28	2099.46
400.47	2064.35
400.67	2150.95
400.86	2045.63
401.05	2092.44
401.24	2040.95
401.44	2125.21
401.63	2071.37
401.82	2101.80
402.01	2136.91
402.21	2167.34
402.40	2160.31
402.59	2270.32
402.78	2256.28
402.97	2167.34
403.17	2129.89
403.36	2169.68
403.55	2298.41
403.74	2373.30
403.93	2382.67
404.13	2382.67
404.32	2387.35
404.51	2434.16
404.70	2427.14
404.89	2424.80
405.09	2417.77
405.28	2459.90
405.47	2462.24
405.66	2609.70
405.85	2668.21
406.05	2523.10
406.24	2565.23
406.43	2602.68
406.62	2551.18
406.81	2759.49
407.00	2572.25
407.20	2633.10
407.39	2640.12
407.58	2686.94
407.77	2752.47
407.96	2778.22
408.15	2775.88
408.34	2768.85
408.54	2818.00
408.73	2806.30
408.92	2860.13
409.11	2928.01
409.30	2899.92
409.49	3021.63
409.68	3009.93
409.87	3016.95
410.07	3094.19
410.26	3056.74
410.45	3094.19
410.64	3150.36
410.83	3056.74
411.02	3141.00
411.21	3208.87
411.40	3005.25
411.59	3157.38
411.78	3178.45
411.98	3225.26
412.17	3274.41
412.36	3372.71
412.55	3337.60
412.74	3449.95
412.93	3447.61
413.12	3302.50
413.31	3550.59
413.50	3581.02
413.69	3368.03
413.88	3674.64
414.07	3674.64
414.26	3618.47
414.45	3655.92
414.64	3672.30
414.83	3765.92
415.02	3707.41
415.22	3885.29
415.41	3955.51
415.60	3810.39
415.79	3929.76
415.98	4063.17
416.17	4112.32
416.36	3957.85
416.55	4011.68
416.74	4004.66
416.93	4109.98
417.12	4159.13
417.31	4168.49
417.50	4102.96
417.69	4271.48
417.88	4386.16
418.07	4280.84
418.26	4264.46
418.45	4545.32
418.64	4468.08
418.83	4344.03
419.02	4451.70
419.21	4379.14
419.39	4524.26
419.58	4465.74
419.77	4512.55
419.96	4575.75
420.15	4489.15
420.34	4498.51
420.53	4603.83
420.72	4732.56
420.91	4765.33
421.10	4812.14
421.29	4877.68
421.48	4734.90
421.67	4681.07
421.86	4727.88
422.05	4910.44
422.24	4723.20
422.43	4929.17
422.61	4983.00
422.80	4936.19
422.99	5020.45
423.18	5060.24
423.37	5020.45
423.56	4858.95
423.75	4950.23
423.94	4795.76
424.13	4662.35
424.32	4755.97
424.50	4931.51
424.69	5214.71
424.88	5006.41
425.07	4990.02
425.26	4983.00
425.45	4992.36
425.64	5029.81
425.83	5027.47
426.01	4954.91
426.20	5034.49
426.39	4978.32
426.58	5046.20
426.77	5153.86
426.96	5085.98
427.15	5151.52
427.33	5268.55
427.52	5289.61
427.71	5411.32
427.90	5097.69
428.09	5327.06
428.28	5394.93
428.46	5497.92
428.65	5462.81
428.84	5715.59
429.03	5535.37
429.22	5380.89
429.40	5486.22
429.59	5502.60
429.78	5526.00
429.97	5263.86
430.16	5467.49
430.34	5518.98
430.53	5624.31
430.72	5724.95
430.91	5603.24
431.10	5612.60
431.28	5797.51
431.47	5666.44
431.66	5951.98
431.85	5657.07
432.03	5884.11
432.22	5975.39
432.41	5912.19
432.60	5987.09
432.79	6005.81
432.97	6012.84
433.16	6050.28
433.35	5895.81
433.54	6139.23
433.72	6225.82
433.91	6136.88
434.10	6108.80
434.28	6169.65
434.47	6242.21
434.66	6232.85
434.85	6485.62
435.03	6345.19
435.22	6195.40
435.41	6424.77
435.59	6347.53
435.78	6314.77
435.97	6583.93
436.16	6429.45
436.34	6389.66
436.53	6548.82
436.72	6787.55
436.90	6363.92
437.09	6633.08
437.28	6530.09
437.46	6729.04
437.65	6920.96
437.84	6906.92
438.02	6796.92
438.21	6822.66
438.40	6677.55
438.58	7133.95
438.77	6977.14
438.96	7019.27
439.14	7096.50
439.33	6925.65
439.52	7297.79
439.70	7260.34
439.89	7506.10
440.08	7440.56
440.26	7583.34
440.45	7534.18
440.63	7557.59
440.82	7634.83
441.01	7674.62
441.19	7770.58
441.38	7819.73
441.57	7852.50
441.75	7864.20
441.94	8002.29
442.12	7957.82
442.31	8028.04
442.50	8299.54
442.68	8074.85
442.87	8091.23
443.05	8372.10
443.24	8273.79
443.43	8182.51
443.61	8234.00
443.80	8346.35
443.98	8166.13
444.17	8044.42
444.35	8198.90
444.54	8388.48
444.73	8432.95
444.91	8379.12
445.10	8351.03
445.28	8299.54
445.47	8304.22
445.65	8348.69
445.84	8407.20
446.02	8496.14
446.21	8470.40
446.39	8533.59
446.58	8383.80
446.77	8620.19
446.95	8381.46
447.14	8404.86
447.32	8657.64
447.51	8617.85
447.69	8643.60
447.88	8418.91
448.06	8531.25
448.25	8528.91
448.43	8716.16
448.62	8578.06
448.80	8526.57
448.99	8938.51
449.17	8723.18
449.36	8676.37
449.54	8975.95
449.73	9102.34
449.91	9104.68
450.10	9039.15
450.28	8964.25
450.46	8971.27
450.65	9018.08
450.83	9266.18
451.02	9266.18
451.20	9249.80
451.39	9308.31
451.57	9158.52
451.76	8910.42
451.94	9233.41
452.13	9338.74
452.31	9392.57
452.49	9380.87
452.68	9408.95
452.86	9261.50
453.05	9488.53
453.23	9504.92
453.42	9605.56
453.60	9551.73
453.78	9504.92
453.97	9469.81
454.15	9518.96
454.34	9570.45
454.52	9764.72
454.70	9788.12
454.89	9741.31
455.07	9982.38
455.26	9834.93
455.44	10047.92
455.62	9966.00
455.81	10040.90
455.99	9963.66
456.17	9989.41
456.36	10169.63
456.54	10239.84
456.73	10281.97
456.91	10553.48
457.09	10305.38
457.28	10630.71
457.46	10497.30
457.64	10576.88
457.83	10593.26
458.01	10345.17
458.19	10860.09
458.38	10733.70
458.56	10663.48
458.74	10839.02
458.93	10623.69
459.11	10850.72
459.29	10801.57
459.48	11000.52
459.66	10850.72
459.84	10843.70
460.03	11363.30
460.21	11169.04
460.39	11044.99
460.57	11185.42
460.76	11297.77
460.94	11133.93
461.12	11328.19
461.31	11047.33
461.49	11342.24
461.67	11403.09
461.85	11524.80
462.04	11321.17
462.22	11735.45
462.40	11616.08
462.59	11515.44
462.77	11602.04
462.95	11712.04
463.13	11726.08
463.32	11915.67
463.50	11726.08
463.68	11981.20
463.86	11910.99
464.05	11723.74
464.23	11716.72
464.41	11929.71
464.59	11552.88
464.78	12390.80
464.96	12248.02
465.14	11932.05
465.32	12346.33
465.50	12004.61
465.69	12334.62
465.87	12287.81
466.05	12236.32
466.23	12201.21
466.41	12351.01
466.60	12479.74
466.78	12086.53
466.96	12154.40
467.14	12421.22
467.32	12390.80
467.51	12451.65
467.69	12308.88
467.87	12425.90
468.05	12709.11
468.23	12414.20
468.41	12496.12
468.60	12758.26
468.78	12894.01
468.96	12744.22
469.14	12655.28
469.32	12966.57
469.50	12692.73
469.69	13104.66
469.87	13221.69
470.05	13081.25
470.23	13083.59
470.41	13214.66
470.59	13378.50
470.77	13085.94
470.95	13568.09
471.14	13528.30
471.32	13329.35
471.50	13589.15
471.68	13537.66
471.86	13954.27
472.04	13624.26
472.22	14178.97
472.40	13989.38
472.58	13923.85
472.77	13980.02
472.95	14202.37
473.13	14768.78
473.31	14139.18
473.49	14167.26
473.67	14078.32
473.85	14265.57
474.03	14766.44
474.21	14705.59
474.39	14857.72
474.57	14850.70
474.75	14951.34
474.93	14878.79
475.12	15110.50
475.30	15400.72
475.48	15087.09
475.66	15417.11
475.84	15166.67
476.02	15428.81
476.20	15389.02
476.38	15838.41
476.56	15978.84
476.74	16329.92
476.92	15974.16
477.10	15527.11
477.28	16250.34
477.46	16262.04
477.64	16496.10
477.82	16704.40
478.00	16985.27
478.18	16791.00
478.36	17130.38
478.54	17184.21
478.72	17345.71
478.90	17336.35
479.08	17741.26
479.26	17535.29
479.44	17795.09
479.62	17980.00
479.80	18207.03
479.98	17958.93
480.16	18539.38
480.34	18792.16
480.52	18780.46
480.70	18689.18
480.88	18490.23
481.06	18721.95
481.24	19061.32
481.41	19534.11
481.59	19524.75
481.77	19672.20
481.95	19452.19
482.13	20009.24
482.31	19922.64
482.49	20465.64
482.67	20360.32
482.85	20400.11
483.03	20688.00
483.21	20922.05
483.39	20798.00
483.57	21177.17
483.74	21170.15
483.92	21329.30
484.10	21502.50
484.28	21642.93
484.46	22331.05
484.64	22698.52
484.82	22600.21
485.00	22347.44
485.18	22764.05
485.35	23098.75
485.53	22628.30
485.71	23204.07
485.89	23534.09
486.07	23608.98
486.25	23536.43
486.43	23892.19
486.61	24161.35
486.78	24034.96
486.96	24243.27
487.14	24687.97
487.32	24739.46
487.50	24987.56
487.68	25097.56
487.85	25947.18
488.03	25795.04
488.21	25991.65
488.39	26214.00
488.57	26340.39
488.75	26412.95
488.92	26604.87
489.10	27000.42
489.28	26918.50
489.46	27566.83
489.64	27297.67
489.81	27665.13
489.99	28254.95
490.17	27983.44
490.35	28547.51
490.53	28533.47
490.70	28669.22
490.88	28498.36
491.06	29340.96
491.24	28914.98
491.41	29364.36
491.59	29518.84
491.77	29577.35
491.95	29956.52
492.13	29703.74
492.30	29809.06
492.48	30323.98
492.66	30518.25
492.84	30635.27
493.01	31087.00
493.19	31037.84
493.37	31400.63
493.54	31332.75
493.72	31569.15
493.90	31777.45
494.08	31981.08
494.25	32229.18
494.43	32231.52
494.61	32533.45
494.79	32236.20
494.96	32430.46
495.14	33048.36
495.32	33029.64
495.49	33525.83
495.67	33607.75
495.85	33853.51
496.02	34057.14
496.20	34286.51
496.38	34270.12
496.55	34010.32
496.73	35344.43
496.91	34838.87
497.09	35225.06
497.26	35587.85
497.44	34965.26
497.62	35440.39
497.79	36081.70
497.97	36149.57
498.14	36121.49
498.32	36535.76
498.50	36690.24
498.67	37148.98
498.85	36673.85
499.03	36790.88
499.20	36790.88
499.38	37174.73
499.56	36723.01
499.73	37900.29
499.91	37621.77
500.08	37689.65
500.26	37776.25
500.44	37869.87
500.61	37832.42
500.79	37928.38
500.97	38354.36
501.14	38665.65
501.32	38234.99
501.49	38934.81
501.67	39021.41
501.84	39189.93
502.02	38660.97
502.20	39346.75
502.37	39646.33
502.55	39531.65
502.72	39772.72
502.90	39990.39
503.07	39288.23
503.25	40442.12
503.43	39700.17
503.60	40175.30
503.78	40631.70
503.95	40877.46
504.13	40718.30
504.30	40903.20
504.48	40421.05
504.65	41111.51
504.83	41097.47
505.01	41497.70
505.18	41558.55
505.36	41799.63
505.53	41528.13
505.71	41684.94
505.88	42122.62
506.06	41944.74
506.23	42384.76
506.41	42080.49
506.58	42220.92
506.76	42740.52
506.93	42504.13
507.11	42939.47
507.28	43030.75
507.46	42944.15
507.63	43295.23
507.81	43412.26
507.98	42941.81
508.16	43428.64
508.33	43583.12
508.50	44079.31
508.68	43955.26
508.85	44378.90
509.03	43821.85
509.20	44189.31
509.38	44453.79
509.55	44460.82
509.73	45240.21
509.90	44542.74
510.08	44568.48
510.25	45130.21
510.42	45111.49
510.60	45408.73
510.77	45111.49
510.95	45745.77
511.12	45141.91
511.30	45478.95
511.47	45511.72
511.64	46347.29
511.82	46052.38
511.99	45705.98
512.17	45757.47
512.34	46146.00
512.51	46628.15
512.69	46658.58
512.86	46869.23
513.04	47290.52
513.21	46967.53
513.38	46672.62
513.56	47498.83
513.73	47246.05
513.90	47276.48
514.08	47391.17
514.25	47529.26
514.43	47686.07
514.60	47835.87
514.77	47590.11
514.95	47732.89
515.12	47760.97
515.29	47615.86
515.47	47934.17
515.64	48533.35
515.81	48226.74
515.99	48643.35
516.16	48507.60
516.33	48910.17
516.51	48999.12
516.68	48795.49
516.85	48872.73
517.03	48858.68
517.20	49219.13
517.37	49160.61
517.54	49265.94
517.72	49031.88
517.89	49516.37
518.06	49214.44
518.24	49591.27
518.41	49605.31
518.58	49298.70
518.75	49544.46
518.93	50071.08
519.10	49937.67
519.27	49977.46
519.45	50047.68
519.62	49958.73
519.79	50347.26
519.96	50204.49
520.14	50623.45
520.31	50473.65
520.48	50543.87
520.65	50663.24
520.83	50752.18
521.00	51185.18
521.17	50948.78
521.34	50899.63
521.52	51145.39
521.69	51084.53
521.86	51381.78
522.03	51255.39
522.20	51751.59
522.38	51983.30
522.55	51400.50
522.72	51487.10
522.89	51800.74
523.07	51901.38
523.24	51735.20
523.41	51774.99
523.58	51901.38
523.75	52289.91
523.92	51987.98
524.10	52217.35
524.27	52514.60
524.44	52472.47
524.61	52229.05
524.78	52238.42
524.96	52090.96
525.13	52594.18
525.30	52591.84
525.47	52758.02
525.64	52877.38
525.81	53027.18
525.98	52811.85
526.16	52982.71
526.33	53024.84
526.50	53310.38
526.67	52921.85
526.84	53237.83
527.01	52999.09
527.18	53158.25
527.36	53282.30
527.53	53221.44
527.70	53514.01
527.87	53406.34
528.04	53336.13
528.21	53600.61
528.38	53565.50
528.55	53677.85
528.72	53326.77
528.89	53914.24
529.07	53448.47
529.24	53560.82
529.41	53895.52
529.58	53708.27
529.75	53834.66
529.92	53975.09
530.09	54150.63
530.26	54117.87
530.43	54227.87
530.60	54031.27
530.77	54176.38
530.94	54260.64
531.11	54564.91
531.28	54550.87
531.46	54305.11
531.63	54518.10
531.80	54557.89
531.97	54721.72
532.14	54733.43
532.31	54529.80
532.48	54773.22
532.65	54941.74
532.82	54464.27
532.99	54728.75
533.16	55042.38
533.33	55035.36
533.50	55297.50
533.67	54845.77
533.84	54883.22
534.01	55042.38
534.18	55128.98
534.35	55440.27
534.52	55285.79
534.69	55505.80
534.86	55363.03
535.03	55121.96
535.20	55304.52
535.37	55365.37
535.54	55721.13
535.71	55576.02
535.88	55728.16
536.05	55632.19
536.22	55819.44
536.38	55906.04
536.55	55655.60
536.72	56011.36
536.89	55700.07
537.06	56020.72
537.23	55959.87
537.40	55667.30
537.57	55873.27
537.74	55866.25
537.91	56030.08
538.08	56268.82
538.25	55573.68
538.42	55957.53
538.59	56474.79
538.75	56207.97
538.92	56200.94
539.09	56250.09
539.26	56123.71
539.43	56289.88
539.60	56610.54
539.77	56229.03
539.94	56825.87
540.11	56420.95
540.28	56528.62
540.44	56692.46
540.61	56526.28
540.78	56779.06
540.95	56640.96
541.12	56671.39
541.29	56804.80
541.46	56474.79
541.62	56657.35
541.79	56989.70
541.96	56355.42
542.13	56720.54
542.30	56802.46
542.47	56856.29
542.63	57064.60
542.80	57214.40
542.97	57317.38
543.14	57329.08
543.31	57326.74
543.48	57116.09
543.64	57642.71
543.81	57265.89
543.98	57546.75
544.15	57422.70
544.32	57792.51
544.48	57944.64
544.65	57478.88
544.82	57446.11
544.99	57382.91
545.16	57593.56
545.32	57556.11
545.49	57872.09
545.66	57829.96
545.83	57801.87
546.00	58033.58
546.16	57705.91
546.33	57694.21
546.50	57542.07
546.67	57790.17
546.83	57516.32
547.00	58061.67
547.17	57874.43
547.34	57715.27
547.50	58108.48
547.67	58293.38
547.84	58064.01
548.00	58082.73
548.17	58295.72
548.34	58195.08
548.51	58569.57
548.67	58094.44
548.84	58248.91
549.01	58384.66
549.18	58314.45
549.34	58419.77
549.51	58340.19
549.68	58602.33
549.84	58532.12
550.01	58426.79
550.18	58401.05
550.34	58700.64
550.51	58691.27
550.68	58553.18
550.84	58564.88
551.01	58920.65
551.18	58773.19
551.34	58599.99
551.51	58791.92
551.68	58623.40
551.84	58719.36
552.01	58539.14
552.18	58976.82
552.34	58515.73
552.51	59000.22
552.68	58791.92
552.84	58845.75
553.01	58953.41
553.18	59030.65
553.34	59049.38
553.51	58831.71
553.67	58955.75
553.84	58941.71
554.01	58976.82
554.17	59171.08
554.34	59234.28
554.51	59105.55
554.67	59213.21
554.84	59208.53
555.00	59339.60
555.17	59187.47
555.33	59168.74
555.50	59138.32
555.67	59227.26
555.83	59079.80
556.00	59271.73
556.16	59526.84
556.33	59363.01
556.50	59250.66
556.66	59573.66
556.83	59334.92
556.99	59374.71
557.16	59547.91
557.32	59461.31
557.49	59681.32
557.65	59377.05
557.82	59615.79
557.98	59709.41
558.15	59683.66
558.32	59655.57
558.48	59540.89
558.65	59597.06
558.81	59503.44
558.98	59721.11
559.14	59849.84
559.31	59786.64
559.47	59707.07
559.64	59973.89
559.80	59714.09
559.97	59671.96
560.13	59622.81
560.30	60130.70
560.46	59884.95
560.63	60034.74
560.79	60013.68
560.96	59894.31
561.12	59906.01
561.29	60060.49
561.45	59922.40
561.61	59922.40
561.78	60062.83
561.94	59943.46
562.11	59999.63
562.27	60114.32
562.44	60013.68
562.60	60271.14
562.77	60334.33
562.93	60062.83
563.10	59896.65
563.26	60076.87
563.42	60219.64
563.59	60065.17
563.75	60184.54
563.92	60102.62
564.08	60282.84
564.24	60416.25
564.41	60355.39
564.57	60205.60
564.74	60484.12
564.90	60254.75
565.07	60062.83
565.23	60409.23
565.39	60292.20
565.56	60186.88
565.72	60411.57
565.88	60441.99
566.05	60390.50
566.21	60385.82
566.38	60369.44
566.54	60425.61
566.70	60601.15
566.87	60502.85
567.03	60320.29
567.19	60636.26
567.36	60486.46
567.52	60399.86
567.68	60537.96
567.85	60542.64
568.01	60392.84
568.17	60409.23
568.34	60533.28
568.50	60563.70
568.66	60266.45
568.83	60523.91
568.99	60362.42
569.15	60676.05
569.32	60582.43
569.48	60617.53
569.64	60764.99
569.81	60753.29
569.97	60514.55
570.13	60783.71
570.30	60566.04
570.46	60568.38
570.62	60662.00
570.78	60858.61
570.95	60640.94
571.11	60715.84
571.27	60650.30
571.43	60685.41
571.60	60732.22
571.76	60980.32
571.92	60757.97
572.09	60786.05
572.25	60652.64
572.41	60795.42
572.57	60729.88
572.74	60994.36
572.90	60626.90
573.06	60900.74
573.22	60694.77
573.38	60865.63
573.55	60865.63
573.71	61064.58
573.87	60935.85
574.03	60767.33
574.20	60736.90
574.36	60713.50
574.52	60818.82
574.68	60949.89
574.84	60954.57
575.01	60872.65
575.17	60860.95
575.33	60786.05
575.49	60788.39
575.65	61045.85
575.82	61109.05
575.98	60830.52
576.14	61190.97
576.30	61071.60
576.46	60938.19
576.62	60863.29
576.79	60774.35
576.95	60706.47
577.11	60917.12
577.27	60992.02
577.43	61015.43
577.59	60891.38
577.75	60954.57
577.92	60942.87
578.08	61066.92
578.24	60949.89
578.40	60949.89
578.56	61244.80
578.72	61062.24
578.88	61064.58
579.04	61221.39
579.21	61013.08
579.37	61169.90
579.53	61261.18
579.69	60844.57
579.85	61024.79
580.01	60966.27
580.17	60919.46
580.33	61125.43
580.49	61043.51
580.65	61052.87
580.82	61202.67
580.98	60853.93
581.14	60914.78
581.30	60994.36
581.46	61092.66
581.62	61127.77
581.78	61062.24
581.94	61188.63
582.10	60989.68
582.26	61029.47
582.42	60977.98
582.58	61057.56
582.74	61031.81
582.90	60992.02
583.06	60952.23
583.22	60823.50
583.38	61258.84
583.54	61111.39
583.70	61097.34
583.86	61064.58
584.02	60994.36
584.18	61275.22
584.34	61322.04
584.50	61029.47
584.66	60912.44
584.82	60954.57
584.98	61312.67
585.14	61188.63
585.30	61038.83
585.46	61153.52
585.62	61155.86
585.78	61282.25
585.94	61151.18
586.10	60999.04
586.26	60949.89
586.42	61277.57
586.58	61268.20
586.74	61347.78
586.90	61174.58
587.06	61237.78
587.22	61406.30
587.38	61357.14
587.54	61293.95
587.70	61343.10
587.86	61333.74
588.02	61228.41
588.18	61389.91
588.34	61214.37
588.49	61310.33
