SpectraSuite Data File
++++++++++++++++++++++++++++++++++++
Date: Fri Oct 25 11:25:57 EDT 2013
User: price-jones
Dark Spectrum Present: No
Reference Spectrum Present: No
Number of Sampled Component Spectra: 1
Spectrometers: USB2+H05261
Integration Time (usec): 100000 (USB2+H05261)
Spectra Averaged: 1 (USB2+H05261)
Boxcar Smoothing: 0 (USB2+H05261)
Correct for Electrical Dark: No (USB2+H05261)
Strobe/Lamp Enabled: No (USB2+H05261)
Correct for Detector Non-linearity: No (USB2+H05261)
Correct for Stray Light: No (USB2+H05261)
Number of Pixels in Processed Spectrum: 2048
>>>>>Begin Processed Spectral Data<<<<<
365.73	238.73
365.92	238.73
366.12	238.73
366.32	184.90
366.52	140.43
366.72	173.20
366.91	168.52
367.11	117.03
367.31	140.43
367.51	117.03
367.70	81.92
367.90	187.24
368.10	95.96
368.30	173.20
368.49	133.41
368.69	163.84
368.89	175.54
369.09	91.28
369.28	135.75
369.48	163.84
369.68	161.50
369.87	259.80
370.07	163.84
370.27	234.05
370.47	374.49
370.66	664.71
370.86	613.22
371.06	695.14
371.25	767.70
371.45	748.97
371.65	723.23
371.84	662.37
372.04	699.82
372.24	758.33
372.44	716.20
372.63	763.01
372.83	711.52
373.03	814.51
373.22	711.52
373.42	711.52
373.62	844.93
373.81	875.36
374.01	856.64
374.21	863.66
374.40	840.25
374.60	856.64
374.79	791.10
374.99	877.70
375.19	861.32
375.38	805.14
375.58	863.66
375.78	915.15
375.97	931.53
376.17	894.08
376.37	964.30
376.56	837.91
376.76	828.55
376.95	940.90
377.15	849.61
377.35	908.13
377.54	922.17
377.74	938.55
377.93	947.92
378.13	987.71
378.33	905.79
378.52	950.26
378.72	915.15
378.91	917.49
379.11	912.81
379.31	966.64
379.50	1004.09
379.70	1027.50
379.89	966.64
380.09	1006.43
380.28	912.81
380.48	990.05
380.68	950.26
380.87	1004.09
381.07	945.58
381.26	997.07
381.46	978.34
381.65	1001.75
381.85	1048.56
382.04	1046.22
382.24	1032.18
382.43	1102.39
382.63	1020.47
382.83	1048.56
383.02	1137.50
383.22	1153.88
383.41	1107.07
383.61	1132.82
383.80	1191.33
384.00	1170.27
384.19	1086.01
384.39	1057.92
384.58	1083.67
384.78	1132.82
384.97	1249.85
385.17	1226.44
385.36	1029.84
385.56	1125.80
385.75	1095.37
385.95	1193.67
386.14	1177.29
386.34	1095.37
386.53	1270.91
386.72	1170.27
386.92	1273.25
387.11	1308.36
387.31	1221.76
387.50	1226.44
387.70	1212.40
387.89	1282.61
388.09	1214.74
388.28	1299.00
388.48	1287.29
388.67	1294.32
388.86	1366.87
389.06	1366.87
389.25	1317.72
389.45	1320.06
389.64	1352.83
389.84	1399.64
390.03	1303.68
390.22	1441.77
390.42	1315.38
390.61	1376.24
390.81	1427.73
391.00	1406.66
391.19	1418.36
391.39	1399.64
391.58	1460.49
391.78	1474.54
391.97	1497.94
392.16	1483.90
392.36	1561.14
392.55	1509.65
392.75	1528.37
392.94	1474.54
393.13	1558.80
393.33	1502.62
393.52	1612.63
393.71	1476.88
393.91	1561.14
394.10	1603.27
394.29	1600.93
394.49	1645.40
394.68	1584.54
394.88	1591.56
395.07	1636.03
395.26	1614.97
395.46	1666.46
395.65	1790.51
395.84	1741.36
396.04	1778.81
396.23	1771.79
396.42	1727.32
396.62	1947.33
396.81	1785.83
397.00	1748.38
397.19	1797.53
397.39	1858.39
397.58	1802.21
397.77	1743.70
397.97	1849.02
398.16	1834.98
398.35	1893.49
398.55	1853.70
398.74	1898.17
398.93	2005.84
399.12	1963.71
399.32	1820.94
399.51	1952.01
399.70	1933.28
399.90	1984.77
400.09	2045.63
400.28	2047.97
400.47	2076.06
400.67	2085.42
400.86	2202.44
401.05	2052.65
401.24	2139.25
401.44	2134.57
401.63	2176.70
401.82	2062.01
402.01	2235.21
402.21	2204.78
402.40	2251.60
402.59	2326.49
402.78	2101.80
402.97	2157.97
403.17	2305.43
403.36	2235.21
403.55	2256.28
403.74	2340.54
403.93	2305.43
404.13	2317.13
404.32	2340.54
404.51	2392.03
404.70	2387.35
404.89	2363.94
405.09	2518.42
405.28	2436.50
405.47	2394.37
405.66	2452.88
405.85	2534.80
406.05	2530.12
406.24	2558.21
406.43	2562.89
406.62	2471.61
406.81	2614.38
407.00	2675.23
407.20	2530.12
407.39	2600.34
407.58	2595.65
407.77	2719.70
407.96	2857.79
408.15	2689.28
408.34	2729.06
408.54	2799.28
408.73	2813.32
408.92	2785.24
409.11	2860.13
409.30	2862.48
409.49	2885.88
409.68	2878.86
409.87	2862.48
410.07	3007.59
410.26	2986.52
410.45	2984.18
410.64	2883.54
410.83	3063.76
411.02	3019.29
411.21	3122.27
411.40	3040.36
411.59	3220.58
411.78	3087.17
411.98	3262.71
412.17	3272.07
412.36	3234.62
412.55	3391.44
412.74	3372.71
412.93	3447.61
413.12	3279.09
413.31	3576.34
413.50	3485.06
413.69	3506.12
413.88	3358.67
414.07	3609.11
414.26	3595.06
414.45	3695.71
414.64	3679.32
414.83	3742.52
415.02	3749.54
415.22	3810.39
415.41	3791.67
415.60	3791.67
415.79	3960.19
415.98	3882.95
416.17	3946.14
416.36	3983.59
416.55	3831.46
416.74	4002.32
416.93	4056.15
417.12	4175.52
417.31	4320.63
417.50	4053.81
417.69	4297.22
417.88	4203.60
418.07	4112.32
418.26	4259.78
418.45	4362.76
418.64	4437.66
418.83	4507.87
419.02	4400.21
419.21	4531.28
419.39	4641.28
419.58	4526.60
419.77	4402.55
419.96	4498.51
420.15	4601.49
420.34	4585.11
420.53	4571.07
420.72	4648.30
420.91	4662.35
421.10	4662.35
421.29	4751.29
421.48	4760.65
421.67	4770.01
421.86	4795.76
422.05	4643.62
422.24	4903.42
422.43	4751.29
422.61	4882.36
422.80	4734.90
422.99	4912.78
423.18	4926.83
423.37	4880.02
423.56	4997.04
423.75	4919.81
423.94	4849.59
424.13	4528.94
424.32	4781.71
424.50	4919.81
424.69	5156.20
424.88	5036.83
425.07	4873.00
425.26	4873.00
425.45	4971.30
425.64	4933.85
425.83	4910.44
426.01	4990.02
426.20	5036.83
426.39	5057.90
426.58	5081.30
426.77	5015.77
426.96	5146.84
427.15	5097.69
427.33	5095.35
427.52	5102.37
427.71	5165.56
427.90	5053.22
428.09	5298.97
428.28	5240.46
428.46	5350.46
428.65	5207.69
428.84	5434.72
429.03	5511.96
429.22	5291.95
429.40	5399.62
429.59	5434.72
429.78	5343.44
429.97	5348.12
430.16	5408.98
430.34	5462.81
430.53	5568.13
430.72	5771.76
430.91	5591.54
431.10	5603.24
431.28	5774.10
431.47	5757.72
431.66	5729.63
431.85	5607.92
432.03	5834.96
432.22	5937.94
432.41	5788.14
432.60	5907.51
432.79	5982.41
432.97	5961.34
433.16	6047.94
433.35	6071.35
433.54	5961.34
433.72	6132.20
433.91	6008.16
434.10	6228.17
434.28	6071.35
434.47	6113.48
434.66	6289.02
434.85	6181.35
435.03	6176.67
435.22	6134.54
435.41	6293.70
435.59	6293.70
435.78	6506.69
435.97	6537.12
436.16	6382.64
436.34	6340.51
436.53	6569.88
436.72	6558.18
436.90	6600.31
437.09	6483.28
437.28	6368.60
437.46	6551.16
437.65	6644.78
437.84	6633.08
438.02	6553.50
438.21	6679.89
438.40	6801.60
438.58	7080.12
438.77	7042.67
438.96	6953.73
439.14	6988.84
439.33	7096.50
439.52	7084.80
439.70	7075.44
439.89	7197.15
440.08	7328.22
440.26	7148.00
440.45	7255.66
440.63	7571.63
440.82	7625.47
441.01	7520.14
441.19	7463.97
441.38	7611.42
441.57	7482.69
441.75	7756.54
441.94	7960.16
442.12	7779.94
442.31	7864.20
442.50	8149.75
442.68	7957.82
442.87	8060.80
443.05	7985.91
443.24	8030.38
443.43	8145.06
443.61	8217.62
443.80	8163.79
443.98	7861.86
444.17	7770.58
444.35	8154.43
444.54	8201.24
444.73	8383.80
444.91	8121.66
445.10	8248.05
445.28	8369.76
445.47	8215.28
445.65	8269.11
445.84	8379.12
446.02	8226.98
446.21	8322.94
446.39	8472.74
446.58	8486.78
446.77	8386.14
446.95	8236.35
447.14	8505.51
447.32	8575.72
447.51	8276.13
447.69	8409.54
447.88	8435.29
448.06	8397.84
448.25	8552.32
448.43	8524.23
448.62	8449.33
448.80	8566.36
448.99	8657.64
449.17	8538.27
449.36	8578.06
449.54	8725.52
449.73	8762.97
449.91	9071.92
450.10	8994.68
450.28	9104.68
450.46	9137.45
450.65	9114.05
450.83	8992.34
451.02	8980.64
451.20	9144.47
451.39	9046.17
451.57	9128.09
451.76	9210.01
451.94	9305.97
452.13	9291.93
452.31	9193.62
452.49	9261.50
452.68	9231.07
452.86	9160.86
453.05	9603.22
453.23	9453.42
453.42	9345.76
453.60	9301.29
453.78	9549.39
453.97	9334.06
454.15	9334.06
454.34	9432.36
454.52	9575.13
454.70	9577.47
454.89	9385.55
455.07	9687.48
455.26	9673.43
455.44	9963.66
455.62	9867.70
455.81	9731.95
455.99	10047.92
456.17	10003.45
456.36	9888.76
456.54	10148.56
456.73	10148.56
456.91	10649.44
457.09	10363.89
457.28	10567.52
457.46	10335.81
457.64	10366.23
457.83	10682.20
458.01	10363.89
458.19	10576.88
458.38	10541.77
458.56	10684.55
458.74	10717.31
458.93	10707.95
459.11	10619.01
459.29	10544.11
459.48	10707.95
459.66	10768.80
459.84	10796.89
460.03	10967.75
460.21	11157.33
460.39	10832.00
460.57	10946.69
460.76	11192.44
460.94	11199.46
461.12	10958.39
461.31	11040.31
461.49	11232.23
461.67	11002.86
461.85	11382.03
462.04	11456.92
462.22	11726.08
462.40	11328.19
462.59	11250.96
462.77	11550.54
462.95	11777.58
463.13	11473.31
463.32	11477.99
463.50	11573.95
463.68	11639.48
463.86	11805.66
464.05	11372.66
464.23	11616.08
464.41	11929.71
464.59	11555.22
464.78	11871.20
464.96	11751.83
465.14	11815.02
465.32	12009.29
465.50	11925.03
465.69	12166.10
465.87	11962.48
466.05	12081.85
466.23	12231.64
466.41	12051.42
466.60	12503.14
466.78	12152.06
466.96	12208.23
467.14	12343.99
467.32	12093.55
467.51	12458.67
467.69	12217.60
467.87	12606.13
468.05	12606.13
468.23	12498.46
468.41	12353.35
468.60	12610.81
468.78	12938.48
468.96	12507.82
469.14	12507.82
469.32	12802.73
469.50	12393.14
469.69	12975.93
469.87	13041.46
470.05	13114.02
470.23	13092.96
470.41	13095.30
470.59	13146.79
470.77	13102.32
470.95	13219.35
471.14	13479.15
471.32	13221.69
471.50	13486.17
471.68	13640.64
471.86	13832.57
472.04	13619.58
472.22	14022.15
472.40	13757.67
472.58	13727.24
472.77	14099.39
472.95	13982.36
473.13	14441.11
473.31	14064.28
473.49	13905.12
473.67	14092.37
473.85	14576.86
474.03	14623.67
474.21	14642.39
474.39	14824.95
474.57	14560.47
474.75	14679.84
474.93	15117.52
475.12	14857.72
475.30	14850.70
475.48	15047.30
475.66	15208.80
475.84	15178.37
476.02	15140.93
476.20	15176.03
476.38	15559.88
476.56	16013.95
476.74	15969.48
476.92	15817.34
477.10	15861.81
477.28	16159.06
477.46	15999.90
477.64	16374.39
477.82	16418.86
478.00	16781.64
478.18	16678.66
478.36	16903.35
478.54	17195.92
478.72	17238.05
478.90	17284.86
479.08	17444.01
479.26	17455.72
479.44	17731.90
479.62	17755.30
479.80	18068.94
479.98	17996.38
480.16	18546.40
480.34	18223.41
480.52	18611.94
480.70	18497.25
480.88	18272.56
481.06	18679.82
481.24	18628.32
481.41	19026.21
481.59	19197.07
481.77	19164.31
481.95	19740.08
482.13	19384.32
482.31	19452.19
482.49	20011.58
482.67	20191.80
482.85	20367.34
483.03	20723.10
483.21	20622.46
483.39	20774.60
483.57	20624.80
483.74	21179.51
483.92	21362.07
484.10	21032.05
484.28	21607.83
484.46	21921.46
484.64	22195.30
484.82	21991.67
485.00	22328.71
485.18	22796.82
485.35	22906.82
485.53	22396.59
485.71	22946.61
485.89	23580.90
486.07	23620.69
486.25	23166.62
486.43	23627.71
486.61	23908.57
486.78	23981.13
486.96	24402.43
487.14	24554.56
487.32	24390.72
487.50	24790.95
487.68	24699.67
487.85	25160.76
488.03	25282.47
488.21	25979.95
488.39	25546.95
488.57	25923.77
488.75	26012.71
488.92	26279.54
489.10	26345.07
489.28	26347.41
489.46	26712.53
489.64	26867.01
489.81	27527.04
489.99	27281.28
490.17	27454.48
490.35	27960.04
490.53	28074.73
490.70	28109.83
490.88	28156.64
491.06	28776.89
491.24	28727.74
491.41	28687.95
491.59	29233.29
491.77	29280.10
491.95	29177.12
492.13	29659.27
492.30	29900.34
492.48	29963.54
492.66	29937.79
492.84	30506.54
493.01	30639.95
493.19	30424.62
493.37	30906.77
493.54	31168.91
493.72	31599.57
493.90	31321.05
494.08	31309.35
494.25	31639.36
494.43	32100.45
494.61	31840.65
494.79	32369.61
494.96	32154.28
495.14	32781.54
495.32	32910.27
495.49	32837.72
495.67	33134.96
495.85	33605.41
496.02	33362.00
496.20	33596.05
496.38	33928.41
496.55	34417.58
496.73	34630.57
496.91	34352.04
497.09	34808.45
497.26	34742.91
497.44	34740.57
497.62	35063.57
497.79	35480.18
497.97	35234.42
498.14	35793.81
498.32	36222.13
498.50	36048.93
498.67	36402.35
498.85	36271.28
499.03	36631.72
499.20	36378.95
499.38	36779.18
499.56	36978.12
499.73	37331.54
499.91	37186.43
500.08	37174.73
500.26	37031.96
500.44	37507.08
500.61	37787.95
500.79	37497.72
500.97	37923.70
501.14	38452.66
501.32	38394.15
501.49	38417.55
501.67	38330.95
501.84	38831.83
502.02	38724.16
502.20	39096.31
502.37	39100.99
502.55	39175.89
502.72	39206.31
502.90	39480.16
503.07	39573.78
503.25	39278.87
503.43	39606.55
503.60	39145.46
503.78	40084.01
503.95	40076.99
504.13	40500.63
504.30	40538.08
504.48	40591.91
504.65	40222.11
504.83	40526.38
505.01	40790.86
505.18	40938.31
505.36	41130.23
505.53	40928.95
505.71	41029.59
505.88	41184.07
506.06	41251.94
506.23	41914.31
506.41	41926.02
506.58	41975.17
506.76	42656.26
506.93	42443.27
507.11	42019.64
507.28	42274.76
507.46	42452.64
507.63	42822.44
507.81	43054.15
507.98	42817.76
508.16	43091.60
508.33	42941.81
508.50	43330.34
508.68	42923.08
508.85	43863.98
509.03	43466.09
509.20	44264.21
509.38	43782.06
509.55	44378.90
509.73	44205.70
509.90	44418.69
510.08	44404.64
510.25	44184.63
510.42	44467.84
510.60	45008.50
510.77	44748.70
510.95	45485.97
511.12	44732.32
511.30	44861.05
511.47	45350.22
511.64	45345.54
511.82	46066.42
511.99	45659.17
512.17	45352.56
512.34	45703.64
512.51	46124.94
512.69	46206.86
512.86	46061.74
513.04	46279.41
513.21	46574.32
513.38	46600.07
513.56	46707.73
513.73	46525.17
513.90	46724.11
514.08	46607.09
514.25	47129.03
514.43	47138.39
514.60	47161.79
514.77	47271.80
514.95	47206.26
515.12	47653.31
515.29	47627.56
515.47	47732.89
515.64	47866.30
515.81	47386.49
515.99	48039.50
516.16	48100.35
516.33	47908.43
516.51	48397.60
516.68	48095.67
516.85	48149.50
517.03	48872.73
517.20	48498.24
517.37	48968.69
517.54	49059.97
517.72	48725.27
517.89	48985.07
518.06	49188.70
518.24	48905.49
518.41	48851.66
518.58	48767.40
518.75	48968.69
518.93	49499.99
519.10	48652.72
519.27	49537.44
519.45	49628.72
519.62	49724.68
519.79	49736.38
519.96	49518.71
520.14	49979.80
520.31	50099.17
520.48	50251.30
520.65	50241.94
520.83	49944.69
521.00	50291.09
521.17	50274.71
521.34	50436.20
521.52	50518.12
521.69	50445.57
521.86	50625.79
522.03	51150.07
522.20	51189.86
522.38	51384.12
522.55	51349.01
522.72	50941.76
522.89	51086.87
523.07	51332.63
523.24	51341.99
523.41	51730.52
523.58	51241.35
523.75	51980.96
523.92	51545.62
524.10	51929.47
524.27	52053.51
524.44	51873.29
524.61	52121.39
524.78	51807.76
524.96	51969.26
525.13	52210.33
525.30	52128.41
525.47	52315.65
525.64	52088.62
525.81	52491.19
525.98	52704.18
526.16	52329.70
526.33	52369.49
526.50	52741.63
526.67	52259.48
526.84	52884.40
527.01	52765.04
527.18	52552.05
527.36	52856.32
527.53	53092.71
527.70	53272.93
527.87	53015.47
528.04	52828.23
528.21	53078.67
528.38	53148.88
528.55	53375.92
528.72	53116.12
528.89	53261.23
529.07	53352.51
529.24	53020.16
529.41	53848.71
529.58	53474.22
529.75	53415.71
529.92	53539.75
530.09	53930.62
530.26	53729.34
530.43	53977.43
530.60	53474.22
530.77	53860.41
530.94	54012.54
531.11	53846.36
531.28	53989.14
531.46	54120.21
531.63	54155.32
531.80	54218.51
531.97	54061.69
532.14	54391.71
532.31	54305.11
532.48	54234.89
532.65	54356.60
532.82	54239.57
532.99	54541.50
533.16	54607.04
533.33	54548.53
533.50	54670.23
533.67	54887.90
533.84	54482.99
534.01	54747.47
534.18	54691.30
534.35	55164.09
534.52	55016.63
534.69	54908.97
534.86	54880.88
535.03	54981.52
535.20	55011.95
535.37	55206.22
535.54	55304.52
535.71	54878.54
535.88	55290.48
536.05	55119.62
536.22	55634.53
536.38	55648.58
536.55	55398.14
536.72	55449.63
536.89	55561.98
537.06	55566.66
537.23	55646.24
537.40	55255.37
537.57	55564.32
537.74	55564.32
537.91	55997.32
538.08	55744.54
538.25	55402.82
538.42	55756.24
538.59	56037.11
538.75	55891.99
538.92	55824.12
539.09	56214.99
539.26	55842.84
539.43	55868.59
539.60	56093.28
539.77	56076.90
539.94	55994.98
540.11	56184.56
540.28	56299.25
540.44	56229.03
540.61	56282.86
540.78	56303.93
540.95	56308.61
541.12	56257.12
541.29	56282.86
541.46	56575.43
541.62	56502.87
541.79	56704.16
541.96	56479.47
542.13	56690.12
542.30	56783.74
542.47	56767.35
542.63	56659.69
542.80	56781.40
542.97	57017.79
543.14	57130.14
543.31	56863.32
543.48	57151.20
543.64	57202.69
543.81	57352.49
543.98	57258.87
544.15	57109.07
544.32	57333.76
544.48	57581.86
544.65	57331.42
544.82	57195.67
544.99	56982.68
545.16	57308.02
545.32	57329.08
545.49	57443.77
545.66	57490.58
545.83	57380.57
546.00	57689.52
546.16	57724.63
546.33	57439.09
546.50	57357.17
546.67	57701.23
546.83	57551.43
547.00	57701.23
547.17	57373.55
547.34	57652.08
547.50	57977.41
547.67	57722.29
547.84	57951.66
548.00	57996.13
548.17	58000.82
548.34	58087.42
548.51	58031.24
548.67	58049.97
548.84	58085.07
549.01	58040.60
549.18	58066.35
549.34	58141.25
549.51	58342.53
549.68	58260.62
549.84	58255.93
550.01	58293.38
550.18	58155.29
550.34	58527.44
550.51	58300.40
550.68	58487.65
550.84	58099.12
551.01	58578.93
551.18	58417.43
551.34	58410.41
551.51	58541.48
551.68	58625.74
551.84	58660.85
552.01	58394.03
552.18	58501.69
552.34	58246.57
552.51	58752.13
552.68	58330.83
552.84	58536.80
553.01	58658.51
553.18	58653.82
553.34	58693.61
553.51	58609.35
553.67	58588.29
553.84	58937.03
554.01	58848.09
554.17	59011.93
554.34	58770.85
554.51	58897.24
554.67	59098.53
554.84	58850.43
555.00	58958.09
555.17	58937.03
555.33	58927.67
555.50	58941.71
555.67	58887.88
555.83	58834.05
556.00	58876.18
556.16	59253.00
556.33	59105.55
556.50	59047.04
556.66	59337.26
556.83	58913.62
556.99	59175.76
557.16	59269.39
557.32	59332.58
557.49	59400.46
557.65	59213.21
557.82	59302.15
557.98	59391.09
558.15	59213.21
558.32	59465.99
558.48	59147.68
558.65	59290.45
558.81	59327.90
558.98	59529.19
559.14	59372.37
559.31	59693.02
559.47	59538.55
559.64	59491.74
559.80	59444.93
559.97	59531.53
560.13	59505.78
560.30	59641.53
560.46	59641.53
560.63	59636.85
560.79	59526.84
560.96	59838.14
561.12	59674.30
561.29	59540.89
561.45	59910.69
561.61	59657.91
561.78	59519.82
561.94	59669.62
562.11	59697.70
562.27	59852.18
562.44	59784.30
562.60	59957.50
562.77	59884.95
562.93	59770.26
563.10	59945.80
563.26	59868.56
563.42	60079.21
563.59	59887.29
563.75	60037.08
563.92	59877.93
564.08	59962.18
564.24	60100.28
564.41	60210.28
564.57	59969.21
564.74	60224.32
564.90	60252.41
565.07	60039.42
565.23	60355.39
565.39	59889.63
565.56	60016.02
565.72	60142.41
565.88	60081.55
566.05	60243.05
566.21	59901.33
566.38	60102.62
566.54	60186.88
566.70	60217.30
566.87	60184.54
567.03	60093.25
567.19	60254.75
567.36	60041.76
567.52	60362.42
567.68	60392.84
567.85	60247.73
568.01	60369.44
568.17	60179.85
568.34	60346.03
568.50	60168.15
568.66	60182.19
568.83	60331.99
568.99	60287.52
569.15	60154.11
569.32	60390.50
569.48	60250.07
569.64	60280.50
569.81	60385.82
569.97	60324.97
570.13	60303.90
570.30	60301.56
570.46	60299.22
570.62	60310.92
570.78	60266.45
570.95	60247.73
571.11	60472.42
571.27	60348.37
571.43	60427.95
571.60	60584.77
571.76	60427.95
571.92	60582.43
572.09	60516.89
572.25	60271.14
572.41	60409.23
572.57	60441.99
572.74	60720.52
572.90	60231.35
573.06	60346.03
573.22	60502.85
573.38	60762.65
573.55	60484.12
573.71	60676.05
573.87	60617.53
574.03	60617.53
574.20	60612.85
574.36	60437.31
574.52	60718.18
574.68	60699.45
574.84	60577.75
575.01	60788.39
575.17	60547.32
575.33	60556.68
575.49	60502.85
575.65	60458.38
575.82	60776.69
575.98	60795.42
576.14	60741.58
576.30	60849.25
576.46	60750.94
576.62	60568.38
576.79	60500.51
576.95	60411.57
577.11	60666.69
577.27	60772.01
577.43	60739.24
577.59	60488.80
577.75	60615.19
577.92	60491.15
578.08	60601.15
578.24	60601.15
578.40	60671.37
578.56	60877.33
578.72	60519.23
578.88	60837.54
579.04	60912.44
579.21	60774.35
579.37	60790.73
579.53	60893.72
579.69	60477.10
579.85	60626.90
580.01	60760.31
580.17	60544.98
580.33	60994.36
580.49	60762.65
580.65	60809.46
580.82	60673.71
580.98	60748.60
581.14	60697.11
581.30	60947.55
581.46	60643.28
581.62	60722.86
581.78	60671.37
581.94	60853.93
582.10	60816.48
582.26	60800.10
582.42	60713.50
582.58	60870.31
582.74	60624.56
582.90	60671.37
583.06	60961.59
583.22	60860.95
583.38	60874.99
583.54	60931.17
583.70	60853.93
583.86	60860.95
584.02	60842.23
584.18	61153.52
584.34	60760.31
584.50	60954.57
584.66	60860.95
584.82	60835.20
584.98	60912.44
585.14	60989.68
585.30	60828.18
585.46	60926.49
585.62	60846.91
585.78	61031.81
585.94	60704.13
586.10	60830.52
586.26	60956.91
586.42	60917.12
586.58	60903.08
586.74	60898.40
586.90	60977.98
587.06	61041.17
587.22	60977.98
587.38	60844.57
587.54	61048.19
587.70	61090.32
587.86	61015.43
588.02	60966.27
588.18	60874.99
588.34	61085.64
588.49	60933.51
