SpectraSuite Data File
++++++++++++++++++++++++++++++++++++
Date: Fri Oct 25 11:34:17 EDT 2013
User: price-jones
Dark Spectrum Present: No
Reference Spectrum Present: No
Number of Sampled Component Spectra: 1
Spectrometers: USB2+H05261
Integration Time (usec): 100000 (USB2+H05261)
Spectra Averaged: 1 (USB2+H05261)
Boxcar Smoothing: 0 (USB2+H05261)
Correct for Electrical Dark: No (USB2+H05261)
Strobe/Lamp Enabled: No (USB2+H05261)
Correct for Detector Non-linearity: No (USB2+H05261)
Correct for Stray Light: No (USB2+H05261)
Number of Pixels in Processed Spectrum: 2048
>>>>>Begin Processed Spectral Data<<<<<
365.73	255.12
365.92	255.12
366.12	255.12
366.32	245.76
366.52	145.11
366.72	180.22
366.91	168.52
367.11	142.77
367.31	210.65
367.51	175.54
367.70	196.60
367.90	212.99
368.10	187.24
368.30	114.69
368.49	196.60
368.69	203.63
368.89	212.99
369.09	245.76
369.28	198.95
369.48	224.69
369.68	182.56
369.87	252.78
370.07	259.80
370.27	257.46
370.47	287.89
370.66	498.53
370.86	510.24
371.06	521.94
371.25	568.75
371.45	482.15
371.65	538.32
371.84	526.62
372.04	559.39
372.24	613.22
372.44	575.77
372.63	580.45
372.83	594.50
373.03	566.41
373.22	601.52
373.42	603.86
373.62	622.58
373.81	624.92
374.01	645.99
374.21	645.99
374.40	655.35
374.60	587.47
374.79	613.22
374.99	608.54
375.19	681.10
375.38	674.07
375.58	667.05
375.78	704.50
375.97	653.01
376.17	711.52
376.37	688.12
376.56	594.50
376.76	685.78
376.95	718.54
377.15	713.86
377.35	709.18
377.54	662.37
377.74	657.69
377.93	631.94
378.13	608.54
378.33	697.48
378.52	753.65
378.72	699.82
378.91	716.20
379.11	692.80
379.31	683.44
379.50	671.73
379.70	723.23
379.89	760.67
380.09	704.50
380.28	641.31
380.48	777.06
380.68	690.46
380.87	571.09
381.07	664.71
381.26	763.01
381.46	727.91
381.65	744.29
381.85	678.76
382.04	718.54
382.24	793.44
382.43	875.36
382.63	809.83
382.83	779.40
383.02	840.25
383.22	840.25
383.41	858.98
383.61	816.85
383.80	873.02
384.00	901.11
384.19	812.17
384.39	828.55
384.58	802.80
384.78	844.93
384.97	823.87
385.17	851.96
385.36	798.12
385.56	816.85
385.75	840.25
385.95	805.14
386.14	849.61
386.34	844.93
386.53	894.08
386.72	751.31
386.92	887.06
387.11	809.83
387.31	868.34
387.50	802.80
387.70	847.27
387.89	858.98
388.09	898.77
388.28	880.04
388.48	821.53
388.67	980.68
388.86	905.79
389.06	868.34
389.25	910.47
389.45	985.37
389.64	854.30
389.84	1001.75
390.03	990.05
390.22	1022.81
390.42	966.64
390.61	971.32
390.81	987.71
391.00	980.68
391.19	1018.13
391.39	1015.79
391.58	1071.97
391.78	1025.15
391.97	1048.56
392.16	1032.18
392.36	1060.26
392.55	1001.75
392.75	1048.56
392.94	952.60
393.13	1022.81
393.33	990.05
393.52	1048.56
393.71	1095.37
393.91	1018.13
394.10	1013.45
394.29	1100.05
394.49	1050.90
394.68	1128.14
394.88	1048.56
395.07	1221.76
395.26	1078.99
395.46	1060.26
395.65	1149.20
395.84	1172.61
396.04	1348.15
396.23	1224.10
396.42	1109.41
396.62	1198.35
396.81	1186.65
397.00	1203.04
397.19	1261.55
397.39	1137.50
397.58	1214.74
397.77	1181.97
397.97	1144.52
398.16	1245.16
398.35	1200.69
398.55	1221.76
398.74	1329.42
398.93	1261.55
399.12	1266.23
399.32	1275.59
399.51	1203.04
399.70	1432.41
399.90	1357.51
400.09	1266.23
400.28	1369.21
400.47	1315.38
400.67	1306.02
400.86	1350.49
401.05	1352.83
401.24	1406.66
401.44	1373.89
401.63	1434.75
401.82	1425.39
402.01	1327.08
402.21	1481.56
402.40	1460.49
402.59	1481.56
402.78	1345.81
402.97	1472.20
403.17	1526.03
403.36	1565.82
403.55	1584.54
403.74	1500.28
403.93	1528.37
404.13	1561.14
404.32	1507.30
404.51	1626.67
404.70	1715.61
404.89	1675.82
405.09	1664.12
405.28	1619.65
405.47	1612.63
405.66	1647.74
405.85	1652.42
406.05	1626.67
406.24	1685.19
406.43	1657.10
406.62	1774.13
406.81	1760.08
407.00	1734.34
407.20	1696.89
407.39	1736.68
407.58	1820.94
407.77	1757.74
407.96	1842.00
408.15	1834.98
408.34	1895.83
408.54	1851.36
408.73	1795.19
408.92	1944.99
409.11	1870.09
409.30	1914.56
409.49	2076.06
409.68	1959.03
409.87	1987.11
410.07	1947.33
410.26	2043.29
410.45	1994.14
410.64	2050.31
410.83	2073.71
411.02	2015.20
411.21	2090.10
411.40	2080.74
411.59	2085.42
411.78	2050.31
411.98	2129.89
412.17	2099.46
412.36	2265.64
412.55	2275.00
412.74	2293.72
412.93	2300.75
413.12	2331.17
413.31	2246.91
413.50	2310.11
413.69	2298.41
413.88	2434.16
414.07	2401.39
414.26	2434.16
414.45	2532.46
414.64	2511.39
414.83	2473.95
415.02	2532.46
415.22	2572.25
415.41	2579.27
415.60	2546.50
415.79	2612.04
415.98	2703.32
416.17	2555.86
416.36	2672.89
416.55	2698.64
416.74	2693.96
416.93	2682.25
417.12	2745.45
417.31	2881.20
417.50	2864.82
417.69	2878.86
417.88	2843.75
418.07	2710.34
418.26	2988.86
418.45	2906.95
418.64	2932.69
418.83	2974.82
419.02	3026.31
419.21	3112.91
419.39	3021.63
419.58	2977.16
419.77	2960.78
419.96	3023.97
420.15	3084.83
420.34	3038.02
420.53	3084.83
420.72	3192.49
420.91	3101.21
421.10	3119.93
421.29	3204.19
421.48	3105.89
421.67	3178.45
421.86	3304.84
422.05	3138.66
422.24	3267.39
422.43	3290.79
422.61	3199.51
422.80	3262.71
422.99	3335.26
423.18	3342.28
423.37	3368.03
423.56	3316.54
423.75	3335.26
423.94	3218.24
424.13	3014.61
424.32	3286.11
424.50	3377.39
424.69	3330.58
424.88	3410.16
425.07	3368.03
425.26	3309.52
425.45	3302.50
425.64	3267.39
425.83	3356.33
426.01	3403.14
426.20	3417.18
426.39	3386.76
426.58	3309.52
426.77	3414.84
426.96	3461.65
427.15	3527.19
427.33	3356.33
427.52	3445.27
427.71	3623.15
427.90	3480.38
428.09	3566.98
428.28	3478.04
428.46	3627.83
428.65	3641.87
428.84	3485.06
429.03	3655.92
429.22	3524.85
429.40	3620.81
429.59	3599.74
429.78	3641.87
429.97	3463.99
430.16	3627.83
430.34	3719.11
430.53	3826.78
430.72	3875.93
430.91	3901.67
431.10	3735.50
431.28	3859.54
431.47	3925.08
431.66	3885.29
431.85	3868.91
432.03	3896.99
432.22	4145.09
432.41	4025.72
432.60	3978.91
432.79	4032.74
432.97	3934.44
433.16	3911.04
433.35	3955.51
433.54	3999.98
433.72	3976.57
433.91	4063.17
434.10	4032.74
434.28	4093.60
434.47	3999.98
434.66	4112.32
434.85	4215.30
435.03	4100.62
435.22	4229.35
435.41	4393.19
435.59	4065.51
435.78	4271.48
435.97	4388.50
436.16	4341.69
436.34	4245.73
436.53	4297.22
436.72	4407.23
436.90	4315.95
437.09	4423.61
437.28	4386.16
437.46	4351.06
437.65	4273.82
437.84	4550.00
438.02	4423.61
438.21	4538.30
438.40	4507.87
438.58	4589.79
438.77	4723.20
438.96	4596.81
439.14	4552.34
439.33	4823.84
439.52	4641.28
439.70	4842.57
439.89	4830.87
440.08	4856.61
440.26	4760.65
440.45	4805.12
440.63	4781.71
440.82	4997.04
441.01	5022.79
441.19	4978.32
441.38	5102.37
441.57	4973.64
441.75	5153.86
441.94	5249.82
442.12	5205.35
442.31	5336.42
442.50	5336.42
442.68	5233.44
442.87	5226.42
443.05	5430.04
443.24	5509.62
443.43	5287.27
443.61	5455.79
443.80	5724.95
443.98	5390.25
444.17	5036.83
444.35	5434.72
444.54	5500.26
444.73	5392.59
444.91	5621.97
445.10	5469.83
445.28	5408.98
445.47	5591.54
445.65	5502.60
445.84	5437.06
446.02	5533.03
446.21	5526.00
446.39	5621.97
446.58	5493.24
446.77	5451.11
446.95	5465.15
447.14	5486.22
447.32	5715.59
447.51	5554.09
447.69	5647.71
447.88	5575.16
448.06	5526.00
448.25	5633.67
448.43	5830.27
448.62	5694.52
448.80	5624.31
448.99	5729.63
449.17	5760.06
449.36	5640.69
449.54	5841.98
449.73	5914.53
449.91	6106.46
450.10	5982.41
450.28	5984.75
450.46	5954.32
450.65	5982.41
450.83	6047.94
451.02	5839.64
451.20	5994.11
451.39	6033.90
451.57	5968.37
451.76	5928.58
451.94	6045.60
452.13	6164.97
452.31	6099.44
452.49	6146.25
452.68	6134.54
452.86	6195.40
453.05	6127.52
453.23	6342.85
453.42	6169.65
453.60	6251.57
453.78	6200.08
453.97	6225.82
454.15	6272.64
454.34	6136.88
454.52	6401.37
454.70	6413.07
454.89	6300.72
455.07	6445.84
455.26	6504.35
455.44	6455.20
455.62	6567.54
455.81	6340.51
455.99	6513.71
456.17	6516.05
456.36	6562.86
456.54	6654.14
456.73	6700.95
456.91	6857.77
457.09	6740.74
457.28	6825.00
457.46	6663.51
457.64	6869.47
457.83	6892.88
458.01	6787.55
458.19	6937.35
458.38	6862.45
458.56	7063.74
458.74	7140.97
458.93	6977.14
459.11	7066.08
459.29	6906.92
459.48	7143.32
459.66	7105.87
459.84	7108.21
460.03	7382.05
460.21	7232.26
460.39	7215.87
460.57	7211.19
460.76	7293.11
460.94	7344.60
461.12	7204.17
461.31	7234.60
461.49	7417.16
461.67	7220.55
461.85	7559.93
462.04	7262.68
462.22	7728.45
462.40	7625.47
462.59	7585.68
462.77	7562.27
462.95	7433.54
463.13	7585.68
463.32	7653.55
463.50	7721.43
463.68	7669.94
463.86	7700.36
464.05	7604.40
464.23	7716.75
464.41	7829.09
464.59	7520.14
464.78	7908.67
464.96	7819.73
465.14	7772.92
465.32	7786.96
465.50	7793.98
465.69	8044.42
465.87	7859.52
466.05	8028.04
466.23	7903.99
466.41	7976.55
466.60	8102.93
466.78	8060.80
466.96	8046.76
467.14	7971.86
467.32	8077.19
467.51	8264.43
467.69	7957.82
467.87	7957.82
468.05	8053.78
468.23	8023.36
468.41	7995.27
468.60	8145.06
468.78	8360.39
468.96	8318.26
469.14	8107.62
469.32	8421.25
469.50	8119.32
469.69	8306.56
469.87	8461.04
470.05	8430.61
470.23	8587.43
470.41	8437.63
470.59	8575.72
470.77	8451.67
470.95	8606.15
471.14	8798.07
471.32	8606.15
471.50	8821.48
471.68	8772.33
471.86	8901.06
472.04	8985.32
472.22	9062.55
472.40	8744.24
472.58	8947.87
472.77	9020.42
472.95	9179.58
473.13	9294.27
473.31	8954.89
473.49	9263.84
473.67	9071.92
473.85	9191.28
474.03	9364.48
474.21	9521.30
474.39	9675.77
474.57	9664.07
474.75	9731.95
474.93	9760.03
475.12	9743.65
475.30	9806.84
475.48	9678.12
475.66	9809.19
475.84	9848.97
476.02	9841.95
476.20	9970.68
476.38	10036.22
476.56	10356.87
476.74	10263.25
476.92	10211.76
477.10	10195.37
477.28	10471.56
477.46	10410.70
477.64	10455.17
477.82	10682.20
478.00	10817.96
478.18	10864.77
478.36	10754.76
478.54	11028.60
478.72	11318.83
478.90	11021.58
479.08	11267.34
479.26	11445.22
479.44	11627.78
479.62	11435.86
479.80	11595.01
479.98	11503.73
480.16	11737.79
480.34	11735.45
480.52	12039.72
480.70	12004.61
480.88	11702.68
481.06	11981.20
481.24	12170.79
481.41	12360.37
481.59	12248.02
481.77	12182.49
481.95	12432.93
482.13	12493.78
482.31	12826.14
482.49	12837.84
482.67	13032.10
482.85	12980.61
483.03	13156.15
483.21	13373.82
483.39	13404.25
483.57	13397.23
483.74	13434.68
483.92	13790.44
484.10	13547.02
484.28	13717.88
484.46	14155.56
484.64	14270.25
484.82	14363.87
485.00	14370.89
485.18	14349.82
485.35	14724.31
485.53	14513.66
485.71	14621.33
485.89	14944.32
486.07	14937.30
486.25	15016.88
486.43	15140.93
486.61	15281.36
486.78	15002.83
486.96	15435.83
487.14	15510.73
487.32	15712.02
487.50	15786.91
487.68	15672.23
487.85	15742.44
488.03	16362.69
488.21	16599.08
488.39	16542.91
488.57	16711.42
488.75	16528.86
488.92	16943.14
489.10	17013.35
489.28	16802.71
489.46	17455.72
489.64	17214.64
489.81	17530.61
489.99	17542.32
490.17	17516.57
490.35	17937.87
490.53	17788.07
490.70	18111.07
490.88	18019.78
491.06	18113.41
491.24	18324.05
491.41	18312.35
491.59	18394.27
491.77	18595.56
491.95	18630.66
492.13	18815.57
492.30	18780.46
492.48	19101.11
492.66	19213.46
492.84	19358.57
493.01	19618.37
493.19	19676.88
493.37	19721.35
493.54	20023.28
493.72	20063.07
493.90	20020.94
494.08	20320.53
494.25	20608.42
494.43	20423.51
494.61	20318.19
494.79	20662.25
494.96	20517.14
495.14	20489.05
495.32	21212.28
495.49	21310.58
495.67	21219.30
495.85	21219.30
496.02	21474.42
496.20	21879.33
496.38	22008.06
496.55	21640.59
496.73	22207.00
496.91	21745.92
497.09	22370.84
497.26	21984.65
497.44	21965.93
497.62	22490.21
497.79	22494.89
497.97	22600.21
498.14	22670.43
498.32	22970.02
498.50	22895.12
498.67	23314.08
498.85	23150.24
499.03	23634.73
499.20	23276.63
499.38	23906.23
499.56	23714.31
499.73	23864.10
499.91	23779.84
500.08	24151.99
500.26	23800.91
500.44	23978.79
500.61	24159.01
500.79	23821.97
500.97	23824.31
501.14	24711.38
501.32	24505.41
501.49	24079.43
501.67	24872.87
501.84	25020.33
502.02	24659.88
502.20	25036.71
502.37	24875.21
502.55	25219.27
502.72	25055.43
502.90	24840.11
503.07	25170.12
503.25	25413.54
503.43	25462.69
503.60	25546.95
503.78	25521.20
503.95	25781.00
504.13	25542.27
504.30	26129.74
504.48	25734.19
504.65	26122.72
504.83	26338.05
505.01	26373.16
505.18	26167.19
505.36	26188.25
505.53	26302.94
505.71	26281.88
505.88	26637.64
506.06	26375.50
506.23	26862.33
506.41	26677.43
506.58	26827.22
506.76	26845.94
506.93	27414.69
507.11	27332.78
507.28	27552.79
507.46	27405.33
507.63	27290.65
507.81	27517.68
507.98	27501.29
508.16	27459.16
508.33	27880.46
508.50	27859.40
508.68	28126.22
508.85	27721.30
509.03	28016.21
509.20	28229.20
509.38	28348.57
509.55	28664.54
509.73	28285.37
509.90	28208.14
510.08	28634.11
510.25	28315.80
510.42	28919.66
510.60	28519.43
510.77	28886.89
510.95	29013.28
511.12	29069.45
511.30	28854.12
511.47	29216.91
511.64	29102.22
511.82	29385.43
511.99	29439.26
512.17	29336.27
512.34	29457.98
512.51	29783.32
512.69	30022.05
512.86	29778.64
513.04	29998.65
513.21	29951.84
513.38	30429.30
513.56	30192.91
513.73	29977.58
513.90	30122.69
514.08	30122.69
514.25	30565.06
514.43	30747.62
514.60	30787.41
514.77	30588.46
514.95	30998.06
515.12	30934.86
515.29	31040.18
515.47	30827.20
515.64	31220.41
515.81	30759.32
515.99	30986.35
516.16	31377.22
516.33	31089.34
516.51	31594.89
516.68	31108.06
516.85	31800.86
517.03	31910.86
517.20	31756.39
517.37	31721.28
517.54	31690.85
517.72	31990.44
517.89	31754.05
518.06	32217.47
518.24	31981.08
518.41	31913.20
518.58	32180.03
518.75	31679.15
518.93	32821.33
519.10	32130.87
519.27	32474.93
519.45	32217.47
519.62	32697.28
519.79	32818.99
519.96	32332.16
520.14	32746.44
520.31	32577.92
520.48	33134.96
520.65	33062.41
520.83	33654.56
521.00	33130.28
521.17	32994.53
521.34	33139.65
521.52	32954.74
521.69	33518.81
521.86	33460.30
522.03	34047.77
522.20	33958.83
522.38	34117.99
522.55	33677.97
522.72	34192.89
522.89	34017.35
523.07	34419.92
523.24	33900.32
523.41	34211.61
523.58	33940.11
523.75	34429.28
523.92	34115.65
524.10	34473.75
524.27	34120.33
524.44	34363.75
524.61	34265.44
524.78	34745.25
524.96	35119.74
525.13	35047.18
525.30	35189.95
525.47	35110.38
525.64	35091.65
525.81	35093.99
525.98	35058.88
526.16	35140.80
526.33	35227.40
526.50	35632.32
526.67	35367.84
526.84	35440.39
527.01	35594.87
527.18	35620.61
527.36	35229.74
527.53	35969.35
527.70	35637.00
527.87	35992.76
528.04	35779.77
528.21	35742.32
528.38	35667.42
528.55	36184.68
528.72	35761.05
528.89	36079.36
529.07	35632.32
529.24	35920.20
529.41	36390.65
529.58	36231.49
529.75	36573.21
529.92	36830.67
530.09	36512.36
530.26	36376.61
530.43	36404.69
530.60	36292.35
530.77	36664.49
530.94	36617.68
531.11	36608.32
531.28	36954.72
531.46	36833.01
531.63	36538.10
531.80	36463.21
531.97	37221.54
532.14	37146.64
532.31	37373.67
532.48	37322.18
532.65	37280.05
532.82	37167.71
532.99	37214.52
533.16	36943.02
533.33	37682.62
533.50	37888.59
533.67	37785.61
533.84	37745.82
534.01	37846.46
534.18	37406.44
534.35	37851.14
534.52	37961.15
534.69	38223.29
534.86	38106.26
535.03	38253.72
535.20	37780.93
535.37	38155.41
535.54	38525.22
535.71	38171.80
535.88	38314.57
536.05	38019.66
536.22	38410.53
536.38	38220.95
536.55	38677.35
536.72	38602.46
536.89	38469.04
537.06	38850.55
537.23	39005.03
537.40	38639.90
537.57	38354.36
537.74	38569.69
537.91	39110.35
538.08	39016.73
538.25	38433.94
538.42	38813.10
538.59	39461.43
538.75	38885.66
538.92	39548.03
539.09	38895.02
539.26	39143.12
539.43	39248.44
539.60	39648.68
539.77	39110.35
539.94	39833.58
540.11	39845.28
540.28	39538.67
540.44	39487.18
540.61	39210.99
540.78	39442.71
540.95	39552.71
541.12	39739.96
541.29	39622.93
541.46	39807.83
541.62	39786.77
541.79	39997.41
541.96	39573.78
542.13	39889.75
542.30	39852.30
542.47	39697.83
542.63	39974.01
542.80	40416.37
542.97	40568.51
543.14	40170.61
543.31	40343.81
543.48	40435.10
543.64	41003.85
543.81	40933.63
543.98	40620.00
544.15	40472.54
544.32	41099.81
544.48	41127.89
544.65	40980.44
544.82	40823.62
544.99	40622.34
545.16	41043.63
545.32	40968.74
545.49	41481.31
545.66	41446.21
545.83	41425.14
546.00	41085.76
546.16	41153.64
546.33	41434.50
546.50	41146.62
546.67	41722.39
546.83	41127.89
547.00	41216.83
547.17	41132.57
547.34	41956.44
547.50	41918.99
547.67	42057.09
547.84	41078.74
548.00	41689.62
548.17	42131.98
548.34	42103.90
548.51	41933.04
548.67	42036.02
548.84	41926.02
549.01	41841.76
549.18	41830.05
549.34	42333.27
549.51	41846.44
549.68	42281.78
549.84	41895.59
550.01	42141.35
550.18	42092.19
550.34	42286.46
550.51	42143.69
550.68	42464.34
550.84	42230.29
551.01	42124.96
551.18	42129.64
551.34	42288.80
551.51	42440.93
551.68	42499.45
551.84	42157.73
552.01	42019.64
552.18	42646.90
552.34	42583.71
552.51	42916.06
552.68	42394.12
552.84	42576.69
553.01	42777.97
553.18	42759.25
553.34	43292.89
553.51	42808.40
553.67	43145.44
553.84	43152.46
554.01	43159.48
554.17	43129.05
554.34	43068.20
554.51	43269.48
554.67	43295.23
554.84	43316.29
555.00	43236.72
555.17	43199.27
555.33	43370.13
555.50	43316.29
555.67	43210.97
555.83	43384.17
556.00	43555.03
556.16	43798.44
556.33	43374.81
556.50	43548.01
556.66	43318.64
556.83	43548.01
556.99	44126.12
557.16	44025.48
557.32	43667.37
557.49	43931.86
557.65	43100.97
557.82	43924.83
557.98	43746.95
558.15	43714.19
558.32	43899.09
558.48	43753.97
558.65	44046.54
558.81	43948.24
558.98	43922.49
559.14	43985.69
559.31	43433.32
559.47	43578.43
559.64	44184.63
559.80	43761.00
559.97	44151.87
560.13	44142.50
560.30	44135.48
560.46	44421.03
560.63	44236.12
560.79	44390.60
560.96	44343.79
561.12	44458.48
561.29	44603.59
561.45	44348.47
561.61	44222.08
561.78	44268.89
561.94	44119.10
562.11	44470.18
562.27	44128.46
562.44	44381.24
562.60	44570.82
562.77	44626.99
562.93	44215.06
563.10	44615.29
563.26	44327.41
563.42	44582.52
563.59	44720.62
563.75	44582.52
563.92	44587.21
564.08	44847.00
564.24	44774.45
564.41	44669.12
564.57	44488.90
564.74	44802.53
564.90	44304.00
565.07	44683.17
565.23	44533.37
565.39	44500.61
565.56	44687.85
565.72	44713.59
565.88	44849.35
566.05	44959.35
566.21	45537.46
566.38	44744.02
566.54	44776.79
566.70	44877.43
566.87	44491.24
567.03	44968.71
567.19	44912.54
567.36	45111.49
567.52	45373.63
567.68	45013.18
567.85	45003.82
568.01	45254.26
568.17	45216.81
568.34	45394.69
568.50	45153.62
568.66	44360.17
568.83	45324.47
568.99	45074.04
569.15	45352.56
569.32	45055.31
569.48	45193.40
569.64	45502.35
569.81	45378.31
569.97	45141.91
570.13	45165.32
570.30	45247.24
570.46	45226.17
570.62	45375.97
570.78	45558.53
570.95	45219.15
571.11	45605.34
571.27	45441.50
571.43	45029.57
571.60	45750.45
571.76	45268.30
571.92	45476.61
572.09	45158.30
572.25	45378.31
572.41	45052.97
572.57	45359.58
572.74	45879.18
572.90	45478.95
573.06	45509.38
573.22	45521.08
573.38	45691.94
573.55	45673.21
573.71	45624.06
573.87	45893.22
574.03	45801.94
574.20	46089.83
574.36	45607.68
574.52	45558.53
574.68	45488.31
574.84	45801.94
575.01	45736.41
575.17	45626.40
575.33	45574.91
575.49	45879.18
575.65	45661.51
575.82	45654.49
575.98	45715.34
576.14	45862.80
576.30	45968.12
576.46	45542.14
576.62	45628.74
576.79	45734.07
576.95	45436.82
577.11	45755.13
577.27	45542.14
577.43	45427.46
577.59	45411.07
577.75	45715.34
577.92	45132.55
578.08	46014.93
578.24	45490.65
578.40	46316.86
578.56	46157.70
578.72	45841.73
578.88	45804.28
579.04	46131.96
579.21	45787.90
579.37	45902.59
579.53	45731.73
579.69	45745.77
579.85	45483.63
580.01	45614.70
580.17	45635.77
580.33	45860.46
580.49	46028.98
580.65	45813.65
580.82	45530.44
580.98	45975.14
581.14	45399.37
581.30	46120.26
581.46	45659.17
581.62	45586.61
581.78	45303.41
581.94	46213.88
582.10	45682.58
582.26	45956.42
582.42	45797.26
582.58	45879.18
582.74	45979.82
582.90	45752.79
583.06	46230.26
583.22	46171.75
583.38	45909.61
583.54	46218.56
583.70	45848.75
583.86	46167.07
584.02	45839.39
584.18	46628.15
584.34	46220.90
584.50	46124.94
584.66	46129.62
584.82	46092.17
584.98	46368.35
585.14	46129.62
585.30	45914.29
585.46	45872.16
585.62	45675.55
585.78	45792.58
585.94	45713.00
586.10	46010.25
586.26	45797.26
586.42	45485.97
586.58	46160.05
586.74	46078.13
586.90	46260.69
587.06	45975.14
587.22	45759.81
587.38	45986.85
587.54	46043.02
587.70	46225.58
587.86	45956.42
588.02	46033.66
588.18	45841.73
588.34	46050.04
588.49	46274.73
588.65	45696.62
588.81	46522.83
588.97	46241.96
589.13	46143.66
589.29	46136.64
589.45	46593.04
589.61	46031.32
589.77	46461.97
589.93	46225.58
590.08	46415.16
