SpectraSuite Data File
++++++++++++++++++++++++++++++++++++
Date: Fri Oct 25 10:47:00 EDT 2013
User: price-jones
Dark Spectrum Present: No
Reference Spectrum Present: No
Number of Sampled Component Spectra: 1
Spectrometers: USB2+H05261
Integration Time (usec): 100000 (USB2+H05261)
Spectra Averaged: 1 (USB2+H05261)
Boxcar Smoothing: 0 (USB2+H05261)
Correct for Electrical Dark: No (USB2+H05261)
Strobe/Lamp Enabled: No (USB2+H05261)
Correct for Detector Non-linearity: No (USB2+H05261)
Correct for Stray Light: No (USB2+H05261)
Number of Pixels in Processed Spectrum: 2048
>>>>>Begin Processed Spectral Data<<<<<
365.73	170.86
365.92	170.86
366.12	170.86
366.32	65.54
366.52	32.77
366.72	91.28
366.91	65.54
367.11	63.19
367.31	56.17
367.51	70.22
367.70	14.04
367.90	86.60
368.10	70.22
368.30	53.83
368.49	88.94
368.69	107.66
368.89	23.41
369.09	51.49
369.28	51.49
369.48	2.34
369.68	98.30
369.87	28.09
370.07	119.37
370.27	154.48
370.47	149.79
370.66	440.02
370.86	360.44
371.06	435.34
371.25	486.83
371.45	435.34
371.65	500.87
371.84	428.32
372.04	386.19
372.24	477.47
372.44	458.74
372.63	528.96
372.83	596.84
373.03	425.98
373.22	444.70
373.42	486.83
373.62	507.90
373.81	578.11
374.01	653.01
374.21	535.98
374.40	507.90
374.60	582.79
374.79	528.96
374.99	564.07
375.19	629.60
375.38	564.07
375.58	610.88
375.78	517.26
375.97	641.31
376.17	667.05
376.37	573.43
376.56	645.99
376.76	582.79
376.95	575.77
377.15	636.63
377.35	601.52
377.54	650.67
377.74	538.32
377.93	582.79
378.13	636.63
378.33	641.31
378.52	557.05
378.72	648.33
378.91	692.80
379.11	702.16
379.31	655.35
379.50	653.01
379.70	697.48
379.89	615.56
380.09	676.41
380.28	631.94
380.48	667.05
380.68	671.73
380.87	739.61
381.07	688.12
381.26	723.23
381.46	690.46
381.65	709.18
381.85	596.84
382.04	631.94
382.24	711.52
382.43	643.65
382.63	601.52
382.83	795.78
383.02	678.76
383.22	704.50
383.41	650.67
383.61	772.38
383.80	781.74
384.00	767.70
384.19	758.33
384.39	791.10
384.58	755.99
384.78	725.57
384.97	763.01
385.17	791.10
385.36	777.06
385.56	716.20
385.75	802.80
385.95	770.04
386.14	763.01
386.34	830.89
386.53	868.34
386.72	732.59
386.92	856.64
387.11	793.44
387.31	868.34
387.50	844.93
387.70	875.36
387.89	903.45
388.09	877.70
388.28	823.87
388.48	903.45
388.67	966.64
388.86	851.96
389.06	997.07
389.25	877.70
389.45	992.39
389.64	929.19
389.84	945.58
390.03	1046.22
390.22	978.34
390.42	896.43
390.61	994.73
390.81	973.66
391.00	961.96
391.19	997.07
391.39	999.41
391.58	1046.22
391.78	959.62
391.97	1053.24
392.16	983.02
392.36	1074.31
392.55	1025.15
392.75	1039.20
392.94	971.32
393.13	1011.11
393.33	1020.47
393.52	1029.84
393.71	950.26
393.91	1095.37
394.10	1027.50
394.29	1071.97
394.49	1069.62
394.68	1144.52
394.88	1135.16
395.07	1118.78
395.26	1100.05
395.46	1160.91
395.65	1205.38
395.84	1076.65
396.04	1270.91
396.23	1156.22
396.42	1114.10
396.62	1137.50
396.81	1228.78
397.00	1179.63
397.19	1226.44
397.39	1217.08
397.58	1282.61
397.77	1306.02
397.97	1291.98
398.16	1341.13
398.35	1317.72
398.55	1355.17
398.74	1397.30
398.93	1465.18
399.12	1486.24
399.32	1441.77
399.51	1439.43
399.70	1493.26
399.90	1460.49
400.09	1366.87
400.28	1462.83
400.47	1500.28
400.67	1605.61
400.86	1523.69
401.05	1593.90
401.24	1556.46
401.44	1593.90
401.63	1614.97
401.82	1528.37
402.01	1500.28
402.21	1640.72
402.40	1640.72
402.59	1603.27
402.78	1586.88
402.97	1603.27
403.17	1593.90
403.36	1582.20
403.55	1748.38
403.74	1734.34
403.93	1685.19
404.13	1722.63
404.32	1584.54
404.51	1790.51
404.70	1755.40
404.89	1603.27
405.09	1788.17
405.28	1825.62
405.47	1781.15
405.66	1907.54
405.85	1912.22
406.05	1785.83
406.24	1799.87
406.43	1935.62
406.62	1987.11
406.81	1998.82
407.00	1973.07
407.20	1790.51
407.39	1900.52
407.58	2022.22
407.77	2045.63
407.96	1942.64
408.15	2120.53
408.34	2080.74
408.54	2050.31
408.73	2017.54
408.92	2160.31
409.11	2092.44
409.30	2179.04
409.49	2129.89
409.68	2106.48
409.87	2064.35
410.07	2300.75
410.26	2216.49
410.45	2172.02
410.64	2253.94
410.83	2150.95
411.02	2373.30
411.21	2303.09
411.40	2298.41
411.59	2380.32
411.78	2396.71
411.98	2340.54
412.17	2401.39
412.36	2593.31
412.55	2607.36
412.74	2511.39
412.93	2466.92
413.12	2590.97
413.31	2696.30
413.50	2712.68
413.69	2553.52
413.88	2750.13
414.07	2736.09
414.26	2750.13
414.45	2754.81
414.64	2710.34
414.83	2867.16
415.02	2764.17
415.22	2958.44
415.41	2937.37
415.60	2930.35
415.79	2822.69
415.98	3070.78
416.17	2904.60
416.36	3042.70
416.55	3049.72
416.74	3056.74
416.93	3035.67
417.12	3117.59
417.31	3211.22
417.50	3084.83
417.69	3227.60
417.88	3241.64
418.07	3155.04
418.26	3159.72
418.45	3288.45
418.64	3353.99
418.83	3375.05
419.02	3220.58
419.21	3550.59
419.39	3290.79
419.58	3246.32
419.77	3307.18
419.96	3368.03
420.15	3524.85
420.34	3492.08
420.53	3445.27
420.72	3529.53
420.91	3581.02
421.10	3583.36
421.29	3707.41
421.48	3433.57
421.67	3529.53
421.86	3517.83
422.05	3630.17
422.24	3489.74
422.43	3562.30
422.61	3541.23
422.80	3599.74
422.99	3618.47
423.18	3700.39
423.37	3562.30
423.56	3599.74
423.75	3655.92
423.94	3634.85
424.13	3417.18
424.32	3641.87
424.50	3684.00
424.69	3768.26
424.88	3669.96
425.07	3784.65
425.26	3758.90
425.45	3695.71
425.64	3733.15
425.83	3613.79
426.01	3639.53
426.20	3756.56
426.39	3709.75
426.58	3695.71
426.77	3681.66
426.96	3712.09
427.15	3693.37
427.33	3794.01
427.52	3899.33
427.71	3866.56
427.90	3918.06
428.09	3812.73
428.28	3962.53
428.46	3974.23
428.65	4028.06
428.84	4016.36
429.03	4035.08
429.22	3939.12
429.40	3899.33
429.59	4044.45
429.78	3789.33
429.97	3826.78
430.16	3899.33
430.34	3920.40
430.53	4067.85
430.72	4063.17
430.91	3999.98
431.10	4093.60
431.28	4191.90
431.47	4285.52
431.66	4315.95
431.85	4170.83
432.03	4320.63
432.22	4383.82
432.41	4475.10
432.60	4325.31
432.79	4383.82
432.97	4510.21
433.16	4468.08
433.35	4425.95
433.54	4346.37
433.72	4362.76
433.91	4400.21
434.10	4432.97
434.28	4594.47
434.47	4557.02
434.66	4753.63
434.85	4585.11
435.03	4664.69
435.22	4718.52
435.41	4812.14
435.59	4807.46
435.78	4910.44
435.97	4748.95
436.16	4755.97
436.34	4748.95
436.53	4706.82
436.72	4826.18
436.90	4744.27
437.09	5008.75
437.28	4828.53
437.46	4889.38
437.65	4901.08
437.84	4891.72
438.02	4828.53
438.21	4828.53
438.40	4896.40
438.58	5076.62
438.77	5064.92
438.96	5111.73
439.14	5151.52
439.33	5210.03
439.52	5245.14
439.70	5345.78
439.89	5214.71
440.08	5301.31
440.26	5446.43
440.45	5327.06
440.63	5500.26
440.82	5668.78
441.01	5493.24
441.19	5589.20
441.38	5757.72
441.57	5572.82
441.75	5750.70
441.94	5865.38
442.12	5820.91
442.31	5984.75
442.50	6019.86
442.68	6043.26
442.87	6050.28
443.05	5923.90
443.24	5987.09
443.43	6155.61
443.61	6008.16
443.80	6080.71
443.98	6008.16
444.17	5891.13
444.35	6043.26
444.54	6293.70
444.73	6246.89
444.91	6090.07
445.10	5996.45
445.28	6026.88
445.47	6066.67
445.65	5907.51
445.84	6193.06
446.02	6300.72
446.21	6113.48
446.39	6113.48
446.58	6244.55
446.77	6174.33
446.95	6141.57
447.14	6349.87
447.32	6380.30
447.51	6263.27
447.69	6333.49
447.88	6108.80
448.06	6284.34
448.25	6171.99
448.43	6445.84
448.62	6277.32
448.80	6129.86
448.99	6366.26
449.17	6502.01
449.36	6202.42
449.54	6656.48
449.73	6548.82
449.91	6541.80
450.10	6637.76
450.28	6626.06
450.46	6551.16
450.65	6672.87
450.83	6773.51
451.02	6647.12
451.20	6864.79
451.39	6644.78
451.57	6658.82
451.76	6647.12
451.94	6822.66
452.13	6867.13
452.31	6799.26
452.49	6747.76
452.68	6920.96
452.86	6616.69
453.05	6881.18
453.23	7070.76
453.42	6853.09
453.60	6890.54
453.78	6960.75
453.97	6869.47
454.15	6883.52
454.34	6944.37
454.52	7101.19
454.70	7002.88
454.89	6913.94
455.07	7166.72
455.26	7229.91
455.44	7382.05
455.62	7077.78
455.81	7269.70
455.99	7318.86
456.17	7375.03
456.36	7335.24
456.54	7538.87
456.73	7332.90
456.91	7623.12
457.09	7571.63
457.28	7866.54
457.46	7492.05
457.64	7482.69
457.83	7602.06
458.01	7391.41
458.19	7901.65
458.38	7545.89
458.56	7723.77
458.74	7702.70
458.93	7651.21
459.11	7721.43
459.29	7915.69
459.48	7777.60
459.66	7887.61
459.84	8032.72
460.03	7955.48
460.21	7882.92
460.39	7981.23
460.57	8028.04
460.76	8152.09
460.94	8086.55
461.12	7948.46
461.31	8292.52
461.49	8147.40
461.67	8283.16
461.85	8170.81
462.04	8259.75
462.22	8746.58
462.40	8271.45
462.59	8135.70
462.77	8393.16
462.95	8245.71
463.13	8456.36
463.32	8299.54
463.50	8432.95
463.68	8461.04
463.86	8477.42
464.05	8475.08
464.23	8355.71
464.41	8601.47
464.59	8290.18
464.78	8603.81
464.96	8336.99
465.14	8442.31
465.32	8667.00
465.50	8784.03
465.69	8910.42
465.87	8475.08
466.05	8767.65
466.23	8610.83
466.41	8475.08
466.60	8879.99
466.78	8620.19
466.96	8690.41
467.14	8870.63
467.32	8872.97
467.51	8926.80
467.69	8664.66
467.87	8744.24
468.05	9067.24
468.23	8917.44
468.41	8903.40
468.60	8891.70
468.78	9184.26
468.96	8964.25
469.14	9128.09
469.32	9242.78
469.50	8905.74
469.69	9177.24
469.87	9303.63
470.05	9226.39
470.23	9245.12
470.41	9210.01
470.59	9533.00
470.77	9327.03
470.95	9682.80
471.14	9614.92
471.32	9441.72
471.50	9586.83
471.68	9685.14
471.86	9551.73
472.04	9806.84
472.22	9919.19
472.40	9469.81
472.58	9722.59
472.77	9839.61
472.95	10040.90
473.13	10333.47
473.31	9961.32
473.49	10068.98
473.67	10104.09
473.85	10239.84
474.03	10349.85
474.21	10399.00
474.39	10382.62
474.57	10256.23
474.75	10340.49
474.93	10532.41
475.12	10569.86
475.30	10757.10
475.48	10483.26
475.66	10516.03
475.84	10649.44
476.02	10703.27
476.20	10789.87
476.38	11183.08
476.56	11257.98
476.74	11070.73
476.92	11112.86
477.10	11250.96
477.28	11330.53
477.46	11290.74
477.64	11468.62
477.82	11712.04
478.00	11983.54
478.18	11698.00
478.36	11772.89
478.54	12217.60
478.72	12123.98
478.90	12187.17
479.08	12306.54
479.26	12519.53
479.44	12589.74
479.62	12505.48
479.80	12500.80
479.98	12734.85
480.16	12870.61
480.34	12805.07
480.52	13107.00
480.70	12924.44
480.88	12992.31
481.06	13174.88
481.24	13055.51
481.41	13582.13
481.59	13532.98
481.77	13514.25
481.95	13621.92
482.13	13745.97
482.31	13589.15
482.49	13874.70
482.67	14071.30
482.85	14064.28
483.03	14511.32
483.21	14630.69
483.39	14427.06
483.57	14516.00
483.74	14691.54
483.92	14963.04
484.10	14738.35
484.28	15091.77
484.46	14960.70
484.64	15555.20
484.82	15054.33
485.00	15477.96
485.18	15707.34
485.35	15674.57
485.53	15616.05
485.71	15431.15
485.89	15927.35
486.07	15721.38
486.25	16037.35
486.43	16053.73
486.61	16390.77
486.78	16170.76
486.96	16648.23
487.14	16847.18
487.32	16767.60
487.50	17139.74
487.68	17219.32
487.85	17439.33
488.03	17493.16
488.21	17776.37
488.39	17694.45
488.57	17902.76
488.75	18017.44
488.92	18162.56
489.10	18251.50
489.28	18380.23
489.46	18733.65
489.64	18520.66
489.81	19323.46
489.99	19360.91
490.17	19075.37
490.35	19337.51
490.53	19396.02
490.70	19445.17
490.88	19601.99
491.06	19690.93
491.24	20002.22
491.41	20060.73
491.59	19749.44
491.77	19763.48
491.95	20147.33
492.13	20657.57
492.30	20465.64
492.48	20575.65
492.66	20439.90
492.84	20826.09
493.01	20952.48
493.19	21003.97
493.37	20931.41
493.54	21095.25
493.72	21661.66
493.90	21530.59
494.08	21785.71
494.25	21750.60
494.43	22080.61
494.61	22230.41
494.79	22368.50
494.96	22015.08
495.14	22677.45
495.32	22548.72
495.49	22492.55
495.67	22771.07
495.85	22878.74
496.02	22883.42
496.20	23061.30
496.38	23187.69
496.55	23487.28
496.73	23854.74
496.91	23515.36
497.09	23908.57
497.26	23924.96
497.44	24098.16
497.62	23845.38
497.79	24339.23
497.97	23988.15
498.14	24526.47
498.32	24531.15
498.50	24694.99
498.67	24631.80
498.85	24753.51
499.03	25261.40
499.20	25296.51
499.38	25319.92
499.56	25223.95
499.73	25446.30
499.91	25198.21
500.08	25467.37
500.26	25525.88
500.44	25603.12
500.61	25490.77
500.79	25539.93
500.97	25525.88
501.14	25940.16
501.32	26249.11
501.49	26331.03
501.67	26096.97
501.84	26192.94
502.02	26370.82
502.20	26368.48
502.37	26859.99
502.55	26803.82
502.72	26869.35
502.90	26735.94
503.07	26768.71
503.25	26995.74
503.43	26740.62
503.60	27342.14
503.78	27063.61
503.95	26923.18
504.13	27632.36
504.30	27211.07
504.48	27300.01
504.65	27555.13
504.83	27953.02
505.01	27594.92
505.18	27763.43
505.36	28109.83
505.53	28442.19
505.71	28517.09
505.88	28657.52
506.06	28292.40
506.23	28336.87
506.41	28414.10
506.58	28577.94
506.76	28638.80
506.93	28751.14
507.11	28549.85
507.28	29104.56
507.46	28561.56
507.63	28638.80
507.81	28854.12
507.98	29247.33
508.16	29027.32
508.33	29254.36
508.50	29483.73
508.68	29462.66
508.85	29619.48
509.03	29591.39
509.20	30125.04
509.38	29986.94
509.55	29958.86
509.73	30101.63
509.90	30061.84
510.08	30125.04
510.25	30115.67
510.42	30391.86
510.60	30588.46
510.77	30700.81
510.95	30904.43
511.12	30408.24
511.30	30785.07
511.47	31012.10
511.64	31051.89
511.82	31019.12
511.99	30803.79
512.17	31166.57
512.34	30937.20
512.51	31468.50
512.69	31445.10
512.86	31669.79
513.04	31828.95
513.21	31608.93
513.38	31208.70
513.56	31913.20
513.73	31632.34
513.90	31873.42
514.08	31889.80
514.25	32458.55
514.43	32030.23
514.60	32173.00
514.77	32240.88
514.95	32301.73
515.12	32730.05
515.29	32198.75
515.47	32355.57
515.64	32664.52
515.81	32727.71
515.99	32659.84
516.16	32561.53
516.33	32304.07
516.51	32835.38
516.68	32041.93
516.85	31749.37
517.03	32620.05
517.20	33134.96
517.37	33113.90
517.54	33319.87
517.72	33226.24
517.89	33146.67
518.06	33041.34
518.24	32662.18
518.41	33064.75
518.58	33514.13
518.75	33741.16
518.93	33436.89
519.10	33783.29
519.27	33785.63
519.45	34192.89
519.62	34174.16
519.79	34047.77
519.96	34345.02
520.14	34335.66
520.31	34066.50
520.48	34122.67
520.65	34164.80
520.83	34597.80
521.00	34515.88
521.17	34995.69
521.34	34644.61
521.52	34953.56
521.69	35002.71
521.86	35351.45
522.03	35077.61
522.20	35295.28
522.38	35229.74
522.55	34878.66
522.72	35016.75
522.89	35143.14
523.07	35276.55
523.24	35356.13
523.41	35449.75
523.58	35463.80
523.75	35978.72
523.92	36013.82
524.10	35976.37
524.27	36336.82
524.44	36102.76
524.61	36055.95
524.78	36266.60
524.96	36107.44
525.13	36137.87
525.30	36500.65
525.47	36680.88
525.64	36570.87
525.81	36620.02
525.98	36350.86
526.16	36318.09
526.33	36596.62
526.50	36584.91
526.67	36278.30
526.84	36481.93
527.01	36048.93
527.18	36708.96
527.36	36779.18
527.53	37036.64
527.70	37085.79
527.87	37216.86
528.04	37172.39
528.21	37116.22
528.38	37296.44
528.55	37338.57
528.72	37249.63
528.89	37577.30
529.07	37345.59
529.24	37558.58
529.41	37759.86
529.58	37528.15
529.75	37731.78
529.92	37809.01
530.09	38000.94
530.26	37846.46
530.43	37673.26
530.60	37415.80
530.77	37495.38
530.94	38216.27
531.11	38127.33
531.28	38045.41
531.46	38206.90
531.63	38539.26
531.80	38204.56
531.97	38335.63
532.14	38431.60
532.31	38473.73
532.48	38146.05
532.65	38696.08
532.82	38445.64
532.99	38309.89
533.16	38370.74
533.33	38761.61
533.50	39239.08
533.67	38843.53
533.84	38806.08
534.01	38621.18
534.18	38590.75
534.35	39108.01
534.52	39143.12
534.69	39285.89
534.86	39269.51
535.03	38862.26
535.20	39236.74
535.37	39772.72
535.54	39615.91
535.71	39721.23
535.88	39416.96
536.05	39899.11
536.22	39489.52
536.38	39332.70
536.55	39438.03
536.72	39789.11
536.89	39754.00
537.06	39662.72
537.23	40055.93
537.40	39744.64
537.57	39992.73
537.74	39924.86
537.91	40428.07
538.08	39969.33
538.25	39793.79
538.42	39641.65
538.59	40273.60
538.75	40245.51
538.92	40102.74
539.09	40224.45
539.26	40320.41
539.43	40170.61
539.60	40662.13
539.77	40126.14
539.94	40645.74
540.11	39920.18
540.28	40594.25
540.44	40610.64
540.61	40603.61
540.78	40140.19
540.95	40680.85
541.12	40542.76
541.29	40348.50
541.46	40315.73
541.62	40648.08
541.79	41076.40
541.96	40610.64
542.13	40914.90
542.30	40568.51
542.47	40720.64
542.63	40790.86
542.80	41120.87
542.97	41493.02
543.14	41493.02
543.31	41322.16
543.48	41478.97
543.64	42038.36
543.81	41998.57
543.98	41493.02
544.15	41549.19
544.32	42169.43
544.48	41928.36
544.65	41879.21
544.82	41902.61
544.99	41607.70
545.16	41312.80
545.32	41413.44
545.49	41970.49
545.66	41851.12
545.83	41968.15
546.00	42234.97
546.16	42204.54
546.33	42012.62
546.50	42019.64
546.67	42031.34
546.83	41661.54
547.00	42241.99
547.17	42043.04
547.34	42253.69
547.50	42225.60
547.67	42344.97
547.84	42878.61
548.00	42918.40
548.17	42646.90
548.34	42557.96
548.51	43117.35
548.67	42707.76
548.84	42476.04
549.01	42792.01
549.18	42534.56
549.34	42866.91
549.51	42969.90
549.68	42586.05
549.84	42831.80
550.01	43171.18
550.18	42667.97
550.34	43021.39
550.51	42857.55
550.68	42824.78
550.84	42663.28
551.01	42817.76
551.18	42714.78
551.34	43159.48
551.51	43093.94
551.68	43377.15
551.84	42955.85
552.01	42852.87
552.18	43203.95
552.34	42689.03
552.51	43363.11
552.68	43367.79
552.84	43552.69
553.01	43758.66
553.18	43700.14
553.34	43789.08
553.51	43309.27
553.67	43533.96
553.84	43688.44
554.01	43625.25
554.17	43955.26
554.34	44011.43
554.51	43894.41
554.67	44025.48
554.84	43620.56
555.00	43852.28
555.17	43826.53
555.33	43690.78
555.50	43920.15
555.67	43288.21
555.83	43908.45
556.00	43718.87
556.16	44002.07
556.33	43952.92
556.50	43922.49
556.66	44296.98
556.83	43709.50
556.99	44083.99
557.16	44397.62
557.32	43711.84
557.49	44369.54
557.65	43552.69
557.82	43716.53
557.98	44062.93
558.15	44355.49
558.32	44484.22
558.48	44144.84
558.65	44390.60
558.81	43833.55
558.98	44034.84
559.14	44308.68
559.31	43775.04
559.47	44182.29
559.64	44619.97
559.80	44421.03
559.97	44194.00
560.13	44121.44
560.30	44172.93
560.46	44442.09
560.63	44142.50
560.79	44392.94
560.96	44336.77
561.12	44418.69
561.29	44404.64
561.45	44493.58
561.61	44465.50
561.78	44729.98
561.94	44519.33
562.11	44643.38
562.27	44500.61
562.44	44500.61
562.60	44870.41
562.77	44903.18
562.93	44577.84
563.10	45242.56
563.26	44257.19
563.42	44727.64
563.59	44566.14
563.75	44531.03
563.92	45062.33
564.08	44737.00
564.24	44802.53
564.41	44957.01
564.57	44898.50
564.74	44713.59
564.90	44896.16
565.07	45244.90
565.23	44591.89
565.39	44608.27
565.56	44842.32
565.72	45074.04
565.88	44942.97
566.05	44774.45
566.21	44924.24
566.38	44989.78
566.54	45191.06
566.70	44891.48
566.87	45481.29
567.03	45420.44
567.19	45865.14
567.36	45141.91
567.52	44875.09
567.68	45390.01
567.85	44924.24
568.01	44968.71
568.17	44952.33
568.34	44966.37
568.50	45034.25
568.66	44919.56
568.83	45579.59
568.99	45106.80
569.15	44889.13
569.32	45113.83
569.48	45319.79
569.64	45226.17
569.81	45221.49
569.97	45045.95
570.13	45024.89
570.30	44807.22
570.46	45230.85
570.62	44786.15
570.78	44823.60
570.95	45162.98
571.11	45399.37
571.27	44971.05
571.43	44903.18
571.60	45209.79
571.76	44818.92
571.92	45050.63
572.09	44910.20
572.25	44942.97
572.41	45280.00
572.57	45530.44
572.74	45759.81
572.90	45497.67
573.06	45064.67
573.22	45298.73
573.38	45139.57
573.55	44907.86
573.71	45572.57
573.87	45642.79
574.03	44786.15
574.20	44973.39
574.36	45074.04
574.52	45277.66
574.68	45282.34
574.84	45701.30
575.01	45230.85
575.17	45251.92
575.33	44980.42
575.49	45235.53
575.65	45340.86
575.82	45897.91
575.98	45413.41
576.14	45645.13
576.30	45439.16
576.46	45020.20
576.62	45170.00
576.79	45518.74
576.95	45155.96
577.11	45303.41
577.27	44861.05
577.43	45312.77
577.59	45546.82
577.75	45560.87
577.92	44933.60
578.08	45137.23
578.24	44996.80
578.40	45605.34
578.56	44992.12
578.72	45078.72
578.88	45565.55
579.04	45184.04
579.21	45284.68
579.37	44907.86
579.53	45373.63
579.69	44755.72
579.85	45406.39
580.01	45413.41
580.17	45422.78
580.33	45432.14
580.49	45879.18
580.65	45787.90
580.82	45619.38
580.98	45626.40
581.14	45244.90
581.30	45474.27
581.46	45401.71
581.62	45139.57
581.78	45422.78
581.94	46059.40
582.10	45675.55
582.26	46164.73
582.42	45432.14
582.58	45432.14
582.74	45350.22
582.90	45530.44
583.06	45614.70
583.22	45818.33
583.38	45893.22
583.54	45546.82
583.70	45830.03
583.86	45567.89
584.02	45195.74
584.18	45385.33
584.34	45230.85
584.50	45429.80
584.66	45294.05
584.82	45247.24
584.98	46248.99
585.14	45893.22
585.30	45457.88
585.46	45823.01
585.62	45610.02
585.78	45787.90
585.94	45296.39
586.10	45270.64
586.26	45317.45
586.42	45684.92
586.58	45708.32
586.74	45907.27
586.90	45270.64
587.06	45111.49
587.22	45521.08
587.38	45244.90
587.54	45998.55
587.70	46136.64
587.86	45830.03
588.02	45591.30
588.18	45818.33
588.34	45790.24
588.49	45207.45
588.65	45298.73
588.81	45490.65
588.97	45291.71
589.13	45160.64
589.29	45308.09
589.45	45588.95
589.61	45890.88
589.77	46157.70
589.93	45895.56
590.08	45893.22
