SpectraSuite Data File
++++++++++++++++++++++++++++++++++++
Date: Fri Oct 25 10:47:03 EDT 2013
User: price-jones
Dark Spectrum Present: No
Reference Spectrum Present: No
Number of Sampled Component Spectra: 1
Spectrometers: USB2+H05261
Integration Time (usec): 100000 (USB2+H05261)
Spectra Averaged: 1 (USB2+H05261)
Boxcar Smoothing: 0 (USB2+H05261)
Correct for Electrical Dark: No (USB2+H05261)
Strobe/Lamp Enabled: No (USB2+H05261)
Correct for Detector Non-linearity: No (USB2+H05261)
Correct for Stray Light: No (USB2+H05261)
Number of Pixels in Processed Spectrum: 2048
>>>>>Begin Processed Spectral Data<<<<<
365.73	126.39
365.92	126.39
366.12	126.39
366.32	7.02
366.52	2.34
366.72	65.54
366.91	53.83
367.11	84.26
367.31	21.06
367.51	30.43
367.70	88.94
367.90	168.52
368.10	32.77
368.30	70.22
368.49	72.56
368.69	18.72
368.89	11.70
369.09	0.00
369.28	25.75
369.48	4.68
369.68	58.51
369.87	42.13
370.07	51.49
370.27	189.58
370.47	205.97
370.66	322.99
370.86	365.12
371.06	416.62
371.25	498.53
371.45	472.79
371.65	407.25
371.84	423.64
372.04	451.72
372.24	547.69
372.44	477.47
372.63	517.26
372.83	491.51
373.03	442.36
373.22	479.81
373.42	500.87
373.62	545.34
373.81	589.82
374.01	592.16
374.21	543.00
374.40	475.13
374.60	486.83
374.79	519.60
374.99	543.00
375.19	543.00
375.38	587.47
375.58	580.45
375.78	538.32
375.97	564.07
376.17	669.39
376.37	622.58
376.56	610.88
376.76	493.85
376.95	606.20
377.15	547.69
377.35	573.43
377.54	634.29
377.74	638.97
377.93	592.16
378.13	676.41
378.33	624.92
378.52	681.10
378.72	622.58
378.91	615.56
379.11	589.82
379.31	575.77
379.50	704.50
379.70	725.57
379.89	624.92
380.09	624.92
380.28	697.48
380.48	587.47
380.68	657.69
380.87	674.07
381.07	779.40
381.26	657.69
381.46	601.52
381.65	669.39
381.85	737.27
382.04	662.37
382.24	685.78
382.43	706.84
382.63	664.71
382.83	664.71
383.02	725.57
383.22	753.65
383.41	650.67
383.61	681.10
383.80	753.65
384.00	690.46
384.19	765.36
384.39	786.42
384.58	770.04
384.78	669.39
384.97	821.53
385.17	730.25
385.36	734.93
385.56	716.20
385.75	744.29
385.95	842.59
386.14	856.64
386.34	798.12
386.53	819.19
386.72	744.29
386.92	814.51
387.11	873.02
387.31	870.68
387.50	798.12
387.70	887.06
387.89	863.66
388.09	809.83
388.28	795.78
388.48	809.83
388.67	891.74
388.86	858.98
389.06	924.51
389.25	978.34
389.45	870.68
389.64	978.34
389.84	950.26
390.03	959.62
390.22	959.62
390.42	915.15
390.61	987.71
390.81	931.53
391.00	978.34
391.19	1004.09
391.39	919.83
391.58	1053.24
391.78	1050.90
391.97	1069.62
392.16	1027.50
392.36	1011.11
392.55	980.68
392.75	1015.79
392.94	929.19
393.13	990.05
393.33	938.55
393.52	957.28
393.71	1034.52
393.91	1039.20
394.10	1001.75
394.29	990.05
394.49	1114.10
394.68	1027.50
394.88	1107.07
395.07	1015.79
395.26	1186.65
395.46	1193.67
395.65	1287.29
395.84	1196.01
396.04	1149.20
396.23	1093.03
396.42	1177.29
396.62	1130.48
396.81	1158.57
397.00	1177.29
397.19	1219.42
397.39	1231.12
397.58	1247.51
397.77	1198.35
397.97	1310.70
398.16	1247.51
398.35	1289.64
398.55	1341.13
398.74	1254.53
398.93	1441.77
399.12	1437.09
399.32	1284.95
399.51	1336.45
399.70	1371.55
399.90	1465.18
400.09	1416.02
400.28	1446.45
400.47	1413.68
400.67	1460.49
400.86	1458.15
401.05	1521.35
401.24	1455.81
401.44	1577.52
401.63	1516.67
401.82	1568.16
402.01	1519.01
402.21	1521.35
402.40	1577.52
402.59	1495.60
402.78	1570.50
402.97	1650.08
403.17	1647.74
403.36	1556.46
403.55	1643.06
403.74	1589.22
403.93	1621.99
404.13	1680.50
404.32	1664.12
404.51	1710.93
404.70	1806.89
404.89	1732.00
405.09	1774.13
405.28	1842.00
405.47	1764.76
405.66	1813.92
405.85	1778.81
406.05	1724.97
406.24	1891.15
406.43	1928.60
406.62	1980.09
406.81	1996.48
407.00	1968.39
407.20	1863.07
407.39	1952.01
407.58	1884.13
407.77	2022.22
407.96	1984.77
408.15	1968.39
408.34	2003.50
408.54	2017.54
408.73	1949.67
408.92	2101.80
409.11	2113.50
409.30	2085.42
409.49	2090.10
409.68	2094.78
409.87	2125.21
410.07	2132.23
410.26	2132.23
410.45	2153.29
410.64	2155.63
410.83	2132.23
411.02	2265.64
411.21	2417.77
411.40	2303.09
411.59	2354.58
411.78	2368.62
411.98	2286.70
412.17	2333.51
412.36	2427.14
412.55	2485.65
412.74	2537.14
412.93	2448.20
413.12	2532.46
413.31	2605.02
413.50	2647.15
413.69	2523.10
413.88	2651.83
414.07	2658.85
414.26	2726.72
414.45	2700.98
414.64	2754.81
414.83	2773.53
415.02	2832.05
415.22	2810.98
415.41	2839.07
415.60	2778.22
415.79	2815.66
415.98	2958.44
416.17	2932.69
416.36	2869.50
416.55	3002.91
416.74	2970.14
416.93	2972.48
417.12	3110.57
417.31	3110.57
417.50	3117.59
417.69	3234.62
417.88	3087.17
418.07	3138.66
418.26	3171.43
418.45	3183.13
418.64	3349.31
418.83	3267.39
419.02	3321.22
419.21	3215.90
419.39	3201.85
419.58	3279.09
419.77	3243.98
419.96	3361.01
420.15	3435.91
420.34	3293.13
420.53	3438.25
420.72	3459.31
420.91	3382.07
421.10	3620.81
421.29	3513.14
421.48	3396.12
421.67	3487.40
421.86	3389.10
422.05	3447.61
422.24	3393.78
422.43	3431.23
422.61	3559.95
422.80	3562.30
422.99	3651.24
423.18	3592.72
423.37	3545.91
423.56	3562.30
423.75	3559.95
423.94	3543.57
424.13	3353.99
424.32	3492.08
424.50	3684.00
424.69	3815.07
424.88	3688.68
425.07	3562.30
425.26	3707.41
425.45	3543.57
425.64	3655.92
425.83	3721.45
426.01	3786.99
426.20	3616.13
426.39	3676.98
426.58	3737.84
426.77	3758.90
426.96	3679.32
427.15	3576.34
427.33	3702.73
427.52	3740.18
427.71	3658.26
427.90	3864.22
428.09	3847.84
428.28	3833.80
428.46	3892.31
428.65	3798.69
428.84	3929.76
429.03	3932.10
429.22	3896.99
429.40	3847.84
429.59	3906.35
429.78	3730.81
429.97	3808.05
430.16	3751.88
430.34	3899.33
430.53	3922.74
430.72	4053.81
430.91	3962.53
431.10	4046.79
431.28	4215.30
431.47	4238.71
431.66	4117.00
431.85	4133.39
432.03	4320.63
432.22	4271.48
432.41	4290.20
432.60	4196.58
432.79	4414.25
432.97	4435.32
433.16	4276.16
433.35	4311.27
433.54	4421.27
433.72	4358.08
433.91	4325.31
434.10	4437.66
434.28	4334.67
434.47	4582.77
434.66	4491.49
434.85	4489.15
435.03	4533.62
435.22	4582.77
435.41	4711.50
435.59	4582.77
435.78	4634.26
435.97	4690.43
436.16	4758.31
436.34	4748.95
436.53	4706.82
436.72	4863.63
436.90	4636.60
437.09	4821.50
437.28	4793.42
437.46	4674.05
437.65	4760.65
437.84	4936.19
438.02	4667.03
438.21	4800.44
438.40	4767.67
438.58	4973.64
438.77	5093.01
438.96	5032.15
439.14	5036.83
439.33	5242.80
439.52	5186.63
439.70	5221.74
439.89	5284.93
440.08	5266.21
440.26	5406.64
440.45	5224.08
440.63	5327.06
440.82	5547.07
441.01	5376.21
441.19	5481.53
441.38	5523.66
441.57	5547.07
441.75	5603.24
441.94	5675.80
442.12	5713.25
442.31	5809.21
442.50	5731.97
442.68	5895.81
442.87	5928.58
443.05	5788.14
443.24	5961.34
443.43	5928.58
443.61	5825.59
443.80	6017.52
443.98	5909.85
444.17	5640.69
444.35	5799.85
444.54	6167.31
444.73	5753.04
444.91	5935.60
445.10	5970.71
445.28	5853.68
445.47	5898.15
445.65	5947.30
445.84	6061.99
446.02	6026.88
446.21	5977.73
446.39	6122.84
446.58	6061.99
446.77	6207.10
446.95	5867.72
447.14	5942.62
447.32	6054.97
447.51	6181.35
447.69	6129.86
447.88	6036.24
448.06	6148.59
448.25	6083.05
448.43	6331.15
448.62	6099.44
448.80	6033.90
448.99	6321.79
449.17	6258.59
449.36	6277.32
449.54	6314.77
449.73	6483.28
449.91	6537.12
450.10	6565.20
450.28	6726.70
450.46	6539.46
450.65	6544.14
450.83	6663.51
451.02	6558.18
451.20	6630.74
451.39	6757.13
451.57	6658.82
451.76	6640.10
451.94	6539.46
452.13	6766.49
452.31	6874.15
452.49	6476.26
452.68	6628.40
452.86	6757.13
453.05	6628.40
453.23	6794.58
453.42	6855.43
453.60	6696.27
453.78	6935.01
453.97	6604.99
454.15	6691.59
454.34	6850.75
454.52	6878.83
454.70	6675.21
454.89	6892.88
455.07	7070.76
455.26	6944.37
455.44	7026.29
455.62	7028.63
455.81	7023.95
455.99	7187.79
456.17	7206.51
456.36	7241.62
456.54	7148.00
456.73	7339.92
456.91	7466.31
457.09	7262.68
457.28	7581.00
457.46	7438.22
457.64	7344.60
457.83	7426.52
458.01	7407.80
458.19	7691.00
458.38	7564.61
458.56	7573.97
458.74	7749.51
458.93	7679.30
459.11	7419.50
459.29	7595.04
459.48	7681.64
459.66	7777.60
459.84	7646.53
460.03	8058.46
460.21	7808.03
460.39	7836.11
460.57	7889.95
460.76	8051.44
460.94	7992.93
461.12	7936.76
461.31	8018.68
461.49	7906.33
461.67	8004.63
461.85	8037.40
462.04	8105.28
462.22	8507.85
462.40	7964.84
462.59	8472.74
462.77	8210.60
462.95	8285.50
463.13	8325.29
463.32	8203.58
463.50	8065.49
463.68	8304.22
463.86	8203.58
464.05	8194.22
464.23	8051.44
464.41	8418.91
464.59	8163.79
464.78	8320.60
464.96	8414.23
465.14	8215.28
465.32	8374.44
465.50	8498.49
465.69	8489.12
465.87	8493.80
466.05	8374.44
466.23	8505.51
466.41	8479.76
466.60	8655.30
466.78	8503.17
466.96	8669.34
467.14	8669.34
467.32	8655.30
467.51	8912.76
467.69	8554.66
467.87	8706.79
468.05	8751.26
468.23	8617.85
468.41	8650.62
468.60	8741.90
468.78	8814.46
468.96	8748.92
469.14	9139.79
469.32	9172.56
469.50	8966.59
469.69	9146.81
469.87	9011.06
470.05	9008.72
470.23	9027.45
470.41	9057.87
470.59	9284.91
470.77	9195.96
470.95	9202.99
471.14	9423.00
471.32	9359.80
471.50	9369.16
471.68	9453.42
471.86	9554.07
472.04	9516.62
472.22	9678.12
472.40	9647.69
472.58	9643.01
472.77	9650.03
472.95	9900.47
473.13	10108.77
473.31	9851.31
473.49	9755.35
473.67	9991.75
473.85	9919.19
474.03	10125.16
474.21	9947.28
474.39	10171.97
474.57	10242.18
474.75	10361.55
474.93	10455.17
475.12	10338.15
475.30	10214.10
475.48	10328.78
475.66	10270.27
475.84	10513.69
476.02	10567.52
476.20	10677.52
476.38	10836.68
476.56	10949.03
476.74	11220.53
476.92	10773.49
477.10	10766.46
477.28	11091.80
477.46	11414.79
477.64	11241.59
477.82	11477.99
478.00	11662.89
478.18	11475.65
478.36	11714.38
478.54	11714.38
478.72	11737.79
478.90	11948.43
479.08	11992.90
479.26	12189.51
479.44	12166.10
479.62	12147.38
479.80	12549.95
479.98	12245.68
480.16	12592.08
480.34	12725.49
480.52	12894.01
480.70	12706.77
480.88	12545.27
481.06	12961.89
481.24	12734.85
481.41	12978.27
481.59	13415.95
481.77	13317.65
481.95	13432.33
482.13	13654.69
482.31	13638.30
482.49	13792.78
482.67	14010.45
482.85	13830.23
483.03	14108.75
483.21	14310.04
483.39	14279.61
483.57	14288.97
483.74	14436.42
483.92	14808.57
484.10	14457.49
484.28	14721.97
484.46	14780.48
484.64	15178.37
484.82	14801.55
485.00	15302.42
485.18	15220.50
485.35	15124.54
485.53	15269.66
485.71	15365.62
485.89	15484.98
486.07	15477.96
486.25	15822.02
486.43	15843.09
486.61	16095.86
486.78	16035.01
486.96	16130.97
487.14	16613.12
487.32	16376.73
487.50	16847.18
487.68	16823.77
487.85	17064.85
488.03	17547.00
488.21	17429.97
488.39	17518.91
488.57	17582.10
488.75	17626.57
488.92	17886.37
489.10	17956.59
489.28	17975.31
489.46	18455.12
489.64	18326.39
489.81	18909.19
489.99	18764.07
490.17	18864.72
490.35	19180.69
490.53	19070.68
490.70	19346.87
490.88	19192.39
491.06	19398.36
491.24	19487.30
491.41	19594.96
491.59	19702.63
491.77	19597.31
491.95	19920.30
492.13	19859.45
492.30	20290.10
492.48	20350.96
492.66	20271.38
492.84	20486.71
493.01	20978.22
493.19	20592.03
493.37	20863.54
493.54	21067.16
493.72	21575.06
493.90	21350.37
494.08	21308.24
494.25	21654.64
494.43	21759.96
494.61	21750.60
494.79	21926.14
494.96	21486.12
495.14	21902.73
495.32	22246.79
495.49	22333.39
495.67	22305.31
495.85	22698.52
496.02	22663.41
496.20	22647.02
496.38	22906.82
496.55	22885.76
496.73	23381.95
496.91	23082.36
497.09	23314.08
497.26	23190.03
497.44	23386.63
497.62	23442.81
497.79	23737.71
497.97	24044.32
498.14	23847.72
498.32	24297.10
498.50	24166.03
498.67	24547.54
498.85	24240.93
499.03	24673.93
499.20	24573.28
499.38	24830.74
499.56	25212.25
499.73	24643.50
499.91	24694.99
500.08	25055.43
500.26	25240.34
500.44	25081.18
500.61	25364.39
500.79	24919.68
500.97	25331.62
501.14	25638.23
501.32	25750.57
501.49	25603.12
501.67	25645.25
501.84	26164.85
502.02	25816.11
502.20	26246.77
502.37	26412.95
502.55	26398.90
502.72	26338.05
502.90	26354.43
503.07	26309.96
503.25	26609.55
503.43	26162.51
503.60	26625.93
503.78	26740.62
503.95	26984.04
504.13	26934.88
504.30	27145.53
504.48	27000.42
504.65	27178.30
504.83	27452.14
505.01	27138.51
505.18	27592.58
505.36	28048.98
505.53	28100.47
505.71	27810.25
505.88	27934.29
506.06	27562.15
506.23	27990.47
506.41	27866.42
506.58	28079.41
506.76	28355.59
506.93	28535.81
507.11	28547.51
507.28	28301.76
507.46	28020.89
507.63	28533.47
507.81	28680.92
507.98	28634.11
508.16	28926.68
508.33	28933.70
508.50	29013.28
508.68	28947.75
508.85	29539.90
509.03	29254.36
509.20	29191.16
509.38	29380.74
509.55	30012.69
509.73	29748.21
509.90	29844.17
510.08	29677.99
510.25	29542.24
510.42	29879.28
510.60	30192.91
510.77	30024.39
510.95	30281.85
511.12	30286.53
511.30	30338.02
511.47	30583.78
511.64	30286.53
511.82	30391.86
511.99	30520.59
512.17	30635.27
512.34	30581.44
512.51	30635.27
512.69	30815.49
512.86	30848.26
513.04	31283.60
513.21	30904.43
513.38	30984.01
513.56	31344.45
513.73	31321.05
513.90	31307.01
514.08	31173.60
514.25	31250.83
514.43	31648.72
514.60	31772.77
514.77	31498.93
514.95	32147.26
515.12	32318.12
515.29	32442.17
515.47	32182.37
515.64	32107.47
515.81	32252.58
515.99	32367.27
516.16	32264.28
516.33	32060.66
516.51	32283.01
516.68	32039.59
516.85	32320.46
517.03	32339.18
517.20	32512.38
517.37	32870.48
517.54	32765.16
517.72	32865.80
517.89	32561.53
518.06	33111.56
518.24	33064.75
518.41	32458.55
518.58	32837.72
518.75	33057.73
518.93	33251.99
519.10	32877.51
519.27	33287.10
519.45	33462.64
519.62	33975.22
519.79	33909.68
519.96	34003.30
520.14	33844.15
520.31	33694.35
520.48	34033.73
520.65	34019.69
520.83	34267.78
521.00	34415.24
521.17	34110.97
521.34	34541.63
521.52	34183.52
521.69	34555.67
521.86	34345.02
522.03	34527.58
522.20	34873.98
522.38	34972.28
522.55	35040.16
522.72	34391.83
522.89	34817.81
523.07	34845.90
523.24	35358.47
523.41	35061.22
523.58	35005.05
523.75	35344.43
523.92	35927.22
524.10	35714.23
524.27	35360.81
524.44	35938.93
524.61	35899.14
524.78	35779.77
524.96	35849.99
525.13	35885.09
525.30	35824.24
525.47	36133.19
525.64	36070.00
525.81	35967.01
525.98	35941.27
526.16	35641.68
526.33	35866.37
526.50	36376.61
526.67	35756.36
526.84	36264.26
527.01	35833.60
527.18	36231.49
527.36	36301.71
527.53	36596.62
527.70	37125.58
527.87	36575.55
528.04	36816.63
528.21	36594.28
528.38	36669.17
528.55	37160.69
528.72	37296.44
528.89	37357.29
529.07	36608.32
529.24	36769.82
529.41	37067.06
529.58	36947.70
529.75	37237.92
529.92	37366.65
530.09	37319.84
530.26	37373.67
530.43	37457.93
530.60	37186.43
530.77	37453.25
530.94	37794.97
531.11	37450.91
531.28	37708.37
531.46	37682.62
531.63	38195.20
531.80	37762.20
531.97	37827.74
532.14	37893.27
532.31	37624.11
532.48	38153.07
532.65	37865.19
532.82	37923.70
532.99	38092.22
533.16	37895.61
533.33	38588.41
533.50	38539.26
533.67	38361.38
533.84	38352.02
534.01	38309.89
534.18	38286.48
534.35	39000.35
534.52	38628.20
534.69	38990.98
534.86	38712.46
535.03	38672.67
535.20	39367.81
535.37	39243.76
535.54	38988.64
535.71	39014.39
535.88	39402.92
536.05	39079.92
536.22	39288.23
536.38	39339.72
536.55	38920.77
536.72	39423.98
536.89	38766.29
537.06	39196.95
537.23	39543.35
537.40	38721.82
537.57	39220.36
537.74	39608.89
537.91	39702.51
538.08	39215.68
538.25	39655.70
538.42	39824.22
538.59	40004.44
538.75	39119.71
538.92	39707.19
539.09	39714.21
539.26	39761.02
539.43	39903.79
539.60	39674.42
539.77	39856.98
539.94	39915.50
540.11	39672.08
540.28	39920.18
540.44	40165.93
540.61	39775.06
540.78	40233.81
540.95	40067.63
541.12	39831.24
541.29	40306.37
541.46	40018.48
541.62	40060.61
541.79	40512.33
541.96	39964.65
542.13	40369.56
542.30	40591.91
542.47	40751.07
542.63	40437.44
542.80	40842.35
542.97	41024.91
543.14	41043.63
543.31	41312.80
543.48	41010.87
543.64	40968.74
543.81	41488.34
543.98	41429.82
544.15	40950.01
544.32	41034.27
544.48	41308.11
544.65	41495.36
544.82	41273.01
544.99	40800.22
545.16	41605.36
545.32	41256.62
545.49	41682.60
545.66	41738.77
545.83	41689.62
546.00	41680.26
546.16	41659.20
546.33	41528.13
546.50	41228.54
546.67	41736.43
546.83	41460.25
547.00	42080.49
547.17	41848.78
547.34	41851.12
547.50	41907.29
547.67	42543.92
547.84	41869.84
548.00	42171.77
548.17	42368.38
548.34	42190.50
548.51	41972.83
548.67	42923.08
548.84	42391.78
549.01	42433.91
549.18	42382.42
549.34	42433.91
549.51	42410.51
549.68	42394.12
549.84	42667.97
550.01	42546.26
550.18	42162.41
550.34	42288.80
550.51	42124.96
550.68	42298.16
550.84	42401.14
551.01	42162.41
551.18	42349.65
551.34	42892.66
551.51	42476.04
551.68	42387.10
551.84	42857.55
552.01	42761.59
552.18	42433.91
552.34	42398.80
552.51	42958.19
552.68	42478.38
552.84	43320.98
553.01	43412.26
553.18	42941.81
553.34	42916.06
553.51	42890.32
553.67	42782.65
553.84	43278.85
554.01	43590.14
554.17	43372.47
554.34	43281.19
554.51	43428.64
554.67	43180.54
554.84	42972.24
555.00	43232.04
555.17	43189.91
555.33	43274.16
555.50	43173.52
555.67	43540.99
555.83	43145.44
556.00	43489.49
556.16	44039.52
556.33	43906.11
556.50	43129.05
556.66	43751.63
556.83	43194.59
556.99	43859.30
557.16	43978.67
557.32	44135.48
557.49	43386.51
557.65	43597.16
557.82	43302.25
557.98	43798.44
558.15	43761.00
558.32	44041.86
558.48	43805.47
558.65	43695.46
558.81	43732.91
558.98	43903.77
559.14	43978.67
559.31	43824.19
559.47	43861.64
559.64	43992.71
559.80	44313.36
559.97	43854.62
560.13	44231.44
560.30	43985.69
560.46	44055.90
560.63	44357.83
560.79	44109.74
560.96	44566.14
561.12	44369.54
561.29	44531.03
561.45	44669.12
561.61	44425.71
561.78	44296.98
561.94	43934.20
562.11	44247.83
562.27	44224.42
562.44	44182.29
562.60	44549.76
562.77	44577.84
562.93	44573.16
563.10	44495.92
563.26	44172.93
563.42	44516.99
563.59	44563.80
563.75	44533.37
563.92	44608.27
564.08	44435.07
564.24	44327.41
564.41	44603.59
564.57	44411.67
564.74	44252.51
564.90	44992.12
565.07	44912.54
565.23	44428.05
565.39	44149.53
565.56	44402.30
565.72	43861.64
565.88	44196.34
566.05	44186.97
566.21	44219.74
566.38	44732.32
566.54	44437.41
566.70	44589.55
566.87	45031.91
567.03	44472.52
567.19	44994.46
567.36	44650.40
567.52	44552.10
567.68	44729.98
567.85	44446.77
568.01	44828.28
568.17	44545.08
568.34	44872.75
568.50	44622.31
568.66	44626.99
568.83	44678.49
568.99	44411.67
569.15	44645.72
569.32	44617.63
569.48	45069.36
569.64	45059.99
569.81	44947.65
569.97	44769.77
570.13	45001.48
570.30	44671.46
570.46	44463.16
570.62	44287.62
570.78	44495.92
570.95	44346.13
571.11	44877.43
571.27	44982.76
571.43	44947.65
571.60	44907.86
571.76	44753.38
571.92	44729.98
572.09	44837.64
572.25	45036.59
572.41	44933.60
572.57	44889.13
572.74	45284.68
572.90	45095.10
573.06	45188.72
573.22	45113.83
573.38	44636.36
573.55	44369.54
573.71	45254.26
573.87	45015.52
574.03	44783.81
574.20	44708.91
574.36	44729.98
574.52	44992.12
574.68	44921.90
574.84	45015.52
575.01	44659.76
575.17	44877.43
575.33	44893.82
575.49	44760.40
575.65	44905.52
575.82	45722.37
575.98	45167.66
576.14	45406.39
576.30	45249.58
576.46	45336.18
576.62	44587.21
576.79	45371.28
576.95	44423.37
577.11	44821.26
577.27	45041.27
577.43	45202.77
577.59	45102.12
577.75	45134.89
577.92	45031.91
578.08	44744.02
578.24	44545.08
578.40	45050.63
578.56	45038.93
578.72	44870.41
578.88	45036.59
579.04	45446.18
579.21	45207.45
579.37	45081.06
579.53	45195.74
579.69	44844.66
579.85	45350.22
580.01	44900.84
580.17	45153.62
580.33	45492.99
580.49	45088.08
580.65	45212.13
580.82	45478.95
580.98	44814.24
581.14	44254.85
581.30	45298.73
581.46	45085.74
581.62	45366.60
581.78	45326.81
581.94	45315.11
582.10	45387.67
582.26	45340.86
582.42	45375.97
582.58	45352.56
582.74	44701.89
582.90	45308.09
583.06	45326.81
583.22	45492.99
583.38	45359.58
583.54	45008.50
583.70	45003.82
583.86	45392.35
584.02	45085.74
584.18	45352.56
584.34	45296.39
584.50	45137.23
584.66	45453.20
584.82	45216.81
584.98	45373.63
585.14	45312.77
585.30	44697.21
585.46	44996.80
585.62	44893.82
585.78	45230.85
585.94	44985.10
586.10	44732.32
586.26	44884.45
586.42	45415.76
586.58	45333.84
586.74	45331.50
586.90	45212.13
587.06	45500.01
587.22	45177.02
587.38	45153.62
587.54	45654.49
587.70	44978.07
587.86	45610.02
588.02	45453.20
588.18	45263.62
588.34	45301.07
588.49	44973.39
588.65	44954.67
588.81	44957.01
588.97	45092.76
589.13	45071.70
589.29	44844.66
589.45	45242.56
589.61	45549.17
589.77	45612.36
589.93	45207.45
590.08	45502.35
590.24	46033.66
