SpectraSuite Data File
++++++++++++++++++++++++++++++++++++
Date: Fri Oct 25 10:47:41 EDT 2013
User: price-jones
Dark Spectrum Present: No
Reference Spectrum Present: No
Number of Sampled Component Spectra: 1
Spectrometers: USB2+H05261
Integration Time (usec): 100000 (USB2+H05261)
Spectra Averaged: 1 (USB2+H05261)
Boxcar Smoothing: 0 (USB2+H05261)
Correct for Electrical Dark: No (USB2+H05261)
Strobe/Lamp Enabled: No (USB2+H05261)
Correct for Detector Non-linearity: No (USB2+H05261)
Correct for Stray Light: No (USB2+H05261)
Number of Pixels in Processed Spectrum: 2048
>>>>>Begin Processed Spectral Data<<<<<
365.73	161.50
365.92	161.50
366.12	161.50
366.32	51.49
366.52	0.00
366.72	9.36
366.91	0.00
367.11	16.38
367.31	44.47
367.51	21.06
367.70	46.81
367.90	23.41
368.10	37.45
368.30	53.83
368.49	7.02
368.69	110.01
368.89	28.09
369.09	58.51
369.28	32.77
369.48	95.96
369.68	51.49
369.87	117.03
370.07	63.19
370.27	194.26
370.47	187.24
370.66	353.42
370.86	367.46
371.06	447.04
371.25	428.32
371.45	416.62
371.65	465.77
371.84	430.66
372.04	397.89
372.24	475.13
372.44	482.15
372.63	461.09
372.83	512.58
373.03	493.85
373.22	524.28
373.42	521.94
373.62	470.45
373.81	545.34
374.01	552.37
374.21	585.13
374.40	489.17
374.60	524.28
374.79	489.17
374.99	521.94
375.19	608.54
375.38	608.54
375.58	543.00
375.78	615.56
375.97	671.73
376.17	664.71
376.37	582.79
376.56	585.13
376.76	573.43
376.95	594.50
377.15	526.62
377.35	587.47
377.54	648.33
377.74	524.28
377.93	564.07
378.13	610.88
378.33	592.16
378.52	617.90
378.72	692.80
378.91	545.34
379.11	622.58
379.31	662.37
379.50	622.58
379.70	608.54
379.89	688.12
380.09	692.80
380.28	638.97
380.48	681.10
380.68	720.88
380.87	704.50
381.07	667.05
381.26	692.80
381.46	650.67
381.65	758.33
381.85	713.86
382.04	704.50
382.24	678.76
382.43	683.44
382.63	774.72
382.83	774.72
383.02	737.27
383.22	709.18
383.41	662.37
383.61	599.18
383.80	791.10
384.00	720.88
384.19	748.97
384.39	744.29
384.58	763.01
384.78	674.07
384.97	751.31
385.17	751.31
385.36	741.95
385.56	753.65
385.75	723.23
385.95	746.63
386.14	699.82
386.34	800.46
386.53	807.48
386.72	786.42
386.92	844.93
387.11	840.25
387.31	753.65
387.50	842.59
387.70	807.48
387.89	908.13
388.09	833.23
388.28	828.55
388.48	779.40
388.67	908.13
388.86	898.77
389.06	915.15
389.25	947.92
389.45	943.24
389.64	875.36
389.84	863.66
390.03	896.43
390.22	976.00
390.42	866.00
390.61	936.21
390.81	924.51
391.00	931.53
391.19	901.11
391.39	990.05
391.58	940.90
391.78	912.81
391.97	976.00
392.16	966.64
392.36	1043.88
392.55	964.30
392.75	952.60
392.94	877.70
393.13	987.71
393.33	1048.56
393.52	1018.13
393.71	1043.88
393.91	1004.09
394.10	1107.07
394.29	1015.79
394.49	1053.24
394.68	1139.84
394.88	1107.07
395.07	1163.25
395.26	1039.20
395.46	1137.50
395.65	1160.91
395.84	1144.52
396.04	1210.06
396.23	1062.60
396.42	1100.05
396.62	1086.01
396.81	1081.33
397.00	1114.10
397.19	1135.16
397.39	1181.97
397.58	1212.40
397.77	1254.53
397.97	1226.44
398.16	1266.23
398.35	1329.42
398.55	1191.33
398.74	1226.44
398.93	1301.34
399.12	1275.59
399.32	1327.08
399.51	1287.29
399.70	1397.30
399.90	1380.92
400.09	1430.07
400.28	1409.00
400.47	1369.21
400.67	1469.86
400.86	1490.92
401.05	1563.48
401.24	1462.83
401.44	1437.09
401.63	1465.18
401.82	1558.80
402.01	1530.71
402.21	1462.83
402.40	1549.43
402.59	1516.67
402.78	1535.39
402.97	1502.62
403.17	1579.86
403.36	1591.56
403.55	1673.48
403.74	1755.40
403.93	1626.67
404.13	1764.76
404.32	1626.67
404.51	1598.59
404.70	1774.13
404.89	1732.00
405.09	1678.16
405.28	1699.23
405.47	1722.63
405.66	1776.47
405.85	1806.89
406.05	1732.00
406.24	1795.19
406.43	1818.60
406.62	1863.07
406.81	1944.99
407.00	1809.23
407.20	1825.62
407.39	1827.96
407.58	1923.92
407.77	1907.54
407.96	1935.62
408.15	2092.44
408.34	1921.58
408.54	2085.42
408.73	1973.07
408.92	2017.54
409.11	2057.33
409.30	2080.74
409.49	2069.03
409.68	2017.54
409.87	1996.48
410.07	2083.08
410.26	2155.63
410.45	2162.66
410.64	2134.57
410.83	2249.25
411.02	2169.68
411.21	2143.93
411.40	2188.40
411.59	2275.00
411.78	2352.24
411.98	2195.42
412.17	2394.37
412.36	2349.90
412.55	2349.90
412.74	2347.56
412.93	2459.90
413.12	2370.96
413.31	2513.74
413.50	2466.92
413.69	2504.37
413.88	2576.93
414.07	2534.80
414.26	2523.10
414.45	2675.23
414.64	2607.36
414.83	2644.81
415.02	2555.86
415.22	2778.22
415.41	2729.06
415.60	2827.37
415.79	2785.24
415.98	2916.31
416.17	2836.73
416.36	2897.58
416.55	2799.28
416.74	2874.18
416.93	2970.14
417.12	2918.65
417.31	2963.12
417.50	2988.86
417.69	3014.61
417.88	3045.04
418.07	3068.44
418.26	3002.91
418.45	3171.43
418.64	3145.68
418.83	3122.27
419.02	3141.00
419.21	3133.98
419.39	3164.40
419.58	3220.58
419.77	3225.26
419.96	3255.69
420.15	3400.80
420.34	3372.71
420.53	3234.62
420.72	3424.20
420.91	3349.31
421.10	3375.05
421.29	3370.37
421.48	3410.16
421.67	3494.42
421.86	3342.28
422.05	3342.28
422.24	3433.57
422.43	3276.75
422.61	3330.58
422.80	3482.72
422.99	3581.02
423.18	3471.01
423.37	3599.74
423.56	3604.42
423.75	3501.44
423.94	3564.64
424.13	3281.43
424.32	3368.03
424.50	3569.32
424.69	3590.38
424.88	3669.96
425.07	3487.40
425.26	3478.04
425.45	3456.97
425.64	3634.85
425.83	3524.85
426.01	3592.72
426.20	3552.93
426.39	3538.89
426.58	3482.72
426.77	3583.36
426.96	3709.75
427.15	3566.98
427.33	3667.62
427.52	3702.73
427.71	3747.20
427.90	3684.00
428.09	3709.75
428.28	3756.56
428.46	3854.86
428.65	3896.99
428.84	3894.65
429.03	3854.86
429.22	3616.13
429.40	3808.05
429.59	3878.27
429.78	3581.02
429.97	3641.87
430.16	3779.97
430.34	3712.09
430.53	3686.34
430.72	3758.90
430.91	3836.14
431.10	3999.98
431.28	3988.27
431.47	4203.60
431.66	4032.74
431.85	4107.64
432.03	4170.83
432.22	4224.67
432.41	4126.36
432.60	4238.71
432.79	4283.18
432.97	4315.95
433.16	4198.92
433.35	4208.28
433.54	4135.73
433.72	4273.82
433.91	4166.15
434.10	4360.42
434.28	4280.84
434.47	4287.86
434.66	4402.55
434.85	4531.28
435.03	4552.34
435.22	4409.57
435.41	4643.62
435.59	4470.42
435.78	4620.22
435.97	4599.15
436.16	4699.80
436.34	4512.55
436.53	4762.99
436.72	4657.67
436.90	4648.30
437.09	4674.05
437.28	4589.79
437.46	4601.49
437.65	4606.17
437.84	4805.12
438.02	4765.33
438.21	4823.84
438.40	4603.83
438.58	4727.88
438.77	4978.32
438.96	4814.48
439.14	4887.04
439.33	5011.09
439.52	5135.14
439.70	5022.79
439.89	5053.22
440.08	5224.08
440.26	5085.98
440.45	5109.39
440.63	5137.48
440.82	5188.97
441.01	5277.91
441.19	5378.55
441.38	5481.53
441.57	5313.02
441.75	5551.75
441.94	5551.75
442.12	5795.17
442.31	5713.25
442.50	5673.46
442.68	5565.79
442.87	5591.54
443.05	5650.05
443.24	5769.42
443.43	5806.87
443.61	5778.78
443.80	5902.83
443.98	5884.11
444.17	5408.98
444.35	6005.81
444.54	5914.53
444.73	5858.36
444.91	5881.77
445.10	5809.21
445.28	5914.53
445.47	5734.31
445.65	5692.18
445.84	5980.07
446.02	5788.14
446.21	5977.73
446.39	6092.41
446.58	5961.34
446.77	5980.07
446.95	6066.67
447.14	5841.98
447.32	6073.69
447.51	6078.37
447.69	5980.07
447.88	6052.63
448.06	5940.28
448.25	5895.81
448.43	5954.32
448.62	5902.83
448.80	5893.47
448.99	6134.54
449.17	6036.24
449.36	5923.90
449.54	6394.34
449.73	6333.49
449.91	6284.34
450.10	6347.53
450.28	6345.19
450.46	6450.52
450.65	6347.53
450.83	6553.50
451.02	6396.68
451.20	6586.27
451.39	6434.13
451.57	6452.86
451.76	6282.00
451.94	6537.12
452.13	6368.60
452.31	6574.56
452.49	6448.18
452.68	6614.35
452.86	6417.75
453.05	6647.12
453.23	6705.63
453.42	6438.81
453.60	6497.33
453.78	6703.29
453.97	6490.31
454.15	6612.01
454.34	6682.23
454.52	6778.19
454.70	6843.73
454.89	6923.30
455.07	6745.42
455.26	6740.74
455.44	6799.26
455.62	6953.73
455.81	7005.22
455.99	7073.10
456.17	7021.61
456.36	6722.02
456.54	7159.70
456.73	6970.12
456.91	7389.07
457.09	7227.57
457.28	7330.56
457.46	7250.98
457.64	7412.48
457.83	7215.87
458.01	7119.91
458.19	7449.93
458.38	7342.26
458.56	7428.86
458.74	7360.98
458.93	7389.07
459.11	7550.57
459.29	7461.63
459.48	7393.75
459.66	7543.55
459.84	7466.31
460.03	7581.00
460.21	7557.59
460.39	7559.93
460.57	7744.83
460.76	7688.66
460.94	7698.02
461.12	7913.35
461.31	7815.05
461.49	7808.03
461.67	7733.13
461.85	8051.44
462.04	8049.10
462.22	8336.99
462.40	7948.46
462.59	8039.74
462.77	7845.48
462.95	7911.01
463.13	7974.21
463.32	7981.23
463.50	8145.06
463.68	8238.69
463.86	7976.55
464.05	8037.40
464.23	7950.80
464.41	8215.28
464.59	7950.80
464.78	8184.85
464.96	8301.88
465.14	8145.06
465.32	8332.31
465.50	8264.43
465.69	8318.26
465.87	8276.13
466.05	8423.59
466.23	8430.61
466.41	8313.58
466.60	8500.83
466.78	8243.37
466.96	8203.58
467.14	8318.26
467.32	8379.12
467.51	8751.26
467.69	8393.16
467.87	8477.42
468.05	8538.27
468.23	8617.85
468.41	8599.13
468.60	8594.45
468.78	8624.87
468.96	8657.64
469.14	8830.84
469.32	8980.64
469.50	8533.59
469.69	8638.92
469.87	8816.80
470.05	8788.71
470.23	8898.72
470.41	8809.78
470.59	8973.61
470.77	8912.76
470.95	9088.30
471.14	9132.77
471.32	9025.11
471.50	9263.84
471.68	9174.90
471.86	9270.86
472.04	9032.13
472.22	9401.93
472.40	9312.99
472.58	9577.47
472.77	9324.69
472.95	9523.64
473.13	9790.46
473.31	9713.22
473.49	9521.30
473.67	9586.83
473.85	9851.31
474.03	9888.76
474.21	9757.69
474.39	9867.70
474.57	9884.08
474.75	10111.11
474.93	10195.37
475.12	10242.18
475.30	10448.15
475.48	10148.56
475.66	10335.81
475.84	10312.40
476.02	10076.01
476.20	10387.30
476.38	10480.92
476.56	10958.39
476.74	10752.42
476.92	10558.16
477.10	10707.95
477.28	10869.45
477.46	10862.43
477.64	10904.56
477.82	11180.74
478.00	11424.15
478.18	11222.87
478.36	11382.03
478.54	11723.74
478.72	11599.70
478.90	11604.38
479.08	11810.34
479.26	11854.81
479.44	11946.09
479.62	11864.18
479.80	12320.58
479.98	12304.20
480.16	12528.89
480.34	12135.68
480.52	12575.70
480.70	12578.04
480.88	12269.09
481.06	12503.14
481.24	12603.78
481.41	12695.07
481.59	12938.48
481.77	12847.20
481.95	13315.31
482.13	13226.37
482.31	13305.95
482.49	13404.25
482.67	13434.68
482.85	13486.17
483.03	13757.67
483.21	13923.85
483.39	14214.07
483.57	14047.90
483.74	14094.71
483.92	14104.07
484.10	14218.75
484.28	14218.75
484.46	14590.90
484.64	14626.01
484.82	14633.03
485.00	14855.38
485.18	15054.33
485.35	14946.66
485.53	15021.56
485.71	15138.58
485.89	15318.81
486.07	15433.49
486.25	15250.93
486.43	15407.75
486.61	15714.36
486.78	15946.07
486.96	15964.79
487.14	16336.94
487.32	16114.59
487.50	16238.64
487.68	16563.97
487.85	16842.50
488.03	16819.09
488.21	16966.54
488.39	17055.48
488.57	17158.47
488.75	17284.86
488.92	17291.88
489.10	17745.94
489.28	17752.96
489.46	17844.24
489.64	18071.28
489.81	18562.79
489.99	18253.84
490.17	18398.95
490.35	18712.58
490.53	18347.46
490.70	18792.16
490.88	18410.65
491.06	19056.64
491.24	18843.65
491.41	18906.85
491.59	19243.88
491.77	18934.93
491.95	19632.41
492.13	19681.56
492.30	20013.92
492.48	19784.55
492.66	20030.30
492.84	19784.55
493.01	20109.88
493.19	20259.68
493.37	20596.71
493.54	20423.51
493.72	20414.15
493.90	20870.56
494.08	20992.26
494.25	21324.62
494.43	21167.80
494.61	21369.09
494.79	21294.19
494.96	21322.28
495.14	21586.76
495.32	21617.19
495.49	21788.05
495.67	22078.27
495.85	21858.26
496.02	22415.31
496.20	22267.86
496.38	22171.89
496.55	22429.35
496.73	23117.47
496.91	22441.06
497.09	23068.32
497.26	23197.05
497.44	22948.95
497.62	23192.37
497.79	23007.47
497.97	22848.31
498.14	23723.67
498.32	23576.22
498.50	23873.46
498.67	23751.76
498.85	24056.03
499.03	24201.14
499.20	23922.62
499.38	24306.46
499.56	24154.33
499.73	24142.63
499.91	24629.46
500.08	24430.51
500.26	24404.77
500.44	24261.99
500.61	24650.52
500.79	24369.66
500.97	24844.79
501.14	25146.72
501.32	25348.00
501.49	25050.75
501.67	25362.04
501.84	25216.93
502.02	25666.31
502.20	25352.68
502.37	25748.23
502.55	25460.35
502.72	25961.22
502.90	26078.25
503.07	25986.97
503.25	25972.92
503.43	26071.23
503.60	26031.44
503.78	26426.99
503.95	26441.03
504.13	26462.10
504.30	26735.94
504.48	26815.52
504.65	26675.09
504.83	26834.24
505.01	26895.10
505.18	26972.33
505.36	27145.53
505.53	27393.63
505.71	27435.76
505.88	27655.77
506.06	27332.78
506.23	27576.19
506.41	27016.80
506.58	27735.35
506.76	27887.48
506.93	27625.34
507.11	27807.90
507.28	27924.93
507.46	28034.94
507.63	28074.73
507.81	27873.44
507.98	28058.34
508.16	28568.58
508.33	28561.56
508.50	28421.13
508.68	28599.01
508.85	28767.52
509.03	28744.12
509.20	28781.57
509.38	29041.37
509.55	29156.05
509.73	29010.94
509.90	29254.36
510.08	29134.99
510.25	29083.50
510.42	29397.13
510.60	29656.93
510.77	29832.47
510.95	30125.04
511.12	29376.06
511.30	29748.21
511.47	29886.30
511.64	30099.29
511.82	29788.00
511.99	29792.68
512.17	30522.93
512.34	29680.33
512.51	30192.91
512.69	30604.84
512.86	30424.62
513.04	30359.09
513.21	30583.78
513.38	30501.86
513.56	30731.23
513.73	30375.47
513.90	30930.18
514.08	30487.82
514.25	30838.90
514.43	30876.35
514.60	31131.47
514.77	30852.94
514.95	31452.12
515.12	31311.69
515.29	31667.45
515.47	31690.85
515.64	31978.74
515.81	31363.18
515.99	31747.03
516.16	31625.32
516.33	31812.56
516.51	31798.52
516.68	31309.35
516.85	31501.27
517.03	31644.04
517.20	31704.90
517.37	32156.62
517.54	32442.17
517.72	32077.04
517.89	32219.81
518.06	32266.63
518.24	31866.39
518.41	32236.20
518.58	32297.05
518.75	32411.74
518.93	33247.31
519.10	32512.38
519.27	33039.00
519.45	32875.16
519.62	33163.05
519.79	33177.09
519.96	33263.69
520.14	33446.26
520.31	33184.12
520.48	33481.36
520.65	33259.01
520.83	33724.78
521.00	33486.04
521.17	33750.52
521.34	33663.93
521.52	34033.73
521.69	33792.65
521.86	34040.75
522.03	34150.76
522.20	33820.74
522.38	34518.22
522.55	34536.94
522.72	33993.94
522.89	34216.29
523.07	34216.29
523.24	34403.53
523.41	34462.05
523.58	33947.13
523.75	34710.14
523.92	34960.58
524.10	34918.45
524.27	34941.86
524.44	35218.04
524.61	35054.20
524.78	35232.08
524.96	35449.75
525.13	35075.27
525.30	34944.20
525.47	35864.03
525.64	35339.75
525.81	35639.34
525.98	35428.69
526.16	35246.13
526.33	35283.58
526.50	35590.19
526.67	34866.96
526.84	35526.99
527.01	35395.92
527.18	35695.51
527.36	36268.94
527.53	36004.46
527.70	36154.26
527.87	36144.89
528.04	36180.00
528.21	36142.55
528.38	36048.93
528.55	36552.15
528.72	35821.90
528.89	36517.04
529.07	36580.23
529.24	36657.47
529.41	36430.44
529.58	36613.00
529.75	36666.83
529.92	37029.62
530.09	36678.54
530.26	36392.99
530.43	37006.21
530.60	36563.85
530.77	36781.52
530.94	37347.93
531.11	37017.91
531.28	37413.46
531.46	37081.11
531.63	37439.21
531.80	36802.58
531.97	37212.18
532.14	37268.35
532.31	37062.38
532.48	37425.17
532.65	37464.96
532.82	37392.40
532.99	37649.86
533.16	37493.04
533.33	37715.39
533.50	37708.37
533.67	37909.66
533.84	37813.70
534.01	38078.18
534.18	37799.65
534.35	38220.95
534.52	37797.31
534.69	37750.50
534.86	37930.72
535.03	38087.54
535.20	38274.78
535.37	38410.53
535.54	38284.14
535.71	38333.29
535.88	38319.25
536.05	38464.36
536.22	38756.93
536.38	38513.52
536.55	38827.15
536.72	38756.93
536.89	38366.06
537.06	38525.22
537.23	38892.68
537.40	38148.39
537.57	38527.56
537.74	38859.91
537.91	39096.31
538.08	38995.67
538.25	38981.62
538.42	39016.73
538.59	39363.13
538.75	38679.69
538.92	39524.63
539.09	39187.59
539.26	39042.48
539.43	39386.54
539.60	39208.65
539.77	38944.17
539.94	39299.94
540.11	39491.86
540.28	39068.22
540.44	39456.75
540.61	39491.86
540.78	39517.60
540.95	39824.22
541.12	39541.01
541.29	39524.63
541.46	39498.88
541.62	39871.03
541.79	40147.21
541.96	39515.26
542.13	39533.99
542.30	39969.33
542.47	40062.95
542.63	39995.07
542.80	39896.77
542.97	40669.15
543.14	40320.41
543.31	40547.44
543.48	40451.48
543.64	41003.85
543.81	40875.12
543.98	40580.21
544.15	40769.79
544.32	40542.76
544.48	40844.69
544.65	40811.92
544.82	40683.19
544.99	40240.83
545.16	40416.37
545.32	40849.37
545.49	41188.75
545.66	41219.17
545.83	41132.57
546.00	41001.50
546.16	40718.30
546.33	40879.80
546.50	41214.49
546.67	41198.11
546.83	40832.99
547.00	41282.37
547.17	41209.81
547.34	41010.87
547.50	41612.38
547.67	41486.00
547.84	41092.79
548.00	41366.63
548.17	41673.24
548.34	41048.32
548.51	42057.09
548.67	41591.32
548.84	42143.69
549.01	41701.32
549.18	42005.59
549.34	41584.30
549.51	41436.84
549.68	41944.74
549.84	42146.03
550.01	41724.73
550.18	42162.41
550.34	41677.92
550.51	42115.60
550.68	41691.96
550.84	41478.97
551.01	41736.43
551.18	42094.53
551.34	41752.82
551.51	42183.48
551.68	42363.70
551.84	42160.07
552.01	41921.34
552.18	42220.92
552.34	42110.92
552.51	42522.85
552.68	42459.66
552.84	42499.45
553.01	42780.31
553.18	42190.50
553.34	42368.38
553.51	42120.28
553.67	42593.07
553.84	42492.43
554.01	42714.78
554.17	43012.02
554.34	42904.36
554.51	42995.64
554.67	42653.92
554.84	43040.11
555.00	42480.72
555.17	42529.87
555.33	42829.46
555.50	42490.09
555.67	42841.17
555.83	43072.88
556.00	43353.74
556.16	43398.21
556.33	42822.44
556.50	43063.52
556.66	43044.79
556.83	42621.16
556.99	43510.56
557.16	43454.39
557.32	43140.75
557.49	43225.01
557.65	43051.81
557.82	42855.21
557.98	43117.35
558.15	43253.10
558.32	43480.13
558.48	43456.73
558.65	43217.99
558.81	43194.59
558.98	43552.69
559.14	43260.12
559.31	43058.84
559.47	43377.15
559.64	43952.92
559.80	43356.08
559.97	43690.78
560.13	43611.20
560.30	43817.17
560.46	43519.92
560.63	43180.54
560.79	43559.71
560.96	44226.76
561.12	43725.89
561.29	43529.28
561.45	43442.68
561.61	43988.03
561.78	43564.39
561.94	43489.49
562.11	43426.30
562.27	43225.01
562.44	43653.33
562.60	43847.60
562.77	43992.71
562.93	43903.77
563.10	44018.46
563.26	43555.03
563.42	43927.17
563.59	44151.87
563.75	43552.69
563.92	44367.20
564.08	43833.55
564.24	43805.47
564.41	44170.59
564.57	44247.83
564.74	44044.20
564.90	44388.26
565.07	44170.59
565.23	43938.88
565.39	43775.04
565.56	44140.16
565.72	43679.08
565.88	43981.01
566.05	44306.34
566.21	43775.04
566.38	43688.44
566.54	43753.97
566.70	44814.24
566.87	44456.14
567.03	44231.44
567.19	44327.41
567.36	43908.45
567.52	44168.25
567.68	44311.02
567.85	44105.06
568.01	44170.59
568.17	43683.76
568.34	44404.64
568.50	44304.00
568.66	44034.84
568.83	44371.88
568.99	44280.60
569.15	44095.69
569.32	44018.46
569.48	43936.54
569.64	44285.28
569.81	44348.47
569.97	44376.56
570.13	44458.48
570.30	43936.54
570.46	44151.87
570.62	44383.58
570.78	44069.95
570.95	44514.65
571.11	44222.08
571.27	44034.84
571.43	44430.39
571.60	44652.74
571.76	44212.72
571.92	44601.25
572.09	43800.79
572.25	44121.44
572.41	44004.41
572.57	44140.16
572.74	44921.90
572.90	44528.69
573.06	44596.57
573.22	44547.42
573.38	44526.35
573.55	44289.96
573.71	45038.93
573.87	44816.58
574.03	44507.63
574.20	44528.69
574.36	44568.48
574.52	44694.87
574.68	44683.17
574.84	44414.01
575.01	44198.68
575.17	44638.70
575.33	44524.01
575.49	44701.89
575.65	44893.82
575.82	44505.29
575.98	44514.65
576.14	44856.37
576.30	44832.96
576.46	44226.76
576.62	44582.52
576.79	44783.81
576.95	43718.87
577.11	44137.82
577.27	44694.87
577.43	44598.91
577.59	44325.07
577.75	44292.30
577.92	44341.45
578.08	44271.23
578.24	44664.44
578.40	44568.48
578.56	44659.76
578.72	44554.44
578.88	44690.19
579.04	44678.49
579.21	44486.56
579.37	44282.94
579.53	44664.44
579.69	44247.83
579.85	44659.76
580.01	44765.09
580.17	45134.89
580.33	44830.62
580.49	44430.39
580.65	44811.90
580.82	45240.21
580.98	45010.84
581.14	44088.67
581.30	44645.72
581.46	44559.12
581.62	44554.44
581.78	44458.48
581.94	44896.16
582.10	44528.69
582.26	44299.32
582.42	45036.59
582.58	44889.13
582.74	44507.63
582.90	44390.60
583.06	45099.78
583.22	44655.08
583.38	44690.19
583.54	44783.81
583.70	44650.40
583.86	44699.55
584.02	44573.16
584.18	44547.42
584.34	44418.69
584.50	45015.52
584.66	44528.69
584.82	44601.25
584.98	44495.92
585.14	44893.82
585.30	44514.65
585.46	44711.25
585.62	44273.57
585.78	44507.63
585.94	44552.10
586.10	44844.66
586.26	44809.56
586.42	44849.35
586.58	44727.64
586.74	44603.59
586.90	44767.43
587.06	44126.12
587.22	44495.92
587.38	44566.14
587.54	44790.83
587.70	44697.21
587.86	45284.68
588.02	44912.54
588.18	44659.76
588.34	44519.33
588.49	44119.10
588.65	44641.04
588.81	44116.76
588.97	45111.49
589.13	44779.13
589.29	44641.04
589.45	44744.02
589.61	44919.56
589.77	45064.67
589.93	45144.25
590.08	45099.78
590.24	45254.26
