SpectraSuite Data File
++++++++++++++++++++++++++++++++++++
Date: Fri Oct 25 11:34:18 EDT 2013
User: price-jones
Dark Spectrum Present: No
Reference Spectrum Present: No
Number of Sampled Component Spectra: 1
Spectrometers: USB2+H05261
Integration Time (usec): 100000 (USB2+H05261)
Spectra Averaged: 1 (USB2+H05261)
Boxcar Smoothing: 0 (USB2+H05261)
Correct for Electrical Dark: No (USB2+H05261)
Strobe/Lamp Enabled: No (USB2+H05261)
Correct for Detector Non-linearity: No (USB2+H05261)
Correct for Stray Light: No (USB2+H05261)
Number of Pixels in Processed Spectrum: 2048
>>>>>Begin Processed Spectral Data<<<<<
365.73	203.63
365.92	203.63
366.12	203.63
366.32	173.20
366.52	208.31
366.72	222.35
366.91	166.18
367.11	112.35
367.31	168.52
367.51	196.60
367.70	191.92
367.90	156.82
368.10	245.76
368.30	184.90
368.49	208.31
368.69	224.69
368.89	210.65
369.09	168.52
369.28	224.69
369.48	220.01
369.68	248.10
369.87	224.69
370.07	250.44
370.27	196.60
370.47	294.91
370.66	512.58
370.86	512.58
371.06	566.41
371.25	519.60
371.45	543.00
371.65	580.45
371.84	531.30
372.04	543.00
372.24	603.86
372.44	540.66
372.63	561.73
372.83	650.67
373.03	573.43
373.22	629.60
373.42	662.37
373.62	615.56
373.81	660.03
374.01	638.97
374.21	685.78
374.40	667.05
374.60	629.60
374.79	643.65
374.99	704.50
375.19	608.54
375.38	667.05
375.58	638.97
375.78	674.07
375.97	603.86
376.17	741.95
376.37	664.71
376.56	664.71
376.76	636.63
376.95	638.97
377.15	667.05
377.35	678.76
377.54	676.41
377.74	753.65
377.93	645.99
378.13	748.97
378.33	657.69
378.52	650.67
378.72	688.12
378.91	662.37
379.11	636.63
379.31	702.16
379.50	641.31
379.70	758.33
379.89	744.29
380.09	730.25
380.28	702.16
380.48	737.27
380.68	812.17
380.87	716.20
381.07	664.71
381.26	720.88
381.46	734.93
381.65	784.08
381.85	695.14
382.04	681.10
382.24	753.65
382.43	718.54
382.63	758.33
382.83	664.71
383.02	833.23
383.22	837.91
383.41	774.72
383.61	777.06
383.80	823.87
384.00	777.06
384.19	816.85
384.39	795.78
384.58	746.63
384.78	791.10
384.97	938.55
385.17	793.44
385.36	840.25
385.56	856.64
385.75	873.02
385.95	840.25
386.14	891.74
386.34	777.06
386.53	807.48
386.72	798.12
386.92	889.40
387.11	826.21
387.31	847.27
387.50	870.68
387.70	880.04
387.89	929.19
388.09	933.87
388.28	896.43
388.48	924.51
388.67	858.98
388.86	858.98
389.06	868.34
389.25	926.85
389.45	896.43
389.64	905.79
389.84	997.07
390.03	980.68
390.22	1025.15
390.42	898.77
390.61	849.61
390.81	889.40
391.00	940.90
391.19	1025.15
391.39	978.34
391.58	1053.24
391.78	945.58
391.97	1020.47
392.16	1011.11
392.36	1062.60
392.55	1039.20
392.75	1057.92
392.94	1027.50
393.13	987.71
393.33	1057.92
393.52	1006.43
393.71	1083.67
393.91	1174.95
394.10	1060.26
394.29	1107.07
394.49	1055.58
394.68	1125.80
394.88	1060.26
395.07	1071.97
395.26	1081.33
395.46	1158.57
395.65	1109.41
395.84	1214.74
396.04	1270.91
396.23	1139.84
396.42	1184.31
396.62	1153.88
396.81	1193.67
397.00	1146.86
397.19	1219.42
397.39	1235.80
397.58	1184.31
397.77	1160.91
397.97	1191.33
398.16	1310.70
398.35	1277.93
398.55	1308.36
398.74	1238.14
398.93	1294.32
399.12	1294.32
399.32	1254.53
399.51	1296.66
399.70	1345.81
399.90	1338.79
400.09	1338.79
400.28	1352.83
400.47	1308.36
400.67	1469.86
400.86	1380.92
401.05	1364.53
401.24	1394.96
401.44	1376.24
401.63	1474.54
401.82	1401.98
402.01	1397.30
402.21	1526.03
402.40	1455.81
402.59	1444.11
402.78	1549.43
402.97	1610.29
403.17	1444.11
403.36	1502.62
403.55	1451.13
403.74	1530.71
403.93	1558.80
404.13	1537.73
404.32	1586.88
404.51	1533.05
404.70	1577.52
404.89	1598.59
405.09	1572.84
405.28	1645.40
405.47	1621.99
405.66	1598.59
405.85	1715.61
406.05	1729.66
406.24	1631.35
406.43	1729.66
406.62	1804.55
406.81	1877.11
407.00	1724.97
407.20	1720.29
407.39	1678.16
407.58	1839.66
407.77	1818.60
407.96	1912.22
408.15	1785.83
408.34	1956.69
408.54	1825.62
408.73	1851.36
408.92	1902.86
409.11	1870.09
409.30	1966.05
409.49	1898.17
409.68	1947.33
409.87	1970.73
410.07	1954.35
410.26	2029.24
410.45	1912.22
410.64	2104.14
410.83	2015.20
411.02	2101.80
411.21	2153.29
411.40	2111.16
411.59	2251.60
411.78	2167.34
411.98	2181.38
412.17	2146.27
412.36	2211.81
412.55	2246.91
412.74	2244.57
412.93	2314.79
413.12	2193.08
413.31	2324.15
413.50	2312.45
413.69	2263.30
413.88	2305.43
414.07	2464.58
414.26	2406.07
414.45	2565.23
414.64	2537.14
414.83	2443.52
415.02	2473.95
415.22	2562.89
415.41	2520.76
415.60	2513.74
415.79	2532.46
415.98	2759.49
416.17	2630.76
416.36	2534.80
416.55	2656.51
416.74	2626.08
416.93	2738.43
417.12	2773.53
417.31	2843.75
417.50	2731.41
417.69	2782.90
417.88	2745.45
418.07	2850.77
418.26	3002.91
418.45	2846.09
418.64	2925.67
418.83	3059.08
419.02	2890.56
419.21	3089.51
419.39	3162.06
419.58	2942.05
419.77	3026.31
419.96	3028.65
420.15	3110.57
420.34	3080.14
420.53	3136.32
420.72	3126.96
420.91	3251.00
421.10	3115.25
421.29	3162.06
421.48	3052.06
421.67	3171.43
421.86	3232.28
422.05	3215.90
422.24	3243.98
422.43	3241.64
422.61	3361.01
422.80	3461.65
422.99	3309.52
423.18	3346.97
423.37	3494.42
423.56	3201.85
423.75	3318.88
423.94	3251.00
424.13	3157.38
424.32	3211.22
424.50	3370.37
424.69	3445.27
424.88	3253.34
425.07	3267.39
425.26	3368.03
425.45	3321.22
425.64	3311.86
425.83	3353.99
426.01	3508.46
426.20	3342.28
426.39	3545.91
426.58	3342.28
426.77	3356.33
426.96	3585.70
427.15	3449.95
427.33	3431.23
427.52	3426.54
427.71	3506.12
427.90	3452.29
428.09	3557.61
428.28	3625.49
428.46	3538.89
428.65	3616.13
428.84	3679.32
429.03	3716.77
429.22	3625.49
429.40	3733.15
429.59	3688.68
429.78	3569.32
429.97	3496.76
430.16	3564.64
430.34	3777.62
430.53	3768.26
430.72	3599.74
430.91	3894.65
431.10	3721.45
431.28	3936.78
431.47	3829.12
431.66	3836.14
431.85	3801.03
432.03	4060.83
432.22	3955.51
432.41	3974.23
432.60	3838.48
432.79	3927.42
432.97	3939.12
433.16	4086.58
433.35	3878.27
433.54	4053.81
433.72	4142.75
433.91	4117.00
434.10	4070.19
434.28	4088.92
434.47	4084.23
434.66	4278.50
434.85	4212.96
435.03	4070.19
435.22	4126.36
435.41	4271.48
435.59	4283.18
435.78	4358.08
435.97	4351.06
436.16	4327.65
436.34	4325.31
436.53	4327.65
436.72	4365.10
436.90	4203.60
437.09	4238.71
437.28	4297.22
437.46	4428.29
437.65	4423.61
437.84	4594.47
438.02	4554.68
438.21	4449.36
438.40	4489.15
438.58	4641.28
438.77	4547.66
438.96	4606.17
439.14	4524.26
439.33	4805.12
439.52	4779.37
439.70	4685.75
439.89	4877.68
440.08	5025.13
440.26	4954.91
440.45	4856.61
440.63	5006.41
440.82	5022.79
441.01	5125.77
441.19	5004.07
441.38	5029.81
441.57	5224.08
441.75	5252.16
441.94	5217.05
442.12	5245.14
442.31	5191.31
442.50	5320.04
442.68	5287.27
442.87	5385.57
443.05	5420.68
443.24	5327.06
443.43	5231.10
443.61	5453.45
443.80	5408.98
443.98	5303.65
444.17	5170.24
444.35	5406.64
444.54	5327.06
444.73	5504.94
444.91	5469.83
445.10	5434.72
445.28	5446.43
445.47	5334.08
445.65	5451.11
445.84	5589.20
446.02	5640.69
446.21	5575.16
446.39	5584.52
446.58	5418.34
446.77	5507.28
446.95	5547.07
447.14	5591.54
447.32	5678.14
447.51	5584.52
447.69	5577.50
447.88	5544.73
448.06	5612.60
448.25	5469.83
448.43	5654.73
448.62	5584.52
448.80	5537.71
448.99	5706.23
449.17	5851.34
449.36	5769.42
449.54	5771.76
449.73	6069.01
449.91	5989.43
450.10	5944.96
450.28	5989.43
450.46	6064.33
450.65	5975.39
450.83	5951.98
451.02	5944.96
451.20	6038.58
451.39	5921.56
451.57	5881.77
451.76	6141.57
451.94	5893.47
452.13	6136.88
452.31	6195.40
452.49	6031.56
452.68	6141.57
452.86	6101.78
453.05	6263.27
453.23	6169.65
453.42	6230.51
453.60	6237.53
453.78	6265.61
453.97	6111.14
454.15	6211.78
454.34	6113.48
454.52	6347.53
454.70	6436.47
454.89	6214.12
455.07	6382.64
455.26	6471.58
455.44	6532.44
455.62	6513.71
455.81	6555.84
455.99	6478.60
456.17	6490.31
456.36	6555.84
456.54	6644.78
456.73	6764.15
456.91	6764.15
457.09	6918.62
457.28	6862.45
457.46	6836.70
457.64	6836.70
457.83	6885.86
458.01	6899.90
458.19	7077.78
458.38	7023.95
458.56	6984.16
458.74	6817.98
458.93	6913.94
459.11	6909.26
459.29	6988.84
459.48	7023.95
459.66	7089.48
459.84	7185.44
460.03	7204.17
460.21	7124.59
460.39	7110.55
460.57	7204.17
460.76	7473.33
460.94	7143.32
461.12	7234.60
461.31	7155.02
461.49	7232.26
461.67	7288.43
461.85	7480.35
462.04	7442.90
462.22	7716.75
462.40	7545.89
462.59	7569.29
462.77	7585.68
462.95	7562.27
463.13	7590.36
463.32	7569.29
463.50	7602.06
463.68	7625.47
463.86	7487.37
464.05	7592.70
464.23	7655.89
464.41	8011.65
464.59	7585.68
464.78	7894.63
464.96	7751.85
465.14	7658.23
465.32	8042.08
465.50	7850.16
465.69	7911.01
465.87	7875.90
466.05	7894.63
466.23	7960.16
466.41	7913.35
466.60	8109.96
466.78	8011.65
466.96	7999.95
467.14	7896.97
467.32	8095.91
467.51	8091.23
467.69	7859.52
467.87	8217.62
468.05	8318.26
468.23	7992.93
468.41	8116.98
468.60	8126.34
468.78	8336.99
468.96	8058.46
469.14	8271.45
469.32	8510.19
469.50	8376.78
469.69	8603.81
469.87	8325.29
470.05	8416.57
470.23	8437.63
470.41	8454.02
470.59	8475.08
470.77	8531.25
470.95	8498.49
471.14	8777.01
471.32	8554.66
471.50	8788.71
471.68	8688.07
471.86	8702.11
472.04	8809.78
472.22	9015.74
472.40	8709.13
472.58	9130.43
472.77	9149.15
472.95	8973.61
473.13	9376.19
473.31	9210.01
473.49	9252.14
473.67	9270.86
473.85	9071.92
474.03	9446.40
474.21	9514.28
474.39	9430.02
474.57	9481.51
474.75	9521.30
474.93	9628.96
475.12	9476.83
475.30	9603.22
475.48	9628.96
475.66	9619.60
475.84	9720.24
476.02	9958.98
476.20	9970.68
476.38	10097.07
476.56	10136.86
476.74	10272.61
476.92	10188.35
477.10	10174.31
477.28	10326.44
477.46	10366.23
477.64	10560.50
477.82	10586.24
478.00	10895.19
478.18	10764.12
478.36	10796.89
478.54	11159.67
478.72	11033.29
478.90	11150.31
479.08	11557.57
479.26	11323.51
479.44	11250.96
479.62	11337.56
479.80	11435.86
479.98	11571.61
480.16	11852.47
480.34	11651.19
480.52	11840.77
480.70	11796.30
480.88	11836.09
481.06	11756.51
481.24	11918.01
481.41	12152.06
481.59	12404.84
481.77	12248.02
481.95	12624.85
482.13	12556.97
482.31	12723.15
482.49	12884.65
482.67	12924.44
482.85	12961.89
483.03	13088.28
483.21	13392.55
483.39	13259.13
483.57	13626.60
483.74	13448.72
483.92	13502.55
484.10	13727.24
484.28	13678.09
484.46	13977.68
484.64	14157.90
484.82	13680.43
485.00	14064.28
485.18	14225.78
485.35	14511.32
485.53	14654.09
485.71	14588.56
485.89	14977.09
486.07	14885.81
486.25	15035.60
486.43	15159.65
486.61	15243.91
486.78	15314.13
486.96	15531.80
487.14	15812.66
487.32	15744.78
487.50	15770.53
487.68	16152.04
487.85	16102.89
488.03	16549.93
488.21	16435.24
488.39	16547.59
488.57	16425.88
488.75	16655.25
488.92	16992.29
489.10	16793.34
489.28	17177.19
489.46	17003.99
489.64	17163.15
489.81	17621.89
489.99	17884.03
490.17	17490.82
490.35	17710.83
490.53	17818.50
490.70	18153.20
490.88	17734.24
491.06	18347.46
491.24	18391.93
491.41	18384.91
491.59	18607.26
491.77	18408.31
491.95	18773.44
492.13	18941.96
492.30	19040.26
492.48	18939.62
492.66	19206.44
492.84	19372.61
493.01	19723.69
493.19	19447.51
493.37	19751.78
493.54	19557.52
493.72	19826.68
493.90	19924.98
494.08	19857.10
494.25	20297.13
494.43	20119.24
494.61	20290.10
494.79	20634.16
494.96	20709.06
495.14	21111.63
495.32	21125.68
495.49	21348.03
495.67	20985.24
495.85	21436.97
496.02	21392.50
496.20	21556.33
496.38	21769.32
496.55	21745.92
496.73	22464.46
496.91	22162.53
497.09	22230.41
497.26	22445.74
497.44	22522.98
497.62	22361.48
497.79	22604.89
497.97	22520.63
498.14	22731.28
498.32	23077.68
498.50	22995.76
498.67	22918.53
498.85	23075.34
499.03	23063.64
499.20	23545.79
499.38	23374.93
499.56	23473.23
499.73	23557.49
499.91	23728.35
500.08	23964.75
500.26	23821.97
500.44	24149.65
500.61	24004.53
500.79	23356.21
500.97	24184.76
501.14	24444.56
501.32	24503.07
501.49	24739.46
501.67	24650.52
501.84	24964.15
502.02	24631.80
502.20	24898.62
502.37	25074.16
502.55	25074.16
502.72	24989.90
502.90	25455.67
503.07	25418.22
503.25	25263.74
503.43	25102.25
503.60	25441.62
503.78	25635.89
503.95	25598.44
504.13	25773.98
504.30	25979.95
504.48	25874.62
504.65	26157.83
504.83	26309.96
505.01	26469.12
505.18	26478.48
505.36	26417.63
505.53	26506.57
505.71	26169.53
505.88	26632.96
506.06	26455.08
506.23	27112.77
506.41	26766.37
506.58	26834.24
506.76	26843.60
506.93	26888.07
507.11	27159.58
507.28	27339.80
507.46	27346.82
507.63	27674.49
507.81	27756.41
507.98	27541.08
508.16	27845.35
508.33	27618.32
508.50	27850.03
508.68	28154.30
508.85	28231.54
509.03	27791.52
509.20	28086.43
509.38	28570.92
509.55	28051.32
509.73	28477.30
509.90	28437.51
510.08	28444.53
510.25	28400.06
510.42	28732.42
510.60	28582.62
510.77	28980.51
510.95	29137.33
511.12	28730.08
511.30	29095.20
511.47	28893.91
511.64	28870.51
511.82	29434.58
511.99	29376.06
512.17	29724.80
512.34	29322.23
512.51	29881.62
512.69	29937.79
512.86	29745.87
513.04	30012.69
513.21	29743.53
513.38	30073.54
513.56	29886.30
513.73	30183.55
513.90	30103.97
514.08	30277.17
514.25	30649.32
514.43	30731.23
514.60	30871.67
514.77	30700.81
514.95	30597.82
515.12	30632.93
515.29	30827.20
515.47	30976.99
515.64	31346.79
515.81	31007.42
515.99	31098.70
516.16	31964.70
516.33	31274.24
516.51	31342.11
516.68	31199.34
516.85	31515.31
517.03	31402.97
517.20	31775.11
517.37	31314.03
517.54	31702.56
517.72	31608.93
517.89	31711.92
518.06	32257.26
518.24	31927.25
518.41	31700.22
518.58	32191.73
518.75	32163.64
518.93	32336.84
519.10	32182.37
519.27	32636.43
519.45	32196.41
519.62	32793.25
519.79	32659.84
519.96	32514.72
520.14	33132.62
520.31	32636.43
520.48	32643.45
520.65	33167.73
520.83	33640.52
521.00	33397.10
521.17	33046.02
521.34	33202.84
521.52	33467.32
521.69	33422.85
521.86	33638.18
522.03	33397.10
522.20	33996.28
522.38	33998.62
522.55	34071.18
522.72	33329.23
522.89	34157.78
523.07	33991.60
523.24	33778.61
523.41	34272.46
523.58	34188.21
523.75	34368.43
523.92	33813.72
524.10	34345.02
524.27	34925.47
524.44	34822.49
524.61	34611.84
524.78	34448.00
524.96	34813.13
525.13	34644.61
525.30	34726.53
525.47	35248.47
525.64	35306.98
525.81	34665.67
525.98	35267.19
526.16	35360.81
526.33	35194.64
526.50	35728.28
526.67	35267.19
526.84	35711.89
527.01	35285.92
527.18	34969.94
527.36	36002.12
527.53	35395.92
527.70	35866.37
527.87	36226.81
528.04	35999.78
528.21	35950.63
528.38	35786.79
528.55	36039.57
528.72	36002.12
528.89	36233.83
529.07	36079.36
529.24	35962.33
529.41	36114.47
529.58	36247.88
529.75	36584.91
529.92	36762.79
530.09	36521.72
530.26	36622.36
530.43	36715.98
530.60	36201.07
530.77	36439.80
530.94	36947.70
531.11	36418.74
531.28	37174.73
531.46	36926.63
531.63	37081.11
531.80	36959.40
531.97	37085.79
532.14	37064.72
532.31	36765.14
532.48	37247.29
532.65	37354.95
532.82	37420.48
532.99	37427.51
533.16	37502.40
533.33	37780.93
533.50	37376.01
533.67	37921.36
533.84	37088.13
534.01	37497.72
534.18	37188.77
534.35	37748.16
534.52	38007.96
534.69	38246.69
534.86	37785.61
535.03	38162.43
535.20	38190.52
535.37	38157.75
535.54	38651.61
535.71	38459.68
535.88	38368.40
536.05	38106.26
536.22	38375.42
536.38	38387.13
536.55	38565.01
536.72	38614.16
536.89	38679.69
537.06	38504.15
537.23	38717.14
537.40	38609.48
537.57	38675.01
537.74	38471.39
537.91	38941.83
538.08	39281.21
538.25	38508.83
538.42	38983.96
538.59	39196.95
538.75	39297.59
538.92	39002.69
539.09	39393.56
539.26	39302.28
539.43	39150.14
539.60	39374.83
539.77	39384.19
539.94	39524.63
540.11	39571.44
540.28	39777.40
540.44	39496.54
540.61	39339.72
540.78	39526.97
540.95	39587.82
541.12	39531.65
541.29	39409.94
541.46	39817.19
541.62	40374.24
541.79	39892.09
541.96	39660.38
542.13	39426.32
542.30	39828.90
542.47	40364.88
542.63	40259.55
542.80	40128.48
542.97	40650.42
543.14	40486.59
543.31	40538.08
543.48	40713.62
543.64	40772.13
543.81	40964.06
543.98	40760.43
544.15	40919.59
544.32	40737.02
544.48	40835.33
544.65	41071.72
544.82	41148.96
544.99	40781.49
545.16	40950.01
545.32	41074.06
545.49	40912.56
545.66	41385.35
545.83	41008.53
546.00	41366.63
546.16	41188.75
546.33	40851.71
546.50	40891.50
546.67	42033.68
546.83	41275.35
547.00	41448.55
547.17	41212.15
547.34	41165.34
547.50	41603.02
547.67	42213.90
547.84	41736.43
548.00	41860.48
548.17	42183.48
548.34	41858.14
548.51	41785.58
548.67	41904.95
548.84	42267.73
549.01	41914.31
549.18	42286.46
549.34	41808.99
549.51	42129.64
549.68	41921.34
549.84	42181.13
550.01	42036.02
550.18	42033.68
550.34	41989.21
550.51	42302.84
550.68	42452.64
550.84	41947.08
551.01	42375.40
551.18	42321.57
551.34	41998.57
551.51	42871.59
551.68	42469.02
551.84	42359.02
552.01	42363.70
552.18	42590.73
552.34	42604.77
552.51	42106.24
552.68	42698.39
552.84	42794.36
553.01	42829.46
553.18	42712.44
553.34	42644.56
553.51	42988.62
553.67	43082.24
553.84	43210.97
554.01	42920.74
554.17	42890.32
554.34	43194.59
554.51	43110.33
554.67	43367.79
554.84	43402.89
555.00	43229.69
555.17	42892.66
555.33	43391.19
555.50	43393.53
555.67	43309.27
555.83	43119.69
556.00	43173.52
556.16	43732.91
556.33	43182.88
556.50	43629.93
556.66	43246.08
556.83	43344.38
556.99	43786.74
557.16	43636.95
557.32	43655.67
557.49	44163.57
557.65	43421.62
557.82	43487.15
557.98	43737.59
558.15	43922.49
558.32	43737.59
558.48	43962.28
558.65	43632.27
558.81	43896.75
558.98	44020.80
559.14	43929.51
559.31	43810.15
559.47	43728.23
559.64	43978.67
559.80	44186.97
559.97	44205.70
560.13	43817.17
560.30	44069.95
560.46	44601.25
560.63	44037.18
560.79	44327.41
560.96	44760.40
561.12	44308.68
561.29	44538.05
561.45	45240.21
561.61	44058.24
561.78	44011.43
561.94	43812.49
562.11	44299.32
562.27	44299.32
562.44	44378.90
562.60	44418.69
562.77	44334.43
562.93	44399.96
563.10	44690.19
563.26	44198.68
563.42	45067.02
563.59	44547.42
563.75	44526.35
563.92	44683.17
564.08	44528.69
564.24	44996.80
564.41	44619.97
564.57	44598.91
564.74	44931.26
564.90	44444.43
565.07	44725.30
565.23	44706.57
565.39	44828.28
565.56	45130.21
565.72	44617.63
565.88	44980.42
566.05	44650.40
566.21	45518.74
566.38	44610.61
566.54	45151.27
566.70	45560.87
566.87	44814.24
567.03	44479.54
567.19	45411.07
567.36	45083.40
567.52	44774.45
567.68	45237.87
567.85	44729.98
568.01	45294.05
568.17	44844.66
568.34	45317.45
568.50	44938.29
568.66	44725.30
568.83	45265.96
568.99	44856.37
569.15	44999.14
569.32	45151.27
569.48	45020.20
569.64	45385.33
569.81	45230.85
569.97	45371.28
570.13	45141.91
570.30	45240.21
570.46	45244.90
570.62	45549.17
570.78	45151.27
570.95	44973.39
571.11	45404.05
571.27	45219.15
571.43	45340.86
571.60	45539.80
571.76	45287.03
571.92	45240.21
572.09	45642.79
572.25	45162.98
572.41	45336.18
572.57	45394.69
572.74	45830.03
572.90	45237.87
573.06	45186.38
573.22	45586.61
573.38	45605.34
573.55	45729.39
573.71	45633.42
573.87	45823.01
574.03	45450.86
574.20	46087.49
574.36	45588.95
574.52	45804.28
574.68	45649.81
574.84	45375.97
575.01	45521.08
575.17	45904.93
575.33	45551.51
575.49	45635.77
575.65	46080.47
575.82	45771.52
575.98	45139.57
576.14	45720.02
576.30	45691.94
576.46	45474.27
576.62	45799.60
576.79	45350.22
576.95	45258.94
577.11	45656.83
577.27	45687.26
577.43	45853.44
577.59	45825.35
577.75	45551.51
577.92	45315.11
578.08	45883.86
578.24	45361.92
578.40	45888.54
578.56	45783.22
578.72	45581.93
578.88	45998.55
579.04	45790.24
579.21	45834.71
579.37	46019.61
579.53	45677.90
579.69	45724.71
579.85	45827.69
580.01	45507.04
580.17	45654.49
580.33	45710.66
580.49	45230.85
580.65	46066.42
580.82	45972.80
580.98	45523.42
581.14	45661.51
581.30	45968.12
581.46	45911.95
581.62	45949.40
581.78	45893.22
581.94	46054.72
582.10	45827.69
582.26	45937.69
582.42	46237.28
582.58	45663.85
582.74	45801.94
582.90	45890.88
583.06	45965.78
583.22	45923.65
583.38	46412.82
583.54	45710.66
583.70	45975.14
583.86	46082.81
584.02	45787.90
584.18	46644.54
584.34	45841.73
584.50	46188.13
584.66	46089.83
584.82	45930.67
584.98	46195.15
585.14	45844.07
585.30	45858.12
585.46	46162.39
585.62	46124.94
585.78	46024.29
585.94	45586.61
586.10	46162.39
586.26	45708.32
586.42	45860.46
586.58	46150.68
586.74	45834.71
586.90	46052.38
587.06	45879.18
587.22	46007.91
587.38	46157.70
587.54	46202.18
587.70	46443.25
587.86	46473.68
588.02	45886.20
588.18	46054.72
588.34	46040.68
588.49	46162.39
588.65	45893.22
588.81	46291.12
588.97	46279.41
589.13	46033.66
589.29	45804.28
589.45	46380.06
589.61	46050.04
589.77	46263.03
589.93	46443.25
590.08	46672.62
