SpectraSuite Data File
++++++++++++++++++++++++++++++++++++
Date: Fri Oct 25 10:44:36 EDT 2013
User: price-jones
Dark Spectrum Present: No
Reference Spectrum Present: No
Number of Sampled Component Spectra: 1
Spectrometers: USB2+H05261
Integration Time (usec): 100000 (USB2+H05261)
Spectra Averaged: 1 (USB2+H05261)
Boxcar Smoothing: 0 (USB2+H05261)
Correct for Electrical Dark: No (USB2+H05261)
Strobe/Lamp Enabled: No (USB2+H05261)
Correct for Detector Non-linearity: No (USB2+H05261)
Correct for Stray Light: No (USB2+H05261)
Number of Pixels in Processed Spectrum: 2048
>>>>>Begin Processed Spectral Data<<<<<
365.73	110.01
365.92	110.01
366.12	110.01
366.32	35.11
366.52	0.00
366.72	60.85
366.91	0.00
367.11	42.13
367.31	14.04
367.51	0.00
367.70	0.00
367.90	21.06
368.10	0.00
368.30	35.11
368.49	23.41
368.69	51.49
368.89	49.15
369.09	60.85
369.28	37.45
369.48	112.35
369.68	93.62
369.87	51.49
370.07	140.43
370.27	147.45
370.47	220.01
370.66	318.31
370.86	498.53
371.06	404.91
371.25	498.53
371.45	393.21
371.65	428.32
371.84	397.89
372.04	461.09
372.24	430.66
372.44	524.28
372.63	458.74
372.83	484.49
373.03	554.71
373.22	449.38
373.42	479.81
373.62	458.74
373.81	435.34
374.01	507.90
374.21	456.40
374.40	524.28
374.60	557.05
374.79	538.32
374.99	550.03
375.19	493.85
375.38	589.82
375.58	594.50
375.78	580.45
375.97	589.82
376.17	645.99
376.37	582.79
376.56	479.81
376.76	564.07
376.95	552.37
377.15	603.86
377.35	620.24
377.54	650.67
377.74	533.64
377.93	592.16
378.13	566.41
378.33	606.20
378.52	573.43
378.72	716.20
378.91	636.63
379.11	601.52
379.31	622.58
379.50	561.73
379.70	690.46
379.89	613.22
380.09	557.05
380.28	561.73
380.48	674.07
380.68	608.54
380.87	660.03
381.07	669.39
381.26	685.78
381.46	629.60
381.65	650.67
381.85	692.80
382.04	617.90
382.24	704.50
382.43	699.82
382.63	683.44
382.83	662.37
383.02	709.18
383.22	760.67
383.41	704.50
383.61	725.57
383.80	706.84
384.00	786.42
384.19	718.54
384.39	767.70
384.58	741.95
384.78	765.36
384.97	779.40
385.17	739.61
385.36	774.72
385.56	770.04
385.75	781.74
385.95	758.33
386.14	812.17
386.34	697.48
386.53	809.83
386.72	718.54
386.92	744.29
387.11	812.17
387.31	856.64
387.50	772.38
387.70	772.38
387.89	891.74
388.09	854.30
388.28	814.51
388.48	711.52
388.67	837.91
388.86	924.51
389.06	861.32
389.25	851.96
389.45	856.64
389.64	812.17
389.84	823.87
390.03	943.24
390.22	891.74
390.42	1006.43
390.61	908.13
390.81	945.58
391.00	1015.79
391.19	912.81
391.39	945.58
391.58	992.39
391.78	1018.13
391.97	954.94
392.16	952.60
392.36	1057.92
392.55	945.58
392.75	943.24
392.94	999.41
393.13	959.62
393.33	856.64
393.52	1020.47
393.71	1041.54
393.91	980.68
394.10	1020.47
394.29	1062.60
394.49	952.60
394.68	1095.37
394.88	1046.22
395.07	1074.31
395.26	1184.31
395.46	1039.20
395.65	1090.69
395.84	1078.99
396.04	1191.33
396.23	1008.77
396.42	983.02
396.62	1041.54
396.81	1069.62
397.00	1151.54
397.19	1252.19
397.39	1256.87
397.58	1205.38
397.77	1249.85
397.97	1299.00
398.16	1352.83
398.35	1249.85
398.55	1268.57
398.74	1387.94
398.93	1315.38
399.12	1247.51
399.32	1249.85
399.51	1341.13
399.70	1406.66
399.90	1448.79
400.09	1409.00
400.28	1355.17
400.47	1378.58
400.67	1502.62
400.86	1411.34
401.05	1530.71
401.24	1451.13
401.44	1556.46
401.63	1570.50
401.82	1376.24
402.01	1451.13
402.21	1500.28
402.40	1533.05
402.59	1497.94
402.78	1593.90
402.97	1605.61
403.17	1638.38
403.36	1645.40
403.55	1650.08
403.74	1652.42
403.93	1678.16
404.13	1657.10
404.32	1654.76
404.51	1584.54
404.70	1650.08
404.89	1675.82
405.09	1722.63
405.28	1734.34
405.47	1802.21
405.66	1746.04
405.85	1750.72
406.05	1717.95
406.24	1830.30
406.43	1755.40
406.62	1844.34
406.81	1834.98
407.00	1846.68
407.20	1778.81
407.39	1827.96
407.58	1970.73
407.77	1994.14
407.96	1884.13
408.15	1935.62
408.34	1977.75
408.54	2040.95
408.73	2071.37
408.92	1977.75
409.11	2083.08
409.30	2062.01
409.49	1973.07
409.68	2076.06
409.87	2024.56
410.07	2169.68
410.26	2078.40
410.45	2183.72
410.64	2214.15
410.83	2172.02
411.02	2190.74
411.21	2232.87
411.40	2326.49
411.59	2408.41
411.78	2331.17
411.98	2242.23
412.17	2286.70
412.36	2373.30
412.55	2326.49
412.74	2455.22
412.93	2401.39
413.12	2495.01
413.31	2544.16
413.50	2471.61
413.69	2616.72
413.88	2544.16
414.07	2520.76
414.26	2637.78
414.45	2555.86
414.64	2616.72
414.83	2750.13
415.02	2785.24
415.22	2836.73
415.41	2808.64
415.60	2890.56
415.79	2637.78
415.98	2998.23
416.17	2867.16
416.36	2787.58
416.55	2871.84
416.74	3030.99
416.93	2888.22
417.12	2855.45
417.31	3026.31
417.50	2928.01
417.69	3094.19
417.88	2984.18
418.07	3054.40
418.26	3035.67
418.45	3145.68
418.64	3204.19
418.83	3229.94
419.02	3185.47
419.21	3225.26
419.39	3272.07
419.58	2942.05
419.77	3070.78
419.96	3213.56
420.15	3389.10
420.34	3246.32
420.53	3260.37
420.72	3487.40
420.91	3517.83
421.10	3424.20
421.29	3368.03
421.48	3187.81
421.67	3466.33
421.86	3485.06
422.05	3396.12
422.24	3438.25
422.43	3578.68
422.61	3489.74
422.80	3398.46
422.99	3496.76
423.18	3513.14
423.37	3517.83
423.56	3471.01
423.75	3592.72
423.94	3606.77
424.13	3297.81
424.32	3410.16
424.50	3506.12
424.69	3557.61
424.88	3662.94
425.07	3674.64
425.26	3522.51
425.45	3625.49
425.64	3538.89
425.83	3524.85
426.01	3775.28
426.20	3496.76
426.39	3578.68
426.58	3620.81
426.77	3543.57
426.96	3590.38
427.15	3562.30
427.33	3695.71
427.52	3613.79
427.71	3751.88
427.90	3723.79
428.09	3908.69
428.28	3782.31
428.46	3836.14
428.65	3812.73
428.84	3871.25
429.03	3943.80
429.22	3676.98
429.40	3960.19
429.59	3941.46
429.78	3630.17
429.97	3620.81
430.16	3658.26
430.34	3714.43
430.53	3955.51
430.72	3882.95
430.91	3950.82
431.10	3906.35
431.28	4212.96
431.47	4168.49
431.66	4074.87
431.85	4030.40
432.03	4114.66
432.22	4271.48
432.41	4255.09
432.60	4250.41
432.79	4081.89
432.97	4238.71
433.16	4297.22
433.35	4339.35
433.54	4133.39
433.72	4395.53
433.91	4219.99
434.10	4313.61
434.28	4313.61
434.47	4374.46
434.66	4299.56
434.85	4337.01
435.03	4390.84
435.22	4493.83
435.41	4755.97
435.59	4601.49
435.78	4620.22
435.97	4706.82
436.16	4573.41
436.34	4580.43
436.53	4610.86
436.72	4849.59
436.90	4748.95
437.09	4784.06
437.28	4594.47
437.46	4699.80
437.65	4793.42
437.84	4765.33
438.02	4758.31
438.21	4655.33
438.40	4826.18
438.58	4875.34
438.77	5055.56
438.96	4915.12
439.14	5022.79
439.33	5135.14
439.52	5067.26
439.70	4924.49
439.89	5266.21
440.08	5130.45
440.26	5184.29
440.45	5291.95
440.63	5263.86
440.82	5460.47
441.01	5343.44
441.19	5355.15
441.38	5476.85
441.57	5385.57
441.75	5570.48
441.94	5619.63
442.12	5575.16
442.31	5575.16
442.50	5614.95
442.68	5650.05
442.87	5687.50
443.05	5795.17
443.24	5776.44
443.43	5813.89
443.61	5921.56
443.80	6043.26
443.98	5664.10
444.17	5607.92
444.35	5827.93
444.54	5926.24
444.73	5926.24
444.91	5799.85
445.10	5774.10
445.28	5895.81
445.47	5724.95
445.65	5872.40
445.84	5973.05
446.02	6040.92
446.21	5837.30
446.39	5891.13
446.58	5970.71
446.77	5987.09
446.95	5923.90
447.14	5973.05
447.32	6005.81
447.51	6069.01
447.69	6008.16
447.88	6160.29
448.06	6167.31
448.25	5982.41
448.43	6120.50
448.62	6092.41
448.80	6043.26
448.99	6197.74
449.17	6157.95
449.36	6202.42
449.54	6012.84
449.73	6427.11
449.91	6326.47
450.10	6377.96
450.28	6497.33
450.46	6478.60
450.65	6450.52
450.83	6502.01
451.02	6537.12
451.20	6483.28
451.39	6595.63
451.57	6478.60
451.76	6513.71
451.94	6387.32
452.13	6586.27
452.31	6537.12
452.49	6403.71
452.68	6424.77
452.86	6450.52
453.05	6651.80
453.23	6775.85
453.42	6654.14
453.60	6604.99
453.78	6487.96
453.97	6534.78
454.15	6668.19
454.34	6740.74
454.52	6810.96
454.70	6881.18
454.89	6885.86
455.07	6848.41
455.26	6750.10
455.44	7063.74
455.62	7077.78
455.81	6904.58
455.99	6930.33
456.17	6963.09
456.36	7005.22
456.54	7143.32
456.73	7091.82
456.91	7492.05
457.09	7412.48
457.28	7492.05
457.46	7234.60
457.64	7534.18
457.83	7208.85
458.01	7246.30
458.19	7372.69
458.38	7410.14
458.56	7375.03
458.74	7426.52
458.93	7449.93
459.11	7466.31
459.29	7400.77
459.48	7538.87
459.66	7716.75
459.84	7665.25
460.03	7698.02
460.21	7585.68
460.39	7686.32
460.57	7709.72
460.76	7817.39
460.94	7719.09
461.12	7669.94
461.31	7920.37
461.49	7889.95
461.67	7852.50
461.85	8053.78
462.04	7974.21
462.22	8184.85
462.40	8177.83
462.59	8131.02
462.77	8079.53
462.95	8042.08
463.13	8016.33
463.32	8226.98
463.50	8215.28
463.68	8051.44
463.86	8102.93
464.05	7906.33
464.23	8025.70
464.41	8219.96
464.59	8044.42
464.78	8381.46
464.96	8182.51
465.14	8259.75
465.32	8173.15
465.50	8348.69
465.69	8535.93
465.87	8505.51
466.05	8292.52
466.23	8156.77
466.41	8407.20
466.60	8414.23
466.78	8362.73
466.96	8201.24
467.14	8358.05
467.32	8519.55
467.51	8617.85
467.69	8444.65
467.87	8505.51
468.05	8720.84
468.23	8571.04
468.41	8486.78
468.60	8564.02
468.78	8814.46
468.96	8545.30
469.14	9013.40
469.32	8912.76
469.50	8482.10
469.69	8706.79
469.87	8842.54
470.05	8931.48
470.23	8975.95
470.41	8819.14
470.59	9202.99
470.77	9053.19
470.95	9174.90
471.14	9336.40
471.32	8847.22
471.50	9331.72
471.68	9308.31
471.86	9312.99
472.04	9509.60
472.22	9654.71
472.40	9128.09
472.58	9355.12
472.77	9476.83
472.95	9654.71
473.13	9853.66
473.31	9579.81
473.49	9666.41
473.67	9776.42
473.85	9614.92
474.03	9891.10
474.21	9757.69
474.39	10005.79
474.57	10008.13
474.75	10314.74
474.93	10317.08
475.12	9991.75
475.30	10251.55
475.48	10361.55
475.66	10251.55
475.84	10260.91
476.02	10471.56
476.20	10342.83
476.38	10520.71
476.56	10853.06
476.74	10759.44
476.92	10970.09
477.10	10633.05
477.28	10927.96
477.46	11047.33
477.64	11115.20
477.82	11269.68
478.00	11475.65
478.18	11356.28
478.36	11363.30
478.54	11555.22
478.72	11702.68
478.90	11770.55
479.08	11983.54
479.26	12168.45
479.44	11925.03
479.62	12259.73
479.80	12128.66
479.98	12187.17
480.16	12400.16
480.34	12208.23
480.52	12699.75
480.70	12491.44
480.88	12353.35
481.06	12645.91
481.24	12636.55
481.41	12905.71
481.59	13142.11
481.77	13116.36
481.95	13198.28
482.13	13137.43
482.31	13144.45
482.49	13642.98
482.67	13706.18
482.85	13818.52
483.03	13944.91
483.21	13977.68
483.39	14249.18
483.57	14295.99
483.74	14363.87
483.92	14494.94
484.10	14242.16
484.28	14562.81
484.46	14647.07
484.64	14927.94
484.82	14972.41
485.00	14813.25
485.18	15161.99
485.35	15115.18
485.53	14824.95
485.71	14764.10
485.89	15314.13
486.07	15314.13
486.25	15569.24
486.43	15585.63
486.61	16002.24
486.78	16119.27
486.96	16201.19
487.14	16233.96
487.32	16320.56
487.50	16465.67
487.68	16592.06
487.85	17144.42
488.03	17095.27
488.21	17153.79
488.39	16940.80
488.57	17181.87
488.75	17116.34
488.92	17366.78
489.10	17769.35
489.28	17771.69
489.46	18029.15
489.64	17799.77
489.81	18483.21
489.99	18520.66
490.17	18420.02
490.35	18668.11
490.53	18951.32
490.70	18607.26
490.88	18743.01
491.06	19026.21
491.24	19140.90
491.41	19403.04
491.59	19150.26
491.77	19344.53
491.95	19630.07
492.13	19810.29
492.30	19831.36
492.48	19976.47
492.66	20004.56
492.84	20037.33
493.01	20212.87
493.19	20161.37
493.37	20643.52
493.54	20781.62
493.72	20975.88
493.90	20933.75
494.08	20912.69
494.25	20943.11
494.43	21364.41
494.61	21703.79
494.79	21509.52
494.96	21443.99
495.14	21685.06
495.32	21930.82
495.49	21919.12
495.67	21954.22
495.85	22012.74
496.02	22375.52
496.20	22359.14
496.38	22771.07
496.55	22471.48
496.73	23119.81
496.91	22874.06
497.09	22998.10
497.26	22913.84
497.44	23009.81
497.62	23126.83
497.79	23538.77
497.97	22970.02
498.14	23882.83
498.32	23634.73
498.50	23861.76
498.67	23955.38
498.85	23798.57
499.03	24077.09
499.20	24121.56
499.38	24252.63
499.56	24210.50
499.73	24704.35
499.91	24751.17
500.08	24730.10
500.26	24276.04
500.44	24751.17
500.61	24718.40
500.79	24900.96
500.97	24971.18
501.14	25338.64
501.32	25116.29
501.49	25284.81
501.67	25357.36
501.84	25263.74
502.02	25380.77
502.20	25722.49
502.37	25610.14
502.55	25596.10
502.72	25788.02
502.90	25991.65
503.07	25806.75
503.25	25741.21
503.43	26089.95
503.60	26361.45
503.78	26206.98
503.95	26073.57
504.13	26244.43
504.30	26525.29
504.48	26511.25
504.65	26679.77
504.83	27119.79
505.01	27190.00
505.18	26972.33
505.36	27239.15
505.53	27157.24
505.71	27426.40
505.88	27536.40
506.06	27838.33
506.23	27716.62
506.41	27417.04
506.58	27545.76
506.76	27889.82
506.93	27826.63
507.11	28137.92
507.28	28191.75
507.46	27672.15
507.63	27735.35
507.81	28240.90
507.98	28025.57
508.16	28554.54
508.33	28898.59
508.50	28311.12
508.68	28723.05
508.85	28566.24
509.03	28886.89
509.20	28929.02
509.38	29174.78
509.55	29347.98
509.73	29116.26
509.90	29041.37
510.08	28971.15
510.25	29326.91
510.42	29415.85
510.60	29479.05
510.77	29465.00
510.95	29998.65
511.12	29418.19
511.30	29755.23
511.47	29993.97
511.64	29818.42
511.82	29907.37
511.99	30103.97
512.17	29970.56
512.34	30235.04
512.51	30298.23
512.69	30410.58
512.86	30424.62
513.04	30939.54
513.21	30911.46
513.38	30679.74
513.56	30731.23
513.73	30731.23
513.90	30874.01
514.08	31009.76
514.25	30845.92
514.43	31255.51
514.60	31044.87
514.77	31058.91
514.95	31920.23
515.12	31145.51
515.29	31199.34
515.47	31988.10
515.64	31744.69
515.81	31384.24
515.99	31711.92
516.16	31894.48
516.33	31496.59
516.51	31875.76
516.68	31522.34
516.85	31571.49
517.03	31503.61
517.20	31758.73
517.37	32154.28
517.54	32353.23
517.72	31592.55
517.89	31903.84
518.06	32208.11
518.24	32046.62
518.41	32123.85
518.58	32676.22
518.75	32266.63
518.93	32882.19
519.10	32669.20
519.27	32830.69
519.45	33165.39
519.62	33069.43
519.79	32830.69
519.96	33036.66
520.14	33116.24
520.31	32954.74
520.48	33493.07
520.65	33022.62
520.83	33893.30
521.00	34012.66
521.17	33914.36
521.34	33979.90
521.52	33427.53
521.69	33813.72
521.86	33771.59
522.03	33858.19
522.20	34279.49
522.38	34628.23
522.55	34380.13
522.72	34242.04
522.89	34272.46
523.07	34356.72
523.24	34117.99
523.41	34630.57
523.58	34621.20
523.75	34745.25
523.92	34543.97
524.10	34918.45
524.27	35178.25
524.44	35077.61
524.61	35351.45
524.78	35253.15
524.96	35496.56
525.13	35426.35
525.30	35789.13
525.47	35662.74
525.64	35274.21
525.81	35805.52
525.98	35489.54
526.16	35737.64
526.33	35648.70
526.50	35840.62
526.67	35292.94
526.84	35213.36
527.01	35536.35
527.18	35662.74
527.36	35683.81
527.53	35999.78
527.70	36456.18
527.87	35981.06
528.04	36084.04
528.21	35981.06
528.38	36273.62
528.55	36416.40
528.72	36442.14
528.89	36713.64
529.07	36327.45
529.24	36526.40
529.41	36315.75
529.58	36449.16
529.75	36170.64
529.92	36189.36
530.09	36797.90
530.26	37003.87
530.43	36968.76
530.60	36964.08
530.77	36971.10
530.94	37064.72
531.11	36811.95
531.28	37188.77
531.46	37263.67
531.63	37076.43
531.80	36938.33
531.97	37081.11
532.14	37109.19
532.31	37078.77
532.48	37359.63
532.65	37504.74
532.82	37926.04
532.99	37710.71
533.16	37324.52
533.33	37956.47
533.50	38087.54
533.67	38155.41
533.84	37701.35
534.01	37745.82
534.18	37778.59
534.35	37930.72
534.52	37961.15
534.69	37951.79
534.86	38132.01
535.03	38490.11
535.20	38274.78
535.37	38518.20
535.54	38848.21
535.71	38160.09
535.88	38143.71
536.05	38548.62
536.22	38703.10
536.38	38506.49
536.55	38923.11
536.72	38560.33
536.89	38504.15
537.06	38663.31
537.23	38902.04
537.40	38625.86
537.57	38852.89
537.74	38773.31
537.91	39295.25
538.08	38787.36
538.25	38866.94
538.42	38632.88
538.59	39367.81
538.75	38747.57
538.92	38796.72
539.09	38754.59
539.26	39218.02
539.43	39283.55
539.60	39028.43
539.77	38848.21
539.94	39260.15
540.11	39072.90
540.28	39047.16
540.44	39330.36
540.61	39248.44
540.78	39047.16
540.95	39164.18
541.12	39323.34
541.29	39292.91
541.46	39868.69
541.62	39583.14
541.79	39864.00
541.96	39400.58
542.13	39782.09
542.30	39606.55
542.47	39945.92
542.63	39875.71
542.80	39723.57
542.97	40339.13
543.14	40610.64
543.31	40287.64
543.48	40552.12
543.64	40994.48
543.81	40664.47
543.98	40877.46
544.15	40624.68
544.32	40835.33
544.48	41064.70
544.65	41081.08
544.82	40734.68
544.99	40755.75
545.16	40463.18
545.32	40755.75
545.49	40982.78
545.66	41209.81
545.83	41188.75
546.00	41532.81
546.16	40882.14
546.33	41029.59
546.50	40622.34
546.67	40919.59
546.83	41071.72
547.00	41015.55
547.17	41001.50
547.34	40917.25
547.50	41240.24
547.67	41223.86
547.84	41193.43
548.00	41762.18
548.17	41462.59
548.34	41626.43
548.51	41823.03
548.67	42080.49
548.84	41928.36
549.01	41310.46
549.18	41397.06
549.34	41736.43
549.51	41977.51
549.68	41902.61
549.84	41890.91
550.01	42176.45
550.18	41979.85
550.34	42389.44
550.51	42045.38
550.68	42003.25
550.84	41883.89
551.01	41986.87
551.18	42206.88
551.34	41940.06
551.51	42150.71
551.68	42447.96
551.84	42188.16
552.01	41481.31
552.18	42073.47
552.34	42005.59
552.51	42415.19
552.68	41982.19
552.84	42330.93
553.01	42506.47
553.18	42389.44
553.34	42480.72
553.51	42127.30
553.67	42202.20
553.84	42553.28
554.01	42674.99
554.17	42539.24
554.34	42946.49
554.51	42780.31
554.67	42990.96
554.84	42684.35
555.00	42684.35
555.17	42806.06
555.33	42747.54
555.50	42532.22
555.67	42932.45
555.83	42808.40
556.00	42880.95
556.16	42904.36
556.33	43271.82
556.50	42167.09
556.66	42817.76
556.83	42616.47
556.99	42904.36
557.16	43000.32
557.32	43346.72
557.49	42993.30
557.65	42752.23
557.82	43213.31
557.98	42761.59
558.15	42843.51
558.32	43463.75
558.48	42953.51
558.65	43089.26
558.81	43154.80
558.98	43037.77
559.14	42607.11
559.31	43438.00
559.47	43246.08
559.64	42873.93
559.80	43765.68
559.97	43484.81
560.13	43105.65
560.30	43253.10
560.46	43489.49
560.63	43386.51
560.79	43856.96
560.96	43782.06
561.12	43377.15
561.29	43587.80
561.45	43178.20
561.61	43515.24
561.78	43620.56
561.94	43192.25
562.11	43667.37
562.27	43337.36
562.44	43501.20
562.60	43859.30
562.77	44217.40
562.93	43269.48
563.10	43981.01
563.26	43133.73
563.42	43793.76
563.59	43498.86
563.75	43650.99
563.92	43613.54
564.08	43494.18
564.24	43875.68
564.41	43791.42
564.57	43398.21
564.74	43674.40
564.90	43573.75
565.07	43976.33
565.23	43793.76
565.39	43597.16
565.56	43859.30
565.72	43868.66
565.88	43721.21
566.05	43704.82
566.21	44165.91
566.38	43711.84
566.54	43700.14
566.70	44098.03
566.87	44498.26
567.03	44072.29
567.19	44516.99
567.36	44065.27
567.52	44074.63
567.68	43770.36
567.85	43416.94
568.01	44236.12
568.17	44055.90
568.34	43679.08
568.50	43840.57
568.66	43976.33
568.83	43999.73
568.99	43938.88
569.15	43557.37
569.32	44006.75
569.48	43765.68
569.64	44142.50
569.81	44327.41
569.97	44332.09
570.13	44130.80
570.30	44203.36
570.46	43662.69
570.62	43583.12
570.78	43777.38
570.95	43526.94
571.11	44219.74
571.27	43786.74
571.43	43796.10
571.60	44194.00
571.76	43702.48
571.92	44318.04
572.09	44203.36
572.25	44460.82
572.41	43943.56
572.57	44205.70
572.74	44432.73
572.90	44058.24
573.06	44065.27
573.22	44435.07
573.38	44247.83
573.55	44327.41
573.71	44762.75
573.87	44208.04
574.03	43639.29
574.20	44507.63
574.36	44378.90
574.52	44535.71
574.68	44238.47
574.84	44247.83
575.01	43920.15
575.17	44362.51
575.33	44091.01
575.49	44224.42
575.65	44432.73
575.82	44404.64
575.98	44275.91
576.14	44666.78
576.30	44472.52
576.46	44229.10
576.62	44603.59
576.79	44495.92
576.95	44252.51
577.11	44367.20
577.27	44531.03
577.43	44432.73
577.59	44053.56
577.75	44236.12
577.92	44044.20
578.08	43950.58
578.24	44023.14
578.40	44140.16
578.56	44360.17
578.72	44332.09
578.88	44652.74
579.04	44655.08
579.21	44168.25
579.37	44165.91
579.53	44423.37
579.69	44311.02
579.85	44751.04
580.01	44250.17
580.17	44664.44
580.33	44673.81
580.49	44762.75
580.65	45179.36
580.82	44657.42
580.98	44414.01
581.14	44516.99
581.30	44980.42
581.46	44638.70
581.62	44835.30
581.78	44315.70
581.94	44664.44
582.10	44423.37
582.26	44495.92
582.42	44332.09
582.58	44472.52
582.74	44137.82
582.90	44715.93
583.06	44851.69
583.22	44825.94
583.38	44715.93
583.54	44898.50
583.70	44809.56
583.86	44926.58
584.02	44179.95
584.18	44254.85
584.34	44526.35
584.50	44472.52
584.66	44570.82
584.82	44240.81
584.98	44570.82
585.14	44751.04
585.30	44467.84
585.46	44921.90
585.62	44318.04
585.78	44301.66
585.94	44737.00
586.10	44645.72
586.26	44264.21
586.42	44524.01
586.58	44603.59
586.74	44788.49
586.90	44449.11
587.06	44086.33
587.22	44357.83
587.38	44280.60
587.54	44334.43
587.70	44753.38
587.86	44793.17
588.02	44762.75
588.18	44634.02
588.34	44301.66
588.49	44360.17
588.65	43915.47
588.81	44362.51
588.97	44526.35
589.13	44325.07
589.29	44409.32
589.45	44299.32
589.61	44245.49
589.77	45006.16
589.93	44921.90
590.08	45228.51
590.24	44935.95
