SpectraSuite Data File
++++++++++++++++++++++++++++++++++++
Date: Fri Oct 25 11:25:48 EDT 2013
User: price-jones
Dark Spectrum Present: No
Reference Spectrum Present: No
Number of Sampled Component Spectra: 1
Spectrometers: USB2+H05261
Integration Time (usec): 100000 (USB2+H05261)
Spectra Averaged: 1 (USB2+H05261)
Boxcar Smoothing: 0 (USB2+H05261)
Correct for Electrical Dark: No (USB2+H05261)
Strobe/Lamp Enabled: No (USB2+H05261)
Correct for Detector Non-linearity: No (USB2+H05261)
Correct for Stray Light: No (USB2+H05261)
Number of Pixels in Processed Spectrum: 2048
>>>>>Begin Processed Spectral Data<<<<<
365.73	306.61
365.92	306.61
366.12	306.61
366.32	138.09
366.52	95.96
366.72	189.58
366.91	81.92
367.11	161.50
367.31	65.54
367.51	201.29
367.70	147.45
367.90	196.60
368.10	67.88
368.30	65.54
368.49	142.77
368.69	191.92
368.89	173.20
369.09	182.56
369.28	110.01
369.48	149.79
369.68	208.31
369.87	215.33
370.07	271.50
370.27	259.80
370.47	367.46
370.66	547.69
370.86	592.16
371.06	688.12
371.25	763.01
371.45	650.67
371.65	559.39
371.84	695.14
372.04	669.39
372.24	685.78
372.44	723.23
372.63	777.06
372.83	777.06
373.03	692.80
373.22	795.78
373.42	922.17
373.62	739.61
373.81	744.29
374.01	933.87
374.21	877.70
374.40	753.65
374.60	781.74
374.79	912.81
374.99	858.98
375.19	842.59
375.38	880.04
375.58	802.80
375.78	842.59
375.97	833.23
376.17	849.61
376.37	882.38
376.56	912.81
376.76	945.58
376.95	854.30
377.15	910.47
377.35	901.11
377.54	945.58
377.74	912.81
377.93	924.51
378.13	952.60
378.33	901.11
378.52	863.66
378.72	964.30
378.91	1022.81
379.11	922.17
379.31	926.85
379.50	1006.43
379.70	908.13
379.89	1067.28
380.09	929.19
380.28	964.30
380.48	971.32
380.68	1029.84
380.87	1027.50
381.07	976.00
381.26	952.60
381.46	1095.37
381.65	1008.77
381.85	1018.13
382.04	1064.94
382.24	1057.92
382.43	1057.92
382.63	1125.80
382.83	1111.75
383.02	1104.73
383.22	1081.33
383.41	1109.41
383.61	1097.71
383.80	1172.61
384.00	1107.07
384.19	1196.01
384.39	1149.20
384.58	1139.84
384.78	1167.93
384.97	1167.93
385.17	1203.04
385.36	1118.78
385.56	1268.57
385.75	1205.38
385.95	1212.40
386.14	1179.63
386.34	1231.12
386.53	1317.72
386.72	1231.12
386.92	1184.31
387.11	1331.76
387.31	1186.65
387.50	1270.91
387.70	1203.04
387.89	1238.14
388.09	1320.06
388.28	1254.53
388.48	1235.80
388.67	1322.40
388.86	1320.06
389.06	1306.02
389.25	1364.53
389.45	1282.61
389.64	1404.32
389.84	1345.81
390.03	1416.02
390.22	1385.60
390.42	1427.73
390.61	1352.83
390.81	1359.85
391.00	1509.65
391.19	1420.71
391.39	1427.73
391.58	1486.24
391.78	1479.22
391.97	1460.49
392.16	1500.28
392.36	1591.56
392.55	1577.52
392.75	1600.93
392.94	1617.31
393.13	1540.07
393.33	1465.18
393.52	1624.33
393.71	1584.54
393.91	1577.52
394.10	1589.22
394.29	1582.20
394.49	1575.18
394.68	1633.69
394.88	1575.18
395.07	1748.38
395.26	1666.46
395.46	1717.95
395.65	1659.44
395.84	1703.91
396.04	1827.96
396.23	1746.04
396.42	1659.44
396.62	1685.19
396.81	1764.76
397.00	1792.85
397.19	1750.72
397.39	1760.08
397.58	1863.07
397.77	1734.34
397.97	1865.41
398.16	1879.45
398.35	1832.64
398.55	1942.64
398.74	1825.62
398.93	1987.11
399.12	1902.86
399.32	1933.28
399.51	2019.88
399.70	1977.75
399.90	1914.56
400.09	1977.75
400.28	2029.24
400.47	1963.71
400.67	2139.25
400.86	2118.18
401.05	2038.61
401.24	2113.50
401.44	2181.38
401.63	2176.70
401.82	2097.12
402.01	2141.59
402.21	2101.80
402.40	2235.21
402.59	2160.31
402.78	2155.63
402.97	2253.94
403.17	2289.04
403.36	2129.89
403.55	2272.66
403.74	2356.92
403.93	2434.16
404.13	2235.21
404.32	2380.32
404.51	2342.88
404.70	2417.77
404.89	2413.09
405.09	2455.22
405.28	2385.01
405.47	2560.55
405.66	2485.65
405.85	2438.84
406.05	2450.54
406.24	2537.14
406.43	2516.08
406.62	2616.72
406.81	2703.32
407.00	2633.10
407.20	2656.51
407.39	2462.24
407.58	2705.66
407.77	2733.75
407.96	2778.22
408.15	2785.24
408.34	2761.83
408.54	2869.50
408.73	2813.32
408.92	2743.11
409.11	2743.11
409.30	2869.50
409.49	2841.41
409.68	2897.58
409.87	2895.24
410.07	3028.65
410.26	3021.63
410.45	3021.63
410.64	3141.00
410.83	3098.87
411.02	3052.06
411.21	3201.85
411.40	3208.87
411.59	3208.87
411.78	3143.34
411.98	3269.73
412.17	3190.15
412.36	3300.16
412.55	3208.87
412.74	3454.63
412.93	3454.63
413.12	3283.77
413.31	3562.30
413.50	3419.52
413.69	3447.61
413.88	3496.76
414.07	3520.17
414.26	3555.27
414.45	3613.79
414.64	3637.19
414.83	3709.75
415.02	3735.50
415.22	3789.33
415.41	3875.93
415.60	3875.93
415.79	3810.39
415.98	3927.42
416.17	3955.51
416.36	3824.44
416.55	3894.65
416.74	4037.42
416.93	4028.06
417.12	4049.13
417.31	4257.43
417.50	4306.59
417.69	4407.23
417.88	4224.67
418.07	4271.48
418.26	4311.27
418.45	4299.56
418.64	4386.16
418.83	4381.48
419.02	4418.93
419.21	4456.38
419.39	4603.83
419.58	4493.83
419.77	4468.08
419.96	4435.32
420.15	4479.79
420.34	4564.04
420.53	4573.41
420.72	4727.88
420.91	4617.88
421.10	4690.43
421.29	4793.42
421.48	4519.57
421.67	4760.65
421.86	4744.27
422.05	4798.10
422.24	4732.56
422.43	4793.42
422.61	4760.65
422.80	4938.53
422.99	5020.45
423.18	4952.57
423.37	5125.77
423.56	4858.95
423.75	4961.94
423.94	4894.06
424.13	4622.56
424.32	4704.48
424.50	4924.49
424.69	5048.54
424.88	5102.37
425.07	4983.00
425.26	5034.49
425.45	4880.02
425.64	4936.19
425.83	5013.43
426.01	5027.47
426.20	5071.94
426.39	5158.54
426.58	5050.88
426.77	5088.32
426.96	5074.28
427.15	5135.14
427.33	5053.22
427.52	5221.74
427.71	5130.45
427.90	5317.70
428.09	5177.26
428.28	5366.85
428.46	5444.09
428.65	5256.84
428.84	5439.40
429.03	5500.26
429.22	5172.58
429.40	5413.66
429.59	5460.47
429.78	5275.57
429.97	5408.98
430.16	5493.24
430.34	5427.70
430.53	5554.09
430.72	5753.04
430.91	5715.59
431.10	5636.01
431.28	5673.46
431.47	5699.20
431.66	5624.31
431.85	5593.88
432.03	5956.66
432.22	5916.87
432.41	5856.02
432.60	5935.60
432.79	6003.47
432.97	6054.97
433.16	6045.60
433.35	5966.03
433.54	5888.79
433.72	6087.73
433.91	6087.73
434.10	6179.01
434.28	6094.76
434.47	6033.90
434.66	6300.72
434.85	6286.68
435.03	6253.91
435.22	6317.11
435.41	6562.86
435.59	6328.81
435.78	6537.12
435.97	6441.15
436.16	6317.11
436.34	6415.41
436.53	6595.63
436.72	6590.95
436.90	6494.99
437.09	6621.38
437.28	6485.62
437.46	6600.31
437.65	6686.91
437.84	6633.08
438.02	6759.47
438.21	6892.88
438.40	6801.60
438.58	6834.36
438.77	7009.90
438.96	6883.52
439.14	7016.93
439.33	7133.95
439.52	7131.61
439.70	7276.73
439.89	7232.26
440.08	7253.32
440.26	7384.39
440.45	7368.01
440.63	7517.80
440.82	7468.65
441.01	7494.40
441.19	7496.74
441.38	7698.02
441.57	7620.78
441.75	7779.94
441.94	8088.89
442.12	7903.99
442.31	8039.74
442.50	8039.74
442.68	7915.69
442.87	7864.20
443.05	8126.34
443.24	8145.06
443.43	8145.06
443.61	8456.36
443.80	8463.38
443.98	8011.65
444.17	7850.16
444.35	8322.94
444.54	8322.94
444.73	8234.00
444.91	8182.51
445.10	8372.10
445.28	8147.40
445.47	8238.69
445.65	8418.91
445.84	8465.72
446.02	8421.25
446.21	8374.44
446.39	8264.43
446.58	8456.36
446.77	8444.65
446.95	8306.56
447.14	8463.38
447.32	8486.78
447.51	8439.97
447.69	8372.10
447.88	8407.20
448.06	8486.78
448.25	8676.37
448.43	8664.66
448.62	8592.11
448.80	8402.52
448.99	8629.56
449.17	8889.35
449.36	8828.50
449.54	8678.71
449.73	8854.25
449.91	8903.40
450.10	9013.40
450.28	9008.72
450.46	9018.08
450.65	8919.78
450.83	8997.02
451.02	8870.63
451.20	9373.85
451.39	9151.49
451.57	9008.72
451.76	9048.51
451.94	9312.99
452.13	9418.32
452.31	9240.44
452.49	9184.26
452.68	9219.37
452.86	9366.82
453.05	9535.34
453.23	9394.91
453.42	9336.40
453.60	9266.18
453.78	9383.21
453.97	9420.66
454.15	9556.41
454.34	9502.58
454.52	9551.73
454.70	9802.16
454.89	9563.43
455.07	9535.34
455.26	9799.82
455.44	10017.49
455.62	9888.76
455.81	9839.61
455.99	10085.37
456.17	9949.62
456.36	9867.70
456.54	10019.83
456.73	10169.63
456.91	10286.65
457.09	10242.18
457.28	10494.96
457.46	10122.82
457.64	10483.26
457.83	10420.06
458.01	10436.45
458.19	10623.69
458.38	10546.45
458.56	10794.55
458.74	10803.91
458.93	10780.51
459.11	10459.85
459.29	10686.89
459.48	10916.26
459.66	10937.32
459.84	10876.47
460.03	11054.35
460.21	10892.85
460.39	11012.22
460.57	10951.37
460.76	11005.20
460.94	11119.89
461.12	11272.02
461.31	11019.24
461.49	11218.19
461.67	11180.74
461.85	11260.32
462.04	11119.89
462.22	11639.48
462.40	11580.97
462.59	11431.18
462.77	11199.46
462.95	11426.50
463.13	11531.82
463.32	11662.89
463.50	11702.68
463.68	11798.64
463.86	11686.29
464.05	11679.27
464.23	11751.83
464.41	11925.03
464.59	11580.97
464.78	12156.74
464.96	12051.42
465.14	11728.42
465.32	12056.10
465.50	12259.73
465.69	12222.28
465.87	12142.70
466.05	12065.46
466.23	12072.48
466.41	12351.01
466.60	12395.48
466.78	11990.56
466.96	12264.41
467.14	12407.18
467.32	12283.13
467.51	12645.91
467.69	12241.00
467.87	12388.46
468.05	12856.56
468.23	12276.11
468.41	12376.75
468.60	12503.14
468.78	12627.19
468.96	12545.27
469.14	12821.45
469.32	12996.99
469.50	12463.35
469.69	13074.23
469.87	13224.03
470.05	12999.34
470.23	13217.01
470.41	13174.88
470.59	13277.86
470.77	13144.45
470.95	13235.73
471.14	13537.66
471.32	13228.71
471.50	13429.99
471.68	13650.00
471.86	13834.91
472.04	13935.55
472.22	13839.59
472.40	13497.87
472.58	13743.63
472.77	13778.73
472.95	14115.77
473.13	14597.92
473.31	14003.43
473.49	14043.21
473.67	13998.74
473.85	14125.13
474.03	14607.28
474.21	14590.90
474.39	14483.24
474.57	14555.79
474.75	14684.52
474.93	15012.20
475.12	14670.48
475.30	15105.82
475.48	14829.63
475.66	15232.21
475.84	15082.41
476.02	15353.91
476.20	15321.15
476.38	15660.52
476.56	15749.46
476.74	15878.19
476.92	15854.79
477.10	15754.15
477.28	16102.89
477.46	16077.14
477.64	16154.38
477.82	16437.58
478.00	16769.94
478.18	16788.66
478.36	16896.33
478.54	17111.66
478.72	17284.86
478.90	17329.33
479.08	17462.74
479.26	17755.30
479.44	17748.28
479.62	17710.83
479.80	17853.61
479.98	17954.25
480.16	18504.28
480.34	18611.94
480.52	18494.91
480.70	18478.53
480.88	18300.65
481.06	18735.99
481.24	18689.18
481.41	18766.42
481.59	19360.91
481.77	19330.48
481.95	19564.54
482.13	19653.48
482.31	19674.54
482.49	20325.21
482.67	19943.70
482.85	20367.34
483.03	20699.70
483.21	20893.96
483.39	20812.04
483.57	20882.26
483.74	20783.96
483.92	20870.56
484.10	20996.95
484.28	21568.04
484.46	21549.31
484.64	22288.92
484.82	21572.72
485.00	22122.74
485.18	22572.13
485.35	22668.09
485.53	22609.58
485.71	22888.10
485.89	23264.92
486.07	23445.15
486.25	23131.51
486.43	23391.31
486.61	23388.97
486.78	24063.05
486.96	24018.58
487.14	24514.77
487.32	24453.92
487.50	24622.44
487.68	24889.26
487.85	24907.98
488.03	25465.03
488.21	25982.29
488.39	25816.11
488.57	26022.08
488.75	26197.62
488.92	26162.51
489.10	26595.51
489.28	26623.59
489.46	27166.60
489.64	27016.80
489.81	27618.32
489.99	27555.13
490.17	27508.32
490.35	27997.49
490.53	27922.59
490.70	28072.39
490.88	28091.11
491.06	28655.18
491.24	28449.21
491.41	28980.51
491.59	29254.36
491.77	29160.73
491.95	29319.89
492.13	29809.06
492.30	29748.21
492.48	29743.53
492.66	30157.80
492.84	30389.52
493.01	30452.71
493.19	30298.23
493.37	30906.77
493.54	31349.14
493.72	31292.96
493.90	31395.95
494.08	31803.20
494.25	31924.91
494.43	32283.01
494.61	32128.53
494.79	32442.17
494.96	32161.30
495.14	32500.68
495.32	32891.55
495.49	32779.20
495.67	33184.12
495.85	33528.17
496.02	33624.14
496.20	33909.68
496.38	34192.89
496.55	34066.50
496.73	34714.83
496.91	33830.10
497.09	34412.90
497.26	34466.73
497.44	34712.49
497.62	35356.13
497.79	35620.61
497.97	35693.17
498.14	36058.29
498.32	35929.56
498.50	36226.81
498.67	36229.15
498.85	36196.38
499.03	36325.11
499.20	36446.82
499.38	36711.30
499.56	36608.32
499.73	36786.20
499.91	37038.98
500.08	37614.75
500.26	37177.07
500.44	37160.69
500.61	37935.40
500.79	37860.51
500.97	37991.58
501.14	38061.79
501.32	38164.78
501.49	38478.41
501.67	38707.78
501.84	38679.69
502.02	38738.21
502.20	38967.58
502.37	39508.24
502.55	38965.24
502.72	39082.27
502.90	39398.24
503.07	39695.49
503.25	39674.42
503.43	39737.62
503.60	40032.52
503.78	40065.29
503.95	39793.79
504.13	40528.72
504.30	40388.28
504.48	40502.97
504.65	40280.62
504.83	41001.50
505.01	40935.97
505.18	41324.50
505.36	41343.22
505.53	41560.89
505.71	41113.85
505.88	41359.61
506.06	41167.68
506.23	41329.18
506.41	41462.59
506.58	42003.25
506.76	42143.69
506.93	42562.64
507.11	42244.33
507.28	42153.05
507.46	42466.68
507.63	42424.55
507.81	43044.79
507.98	42719.46
508.16	42986.28
508.33	43470.77
508.50	43133.73
508.68	43421.62
508.85	43342.04
509.03	43723.55
509.20	43945.90
509.38	44172.93
509.55	44254.85
509.73	44191.65
509.90	44596.57
510.08	44664.44
510.25	45127.87
510.42	44451.45
510.60	44325.07
510.77	44699.55
510.95	45565.55
511.12	45064.67
511.30	45233.19
511.47	45368.94
511.64	45256.60
511.82	45949.40
511.99	45624.06
512.17	45872.16
512.34	45556.19
512.51	46230.26
512.69	46155.36
512.86	46057.06
513.04	46862.21
513.21	46422.19
513.38	46522.83
513.56	46541.55
513.73	46518.15
513.90	46939.44
514.08	46817.74
514.25	47559.69
514.43	47047.11
514.60	47164.14
514.77	47522.24
514.95	47620.54
515.12	47449.68
515.29	47772.67
515.47	47945.87
515.64	48137.80
515.81	47679.05
515.99	47957.58
516.16	48175.25
516.33	47917.79
516.51	48374.19
516.68	48208.01
516.85	48294.61
517.03	48554.41
517.20	48751.02
517.37	48760.38
517.54	48601.22
517.72	48839.96
517.89	48966.35
518.06	49258.91
518.24	48870.39
518.41	48982.73
518.58	48879.75
518.75	49242.53
518.93	49071.67
519.10	49069.33
519.27	49600.63
519.45	49698.94
519.62	49720.00
519.79	49378.28
519.96	50012.57
520.14	50265.34
520.31	49940.01
520.48	50145.98
520.65	50202.15
520.83	50258.32
521.00	50653.87
521.17	50529.83
521.34	50450.25
521.52	50609.40
521.69	50763.88
521.86	50721.75
522.03	51079.85
522.20	51327.95
522.38	51079.85
522.55	51262.41
522.72	51175.81
522.89	50990.91
523.07	51693.07
523.24	51283.48
523.41	51690.73
523.58	51330.29
523.75	51756.27
523.92	51260.07
524.10	51831.16
524.27	51845.21
524.44	51615.83
524.61	52018.41
524.78	52130.75
524.96	52102.67
525.13	52151.82
525.30	51941.17
525.47	52512.26
525.64	52294.59
525.81	52484.17
525.98	52549.71
526.16	52273.52
526.33	52858.66
526.50	52954.62
526.67	52463.11
526.84	52753.33
527.01	52659.71
527.18	52853.98
527.36	52608.22
527.53	53092.71
527.70	53368.90
527.87	53176.97
528.04	53113.78
528.21	53275.27
528.38	53263.57
528.55	53291.66
528.72	53003.77
528.89	53228.46
529.07	53244.85
529.24	53242.51
529.41	53584.22
529.58	53251.87
529.75	53797.21
529.92	53361.87
530.09	53865.09
530.26	53757.42
530.43	53876.79
530.60	53986.80
530.77	53715.29
530.94	53921.26
531.11	54169.36
531.28	53970.41
531.46	54335.54
531.63	53956.37
531.80	54052.33
531.97	54307.45
532.14	54274.68
532.31	54298.09
532.48	54431.50
532.65	54590.66
532.82	54270.00
532.99	54787.26
533.16	54700.66
533.33	54482.99
533.50	54843.43
533.67	54508.74
533.84	54513.42
534.01	54721.72
534.18	54560.23
534.35	55035.36
534.52	54782.58
534.69	54958.12
534.86	55253.03
535.03	54857.48
535.20	55042.38
535.37	55360.69
535.54	55489.42
535.71	55128.98
535.88	55297.50
536.05	55257.71
536.22	55416.86
536.38	55545.59
536.55	55501.12
536.72	55285.79
536.89	55503.46
537.06	55475.38
537.23	55550.27
537.40	55320.90
537.57	55477.72
537.74	55566.66
537.91	55517.51
538.08	55927.10
538.25	55569.00
538.42	55831.14
538.59	56041.79
538.75	55786.67
538.92	55826.46
539.09	56109.66
539.26	55994.98
539.43	55884.97
539.60	56191.58
539.77	55847.52
539.94	56217.33
540.11	56264.14
540.28	56587.13
540.44	56308.61
540.61	56364.78
540.78	56245.41
540.95	56545.00
541.12	56275.84
541.29	56437.34
541.46	56334.35
541.62	56570.75
541.79	56729.90
541.96	56322.65
542.13	56584.79
542.30	56790.76
542.47	56439.68
542.63	56750.97
542.80	56830.55
542.97	56748.63
543.14	56985.02
543.31	57190.99
543.48	57186.31
543.64	57284.61
543.81	57303.34
543.98	57399.30
544.15	57158.22
544.32	57130.14
544.48	57467.17
544.65	57322.06
544.82	57446.11
544.99	57265.89
545.16	57310.36
545.32	57296.31
545.49	57724.63
545.66	57506.96
545.83	57389.94
546.00	57677.82
546.16	57471.85
546.33	57523.35
546.50	57420.36
546.67	57523.35
546.83	57066.94
547.00	57579.52
547.17	57488.24
547.34	57574.84
547.50	57733.99
547.67	57928.26
547.84	57958.69
548.00	57946.98
548.17	57989.11
548.34	57897.83
548.51	58190.40
548.67	58068.69
548.84	58106.14
549.01	57904.85
549.18	58061.67
549.34	58110.82
549.51	58260.62
549.68	58433.81
549.84	58124.86
550.01	58450.20
550.18	58031.24
550.34	58323.81
550.51	58248.91
550.68	58265.30
550.84	58239.55
551.01	58515.73
551.18	58300.40
551.34	58291.04
551.51	58520.41
551.68	58548.50
551.84	58581.27
552.01	58450.20
552.18	58585.95
552.34	58314.45
552.51	58511.05
552.68	58644.46
552.84	58499.35
553.01	58679.57
553.18	58597.65
553.34	58574.25
553.51	58667.87
553.67	58754.47
553.84	58838.73
554.01	58824.68
554.17	58990.86
554.34	58918.31
554.51	59037.67
554.67	58920.65
554.84	58791.92
555.00	58932.35
555.17	58981.50
555.33	58953.41
555.50	58817.66
555.67	58951.07
555.83	58969.80
556.00	59124.27
556.16	59192.15
556.33	59245.98
556.50	59154.70
556.66	59260.02
556.83	59182.79
556.99	59360.67
557.16	59320.88
557.32	59522.16
557.49	59519.82
557.65	59199.17
557.82	59473.01
557.98	59320.88
558.15	59414.50
558.32	59538.55
558.48	59128.95
558.65	59377.05
558.81	59508.12
558.98	59365.35
559.14	59620.47
559.31	59688.34
559.47	59503.44
559.64	59442.59
559.80	59686.00
559.97	59627.49
560.13	59550.25
560.30	59625.15
560.46	59749.20
560.63	59559.61
560.79	59686.00
560.96	59594.72
561.12	59707.07
561.29	59810.05
561.45	59793.67
561.61	59999.63
561.78	59798.35
561.94	59657.91
562.11	59646.21
562.27	59786.64
562.44	59798.35
562.60	59863.88
562.77	59924.74
562.93	59627.49
563.10	60046.44
563.26	59718.77
563.42	60200.92
563.59	59992.61
563.75	60104.96
563.92	59891.97
564.08	59908.35
564.24	60001.97
564.41	59868.56
564.57	60051.12
564.74	59952.82
564.90	60196.24
565.07	60130.70
565.23	59908.35
565.39	60243.05
565.56	60158.79
565.72	60102.62
565.88	60161.13
566.05	59955.16
566.21	60217.30
566.38	60102.62
566.54	60072.19
566.70	60268.79
566.87	60088.57
567.03	60060.49
567.19	60231.35
567.36	60250.07
567.52	60088.57
567.68	60587.11
567.85	60126.02
568.01	60486.46
568.17	60004.31
568.34	60411.57
568.50	60079.21
568.66	60348.37
568.83	60252.41
568.99	60275.82
569.15	60245.39
569.32	60224.32
569.48	60406.89
569.64	60360.08
569.81	60575.40
569.97	60203.26
570.13	60474.76
570.30	60406.89
570.46	60474.76
570.62	60289.86
570.78	60514.55
570.95	60329.65
571.11	60404.55
571.27	60385.82
571.43	60554.34
571.60	60439.65
571.76	60385.82
571.92	60486.46
572.09	60474.76
572.25	60563.70
572.41	60432.63
572.57	60491.15
572.74	60647.96
572.90	60666.69
573.06	60509.87
573.22	60395.18
573.38	60739.24
573.55	60577.75
573.71	60708.82
573.87	60701.79
574.03	60467.74
574.20	60619.88
574.36	60540.30
574.52	60598.81
574.68	60697.11
574.84	60882.02
575.01	60711.16
575.17	60533.28
575.33	60596.47
575.49	60554.34
575.65	60779.03
575.82	60750.94
575.98	60589.45
576.14	60722.86
576.30	60647.96
576.46	60678.39
576.62	60741.58
576.79	60495.83
576.95	60521.57
577.11	60804.78
577.27	60903.08
577.43	60802.44
577.59	60563.70
577.75	60575.40
577.92	60729.88
578.08	60640.94
578.24	60697.11
578.40	60809.46
578.56	60835.20
578.72	60842.23
578.88	60907.76
579.04	61001.38
579.21	60874.99
579.37	60767.33
579.53	60914.78
579.69	60713.50
579.85	60884.36
580.01	60633.92
580.17	60629.24
580.33	60825.84
580.49	60905.42
580.65	60800.10
580.82	60860.95
580.98	60739.24
581.14	60533.28
581.30	60893.72
581.46	60647.96
581.62	60828.18
581.78	60830.52
581.94	60687.75
582.10	60872.65
582.26	60900.74
582.42	60743.92
582.58	60905.42
582.74	60704.13
582.90	60753.29
583.06	60856.27
583.22	60669.03
583.38	60762.65
583.54	60818.82
583.70	61052.87
583.86	61130.11
584.02	60959.25
584.18	60917.12
584.34	60851.59
584.50	61050.53
584.66	60769.67
584.82	60882.02
584.98	60963.93
585.14	60870.31
585.30	60886.70
585.46	61050.53
585.62	60945.21
585.78	60942.87
585.94	60748.60
586.10	60968.61
586.26	60786.05
586.42	60867.97
586.58	61172.24
586.74	60851.59
586.90	60884.36
587.06	60994.36
587.22	60996.70
587.38	60903.08
587.54	61109.05
587.70	61146.50
587.86	60807.12
588.02	60999.04
588.18	60879.67
588.34	60935.85
588.49	61076.28
